##NAMES=Vistepite
##RRUFFID=R070712
##IDEAL CHEMISTRY=Mn^2+^_4_Sn^4+^B_2_O_2_(Si_2_O_7_)_2_(OH)_2_
##LOCALITY=Rhodonite occurrence, Muzeinyi Valley, Inyl'chek Range, Issyk-Kul'skaya Oblast, Kyrgyzstan
##OWNER=RRUFF
##SOURCE=Michael Scott
##DESCRIPTION=Yellow gemmy fragments associated with rhodonite. Portion of type sample.
##STATUS=The identification of this mineral has been confirmed by single-crystal X-ray diffraction.
##URL=rruff.info/R070712
152.4291, 4897.116
152.9112, 4888.467
153.3933, 4890.919
153.8755, 4901.181
154.3576, 4930.514
154.8397, 4956.174
155.3218, 4969.100
155.8039, 4965.506
156.2860, 4973.440
156.7682, 5004.427
157.2503, 5047.539
157.7324, 5089.564
158.2145, 5115.419
158.6966, 5148.570
159.1787, 5198.547
159.6609, 5268.044
160.1430, 5351.170
160.6251, 5454.110
161.1072, 5569.267
161.5893, 5679.927
162.0714, 5794.563
162.5536, 5893.733
163.0357, 5964.878
163.5178, 6009.842
163.9999, 6021.633
164.4820, 5990.999
164.9641, 5921.280
165.4463, 5832.247
165.9284, 5717.628
166.4105, 5594.092
166.8926, 5479.589
167.3747, 5367.336
167.8568, 5275.118
168.3390, 5220.046
168.8211, 5205.077
169.3032, 5200.723
169.7853, 5187.833
170.2674, 5172.545
170.7495, 5165.655
171.2317, 5175.934
171.7138, 5195.290
172.1959, 5217.915
172.6780, 5245.344
173.1601, 5268.576
173.6422, 5286.647
174.1244, 5296.090
174.6065, 5285.334
175.0886, 5238.542
175.5707, 5169.689
176.0528, 5096.257
176.5349, 5015.147
177.0171, 4941.355
177.4992, 4896.517
177.9813, 4878.338
178.4634, 4864.242
178.9455, 4838.848
179.4276, 4804.704
179.9098, 4766.211
180.3919, 4713.806
180.8740, 4663.497
181.3561, 4645.721
181.8382, 4661.788
182.3203, 4685.739
182.8025, 4693.547
183.2846, 4687.747
183.7667, 4678.707
184.2488, 4667.933
184.7309, 4657.263
185.2130, 4651.854
185.6951, 4651.758
186.1773, 4657.241
186.6594, 4672.443
187.1415, 4696.299
187.6236, 4717.006
188.1057, 4726.057
188.5878, 4725.851
189.0700, 4728.371
189.5521, 4734.863
190.0342, 4743.817
190.5163, 4752.925
190.9984, 4761.970
191.4805, 4770.951
191.9627, 4776.917
192.4448, 4780.580
192.9269, 4793.010
193.4090, 4818.285
193.8911, 4852.053
194.3732, 4883.703
194.8554, 4914.373
195.3375, 4938.375
195.8196, 4946.504
196.3017, 4938.423
196.7838, 4935.448
197.2659, 4943.177
197.7481, 4960.815
198.2302, 4981.990
198.7123, 5006.023
199.1944, 5035.979
199.6765, 5077.424
200.1586, 5132.225
200.6408, 5187.731
201.1229, 5240.458
201.6050, 5289.955
202.0871, 5338.356
202.5692, 5387.502
203.0513, 5432.581
203.5335, 5461.484
204.0156, 5469.029
204.4977, 5481.563
204.9798, 5515.847
205.4619, 5576.487
205.9440, 5622.776
206.4262, 5653.442
206.9083, 5668.870
207.3904, 5665.918
207.8725, 5637.570
208.3546, 5609.734
208.8367, 5598.573
209.3189, 5607.931
209.8010, 5617.443
210.2831, 5624.431
210.7652, 5630.403
211.2473, 5640.311
211.7294, 5650.851
212.2116, 5672.137
212.6937, 5716.887
213.1758, 5797.583
213.6579, 5862.522
214.1400, 5901.515
214.6221, 5916.563
215.1043, 5933.879
215.5864, 5958.434
216.0685, 5978.883
216.5506, 5980.179
217.0327, 5950.697
217.5148, 5932.407
217.9970, 5938.274
218.4791, 5970.130
218.9612, 5992.158
219.4433, 6000.842
219.9254, 6002.662
220.4075, 6005.778
220.8897, 6010.763
221.3718, 6015.478
221.8539, 6022.619
222.3360, 6037.506
222.8181, 6027.139
223.3002, 5980.312
223.7824, 5915.120
224.2645, 5866.399
224.7466, 5844.021
225.2287, 5820.307
225.7108, 5781.897
226.1929, 5717.016
226.6750, 5671.858
227.1572, 5655.001
227.6393, 5655.844
228.1214, 5644.517
228.6035, 5607.293
229.0856, 5578.597
229.5677, 5578.554
230.0499, 5625.796
230.5320, 5658.826
231.0141, 5673.274
231.4962, 5671.372
231.9783, 5660.882
232.4604, 5635.468
232.9426, 5609.670
233.4247, 5593.328
233.9068, 5596.106
234.3889, 5588.412
234.8710, 5562.589
235.3531, 5521.455
235.8353, 5493.073
236.3174, 5483.226
236.7995, 5479.715
237.2816, 5473.021
237.7637, 5458.755
238.2458, 5449.880
238.7280, 5448.262
239.2101, 5453.875
239.6922, 5465.069
240.1743, 5485.428
240.6564, 5507.775
241.1385, 5524.014
241.6207, 5525.099
242.1028, 5536.749
242.5849, 5566.853
243.0670, 5617.282
243.5491, 5662.310
244.0313, 5702.208
244.5134, 5736.490
244.9955, 5763.908
245.4776, 5780.817
245.9597, 5797.321
246.4418, 5816.406
246.9240, 5838.991
247.4061, 5860.096
247.8882, 5884.532
248.3703, 5903.954
248.8524, 5904.859
249.3345, 5878.871
249.8167, 5848.595
250.2988, 5818.826
250.7809, 5787.527
251.2630, 5766.316
251.7451, 5764.979
252.2272, 5768.040
252.7094, 5746.371
253.1915, 5688.863
253.6736, 5624.879
254.1557, 5561.789
254.6378, 5492.621
255.1199, 5445.867
255.6021, 5428.947
256.0842, 5431.181
256.5663, 5430.976
257.0484, 5430.377
257.5305, 5423.765
258.0126, 5408.092
258.4948, 5380.402
258.9769, 5351.143
259.4590, 5317.256
259.9411, 5283.040
260.4232, 5259.619
260.9053, 5249.434
261.3875, 5245.698
261.8696, 5245.968
262.3517, 5252.041
262.8338, 5256.400
263.3159, 5258.070
263.7980, 5257.876
264.2802, 5256.456
264.7623, 5248.359
265.2444, 5249.686
265.7265, 5274.545
266.2086, 5331.936
266.6907, 5377.542
267.1729, 5405.348
267.6550, 5418.501
268.1371, 5429.256
268.6192, 5437.428
269.1013, 5443.102
269.5834, 5443.468
270.0656, 5434.887
270.5477, 5438.766
271.0298, 5462.503
271.5119, 5499.864
271.9940, 5525.369
272.4761, 5538.328
272.9583, 5540.939
273.4404, 5531.496
273.9225, 5506.902
274.4046, 5487.865
274.8867, 5476.906
275.3688, 5473.875
275.8510, 5479.454
276.3331, 5495.539
276.8152, 5514.629
277.2973, 5530.338
277.7794, 5542.213
278.2615, 5555.257
278.7437, 5570.982
279.2258, 5588.546
279.7079, 5605.154
280.1900, 5621.646
280.6721, 5634.104
281.1542, 5637.709
281.6364, 5632.155
282.1185, 5625.277
282.6006, 5616.251
283.0827, 5607.699
283.5648, 5614.596
284.0469, 5640.388
284.5291, 5663.965
285.0112, 5663.989
285.4933, 5640.983
285.9754, 5611.688
286.4575, 5577.269
286.9396, 5540.431
287.4217, 5511.745
287.9038, 5491.663
288.3860, 5475.568
288.8681, 5459.586
289.3502, 5443.782
289.8323, 5428.041
290.3144, 5411.400
290.7965, 5395.141
291.2787, 5383.358
291.7608, 5376.157
292.2429, 5371.824
292.7250, 5372.762
293.2071, 5376.790
293.6892, 5371.965
294.1714, 5346.971
294.6535, 5314.183
295.1356, 5303.688
295.6177, 5316.460
296.0998, 5332.643
296.5819, 5331.708
297.0641, 5318.523
297.5462, 5309.175
298.0283, 5311.141
298.5104, 5319.099
298.9925, 5322.119
299.4746, 5320.135
299.9568, 5322.921
300.4389, 5347.958
300.9210, 5384.508
301.4031, 5408.024
301.8852, 5398.266
302.3673, 5377.005
302.8495, 5373.313
303.3316, 5386.834
303.8137, 5403.509
304.2958, 5413.209
304.7779, 5417.836
305.2600, 5420.578
305.7422, 5418.149
306.2243, 5417.188
306.7064, 5426.463
307.1885, 5445.543
307.6706, 5464.103
308.1527, 5476.558
308.6349, 5483.743
309.1170, 5486.581
309.5991, 5473.764
310.0812, 5465.372
310.5633, 5483.073
311.0454, 5525.225
311.5276, 5560.498
312.0097, 5557.949
312.4918, 5542.528
312.9739, 5542.091
313.4560, 5584.113
313.9381, 5629.302
314.4203, 5653.399
314.9024, 5658.246
315.3845, 5664.199
315.8666, 5682.990
316.3487, 5706.485
316.8308, 5726.992
317.3130, 5736.446
317.7951, 5747.803
318.2772, 5767.800
318.7593, 5795.608
319.2414, 5821.018
319.7235, 5836.851
320.2057, 5850.882
320.6878, 5869.287
321.1699, 5905.583
321.6520, 5934.267
322.1341, 5940.470
322.6162, 5927.612
323.0984, 5929.865
323.5805, 5965.020
324.0626, 6010.979
324.5447, 6052.857
325.0268, 6087.616
325.5089, 6119.563
325.9911, 6147.150
326.4732, 6170.856
326.9553, 6198.308
327.4374, 6228.119
327.9195, 6262.748
328.4016, 6304.048
328.8838, 6368.204
329.3659, 6418.070
329.8480, 6442.679
330.3301, 6447.283
330.8122, 6466.800
331.2943, 6515.652
331.7765, 6565.082
332.2586, 6599.019
332.7407, 6611.429
333.2228, 6619.275
333.7049, 6623.854
334.1870, 6624.771
334.6692, 6620.688
335.1513, 6613.068
335.6334, 6598.421
336.1155, 6573.076
336.5976, 6531.762
337.0797, 6498.051
337.5619, 6481.037
338.0440, 6469.074
338.5261, 6421.265
339.0082, 6322.171
339.4903, 6233.549
339.9724, 6199.876
340.4546, 6229.884
340.9367, 6233.165
341.4188, 6198.516
341.9009, 6142.759
342.3830, 6098.719
342.8651, 6066.985
343.3473, 6043.266
343.8294, 6032.274
344.3115, 6032.063
344.7936, 6012.788
345.2757, 5966.941
345.7578, 5916.324
346.2400, 5898.205
346.7221, 5911.112
347.2042, 5924.943
347.6863, 5923.059
348.1684, 5909.926
348.6505, 5897.953
349.1327, 5886.078
349.6148, 5881.404
350.0969, 5898.842
350.5790, 5932.671
351.0611, 5961.247
351.5432, 5974.579
352.0254, 5975.838
352.5075, 5966.317
352.9896, 5944.830
353.4717, 5924.914
353.9538, 5924.286
354.4359, 5934.247
354.9181, 5937.702
355.4002, 5911.638
355.8823, 5885.622
356.3644, 5894.872
356.8465, 5940.293
357.3286, 5980.507
357.8108, 5980.494
358.2929, 5961.859
358.7750, 5952.893
359.2571, 5976.625
359.7392, 6002.266
360.2213, 6007.677
360.7035, 5994.638
361.1856, 5991.653
361.6677, 6022.960
362.1498, 6064.120
362.6319, 6094.266
363.1140, 6092.298
363.5962, 6094.224
364.0783, 6111.171
364.5604, 6141.698
365.0425, 6175.383
365.5246, 6220.316
366.0067, 6261.046
366.4889, 6288.104
366.9710, 6288.022
367.4531, 6289.104
367.9352, 6292.094
368.4173, 6297.661
368.8994, 6308.875
369.3815, 6334.301
369.8636, 6357.927
370.3458, 6371.989
370.8279, 6365.903
371.3100, 6368.809
371.7921, 6384.516
372.2742, 6408.336
372.7563, 6428.875
373.2385, 6444.626
373.7206, 6459.088
374.2027, 6471.274
374.6848, 6477.126
375.1669, 6499.593
375.6490, 6548.364
376.1312, 6603.596
376.6133, 6633.726
377.0954, 6636.423
377.5775, 6623.151
378.0596, 6593.125
378.5417, 6547.545
379.0239, 6509.645
379.5060, 6482.078
379.9881, 6455.343
380.4702, 6415.863
380.9523, 6363.858
381.4344, 6315.403
381.9166, 6276.099
382.3987, 6244.095
382.8808, 6213.449
383.3629, 6184.689
383.8450, 6151.739
384.3271, 6101.330
384.8093, 6040.796
385.2914, 5995.122
385.7735, 5978.656
386.2556, 5974.306
386.7377, 5960.244
387.2198, 5937.433
387.7020, 5912.475
388.1841, 5891.768
388.6662, 5871.713
389.1483, 5846.358
389.6304, 5810.611
390.1125, 5775.875
390.5947, 5747.682
391.0768, 5726.622
391.5589, 5715.247
392.0410, 5724.738
392.5231, 5738.321
393.0052, 5743.897
393.4874, 5737.893
393.9695, 5727.290
394.4516, 5707.836
394.9337, 5686.118
395.4158, 5674.242
395.8979, 5679.172
396.3801, 5691.214
396.8622, 5709.168
397.3443, 5736.863
397.8264, 5755.456
398.3085, 5752.527
398.7906, 5742.334
399.2728, 5742.316
399.7549, 5774.881
400.2370, 5792.821
400.7191, 5779.198
401.2012, 5730.378
401.6833, 5706.377
402.1655, 5717.609
402.6476, 5743.759
403.1297, 5769.453
403.6118, 5798.116
404.0939, 5817.830
404.5760, 5824.034
405.0582, 5819.641
405.5403, 5821.335
406.0224, 5832.005
406.5045, 5840.235
406.9866, 5832.381
407.4688, 5806.481
407.9509, 5801.230
408.4330, 5826.258
408.9151, 5865.873
409.3972, 5886.530
409.8793, 5888.060
410.3615, 5887.604
410.8436, 5890.551
411.3257, 5898.923
411.8078, 5922.496
412.2899, 5964.678
412.7720, 6010.048
413.2542, 6038.430
413.7363, 6054.300
414.2184, 6071.358
414.7005, 6101.614
415.1826, 6133.397
415.6647, 6148.990
416.1469, 6147.495
416.6290, 6149.445
417.1111, 6178.956
417.5932, 6218.133
418.0753, 6242.730
418.5574, 6227.649
419.0396, 6211.339
419.5217, 6208.776
420.0038, 6220.318
420.4859, 6248.051
420.9680, 6317.746
421.4501, 6388.963
421.9323, 6431.779
422.4144, 6419.201
422.8965, 6409.725
423.3786, 6410.610
423.8607, 6421.931
424.3428, 6443.311
424.8250, 6490.359
425.3071, 6534.396
425.7892, 6565.708
426.2713, 6583.435
426.7534, 6591.789
427.2355, 6585.347
427.7177, 6572.796
428.1998, 6567.330
428.6819, 6572.340
429.1640, 6576.438
429.6461, 6578.150
430.1282, 6577.076
430.6104, 6564.241
431.0925, 6537.735
431.5746, 6503.730
432.0567, 6463.887
432.5388, 6417.625
433.0209, 6385.875
433.5031, 6380.005
433.9852, 6385.766
434.4673, 6364.675
434.9494, 6317.525
435.4315, 6267.166
435.9136, 6226.949
436.3958, 6196.684
436.8779, 6177.314
437.3600, 6171.704
437.8421, 6170.220
438.3242, 6159.782
438.8063, 6144.523
439.2885, 6135.906
439.7706, 6150.494
440.2527, 6168.076
440.7348, 6168.181
441.2169, 6147.716
441.6990, 6125.273
442.1812, 6100.340
442.6633, 6082.699
443.1454, 6083.610
443.6275, 6134.005
444.1096, 6176.790
444.5917, 6182.346
445.0739, 6153.977
445.5560, 6142.843
446.0381, 6177.840
446.5202, 6220.358
447.0023, 6247.652
447.4844, 6239.758
447.9666, 6240.884
448.4487, 6259.203
448.9308, 6286.348
449.4129, 6297.578
449.8950, 6278.702
450.3771, 6267.078
450.8592, 6279.041
451.3413, 6318.678
451.8235, 6360.228
452.3056, 6409.590
452.7877, 6451.680
453.2698, 6459.840
453.7519, 6430.309
454.2340, 6409.719
454.7162, 6414.313
455.1983, 6437.616
455.6804, 6459.806
456.1625, 6481.207
456.6446, 6496.235
457.1267, 6495.392
457.6089, 6484.289
458.0910, 6479.499
458.5731, 6487.601
459.0552, 6497.567
459.5373, 6486.470
460.0194, 6463.729
460.5016, 6460.643
460.9837, 6509.806
461.4658, 6578.181
461.9479, 6638.036
462.4300, 6685.735
462.9121, 6727.109
463.3943, 6759.015
463.8764, 6787.756
464.3585, 6820.995
464.8406, 6845.595
465.3227, 6890.111
465.8048, 6974.517
466.2870, 7098.684
466.7691, 7207.451
467.2512, 7266.815
467.7333, 7329.390
468.2154, 7427.684
468.6975, 7582.310
469.1797, 7740.768
469.6618, 7908.704
470.1439, 8075.256
470.6260, 8206.267
471.1081, 8288.648
471.5902, 8366.936
472.0724, 8464.132
472.5545, 8583.624
473.0366, 8676.925
473.5187, 8741.301
474.0008, 8784.749
474.4829, 8812.208
474.9651, 8824.657
475.4472, 8832.383
475.9293, 8833.216
476.4114, 8835.172
476.8935, 8853.465
477.3756, 8887.891
477.8578, 8936.357
478.3399, 8995.745
478.8220, 9068.835
479.3041, 9158.945
479.7862, 9265.427
480.2683, 9392.619
480.7505, 9547.189
481.2326, 9724.997
481.7147, 9917.524
482.1968, 10117.20
482.6789, 10335.33
483.1610, 10579.33
483.6432, 10850.83
484.1253, 11137.24
484.6074, 11428.18
485.0895, 11732.67
485.5716, 12060.72
486.0537, 12461.73
486.5359, 12827.94
487.0180, 13152.34
487.5001, 13436.50
487.9822, 13695.24
488.4643, 13956.92
488.9464, 14142.99
489.4286, 14215.43
489.9107, 14167.19
490.3928, 14040.52
490.8749, 13830.56
491.3570, 13551.77
491.8391, 13207.74
492.3213, 12801.87
492.8034, 12373.71
493.2855, 11932.96
493.7676, 11486.89
494.2497, 11031.09
494.7318, 10570.28
495.2140, 10145.55
495.6961, 9807.934
496.1782, 9527.734
496.6603, 9264.454
497.1424, 8998.899
497.6245, 8759.843
498.1067, 8576.564
498.5888, 8434.991
499.0709, 8301.089
499.5530, 8153.444
500.0351, 8012.975
500.5172, 7887.970
500.9994, 7781.180
501.4815, 7688.115
501.9636, 7604.337
502.4457, 7534.592
502.9278, 7483.247
503.4099, 7467.188
503.8921, 7448.126
504.3742, 7424.734
504.8563, 7396.510
505.3384, 7357.376
505.8205, 7294.708
506.3026, 7246.023
506.7848, 7233.525
507.2669, 7262.850
507.7490, 7289.267
508.2311, 7313.733
508.7132, 7333.609
509.1953, 7340.045
509.6775, 7334.927
510.1596, 7341.061
510.6417, 7369.193
511.1238, 7410.612
511.6059, 7443.539
512.0880, 7469.925
512.5701, 7511.135
513.0522, 7593.469
513.5344, 7695.156
514.0165, 7787.003
514.4986, 7858.753
514.9807, 7934.951
515.4628, 8026.798
515.9449, 8134.434
516.4271, 8256.509
516.9092, 8415.789
517.3913, 8569.026
517.8734, 8687.249
518.3555, 8767.323
518.8376, 8885.111
519.3198, 9059.698
519.8019, 9267.608
520.2840, 9498.703
520.7661, 9756.577
521.2482, 10026.24
521.7303, 10308.14
522.2125, 10602.02
522.6946, 10898.12
523.1767, 11192.22
523.6588, 11512.05
524.1409, 11876.07
524.6230, 12274.28
525.1052, 12679.06
525.5873, 13089.40
526.0694, 13516.31
526.5515, 13982.90
527.0336, 14473.10
527.5157, 14940.00
527.9979, 15366.47
528.4800, 15757.41
528.9621, 16146.40
529.4442, 16504.36
529.9263, 16757.46
530.4084, 16860.40
530.8906, 16845.76
531.3727, 16732.76
531.8548, 16522.29
532.3369, 16212.01
532.8190, 15757.31
533.3011, 15222.75
533.7833, 14674.37
534.2654, 14088.59
534.7475, 13522.12
535.2296, 12978.54
535.7117, 12453.71
536.1938, 11934.25
536.6760, 11392.21
537.1581, 10894.21
537.6402, 10470.47
538.1223, 10128.60
538.6044, 9787.585
539.0865, 9436.694
539.5687, 9107.940
540.0508, 8846.578
540.5329, 8643.942
541.0150, 8463.104
541.4971, 8296.967
541.9792, 8144.688
542.4614, 8009.691
542.9435, 7890.749
543.4256, 7782.123
543.9077, 7679.403
544.3898, 7585.852
544.8719, 7506.299
545.3541, 7442.355
545.8362, 7383.570
546.3183, 7316.900
546.8004, 7255.323
547.2825, 7212.430
547.7646, 7207.557
548.2468, 7204.031
548.7289, 7197.350
549.2110, 7187.001
549.6931, 7169.740
550.1752, 7130.135
550.6573, 7104.690
551.1395, 7111.977
551.6216, 7159.021
552.1037, 7197.347
552.5858, 7225.025
553.0679, 7248.904
553.5500, 7278.028
554.0322, 7311.866
554.5143, 7341.461
554.9964, 7363.188
555.4785, 7381.671
555.9606, 7406.474
556.4427, 7436.246
556.9249, 7462.878
557.4070, 7485.056
557.8891, 7499.571
558.3712, 7498.637
558.8533, 7479.543
559.3354, 7464.567
559.8176, 7484.750
560.2997, 7506.935
560.7818, 7497.025
561.2639, 7414.248
561.7460, 7334.549
562.2281, 7279.526
562.7103, 7240.333
563.1924, 7182.897
563.6745, 7080.750
564.1566, 6995.640
564.6387, 6956.211
565.1208, 6968.840
565.6030, 6963.752
566.0851, 6940.577
566.5672, 6901.324
567.0493, 6836.270
567.5314, 6748.673
568.0135, 6688.748
568.4957, 6674.687
568.9778, 6678.035
569.4599, 6647.350
569.9420, 6591.164
570.4241, 6546.917
570.9063, 6547.354
571.3884, 6561.348
571.8705, 6554.348
572.3526, 6525.028
572.8347, 6499.989
573.3168, 6493.137
573.7990, 6496.777
574.2811, 6505.060
574.7632, 6525.004
575.2453, 6537.900
575.7274, 6534.666
576.2095, 6523.545
576.6917, 6520.667
577.1738, 6527.894
577.6559, 6540.878
578.1380, 6563.390
578.6201, 6593.667
579.1022, 6599.214
579.5844, 6573.916
580.0665, 6546.389
580.5486, 6538.398
581.0307, 6547.938
581.5128, 6561.812
581.9949, 6578.731
582.4771, 6598.971
582.9592, 6624.941
583.4413, 6654.620
583.9234, 6682.992
584.4055, 6700.252
584.8876, 6721.608
585.3698, 6765.067
585.8519, 6825.647
586.3340, 6877.296
586.8161, 6885.882
587.2982, 6899.102
587.7803, 6945.857
588.2625, 7042.741
588.7446, 7138.141
589.2267, 7229.523
589.7088, 7318.333
590.1909, 7404.435
590.6730, 7480.998
591.1552, 7572.421
591.6373, 7687.632
592.1194, 7817.187
592.6015, 7933.604
593.0836, 8036.790
593.5657, 8133.963
594.0479, 8231.603
594.5300, 8327.041
595.0121, 8414.555
595.4942, 8494.609
595.9763, 8557.509
596.4584, 8603.218
596.9406, 8623.793
597.4227, 8606.980
597.9048, 8533.742
598.3869, 8450.389
598.8690, 8383.409
599.3511, 8320.681
599.8333, 8237.340
600.3154, 8105.281
600.7975, 7976.045
601.2796, 7863.452
601.7617, 7766.862
602.2438, 7667.949
602.7260, 7560.353
603.2081, 7462.124
603.6902, 7387.292
604.1723, 7336.828
604.6544, 7293.472
605.1365, 7257.420
605.6187, 7226.807
606.1008, 7202.353
606.5829, 7182.432
607.0650, 7160.234
607.5471, 7133.159
608.0292, 7102.770
608.5114, 7064.682
608.9935, 7023.468
609.4756, 6994.816
609.9577, 6996.551
610.4398, 7006.539
610.9219, 7012.285
611.4041, 7012.279
611.8862, 7010.369
612.3683, 7008.048
612.8504, 7003.401
613.3325, 6993.034
613.8146, 6959.498
614.2968, 6957.937
614.7789, 7007.214
615.2610, 7075.700
615.7431, 7095.673
616.2252, 7062.075
616.7073, 7030.518
617.1895, 7020.098
617.6716, 7026.309
618.1537, 7038.797
618.6358, 7057.459
619.1179, 7079.152
619.6000, 7105.185
620.0822, 7131.474
620.5643, 7149.634
621.0464, 7155.935
621.5285, 7171.905
622.0106, 7218.144
622.4927, 7276.308
622.9749, 7326.615
623.4570, 7376.882
623.9391, 7404.310
624.4212, 7396.078
624.9033, 7364.118
625.3854, 7338.049
625.8676, 7321.324
626.3497, 7303.352
626.8318, 7280.330
627.3139, 7252.650
627.7960, 7227.999
628.2781, 7208.101
628.7603, 7176.556
629.2424, 7109.825
629.7245, 7021.734
630.2066, 6943.760
630.6887, 6878.170
631.1708, 6831.813
631.6530, 6828.888
632.1351, 6844.887
632.6172, 6842.688
633.0993, 6791.395
633.5814, 6738.098
634.0635, 6697.359
634.5457, 6667.628
635.0278, 6642.394
635.5099, 6614.022
635.9920, 6598.455
636.4741, 6604.212
636.9562, 6632.993
637.4384, 6655.032
637.9205, 6670.606
638.4026, 6679.508
638.8847, 6675.604
639.3668, 6661.431
639.8489, 6665.637
640.3311, 6696.142
640.8132, 6726.845
641.2953, 6717.784
641.7774, 6685.970
642.2595, 6668.803
642.7416, 6693.260
643.2238, 6724.058
643.7059, 6737.516
644.1880, 6738.567
644.6701, 6744.472
645.1522, 6774.012
645.6343, 6797.043
646.1165, 6799.463
646.5986, 6779.723
647.0807, 6757.098
647.5628, 6726.551
