##NAMES=Vivianite
##RRUFFID=R050076
##IDEAL CHEMISTRY=Fe^2+^_3_(PO_4_)_2_&#183;8H_2_O
##LOCALITY=near Canutillos mine, Potosi, Saavedra, Bolivia
##OWNER=RRUFF
##SOURCE=Rock Currier
##DESCRIPTION=Green prismatic and elongated single crystal
##STATUS=The identification of this mineral has been confirmed by X-ray diffraction and chemical analysis
##URL=rruff.info/R050076
##MEASURED CHEMISTRY=(Fe^2+^_0.99_Mn_0.01_)_3_(P_1.00_O_4_)_2_Â·8H_2_O
121.6990, 357.5392
122.1812, 381.4875
122.6633, 407.2364
123.1454, 433.6984
123.6275, 464.8067
124.1096, 503.2036
124.5917, 549.0894
125.0739, 603.2800
125.5560, 666.6083
126.0381, 738.3665
126.5202, 819.0352
127.0023, 910.4904
127.4844, 1008.866
127.9666, 1113.310
128.4487, 1223.646
128.9308, 1326.281
129.4129, 1414.014
129.8950, 1485.582
130.3772, 1529.646
130.8593, 1538.326
131.3414, 1517.614
131.8235, 1483.080
132.3056, 1432.050
132.7877, 1380.264
133.2699, 1343.718
133.7520, 1322.248
134.2341, 1319.328
134.7162, 1340.577
135.1983, 1386.054
135.6804, 1433.807
136.1626, 1483.701
136.6447, 1535.279
137.1268, 1586.464
137.6089, 1635.413
138.0910, 1689.188
138.5731, 1752.667
139.0553, 1830.226
139.5374, 1899.190
140.0195, 1953.238
140.5016, 1998.412
140.9837, 2057.079
141.4658, 2135.982
141.9480, 2218.675
142.4301, 2291.444
142.9122, 2343.024
143.3943, 2408.957
143.8764, 2500.116
144.3585, 2614.981
144.8407, 2717.405
145.3228, 2801.694
145.8049, 2877.156
146.2870, 2952.355
146.7691, 3037.532
147.2512, 3107.911
147.7334, 3157.399
148.2155, 3183.990
148.6976, 3200.427
149.1797, 3200.610
149.6618, 3192.370
150.1439, 3186.095
150.6261, 3195.994
151.1082, 3195.177
151.5903, 3173.562
152.0724, 3116.893
152.5545, 3071.281
153.0366, 3040.965
153.5188, 3024.088
154.0009, 3017.026
154.4830, 3019.494
154.9651, 3031.444
155.4472, 3051.915
155.9293, 3072.519
156.4115, 3113.735
156.8936, 3184.459
157.3757, 3280.343
157.8578, 3386.893
158.3399, 3498.358
158.8221, 3619.912
159.3042, 3756.042
159.7863, 3920.936
160.2684, 4087.609
160.7505, 4245.281
161.2326, 4396.602
161.7148, 4550.861
162.1969, 4727.286
162.6790, 4903.587
163.1611, 5056.151
163.6432, 5199.314
164.1253, 5301.208
164.6075, 5343.533
165.0896, 5325.576
165.5717, 5263.182
166.0538, 5149.458
166.5359, 4999.220
167.0180, 4833.952
167.5002, 4643.479
167.9823, 4451.888
168.4644, 4275.313
168.9465, 4114.660
169.4286, 3970.943
169.9107, 3843.351
170.3929, 3733.793
170.8750, 3642.981
171.3571, 3579.101
171.8392, 3531.948
172.3213, 3489.134
172.8034, 3446.886
173.2856, 3417.816
173.7677, 3415.935
174.2498, 3438.011
174.7319, 3472.711
175.2140, 3517.948
175.6961, 3570.290
176.1783, 3622.157
176.6604, 3666.199
177.1425, 3719.035
177.6246, 3798.665
178.1067, 3903.953
178.5888, 4033.341
179.0710, 4190.353
179.5531, 4368.716
180.0352, 4551.417
180.5173, 4727.068
180.9994, 4910.947
181.4815, 5124.842
181.9637, 5370.203
182.4458, 5632.739
182.9279, 5902.873
183.4100, 6182.217
183.8921, 6481.784
184.3742, 6810.000
184.8564, 7158.854
185.3385, 7504.934
185.8206, 7851.865
186.3027, 8188.058
186.7848, 8507.632
187.2669, 8809.803
187.7491, 9099.124
188.2312, 9369.896
188.7133, 9627.568
189.1954, 9892.716
189.6775, 10160.82
190.1596, 10449.83
190.6418, 10788.65
191.1239, 11175.43
191.6060, 11586.54
192.0881, 12009.93
192.5702, 12447.67
193.0524, 12923.23
193.5345, 13441.00
194.0166, 13981.73
194.4987, 14518.61
194.9808, 15053.41
195.4629, 15559.34
195.9451, 16032.52
196.4272, 16478.16
196.9093, 16840.30
197.3914, 17127.97
197.8735, 17315.24
198.3556, 17368.93
198.8378, 17296.99
199.3199, 17046.90
199.8020, 16558.84
200.2841, 15825.66
200.7662, 15018.48
201.2483, 14127.11
201.7305, 13185.33
202.2126, 12261.74
202.6947, 11346.38
203.1768, 10486.47
203.6589, 9708.588
204.1410, 9022.979
204.6232, 8397.081
205.1053, 7830.755
205.5874, 7321.482
206.0695, 6863.333
206.5516, 6459.727
207.0337, 6098.299
207.5159, 5763.658
207.9980, 5454.763
208.4801, 5208.687
208.9622, 5040.426
209.4443, 4938.544
209.9264, 4849.272
210.4086, 4773.792
210.8907, 4708.308
211.3728, 4646.368
211.8549, 4579.060
212.3370, 4545.050
212.8191, 4555.212
213.3013, 4605.233
213.7834, 4657.986
214.2655, 4705.957
214.7476, 4769.131
215.2297, 4867.315
215.7118, 5013.382
216.1940, 5160.877
216.6761, 5296.360
217.1582, 5421.984
217.6403, 5574.959
218.1224, 5756.042
218.6045, 5960.920
219.0867, 6185.967
219.5688, 6428.591
220.0509, 6694.252
220.5330, 6978.925
221.0151, 7286.252
221.4972, 7614.168
221.9794, 7974.098
222.4615, 8344.946
222.9436, 8707.944
223.4257, 9056.922
223.9078, 9415.785
224.3899, 9787.343
224.8721, 10177.84
225.3542, 10567.77
225.8363, 10981.14
226.3184, 11374.52
226.8005, 11705.80
227.2827, 11974.24
227.7648, 12176.50
228.2469, 12307.72
228.7290, 12364.14
229.2111, 12375.46
229.6932, 12330.38
230.1754, 12249.30
230.6575, 12152.85
231.1396, 12023.44
231.6217, 11911.31
232.1038, 11834.50
232.5859, 11801.29
233.0681, 11755.64
233.5502, 11676.39
234.0323, 11599.96
234.5144, 11579.53
234.9965, 11630.15
235.4786, 11712.81
235.9608, 11824.84
236.4429, 11976.00
236.9250, 12106.63
237.4071, 12224.25
237.8892, 12315.52
238.3713, 12363.94
238.8535, 12388.32
239.3356, 12338.41
239.8177, 12197.89
240.2998, 11961.01
240.7819, 11650.34
241.2640, 11246.48
241.7462, 10775.23
242.2283, 10272.09
242.7104, 9712.494
243.1925, 9161.173
243.6746, 8636.469
244.1567, 8134.437
244.6389, 7666.451
245.1210, 7237.233
245.6031, 6840.043
246.0852, 6465.990
246.5673, 6111.435
247.0494, 5786.293
247.5316, 5495.346
248.0137, 5242.656
248.4958, 5010.436
248.9779, 4804.460
249.4600, 4616.928
249.9421, 4436.501
250.4243, 4253.709
250.9064, 4092.721
251.3885, 3965.357
251.8706, 3880.834
252.3527, 3797.773
252.8348, 3713.959
253.3170, 3633.138
253.7991, 3563.615
254.2812, 3509.801
254.7633, 3460.217
255.2454, 3410.277
255.7275, 3359.044
256.2097, 3312.264
256.6918, 3269.444
257.1739, 3231.933
257.6560, 3202.563
258.1381, 3183.916
258.6202, 3167.973
259.1024, 3150.569
259.5845, 3129.586
260.0666, 3116.861
260.5487, 3114.062
261.0308, 3118.306
261.5129, 3124.233
261.9951, 3131.075
262.4772, 3141.381
262.9593, 3157.747
263.4414, 3183.063
263.9235, 3199.873
264.4056, 3203.152
264.8878, 3202.817
265.3699, 3217.995
265.8520, 3254.050
266.3341, 3290.637
266.8162, 3318.626
267.2983, 3335.115
267.7805, 3362.208
268.2626, 3406.157
268.7447, 3453.485
269.2268, 3477.972
269.7089, 3472.944
270.1910, 3468.929
270.6732, 3477.748
271.1553, 3500.437
271.6374, 3528.649
272.1195, 3567.824
272.6016, 3604.586
273.0837, 3613.920
273.5659, 3591.861
274.0480, 3563.191
274.5301, 3534.791
275.0122, 3506.623
275.4943, 3487.300
275.9764, 3482.454
276.4586, 3475.855
276.9407, 3441.406
277.4228, 3377.513
277.9049, 3304.213
278.3870, 3227.586
278.8691, 3147.785
279.3513, 3068.269
279.8334, 2989.086
280.3155, 2910.058
280.7976, 2829.958
281.2798, 2749.342
281.7619, 2670.841
282.2440, 2596.525
282.7261, 2525.716
283.2082, 2451.003
283.6903, 2370.260
284.1725, 2293.455
284.6546, 2236.573
285.1367, 2199.272
285.6188, 2159.396
286.1009, 2104.804
286.5830, 2040.940
287.0652, 1990.703
287.5473, 1954.983
288.0294, 1930.256
288.5115, 1917.745
288.9936, 1915.708
289.4757, 1910.068
289.9579, 1892.749
290.4400, 1869.243
290.9221, 1853.702
291.4042, 1846.261
291.8863, 1845.134
292.3684, 1848.461
292.8506, 1856.574
293.3327, 1871.295
293.8148, 1897.563
294.2969, 1928.359
294.7790, 1947.720
295.2611, 1955.702
295.7433, 1965.792
296.2254, 1991.355
296.7075, 2028.910
297.1896, 2067.251
297.6717, 2102.001
298.1538, 2137.798
298.6360, 2182.770
299.1181, 2236.610
299.6002, 2290.800
300.0823, 2338.002
300.5644, 2381.547
301.0465, 2427.723
301.5287, 2476.551
302.0108, 2530.649
302.4929, 2598.900
302.9750, 2678.344
303.4571, 2748.142
303.9392, 2793.312
304.4214, 2821.251
304.9035, 2843.134
305.3856, 2862.873
305.8677, 2874.228
306.3498, 2871.225
306.8319, 2854.933
307.3141, 2828.780
307.7962, 2797.367
308.2783, 2756.189
308.7604, 2697.767
309.2425, 2615.083
309.7246, 2529.693
310.2068, 2452.750
310.6889, 2383.292
311.1710, 2317.880
311.6531, 2254.560
312.1352, 2194.714
312.6173, 2140.727
313.0995, 2095.350
313.5816, 2050.618
314.0637, 1999.369
314.5458, 1946.161
315.0279, 1899.129
315.5100, 1862.640
315.9922, 1832.208
316.4743, 1806.577
316.9564, 1786.796
317.4385, 1766.835
317.9206, 1744.603
318.4027, 1721.024
318.8849, 1697.387
319.3670, 1668.753
319.8491, 1644.767
320.3312, 1629.329
320.8133, 1623.359
321.2954, 1621.907
321.7776, 1626.492
322.2597, 1634.115
322.7418, 1641.578
323.2239, 1648.688
323.7060, 1655.333
324.1881, 1662.370
324.6703, 1670.133
325.1524, 1674.094
325.6345, 1667.851
326.1166, 1660.864
326.5987, 1660.740
327.0808, 1675.319
327.5630, 1687.510
328.0451, 1692.544
328.5272, 1691.091
329.0093, 1698.129
329.4914, 1719.078
329.9735, 1743.386
330.4557, 1763.445
330.9378, 1771.275
331.4199, 1789.531
331.9020, 1826.079
332.3841, 1875.496
332.8662, 1909.649
333.3484, 1917.622
333.8305, 1926.380
334.3126, 1952.884
334.7947, 2005.163
335.2768, 2049.148
335.7589, 2080.714
336.2411, 2104.330
336.7232, 2131.228
337.2053, 2160.695
337.6874, 2195.016
338.1695, 2237.393
338.6516, 2288.724
339.1338, 2337.254
339.6159, 2382.279
340.0980, 2424.606
340.5801, 2464.993
341.0622, 2504.133
341.5443, 2539.209
342.0265, 2569.358
342.5086, 2594.603
342.9907, 2620.002
343.4728, 2647.329
343.9549, 2666.964
344.4370, 2663.047
344.9192, 2637.668
345.4013, 2610.301
345.8834, 2591.861
346.3655, 2575.469
346.8476, 2543.585
347.3297, 2496.247
347.8119, 2438.099
348.2940, 2368.852
348.7761, 2291.751
349.2582, 2218.449
349.7403, 2152.534
350.2225, 2089.690
350.7046, 2022.017
351.1867, 1949.926
351.6688, 1881.293
352.1509, 1823.575
352.6331, 1772.289
353.1152, 1719.710
353.5973, 1660.800
354.0794, 1606.482
354.5615, 1569.411
355.0436, 1545.582
355.5258, 1522.805
356.0079, 1496.569
356.4900, 1467.243
356.9721, 1433.368
357.4542, 1392.007
357.9363, 1355.306
358.4185, 1333.042
358.9006, 1319.737
359.3827, 1305.919
359.8648, 1287.436
360.3469, 1267.853
360.8290, 1247.698
361.3112, 1226.255
361.7933, 1209.645
362.2754, 1200.531
362.7575, 1196.802
363.2396, 1196.163
363.7217, 1204.684
364.2039, 1209.682
364.6860, 1207.563
365.1681, 1198.171
365.6502, 1185.849
366.1323, 1163.991
366.6144, 1143.559
367.0966, 1132.160
367.5787, 1140.838
368.0608, 1145.337
368.5429, 1140.817
369.0250, 1129.863
369.5071, 1126.160
369.9893, 1135.519
370.4714, 1145.356
370.9535, 1149.511
371.4356, 1145.547
371.9177, 1141.611
372.3998, 1139.305
372.8820, 1136.276
373.3641, 1124.895
373.8462, 1098.816
374.3283, 1080.993
374.8104, 1083.565
375.2925, 1108.818
375.7747, 1128.605
376.2568, 1143.527
376.7389, 1152.153
377.2210, 1149.848
377.7031, 1135.718
378.1852, 1123.468
378.6674, 1116.776
379.1495, 1115.315
379.6316, 1118.539
380.1137, 1126.808
380.5958, 1136.258
381.0779, 1143.469
381.5601, 1148.804
382.0422, 1153.231
382.5243, 1156.137
383.0064, 1159.471
383.4885, 1168.990
383.9706, 1183.561
384.4528, 1194.173
384.9349, 1190.723
385.4170, 1180.383
385.8991, 1174.886
386.3812, 1176.286
386.8633, 1181.506
387.3455, 1188.901
387.8276, 1197.931
388.3097, 1207.506
388.7918, 1216.537
389.2739, 1226.145
389.7560, 1238.425
390.2382, 1253.983
390.7203, 1266.784
391.2024, 1272.899
391.6845, 1274.682
392.1666, 1274.896
392.6487, 1268.506
393.1309, 1266.264
393.6130, 1276.992
394.0951, 1299.037
394.5772, 1312.802
395.0593, 1305.287
395.5414, 1293.011
396.0236, 1286.360
396.5057, 1290.839
396.9878, 1296.157
397.4699, 1301.950
397.9520, 1307.994
398.4341, 1313.437
398.9163, 1315.438
399.3984, 1319.800
399.8805, 1329.208
400.3626, 1346.133
400.8447, 1360.728
401.3268, 1372.278
401.8090, 1382.011
402.2911, 1392.327
402.7732, 1404.605
403.2553, 1413.579
403.7374, 1417.472
404.2195, 1416.484
404.7017, 1413.009
405.1838, 1405.311
405.6659, 1399.831
406.1480, 1403.243
406.6301, 1415.658
407.1122, 1429.361
407.5944, 1443.216
408.0765, 1457.374
408.5586, 1473.213
409.0407, 1490.723
409.5228, 1505.283
410.0049, 1512.937
410.4871, 1515.145
410.9692, 1514.465
411.4513, 1509.774
411.9334, 1507.835
412.4155, 1520.152
412.8976, 1542.203
413.3798, 1560.433
413.8619, 1566.921
414.3440, 1567.833
414.8261, 1566.653
415.3082, 1563.630
415.7903, 1567.163
416.2725, 1588.860
416.7546, 1617.845
417.2367, 1642.224
417.7188, 1653.637
418.2009, 1664.161
418.6830, 1680.720
419.1652, 1701.302
419.6473, 1717.872
420.1294, 1723.613
420.6115, 1727.840
421.0937, 1735.249
421.5758, 1745.404
422.0579, 1760.778
422.5400, 1787.131
423.0221, 1817.792
423.5042, 1842.315
423.9864, 1854.729
424.4685, 1866.912
424.9506, 1878.882
425.4327, 1889.428
425.9148, 1914.745
426.3969, 1962.977
426.8791, 2016.661
427.3612, 2059.378
427.8433, 2086.397
428.3254, 2117.396
428.8075, 2156.776
429.2896, 2201.220
429.7718, 2236.039
430.2539, 2258.473
430.7360, 2286.015
431.2181, 2331.358
431.7002, 2393.185
432.1823, 2451.464
432.6645, 2504.099
433.1466, 2557.131
433.6287, 2617.025
434.1108, 2683.470
434.5929, 2755.929
435.0750, 2836.220
435.5572, 2920.868
436.0393, 3002.036
436.5214, 3080.100
437.0035, 3163.408
437.4856, 3256.227
437.9677, 3358.176
438.4499, 3467.914
438.9320, 3583.523
439.4141, 3709.542
439.8962, 3854.010
440.3783, 4011.258
440.8604, 4170.967
441.3426, 4320.702
441.8247, 4475.353
442.3068, 4644.645
442.7889, 4832.371
443.2710, 5021.491
443.7531, 5208.002
444.2353, 5392.921
444.7174, 5580.632
445.1995, 5744.196
445.6816, 5938.067
446.1637, 6186.938
446.6458, 6482.318
447.1280, 6759.491
447.6101, 7014.913
448.0922, 7256.998
448.5743, 7486.643
449.0564, 7702.347
449.5385, 7914.832
450.0207, 8121.334
450.5028, 8326.753
450.9849, 8545.851
451.4670, 8783.619
451.9491, 9000.101
452.4312, 9182.934
452.9134, 9331.391
453.3955, 9450.066
453.8776, 9540.224
454.3597, 9590.244
454.8418, 9580.688
455.3239, 9518.384
455.8061, 9433.626
456.2882, 9336.717
456.7703, 9213.239
457.2524, 9039.259
457.7345, 8820.141
458.2166, 8572.438
458.6988, 8305.362
459.1809, 8017.018
459.6630, 7704.600
460.1451, 7361.814
460.6272, 7016.346
461.1093, 6682.104
461.5915, 6357.743
462.0736, 6048.373
462.5557, 5745.139
463.0378, 5466.873
463.5199, 5232.435
464.0020, 5037.586
464.4842, 4841.899
464.9663, 4627.062
465.4484, 4418.822
465.9305, 4229.554
466.4126, 4058.670
466.8947, 3904.971
467.3769, 3775.404
467.8590, 3660.493
468.3411, 3541.622
468.8232, 3410.204
469.3053, 3293.377
469.7874, 3199.668
470.2696, 3128.004
470.7517, 3058.910
471.2338, 2992.452
471.7159, 2928.904
472.1980, 2869.127
472.6801, 2812.902
473.1623, 2759.862
473.6444, 2708.067
474.1265, 2662.247
474.6086, 2634.007
475.0907, 2621.090
475.5728, 2608.881
476.0550, 2593.547
476.5371, 2572.544
477.0192, 2535.807
477.5013, 2482.519
477.9834, 2438.202
478.4655, 2426.852
478.9477, 2434.948
479.4298, 2445.364
479.9119, 2457.107
480.3940, 2464.893
480.8761, 2465.830
481.3582, 2460.599
481.8404, 2451.046
482.3225, 2429.401
482.8046, 2410.476
483.2867, 2400.480
483.7688, 2400.366
484.2509, 2407.768
484.7331, 2428.782
485.2152, 2453.988
485.6973, 2475.048
486.1794, 2489.391
486.6615, 2504.075
487.1436, 2520.604
487.6258, 2538.326
488.1079, 2553.859
488.5900, 2566.210
489.0721, 2578.868
489.5542, 2590.599
490.0363, 2601.292
490.5185, 2628.928
491.0006, 2677.076
491.4827, 2731.027
491.9648, 2771.640
492.4470, 2800.668
492.9291, 2826.374
493.4112, 2848.272
493.8933, 2870.620
494.3754, 2900.678
494.8575, 2937.640
495.3397, 2974.589
495.8218, 3002.675
496.3039, 3031.080
496.7860, 3070.155
497.2681, 3123.771
497.7502, 3180.891
498.2324, 3239.681
498.7145, 3297.609
499.1966, 3352.376
499.6787, 3396.633
500.1608, 3443.718
500.6429, 3498.489
501.1251, 3560.611
501.6072, 3623.066
502.0893, 3686.177
502.5714, 3749.605
503.0535, 3812.982
503.5356, 3874.281
504.0178, 3940.595
504.4999, 4015.054
504.9820, 4091.122
505.4641, 4156.577
505.9462, 4206.658
506.4283, 4270.550
506.9105, 4361.354
507.3926, 4470.828
507.8747, 4564.939
508.3568, 4643.321
508.8389, 4719.079
509.3210, 4804.384
509.8032, 4895.852
510.2853, 4982.876
510.7674, 5061.825
511.2495, 5146.251
511.7316, 5258.264
512.2137, 5386.071
512.6959, 5503.856
513.1780, 5591.420
513.6601, 5674.560
514.1422, 5771.733
514.6243, 5880.826
515.1064, 5986.163
515.5886, 6071.627
516.0707, 6158.852
516.5528, 6261.897
517.0349, 6396.022
517.5170, 6519.600
517.9991, 6620.943
518.4813, 6711.832
518.9634, 6805.876
519.4455, 6902.430
519.9276, 7003.916
520.4097, 7116.200
520.8918, 7234.012
521.3740, 7331.623
521.8561, 7402.370
522.3382, 7474.986
522.8203, 7573.535
523.3024, 7695.065
523.7845, 7802.103
524.2667, 7891.836
524.7488, 7972.071
525.2309, 8047.940
525.7130, 8123.625
526.1951, 8213.238
526.6772, 8338.380
527.1594, 8465.278
527.6415, 8548.243
528.1236, 8594.790
528.6057, 8639.819
529.0878, 8705.604
529.5699, 8775.309
530.0521, 8832.564
530.5342, 8871.066
531.0163, 8918.854
531.4984, 8998.945
531.9805, 9087.354
532.4626, 9158.938
532.9448, 9196.684
533.4269, 9233.580
533.9090, 9273.066
534.3911, 9314.342
534.8732, 9352.729
535.3553, 9388.073
535.8375, 9421.770
536.3196, 9455.709
536.8017, 9490.861
537.2838, 9516.066
537.7659, 9532.310
538.2480, 9536.037
538.7302, 9516.975
539.2123, 9478.745
539.6944, 9448.612
540.1765, 9435.495
540.6586, 9427.441
541.1407, 9407.124
541.6229, 9376.988
542.1050, 9345.608
542.5871, 9327.638
543.0692, 9303.877
543.5513, 9250.477
544.0334, 9167.008
544.5156, 9089.521
544.9977, 9064.885
545.4798, 9035.913
545.9619, 8955.635
546.4440, 8771.284
546.9261, 8600.785
547.4083, 8450.869
547.8904, 8326.428
548.3725, 8242.966
548.8546, 8246.340
549.3367, 8213.814
549.8188, 8107.947
550.3010, 7935.055
550.7831, 7763.769
551.2652, 7589.609
551.7473, 7431.446
552.2294, 7316.662
552.7115, 7238.638
553.1937, 7133.334
553.6758, 6992.423
554.1579, 6837.737
554.6400, 6687.769
555.1221, 6544.515
555.6042, 6416.273
556.0864, 6304.230
556.5685, 6208.063
557.0506, 6130.458
557.5327, 6069.665
558.0148, 6020.679
558.4969, 5988.434
558.9791, 5961.555
559.4612, 5932.255
559.9433, 5897.910
560.4254, 5871.125
560.9075, 5842.228
561.3896, 5829.225
561.8718, 5848.525
562.3539, 5930.315
562.8360, 5991.711
563.3181, 6014.616
563.8002, 6018.649
564.2823, 6052.352
564.7645, 6119.460
565.2466, 6198.985
565.7287, 6288.898
566.2108, 6384.542
566.6929, 6463.478
567.1750, 6525.182
567.6572, 6567.565
568.1393, 6587.604
568.6214, 6586.417
569.1035, 6565.995
569.5856, 6527.130
570.0677, 6466.587
570.5499, 6382.922
571.0320, 6274.939
571.5141, 6140.483
571.9962, 5975.775
572.4783, 5787.497
572.9604, 5564.778
573.4426, 5317.249
573.9247, 5087.028
574.4068, 4898.935
574.8889, 4715.021
575.3710, 4519.195
575.8531, 4308.032
576.3353, 4114.904
576.8174, 3941.564
577.2995, 3786.427
577.7816, 3648.268
578.2637, 3528.676
578.7458, 3416.407
579.2280, 3309.892
579.7101, 3209.916
580.1922, 3118.787
580.6743, 3035.883
581.1564, 2957.694
581.6385, 2880.607
582.1207, 2808.219
582.6028, 2746.573
583.0849, 2695.703
583.5670, 2651.573
584.0491, 2615.946
584.5313, 2583.622
585.0134, 2549.838
585.4955, 2512.032
585.9776, 2479.137
586.4597, 2459.417
586.9418, 2443.423
587.4240, 2420.415
587.9061, 2382.733
588.3882, 2349.121
588.8703, 2320.889
589.3524, 2298.190
589.8345, 2282.660
590.3167, 2276.062
590.7988, 2269.830
591.2809, 2260.829
591.7630, 2249.273
592.2451, 2237.000
592.7272, 2224.093
593.2094, 2208.464
593.6915, 2180.547
594.1736, 2150.258
594.6557, 2138.553
595.1378, 2152.001
595.6199, 2171.362
596.1021, 2189.617
596.5842, 2202.782
597.0663, 2205.178
597.5485, 2176.743
598.0306, 2156.402
598.5127, 2160.514
598.9948, 2184.107
599.4769, 2205.174
599.9590, 2223.239
600.4412, 2237.737
600.9233, 2247.746
601.4054, 2253.041
601.8875, 2258.059
602.3696, 2262.480
602.8517, 2267.339
603.3339, 2273.171
603.8160, 2280.038
604.2981, 2287.939
604.7802, 2296.392
605.2623, 2307.354
605.7444, 2325.125
606.2266, 2347.591
606.7087, 2368.295
607.1908, 2386.119
607.6729, 2400.472
608.1550, 2410.580
608.6371, 2416.851
609.1193, 2420.972
609.6014, 2421.788
610.0835, 2422.111
610.5656, 2422.857
611.0477, 2423.937
611.5298, 2426.621
612.0120, 2428.662
612.4941, 2434.484
612.9762, 2448.567
613.4583, 2475.148
613.9404, 2494.279
614.4225, 2504.092
614.9047, 2507.966
615.3868, 2510.532
615.8689, 2511.730
616.3510, 2510.289
616.8331, 2505.103
617.3152, 2498.081
