##NAMES=Vivianite
##RRUFFID=R050464
##IDEAL CHEMISTRY=Fe^2+^_3_(PO_4_)_2_&#183;8H_2_O
##LOCALITY=Siglo XX mine, Llallagua, Potosi, Bolivia
##OWNER=RRUFF
##SOURCE=University of Arizona Mineral Museum
##DESCRIPTION=Bluish green elongated prismatic crystals
##STATUS=The identification of this mineral is confirmed by single-crystal X-ray diffraction and chemical analysis.
##URL=rruff.info/R050464
##MEASURED CHEMISTRY=Fe^2+^_3.00_(P_1.00_O_4_)_2_Â·8H_2_O
91.00781, 4.548035
91.48993, 4.685640
91.97205, 4.740803
92.45416, 4.623045
92.93628, 4.426687
93.41840, 4.375175
93.90051, 4.541365
94.38263, 4.799608
94.86475, 4.948291
95.34686, 4.988262
95.82898, 5.001357
96.31110, 5.013309
96.79321, 5.032413
97.27533, 5.165247
97.75745, 5.484292
98.23956, 5.927428
98.72168, 6.203054
99.20380, 6.273458
99.68591, 6.286161
100.1680, 6.373302
100.6501, 6.524274
101.1323, 6.800924
101.6144, 7.248181
102.0965, 7.882041
102.5786, 8.482751
103.0607, 9.025408
103.5428, 9.561268
104.0250, 10.17922
104.5071, 10.85224
104.9892, 11.64490
105.4713, 12.59478
105.9534, 13.80193
106.4355, 14.93607
106.9177, 15.90465
107.3998, 16.79525
107.8819, 17.92148
108.3640, 19.35671
108.8461, 20.95522
109.3282, 22.67473
109.8104, 24.70142
110.2925, 26.59687
110.7746, 28.21228
111.2567, 29.59383
111.7388, 31.17424
112.2209, 33.09664
112.7031, 35.16035
113.1852, 37.24977
113.6673, 39.26354
114.1494, 41.35778
114.6315, 43.58460
115.1136, 45.96671
115.5958, 48.42634
116.0779, 50.99152
116.5600, 53.60819
117.0421, 56.20447
117.5242, 58.52563
118.0063, 61.01967
118.4885, 63.97474
118.9706, 67.45417
119.4527, 71.18066
119.9348, 75.18287
120.4169, 79.30595
120.8990, 83.33153
121.3812, 86.72071
121.8633, 90.13974
122.3454, 94.23251
122.8275, 99.26865
123.3096, 104.6197
123.7917, 109.6269
124.2739, 114.4422
124.7560, 119.6221
125.2381, 125.4165
125.7202, 131.8566
126.2023, 138.9396
126.6844, 146.8578
127.1666, 155.2527
127.6487, 164.4015
128.1308, 174.2079
128.6129, 182.5286
129.0950, 188.5022
129.5771, 191.8389
130.0593, 191.3429
130.5414, 185.7690
131.0235, 176.5006
131.5056, 166.3171
131.9877, 154.6849
132.4698, 142.6414
132.9520, 131.6296
133.4341, 121.6487
133.9162, 113.5637
134.3983, 107.8425
134.8804, 104.3208
135.3625, 102.0264
135.8447, 101.0108
136.3268, 100.9813
136.8089, 101.6534
137.2910, 103.0900
137.7731, 104.8192
138.2552, 106.7886
138.7374, 109.0552
139.2195, 110.9309
139.7016, 112.1955
140.1837, 113.3008
140.6658, 115.2052
141.1479, 118.1473
141.6301, 121.3397
142.1122, 124.4080
142.5943, 127.1899
143.0764, 130.3670
143.5585, 134.2316
144.0406, 138.4877
144.5228, 142.2393
145.0049, 145.3478
145.4870, 148.0990
145.9691, 150.6253
146.4512, 153.1215
146.9333, 155.1581
147.4155, 156.9218
147.8976, 158.3519
148.3797, 158.6484
148.8618, 157.3344
149.3439, 155.2505
149.8260, 152.9471
150.3082, 150.2489
150.7903, 147.5008
151.2724, 144.5037
151.7545, 141.2487
152.2366, 138.5592
152.7188, 136.3779
153.2009, 134.7916
153.6830, 133.8982
154.1651, 133.9518
154.6472, 134.4385
155.1293, 135.2903
155.6115, 136.5171
156.0936, 137.9565
156.5757, 139.2296
157.0578, 140.8165
157.5399, 143.2300
158.0220, 146.6624
158.5042, 150.8821
158.9863, 155.8659
159.4684, 161.6980
159.9505, 167.8620
160.4326, 174.1409
160.9147, 180.6286
161.3969, 187.4640
161.8790, 195.7243
162.3611, 203.6138
162.8432, 210.3605
163.3253, 215.9595
163.8074, 219.9079
164.2896, 221.9236
164.7717, 222.1251
165.2538, 220.7414
165.7359, 217.6227
166.2180, 213.1077
166.7001, 207.2399
167.1823, 199.6516
167.6644, 191.7180
168.1465, 183.9472
168.6286, 176.4573
169.1107, 169.5867
169.5928, 163.4444
170.0750, 158.0606
170.5571, 153.3566
171.0392, 149.3373
171.5213, 146.0566
172.0034, 143.6116
172.4855, 141.9661
172.9677, 141.0125
173.4498, 140.7474
173.9319, 141.0933
174.4140, 141.9251
174.8961, 143.1367
175.3782, 144.9074
175.8604, 147.5194
176.3425, 150.9545
176.8246, 154.9259
177.3067, 159.1106
177.7888, 163.7288
178.2709, 169.1780
178.7531, 175.8877
179.2352, 183.3152
179.7173, 190.6101
180.1994, 197.8190
180.6815, 205.4165
181.1636, 213.8632
181.6458, 223.0402
182.1279, 232.2984
182.6100, 241.4399
183.0921, 250.5833
183.5742, 260.1384
184.0563, 269.9283
184.5385, 280.3442
185.0206, 292.2009
185.5027, 305.1848
185.9848, 317.1889
186.4669, 327.2914
186.9490, 335.9369
187.4312, 344.6910
187.9133, 353.3795
188.3954, 362.2861
188.8775, 371.6420
189.3596, 381.3682
189.8417, 391.1748
190.3239, 400.2688
190.8060, 409.1742
191.2881, 420.3810
191.7702, 434.0356
192.2523, 448.9189
192.7344, 463.5284
193.2166, 477.8097
193.6987, 492.9043
194.1808, 509.8577
194.6629, 528.4123
195.1450, 546.6404
195.6271, 564.8737
196.1093, 581.9662
196.5914, 596.8539
197.0735, 609.6790
197.5556, 618.6514
198.0377, 623.7136
198.5198, 624.9278
199.0020, 619.1870
199.4841, 606.0108
199.9662, 586.6815
200.4483, 561.9792
200.9304, 531.2892
201.4125, 498.9973
201.8947, 466.3810
202.3768, 433.2871
202.8589, 401.6771
203.3410, 371.3408
203.8231, 342.6608
204.3052, 316.6683
204.7874, 293.1696
205.2695, 272.4849
205.7516, 255.0802
206.2337, 241.2500
206.7158, 228.6409
207.1979, 217.1381
207.6801, 206.8895
208.1622, 198.4632
208.6443, 192.0088
209.1264, 186.7218
209.6085, 182.1981
210.0906, 178.3254
210.5728, 175.7573
211.0549, 174.6910
211.5370, 174.8154
212.0191, 175.5568
212.5012, 177.0795
212.9833, 178.8281
213.4655, 180.4512
213.9476, 181.7620
214.4297, 183.6600
214.9118, 186.1579
215.3939, 189.2517
215.8760, 193.0127
216.3581, 197.4024
216.8403, 202.4741
217.3224, 208.1902
217.8045, 214.5755
218.2866, 221.6475
218.7687, 229.3618
219.2508, 237.7567
219.7330, 246.7793
220.2151, 256.5566
220.6972, 266.6744
221.1793, 276.6953
221.6614, 286.2872
222.1435, 296.9412
222.6257, 309.1038
223.1078, 322.2306
223.5899, 335.3216
224.0720, 349.0137
224.5541, 361.7018
225.0362, 372.8103
225.5184, 381.7447
226.0005, 390.4393
226.4826, 399.4406
226.9647, 408.1300
227.4468, 415.1441
227.9289, 420.7687
228.4111, 424.2157
228.8932, 424.9337
229.3753, 422.0173
229.8574, 418.5449
230.3395, 414.5161
230.8216, 410.0088
231.3038, 404.9870
231.7859, 398.7163
232.2680, 393.0591
232.7501, 388.8078
233.2322, 386.0387
233.7143, 384.5429
234.1965, 384.6354
234.6786, 385.9240
235.1607, 387.2896
235.6428, 388.4441
236.1249, 390.0816
236.6070, 392.7960
237.0892, 398.1166
237.5713, 401.1445
238.0534, 401.8199
238.5355, 400.2136
239.0176, 396.5913
239.4997, 391.2720
239.9819, 383.3544
240.4640, 372.2855
240.9461, 356.7530
241.4282, 341.0654
241.9103, 325.4628
242.3924, 309.6379
242.8746, 292.6837
243.3567, 273.5994
243.8388, 254.9098
244.3209, 237.3919
244.8030, 220.9045
245.2851, 206.4858
245.7673, 194.6235
246.2494, 184.6280
246.7315, 175.0313
247.2136, 165.6875
247.6957, 156.9666
248.1778, 148.9062
248.6600, 141.3696
249.1421, 135.1339
249.6242, 130.5034
250.1063, 126.9616
250.5884, 123.5181
251.0705, 120.0540
251.5527, 116.8780
252.0348, 114.1878
252.5169, 112.1138
252.9990, 109.9319
253.4811, 107.4398
253.9632, 104.9451
254.4454, 103.0652
254.9275, 102.0435
255.4096, 101.1420
255.8917, 100.0711
256.3738, 98.72535
256.8560, 97.76444
257.3381, 97.36800
257.8202, 97.19821
258.3023, 96.64992
258.7844, 95.39462
259.2665, 94.50011
259.7487, 94.43757
260.2308, 95.39449
260.7129, 95.83766
261.1950, 95.53405
261.6771, 94.97070
262.1592, 94.80140
262.6414, 95.10925
263.1235, 95.61595
263.6056, 96.32821
264.0877, 97.28639
264.5698, 97.85453
265.0519, 97.78244
265.5341, 97.65977
266.0162, 98.29882
266.4983, 100.0256
266.9804, 101.4889
267.4625, 102.2983
267.9446, 102.4592
268.4268, 102.7113
268.9089, 103.0305
269.3910, 103.4737
269.8731, 104.1753
270.3552, 105.2376
270.8373, 106.1381
271.3195, 106.8239
271.8016, 107.2720
272.2837, 107.1641
272.7658, 106.2531
273.2479, 105.3378
273.7300, 105.3890
274.2122, 106.6823
274.6943, 107.2045
275.1764, 106.4077
275.6585, 104.5240
276.1406, 102.7398
276.6227, 101.0817
277.1049, 99.43761
277.5870, 97.78331
278.0691, 96.14314
278.5512, 94.20567
279.0333, 91.87920
279.5154, 89.24340
279.9976, 86.47778
280.4797, 83.51809
280.9618, 80.72215
281.4439, 78.39746
281.9260, 76.56023
282.4081, 74.43835
282.8903, 71.76696
283.3724, 68.93871
283.8545, 66.99706
284.3366, 66.01003
284.8187, 65.18282
285.3008, 63.97933
285.7830, 62.43298
286.2651, 61.06038
286.7472, 59.89894
287.2293, 58.92478
287.7114, 58.08094
288.1935, 57.36776
288.6757, 56.85170
289.1578, 56.66050
289.6399, 56.72935
290.1220, 56.74758
290.6041, 56.69838
291.0862, 56.59324
291.5684, 56.33217
292.0505, 55.95353
292.5326, 55.82134
293.0147, 56.30006
293.4968, 57.16675
293.9789, 57.70190
294.4611, 57.83277
294.9432, 57.93445
295.4253, 58.46044
295.9074, 59.34493
296.3895, 60.28439
296.8716, 61.14527
297.3538, 61.98450
297.8359, 62.89831
298.3180, 63.89244
298.8001, 65.00346
299.2822, 66.35986
299.7643, 67.88430
300.2465, 69.35054
300.7286, 70.61417
301.2107, 71.81647
301.6928, 73.24313
302.1749, 74.86219
302.6570, 76.37669
303.1392, 77.41479
303.6213, 78.19772
304.1034, 79.13161
304.5855, 80.67317
305.0676, 82.02324
305.5497, 82.33918
306.0319, 81.72758
306.5140, 80.75650
306.9961, 79.67431
307.4782, 78.49559
307.9603, 77.21646
308.4424, 75.82696
308.9246, 74.37062
309.4067, 72.91306
309.8888, 71.42787
310.3709, 69.80856
310.8530, 67.89879
311.3351, 65.90084
311.8173, 63.98051
312.2994, 62.13701
312.7815, 60.38773
313.2636, 58.72129
313.7457, 57.17213
314.2278, 55.79235
314.7100, 54.66424
315.1921, 53.68706
315.6742, 52.79451
316.1563, 51.97459
316.6384, 51.28850
317.1205, 50.94939
317.6027, 50.72110
318.0848, 50.30584
318.5669, 49.19801
319.0490, 48.25325
319.5311, 47.92099
320.0132, 48.24556
320.4954, 48.48064
320.9775, 48.38622
321.4596, 48.12602
321.9417, 47.83887
322.4238, 47.15270
322.9059, 46.85647
323.3881, 47.36782
323.8702, 48.59915
324.3523, 49.53141
324.8344, 49.88921
325.3165, 49.99163
325.7986, 50.03218
326.2808, 49.71745
326.7629, 49.70514
327.2450, 50.23866
327.7271, 51.15924
328.2092, 51.83807
328.6913, 51.92781
329.1735, 52.07664
329.6556, 52.56048
330.1377, 53.62425
330.6198, 54.55686
331.1019, 55.30442
331.5840, 55.93363
332.0662, 56.56699
332.5483, 57.08321
333.0304, 57.78849
333.5125, 58.82891
333.9946, 60.32291
334.4767, 61.57640
334.9589, 62.51839
335.4410, 63.27405
335.9231, 63.97580
336.4052, 64.58289
336.8873, 65.21547
337.3694, 65.82528
337.8516, 66.43088
338.3336, 67.52704
338.8158, 69.31715
339.2979, 71.17507
339.7800, 72.54400
340.2621, 73.35613
340.7442, 74.06248
341.2263, 74.66050
341.7085, 75.23457
342.1906, 76.17272
342.6727, 77.58177
343.1548, 78.73904
343.6369, 79.11726
344.1190, 78.74639
344.6012, 78.12730
345.0833, 77.26320
345.5654, 76.26955
346.0475, 75.43351
346.5296, 74.73528
347.0117, 73.79006
347.4939, 72.39603
347.9760, 70.60526
348.4581, 68.44312
348.9402, 65.85072
349.4223, 63.24664
349.9044, 61.06568
350.3866, 59.22689
350.8687, 57.42435
351.3508, 55.39501
351.8329, 53.37088
352.3150, 51.76719
352.7971, 50.56744
353.2793, 49.43416
353.7614, 48.02481
354.2435, 46.49574
354.7256, 45.09132
355.2077, 43.90458
355.6898, 42.84372
356.1720, 41.79115
356.6541, 40.77348
357.1362, 39.90715
357.6183, 39.31804
358.1004, 38.86750
358.5826, 38.45510
359.0647, 38.10645
359.5468, 37.67949
360.0289, 36.97746
360.5110, 36.15034
360.9931, 35.48119
361.4753, 35.17840
361.9574, 34.99125
362.4395, 34.80862
362.9216, 34.62037
363.4037, 34.43327
363.8858, 34.14157
364.3680, 33.89428
364.8501, 33.84827
365.3322, 34.43197
365.8143, 34.81696
366.2964, 34.64817
366.7785, 33.94120
367.2607, 33.53338
367.7428, 33.87070
368.2249, 34.28385
368.7070, 34.36428
369.1891, 33.74498
369.6712, 33.27434
370.1534, 32.97812
370.6355, 32.84461
371.1176, 32.85905
371.5997, 33.20734
372.0818, 33.46056
372.5639, 33.39469
373.0461, 32.81661
373.5282, 32.56885
374.0103, 32.76956
374.4924, 33.18353
374.9745, 33.46384
375.4566, 33.59476
375.9388, 33.64708
376.4209, 33.63425
376.9030, 33.55729
377.3851, 33.39930
377.8672, 33.11053
378.3493, 32.89212
378.8315, 33.02298
379.3136, 33.51403
379.7957, 33.80909
380.2778, 33.74364
380.7599, 33.48686
381.2420, 33.47613
381.7242, 33.71131
382.2063, 33.93937
382.6884, 33.95041
383.1705, 33.81205
383.6526, 33.77431
384.1347, 33.87976
384.6169, 34.00717
385.0990, 33.91808
385.5811, 33.70167
386.0632, 33.65364
386.5453, 34.07210
387.0274, 34.66547
387.5096, 35.06168
387.9917, 35.25441
388.4738, 35.32181
388.9559, 35.18468
389.4380, 34.99639
389.9201, 34.96897
390.4023, 35.29676
390.8844, 35.65916
391.3665, 35.83207
391.8486, 35.85809
392.3307, 35.88649
392.8128, 35.95175
393.2950, 36.06848
393.7771, 36.27538
394.2592, 36.65116
394.7413, 36.91775
395.2234, 36.85520
395.7055, 36.65075
396.1877, 36.59418
396.6698, 36.92431
397.1519, 37.24418
397.6340, 37.43626
398.1161, 37.48616
398.5982, 37.49701
399.0804, 37.35593
399.5625, 37.25199
400.0446, 37.32758
400.5267, 37.74378
401.0088, 38.10534
401.4909, 38.34126
401.9731, 38.49440
402.4552, 38.75608
402.9373, 39.25639
403.4194, 39.65377
403.9015, 39.73102
404.3836, 39.34992
404.8658, 39.20327
405.3479, 39.32923
405.8300, 39.63879
406.3121, 40.04847
406.7942, 40.58219
407.2763, 41.04315
407.7585, 41.35757
408.2406, 41.54554
408.7227, 41.69183
409.2048, 41.78743
409.6869, 41.90620
410.1690, 42.14080
410.6512, 42.46354
411.1333, 42.74390
411.6154, 42.94093
412.0975, 43.11644
412.5796, 43.37010
413.0617, 43.69129
413.5439, 44.02956
414.0260, 44.37978
414.5081, 44.72506
414.9902, 44.98678
415.4723, 45.14238
415.9544, 45.41903
416.4366, 46.20787
416.9187, 47.19159
417.4008, 47.89204
417.8829, 47.82655
418.3650, 47.69297
418.8471, 47.90100
419.3293, 48.40952
419.8114, 48.97408
420.2935, 49.66650
420.7756, 50.26439
421.2577, 50.55085
421.7398, 50.18477
422.2220, 50.11816
422.7041, 50.71044
423.1862, 51.71107
423.6683, 52.66683
424.1504, 53.45793
424.6325, 54.27982
425.1147, 55.18245
425.5968, 56.18765
426.0789, 57.18981
426.5610, 58.26036
427.0431, 59.26415
427.5252, 60.02149
428.0074, 60.25237
428.4895, 60.90095
428.9716, 62.14109
429.4537, 63.83083
429.9358, 65.56171
430.4179, 67.36700
430.9001, 69.07707
431.3822, 70.52108
431.8643, 71.69224
432.3464, 73.00527
432.8285, 74.42368
433.3106, 76.10498
433.7928, 78.40360
434.2749, 81.24113
434.7570, 83.93412
435.2391, 86.12936
435.7212, 88.16444
436.2033, 90.70535
436.6855, 93.70741
437.1676, 96.94188
437.6497, 100.3598
438.1318, 103.8661
438.6139, 107.2677
439.0960, 110.4700
439.5782, 113.8052
440.0603, 117.6142
440.5424, 121.7618
441.0245, 125.9311
441.5066, 129.9219
441.9887, 133.9939
442.4709, 138.3002
442.9530, 142.8422
443.4351, 147.5344
443.9172, 152.3413
444.3993, 157.2561
444.8814, 162.2031
445.3636, 167.1666
445.8457, 172.2177
446.3278, 177.3147
446.8099, 182.4808
447.2920, 187.9236
447.7741, 194.1267
448.2563, 200.1034
448.7384, 205.3319
449.2205, 209.7104
449.7026, 214.6249
450.1847, 220.3176
450.6668, 226.1746
451.1490, 231.7728
451.6311, 237.3389
452.1132, 241.7619
452.5953, 244.6990
453.0774, 246.5652
453.5595, 248.9272
454.0417, 251.9620
454.5238, 253.8671
455.0059, 253.5027
455.4880, 251.1237
455.9701, 247.9408
456.4522, 243.9698
456.9344, 239.3792
457.4165, 234.4610
457.8986, 229.0580
458.3807, 222.8405
458.8628, 215.2776
459.3449, 207.2588
459.8271, 199.7712
460.3092, 192.6725
460.7913, 185.2200
461.2734, 176.3700
461.7555, 167.3792
462.2376, 159.2001
462.7198, 152.1017
463.2019, 145.5398
463.6840, 139.4917
464.1661, 133.8283
464.6482, 128.3940
465.1303, 122.9944
465.6125, 117.9776
466.0946, 113.6059
466.5767, 109.7737
467.0588, 105.8639
467.5409, 101.4904
468.0230, 97.32442
468.5052, 93.62894
468.9873, 90.35572
469.4694, 87.72250
469.9515, 86.00137
470.4336, 84.69312
470.9157, 83.04780
471.3979, 80.95065
471.8800, 78.93586
472.3621, 77.10734
472.8442, 75.47800
473.3263, 74.05965
473.8084, 72.86662
474.2906, 71.77029
474.7727, 70.65124
475.2548, 69.53983
475.7369, 68.58369
476.2190, 67.79521
476.7011, 67.16113
477.1833, 66.72041
477.6654, 66.41846
478.1475, 66.10628
478.6296, 65.73979
479.1117, 65.32107
479.5938, 64.75349
480.0760, 64.08066
480.5581, 63.60940
481.0402, 63.57720
481.5223, 63.77579
482.0044, 64.07349
482.4865, 64.51509
482.9687, 64.86147
483.4508, 64.98740
483.9329, 64.98165
484.4150, 64.96956
484.8971, 64.75280
485.3792, 64.76451
485.8614, 65.27485
486.3435, 66.22916
486.8256, 66.80421
487.3077, 66.71488
487.7898, 66.57500
488.2719, 66.73545
488.7541, 67.32580
489.2362, 67.75393
489.7183, 67.90203
490.2004, 68.04002
490.6825, 68.64983
491.1646, 69.78847
491.6468, 70.85125
492.1289, 71.68705
492.6110, 72.31364
493.0931, 72.70105
493.5752, 72.85715
494.0573, 73.21389
494.5395, 74.17873
495.0216, 75.55191
495.5037, 76.99705
495.9858, 78.47334
496.4679, 79.87686
496.9500, 81.05215
497.4322, 82.08443
497.9143, 83.09351
498.3964, 84.03821
498.8785, 85.05581
499.3606, 86.14600
499.8427, 87.35506
500.3249, 88.81509
500.8070, 90.99419
501.2891, 93.12223
501.7712, 94.67851
502.2533, 95.23379
502.7354, 96.29140
503.2176, 98.21540
503.6997, 100.5581
504.1818, 102.9107
504.6639, 105.4231
505.1460, 107.6457
505.6281, 109.3958
506.1103, 110.8296
506.5924, 112.4925
507.0745, 114.4140
507.5566, 116.4536
508.0387, 118.5298
508.5208, 120.6469
509.0030, 122.8970
509.4851, 125.2763
509.9672, 127.8080
510.4493, 130.7233
510.9314, 133.8469
511.4135, 136.5116
511.8957, 138.2639
512.3778, 139.9415
512.8599, 142.8454
513.3420, 146.5304
513.8242, 149.6782
514.3063, 150.9635
514.7884, 151.9494
515.2705, 153.8749
515.7526, 156.8193
516.2347, 159.9189
516.7169, 163.0555
517.1990, 166.0755
517.6811, 168.8479
518.1632, 170.9009
518.6453, 173.3147
519.1274, 176.5445
519.6096, 180.1483
520.0917, 183.2670
520.5738, 185.6379
521.0559, 187.9441
521.5380, 190.4138
522.0201, 193.0175
522.5023, 195.0967
522.9844, 196.4029
523.4665, 197.9230
523.9486, 200.7083
524.4307, 204.6714
524.9128, 207.5969
525.3950, 209.1291
525.8771, 210.1531
526.3592, 211.7967
526.8413, 213.9034
527.3234, 215.9878
527.8055, 218.0007
528.2877, 219.7452
528.7698, 221.0166
529.2519, 221.8271
529.7340, 222.2849
530.2161, 221.7792
530.6982, 221.3957
531.1804, 222.1466
531.6625, 224.3641
532.1446, 226.3391
532.6267, 227.3130
533.1088, 227.8783
533.5909, 228.5659
534.0731, 229.8979
534.5552, 230.8020
535.0373, 231.0888
535.5194, 230.9237
536.0015, 230.7182
536.4836, 230.4684
536.9658, 230.1921
537.4479, 229.9400
537.9300, 229.7003
538.4121, 229.1031
538.8942, 228.0549
539.3763, 227.0414
539.8585, 226.6765
540.3406, 226.7841
540.8227, 226.3251
541.3048, 225.1041
541.7869, 223.5022
542.2690, 221.9046
542.7512, 220.2936
543.2333, 218.6292
543.7154, 217.1345
544.1975, 215.3809
544.6796, 212.8795
545.1617, 209.7523
545.6439, 206.6315
546.1260, 203.8010
546.6081, 201.0645
547.0902, 198.3552
547.5723, 195.7616
548.0544, 192.9104
548.5366, 189.3868
549.0187, 185.7652
549.5008, 182.5705
549.9829, 180.2310
550.4650, 177.5063
550.9471, 174.0555
551.4293, 170.2956
551.9114, 167.2018
552.3935, 164.9180
552.8756, 162.5992
553.3577, 159.8418
553.8398, 156.7893
554.3220, 154.0673
554.8041, 151.6667
555.2862, 149.5942
555.7683, 148.2023
556.2504, 147.0578
556.7325, 145.0283
557.2147, 141.7617
557.6968, 138.7425
558.1789, 137.3947
558.6610, 137.0490
559.1431, 136.7298
559.6252, 136.0346
560.1074, 135.3512
560.5895, 134.7823
561.0716, 134.3360
561.5537, 134.0499
562.0358, 133.6809
562.5179, 133.7184
563.0001, 134.4512
563.4822, 135.9579
563.9643, 137.2016
564.4464, 137.9439
564.9285, 138.7620
565.4106, 140.2161
565.8928, 142.4718
566.3749, 144.2802
566.8570, 145.4973
567.3391, 146.3922
567.8212, 147.4676
568.3033, 148.6627
568.7855, 149.4716
569.2676, 149.8096
569.7497, 149.5930
570.2318, 148.7827
570.7139, 147.3473
571.1960, 145.0827
571.6782, 141.5728
572.1603, 137.3986
572.6424, 133.0068
573.1245, 128.3928
573.6066, 123.6868
574.0887, 118.7286
574.5709, 113.7764
575.0530, 108.9775
575.5351, 104.1443
576.0172, 99.70228
576.4993, 95.79089
576.9814, 92.20119
577.4636, 88.63945
577.9457, 85.00404
578.4278, 81.66967
578.9099, 78.76231
579.3920, 76.26923
579.8741, 74.29809
580.3563, 72.90431
580.8384, 71.39436
581.3205, 69.02403
581.8026, 66.21673
582.2847, 64.42007
582.7668, 63.68012
583.2490, 63.16264
583.7311, 62.14915
584.2132, 60.95099
584.6953, 59.98258
585.1774, 59.44758
585.6595, 58.91506
586.1416, 58.11164
