##NAMES=Vivianite
##RRUFFID=R050076
##IDEAL CHEMISTRY=Fe^2+^_3_(PO_4_)_2_&#183;8H_2_O
##LOCALITY=near Canutillos mine, Potosi, Saavedra, Bolivia
##OWNER=RRUFF
##SOURCE=Rock Currier
##DESCRIPTION=Green prismatic and elongated single crystal
##STATUS=The identification of this mineral has been confirmed by X-ray diffraction and chemical analysis
##URL=rruff.info/R050076
##MEASURED CHEMISTRY=(Fe^2+^_0.99_Mn_0.01_)_3_(P_1.00_O_4_)_2_Â·8H_2_O
124.3942, 729.6395
124.8763, 782.8883
125.3585, 855.8008
125.8406, 927.0453
126.3227, 996.3102
126.8048, 1060.157
127.2869, 1114.065
127.7690, 1154.413
128.2512, 1185.122
128.7333, 1220.249
129.2154, 1257.445
129.6975, 1303.247
130.1796, 1363.642
130.6617, 1431.877
131.1439, 1499.598
131.6260, 1562.388
132.1081, 1619.758
132.5902, 1667.686
133.0723, 1693.304
133.5544, 1722.238
134.0366, 1768.476
134.5187, 1820.836
135.0008, 1859.588
135.4829, 1870.543
135.9650, 1854.944
136.4471, 1836.966
136.9293, 1808.962
137.4114, 1786.553
137.8935, 1783.280
138.3756, 1790.359
138.8577, 1787.605
139.3398, 1759.892
139.8220, 1706.792
140.3041, 1648.365
140.7862, 1570.174
141.2683, 1501.274
141.7504, 1454.053
142.2325, 1427.794
142.7147, 1416.420
143.1968, 1415.678
143.6789, 1426.477
144.1610, 1449.653
144.6431, 1488.502
145.1252, 1535.100
145.6074, 1585.471
146.0895, 1639.452
146.5716, 1699.104
147.0537, 1768.462
147.5358, 1847.249
148.0179, 1915.630
148.5001, 1969.913
148.9822, 2016.775
149.4643, 2062.209
149.9464, 2106.518
150.4285, 2143.797
150.9106, 2168.906
151.3928, 2181.476
151.8749, 2188.798
152.3570, 2195.609
152.8391, 2194.631
153.3212, 2180.040
153.8033, 2151.443
154.2855, 2108.745
154.7676, 2044.518
155.2497, 1963.642
155.7318, 1888.245
156.2139, 1819.341
156.6960, 1758.737
157.1782, 1707.056
157.6603, 1663.713
158.1424, 1633.622
158.6245, 1619.668
159.1066, 1622.148
159.5887, 1647.115
160.0709, 1714.125
160.5530, 1797.852
161.0351, 1860.996
161.5172, 1899.276
161.9993, 1928.807
162.4814, 1959.479
162.9636, 1989.582
163.4457, 2015.844
163.9278, 2040.026
164.4099, 2058.689
164.8920, 2063.495
165.3741, 2050.733
165.8563, 2034.325
166.3384, 2025.754
166.8205, 2019.516
167.3026, 2005.308
167.7847, 1973.911
168.2668, 1933.437
168.7490, 1901.875
169.2311, 1881.976
169.7132, 1864.740
170.1953, 1842.091
170.6774, 1818.981
171.1595, 1803.655
171.6417, 1800.156
172.1238, 1806.733
172.6059, 1820.547
173.0880, 1845.864
173.5701, 1869.942
174.0522, 1886.519
174.5344, 1898.692
175.0165, 1909.785
175.4986, 1919.012
175.9807, 1929.715
176.4628, 1951.973
176.9449, 1990.002
177.4271, 2032.734
177.9092, 2073.445
178.3913, 2115.836
178.8734, 2164.632
179.3555, 2222.319
179.8376, 2288.459
180.3197, 2362.084
180.8019, 2442.251
181.2840, 2532.940
181.7661, 2636.351
182.2482, 2748.734
182.7303, 2864.590
183.2124, 2980.829
183.6946, 3099.755
184.1767, 3230.222
184.6588, 3382.779
185.1409, 3526.729
185.6230, 3658.447
186.1051, 3776.568
186.5873, 3880.439
187.0694, 3969.736
187.5515, 4044.338
188.0336, 4105.051
188.5157, 4147.798
188.9978, 4181.077
189.4800, 4200.411
189.9621, 4215.385
190.4442, 4235.508
190.9263, 4264.732
191.4084, 4301.758
191.8905, 4342.979
192.3727, 4385.856
192.8548, 4439.026
193.3369, 4500.337
193.8190, 4572.279
194.3011, 4659.784
194.7832, 4765.011
195.2654, 4880.735
195.7475, 4992.284
196.2296, 5107.187
196.7117, 5203.379
197.1938, 5289.779
197.6759, 5354.343
198.1581, 5389.678
198.6402, 5393.085
199.1223, 5360.100
199.6044, 5279.766
200.0865, 5136.336
200.5686, 4971.793
201.0508, 4788.695
201.5329, 4591.165
202.0150, 4379.002
202.4971, 4152.672
202.9792, 3924.088
203.4613, 3711.233
203.9435, 3516.977
204.4256, 3334.615
204.9077, 3161.273
205.3898, 2998.609
205.8719, 2845.596
206.3540, 2702.904
206.8362, 2574.923
207.3183, 2466.884
207.8004, 2381.377
208.2825, 2313.435
208.7646, 2267.945
209.2467, 2233.402
209.7289, 2205.575
210.2110, 2183.027
210.6931, 2164.568
211.1752, 2148.315
211.6573, 2132.809
212.1395, 2125.694
212.6216, 2124.257
213.1037, 2132.641
213.5858, 2154.581
214.0679, 2189.096
214.5500, 2231.970
215.0322, 2279.346
215.5143, 2330.979
215.9964, 2388.314
216.4785, 2461.902
216.9606, 2531.629
217.4427, 2582.998
217.9249, 2622.646
218.4070, 2669.823
218.8891, 2741.150
219.3712, 2837.186
219.8533, 2937.212
220.3354, 3040.253
220.8176, 3148.795
221.2997, 3262.399
221.7818, 3382.202
222.2639, 3511.155
222.7460, 3651.446
223.2281, 3802.876
223.7103, 3950.796
224.1924, 4095.520
224.6745, 4236.440
225.1566, 4375.081
225.6387, 4509.918
226.1208, 4641.125
226.6030, 4769.719
227.0851, 4891.304
227.5672, 4986.778
228.0493, 5043.953
228.5314, 5088.732
229.0135, 5133.285
229.4957, 5166.032
229.9778, 5169.914
230.4599, 5136.530
230.9420, 5079.865
231.4241, 5034.995
231.9062, 5015.885
232.3884, 4984.333
232.8705, 4925.681
233.3526, 4859.929
233.8347, 4800.375
234.3168, 4752.220
234.7989, 4718.099
235.2811, 4705.503
235.7632, 4725.603
236.2453, 4741.076
236.7274, 4743.412
237.2095, 4744.435
237.6916, 4757.064
238.1738, 4781.528
238.6559, 4801.459
239.1380, 4799.053
239.6201, 4775.235
240.1022, 4723.962
240.5843, 4640.714
241.0665, 4533.594
241.5486, 4397.408
242.0307, 4236.339
242.5128, 4066.597
242.9949, 3903.495
243.4770, 3747.737
243.9592, 3586.666
244.4413, 3405.834
244.9234, 3232.080
245.4055, 3077.031
245.8876, 2937.286
246.3697, 2802.898
246.8519, 2662.181
247.3340, 2517.881
247.8161, 2403.388
248.2982, 2334.019
248.7803, 2276.160
249.2624, 2220.128
249.7446, 2165.740
250.2267, 2113.208
250.7088, 2061.396
251.1909, 2012.365
251.6730, 1972.748
252.1551, 1946.789
252.6373, 1921.646
253.1194, 1893.739
253.6015, 1864.244
254.0836, 1832.319
254.5657, 1796.021
255.0478, 1763.532
255.5300, 1750.533
256.0121, 1762.704
256.4942, 1772.999
256.9763, 1773.884
257.4584, 1769.801
257.9406, 1761.031
258.4227, 1747.319
258.9048, 1736.775
259.3869, 1740.072
259.8690, 1757.930
260.3511, 1773.242
260.8333, 1781.291
261.3154, 1787.168
261.7975, 1795.981
262.2796, 1807.435
262.7617, 1815.419
263.2438, 1810.175
263.7260, 1795.513
264.2081, 1794.176
264.6902, 1811.786
265.1723, 1838.729
265.6544, 1869.807
266.1365, 1904.025
266.6187, 1937.722
267.1008, 1972.812
267.5829, 2005.592
268.0650, 2026.022
268.5471, 2030.355
269.0292, 2033.778
269.5114, 2048.946
269.9935, 2070.130
270.4756, 2087.728
270.9577, 2096.962
271.4398, 2103.488
271.9219, 2114.184
272.4041, 2129.224
272.8862, 2143.282
273.3683, 2154.272
273.8504, 2162.129
274.3325, 2168.625
274.8146, 2178.458
275.2968, 2178.414
275.7789, 2154.423
276.2610, 2111.581
276.7431, 2070.845
277.2252, 2040.508
277.7073, 2014.206
278.1895, 1980.867
278.6716, 1939.604
279.1537, 1897.828
279.6358, 1860.805
280.1179, 1824.464
280.6000, 1781.213
281.0822, 1728.690
281.5643, 1672.684
282.0464, 1618.272
282.5285, 1565.452
283.0106, 1517.906
283.4927, 1479.544
283.9749, 1444.494
284.4570, 1407.817
284.9391, 1368.991
285.4212, 1328.404
285.9033, 1285.038
286.3854, 1239.490
286.8676, 1203.065
287.3497, 1177.907
287.8318, 1158.756
288.3139, 1143.582
288.7960, 1132.329
289.2781, 1125.917
289.7603, 1125.245
290.2424, 1129.103
290.7245, 1132.514
291.2066, 1141.297
291.6887, 1142.617
292.1708, 1125.820
292.6530, 1103.583
293.1351, 1092.562
293.6172, 1098.488
294.0993, 1113.582
294.5814, 1123.816
295.0635, 1122.813
295.5457, 1129.426
296.0278, 1149.442
296.5099, 1172.232
296.9920, 1190.108
297.4741, 1202.460
297.9562, 1212.978
298.4384, 1224.492
298.9205, 1235.767
299.4026, 1257.422
299.8847, 1300.841
300.3668, 1342.921
300.8489, 1374.065
301.3311, 1397.780
301.8131, 1422.684
302.2953, 1454.765
302.7774, 1492.332
303.2595, 1526.898
303.7416, 1558.721
304.2237, 1586.620
304.7058, 1611.420
305.1880, 1632.238
305.6701, 1648.800
306.1522, 1661.097
306.6343, 1667.303
307.1164, 1664.457
307.5985, 1652.264
308.0807, 1632.046
308.5628, 1593.269
309.0449, 1553.895
309.5270, 1528.533
310.0091, 1516.921
310.4912, 1502.361
310.9734, 1467.795
311.4555, 1415.157
311.9376, 1365.675
312.4197, 1318.751
312.9018, 1278.893
313.3839, 1250.982
313.8661, 1231.509
314.3482, 1211.797
314.8303, 1188.218
315.3124, 1161.872
315.7945, 1133.469
316.2766, 1102.244
316.7588, 1073.652
317.2409, 1051.733
317.7230, 1034.383
318.2051, 1018.090
318.6872, 1002.143
319.1693, 987.9355
319.6515, 977.9269
320.1336, 971.1064
320.6157, 963.0515
321.0978, 952.9111
321.5799, 939.9644
322.0620, 921.3124
322.5442, 895.8094
323.0263, 873.3289
323.5084, 854.4823
323.9905, 841.0397
324.4726, 837.3710
324.9547, 844.1313
325.4369, 853.3243
325.9190, 858.0871
326.4011, 857.9529
326.8832, 853.7890
327.3653, 839.9098
327.8474, 827.3317
328.3296, 822.9917
328.8117, 825.2983
329.2938, 829.1526
329.7759, 831.9374
330.2580, 833.3384
330.7401, 831.8178
331.2223, 825.5275
331.7044, 818.5566
332.1865, 808.0823
332.6686, 798.5829
333.1507, 796.0202
333.6328, 801.8316
334.1150, 810.9323
334.5971, 815.7297
335.0792, 814.4019
335.5613, 813.5372
336.0434, 812.6951
336.5255, 812.6309
337.0077, 813.9247
337.4898, 816.3964
337.9719, 819.4319
338.4540, 822.5759
338.9361, 825.8459
339.4182, 829.7495
339.9004, 837.1190
340.3825, 840.5975
340.8646, 834.6417
341.3467, 825.2805
341.8288, 820.3328
342.3109, 823.0378
342.7931, 829.5206
343.2752, 835.6116
343.7573, 842.0493
344.2394, 842.4461
344.7215, 828.9573
345.2036, 813.8149
345.6858, 808.0558
346.1679, 811.9278
346.6500, 814.9104
347.1321, 809.1165
347.6142, 797.4005
348.0963, 787.1506
348.5785, 778.7457
349.0606, 772.8799
349.5427, 772.8937
350.0248, 776.2552
350.5069, 775.1129
350.9890, 763.9247
351.4712, 751.0230
351.9533, 743.8486
352.4354, 741.3240
352.9175, 737.4825
353.3996, 729.1399
353.8817, 718.1896
354.3639, 709.5717
354.8460, 703.7075
355.3281, 698.6799
355.8102, 694.7969
356.2923, 691.2159
356.7744, 687.3084
357.2566, 682.8427
357.7387, 677.1132
358.2208, 668.7776
358.7029, 656.5271
359.1850, 649.2986
359.6671, 650.2443
360.1493, 652.2852
360.6314, 651.8018
361.1135, 649.9399
361.5956, 650.2997
362.0777, 655.3870
362.5598, 662.9438
363.0420, 664.5127
363.5241, 655.9540
364.0062, 647.7593
364.4883, 639.1314
364.9704, 632.5813
365.4525, 630.8359
365.9347, 634.2086
366.4168, 639.8223
366.8989, 646.0257
367.3810, 653.2421
367.8631, 653.9298
368.3452, 639.9706
368.8274, 628.9042
369.3095, 632.0890
369.7916, 644.7668
370.2737, 655.3314
370.7558, 657.7850
371.2379, 655.5078
371.7201, 654.3343
372.2022, 654.5880
372.6843, 652.6853
373.1664, 645.1998
373.6485, 635.8500
374.1306, 630.4039
374.6128, 629.8822
375.0949, 630.2059
375.5770, 628.1534
376.0591, 625.6548
376.5412, 626.5258
377.0233, 631.5768
377.5055, 640.0767
377.9876, 653.6836
378.4697, 673.2053
378.9518, 681.5978
379.4339, 668.3075
379.9160, 653.1086
380.3982, 648.6082
380.8803, 652.1125
381.3624, 653.9812
381.8445, 648.6030
382.3266, 639.4015
382.8087, 636.7900
383.2909, 648.2272
383.7730, 656.8306
384.2551, 660.6340
384.7372, 662.5355
385.2193, 665.2129
385.7014, 668.8902
386.1836, 671.5812
386.6657, 670.6587
387.1478, 665.8157
387.6299, 663.3840
388.1120, 665.3310
388.5941, 667.5413
389.0763, 669.2559
389.5584, 670.2082
390.0405, 669.4869
390.5226, 665.9691
391.0047, 662.7965
391.4868, 667.2559
391.9690, 680.8243
392.4511, 687.3383
392.9332, 677.5629
393.4153, 663.3615
393.8974, 655.3735
394.3795, 653.7481
394.8617, 655.5202
395.3438, 660.0856
395.8259, 666.8175
396.3080, 675.8117
396.7901, 687.2866
397.2722, 696.9824
397.7544, 701.7406
398.2365, 702.0238
398.7186, 701.7075
399.2007, 696.5575
399.6828, 695.4993
400.1649, 706.5427
400.6471, 722.8987
401.1292, 733.4550
401.6113, 734.5815
402.0934, 729.3842
402.5755, 721.7304
403.0576, 709.1765
403.5398, 702.0754
404.0219, 703.1307
404.5040, 706.2455
404.9861, 708.9458
405.4682, 711.0594
405.9503, 713.0489
406.4325, 715.1826
406.9146, 717.4680
407.3967, 720.4050
407.8788, 726.3757
408.3609, 727.9028
408.8430, 716.5629
409.3252, 705.1569
409.8073, 705.6462
410.2894, 719.2122
410.7715, 734.3030
411.2536, 740.1611
411.7357, 738.7312
412.2179, 740.0329
412.7000, 745.6066
413.1821, 751.7296
413.6642, 755.5968
414.1463, 758.1942
414.6284, 761.2122
415.1106, 763.8309
415.5927, 768.3663
416.0748, 781.2657
416.5569, 798.0724
417.0390, 801.6591
417.5211, 783.3374
418.0033, 760.4614
418.4854, 760.8778
418.9675, 795.1630
419.4496, 816.8559
419.9317, 814.6240
420.4138, 807.2625
420.8960, 806.6807
421.3781, 812.3891
421.8602, 818.5051
422.3423, 821.0715
422.8244, 821.5087
423.3065, 826.2930
423.7887, 841.5820
424.2708, 851.4772
424.7529, 850.1656
425.2350, 846.1444
425.7171, 845.9122
426.1992, 850.5520
426.6814, 857.5097
427.1635, 863.6078
427.6456, 869.3220
428.1277, 881.3228
428.6098, 905.6619
429.0919, 924.5069
429.5741, 921.3272
430.0562, 908.9592
430.5383, 906.9526
431.0204, 922.5885
431.5025, 943.6105
431.9846, 961.4811
432.4668, 976.5848
432.9489, 990.2260
433.4310, 1002.681
433.9131, 1013.722
434.3952, 1020.535
434.8773, 1021.775
435.3595, 1035.994
435.8416, 1078.412
436.3237, 1121.253
436.8058, 1145.892
437.2879, 1156.903
437.7701, 1167.878
438.2522, 1185.577
438.7343, 1208.627
439.2164, 1233.490
439.6985, 1260.272
440.1806, 1288.770
440.6628, 1322.019
441.1449, 1354.517
441.6270, 1379.060
442.1091, 1398.546
442.5912, 1424.671
443.0733, 1467.810
443.5555, 1523.677
444.0376, 1574.545
444.5197, 1616.603
445.0018, 1664.460
445.4839, 1729.371
445.9660, 1800.561
446.4482, 1869.216
446.9303, 1934.341
447.4124, 1994.071
447.8945, 2044.253
448.3766, 2088.833
448.8587, 2136.786
449.3409, 2189.928
449.8230, 2239.825
450.3051, 2277.372
450.7872, 2304.977
451.2693, 2345.429
451.7514, 2410.313
452.2336, 2473.459
452.7157, 2532.258
453.1978, 2581.891
453.6799, 2613.566
454.1620, 2625.427
454.6441, 2626.165
455.1263, 2627.024
455.6084, 2629.318
456.0905, 2624.279
456.5726, 2616.342
457.0547, 2595.727
457.5368, 2553.288
458.0190, 2497.415
458.5011, 2441.709
458.9832, 2392.284
459.4653, 2342.674
459.9474, 2281.566
460.4295, 2208.993
460.9117, 2138.404
461.3938, 2073.070
461.8759, 2009.467
462.3580, 1943.278
462.8401, 1875.344
463.3222, 1809.693
463.8044, 1746.195
464.2865, 1686.017
464.7686, 1630.850
465.2507, 1580.232
465.7328, 1532.306
466.2149, 1486.332
466.6971, 1442.523
467.1792, 1401.998
467.6613, 1365.093
468.1434, 1331.125
468.6255, 1299.795
469.1076, 1271.523
469.5898, 1247.164
470.0719, 1226.289
470.5540, 1208.099
471.0361, 1192.020
471.5182, 1178.131
472.0003, 1167.508
472.4825, 1163.539
472.9646, 1153.733
473.4467, 1125.881
473.9288, 1098.270
474.4109, 1083.223
474.8930, 1080.835
475.3752, 1082.640
475.8573, 1087.872
476.3394, 1092.610
476.8215, 1088.304
477.3036, 1074.700
477.7857, 1062.167
478.2679, 1055.810
478.7500, 1053.867
479.2321, 1052.063
479.7142, 1049.607
480.1963, 1049.124
480.6784, 1051.373
481.1606, 1055.634
481.6427, 1063.633
482.1248, 1073.840
482.6069, 1079.316
483.0890, 1073.809
483.5711, 1060.452
484.0533, 1056.974
484.5354, 1070.063
485.0175, 1082.386
485.4996, 1088.942
485.9817, 1095.570
486.4638, 1108.723
486.9460, 1128.106
487.4281, 1145.416
487.9102, 1152.782
488.3923, 1153.172
488.8744, 1156.541
489.3565, 1164.085
489.8387, 1167.494
490.3208, 1157.786
490.8029, 1143.880
491.2850, 1143.485
491.7671, 1158.627
492.2492, 1180.885
492.7314, 1215.264
493.2135, 1250.788
493.6956, 1274.575
494.1777, 1285.745
494.6598, 1290.651
495.1419, 1293.055
495.6241, 1294.011
496.1062, 1300.502
496.5883, 1315.303
497.0704, 1332.124
497.5525, 1352.935
498.0346, 1373.697
498.5168, 1390.694
498.9989, 1403.777
499.4810, 1415.676
499.9631, 1426.389
500.4452, 1437.819
500.9273, 1458.398
501.4095, 1490.357
501.8916, 1521.914
502.3737, 1544.721
502.8558, 1566.438
503.3379, 1600.470
503.8200, 1651.030
504.3022, 1696.441
504.7843, 1725.454
505.2664, 1746.745
505.7485, 1767.282
506.2306, 1788.887
506.7127, 1815.752
507.1949, 1851.997
507.6770, 1894.188
508.1591, 1926.663
508.6412, 1937.930
509.1233, 1956.443
509.6054, 1988.139
510.0876, 2023.817
510.5697, 2056.092
511.0518, 2085.278
511.5339, 2116.783
512.0161, 2154.502
512.4982, 2197.238
512.9803, 2243.962
513.4624, 2295.854
513.9445, 2342.183
514.4266, 2374.081
514.9088, 2402.994
515.3909, 2446.145
515.8730, 2505.164
516.3551, 2557.646
516.8372, 2594.530
517.3193, 2623.757
517.8015, 2650.407
518.2836, 2675.933
518.7657, 2703.945
519.2478, 2736.277
519.7299, 2772.057
520.2120, 2809.545
520.6942, 2852.061
521.1763, 2890.039
521.6584, 2918.094
522.1405, 2947.101
522.6226, 2985.748
523.1047, 3030.319
523.5869, 3068.823
524.0690, 3092.405
524.5511, 3113.022
525.0332, 3155.276
525.5153, 3218.949
525.9974, 3268.391
526.4796, 3291.294
526.9617, 3303.776
527.4438, 3321.873
527.9259, 3344.812
528.4080, 3365.381
528.8901, 3376.985
529.3723, 3391.525
529.8544, 3420.864
530.3365, 3457.363
530.8186, 3484.254
531.3007, 3496.189
531.7828, 3504.169
532.2650, 3524.985
532.7471, 3562.853
533.2292, 3587.477
533.7113, 3583.151
534.1934, 3583.502
534.6755, 3605.962
535.1577, 3636.269
535.6398, 3654.165
536.1219, 3653.210
536.6040, 3646.233
537.0861, 3646.467
537.5682, 3650.341
538.0504, 3645.566
538.5325, 3630.165
539.0146, 3610.771
539.4967, 3592.310
539.9788, 3573.707
540.4609, 3550.144
540.9431, 3511.781
541.4252, 3482.119
541.9073, 3471.817
542.3894, 3468.497
542.8715, 3465.458
543.3536, 3458.550
543.8358, 3438.511
544.3179, 3395.401
544.8000, 3335.712
545.2821, 3288.322
545.7642, 3256.960
546.2463, 3227.894
546.7285, 3202.302
547.2106, 3174.392
547.6927, 3139.644
548.1748, 3098.124
548.6569, 3052.150
549.1390, 3000.226
549.6211, 2946.444
550.1032, 2894.710
550.5853, 2845.088
551.0674, 2798.379
551.5496, 2754.476
552.0317, 2713.296
552.5138, 2674.346
552.9959, 2636.840
553.4780, 2604.075
553.9601, 2577.765
554.4423, 2553.469
554.9244, 2528.592
555.4065, 2504.780
555.8886, 2485.199
556.3707, 2470.994
556.8528, 2459.202
557.3350, 2444.301
557.8171, 2427.550
558.2992, 2419.844
558.7813, 2423.451
559.2634, 2432.077
559.7455, 2441.731
560.2277, 2453.557
560.7098, 2469.608
561.1919, 2486.348
561.6740, 2513.570
562.1561, 2562.319
562.6382, 2618.194
563.1204, 2663.290
563.6025, 2698.389
564.0846, 2739.198
564.5667, 2797.970
565.0488, 2871.142
565.5309, 2947.609
566.0131, 3034.051
566.4952, 3106.759
566.9773, 3153.399
567.4594, 3191.526
567.9415, 3232.057
568.4236, 3273.951
568.9058, 3310.030
569.3879, 3344.531
569.8700, 3365.552
570.3521, 3363.385
570.8342, 3338.060
571.3163, 3288.764
571.7985, 3214.905
572.2806, 3119.278
572.7627, 3002.630
573.2448, 2861.195
573.7269, 2730.618
574.2090, 2620.943
574.6912, 2507.816
575.1733, 2378.338
575.6554, 2245.933
576.1375, 2122.808
576.6196, 2012.374
577.1017, 1915.853
577.5839, 1840.604
578.0660, 1779.933
578.5481, 1709.853
579.0302, 1628.790
579.5123, 1550.041
579.9944, 1478.784
580.4766, 1414.436
580.9587, 1357.240
581.4408, 1307.396
581.9229, 1261.096
582.4050, 1214.077
582.8871, 1174.322
583.3693, 1153.694
583.8514, 1143.911
584.3335, 1125.145
584.8156, 1088.373
585.2977, 1045.976
585.7798, 1017.925
586.2620, 1005.504
586.7441, 993.3959
587.2262, 980.8430
587.7083, 968.4144
588.1904, 957.0377
588.6725, 945.8074
589.1547, 933.1713
589.6368, 918.6522
590.1189, 903.2889
590.6010, 884.1059
591.0831, 866.2032
591.5652, 857.7064
592.0474, 858.0001
592.5295, 859.5140
593.0116, 857.3810
593.4937, 852.5607
593.9758, 848.0776
594.4579, 844.8118
594.9401, 839.8397
595.4222, 827.3032
595.9043, 818.2567
596.3864, 822.7208
596.8685, 835.0677
597.3506, 840.2454
597.8328, 829.3491
598.3149, 816.1382
598.7970, 814.4305
599.2791, 819.9761
599.7612, 821.9835
600.2433, 818.3746
600.7255, 811.6554
601.2076, 803.2316
601.6897, 793.6326
602.1718, 787.1384
602.6539, 781.9794
603.1360, 782.7808
603.6182, 796.4371
604.1003, 810.9149
604.5824, 817.1075
605.0645, 815.4293
605.5466, 811.2625
606.0287, 805.4944
606.5109, 801.8996
606.9930, 809.4283
607.4751, 826.1200
607.9572, 835.6945
608.4393, 833.3257
608.9214, 825.8732
609.4036, 818.5622
609.8857, 811.4175
610.3678, 811.4527
610.8499, 824.0674
611.3320, 836.2722
611.8141, 845.9544
612.2963, 853.2708
612.7784, 858.3232
613.2605, 861.1995
613.7426, 861.7196
614.2247, 858.2443
614.7068, 853.5587
615.1890, 856.5875
615.6711, 867.9082
616.1532, 873.3542
616.6353, 867.0753
617.1174, 856.6245
617.5995, 849.7405
618.0817, 846.5006
618.5638, 844.9741
619.0459, 844.5485
619.5280, 846.4445
620.0101, 854.1473
