##NAMES=Vivianite
##RRUFFID=R060025
##IDEAL CHEMISTRY=Fe^2+^_3_(PO_4_)_2_&#183;8H_2_O
##LOCALITY=Gypsy mine, Minas Gerais, Brazil
##OWNER=RRUFF
##SOURCE=Eric Van Valkenburg
##DESCRIPTION=Blue-green fragment
##STATUS=The identification of this mineral has been confirmed by X-ray diffraction.
##URL=rruff.info/R060025
105.5408, 130.1792
106.0229, 130.8268
106.5051, 131.7114
106.9872, 132.2860
107.4693, 132.0497
107.9514, 131.6038
108.4335, 131.3543
108.9156, 131.4459
109.3978, 131.7469
109.8799, 131.9422
110.3620, 131.8249
110.8441, 131.9155
111.3262, 132.3793
111.8083, 133.0569
112.2905, 133.7549
112.7726, 134.3552
113.2547, 134.8652
113.7368, 135.3987
114.2189, 136.0804
114.7010, 136.6589
115.1832, 136.9478
115.6653, 137.0324
116.1474, 137.1764
116.6295, 137.6088
117.1116, 138.3784
117.5937, 139.1985
118.0759, 140.1683
118.5580, 141.1273
119.0401, 141.8590
119.5222, 142.3148
120.0043, 142.8178
120.4864, 143.8147
120.9686, 145.2411
121.4507, 146.7065
121.9328, 148.0738
122.4149, 149.3985
122.8970, 150.7510
123.3791, 151.9277
123.8613, 153.4969
124.3434, 155.9376
124.8255, 159.2055
125.3076, 162.7039
125.7897, 165.9607
126.2718, 168.9418
126.7540, 172.1209
127.2361, 176.8499
127.7182, 180.9566
128.2003, 183.2392
128.6824, 183.4689
129.1645, 182.1782
129.6467, 180.0908
130.1288, 177.0555
130.6109, 173.4060
131.0930, 168.4875
131.5751, 163.4509
132.0572, 159.1999
132.5394, 156.1191
133.0215, 154.0213
133.5036, 152.3093
133.9857, 150.9073
134.4678, 150.0265
134.9499, 149.9428
135.4321, 150.3669
135.9142, 150.8373
136.3963, 151.0713
136.8784, 151.1547
137.3605, 151.6519
137.8426, 152.5670
138.3248, 153.7832
138.8069, 155.3881
139.2890, 157.3239
139.7711, 159.2552
140.2532, 160.9046
140.7353, 162.3829
141.2175, 164.0998
141.6996, 166.2329
142.1817, 168.5360
142.6638, 170.7868
143.1459, 172.9662
143.6280, 175.1219
144.1102, 177.3197
144.5923, 179.5166
145.0744, 181.6412
145.5565, 183.7642
146.0386, 185.7912
146.5207, 187.4880
147.0029, 188.9765
147.4850, 189.8563
147.9671, 189.8280
148.4492, 189.1383
148.9313, 188.3215
149.4134, 187.8638
149.8955, 187.7913
150.3777, 187.1430
150.8598, 185.2534
151.3419, 183.2974
151.8240, 181.4887
152.3061, 179.9192
152.7882, 178.6810
153.2704, 177.8730
153.7525, 177.5547
154.2346, 177.5169
154.7167, 177.6873
155.1988, 178.1164
155.6809, 178.7967
156.1631, 179.7463
156.6452, 181.0130
157.1273, 182.6259
157.6094, 184.4151
158.0915, 187.1733
158.5736, 191.6868
159.0558, 196.7560
159.5379, 201.1857
160.0200, 204.6066
160.5021, 207.5919
160.9842, 211.1573
161.4663, 215.5228
161.9485, 219.6389
162.4306, 223.6284
162.9127, 227.1917
163.3948, 229.8600
163.8769, 231.5436
164.3590, 232.0545
164.8412, 231.1543
165.3233, 228.7864
165.8054, 225.7902
166.2875, 222.5741
166.7696, 219.1150
167.2517, 215.2986
167.7339, 210.7814
168.2160, 206.1175
168.6981, 201.8355
169.1802, 197.9705
169.6623, 194.5715
170.1444, 191.7688
170.6266, 189.6142
171.1087, 187.7542
171.5908, 186.2856
172.0729, 184.9836
172.5550, 183.6255
173.0371, 182.1365
173.5193, 180.8052
174.0014, 180.1313
174.4835, 180.3764
174.9656, 180.7721
175.4477, 181.2447
175.9298, 181.7495
176.4120, 182.2294
176.8941, 182.6602
177.3762, 183.0968
177.8583, 183.6764
178.3404, 184.3309
178.8225, 185.2679
179.3047, 186.6728
179.7868, 188.3030
180.2689, 189.8855
180.7510, 191.2672
181.2331, 192.5238
181.7152, 193.9685
182.1974, 195.4815
182.6795, 197.3219
183.1616, 199.5989
183.6437, 202.2354
184.1258, 205.1299
184.6079, 208.2380
185.0900, 211.5428
185.5722, 214.8710
186.0543, 218.0573
186.5364, 221.4192
187.0185, 225.0328
187.5006, 228.8900
187.9827, 233.0564
188.4649, 237.5711
188.9470, 242.4431
189.4291, 247.4879
189.9112, 252.3633
190.3933, 257.7067
190.8754, 263.9832
191.3576, 271.1751
191.8397, 278.7022
192.3218, 286.4015
192.8039, 294.1924
193.2860, 301.9614
193.7681, 309.8242
194.2503, 317.5637
194.7324, 325.1938
195.2145, 332.8705
195.6966, 339.6054
196.1787, 345.1713
196.6608, 349.3521
197.1430, 351.5572
197.6251, 351.4995
198.1072, 349.4922
198.5893, 345.9887
199.0714, 340.8838
199.5535, 334.3735
200.0357, 326.1727
200.5178, 316.8969
200.9999, 307.0656
201.4820, 296.7430
201.9641, 286.1029
202.4462, 275.5826
202.9284, 264.7633
203.4105, 254.7970
203.8926, 245.8869
204.3747, 237.8540
204.8568, 230.4637
205.3389, 223.6235
205.8211, 217.3412
206.3032, 211.8052
206.7853, 207.2937
207.2674, 203.2839
207.7495, 199.6740
208.2316, 196.4580
208.7138, 193.6655
209.1959, 191.3401
209.6780, 189.4181
210.1601, 187.5101
210.6422, 184.9958
211.1243, 183.1762
211.6065, 182.5840
212.0886, 182.8140
212.5707, 183.2071
213.0528, 183.3378
213.5349, 183.2618
214.0170, 183.5406
214.4992, 184.3368
214.9813, 185.2659
215.4634, 186.1091
215.9455, 187.0050
216.4276, 188.2861
216.9097, 190.1869
217.3919, 192.6439
217.8740, 195.0427
218.3561, 197.2790
218.8382, 199.5670
219.3203, 201.7510
219.8024, 204.0014
220.2845, 206.8505
220.7667, 210.7759
221.2488, 215.5420
221.7309, 219.7176
222.2130, 222.7743
222.6951, 225.8157
223.1772, 229.6218
223.6594, 233.9995
224.1415, 238.0057
224.6236, 241.0906
225.1057, 243.3857
225.5878, 245.6008
226.0699, 247.7682
226.5521, 249.8363
227.0342, 252.2731
227.5163, 254.9330
227.9984, 256.2086
228.4805, 254.8765
228.9626, 251.6917
229.4448, 248.3407
229.9269, 244.7094
230.4090, 241.2622
230.8911, 238.3938
231.3732, 236.1170
231.8553, 234.1054
232.3375, 232.2725
232.8196, 230.6392
233.3017, 229.2190
233.7838, 227.9966
234.2659, 227.0389
234.7480, 226.5768
235.2302, 226.6841
235.7123, 226.5787
236.1944, 225.8847
236.6765, 224.8861
237.1586, 223.8430
237.6407, 222.8355
238.1229, 221.6133
238.6050, 219.8843
239.0871, 217.6335
239.5692, 214.9994
240.0513, 211.9173
240.5334, 208.4912
241.0156, 204.5893
241.4977, 200.2003
241.9798, 195.7361
242.4619, 191.7816
242.9440, 188.4322
243.4261, 185.1904
243.9083, 182.0565
244.3904, 178.9530
244.8725, 175.7481
245.3546, 172.4358
245.8367, 169.2645
246.3188, 166.6239
246.8010, 164.6710
247.2831, 162.7791
247.7652, 160.7300
248.2473, 158.8338
248.7294, 157.3777
249.2115, 156.3634
249.6937, 155.5132
250.1758, 154.4854
250.6579, 153.2413
251.1400, 151.8923
251.6221, 150.0655
252.1042, 148.4224
252.5864, 147.4273
253.0685, 147.0751
253.5506, 147.0036
254.0327, 146.7889
254.5148, 146.3955
254.9969, 145.9644
255.4790, 145.4427
255.9612, 144.9307
256.4433, 144.5365
256.9254, 144.2329
257.4075, 143.8608
257.8896, 143.2119
258.3718, 142.1430
258.8539, 141.4594
259.3360, 141.2724
259.8181, 141.2815
260.3002, 141.4360
260.7823, 141.6721
261.2645, 141.8693
261.7466, 141.9197
262.2287, 141.8194
262.7108, 141.5770
263.1929, 140.9391
263.6750, 140.4235
264.1572, 140.3945
264.6393, 140.7406
265.1214, 141.0081
265.6035, 140.7904
266.0856, 140.0618
266.5677, 139.7990
267.0499, 140.5166
267.5320, 141.0864
268.0141, 140.8405
268.4962, 140.0063
268.9783, 139.3336
269.4604, 139.3760
269.9426, 140.0515
270.4247, 140.2936
270.9068, 139.6901
271.3889, 139.1872
271.8710, 139.2200
272.3531, 139.6340
272.8352, 140.0361
273.3174, 140.2110
273.7995, 140.1956
274.2816, 140.1645
274.7637, 140.1348
275.2458, 140.0752
275.7279, 140.0280
276.2101, 139.9436
276.6922, 139.6925
277.1743, 139.1855
277.6564, 138.5327
278.1385, 138.0445
278.6206, 137.7838
279.1028, 137.5307
279.5849, 137.2241
280.0670, 136.8865
280.5491, 136.5491
281.0312, 136.2178
281.5133, 135.9061
281.9955, 135.6654
282.4776, 135.5453
282.9597, 135.3195
283.4418, 134.7854
283.9239, 134.1455
284.4060, 133.7427
284.8882, 133.6854
285.3703, 133.7725
285.8524, 133.7292
286.3345, 133.5470
286.8166, 133.3775
287.2987, 133.2297
287.7809, 133.1207
288.2630, 133.0891
288.7451, 133.1476
289.2272, 133.2279
289.7093, 133.2401
290.1914, 133.1916
290.6736, 133.2174
291.1557, 133.4247
291.6378, 133.6705
292.1199, 133.7754
292.6020, 133.7179
293.0841, 133.6635
293.5663, 133.7456
294.0484, 133.9494
294.5305, 134.1733
295.0126, 134.4109
295.4947, 134.6620
295.9768, 134.9003
296.4590, 135.1281
296.9411, 135.4380
297.4232, 135.9176
297.9053, 136.5200
298.3874, 137.0835
298.8695, 137.5726
299.3517, 138.0552
299.8338, 138.6693
300.3159, 139.3689
300.7980, 139.7866
301.2801, 139.5811
301.7622, 139.1212
302.2444, 139.1942
302.7265, 140.0313
303.2086, 140.8363
303.6907, 141.0834
304.1728, 140.9113
304.6549, 140.8559
305.1371, 141.1935
305.6192, 141.5621
306.1013, 141.3699
306.5834, 140.5615
307.0655, 139.8142
307.5476, 139.5193
308.0298, 139.4909
308.5119, 139.2951
308.9940, 138.8240
309.4761, 138.2156
309.9582, 137.5262
310.4403, 136.7709
310.9225, 136.2187
311.4046, 136.1551
311.8867, 136.2766
312.3688, 136.0495
312.8509, 135.3571
313.3330, 134.6608
313.8152, 134.4520
314.2973, 134.5803
314.7794, 134.5658
315.2615, 134.1333
315.7436, 133.6203
316.2257, 133.4322
316.7079, 133.5865
317.1900, 133.7564
317.6721, 133.7284
318.1542, 133.5773
318.6363, 133.5001
319.1184, 133.5872
319.6006, 133.6574
320.0827, 133.4658
320.5648, 133.0695
321.0469, 132.9103
321.5290, 133.2327
322.0111, 133.8695
322.4933, 134.5160
322.9754, 135.2427
323.4575, 135.7752
323.9396, 135.8454
324.4217, 135.5889
324.9038, 135.4045
325.3860, 135.3812
325.8681, 135.5068
326.3502, 135.7894
326.8323, 136.2233
327.3144, 136.6998
327.7965, 137.3277
328.2787, 137.9370
328.7608, 138.1300
329.2429, 137.7616
329.7250, 137.4005
330.2071, 137.6972
330.6892, 138.5388
331.1714, 139.3106
331.6535, 139.8904
332.1356, 140.3566
332.6177, 140.7732
333.0998, 141.1446
333.5819, 141.4766
334.0641, 141.7295
334.5462, 141.9514
335.0283, 142.3160
335.5104, 142.9842
335.9925, 143.6434
336.4746, 144.0319
336.9568, 144.2117
337.4389, 144.4564
337.9210, 144.8920
338.4031, 145.4742
338.8852, 146.1102
339.3673, 146.8604
339.8495, 147.5150
340.3316, 147.9364
340.8137, 148.2046
341.2958, 148.5204
341.7779, 148.9763
342.2600, 149.3676
342.7421, 149.3313
343.2242, 148.8321
343.7064, 148.3629
344.1885, 148.0815
344.6706, 147.8422
345.1527, 147.5046
345.6348, 147.0460
346.1169, 146.4685
346.5991, 145.7819
347.0812, 144.9652
347.5633, 143.9858
348.0454, 142.6607
348.5275, 141.3141
349.0096, 140.0939
349.4918, 139.0235
349.9739, 138.2107
350.4560, 137.7867
350.9381, 137.6366
351.4202, 137.1808
351.9023, 136.1724
352.3845, 135.2014
352.8666, 134.4243
353.3487, 133.8057
353.8308, 133.3167
354.3129, 132.9584
354.7950, 132.6508
355.2772, 132.2347
355.7593, 131.6812
356.2414, 131.0844
356.7235, 130.2578
357.2056, 129.4976
357.6877, 129.1674
358.1699, 129.3075
358.6520, 129.6069
359.1341, 129.7515
359.6162, 129.7314
360.0983, 129.5356
360.5804, 128.9756
361.0626, 128.4303
361.5447, 128.0826
362.0268, 127.9281
362.5089, 127.9106
362.9910, 128.0165
363.4731, 128.2141
363.9553, 128.2022
364.4374, 127.8058
364.9195, 127.4192
365.4016, 127.0495
365.8837, 126.7584
366.3658, 126.6767
366.8480, 126.8569
367.3301, 127.1361
367.8122, 127.1528
368.2943, 126.6021
368.7764, 126.2575
369.2585, 126.2444
369.7407, 126.3335
370.2228, 126.3363
370.7049, 126.2371
371.1870, 126.1682
371.6691, 126.2966
372.1512, 126.6772
372.6334, 126.9175
373.1155, 126.9466
373.5976, 126.9139
374.0797, 126.8140
374.5618, 126.6952
375.0439, 126.6582
375.5261, 126.7889
376.0082, 127.0249
376.4903, 127.0374
376.9724, 126.5800
377.4545, 126.2435
377.9366, 126.0785
378.4188, 126.0900
378.9009, 126.3591
379.3830, 126.8997
379.8651, 127.4809
380.3472, 127.6963
380.8293, 127.4181
381.3115, 127.1988
381.7936, 127.1157
382.2757, 127.0783
382.7578, 127.0648
383.2399, 127.0608
383.7220, 127.0331
384.2042, 126.9161
384.6863, 126.7247
385.1684, 126.7038
385.6505, 127.0518
386.1326, 127.2850
386.6147, 127.1215
387.0969, 126.7481
387.5790, 126.4654
388.0611, 126.4135
388.5432, 126.4948
389.0253, 126.5472
389.5074, 126.5736
389.9896, 126.5569
390.4717, 126.4020
390.9538, 126.2550
391.4359, 126.2515
391.9180, 126.4139
392.4001, 126.6287
392.8823, 126.8225
393.3644, 126.9943
393.8465, 127.1265
394.3286, 127.1632
394.8107, 127.2479
395.2928, 127.6139
395.7750, 128.1571
396.2571, 128.4761
396.7392, 128.2529
397.2213, 127.7948
397.7034, 127.5334
398.1855, 127.4875
398.6677, 127.5137
399.1498, 127.5717
399.6319, 127.6337
400.1140, 127.6354
400.5961, 127.5377
401.0782, 127.4424
401.5604, 127.3961
402.0425, 127.3975
402.5246, 127.4615
403.0067, 127.6158
403.4888, 127.7711
403.9709, 127.7364
404.4531, 127.4646
404.9352, 127.3981
405.4173, 127.8540
405.8994, 128.4072
406.3815, 128.5352
406.8636, 128.2369
407.3458, 128.0487
407.8279, 128.4812
408.3100, 129.4658
408.7921, 129.8512
409.2742, 129.0751
409.7563, 128.4048
410.2385, 128.3544
410.7206, 128.7207
411.2027, 129.1561
411.6848, 129.5184
412.1669, 129.8061
412.6490, 130.0142
413.1311, 130.1264
413.6133, 130.1705
414.0954, 129.9960
414.5775, 129.8640
415.0596, 130.0686
415.5417, 130.5638
416.0238, 130.9734
416.5060, 130.8991
416.9881, 130.3194
417.4702, 130.1102
417.9523, 130.6777
418.4344, 131.1885
418.9165, 131.3891
419.3987, 131.4305
419.8808, 131.5877
420.3629, 131.9910
420.8450, 132.4484
421.3271, 132.4861
421.8092, 131.8187
422.2914, 131.4573
422.7735, 131.6337
423.2556, 132.0359
423.7377, 132.5970
424.2198, 133.2464
424.7019, 133.7865
425.1841, 133.9321
425.6662, 133.7456
426.1483, 133.9551
426.6304, 134.8846
427.1125, 135.6795
427.5946, 135.8131
428.0768, 135.6186
428.5589, 135.5905
429.0410, 135.9337
429.5231, 136.4334
430.0052, 136.7877
430.4873, 136.9905
430.9695, 137.3496
431.4516, 138.0900
431.9337, 138.8960
432.4158, 139.3484
432.8979, 139.4429
433.3800, 139.6836
433.8622, 140.3982
434.3443, 141.3896
434.8264, 142.3608
435.3085, 143.2921
435.7906, 144.0843
436.2727, 144.5971
436.7549, 144.8971
437.2370, 145.3232
437.7191, 145.9517
438.2012, 146.6389
438.6833, 147.2554
439.1654, 147.8721
439.6476, 148.7003
440.1297, 149.8423
440.6118, 151.1226
441.0939, 152.2369
441.5760, 153.1016
442.0581, 154.0309
442.5403, 155.0862
443.0224, 156.1792
443.5045, 157.1749
443.9866, 158.1147
444.4687, 159.2119
444.9508, 160.6593
445.4330, 162.4108
445.9151, 164.0148
446.3972, 165.3993
446.8793, 166.7101
447.3614, 167.7954
447.8435, 168.8949
448.3257, 170.2991
448.8078, 172.0876
449.2899, 174.0950
449.7720, 176.1320
450.2541, 178.2739
450.7362, 180.1613
451.2184, 181.7579
451.7005, 183.1226
452.1826, 184.2579
452.6647, 185.1745
453.1468, 185.9050
453.6289, 186.4558
454.1111, 186.8468
454.5932, 187.1803
455.0753, 187.5715
455.5574, 187.5623
456.0395, 186.7745
456.5216, 185.6371
457.0038, 184.4584
457.4859, 183.2734
457.9680, 181.9826
458.4501, 180.5340
458.9322, 178.9151
459.4143, 177.0884
459.8965, 175.0257
460.3786, 172.8313
460.8607, 170.4824
461.3428, 168.0602
461.8249, 165.7788
462.3070, 163.6719
462.7892, 161.7220
463.2713, 160.0329
463.7534, 158.5220
464.2355, 156.8817
464.7176, 154.9705
465.1997, 152.9277
465.6819, 150.9191
466.1640, 148.8562
466.6461, 147.1962
467.1282, 146.2589
467.6103, 145.5520
468.0924, 144.6450
468.5746, 143.5524
469.0567, 142.5682
469.5388, 141.9330
470.0209, 141.5833
470.5030, 141.0586
470.9851, 140.1228
471.4673, 139.3015
471.9494, 138.7353
472.4315, 138.2684
472.9136, 137.7068
473.3957, 137.0222
473.8778, 136.3900
474.3600, 136.0801
474.8421, 136.1726
475.3242, 135.9880
475.8063, 135.2487
476.2884, 134.5094
476.7705, 133.8835
477.2527, 133.3939
477.7348, 133.0763
478.2169, 132.9662
478.6990, 132.9679
479.1811, 132.9318
479.6632, 132.8537
480.1454, 132.7717
480.6275, 132.7008
481.1096, 132.6214
481.5917, 132.4818
482.0738, 132.2980
482.5559, 132.2051
483.0380, 132.3649
483.5201, 132.6159
484.0023, 132.7261
484.4844, 132.6879
484.9665, 132.4501
485.4486, 131.8193
485.9307, 131.0620
486.4128, 130.9029
486.8950, 131.6687
487.3771, 132.2999
487.8592, 132.3260
488.3413, 132.0484
488.8234, 131.8570
489.3055, 131.8287
489.7877, 131.8505
490.2698, 131.7954
490.7519, 131.6497
491.2340, 131.7034
491.7161, 132.1376
492.1982, 132.5285
492.6804, 132.7254
493.1625, 132.8044
493.6446, 132.8706
494.1267, 132.9658
494.6088, 133.0915
495.0909, 133.2601
495.5731, 133.5003
496.0552, 133.6912
496.5373, 133.7648
497.0194, 133.8522
497.5015, 134.0988
497.9836, 134.3960
498.4658, 134.4560
498.9479, 134.0150
499.4300, 133.4562
499.9121, 133.6684
500.3942, 134.8194
500.8763, 135.6895
501.3585, 135.7641
501.8406, 135.5599
502.3227, 135.5292
502.8048, 135.6815
503.2869, 135.9009
503.7690, 136.0809
504.2512, 136.3159
504.7333, 136.8737
505.2154, 137.7698
505.6975, 138.3868
506.1796, 138.2099
506.6617, 137.5775
507.1439, 137.6091
507.6260, 138.7637
508.1081, 139.6272
508.5902, 139.4883
509.0723, 139.0326
509.5544, 139.0569
510.0366, 139.6814
510.5187, 140.5584
511.0008, 141.4242
511.4829, 142.2778
511.9650, 142.6803
512.4471, 142.0009
512.9293, 141.6201
513.4114, 142.0357
513.8935, 142.7778
514.3756, 143.2507
514.8577, 143.3011
515.3398, 143.3123
515.8220, 143.8262
516.3041, 144.9010
516.7862, 145.8390
517.2683, 146.6493
517.7504, 147.2808
518.2325, 147.6190
518.7147, 147.8021
519.1968, 148.0697
519.6789, 148.5337
520.1610, 149.0320
520.6431, 149.3367
521.1252, 149.4818
521.6074, 149.7536
522.0895, 150.2446
522.5716, 150.8265
523.0537, 151.4343
523.5358, 152.0527
524.0179, 152.4774
524.5001, 152.3806
524.9822, 152.3408
525.4643, 152.9017
525.9464, 153.8774
526.4285, 154.6716
526.9106, 155.0174
527.3928, 155.1398
527.8749, 155.4522
528.3570, 156.0164
528.8391, 156.6543
529.3212, 157.5919
529.8033, 158.3893
530.2855, 158.6079
530.7676, 158.4831
531.2497, 158.6577
531.7318, 159.5530
532.2139, 160.8083
532.6960, 161.4360
533.1782, 161.1990
533.6603, 161.0084
534.1424, 161.1120
534.6245, 161.2223
535.1066, 161.0784
535.5887, 160.7541
536.0709, 160.6216
536.5530, 161.0697
537.0351, 161.7627
537.5172, 161.9936
537.9993, 161.7323
538.4814, 161.6709
538.9636, 162.2717
539.4457, 163.0582
539.9278, 163.2350
540.4099, 162.7407
540.8920, 162.1312
541.3741, 161.3630
541.8563, 160.6780
542.3384, 160.3969
542.8205, 160.4716
543.3026, 160.5495
543.7847, 160.4087
544.2668, 160.1050
544.7490, 159.8470
545.2311, 159.8526
545.7132, 159.5877
546.1953, 158.7224
546.6774, 157.8320
547.1595, 157.4680
547.6417, 157.5387
548.1238, 157.4646
548.6059, 156.7641
549.0880, 155.6060
549.5701, 154.6607
550.0522, 154.0361
550.5344, 153.3603
551.0165, 152.2558
551.4986, 151.2343
551.9807, 150.8096
552.4628, 150.9910
552.9449, 151.1581
553.4271, 150.9681
553.9092, 150.5233
554.3913, 149.9541
554.8734, 149.2677
555.3555, 148.5865
555.8376, 147.9751
556.3198, 147.4144
556.8019, 146.8350
557.2840, 146.1767
557.7661, 145.6564
558.2482, 145.4090
558.7303, 145.2535
559.2125, 145.0586
559.6946, 144.7983
560.1767, 144.4376
560.6588, 143.9195
561.1409, 143.3394
561.6230, 143.1224
562.1052, 143.5295
562.5873, 143.8578
563.0694, 143.9744
563.5515, 144.0468
564.0336, 144.1690
564.5157, 144.3569
564.9979, 144.5979
565.4800, 144.8663
565.9621, 145.1912
566.4442, 145.6878
566.9263, 146.3898
567.4084, 147.0296
567.8906, 147.5045
568.3727, 147.8656
568.8548, 148.1490
569.3369, 148.3434
569.8190, 148.6436
570.3011, 149.4899
570.7833, 150.2149
571.2654, 149.9398
571.7475, 148.8227
572.2296, 147.8572
572.7117, 147.6145
573.1938, 147.6703
573.6760, 146.9723
574.1581, 144.9589
574.6402, 143.1999
575.1223, 141.5530
575.6044, 140.2623
576.0865, 139.7052
576.5687, 139.6178
577.0508, 139.3182
577.5329, 138.3756
578.0150, 137.1713
578.4971, 136.6501
578.9792, 137.0023
579.4614, 136.9476
579.9435, 135.9057
580.4256, 134.7742
580.9077, 134.2514
581.3898, 134.2135
581.8719, 134.1483
582.3541, 133.8717
582.8362, 133.4968
583.3183, 133.1317
583.8004, 132.7628
584.2825, 132.3098
584.7646, 131.7205
585.2468, 131.1651
585.7289, 130.8669
586.2110, 130.8739
586.6931, 130.9026
587.1752, 131.0233
587.6573, 131.0898
588.1394, 131.0829
588.6215, 130.9707
589.1036, 130.6733
589.5858, 130.1735
590.0679, 129.6152
590.5500, 129.1193
591.0321, 128.6524
591.5142, 128.6497
591.9963, 129.5460
592.4785, 130.2595
592.9606, 130.1610
593.4427, 129.6760
593.9248, 129.4360
594.4069, 129.6468
594.8890, 129.7970
595.3712, 129.3156
595.8533, 128.5226
596.3354, 128.2224
596.8175, 128.5367
597.2996, 128.9319
597.7817, 128.9781
598.2639, 128.7899
598.7460, 129.0004
599.2281, 130.1128
599.7102, 130.8849
600.1923, 130.9476
600.6744, 130.7224
601.1566, 130.5579
601.6387, 130.4898
602.1208, 130.3648
602.6029, 130.0358
603.0850, 129.6017
603.5671, 129.4624
604.0493, 129.6865
