##NAMES=Vivianite
##RRUFFID=R040185
##IDEAL CHEMISTRY=Fe^2+^_3_(PO_4_)_2_&#183;8H_2_O
##LOCALITY=Siglo XX mine, Llallagua, Bustillos, Potosi, Bolivia
##OWNER=RRUFF
##SOURCE=University of Arizona Mineral Museum
##DESCRIPTION=Green acicular single crystal
##STATUS=The identification of this mineral has been confirmed by X-ray diffraction and chemical analysis
##URL=rruff.info/R040185
##MEASURED CHEMISTRY=(Fe_1.00_Mn_0.01_)_3_(P_0.97_Si_0.03_O_3.94_F_0.07_)_2_Â·8H_2_O
114.9494, 32.53571
115.4315, 34.96928
115.9136, 37.25272
116.3958, 38.45366
116.8779, 39.35235
117.3600, 40.72432
117.8421, 42.88079
118.3242, 45.55707
118.8063, 48.78466
119.2885, 52.62371
119.7706, 56.38564
120.2527, 59.35503
120.7348, 61.95109
121.2169, 64.95300
121.6990, 69.87017
122.1812, 74.85111
122.6633, 77.16273
123.1454, 75.20301
123.6275, 74.14365
124.1096, 79.80285
124.5917, 91.04260
125.0739, 103.2129
125.5560, 112.9589
126.0381, 121.4755
126.5202, 131.0884
127.0023, 141.6428
127.4844, 154.2309
127.9666, 172.0349
128.4487, 194.9913
128.9308, 218.0820
129.4129, 238.2931
129.8950, 255.3532
130.3772, 266.7202
130.8593, 270.4248
131.3414, 268.0289
131.8235, 264.0882
132.3056, 258.1918
132.7877, 252.6992
133.2699, 250.5206
133.7520, 251.7292
134.2341, 254.7389
134.7162, 259.0410
135.1983, 264.6477
135.6804, 271.3166
136.1626, 278.7843
136.6447, 287.5599
137.1268, 299.0662
137.6089, 313.8412
138.0910, 329.1616
138.5731, 343.8241
139.0553, 358.4406
139.5374, 369.7774
140.0195, 375.3095
140.5016, 377.7616
140.9837, 387.9407
141.4658, 408.7325
141.9480, 432.8677
142.4301, 456.0916
142.9122, 480.4310
143.3943, 499.2281
143.8764, 509.6931
144.3585, 511.9843
144.8407, 518.7112
145.3228, 532.5441
145.8049, 548.7481
146.2870, 562.8668
146.7691, 573.7544
147.2512, 583.8585
147.7334, 593.9778
148.2155, 604.9437
148.6976, 612.5594
149.1797, 615.6506
149.6618, 615.7216
150.1439, 614.7618
150.6261, 612.1207
151.1082, 609.0439
151.5903, 605.5863
152.0724, 600.8710
152.5545, 597.7916
153.0366, 596.3376
153.5188, 596.6896
154.0009, 599.1899
154.4830, 605.7562
154.9651, 613.1208
155.4472, 619.7156
155.9293, 623.1670
156.4115, 629.0246
156.8936, 636.2229
157.3757, 646.1459
157.8578, 663.5396
158.3399, 695.4969
158.8221, 732.0453
159.3042, 766.9984
159.7863, 799.0676
160.2684, 829.1176
160.7505, 855.5975
161.2326, 879.3907
161.7148, 905.4614
162.1969, 940.2397
162.6790, 976.8123
163.1611, 1008.086
163.6432, 1035.633
164.1253, 1054.589
164.6075, 1061.020
165.0896, 1054.736
165.5717, 1042.426
166.0538, 1027.989
166.5359, 1009.783
167.0180, 985.5411
167.5002, 946.7419
167.9823, 906.0984
168.4644, 874.5229
168.9465, 853.9932
169.4286, 834.3152
169.9107, 804.6451
170.3929, 770.3013
170.8750, 741.7127
171.3571, 728.1262
171.8392, 721.6432
172.3213, 713.0560
172.8034, 699.8491
173.2856, 689.3521
173.7677, 689.3531
174.2498, 698.1539
174.7319, 709.8485
175.2140, 720.5636
175.6961, 731.9554
176.1783, 747.0035
176.6604, 767.2002
177.1425, 789.1638
177.6246, 807.8013
178.1067, 823.6661
178.5888, 841.6499
179.0710, 863.1686
179.5531, 889.0942
180.0352, 921.7099
180.5173, 962.9947
180.9994, 1009.439
181.4815, 1053.279
181.9637, 1095.082
182.4458, 1140.409
182.9279, 1197.730
183.4100, 1263.850
183.8921, 1327.525
184.3742, 1384.249
184.8564, 1437.186
185.3385, 1491.565
185.8206, 1547.858
186.3027, 1605.541
186.7848, 1666.592
187.2669, 1730.117
187.7491, 1791.509
188.2312, 1851.306
188.7133, 1907.603
189.1954, 1951.076
189.6775, 1978.894
190.1596, 2005.365
190.6418, 2049.100
191.1239, 2109.645
191.6060, 2174.366
192.0881, 2238.597
192.5702, 2302.636
193.0524, 2367.636
193.5345, 2431.722
194.0166, 2501.106
194.4987, 2590.540
194.9808, 2701.951
195.4629, 2804.647
195.9451, 2880.716
196.4272, 2931.615
196.9093, 2983.164
197.3914, 3042.010
197.8735, 3092.340
198.3556, 3102.786
198.8378, 3070.685
199.3199, 3016.435
199.8020, 2952.465
200.2841, 2880.473
200.7662, 2780.259
201.2483, 2645.512
201.7305, 2486.640
202.2126, 2324.904
202.6947, 2157.345
203.1768, 1997.970
203.6589, 1853.597
204.1410, 1725.443
204.6232, 1613.983
205.1053, 1522.930
205.5874, 1447.071
206.0695, 1367.274
206.5516, 1279.197
207.0337, 1198.581
207.5159, 1136.840
207.9980, 1097.776
208.4801, 1065.149
208.9622, 1038.281
209.4443, 1016.372
209.9264, 994.5949
210.4086, 970.6539
210.8907, 951.4081
211.3728, 944.0797
211.8549, 952.8088
212.3370, 958.5723
212.8191, 955.9947
213.3013, 947.1123
213.7834, 949.5675
214.2655, 966.0806
214.7476, 989.6639
215.2297, 1014.406
215.7118, 1040.344
216.1940, 1067.960
216.6761, 1096.744
217.1582, 1126.923
217.6403, 1162.032
218.1224, 1204.185
218.6045, 1247.890
219.0867, 1286.556
219.5688, 1314.702
220.0509, 1350.307
220.5330, 1397.298
221.0151, 1456.482
221.4972, 1516.772
221.9794, 1577.765
222.4615, 1640.879
222.9436, 1708.580
223.4257, 1782.086
223.9078, 1859.087
224.3899, 1941.022
224.8721, 2030.390
225.3542, 2105.546
225.8363, 2162.747
226.3184, 2209.931
226.8005, 2259.629
227.2827, 2322.482
227.7648, 2366.434
228.2469, 2380.198
228.7290, 2359.894
229.2111, 2339.677
229.6932, 2321.235
230.1754, 2301.760
230.6575, 2276.437
231.1396, 2240.727
231.6217, 2207.544
232.1038, 2181.094
232.5859, 2162.920
233.0681, 2142.695
233.5502, 2117.192
234.0323, 2092.022
234.5144, 2075.278
234.9965, 2069.857
235.4786, 2068.277
235.9608, 2068.756
236.4429, 2071.549
236.9250, 2075.691
237.4071, 2084.296
237.8892, 2092.266
238.3713, 2092.307
238.8535, 2086.756
239.3356, 2069.407
239.8177, 2038.737
240.2998, 1994.970
240.7819, 1935.176
241.2640, 1850.423
241.7462, 1753.888
242.2283, 1668.168
242.7104, 1599.862
243.1925, 1531.472
243.6746, 1456.148
244.1567, 1369.483
244.6389, 1289.667
245.1210, 1216.752
245.6031, 1150.765
246.0852, 1092.676
246.5673, 1044.013
247.0494, 1000.667
247.5316, 961.5424
248.0137, 927.1400
248.4958, 895.0481
248.9779, 864.9514
249.4600, 837.5192
249.9421, 815.3105
250.4243, 801.1649
250.9064, 786.8519
251.3885, 768.5940
251.8706, 743.6563
252.3527, 723.9220
252.8348, 711.0872
253.3170, 702.4187
253.7991, 692.7930
254.2812, 681.4155
254.7633, 670.7833
255.2454, 661.5730
255.7275, 653.5608
256.2097, 648.0826
256.6918, 645.2141
257.1739, 644.8823
257.6560, 647.5183
258.1381, 654.8865
258.6202, 661.6011
259.1024, 665.6274
259.5845, 666.4385
260.0666, 666.5612
260.5487, 665.9106
261.0308, 664.6330
261.5129, 662.2801
261.9951, 657.2429
262.4772, 655.0571
262.9593, 658.8110
263.4414, 670.2961
263.9235, 679.2712
264.4056, 685.2590
264.8878, 689.2740
265.3699, 692.7303
265.8520, 694.8770
266.3341, 698.7040
266.8162, 705.8494
267.2983, 716.8328
267.7805, 727.3672
268.2626, 737.1486
268.7447, 746.7249
269.2268, 757.3845
269.7089, 769.7111
270.1910, 781.0114
270.6732, 790.9382
271.1553, 799.7050
271.6374, 803.7036
272.1195, 801.4772
272.6016, 796.6190
273.0837, 795.1755
273.5659, 797.7709
274.0480, 800.5925
274.5301, 803.7275
275.0122, 807.3909
275.4943, 803.1322
275.9764, 789.2584
276.4586, 770.6455
276.9407, 754.3658
277.4228, 740.9457
277.9049, 727.0879
278.3870, 711.8336
278.8691, 695.1905
279.3513, 677.1243
279.8334, 657.3669
280.3155, 636.8755
280.7976, 616.2539
281.2798, 595.5974
281.7619, 576.6908
282.2440, 560.1668
282.7261, 545.9839
283.2082, 534.4300
283.6903, 526.0330
284.1725, 518.3219
284.6546, 507.7223
285.1367, 494.4578
285.6188, 482.0266
286.1009, 472.0005
286.5830, 463.8529
287.0652, 454.6934
287.5473, 444.2101
288.0294, 435.0683
288.5115, 431.4329
288.9936, 432.6083
289.4757, 432.9149
289.9579, 429.5852
290.4400, 424.2340
290.9221, 421.0504
291.4042, 420.0692
291.8863, 420.8220
292.3684, 423.5590
292.8506, 427.8686
293.3327, 431.9259
293.8148, 434.5981
294.2969, 437.0080
294.7790, 441.8753
295.2611, 449.2287
295.7433, 456.7219
296.2254, 461.8360
296.7075, 465.5166
297.1896, 470.1399
297.6717, 476.2153
298.1538, 483.8551
298.6360, 492.8511
299.1181, 503.3418
299.6002, 515.9751
300.0823, 534.4923
300.5644, 555.2728
301.0465, 571.1515
301.5287, 577.6041
302.0108, 581.7208
302.4929, 592.6234
302.9750, 609.0951
303.4571, 623.5400
303.9392, 630.1907
304.4214, 632.0354
304.9035, 633.2466
305.3856, 635.1176
305.8677, 636.0434
306.3498, 634.5544
306.8319, 630.9110
307.3141, 625.9586
307.7962, 621.5876
308.2783, 615.5646
308.7604, 605.1844
309.2425, 588.8654
309.7246, 570.8525
310.2068, 552.8721
310.6889, 535.1351
311.1710, 517.9828
311.6531, 498.3865
312.1352, 481.3529
312.6173, 472.3458
313.0995, 475.8201
313.5816, 477.0632
314.0637, 466.4901
314.5458, 449.0368
315.0279, 433.9392
315.5100, 426.5493
315.9922, 421.0784
316.4743, 413.8792
316.9564, 403.4438
317.4385, 395.8038
317.9206, 396.4372
318.4027, 400.2670
318.8849, 400.1975
319.3670, 387.7186
319.8491, 376.8281
320.3312, 374.2638
320.8133, 382.3785
321.2954, 387.3185
321.7776, 384.1996
322.2597, 377.4770
322.7418, 371.8991
323.2239, 367.7349
323.7060, 365.1879
324.1881, 364.7792
324.6703, 366.6961
325.1524, 368.4429
325.6345, 370.7039
326.1166, 372.2591
326.5987, 372.1265
327.0808, 368.1442
327.5630, 364.9916
328.0451, 362.5565
328.5272, 360.9422
329.0093, 362.5983
329.4914, 370.0289
329.9735, 378.4042
330.4557, 384.5682
330.9378, 387.4261
331.4199, 389.8982
331.9020, 391.6336
332.3841, 393.0709
332.8662, 396.7878
333.3484, 404.8824
333.8305, 412.0190
334.3126, 414.4325
334.7947, 409.1755
335.2768, 408.3980
335.7589, 413.7730
336.2411, 423.3642
336.7232, 432.5916
337.2053, 441.2036
337.6874, 449.9975
338.1695, 460.3519
338.6516, 472.8204
339.1338, 480.4568
339.6159, 481.3990
340.0980, 480.1476
340.5801, 485.7104
341.0622, 499.2063
341.5443, 509.6891
342.0265, 511.1099
342.5086, 504.6559
342.9907, 502.1701
343.4728, 504.4544
343.9549, 507.6458
344.4370, 506.8122
344.9192, 502.3055
345.4013, 497.3508
345.8834, 493.3777
346.3655, 489.7334
346.8476, 485.2833
347.3297, 480.0937
347.8119, 473.0198
348.2940, 461.1650
348.7761, 446.3174
349.2582, 434.2653
349.7403, 427.6183
350.2225, 423.1986
350.7046, 416.6888
351.1867, 408.2015
351.6688, 399.0531
352.1509, 391.0966
352.6331, 382.8369
353.1152, 371.4362
353.5973, 354.3852
354.0794, 337.5978
354.5615, 326.3272
355.0436, 319.6582
355.5258, 314.8051
356.0079, 310.9346
356.4900, 307.8239
356.9721, 305.6148
357.4542, 304.8304
357.9363, 303.2470
358.4185, 297.9250
358.9006, 291.1373
359.3827, 286.8161
359.8648, 290.0641
360.3469, 293.3438
360.8290, 291.8190
361.3112, 284.1854
361.7933, 278.3357
362.2754, 279.0168
362.7575, 281.8937
363.2396, 282.2559
363.7217, 276.2670
364.2039, 270.4313
364.6860, 266.3188
365.1681, 263.9767
365.6502, 262.4148
366.1323, 261.7993
366.6144, 261.7380
367.0966, 261.9840
367.5787, 264.6804
368.0608, 264.9748
368.5429, 260.5443
369.0250, 252.8168
369.5071, 249.3378
369.9893, 252.8755
370.4714, 257.4308
370.9535, 260.1707
371.4356, 260.3974
371.9177, 260.3169
372.3998, 259.9066
372.8820, 259.2242
373.3641, 258.2190
373.8462, 256.4729
374.3283, 255.4980
374.8104, 256.1176
375.2925, 258.5004
375.7747, 260.5758
376.2568, 262.3251
376.7389, 263.8392
377.2210, 265.2722
377.7031, 266.6436
378.1852, 267.6739
378.6674, 268.4069
379.1495, 268.7290
379.6316, 267.7064
380.1137, 265.1561
380.5958, 262.9985
381.0779, 263.7757
381.5601, 266.7970
382.0422, 268.5170
382.5243, 267.8344
383.0064, 265.9159
383.4885, 264.1681
383.9706, 262.6814
384.4528, 262.2362
384.9349, 264.3380
385.4170, 267.5777
385.8991, 269.6536
386.3812, 270.1322
386.8633, 269.7808
387.3455, 268.9922
387.8276, 267.9142
388.3097, 266.8687
388.7918, 264.1678
389.2739, 262.7705
389.7560, 266.5311
390.2382, 276.3370
390.7203, 284.0663
391.2024, 282.4168
391.6845, 277.2645
392.1666, 275.3647
392.6487, 283.0506
393.1309, 290.5817
393.6130, 293.7618
394.0951, 292.8900
394.5772, 291.9923
395.0593, 291.5834
395.5414, 291.7928
396.0236, 292.7088
396.5057, 294.3376
396.9878, 296.6898
397.4699, 301.3771
397.9520, 306.9971
398.4341, 309.0587
398.9163, 303.8593
399.3984, 298.9527
399.8805, 297.5916
400.3626, 302.2474
400.8447, 302.7056
401.3268, 295.7969
401.8090, 287.0340
402.2911, 284.3756
402.7732, 289.6531
403.2553, 296.3529
403.7374, 291.5952
404.2195, 307.8107
404.7017, 317.6926
405.1838, 321.5806
405.6659, 301.5238
406.1480, 312.3868
406.6301, 310.8585
407.1122, 308.8222
407.5944, 324.0373
408.0765, 307.4633
408.5586, 322.4044
409.0407, 324.7654
409.5228, 332.8839
410.0049, 328.5348
410.4871, 328.0368
410.9692, 340.0104
411.4513, 345.0781
411.9334, 339.2937
412.4155, 347.7783
412.8976, 337.8219
413.3798, 343.0973
413.8619, 351.7840
414.3440, 360.3116
414.8261, 364.8049
415.3082, 365.1939
415.7903, 364.0205
416.2725, 360.8299
416.7546, 357.8026
417.2367, 357.4472
417.7188, 363.3127
418.2009, 368.9834
418.6830, 371.2090
419.1652, 370.7300
419.6473, 370.1734
420.1294, 369.7063
420.6115, 369.9203
421.0937, 370.9694
421.5758, 372.2105
422.0579, 375.7154
422.5400, 383.7505
423.0221, 393.7972
423.5042, 401.9003
423.9864, 407.1791
424.4685, 411.2497
424.9506, 413.9939
425.4327, 415.1699
425.9148, 417.7148
426.3969, 421.9866
426.8791, 427.2137
427.3612, 432.9270
427.8433, 439.5719
428.3254, 445.1572
428.8075, 448.9618
429.2896, 451.6700
429.7718, 455.3581
430.2539, 459.9926
430.7360, 465.7426
431.2181, 473.2746
431.7002, 482.4022
432.1823, 489.5383
432.6645, 493.5808
433.1466, 498.7572
433.6287, 512.6555
434.1108, 533.5150
434.5929, 552.6320
435.0750, 563.7157
435.5572, 571.8223
436.0393, 587.2434
436.5214, 609.6054
437.0035, 631.0583
437.4856, 643.4110
437.9677, 651.4579
438.4499, 661.4292
438.9320, 673.9120
439.4141, 690.3825
439.8962, 714.7178
440.3783, 744.0402
440.8604, 771.6531
441.3426, 790.9055
441.8247, 810.0287
442.3068, 833.7373
442.7889, 863.1656
443.2710, 894.1962
443.7531, 926.8511
444.2353, 960.0389
444.7174, 993.1234
445.1995, 1025.300
445.6816, 1057.655
446.1637, 1090.405
446.6458, 1123.286
447.1280, 1156.583
447.6101, 1188.734
448.0922, 1223.180
448.5743, 1261.724
449.0564, 1306.288
449.5385, 1351.418
450.0207, 1398.513
450.5028, 1444.563
450.9849, 1483.629
451.4670, 1514.931
451.9491, 1541.382
452.4312, 1563.317
452.9134, 1581.002
453.3955, 1598.313
453.8776, 1615.760
454.3597, 1628.927
454.8418, 1633.119
455.3239, 1629.135
455.8061, 1620.374
456.2882, 1608.171
456.7703, 1590.460
457.2524, 1561.410
457.7345, 1523.372
458.2166, 1485.153
458.6988, 1458.179
459.1809, 1430.964
459.6630, 1388.801
460.1451, 1327.654
460.6272, 1267.429
461.1093, 1224.880
461.5915, 1189.526
462.0736, 1149.194
462.5557, 1091.359
463.0378, 1036.115
463.5199, 991.5733
464.0020, 957.1049
464.4842, 925.4844
464.9663, 901.2367
465.4484, 875.3805
465.9305, 842.1738
466.4126, 789.7266
466.8947, 750.0232
467.3769, 728.5492
467.8590, 717.4921
468.3411, 704.2534
468.8232, 688.4453
469.3053, 671.0870
469.7874, 650.9726
470.2696, 628.5339
470.7517, 612.2919
471.2338, 603.3354
471.7159, 597.3094
472.1980, 591.5642
472.6801, 586.0231
473.1623, 578.3504
473.6444, 567.4324
474.1265, 555.6796
474.6086, 547.2076
475.0907, 541.7174
475.5728, 537.2719
476.0550, 533.2493
476.5371, 529.4641
477.0192, 524.6813
477.5013, 518.7807
477.9834, 515.6580
478.4655, 523.0026
478.9477, 533.4870
479.4298, 537.1469
479.9119, 525.8919
480.3940, 513.6941
480.8761, 506.4074
481.3582, 503.7410
481.8404, 505.0328
482.3225, 516.4673
482.8046, 526.5371
483.2867, 528.9813
483.7688, 520.1874
484.2509, 514.4923
484.7331, 514.6792
485.2152, 517.7096
485.6973, 520.9064
486.1794, 524.4437
486.6615, 527.8638
487.1436, 531.1363
487.6258, 534.2612
488.1079, 537.3842
488.5900, 540.7481
489.0721, 543.3768
489.5542, 543.9747
490.0363, 542.5056
490.5185, 543.2300
491.0006, 546.1164
491.4827, 551.6526
491.9648, 562.6532
492.4470, 577.7891
492.9291, 589.2673
493.4112, 591.7513
493.8933, 591.2258
494.3754, 597.6682
494.8575, 610.0834
495.3397, 621.8168
495.8218, 628.3619
496.3039, 632.1534
496.7860, 635.4380
497.2681, 638.3031
497.7502, 641.9083
498.2324, 645.1545
498.7145, 650.0010
499.1966, 659.1831
499.6787, 678.3043
500.1608, 696.9890
500.6429, 711.3306
501.1251, 721.6230
501.6072, 733.6217
502.0893, 750.9473
502.5714, 767.3730
503.0535, 779.6253
503.5356, 784.7518
504.0178, 792.5706
504.4999, 802.9835
504.9820, 816.1502
505.4641, 833.4206
505.9462, 855.7390
506.4283, 876.9621
506.9105, 895.2107
507.3926, 910.8966
507.8747, 924.9030
508.3568, 937.1577
508.8389, 950.0616
509.3210, 966.2394
509.8032, 984.6528
510.2853, 1003.104
510.7674, 1021.722
511.2495, 1038.634
511.7316, 1049.772
512.2137, 1057.940
512.6959, 1068.639
513.1780, 1085.880
513.6601, 1105.110
514.1422, 1123.022
514.6243, 1140.013
515.1064, 1159.010
515.5886, 1182.459
516.0707, 1207.451
516.5528, 1232.280
517.0349, 1258.095
517.5170, 1281.350
517.9991, 1300.030
518.4813, 1316.461
518.9634, 1333.510
519.4455, 1352.466
519.9276, 1369.566
520.4097, 1382.345
520.8918, 1392.082
521.3740, 1410.032
521.8561, 1438.505
522.3382, 1467.537
522.8203, 1492.056
523.3024, 1511.807
523.7845, 1524.383
524.2667, 1528.276
524.7488, 1530.436
525.2309, 1539.226
525.7130, 1553.618
526.1951, 1570.014
526.6772, 1589.640
527.1594, 1608.531
527.6415, 1618.718
528.1236, 1622.693
528.6057, 1631.749
529.0878, 1661.071
529.5699, 1692.104
530.0521, 1709.574
530.5342, 1709.140
531.0163, 1706.858
531.4984, 1704.365
531.9805, 1704.122
532.4626, 1708.710
532.9448, 1725.467
533.4269, 1738.636
533.9090, 1744.582
534.3911, 1745.458
534.8732, 1749.948
535.3553, 1761.244
535.8375, 1770.215
536.3196, 1771.612
536.8017, 1764.917
537.2838, 1764.043
537.7659, 1771.578
538.2480, 1776.348
538.7302, 1761.292
539.2123, 1729.981
539.6944, 1708.470
540.1765, 1704.085
540.6586, 1708.807
541.1407, 1715.610
541.6229, 1722.830
542.1050, 1724.668
542.5871, 1715.996
543.0692, 1701.873
543.5513, 1685.592
544.0334, 1667.518
544.5156, 1650.197
544.9977, 1634.695
545.4798, 1620.509
545.9619, 1607.646
546.4440, 1599.529
546.9261, 1587.619
547.4083, 1572.063
547.8904, 1551.534
548.3725, 1523.222
548.8546, 1478.674
549.3367, 1440.067
549.8188, 1414.343
550.3010, 1400.274
550.7831, 1383.669
551.2652, 1364.177
551.7473, 1343.233
552.2294, 1320.408
552.7115, 1296.228
553.1937, 1277.960
553.6758, 1267.091
554.1579, 1258.340
554.6400, 1244.042
555.1221, 1226.379
555.6042, 1211.906
556.0864, 1204.067
556.5685, 1199.074
557.0506, 1194.190
557.5327, 1189.328
558.0148, 1184.238
558.4969, 1176.464
558.9791, 1170.169
559.4612, 1167.990
559.9433, 1170.521
560.4254, 1175.455
560.9075, 1181.265
561.3896, 1190.025
561.8718, 1203.829
562.3539, 1228.040
562.8360, 1247.997
563.3181, 1260.725
563.8002, 1269.272
564.2823, 1280.882
564.7645, 1295.574
565.2466, 1312.871
565.7287, 1332.840
566.2108, 1355.181
566.6929, 1380.382
567.1750, 1408.586
567.6572, 1431.762
568.1393, 1441.148
568.6214, 1440.628
569.1035, 1437.846
569.5856, 1434.512
570.0677, 1426.865
570.5499, 1410.935
571.0320, 1388.724
571.5141, 1363.348
571.9962, 1339.494
572.4783, 1309.178
572.9604, 1266.951
573.4426, 1214.915
573.9247, 1162.698
574.4068, 1110.671
574.8889, 1060.233
575.3710, 1011.235
575.8531, 963.0746
576.3353, 923.1749
576.8174, 895.0444
577.2995, 870.5413
577.7816, 840.6523
578.2637, 804.6144
578.7458, 772.9008
579.2280, 747.2151
579.7101, 726.1444
580.1922, 708.6575
580.6743, 694.1523
581.1564, 679.2288
581.6385, 659.9805
582.1207, 640.6381
582.6028, 628.6190
583.0849, 623.0266
583.5670, 616.0189
584.0491, 600.8887
584.5313, 583.8524
585.0134, 569.2077
585.4955, 557.1482
585.9776, 549.1115
586.4597, 549.8412
586.9418, 553.0264
587.4240, 551.4354
587.9061, 541.7912
588.3882, 531.9734
588.8703, 521.2786
589.3524, 511.3643
589.8345, 508.7440
590.3167, 516.1387
590.7988, 520.1873
591.2809, 512.8191
591.7630, 496.9767
592.2451, 488.2153
592.7272, 486.6946
593.2094, 488.3592
593.6915, 491.5814
594.1736, 495.2358
594.6557, 497.0623
595.1378, 496.4527
595.6199, 494.9019
596.1021, 493.3225
596.5842, 491.5528
597.0663, 489.3527
597.5485, 484.4885
598.0306, 481.4901
598.5127, 483.3784
598.9948, 488.7664
599.4769, 491.5783
599.9590, 489.4927
600.4412, 487.2001
600.9233, 486.0954
601.4054, 486.2062
601.8875, 486.8198
602.3696, 487.6841
602.8517, 489.6755
603.3339, 493.8387
603.8160, 500.0417
604.2981, 506.4747
604.7802, 513.1136
605.2623, 519.1198
605.7444, 524.6772
606.2266, 528.7715
606.7087, 528.3140
607.1908, 518.3431
607.6729, 507.4343
608.1550, 501.1288
608.6371, 499.2773
609.1193, 501.1736
609.6014, 509.7315
