##NAMES=Vivianite
##RRUFFID=R070331
##IDEAL CHEMISTRY=Fe^2+^_3_(PO_4_)_2_&#183;8H_2_O
##LOCALITY=Big Fish River, Yukon Territory, Canada
##OWNER=RRUFF
##SOURCE=Mark Mauthner
##DESCRIPTION=Platy, indigo-blue massive, associated with maricite
##STATUS=The identification of this mineral is confirmed by single-crystal X-ray diffraction and chemical analysis.
##URL=rruff.info/R070331
##MEASURED CHEMISTRY=(Fe^2+^_1.77_Mg_1.21_Mn_0.02_)_Σ=3_(P_1.00_O_4_)_2_·8H_2_O;  (dark phase, H_2_O is estimated by difference) : Na_1.00_Fe^2+^_1.00_P_1.00_O_4_ (light phase = maricite, with trace amounts of Mn)
164.4099, 2816.972
164.8920, 2853.917
165.3741, 2871.855
165.8563, 2882.779
166.3384, 2891.625
166.8205, 2899.092
167.3026, 2906.076
167.7847, 2910.617
168.2668, 2915.665
168.7490, 2929.602
169.2311, 2957.910
169.7132, 2982.657
170.1953, 2993.752
170.6774, 2995.631
171.1595, 2994.217
171.6417, 2990.282
172.1238, 2985.579
172.6059, 2986.501
173.0880, 2999.781
173.5701, 3004.524
174.0522, 2980.268
174.5344, 2944.615
175.0165, 2925.058
175.4986, 2941.921
175.9807, 2979.128
176.4628, 2990.342
176.9449, 2960.859
177.4271, 2931.581
177.9092, 2914.950
178.3913, 2908.743
178.8734, 2911.414
179.3555, 2924.735
179.8376, 2944.142
180.3197, 2955.155
180.8019, 2950.463
181.2840, 2950.426
181.7661, 2965.608
182.2482, 2987.157
182.7303, 3002.552
183.2124, 3003.489
183.6946, 2998.051
184.1767, 3011.453
184.6588, 3058.168
185.1409, 3098.551
185.6230, 3118.307
186.1051, 3128.190
186.5873, 3140.248
187.0694, 3160.008
187.5515, 3185.270
188.0336, 3211.753
188.5157, 3244.097
188.9978, 3268.530
189.4800, 3272.169
189.9621, 3271.632
190.4442, 3285.430
190.9263, 3322.316
191.4084, 3373.613
191.8905, 3418.242
192.3727, 3451.913
192.8548, 3486.554
193.3369, 3523.149
193.8190, 3562.090
194.3011, 3606.774
194.7832, 3658.781
195.2654, 3710.118
195.7475, 3740.729
196.2296, 3732.999
196.7117, 3738.022
197.1938, 3770.813
197.6759, 3812.374
198.1581, 3847.258
198.6402, 3870.221
199.1223, 3884.587
199.6044, 3897.681
200.0865, 3916.764
200.5686, 3918.360
201.0508, 3887.550
201.5329, 3849.873
202.0150, 3826.695
202.4971, 3823.271
202.9792, 3827.413
203.4613, 3819.294
203.9435, 3793.421
204.4256, 3767.114
204.9077, 3741.660
205.3898, 3715.813
205.8719, 3687.928
206.3540, 3658.017
206.8362, 3628.343
207.3183, 3602.299
207.8004, 3582.559
208.2825, 3560.083
208.7646, 3537.233
209.2467, 3510.244
209.7289, 3473.979
210.2110, 3429.632
210.6931, 3384.762
211.1752, 3348.020
211.6573, 3320.827
212.1395, 3297.680
212.6216, 3282.882
213.1037, 3268.286
213.5858, 3248.271
214.0679, 3224.021
214.5500, 3201.663
215.0322, 3187.999
215.5143, 3184.774
215.9964, 3178.925
216.4785, 3169.647
216.9606, 3158.521
217.4427, 3146.343
217.9249, 3132.803
218.4070, 3116.622
218.8891, 3096.026
219.3712, 3070.797
219.8533, 3049.186
220.3354, 3034.744
220.8176, 3020.660
221.2997, 3005.663
221.7818, 2989.614
222.2639, 2972.739
222.7460, 2955.440
223.2281, 2937.439
223.7103, 2917.228
224.1924, 2888.531
224.6745, 2864.580
225.1566, 2850.711
225.6387, 2842.719
226.1208, 2834.190
226.6030, 2821.345
227.0851, 2805.513
227.5672, 2792.129
228.0493, 2780.376
228.5314, 2772.688
229.0135, 2770.292
229.4957, 2771.566
229.9778, 2775.688
230.4599, 2782.456
230.9420, 2789.722
231.4241, 2791.899
231.9062, 2785.630
232.3884, 2779.737
232.8705, 2773.253
233.3526, 2768.684
233.8347, 2769.367
234.3168, 2776.198
234.7989, 2785.112
235.2811, 2788.492
235.7632, 2782.635
236.2453, 2780.089
236.7274, 2776.554
237.2095, 2779.731
237.6916, 2800.575
238.1738, 2838.685
238.6559, 2877.289
239.1380, 2892.865
239.6201, 2876.759
240.1022, 2869.766
240.5843, 2874.990
241.0665, 2888.195
241.5486, 2913.711
242.0307, 2948.088
242.5128, 2978.439
242.9949, 2989.667
243.4770, 2979.546
243.9592, 2977.338
244.4413, 2991.393
244.9234, 3005.967
245.4055, 3016.702
245.8876, 3023.285
246.3697, 3025.958
246.8519, 3023.343
247.3340, 3016.465
247.8161, 3014.583
248.2982, 3018.357
248.7803, 3027.003
249.2624, 3045.967
249.7446, 3068.206
250.2267, 3082.037
250.7088, 3079.975
251.1909, 3066.928
251.6730, 3055.058
252.1551, 3038.737
252.6373, 3035.982
253.1194, 3065.865
253.6015, 3105.220
254.0836, 3127.817
254.5657, 3122.491
255.0478, 3103.749
255.5300, 3096.215
256.0121, 3104.954
256.4942, 3105.615
256.9763, 3076.508
257.4584, 3045.133
257.9406, 3032.759
258.4227, 3044.216
258.9048, 3065.198
259.3869, 3083.317
259.8690, 3098.665
260.3511, 3109.423
260.8333, 3114.610
261.3154, 3115.172
261.7975, 3109.220
262.2796, 3097.536
262.7617, 3089.073
263.2438, 3092.201
263.7260, 3104.907
264.2081, 3115.441
264.6902, 3122.233
265.1723, 3127.172
265.6544, 3132.425
266.1365, 3137.395
266.6187, 3139.774
267.1008, 3134.217
267.5829, 3126.097
268.0650, 3127.302
268.5471, 3139.561
269.0292, 3156.344
269.5114, 3175.081
269.9935, 3195.107
270.4756, 3216.044
270.9577, 3242.921
271.4398, 3266.456
271.9219, 3272.268
272.4041, 3259.758
272.8862, 3250.480
273.3683, 3256.348
273.8504, 3271.960
274.3325, 3286.715
274.8146, 3302.522
275.2968, 3313.129
275.7789, 3310.094
276.2610, 3297.057
276.7431, 3288.809
277.2252, 3290.424
277.7073, 3299.598
278.1895, 3314.472
278.6716, 3337.371
279.1537, 3354.582
279.6358, 3358.462
280.1179, 3353.997
280.6000, 3349.770
281.0822, 3347.832
281.5643, 3345.121
282.0464, 3336.672
282.5285, 3321.771
283.0106, 3310.878
283.4927, 3310.462
283.9749, 3311.198
284.4570, 3303.049
284.9391, 3285.842
285.4212, 3268.279
285.9033, 3256.954
286.3854, 3252.155
286.8676, 3250.552
287.3497, 3258.335
287.8318, 3263.052
288.3139, 3259.624
288.7960, 3248.317
289.2781, 3228.610
289.7603, 3198.465
290.2424, 3162.589
290.7245, 3141.822
291.2066, 3151.018
291.6887, 3155.818
292.1708, 3150.710
292.6530, 3138.574
293.1351, 3121.698
293.6172, 3101.027
294.0993, 3079.040
294.5814, 3060.157
295.0635, 3044.901
295.5457, 3032.211
296.0278, 3022.666
296.5099, 3015.114
296.9920, 3011.874
297.4741, 3011.332
297.9562, 3005.855
298.4384, 2985.201
298.9205, 2944.809
299.4026, 2921.243
299.8847, 2929.069
300.3668, 2938.609
300.8489, 2942.296
301.3310, 2939.669
301.8131, 2931.410
302.2953, 2917.035
302.7774, 2898.403
303.2595, 2885.160
303.7416, 2880.173
304.2237, 2876.808
304.7058, 2875.704
305.1880, 2874.452
305.6701, 2870.904
306.1522, 2864.305
306.6343, 2854.382
307.1164, 2837.728
307.5985, 2809.459
308.0807, 2793.020
308.5628, 2805.323
309.0449, 2822.099
309.5270, 2830.204
310.0091, 2828.149
310.4912, 2820.831
310.9734, 2811.770
311.4555, 2800.937
311.9376, 2787.745
312.4197, 2770.167
312.9018, 2753.164
313.3839, 2741.318
313.8661, 2732.501
314.3482, 2721.088
314.8303, 2699.717
315.3124, 2676.303
315.7945, 2668.868
316.2766, 2681.290
316.7588, 2686.695
317.2409, 2663.641
317.7230, 2626.497
318.2051, 2599.241
318.6872, 2587.663
319.1693, 2581.285
319.6515, 2575.463
320.1336, 2569.281
320.6157, 2557.539
321.0978, 2536.461
321.5799, 2512.355
322.0620, 2494.768
322.5442, 2483.678
323.0263, 2476.233
323.5084, 2472.570
323.9905, 2471.678
324.4726, 2473.451
324.9547, 2477.839
325.4369, 2481.138
325.9190, 2479.485
326.4011, 2472.273
326.8832, 2465.937
327.3653, 2463.763
327.8474, 2459.424
328.3296, 2444.848
328.8117, 2424.428
329.2938, 2411.987
329.7759, 2416.506
330.2580, 2433.569
330.7401, 2443.007
331.2223, 2439.702
331.7044, 2435.074
332.1865, 2428.580
332.6686, 2422.094
333.1507, 2419.016
333.6328, 2419.931
334.1150, 2420.044
334.5971, 2410.381
335.0792, 2381.945
335.5613, 2368.815
336.0434, 2382.448
336.5255, 2399.321
337.0077, 2408.844
337.4898, 2410.802
337.9719, 2409.598
338.4540, 2408.767
338.9361, 2407.884
339.4182, 2402.470
339.9004, 2386.634
340.3825, 2375.215
340.8646, 2374.495
341.3467, 2379.372
341.8288, 2384.659
342.3109, 2389.190
342.7931, 2389.848
343.2752, 2380.252
343.7573, 2358.768
344.2394, 2338.231
344.7215, 2318.084
345.2036, 2303.198
345.6858, 2300.953
346.1679, 2311.069
346.6500, 2317.060
347.1321, 2304.466
347.6142, 2279.892
348.0963, 2261.731
348.5785, 2252.784
349.0606, 2247.035
349.5427, 2240.347
350.0248, 2233.145
350.5069, 2226.794
350.9890, 2222.978
351.4712, 2218.921
351.9533, 2211.661
352.4354, 2201.815
352.9175, 2192.816
353.3996, 2186.642
353.8817, 2181.893
354.3639, 2174.896
354.8460, 2165.989
355.3281, 2154.954
355.8102, 2139.225
356.2923, 2122.475
356.7744, 2108.404
357.2566, 2097.941
357.7387, 2092.208
358.2208, 2093.569
358.7029, 2104.652
359.1850, 2107.709
359.6671, 2096.790
360.1493, 2085.040
360.6314, 2079.677
361.1135, 2078.062
361.5956, 2073.454
362.0777, 2061.647
362.5598, 2044.599
363.0420, 2028.654
363.5241, 2007.945
364.0062, 1998.762
364.4883, 2011.497
364.9704, 2029.814
365.4525, 2039.420
365.9347, 2037.588
366.4168, 2032.806
366.8989, 2035.343
367.3810, 2045.871
367.8631, 2052.827
368.3452, 2055.221
368.8274, 2054.322
369.3095, 2049.368
369.7916, 2041.914
370.2737, 2035.762
370.7558, 2034.120
371.2379, 2033.614
371.7201, 2024.730
372.2022, 2005.409
372.6843, 1998.745
373.1664, 2026.560
373.6485, 2065.288
374.1306, 2077.797
374.6128, 2056.455
375.0949, 2032.486
375.5770, 2022.357
376.0591, 2021.031
376.5412, 2018.425
377.0233, 2012.298
377.5055, 2006.258
377.9876, 2003.074
378.4697, 2003.000
378.9518, 2009.262
379.4339, 2032.494
379.9160, 2052.546
380.3982, 2056.055
380.8803, 2046.155
381.3624, 2030.922
381.8445, 2013.550
382.3266, 1997.990
382.8087, 1996.440
383.2909, 2029.810
383.7730, 2049.930
384.2551, 2045.659
384.7372, 2034.506
385.2193, 2030.743
385.7014, 2036.502
386.1836, 2044.828
386.6657, 2048.416
387.1478, 2046.949
387.6299, 2046.514
388.1120, 2047.526
388.5941, 2049.193
389.0763, 2056.839
389.5584, 2063.673
390.0405, 2055.688
390.5226, 2022.103
391.0047, 1985.318
391.4868, 1987.083
391.9690, 2032.698
392.4511, 2065.568
392.9332, 2061.742
393.4153, 2047.318
393.8974, 2049.124
394.3795, 2067.294
394.8617, 2081.581
395.3438, 2078.676
395.8259, 2066.748
396.3080, 2060.292
396.7901, 2060.941
397.2722, 2059.037
397.7544, 2043.547
398.2365, 2019.979
398.7186, 2015.227
399.2007, 2045.409
399.6828, 2075.877
400.1649, 2095.184
400.6471, 2105.515
401.1292, 2109.267
401.6113, 2107.197
402.0934, 2102.647
402.5755, 2100.385
403.0576, 2100.748
403.5398, 2102.702
404.0219, 2104.521
404.5040, 2109.277
404.9861, 2119.751
405.4682, 2134.541
405.9503, 2150.964
406.4325, 2168.113
406.9146, 2183.886
407.3967, 2189.395
407.8788, 2177.830
408.3609, 2169.948
408.8430, 2166.828
409.3252, 2170.453
409.8073, 2186.206
410.2894, 2213.750
410.7715, 2240.223
411.2536, 2252.980
411.7357, 2254.654
412.2179, 2257.831
412.7000, 2262.735
413.1821, 2270.512
413.6642, 2285.326
414.1463, 2303.397
414.6284, 2316.640
415.1106, 2322.219
415.5927, 2324.322
416.0748, 2321.521
416.5569, 2317.189
417.0390, 2323.685
417.5211, 2346.853
418.0033, 2376.229
418.4854, 2396.107
418.9675, 2403.042
419.4496, 2411.516
419.9317, 2425.148
420.4138, 2437.763
420.8960, 2442.477
421.3781, 2442.022
421.8602, 2446.553
422.3423, 2463.601
422.8244, 2488.709
423.3065, 2502.158
423.7887, 2493.910
424.2708, 2489.397
424.7529, 2491.563
425.2350, 2497.920
425.7171, 2508.983
426.1992, 2523.523
426.6814, 2535.257
427.1635, 2538.272
427.6456, 2532.951
428.1277, 2522.276
428.6098, 2501.417
429.0919, 2484.598
429.5741, 2480.749
430.0562, 2484.954
430.5383, 2491.497
431.0204, 2501.622
431.5025, 2508.225
431.9846, 2501.683
432.4668, 2486.086
432.9489, 2477.510
433.4310, 2481.822
433.9131, 2487.992
434.3952, 2480.983
434.8773, 2458.792
435.3595, 2446.075
435.8416, 2451.458
436.3237, 2460.124
436.8058, 2461.851
437.2879, 2459.317
437.7701, 2461.551
438.2522, 2473.567
438.7343, 2490.537
439.2164, 2499.813
439.6985, 2494.944
440.1806, 2493.725
440.6628, 2497.461
441.1449, 2503.693
441.6270, 2513.597
442.1091, 2525.109
442.5912, 2531.813
443.0733, 2525.923
443.5555, 2512.573
444.0376, 2513.927
444.5197, 2536.795
445.0018, 2555.209
445.4839, 2548.450
445.9660, 2538.145
446.4482, 2548.321
446.9303, 2584.319
447.4124, 2621.184
447.8945, 2643.717
448.3766, 2656.309
448.8587, 2667.456
449.3409, 2678.295
449.8230, 2687.676
450.3051, 2693.455
450.7872, 2696.602
451.2693, 2705.768
451.7514, 2728.068
452.2336, 2747.627
452.7157, 2753.563
453.1978, 2755.640
453.6799, 2769.068
454.1620, 2797.690
454.6441, 2831.444
455.1263, 2858.260
455.6084, 2878.331
456.0905, 2890.218
456.5726, 2882.437
457.0547, 2877.938
457.5368, 2889.098
458.0190, 2906.833
458.5011, 2915.146
458.9832, 2906.122
459.4653, 2891.136
459.9474, 2886.089
460.4295, 2891.114
460.9117, 2898.706
461.3938, 2909.548
461.8759, 2919.715
462.3580, 2925.112
462.8401, 2926.586
463.3222, 2928.478
463.8044, 2935.196
464.2865, 2940.302
464.7686, 2934.773
465.2507, 2921.772
465.7328, 2915.615
466.2149, 2924.016
466.6971, 2937.115
467.1792, 2935.225
467.6613, 2908.066
468.1434, 2886.948
468.6255, 2875.322
469.1076, 2866.571
469.5898, 2858.201
470.0719, 2849.226
470.5540, 2838.976
471.0361, 2827.180
471.5182, 2813.273
472.0003, 2794.071
472.4825, 2766.130
472.9646, 2742.647
473.4467, 2729.218
473.9288, 2719.388
474.4109, 2712.056
474.8930, 2705.941
475.3752, 2694.046
475.8573, 2666.378
476.3394, 2632.786
476.8215, 2610.282
477.3036, 2599.374
477.7857, 2592.538
478.2679, 2587.212
478.7500, 2582.662
479.2321, 2577.290
479.7142, 2572.041
480.1963, 2564.076
480.6784, 2548.384
481.1606, 2532.745
481.6427, 2526.457
482.1248, 2528.368
482.6069, 2528.582
483.0890, 2519.206
483.5711, 2502.440
484.0533, 2490.431
484.5354, 2486.200
485.0175, 2481.919
485.4996, 2476.722
485.9817, 2470.850
486.4638, 2463.029
486.9460, 2453.877
487.4281, 2447.879
487.9102, 2452.599
488.3923, 2462.979
488.8744, 2461.543
489.3565, 2445.815
489.8387, 2431.998
490.3208, 2429.086
490.8029, 2432.954
491.2850, 2433.996
491.7671, 2430.120
492.2492, 2429.448
492.7314, 2439.015
493.2135, 2450.808
493.6956, 2453.896
494.1777, 2448.408
494.6598, 2444.835
495.1419, 2452.191
495.6241, 2467.615
496.1062, 2472.431
496.5883, 2456.319
497.0704, 2443.720
497.5525, 2432.655
498.0346, 2428.786
498.5168, 2442.744
498.9989, 2471.977
499.4810, 2496.507
499.9631, 2496.158
500.4452, 2478.084
500.9273, 2469.772
501.4095, 2473.190
501.8916, 2477.896
502.3737, 2477.307
502.8558, 2476.848
503.3379, 2486.094
503.8200, 2508.247
504.3022, 2527.045
504.7843, 2533.749
505.2664, 2535.381
505.7485, 2539.155
506.2306, 2545.835
506.7127, 2553.864
507.1949, 2562.165
507.6770, 2571.118
508.1591, 2582.266
508.6412, 2596.476
509.1233, 2611.894
509.6054, 2630.281
510.0876, 2648.347
510.5697, 2666.318
511.0518, 2682.265
511.5339, 2689.702
512.0161, 2679.501
512.4982, 2660.304
512.9803, 2656.599
513.4624, 2670.390
513.9445, 2688.122
514.4266, 2707.444
514.9088, 2726.531
515.3909, 2744.964
515.8730, 2763.462
516.3551, 2773.336
516.8372, 2762.866
517.3193, 2749.382
517.8015, 2748.639
518.2836, 2759.854
518.7657, 2776.659
519.2478, 2796.438
519.7299, 2816.165
520.2120, 2827.874
520.6942, 2823.098
521.1763, 2826.671
521.6584, 2844.275
522.1405, 2863.842
522.6226, 2881.528
523.1047, 2895.803
523.5869, 2903.876
524.0690, 2902.888
524.5511, 2898.276
525.0332, 2897.039
525.5153, 2899.205
525.9974, 2911.060
526.4796, 2940.723
526.9617, 2969.757
527.4438, 2973.492
527.9259, 2955.478
528.4080, 2945.888
528.8901, 2952.531
529.3723, 2965.142
529.8544, 2978.845
530.3365, 2993.911
530.8186, 3014.903
531.3007, 3042.927
531.7828, 3064.740
532.2650, 3058.854
532.7471, 3017.995
533.2292, 2994.774
533.7113, 3003.740
534.1934, 3014.308
534.6755, 3015.414
535.1577, 3013.255
535.6398, 3017.898
536.1219, 3032.958
536.6040, 3048.079
537.0861, 3052.881
537.5682, 3049.958
538.0504, 3048.512
538.5325, 3050.275
539.0146, 3048.043
539.4967, 3034.571
539.9788, 3013.001
540.4609, 2999.316
540.9431, 2998.562
541.4252, 2997.641
541.9073, 2997.319
542.3894, 2993.483
542.8715, 2979.182
543.3536, 2955.969
543.8358, 2934.776
544.3179, 2925.664
544.8000, 2924.232
545.2821, 2909.623
545.7642, 2875.726
546.2463, 2845.421
546.7285, 2824.616
547.2106, 2809.777
547.6926, 2799.016
548.1747, 2792.046
548.6569, 2787.280
549.1390, 2793.433
549.6211, 2794.882
550.1032, 2767.678
550.5853, 2718.455
551.0674, 2676.680
551.5496, 2653.680
552.0317, 2643.918
552.5138, 2639.195
552.9959, 2641.860
553.4780, 2641.568
553.9601, 2641.503
554.4423, 2635.579
554.9244, 2617.478
555.4065, 2593.103
555.8886, 2571.430
556.3707, 2555.681
556.8528, 2542.702
557.3350, 2529.198
557.8171, 2515.191
558.2992, 2499.383
558.7813, 2479.178
559.2634, 2465.576
559.7455, 2472.485
560.2277, 2490.712
560.7098, 2490.384
561.1919, 2457.536
561.6740, 2430.239
562.1561, 2422.462
562.6382, 2424.845
563.1204, 2428.834
563.6025, 2432.868
564.0846, 2437.855
564.5667, 2444.563
565.0488, 2452.687
565.5309, 2461.563
566.0131, 2472.737
566.4952, 2480.744
566.9773, 2484.683
567.4594, 2484.953
567.9415, 2479.219
568.4236, 2469.213
568.9058, 2462.236
569.3879, 2460.486
569.8700, 2463.869
570.3521, 2474.320
570.8342, 2490.047
571.3163, 2504.572
571.7985, 2515.723
572.2806, 2527.634
572.7627, 2547.055
573.2448, 2576.540
573.7269, 2589.517
574.2090, 2568.468
574.6912, 2552.837
575.1733, 2562.080
575.6554, 2576.795
576.1375, 2570.351
576.6196, 2538.879
577.1017, 2509.440
577.5839, 2512.653
578.0660, 2537.453
578.5481, 2545.520
579.0302, 2534.799
579.5123, 2520.781
579.9944, 2510.167
580.4766, 2500.631
580.9587, 2486.306
581.4408, 2464.226
581.9229, 2449.893
582.4050, 2454.403
582.8871, 2459.304
583.3693, 2451.946
583.8514, 2435.279
584.3335, 2416.380
584.8156, 2398.525
585.2977, 2383.185
585.7798, 2372.673
586.2620, 2367.164
586.7441, 2365.647
587.2262, 2372.349
587.7083, 2375.927
588.1904, 2367.808
588.6725, 2352.899
589.1547, 2338.281
589.6368, 2323.671
590.1189, 2312.489
590.6010, 2309.156
591.0831, 2308.648
591.5652, 2304.885
592.0474, 2297.391
592.5295, 2287.853
593.0116, 2277.044
593.4937, 2266.053
593.9758, 2258.613
594.4579, 2257.603
594.9401, 2253.374
595.4222, 2242.472
595.9043, 2230.589
596.3864, 2219.690
596.8685, 2210.106
597.3506, 2202.152
597.8328, 2195.724
598.3149, 2191.473
598.7970, 2194.015
599.2791, 2198.844
599.7612, 2190.374
600.2433, 2165.505
600.7255, 2146.054
601.2076, 2153.850
601.6897, 2183.332
602.1718, 2188.833
602.6539, 2145.192
603.1360, 2111.341
603.6182, 2095.568
604.1003, 2087.899
604.5824, 2082.489
605.0645, 2078.226
605.5466, 2075.391
606.0287, 2075.331
606.5109, 2075.138
606.9930, 2068.786
607.4751, 2057.338
607.9572, 2050.153
608.4393, 2050.478
608.9214, 2051.710
609.4036, 2046.552
609.8857, 2034.968
610.3678, 2027.920
610.8499, 2028.899
611.3320, 2029.553
611.8141, 2027.680
612.2963, 2024.738
612.7784, 2022.853
613.2605, 2021.819
613.7426, 2019.136
614.2247, 2012.970
614.7068, 2003.771
615.1890, 1991.454
615.6711, 1975.768
616.1532, 1962.979
616.6353, 1956.000
617.1174, 1950.617
617.5995, 1941.075
618.0817, 1927.252
618.5638, 1918.881
619.0459, 1915.909
619.5280, 1918.926
620.0101, 1935.159
620.4922, 1954.058
620.9744, 1962.937
621.4565, 1959.392
621.9386, 1948.277
622.4207, 1930.589
622.9028, 1910.240
623.3849, 1905.682
623.8671, 1920.542
624.3492, 1930.030
624.8313, 1926.136
625.3134, 1914.342
625.7955, 1896.389
626.2776, 1872.740
626.7598, 1861.917
627.2419, 1875.862
627.7240, 1893.086
628.2061, 1907.598
628.6882, 1916.571
629.1703, 1914.090
629.6525, 1900.172
630.1346, 1884.071
630.6167, 1874.797
631.0988, 1871.151
631.5809, 1865.880
632.0630, 1857.904
632.5452, 1852.637
633.0273, 1853.415
633.5094, 1855.961
633.9915, 1853.846
634.4736, 1847.503
634.9557, 1847.138
635.4379, 1864.012
635.9200, 1877.650
636.4021, 1873.468
636.8842, 1859.650
637.3663, 1849.589
637.8484, 1846.242
638.3306, 1842.593
638.8127, 1829.906
639.2948, 1811.153
639.7769, 1806.370
640.2590, 1819.779
640.7411, 1832.364
641.2233, 1840.533
641.7054, 1843.798
642.1875, 1840.628
642.6696, 1831.533
643.1517, 1822.656
643.6339, 1813.830
644.1160, 1807.053
644.5981, 1803.752
645.0802, 1803.072
645.5623, 1805.041
646.0444, 1808.943
646.5266, 1811.192
647.0087, 1808.449
647.4908, 1801.292
647.9729, 1791.046
648.4550, 1775.715
648.9371, 1765.469
649.4193, 1762.388
649.9014, 1765.983
650.3835, 1780.390
650.8656, 1803.129
651.3477, 1816.169
651.8298, 1809.290
652.3120, 1800.343
652.7941, 1795.448
653.2762, 1794.565
653.7583, 1801.681
654.2404, 1814.601
654.7225, 1819.242
655.2047, 1801.370
655.6868, 1770.427
656.1689, 1760.839
