##NAMES=Vivianite
##RRUFFID=R070331
##IDEAL CHEMISTRY=Fe^2+^_3_(PO_4_)_2_&#183;8H_2_O
##LOCALITY=Big Fish River, Yukon Territory, Canada
##OWNER=RRUFF
##SOURCE=Mark Mauthner
##DESCRIPTION=Platy, indigo-blue massive, associated with maricite
##STATUS=The identification of this mineral is confirmed by single-crystal X-ray diffraction and chemical analysis.
##URL=rruff.info/R070331
##MEASURED CHEMISTRY=(Fe^2+^_1.77_Mg_1.21_Mn_0.02_)_Σ=3_(P_1.00_O_4_)_2_·8H_2_O;  (dark phase, H_2_O is estimated by difference) : Na_1.00_Fe^2+^_1.00_P_1.00_O_4_ (light phase = maricite, with trace amounts of Mn)
170.8750, 2426.479
171.3571, 2427.316
171.8392, 2416.095
172.3213, 2406.333
172.8034, 2398.779
173.2856, 2396.104
173.7677, 2402.937
174.2498, 2417.482
174.7319, 2433.400
175.2140, 2449.901
175.6961, 2464.689
176.1783, 2472.546
176.6604, 2468.687
177.1425, 2464.388
177.6246, 2475.137
178.1067, 2499.126
178.5888, 2525.399
179.0710, 2543.896
179.5531, 2558.508
180.0352, 2577.585
180.5173, 2603.258
180.9994, 2634.004
181.4815, 2666.687
181.9637, 2701.628
182.4458, 2739.820
182.9279, 2781.762
183.4100, 2827.799
183.8921, 2880.020
184.3742, 2940.423
184.8564, 3006.901
185.3385, 3071.981
185.8206, 3135.872
186.3027, 3202.622
186.7848, 3275.854
187.2669, 3355.620
187.7491, 3444.580
188.2312, 3547.384
188.7133, 3659.806
189.1954, 3769.188
189.6775, 3874.857
190.1596, 3977.409
190.6418, 4074.573
191.1239, 4166.343
191.6060, 4268.042
192.0881, 4392.536
192.5702, 4536.199
193.0524, 4664.159
193.5345, 4771.489
194.0166, 4875.056
194.4987, 5003.355
194.9808, 5158.379
195.4629, 5308.676
195.9451, 5437.732
196.4272, 5547.482
196.9093, 5649.866
197.3914, 5746.714
197.8735, 5833.929
198.3556, 5905.169
198.8378, 5960.660
199.3199, 5997.866
199.8020, 6013.384
200.2841, 6006.497
200.7662, 5986.344
201.2483, 5952.081
201.7305, 5906.068
202.2126, 5853.447
202.6947, 5793.908
203.1768, 5728.915
203.6589, 5658.238
204.1410, 5581.968
204.6232, 5503.975
205.1053, 5424.533
205.5874, 5343.643
206.0695, 5261.404
206.5516, 5177.988
207.0337, 5092.780
207.5159, 5003.134
207.9980, 4908.716
208.4801, 4819.442
208.9622, 4736.965
209.4443, 4660.621
209.9264, 4587.136
210.4086, 4516.275
210.8907, 4448.478
211.3728, 4385.921
211.8549, 4330.152
212.3370, 4271.826
212.8191, 4205.714
213.3013, 4134.615
213.7834, 4079.119
214.2655, 4045.722
214.7476, 4017.332
215.2297, 3978.704
215.7118, 3924.427
216.1940, 3874.053
216.6761, 3832.613
217.1582, 3799.380
217.6403, 3761.296
218.1224, 3715.685
218.6045, 3669.392
219.0867, 3631.378
219.5688, 3610.594
220.0509, 3576.725
220.5330, 3519.124
221.0151, 3436.226
221.4972, 3369.453
221.9794, 3322.462
222.4615, 3286.833
222.9436, 3253.585
223.4257, 3223.153
223.9078, 3193.913
224.3899, 3166.392
224.8721, 3140.476
225.3542, 3113.135
225.8363, 3084.356
226.3184, 3053.952
226.8005, 3020.154
227.2827, 2978.857
227.7648, 2942.594
228.2469, 2915.958
228.7290, 2900.735
229.2111, 2881.498
229.6932, 2855.064
230.1754, 2827.427
230.6575, 2805.841
231.1396, 2790.730
231.6217, 2781.363
232.1038, 2778.632
232.5859, 2783.963
233.0681, 2788.331
233.5502, 2791.554
234.0323, 2793.936
234.5144, 2795.090
234.9965, 2790.830
235.4786, 2792.604
235.9608, 2805.870
236.4429, 2834.257
236.9250, 2855.841
237.4071, 2865.786
237.8892, 2871.778
238.3713, 2886.148
238.8535, 2912.104
239.3356, 2941.196
239.8177, 2972.149
240.2998, 3007.354
240.7819, 3035.000
241.2640, 3052.359
241.7462, 3064.195
242.2283, 3078.576
242.7104, 3095.613
243.1925, 3115.095
243.6746, 3138.200
244.1567, 3168.027
244.6389, 3191.099
245.1210, 3206.505
245.6031, 3215.713
246.0852, 3220.059
246.5673, 3215.012
247.0494, 3212.909
247.5316, 3219.772
248.0137, 3240.837
248.4958, 3252.677
248.9779, 3251.511
249.4600, 3243.163
249.9421, 3238.517
250.4243, 3239.454
250.9064, 3240.670
251.3885, 3240.416
251.8706, 3238.679
252.3527, 3235.459
252.8348, 3230.783
253.3170, 3224.635
253.7991, 3216.762
254.2812, 3206.460
254.7633, 3195.958
255.2454, 3186.373
255.7275, 3178.635
256.2097, 3168.437
256.6918, 3154.684
257.1739, 3139.344
257.6560, 3125.647
258.1381, 3113.260
258.6202, 3103.270
259.1024, 3098.467
259.5845, 3103.454
260.0666, 3092.591
260.5487, 3056.174
261.0308, 3011.313
261.5129, 2989.638
261.9951, 2999.033
262.4772, 3013.316
262.9593, 3023.603
263.4414, 3030.271
263.9235, 3030.606
264.4056, 3021.547
264.8878, 3009.001
265.3699, 3003.759
265.8520, 3008.132
266.3341, 3013.052
266.8162, 3013.958
267.2983, 3009.286
267.7805, 3010.643
268.2626, 3018.676
268.7447, 3032.061
269.2268, 3050.314
269.7089, 3075.746
270.1910, 3097.689
270.6732, 3111.750
271.1553, 3117.203
271.6374, 3119.745
272.1195, 3116.997
272.6016, 3114.840
273.0837, 3124.045
273.5659, 3146.609
274.0480, 3170.504
274.5301, 3193.976
275.0122, 3217.260
275.4943, 3227.841
275.9764, 3223.262
276.4586, 3210.602
276.9407, 3199.085
277.4228, 3188.760
277.9049, 3180.494
278.3870, 3178.302
278.8691, 3181.384
279.3513, 3168.943
279.8334, 3137.471
280.3155, 3099.500
280.7976, 3074.535
281.2798, 3063.651
281.7619, 3045.669
282.2440, 3009.670
282.7261, 2958.314
283.2082, 2912.370
283.6903, 2872.912
284.1725, 2834.912
284.6546, 2792.991
285.1367, 2747.498
285.6188, 2697.690
286.1009, 2639.481
286.5830, 2576.418
287.0652, 2525.033
287.5473, 2486.999
288.0294, 2453.432
288.5115, 2414.530
288.9936, 2370.904
289.4757, 2329.326
289.9579, 2292.155
290.4400, 2258.422
290.9221, 2225.195
291.4042, 2192.605
291.8863, 2158.842
292.3684, 2119.118
292.8506, 2075.720
293.3327, 2038.002
293.8148, 2009.798
294.2969, 1988.304
294.7790, 1968.031
295.2611, 1948.899
295.7433, 1931.071
296.2254, 1915.926
296.7075, 1902.034
297.1896, 1885.643
297.6717, 1862.663
298.1538, 1838.800
298.6360, 1824.670
299.1181, 1819.393
299.6002, 1814.120
300.0823, 1798.467
300.5644, 1778.311
301.0465, 1764.636
301.5287, 1760.987
302.0108, 1764.121
302.4929, 1774.348
302.9750, 1790.166
303.4571, 1802.392
303.9392, 1799.202
304.4214, 1790.462
304.9035, 1791.268
305.3856, 1812.794
305.8677, 1832.444
306.3498, 1823.259
306.8319, 1793.238
307.3141, 1770.434
307.7962, 1776.259
308.2783, 1795.303
308.7604, 1813.763
309.2425, 1830.303
309.7246, 1841.946
310.2068, 1846.996
310.6889, 1845.685
311.1710, 1838.777
311.6531, 1820.828
312.1352, 1800.959
312.6173, 1786.421
313.0995, 1780.041
313.5816, 1774.585
314.0637, 1770.215
314.5458, 1764.172
315.0279, 1751.287
315.5100, 1721.580
315.9922, 1690.537
316.4743, 1666.454
316.9564, 1651.308
317.4385, 1638.911
317.9206, 1629.521
318.4027, 1621.138
318.8849, 1610.969
319.3670, 1597.321
319.8491, 1582.586
320.3312, 1566.901
320.8133, 1549.696
321.2954, 1534.868
321.7776, 1525.403
322.2597, 1517.709
322.7418, 1507.959
323.2239, 1488.572
323.7060, 1474.096
324.1881, 1471.700
324.6703, 1483.192
325.1524, 1485.533
325.6345, 1468.004
326.1166, 1445.542
326.5987, 1429.972
327.0808, 1423.382
327.5630, 1421.393
328.0451, 1426.337
328.5272, 1437.670
329.0093, 1443.504
329.4914, 1442.193
329.9735, 1436.799
330.4557, 1428.888
330.9378, 1415.900
331.4199, 1404.727
331.9020, 1395.241
332.3841, 1387.821
332.8662, 1384.794
333.3484, 1388.570
333.8305, 1393.134
334.3126, 1394.585
334.7947, 1390.580
335.2768, 1391.245
335.7589, 1399.643
336.2411, 1411.567
336.7232, 1416.120
337.2053, 1411.479
337.6874, 1404.674
338.1695, 1398.068
338.6516, 1391.402
339.1338, 1388.468
339.6159, 1390.972
340.0980, 1394.658
340.5801, 1390.740
341.0622, 1378.078
341.5443, 1368.031
342.0265, 1367.561
342.5086, 1375.120
342.9907, 1375.099
343.4728, 1366.255
343.9549, 1354.690
344.4370, 1349.457
344.9192, 1349.620
345.4013, 1345.683
345.8834, 1332.426
346.3655, 1313.261
346.8476, 1296.862
347.3297, 1283.277
347.8119, 1272.492
348.2940, 1264.787
348.7761, 1260.022
349.2582, 1258.788
349.7403, 1265.965
350.2225, 1271.854
350.7046, 1258.008
351.1867, 1226.889
351.6688, 1198.459
352.1509, 1191.098
352.6331, 1194.527
353.1152, 1193.404
353.5973, 1183.660
354.0794, 1169.817
354.5615, 1152.541
355.0436, 1133.762
355.5258, 1119.359
356.0079, 1117.841
356.4900, 1119.184
356.9721, 1113.639
357.4542, 1097.419
357.9363, 1082.087
358.4185, 1076.179
358.9006, 1075.331
359.3827, 1071.995
359.8648, 1060.739
360.3469, 1048.210
360.8290, 1036.867
361.3112, 1026.531
361.7933, 1020.265
362.2754, 1023.653
362.7575, 1029.813
363.2396, 1031.271
363.7217, 1020.590
364.2039, 1010.776
364.6860, 1004.966
365.1681, 1003.270
365.6502, 1003.687
366.1323, 1007.958
366.6144, 1013.066
367.0966, 1016.967
367.5787, 1020.987
368.0608, 1021.962
368.5429, 1017.364
369.0250, 1008.807
369.5071, 1004.695
369.9893, 1006.962
370.4714, 1011.403
370.9535, 1016.164
371.4356, 1021.272
371.9177, 1026.627
372.3998, 1032.753
372.8820, 1038.876
373.3641, 1042.882
373.8462, 1043.792
374.3283, 1045.120
374.8104, 1048.696
375.2925, 1054.906
375.7747, 1058.471
376.2568, 1058.014
376.7389, 1057.702
377.2210, 1063.653
377.7031, 1076.228
378.1852, 1089.917
378.6674, 1103.931
379.1495, 1117.680
379.6316, 1129.481
380.1137, 1139.286
380.5958, 1146.672
381.0779, 1148.542
381.5601, 1146.640
382.0422, 1149.894
382.5243, 1162.283
383.0064, 1178.311
383.4885, 1189.922
383.9706, 1197.317
384.4528, 1201.195
384.9349, 1199.008
385.4170, 1194.426
385.8991, 1194.198
386.3812, 1200.542
386.8633, 1207.334
387.3455, 1208.822
387.8276, 1206.393
388.3097, 1203.224
388.7918, 1199.444
389.2739, 1196.530
389.7560, 1196.697
390.2382, 1200.511
390.7203, 1202.563
391.2024, 1198.949
391.6845, 1192.317
392.1666, 1185.653
392.6487, 1178.270
393.1309, 1172.640
393.6130, 1171.086
394.0951, 1173.127
394.5772, 1173.400
395.0593, 1165.973
395.5414, 1159.232
396.0236, 1158.521
396.5057, 1174.222
396.9878, 1184.539
397.4699, 1182.971
397.9520, 1173.934
398.4341, 1171.311
398.9163, 1178.892
399.3984, 1189.001
399.8805, 1199.537
400.3626, 1211.763
400.8447, 1220.350
401.3268, 1223.001
401.8090, 1223.700
402.2911, 1227.998
402.7732, 1236.232
403.2553, 1247.020
403.7374, 1259.851
404.2195, 1274.794
404.7017, 1294.510
405.1838, 1321.359
405.6659, 1346.802
406.1480, 1361.812
406.6301, 1366.306
407.1122, 1370.248
407.5944, 1372.773
408.0765, 1378.581
408.5586, 1404.275
409.0407, 1449.494
409.5228, 1489.818
410.0049, 1501.739
410.4871, 1495.807
410.9692, 1502.677
411.4513, 1526.988
411.9334, 1558.088
412.4155, 1586.590
412.8976, 1612.831
413.3798, 1636.732
413.8619, 1652.483
414.3440, 1669.705
414.8261, 1703.330
415.3082, 1753.607
415.7903, 1798.477
416.2725, 1816.222
416.7546, 1823.656
417.2367, 1840.409
417.7188, 1881.289
418.2009, 1922.687
418.6830, 1951.732
419.1652, 1971.807
419.6473, 1994.191
420.1294, 2026.590
420.6115, 2059.613
421.0937, 2088.216
421.5758, 2108.242
422.0579, 2130.177
422.5400, 2161.963
423.0221, 2195.165
423.5042, 2216.379
423.9864, 2211.849
424.4685, 2210.196
424.9506, 2220.306
425.4327, 2243.676
425.9148, 2257.379
426.3969, 2257.325
426.8791, 2252.280
427.3612, 2249.674
427.8433, 2250.492
428.3254, 2251.259
428.8075, 2253.626
429.2896, 2254.753
429.7718, 2243.927
430.2539, 2219.714
430.7360, 2191.389
431.2181, 2164.223
431.7002, 2138.042
432.1823, 2109.037
432.6645, 2075.692
433.1466, 2043.836
433.6287, 2025.920
434.1108, 2018.656
434.5929, 2005.236
435.0750, 1973.859
435.5572, 1934.240
436.0393, 1902.851
436.5214, 1879.493
437.0035, 1859.843
437.4856, 1842.284
437.9677, 1826.011
438.4499, 1810.012
438.9320, 1793.946
439.4141, 1778.240
439.8962, 1765.645
440.3783, 1753.945
440.8604, 1737.053
441.3426, 1700.541
441.8247, 1667.202
442.3068, 1652.521
442.7889, 1662.413
443.2710, 1670.451
443.7531, 1664.483
444.2353, 1655.072
444.7174, 1653.799
445.1995, 1674.053
445.6816, 1689.686
446.1637, 1693.933
446.6458, 1688.064
447.1280, 1686.060
447.6101, 1690.367
448.0922, 1695.858
448.5743, 1698.637
449.0564, 1694.146
449.5385, 1700.223
450.0207, 1721.344
450.5028, 1749.487
450.9849, 1768.402
451.4670, 1775.756
451.9491, 1785.024
452.4312, 1803.704
452.9134, 1829.680
453.3955, 1845.712
453.8776, 1850.732
454.3597, 1853.174
454.8418, 1861.316
455.3239, 1873.923
455.8061, 1885.665
456.2882, 1895.709
456.7703, 1903.998
457.2524, 1909.835
457.7345, 1913.649
458.2166, 1917.320
458.6988, 1923.075
459.1809, 1928.669
459.6630, 1932.026
460.1451, 1933.114
460.6272, 1930.824
461.1093, 1920.342
461.5915, 1907.350
462.0736, 1899.139
462.5557, 1903.317
463.0378, 1907.568
463.5199, 1907.523
464.0020, 1903.496
464.4842, 1898.383
464.9663, 1894.393
465.4484, 1888.285
465.9305, 1878.097
466.4126, 1860.478
466.8947, 1844.348
467.3769, 1830.094
467.8590, 1817.215
468.3411, 1804.854
468.8232, 1793.567
469.3053, 1781.893
469.7874, 1770.035
470.2696, 1757.802
470.7517, 1740.155
471.2338, 1714.966
471.7159, 1691.046
472.1980, 1677.541
472.6801, 1674.154
473.1623, 1669.512
473.6444, 1661.475
474.1265, 1652.455
474.6086, 1647.800
475.0907, 1646.628
475.5728, 1643.237
476.0550, 1634.444
476.5371, 1621.516
477.0192, 1603.530
477.5013, 1580.219
477.9834, 1562.927
478.4655, 1570.019
478.9477, 1585.392
479.4298, 1587.034
479.9119, 1554.419
480.3940, 1524.292
480.8761, 1518.930
481.3582, 1531.664
481.8404, 1543.516
482.3225, 1550.781
482.8046, 1553.719
483.2867, 1550.569
483.7688, 1537.324
484.2509, 1531.451
484.7331, 1544.174
485.2152, 1559.877
485.6973, 1563.292
486.1794, 1542.629
486.6615, 1529.916
487.1436, 1530.846
487.6258, 1543.130
488.1079, 1557.106
488.5900, 1574.150
489.0721, 1588.824
489.5542, 1595.453
490.0363, 1593.924
490.5185, 1603.113
491.0006, 1626.177
491.4827, 1650.773
491.9648, 1658.705
492.4470, 1652.764
492.9291, 1647.961
493.4112, 1650.455
493.8933, 1656.005
494.3754, 1653.744
494.8575, 1646.138
495.3397, 1648.819
495.8218, 1686.958
496.3039, 1733.708
496.7860, 1756.627
497.2681, 1745.356
497.7502, 1733.961
498.2324, 1739.198
498.7145, 1755.591
499.1966, 1775.817
499.6787, 1802.251
500.1608, 1827.518
500.6429, 1849.881
501.1251, 1869.273
501.6072, 1885.495
502.0893, 1893.823
502.5714, 1903.377
503.0535, 1918.847
503.5356, 1943.536
504.0178, 1966.212
504.4999, 1986.679
504.9820, 2005.101
505.4641, 2021.252
505.9462, 2034.233
506.4283, 2049.091
506.9105, 2066.203
507.3926, 2086.434
507.8747, 2115.331
508.3568, 2153.507
508.8389, 2191.109
509.3210, 2222.742
509.8032, 2248.668
510.2853, 2267.903
510.7674, 2278.302
511.2495, 2290.707
511.7316, 2321.941
512.2137, 2363.230
512.6959, 2396.251
513.1780, 2402.519
513.6601, 2407.372
514.1422, 2428.344
514.6243, 2463.648
515.1064, 2499.814
515.5886, 2529.610
516.0707, 2560.158
516.5528, 2596.310
517.0349, 2644.388
517.5170, 2686.762
517.9991, 2716.001
518.4813, 2740.604
518.9634, 2771.305
519.4455, 2812.269
519.9276, 2852.619
520.4097, 2893.170
520.8918, 2931.617
521.3740, 2952.708
521.8561, 2949.291
522.3382, 2952.207
522.8203, 2986.049
523.3024, 3048.487
523.7845, 3104.432
524.2667, 3151.881
524.7488, 3194.289
525.2309, 3239.704
525.7130, 3285.544
526.1951, 3321.256
526.6772, 3335.538
527.1594, 3345.821
527.6415, 3372.878
528.1236, 3413.930
528.6057, 3457.620
529.0878, 3503.835
529.5699, 3545.638
530.0521, 3574.387
530.5342, 3585.267
531.0163, 3601.487
531.4984, 3637.333
531.9805, 3679.525
532.4626, 3714.086
532.9448, 3735.450
533.4269, 3753.271
533.9090, 3765.749
534.3911, 3775.146
534.8732, 3790.483
535.3553, 3816.066
535.8375, 3839.932
536.3196, 3856.933
536.8017, 3867.161
537.2838, 3872.200
537.7659, 3870.624
538.2480, 3868.719
538.7302, 3877.323
539.2123, 3893.795
539.6944, 3898.003
540.1765, 3881.820
540.6586, 3858.441
541.1407, 3846.765
541.6229, 3843.760
542.1050, 3838.332
542.5871, 3823.333
543.0692, 3804.018
543.5513, 3786.808
544.0334, 3772.080
544.5156, 3750.492
544.9977, 3712.316
545.4798, 3668.550
545.9619, 3628.471
546.4440, 3599.616
546.9261, 3565.830
547.4083, 3522.730
547.8904, 3473.508
548.3725, 3424.616
548.8546, 3375.702
549.3367, 3327.138
549.8188, 3278.840
550.3010, 3230.884
550.7831, 3186.156
551.2652, 3147.496
551.7473, 3102.354
552.2294, 3035.986
552.7115, 2951.405
553.1937, 2882.359
553.6758, 2832.728
554.1579, 2793.630
554.6400, 2760.246
555.1221, 2728.960
555.6042, 2689.593
556.0864, 2629.743
556.5685, 2568.495
557.0506, 2525.753
557.5327, 2497.896
558.0148, 2472.264
558.4969, 2444.787
558.9791, 2415.930
559.4612, 2383.844
559.9433, 2345.954
560.4254, 2318.018
560.9075, 2313.172
561.3896, 2313.853
561.8718, 2304.086
562.3539, 2274.270
562.8360, 2250.227
563.3181, 2234.584
563.8002, 2225.706
564.2823, 2218.721
564.7645, 2212.477
565.2466, 2214.033
565.7287, 2230.638
566.2108, 2257.668
566.6929, 2269.261
567.1750, 2264.640
567.6572, 2260.053
568.1393, 2273.187
568.6214, 2295.453
569.1035, 2306.672
569.5856, 2300.226
570.0677, 2297.289
570.5499, 2324.607
571.0320, 2365.184
571.5141, 2392.312
571.9962, 2380.193
572.4783, 2368.727
572.9604, 2376.770
573.4426, 2400.409
573.9247, 2418.627
574.4068, 2432.994
574.8889, 2436.294
575.3710, 2423.800
575.8531, 2392.422
576.3353, 2363.010
576.8174, 2338.312
577.2995, 2311.923
577.7816, 2273.267
578.2637, 2220.086
578.7458, 2183.779
579.2280, 2174.565
579.7101, 2173.723
580.1922, 2145.133
580.6743, 2093.156
581.1564, 2042.423
581.6385, 2004.185
582.1207, 1973.631
582.6028, 1946.519
583.0849, 1922.754
583.5670, 1899.756
584.0491, 1878.510
584.5313, 1855.885
585.0134, 1827.825
585.4955, 1790.199
585.9776, 1759.027
586.4597, 1742.513
586.9418, 1733.012
587.4240, 1722.000
587.9061, 1705.726
588.3882, 1693.529
588.8703, 1690.087
589.3524, 1690.363
589.8345, 1677.254
590.3167, 1646.415
590.7988, 1618.900
591.2809, 1606.580
591.7630, 1605.719
592.2451, 1596.392
592.7272, 1578.231
593.2094, 1560.645
593.6915, 1556.714
594.1736, 1557.863
594.6557, 1543.761
595.1378, 1506.556
595.6199, 1474.945
596.1021, 1477.333
596.5842, 1497.198
597.0663, 1511.026
597.5485, 1508.129
598.0306, 1500.762
598.5127, 1490.339
598.9948, 1477.970
599.4769, 1468.138
599.9590, 1463.430
600.4412, 1458.268
600.9233, 1450.298
601.4054, 1439.110
601.8875, 1431.099
602.3696, 1426.816
602.8517, 1424.513
603.3339, 1425.176
603.8160, 1428.123
604.2981, 1421.656
604.7802, 1402.087
605.2623, 1381.558
605.7444, 1378.453
606.2266, 1387.296
606.7087, 1393.478
607.1908, 1389.309
607.6729, 1382.886
608.1550, 1381.563
608.6371, 1383.492
609.1193, 1382.621
609.6014, 1371.569
610.0835, 1361.409
610.5656, 1359.294
611.0477, 1367.384
611.5298, 1369.349
612.0120, 1360.506
612.4941, 1349.592
612.9762, 1342.680
613.4583, 1341.437
613.9404, 1337.361
614.4225, 1328.010
614.9047, 1319.553
615.3868, 1322.997
615.8689, 1337.340
616.3510, 1348.984
616.8331, 1353.808
617.3152, 1354.114
617.7974, 1352.610
618.2795, 1349.470
618.7616, 1345.322
619.2437, 1337.717
619.7258, 1331.333
620.2079, 1331.092
620.6901, 1337.149
621.1722, 1341.168
621.6543, 1335.429
622.1364, 1330.098
622.6185, 1333.124
623.1006, 1354.247
623.5828, 1362.165
624.0649, 1349.099
624.5470, 1329.965
625.0291, 1322.637
625.5112, 1328.755
625.9933, 1339.345
626.4755, 1356.095
626.9576, 1371.846
627.4397, 1365.814
627.9218, 1341.376
628.4039, 1324.313
628.8860, 1338.505
629.3682, 1361.524
629.8503, 1359.554
630.3324, 1335.680
630.8145, 1313.802
631.2966, 1310.777
631.7787, 1312.907
632.2609, 1310.092
632.7430, 1299.150
633.2251, 1290.712
633.7072, 1288.326
634.1893, 1288.455
634.6714, 1288.555
635.1536, 1290.309
635.6357, 1287.886
636.1178, 1279.299
636.5999, 1268.040
637.0820, 1260.859
637.5641, 1257.969
638.0463, 1254.777
638.5284, 1249.736
639.0105, 1243.497
639.4926, 1236.765
639.9747, 1229.691
640.4568, 1223.339
640.9390, 1218.448
641.4211, 1214.422
641.9032, 1210.755
642.3853, 1207.423
642.8674, 1204.407
643.3495, 1200.237
643.8317, 1197.372
644.3138, 1198.162
644.7959, 1209.214
645.2780, 1211.108
645.7601, 1199.283
646.2422, 1182.339
646.7244, 1170.463
647.2065, 1164.971
647.6886, 1157.015
648.1707, 1142.024
648.6528, 1128.226
649.1349, 1138.996
649.6171, 1170.001
650.0992, 1190.977
650.5813, 1181.219
651.0634, 1157.818
651.5455, 1137.142
652.0276, 1119.869
652.5098, 1110.692
652.9919, 1123.283
653.4740, 1136.040
653.9561, 1131.979
654.4382, 1104.808
654.9203, 1089.767
655.4025, 1101.628
655.8846, 1118.358
656.3667, 1125.071
656.8488, 1117.733
657.3309, 1112.498
657.8130, 1110.283
658.2952, 1109.579
658.7773, 1108.915
659.2594, 1108.166
659.7415, 1105.808
660.2236, 1101.117
660.7057, 1095.161
661.1879, 1087.400
661.6700, 1079.423
662.1521, 1075.801
662.6342, 1085.018
