##NAMES=Vivianite
##RRUFFID=R050596
##IDEAL CHEMISTRY=Fe^2+^_3_(PO_4_)_2_&#183;8H_2_O
##LOCALITY=Chernomorskiy Quarry, near Kertch City, Crimea Peninsula, Ukraine
##OWNER=RRUFF
##SOURCE=Barb Dutrow
##DESCRIPTION=Group of dark blue elongated prismatic single crystals in a fossilized clam shell
##STATUS=The identification of this mineral has been confirmed by X-ray diffraction and chemical analysis
##URL=rruff.info/R050596
##MEASURED CHEMISTRY=(Fe^2+^_2.89_Mg_0.08_Mn_0.03_)_Σ=3_(P_1.00_O_4_)_2_·8H_2_O
92.06543, 150.5874
92.54755, 151.3240
93.02966, 152.2288
93.51178, 151.9352
93.99390, 150.3267
94.47601, 147.4084
94.95813, 143.7496
95.44025, 140.0694
95.92236, 136.8829
96.40448, 134.1524
96.88660, 132.0922
97.36871, 131.0399
97.85082, 130.3442
98.33294, 129.5802
98.81506, 128.6101
99.29717, 127.4054
99.77929, 126.6022
100.2614, 126.1987
100.7435, 125.6492
101.2256, 124.4732
101.7078, 123.0251
102.1899, 122.1695
102.6720, 122.1748
103.1541, 122.7081
103.6362, 123.2516
104.1183, 123.8017
104.6005, 124.7111
105.0826, 126.5122
105.5647, 129.3793
106.0468, 131.7654
106.5289, 133.7322
107.0110, 134.8496
107.4931, 134.7514
107.9753, 133.3387
108.4574, 130.8143
108.9395, 127.5004
109.4216, 122.8819
109.9037, 118.1765
110.3858, 113.2265
110.8680, 108.3544
111.3501, 103.8529
111.8322, 99.85444
112.3143, 96.40355
112.7964, 93.78296
113.2785, 92.31510
113.7607, 91.22640
114.2428, 90.37826
114.7249, 89.76609
115.2070, 89.42500
115.6891, 89.41238
116.1712, 89.74285
116.6534, 90.10912
117.1355, 90.56541
117.6176, 91.01971
118.0997, 91.27205
118.5818, 91.28185
119.0639, 91.52283
119.5461, 92.56386
120.0282, 94.21568
120.5103, 96.03190
120.9924, 97.98558
121.4745, 100.0067
121.9566, 101.9540
122.4388, 103.8143
122.9209, 105.5747
123.4030, 107.1144
123.8851, 108.5180
124.3672, 110.1089
124.8493, 112.2392
125.3315, 114.9653
125.8136, 117.4626
126.2957, 119.4958
126.7778, 121.3934
127.2599, 123.5634
127.7420, 125.8986
128.2242, 127.7836
128.7063, 128.2872
129.1884, 126.6816
129.6705, 125.0767
130.1526, 123.8510
130.6347, 122.4375
131.1169, 120.2197
131.5990, 117.0410
132.0811, 113.4560
132.5632, 110.6955
133.0453, 109.4145
133.5274, 108.2036
134.0096, 106.7906
134.4917, 105.4523
134.9738, 104.6012
135.4559, 104.4420
135.9380, 104.8631
136.4201, 105.4858
136.9023, 106.2534
137.3844, 107.2322
137.8665, 108.5859
138.3486, 110.2310
138.8307, 111.7793
139.3128, 112.9263
139.7950, 113.8558
140.2771, 114.9698
140.7592, 116.2483
141.2413, 117.7643
141.7234, 119.7216
142.2055, 122.2183
142.6877, 124.6087
143.1698, 126.3276
143.6519, 127.7765
144.1340, 129.4418
144.6161, 131.6385
145.0982, 134.0960
145.5803, 136.0987
146.0625, 137.4263
146.5446, 138.6002
147.0267, 140.0899
147.5088, 141.5546
147.9909, 142.4488
148.4730, 142.3257
148.9552, 141.2393
149.4373, 140.3211
149.9194, 139.8024
150.4015, 139.2411
150.8836, 138.3855
151.3657, 137.3740
151.8479, 136.5405
152.3300, 136.2207
152.8121, 136.5307
153.2942, 136.6243
153.7763, 135.9951
154.2584, 135.6158
154.7406, 136.0479
155.2227, 137.2847
155.7048, 138.8801
156.1869, 140.3141
156.6690, 141.4093
157.1511, 143.1791
157.6333, 145.8628
158.1154, 149.0632
158.5975, 152.5284
159.0796, 156.2158
159.5617, 159.9428
160.0438, 163.5026
160.5260, 166.9133
161.0081, 170.0968
161.4902, 173.2272
161.9723, 176.0822
162.4544, 178.3268
162.9365, 179.9777
163.4187, 180.7170
163.9008, 180.1839
164.3829, 178.4662
164.8650, 176.1081
165.3471, 173.2644
165.8292, 169.9749
166.3113, 166.5262
166.7935, 162.9176
167.2756, 159.1904
167.7577, 155.3171
168.2398, 151.3019
168.7219, 147.3515
169.2040, 143.6046
169.6862, 140.0341
170.1683, 136.8938
170.6504, 134.4001
171.1325, 132.2623
171.6146, 130.3023
172.0967, 128.5041
172.5789, 127.0194
173.0610, 126.1323
173.5431, 126.1384
174.0252, 126.0972
174.5073, 125.7173
174.9894, 125.4015
175.4716, 125.4407
175.9537, 125.9278
176.4358, 126.7605
176.9179, 127.7323
177.4000, 128.7933
177.8821, 130.1104
178.3643, 131.7960
178.8464, 133.6747
179.3285, 135.5630
179.8106, 137.3922
180.2927, 139.2097
180.7748, 141.1321
181.2570, 143.1110
181.7391, 145.2565
182.2212, 147.4644
182.7033, 149.8656
183.1854, 152.6635
183.6675, 155.9730
184.1497, 159.6950
184.6318, 163.5616
185.1139, 167.5961
185.5960, 171.6856
186.0781, 175.6591
186.5602, 179.6231
187.0423, 183.9009
187.5245, 188.6512
188.0066, 193.7913
188.4887, 199.0692
188.9708, 204.4272
189.4529, 209.9231
189.9350, 215.7094
190.4172, 221.7276
190.8993, 227.5908
191.3814, 232.9739
191.8635, 238.1716
192.3456, 243.7401
192.8277, 249.9604
193.3099, 256.0475
193.7920, 261.3396
194.2741, 265.8407
194.7562, 269.5714
195.2383, 272.5437
195.7204, 274.6874
196.2026, 275.8747
196.6847, 276.1305
197.1668, 275.2646
197.6489, 272.8851
198.1310, 268.7218
198.6131, 263.7346
199.0953, 258.2701
199.5774, 252.1598
200.0595, 245.0791
200.5416, 236.8054
201.0237, 227.9268
201.5058, 219.8525
201.9880, 213.1183
202.4701, 206.2130
202.9522, 198.4995
203.4343, 190.6873
203.9164, 183.5340
204.3985, 177.3921
204.8807, 172.0285
205.3628, 166.7704
205.8449, 161.3797
206.3270, 156.5003
206.8091, 152.2282
207.2912, 148.4843
207.7733, 145.1563
208.2555, 142.2034
208.7376, 139.6395
209.2197, 137.5266
209.7018, 135.9743
210.1839, 134.7970
210.6660, 134.1041
211.1482, 133.7580
211.6303, 133.5567
212.1124, 133.3887
212.5945, 133.3232
213.0766, 133.6760
213.5587, 134.9100
214.0409, 135.9800
214.5230, 136.4440
215.0051, 136.6239
215.4872, 137.0557
215.9693, 137.9779
216.4514, 139.3930
216.9336, 141.3699
217.4157, 144.3725
217.8978, 147.2076
218.3799, 149.2697
218.8620, 150.8478
219.3441, 152.7417
219.8263, 155.4188
220.3084, 158.5483
220.7905, 161.2262
221.2726, 163.3650
221.7547, 165.3061
222.2368, 167.1522
222.7190, 168.9216
223.2011, 170.7635
223.6832, 172.9958
224.1653, 175.0679
224.6474, 176.0386
225.1295, 175.6090
225.6117, 174.8334
226.0938, 174.5479
226.5759, 174.6454
227.0580, 174.1853
227.5401, 172.5764
228.0222, 170.3743
228.5043, 168.2774
228.9865, 166.3212
229.4686, 164.5022
229.9507, 163.0099
230.4328, 161.8428
230.9149, 160.2630
231.3970, 157.5567
231.8792, 154.7086
232.3613, 152.6279
232.8434, 151.4668
233.3255, 150.5025
233.8076, 148.9083
234.2897, 146.5955
234.7719, 144.7038
235.2540, 144.0315
235.7361, 143.5038
236.2182, 142.4660
236.7003, 140.8232
237.1824, 138.8810
237.6646, 136.9594
238.1467, 135.0786
238.6288, 133.0325
239.1109, 130.7091
239.5930, 128.2514
240.0751, 125.6938
240.5573, 123.0487
241.0394, 120.3294
241.5215, 117.6006
242.0036, 114.9050
242.4857, 111.9648
242.9678, 108.2771
243.4500, 104.7276
243.9321, 101.8167
244.4142, 99.56229
244.8963, 97.59901
245.3784, 95.51380
245.8605, 93.23771
246.3427, 91.11137
246.8248, 89.05822
247.3069, 87.20836
247.7890, 85.74451
248.2711, 84.60053
248.7532, 83.49778
249.2354, 82.08761
249.7175, 80.22578
250.1996, 78.70429
250.6817, 77.62830
251.1638, 76.75162
251.6459, 76.08274
252.1281, 75.54299
252.6102, 74.94310
253.0923, 74.06738
253.5744, 72.83955
254.0565, 71.83633
254.5386, 71.09708
255.0208, 70.49551
255.5029, 70.07681
255.9850, 69.76823
256.4671, 69.36987
256.9492, 68.67976
257.4313, 67.65426
257.9135, 66.87307
258.3956, 66.32783
258.8777, 65.96879
259.3598, 65.90719
259.8419, 66.03978
260.3240, 66.10041
260.8062, 65.88891
261.2883, 65.40504
261.7704, 64.84195
262.2525, 63.88282
262.7346, 63.16895
263.2167, 63.14060
263.6989, 63.59585
264.1810, 63.98302
264.6631, 63.94379
265.1452, 63.52709
265.6273, 63.17281
266.1094, 62.68249
266.5916, 62.44329
267.0737, 62.88700
267.5558, 63.70814
268.0379, 64.14254
268.5200, 63.69851
269.0021, 62.63670
269.4843, 62.06118
269.9664, 62.29121
270.4485, 62.50255
270.9306, 62.31240
271.4127, 61.91881
271.8948, 61.78293
272.3770, 62.15941
272.8591, 62.81614
273.3412, 63.16408
273.8233, 63.23061
274.3054, 63.05018
274.7875, 62.46629
275.2697, 61.66009
275.7518, 60.97720
276.2339, 60.54737
276.7160, 60.26331
277.1981, 59.92262
277.6802, 59.49130
278.1623, 59.14836
278.6444, 58.98830
279.1266, 58.93834
279.6087, 58.91162
280.0908, 58.91126
280.5729, 58.83615
281.0550, 58.46267
281.5371, 57.78696
282.0193, 57.22730
282.5014, 56.99858
282.9835, 56.91124
283.4656, 56.65650
283.9477, 56.15453
284.4298, 55.64787
284.9120, 55.43284
285.3941, 55.46821
285.8762, 55.49156
286.3583, 55.41648
286.8404, 55.31651
287.3225, 55.30659
287.8047, 55.40905
288.2868, 55.48096
288.7689, 55.34402
289.2510, 55.07214
289.7331, 54.93069
290.2152, 55.06762
290.6974, 55.29131
291.1795, 55.38236
291.6616, 55.33181
292.1437, 55.32578
292.6258, 55.51356
293.1079, 55.82513
293.5901, 56.08882
294.0722, 56.27422
294.5543, 56.42310
295.0364, 56.56725
295.5185, 56.70668
296.0006, 56.82320
296.4828, 56.85854
296.9649, 56.90139
297.4470, 57.09731
297.9291, 57.48971
298.4112, 57.94365
298.8933, 58.40157
299.3755, 58.85320
299.8576, 59.25020
300.3397, 59.58447
300.8218, 59.83919
301.3039, 60.00884
301.7860, 60.09054
302.2682, 60.11486
302.7503, 60.05105
303.2324, 59.93497
303.7145, 59.92267
304.1966, 60.13456
304.6787, 60.30627
305.1609, 60.10465
305.6430, 59.57470
306.1251, 59.08526
306.6072, 58.83477
307.0893, 58.73200
307.5714, 58.60450
308.0536, 58.46062
308.5357, 58.21572
309.0178, 57.73566
309.4999, 57.09162
309.9820, 56.45704
310.4641, 55.83782
310.9463, 55.28122
311.4284, 54.91599
311.9105, 54.78857
312.3926, 54.61052
312.8747, 54.05330
313.3568, 53.34322
313.8390, 52.90477
314.3211, 52.95839
314.8032, 53.16800
315.2853, 53.17966
315.7674, 52.98923
316.2495, 52.81608
316.7317, 52.79443
317.2138, 52.82697
317.6959, 52.74614
318.1780, 52.48436
318.6601, 52.25502
319.1422, 52.23512
319.6243, 52.40074
320.1064, 52.58231
320.5886, 52.70321
321.0707, 52.85270
321.5528, 53.19047
322.0349, 53.74086
322.5170, 54.16768
322.9991, 54.20863
323.4813, 53.98400
323.9634, 53.82506
324.4455, 53.78151
324.9276, 53.83733
325.4097, 54.04686
325.8918, 54.37224
326.3740, 54.59742
326.8561, 54.55683
327.3382, 54.40110
327.8203, 54.34148
328.3024, 54.38279
328.7845, 54.57830
329.2667, 55.09412
329.7488, 55.79924
330.2309, 56.36935
330.7130, 56.67933
331.1951, 56.87275
331.6772, 57.03132
332.1594, 57.15726
332.6415, 57.41372
333.1236, 57.96332
333.6057, 58.67186
334.0878, 59.24256
334.5699, 59.61814
335.0521, 59.93836
335.5342, 60.29761
336.0163, 60.67832
336.4984, 61.02240
336.9805, 61.32361
337.4626, 61.55339
337.9448, 61.66377
338.4269, 61.65319
338.9090, 61.59323
339.3911, 61.55127
339.8732, 61.47283
340.3553, 61.20948
340.8375, 60.69236
341.3196, 60.15719
341.8017, 59.94411
342.2838, 60.01473
342.7659, 59.90429
343.2480, 59.43331
343.7302, 58.79028
344.2123, 58.17876
344.6944, 57.61578
345.1765, 57.00126
345.6586, 56.27225
346.1407, 55.41896
346.6229, 54.47448
347.1050, 53.23586
347.5871, 52.09595
348.0692, 51.40928
348.5513, 51.06195
349.0334, 50.57268
349.5156, 49.66444
349.9977, 48.51870
350.4798, 47.63714
350.9619, 47.05527
351.4440, 46.59883
351.9261, 46.40254
352.4083, 46.26067
352.8904, 45.74188
353.3725, 44.67836
353.8546, 43.49957
354.3367, 42.86087
354.8188, 42.91707
355.3010, 42.85841
355.7831, 42.53913
356.2652, 42.12250
356.7473, 41.74921
357.2294, 41.43542
357.7115, 41.12303
358.1937, 40.76162
358.6758, 40.34805
359.1579, 39.91237
359.6400, 39.40132
360.1221, 38.92083
360.6042, 38.52038
361.0863, 38.19286
361.5685, 37.90059
362.0506, 37.60748
362.5327, 37.35612
363.0148, 37.33440
363.4969, 37.93872
363.9790, 38.26287
364.4612, 37.92599
364.9433, 37.33670
365.4254, 37.01852
365.9075, 37.13821
366.3896, 37.45358
366.8717, 37.58254
367.3539, 37.45126
367.8360, 37.27654
368.3181, 36.95917
368.8002, 36.67749
369.2823, 36.57103
369.7644, 36.63281
370.2466, 36.76189
370.7287, 36.88726
371.2108, 37.01842
371.6929, 36.95423
372.1750, 36.28868
372.6571, 35.87366
373.1393, 36.18859
373.6214, 36.89449
374.1035, 37.39931
374.5856, 37.37014
375.0677, 36.95133
375.5498, 36.59935
376.0320, 36.27899
376.5141, 36.09494
376.9962, 36.17751
377.4783, 36.31634
377.9604, 36.29094
378.4425, 36.06331
378.9247, 35.81419
379.4068, 35.81326
379.8889, 36.15745
380.3710, 36.41150
380.8531, 36.57756
381.3352, 36.65150
381.8174, 36.58635
382.2995, 36.41802
382.7816, 36.24176
383.2637, 36.13917
383.7458, 36.09124
384.2279, 35.95256
384.7101, 35.59350
385.1922, 35.34751
385.6743, 35.34241
386.1564, 35.47825
386.6385, 35.64390
387.1206, 35.79969
387.6028, 35.94932
388.0849, 36.11873
388.5670, 36.33043
389.0491, 36.45081
389.5312, 36.38652
390.0133, 36.26015
390.4955, 36.14042
390.9776, 36.03456
391.4597, 35.92747
391.9418, 35.76970
392.4239, 35.58544
392.9060, 35.53778
393.3882, 35.70240
393.8703, 35.89212
394.3524, 36.00311
394.8345, 36.04825
395.3166, 36.04186
395.7987, 35.91752
396.2809, 35.80118
396.7630, 35.91575
397.2451, 36.28106
397.7272, 36.58333
398.2093, 36.66219
398.6914, 36.60421
399.1736, 36.56843
399.6557, 36.58378
400.1378, 36.54247
400.6199, 36.32536
401.1020, 36.00114
401.5841, 35.73731
402.0662, 35.55553
402.5483, 35.49407
403.0305, 35.66481
403.5126, 36.05040
403.9947, 36.37578
404.4768, 36.55074
404.9589, 36.67249
405.4410, 36.83371
405.9232, 37.03437
406.4053, 37.22703
406.8874, 37.39475
407.3695, 37.52302
407.8516, 37.55074
408.3337, 37.22966
408.8159, 37.10706
409.2980, 37.54695
409.7801, 38.24874
410.2622, 38.71070
410.7443, 38.76073
411.2264, 38.60957
411.7086, 38.59130
412.1907, 38.76938
412.6728, 38.93658
413.1549, 39.15536
413.6370, 39.31514
414.1191, 39.29612
414.6013, 39.13114
415.0834, 38.96606
415.5655, 38.91204
416.0476, 38.96623
416.5297, 39.08507
417.0118, 39.30053
417.4940, 39.54653
417.9761, 39.84484
418.4582, 40.15676
418.9403, 40.45337
419.4224, 40.72234
419.9045, 40.92354
420.3867, 40.94958
420.8688, 40.65621
421.3509, 40.57724
421.8330, 40.86462
422.3151, 41.24786
422.7972, 41.65913
423.2794, 42.04979
423.7615, 42.32676
424.2436, 42.36387
424.7257, 42.21613
425.2078, 42.26865
425.6899, 42.62717
426.1721, 43.00641
426.6542, 43.39002
427.1363, 43.70289
427.6184, 43.79206
428.1005, 43.56202
428.5826, 43.34358
429.0648, 43.60254
429.5469, 44.34751
430.0290, 44.99690
430.5111, 45.30645
430.9932, 45.61631
431.4753, 46.27288
431.9575, 47.23145
432.4396, 48.12537
432.9217, 48.75415
433.4038, 49.21338
433.8859, 49.63324
434.3680, 50.00760
434.8502, 50.44481
435.3323, 51.01937
435.8144, 51.71309
436.2965, 52.45039
436.7786, 53.22623
437.2607, 54.04877
437.7429, 54.93528
438.2250, 55.86834
438.7071, 56.81465
439.1892, 57.76585
439.6713, 58.70666
440.1534, 59.57298
440.6356, 60.30194
441.1177, 61.28326
441.5998, 62.76869
442.0819, 64.32596
442.5640, 65.61536
443.0461, 66.66473
443.5282, 67.72647
444.0103, 68.97001
444.4925, 70.35339
444.9746, 71.62810
445.4567, 72.52287
445.9388, 73.64370
446.4209, 75.26090
446.9030, 77.01885
447.3852, 78.52930
447.8673, 79.70570
448.3494, 80.83097
448.8315, 82.29580
449.3136, 84.20287
449.7957, 85.92758
450.2779, 87.59998
450.7600, 88.95985
451.2421, 89.76398
451.7242, 90.20055
452.2063, 90.63437
452.6884, 91.27937
453.1706, 91.98542
453.6527, 92.39080
454.1348, 92.45263
454.6169, 92.34435
455.0990, 92.08920
455.5811, 91.68267
456.0633, 91.10430
456.5454, 90.35457
457.0275, 89.45895
457.5096, 88.42091
457.9917, 87.25082
458.4738, 85.97620
458.9560, 84.60986
459.4381, 83.09838
459.9202, 81.32213
460.4023, 79.38519
460.8844, 77.44786
461.3665, 75.46617
461.8487, 73.60244
462.3308, 72.12959
462.8129, 70.90393
463.2950, 69.36698
463.7771, 67.25085
464.2592, 64.97192
464.7414, 63.13503
465.2235, 61.79758
465.7056, 60.41823
466.1877, 58.80966
466.6698, 57.21859
467.1519, 55.82247
467.6341, 54.62497
468.1162, 53.61314
468.5983, 52.80922
469.0804, 52.13929
469.5625, 51.29255
470.0446, 49.99188
470.5268, 48.86609
471.0089, 47.98525
471.4910, 47.28936
471.9731, 46.74308
472.4552, 46.33027
472.9373, 46.03986
473.4195, 45.89626
473.9016, 45.92414
474.3837, 45.76518
474.8658, 45.25305
475.3479, 44.72603
475.8300, 44.22715
476.3122, 43.78822
476.7943, 43.44402
477.2764, 43.21371
477.7585, 43.06200
478.2406, 42.92807
478.7227, 42.80626
479.2049, 42.76690
479.6870, 42.92998
480.1691, 43.06746
480.6512, 42.94239
481.1333, 42.62190
481.6154, 42.42788
482.0976, 42.72159
482.5797, 43.14266
483.0618, 43.06438
483.5439, 42.46983
484.0260, 41.83754
484.5081, 41.31075
484.9902, 40.95856
485.4724, 40.92330
485.9545, 41.30854
486.4366, 41.67807
486.9187, 41.89082
487.4008, 42.00024
487.8829, 42.07331
488.3651, 42.12154
488.8472, 42.11496
489.3293, 41.99628
489.8114, 41.76714
490.2935, 41.77568
490.7756, 42.24295
491.2578, 42.64358
491.7399, 42.80410
492.2220, 42.82123
492.7041, 42.79833
493.1862, 42.77876
493.6683, 42.80660
494.1505, 42.97146
494.6326, 43.34248
495.1147, 43.57491
495.5968, 43.52605
496.0789, 43.47380
496.5610, 43.48792
497.0432, 43.57697
497.5253, 43.74086
498.0074, 43.97986
498.4895, 44.28910
498.9716, 44.71277
499.4537, 45.29773
499.9359, 45.69041
500.4180, 45.63827
500.9001, 45.51843
501.3822, 45.64271
501.8643, 46.00059
502.3464, 46.41048
502.8286, 46.83842
503.3107, 47.24615
503.7928, 47.57568
504.2749, 47.82448
504.7570, 48.03268
505.2391, 48.21096
505.7213, 48.36950
506.2034, 48.52636
506.6855, 48.66064
507.1676, 48.83940
507.6497, 49.13511
508.1318, 49.45531
508.6140, 49.66158
509.0961, 49.75201
509.5782, 49.87219
510.0603, 50.14796
510.5424, 50.57298
511.0245, 51.03144
511.5067, 51.65206
511.9888, 52.14803
512.4709, 52.36203
512.9530, 52.48393
513.4351, 52.76029
513.9172, 53.23755
514.3994, 53.70037
514.8815, 53.79027
515.3636, 53.44600
515.8457, 53.58442
516.3278, 54.54668
516.8099, 55.55637
517.2921, 56.47711
517.7742, 57.18472
518.2563, 57.40572
518.7384, 56.92321
519.2205, 56.36691
519.7026, 56.44777
520.1848, 57.10152
520.6669, 57.86349
521.1490, 58.70610
521.6311, 59.49413
522.1132, 60.03347
522.5953, 60.37078
523.0775, 60.72984
523.5596, 61.16792
524.0417, 61.61947
524.5238, 62.10112
525.0059, 62.55951
525.4880, 62.78431
525.9702, 62.65478
526.4523, 62.48816
526.9344, 62.87011
527.4165, 64.16379
527.8986, 65.05053
528.3807, 65.33130
528.8629, 65.43054
529.3450, 65.50152
529.8271, 65.58427
530.3092, 65.69492
530.7913, 65.83964
531.2734, 66.03475
531.7556, 66.34638
532.2377, 66.84860
532.7198, 67.25468
533.2019, 67.46706
533.6840, 67.61615
534.1661, 67.75617
534.6483, 67.89426
535.1304, 68.03287
535.6125, 68.18889
536.0946, 68.33701
536.5767, 68.44613
537.0588, 68.51817
537.5410, 68.49876
538.0231, 68.32818
538.5052, 68.09061
538.9873, 67.89133
539.4694, 67.71205
539.9515, 67.67004
540.4337, 67.94820
540.9158, 68.27792
541.3979, 68.43106
541.8800, 68.38640
542.3621, 68.13418
542.8442, 67.63290
543.3264, 66.98943
543.8085, 66.56944
544.2906, 66.62047
544.7726, 66.56154
545.2548, 66.40920
545.7369, 66.12879
546.2190, 65.65016
546.7011, 65.01028
547.1832, 64.32800
547.6653, 63.68894
548.1475, 63.08998
548.6296, 62.52700
549.1117, 61.99336
549.5938, 61.51525
550.0759, 61.23255
550.5580, 60.92057
551.0402, 60.30182
551.5223, 59.38721
552.0044, 58.65179
552.4865, 58.56647
552.9686, 58.76492
553.4507, 58.55940
553.9329, 57.92013
554.4150, 57.25204
554.8971, 56.75293
555.3792, 56.37519
555.8613, 55.99529
556.3434, 55.55783
556.8256, 55.24992
557.3077, 55.12581
557.7898, 55.13135
558.2719, 55.26691
558.7540, 55.49872
559.2361, 55.74513
559.7183, 55.96863
560.2004, 56.12581
560.6825, 56.00764
561.1646, 55.31389
561.6467, 54.86355
562.1288, 54.84546
562.6110, 54.97635
563.0931, 55.07976
563.5752, 55.13833
564.0573, 55.20173
564.5394, 55.25902
565.0215, 55.37037
565.5037, 55.74164
565.9858, 56.42327
566.4679, 57.05713
566.9500, 57.58916
567.4321, 57.93242
567.9142, 57.95300
568.3964, 57.62871
568.8785, 57.31624
569.3606, 57.12374
569.8427, 57.00677
570.3248, 57.00882
570.8069, 57.07211
571.2891, 56.94418
571.7712, 56.47929
572.2533, 55.76681
572.7354, 55.03513
573.2175, 54.33241
573.6996, 53.51026
574.1818, 52.42440
574.6639, 51.35059
575.1460, 50.43569
575.6281, 49.67475
576.1102, 49.02808
576.5923, 48.48386
577.0745, 47.99757
577.5566, 47.47947
578.0387, 46.93280
578.5208, 46.33455
579.0029, 45.61003
579.4850, 44.91475
579.9672, 44.35057
580.4493, 43.91035
580.9314, 43.55944
581.4135, 43.37780
581.8956, 43.20345
582.3777, 42.84306
582.8599, 42.34655
583.3420, 41.88729
583.8241, 41.51651
584.3062, 41.24004
584.7883, 41.07413
585.2704, 41.04170
585.7526, 41.01803
586.2347, 41.11567
