##NAMES=Vivianite
##RRUFFID=R040185
##IDEAL CHEMISTRY=Fe^2+^_3_(PO_4_)_2_&#183;8H_2_O
##LOCALITY=Siglo XX mine, Llallagua, Bustillos, Potosi, Bolivia
##OWNER=RRUFF
##SOURCE=University of Arizona Mineral Museum
##DESCRIPTION=Green acicular single crystal
##STATUS=The identification of this mineral has been confirmed by X-ray diffraction and chemical analysis
##URL=rruff.info/R040185
##MEASURED CHEMISTRY=(Fe_1.00_Mn_0.01_)_3_(P_0.97_Si_0.03_O_3.94_F_0.07_)_2_Â·8H_2_O
126.3227, 66.73224
126.8048, 71.10555
127.2869, 75.85881
127.7690, 80.51093
128.2512, 85.31478
128.7333, 91.16563
129.2154, 98.96847
129.6975, 106.7951
130.1796, 115.1529
130.6617, 123.1375
131.1439, 129.5281
131.6260, 133.5760
132.1081, 135.4200
132.5902, 136.1171
133.0723, 132.1674
133.5544, 130.6930
134.0366, 134.0298
134.5187, 140.7747
135.0008, 148.7530
135.4829, 156.7153
135.9650, 164.5484
136.4471, 169.3494
136.9293, 168.5118
137.4114, 167.6229
137.8935, 169.0379
138.3756, 171.8306
138.8577, 173.4474
139.3398, 171.7971
139.8220, 166.8201
140.3041, 163.7451
140.7862, 160.9646
141.2683, 161.0202
141.7504, 166.5215
142.2325, 176.3331
142.7147, 186.5149
143.1968, 194.0908
143.6789, 198.9299
144.1610, 204.4686
144.6431, 209.6078
145.1252, 216.2180
145.6074, 225.8247
146.0895, 238.2001
146.5716, 251.6496
147.0537, 265.1084
147.5358, 278.5174
148.0179, 291.2865
148.5001, 304.5531
148.9822, 316.3726
149.4643, 324.2748
149.9464, 328.4207
150.4285, 333.1649
150.9106, 344.0230
151.3928, 359.6087
151.8749, 367.1141
152.3570, 359.7340
152.8391, 347.6339
153.3212, 339.3370
153.8033, 335.4720
154.2855, 334.2134
154.7676, 335.3200
155.2497, 338.1665
155.7318, 340.0266
156.2139, 339.4741
156.6960, 338.2246
157.1782, 337.8378
157.6603, 338.2589
158.1424, 340.3475
158.6245, 344.9451
159.1066, 351.7606
159.5887, 360.6392
160.0709, 371.1662
160.5530, 383.8632
161.0351, 400.1498
161.5172, 420.8152
161.9993, 441.9458
162.4814, 462.2460
162.9636, 480.9791
163.4457, 496.4199
163.9278, 507.8105
164.4099, 515.4643
164.8920, 519.7897
165.3741, 520.7568
165.8563, 518.3138
166.3384, 510.9452
166.8205, 500.4536
167.3026, 489.6353
167.7847, 480.1644
168.2668, 470.8683
168.7490, 458.9287
169.2311, 443.4015
169.7132, 427.1553
170.1953, 409.8940
170.6774, 393.1484
171.1595, 379.6315
171.6417, 371.2227
172.1238, 366.5715
172.6059, 362.5927
173.0880, 359.7813
173.5701, 356.6254
174.0522, 351.2763
174.5344, 345.3643
175.0165, 341.4312
175.4986, 341.0414
175.9807, 343.1933
176.4628, 344.8357
176.9449, 344.4870
177.4271, 346.5904
177.9092, 354.6333
178.3913, 365.3265
178.8734, 373.7863
179.3555, 376.6482
179.8376, 376.7595
180.3197, 382.6947
180.8019, 396.4545
181.2840, 413.0337
181.7661, 432.5249
182.2482, 452.8980
182.7303, 471.0168
183.2124, 484.6618
183.6946, 496.2545
184.1767, 513.1916
184.6588, 538.7979
185.1409, 563.9667
185.6230, 585.5899
186.1051, 605.6045
186.5873, 626.4183
187.0694, 649.2506
187.5515, 673.1974
188.0336, 696.1122
188.5157, 715.9119
188.9978, 738.1902
189.4800, 765.0256
189.9621, 793.9434
190.4442, 821.8165
190.9263, 846.7246
191.4084, 871.9228
191.8905, 905.7458
192.3727, 953.1153
192.8548, 1001.178
193.3369, 1050.019
193.8190, 1097.479
194.3011, 1140.710
194.7832, 1178.505
195.2654, 1213.989
195.7475, 1254.260
196.2296, 1305.263
196.7117, 1350.196
197.1938, 1390.991
197.6759, 1424.004
198.1581, 1447.402
198.6402, 1460.483
199.1223, 1460.707
199.6044, 1442.043
200.0865, 1396.644
200.5686, 1346.330
201.0508, 1294.289
201.5329, 1238.421
202.0150, 1177.181
202.4971, 1109.985
202.9792, 1038.810
203.4613, 964.9155
203.9435, 881.9271
204.4256, 811.7824
204.9077, 758.1154
205.3898, 713.2396
205.8719, 673.3148
206.3540, 636.9933
206.8362, 603.6141
207.3183, 571.8433
207.8004, 541.0980
208.2825, 514.4291
208.7646, 491.4245
209.2467, 472.1224
209.7289, 457.7325
210.2110, 447.8705
210.6931, 440.0902
211.1752, 431.1561
211.6573, 419.6252
212.1395, 412.6332
212.6216, 413.2014
213.1037, 415.3868
213.5858, 415.8124
214.0679, 414.8469
214.5500, 415.4299
215.0322, 420.8927
215.5143, 432.1332
215.9964, 442.2418
216.4785, 450.2932
216.9606, 458.1360
217.4427, 465.3017
217.9249, 472.6955
218.4070, 482.3859
218.8891, 496.3734
219.3712, 514.7768
219.8533, 533.1760
220.3354, 552.1245
220.8176, 570.5300
221.2997, 585.9829
221.7818, 600.6748
222.2639, 618.9949
222.7460, 644.2589
223.2281, 675.9645
223.7103, 706.4307
224.1924, 735.2594
224.6745, 763.2450
225.1566, 792.5142
225.6387, 820.7599
226.1208, 844.2474
226.6030, 860.3879
227.0851, 870.9210
227.5672, 883.5430
228.0493, 905.2761
228.5314, 919.0909
229.0135, 920.0306
229.4957, 912.8708
229.9778, 902.4150
230.4599, 890.7286
230.9420, 878.1193
231.4241, 865.0145
231.9062, 850.0822
232.3884, 837.1945
232.8705, 827.9507
233.3526, 820.0582
233.8347, 810.1860
234.3168, 797.5006
234.7989, 786.0044
235.2811, 783.4234
235.7632, 794.1984
236.2453, 803.5473
236.7274, 809.7156
237.2095, 814.6520
237.6916, 821.1698
238.1738, 829.1325
238.6559, 834.1785
239.1380, 830.5694
239.6201, 816.7415
240.1022, 799.7188
240.5843, 780.2582
241.0665, 757.2502
241.5486, 728.4016
242.0307, 694.5239
242.5128, 659.5892
242.9949, 627.5590
243.4770, 598.7263
243.9592, 568.6082
244.4413, 534.2166
244.9234, 501.1061
245.4055, 470.5381
245.8876, 442.8249
246.3697, 418.5945
246.8519, 398.9870
247.3340, 383.3336
247.8161, 366.5279
248.2982, 346.2675
248.7803, 327.9817
249.2624, 313.2094
249.7446, 301.4018
250.2267, 291.9165
250.7088, 284.7763
251.1909, 279.2302
251.6730, 273.0684
252.1551, 265.9355
252.6373, 258.8511
253.1194, 250.9456
253.6015, 243.7218
254.0836, 239.2495
254.5657, 238.6435
255.0478, 239.6288
255.5300, 238.9205
256.0121, 236.5832
256.4942, 232.2549
256.9763, 223.0001
257.4584, 213.3191
257.9406, 206.2224
258.4227, 202.3568
258.9048, 200.9506
259.3869, 202.0363
259.8690, 205.7655
260.3511, 208.5650
260.8333, 210.2205
261.3154, 210.1863
261.7975, 206.9032
262.2796, 200.7103
262.7617, 195.9839
263.2438, 197.2501
263.7260, 203.2612
264.2081, 206.5498
264.6902, 205.3026
265.1723, 202.7694
265.6544, 200.8559
266.1365, 199.5895
266.6187, 199.1936
267.1008, 199.8996
267.5829, 201.5229
268.0650, 204.1329
268.5471, 208.3181
269.0292, 211.5582
269.5114, 210.4164
269.9935, 207.2464
270.4756, 206.2185
270.9577, 209.9869
271.4398, 215.0378
271.9219, 217.5448
272.4041, 217.4638
272.8862, 216.2229
273.3683, 213.7372
273.8504, 210.8813
274.3325, 209.3460
274.8146, 209.7650
275.2968, 210.4956
275.7789, 210.7677
276.2610, 210.5234
276.7431, 209.5153
277.2252, 207.6401
277.7073, 204.9348
278.1895, 201.1229
278.6716, 195.7880
279.1537, 191.4318
279.6358, 191.0465
280.1179, 191.7650
280.6000, 187.6239
281.0822, 176.6668
281.5643, 164.7186
282.0464, 158.9922
282.5285, 160.0159
283.0106, 160.8474
283.4927, 161.4684
283.9749, 161.1074
284.4570, 158.2630
284.9391, 153.0929
285.4212, 148.4333
285.9033, 146.8930
286.3854, 148.4119
286.8676, 148.1871
287.3497, 143.9773
287.8318, 140.3555
288.3139, 140.2794
288.7960, 142.6670
289.2781, 144.3540
289.7603, 143.4464
290.2424, 140.7487
290.7245, 139.6799
291.2066, 141.9235
291.6887, 143.5946
292.1708, 143.4458
292.6530, 142.6485
293.1351, 142.8760
293.6172, 144.6921
294.0993, 147.0363
294.5814, 147.9313
295.0635, 145.7863
295.5457, 145.2432
296.0278, 146.8682
296.5099, 149.5471
296.9920, 152.9989
297.4741, 156.9056
297.9562, 160.3964
298.4384, 162.4418
298.9205, 162.7129
299.4026, 163.8613
299.8847, 167.9455
300.3668, 170.8339
300.8489, 169.6876
301.3310, 166.2329
301.8131, 164.2743
302.2953, 166.5131
302.7774, 172.0482
303.2595, 176.2979
303.7416, 178.8071
304.2237, 180.5569
304.7058, 181.1919
305.1880, 181.5082
305.6701, 182.4959
306.1522, 184.5474
306.6343, 186.8534
307.1164, 188.4247
307.5985, 189.6426
308.0807, 188.6557
308.5628, 183.7025
309.0449, 177.3558
309.5270, 170.1061
310.0091, 162.3459
310.4912, 156.1760
310.9734, 154.2318
311.4555, 156.0739
311.9376, 157.0081
312.4197, 156.9029
312.9018, 155.4758
313.3839, 151.6715
313.8661, 146.4764
314.3482, 142.5643
314.8303, 142.2373
315.3124, 143.4436
315.7945, 142.1311
316.2766, 137.7677
316.7588, 134.0655
317.2409, 134.0955
317.7230, 135.7185
318.2051, 135.1485
318.6872, 130.5734
319.1693, 126.1749
319.6515, 125.7821
320.1336, 128.4896
320.6157, 130.0377
321.0978, 128.5430
321.5799, 125.9760
322.0620, 125.5408
322.5442, 127.3809
323.0263, 129.5871
323.5084, 132.2206
323.9905, 134.6759
324.4726, 135.7621
324.9547, 135.2966
325.4369, 135.0502
325.9190, 136.9504
326.4011, 141.2758
326.8832, 144.2988
327.3653, 145.5920
327.8474, 146.0541
328.3296, 145.0395
328.8117, 143.4610
329.2938, 143.9866
329.7759, 148.4346
330.2580, 155.7504
330.7401, 161.0076
331.2223, 163.2312
331.7044, 164.6044
332.1865, 164.3276
332.6686, 163.7769
333.1507, 164.3796
333.6328, 166.5729
334.1150, 169.8815
334.5971, 173.8268
335.0792, 179.1169
335.5613, 183.0200
336.0434, 184.0431
336.5255, 185.1597
337.0077, 189.0758
337.4898, 194.6984
337.9719, 197.9811
338.4540, 194.2916
338.9361, 185.1638
339.4182, 185.2609
339.9004, 203.2702
340.3825, 217.7366
340.8646, 219.7805
341.3467, 216.0736
341.8288, 215.5076
342.3109, 221.9104
342.7931, 230.1907
343.2752, 232.1449
343.7573, 226.7610
344.2394, 222.2974
344.7215, 222.0374
345.2036, 222.2980
345.6858, 219.4780
346.1679, 213.5238
346.6500, 208.5649
347.1321, 209.6024
347.6142, 213.5995
348.0963, 211.4418
348.5785, 200.9081
349.0606, 188.2949
349.5427, 177.5670
350.0248, 168.5847
350.5069, 161.3174
350.9890, 156.4373
351.4712, 152.7072
351.9533, 149.5524
352.4354, 146.8009
352.9175, 143.4521
353.3996, 138.7418
353.8817, 133.4832
354.3639, 129.9290
354.8460, 128.5493
355.3281, 127.4453
355.8102, 127.0269
356.2923, 126.2981
356.7744, 123.8532
357.2566, 119.4510
357.7387, 114.1602
358.2208, 108.8175
358.7029, 102.8330
359.1850, 100.4652
359.6671, 105.4142
360.1493, 109.7579
360.6314, 109.5697
361.1135, 106.0029
361.5956, 101.9690
362.0777, 99.11708
362.5598, 97.22609
363.0420, 95.37299
363.5241, 92.54753
364.0062, 91.53260
364.4883, 94.27514
364.9704, 97.73222
365.4525, 99.49596
365.9347, 99.01009
366.4168, 97.12267
366.8989, 94.15972
367.3810, 89.93436
367.8631, 87.46366
368.3452, 87.73476
368.8274, 88.83541
369.3095, 90.05625
369.7916, 91.28272
370.2737, 92.30373
370.7558, 93.08566
371.2379, 93.55503
371.7201, 93.38831
372.2022, 92.48920
372.6843, 91.92418
373.1664, 92.54743
373.6485, 93.50713
374.1306, 93.35604
374.6128, 91.63584
375.0949, 90.30576
375.5770, 91.04015
376.0591, 92.77712
376.5412, 93.13614
377.0233, 91.48554
377.5055, 89.61189
377.9876, 89.41931
378.4697, 91.12862
378.9518, 92.42142
379.4339, 93.27721
379.9160, 93.70300
380.3982, 93.46534
380.8803, 92.77267
381.3624, 92.21674
381.8445, 92.15404
382.3266, 92.32011
382.8087, 91.87962
383.2909, 89.03411
383.7730, 88.03755
384.2551, 91.20133
384.7372, 94.77821
385.2193, 95.06834
385.7014, 91.89763
386.1836, 88.48850
386.6657, 88.48640
387.1478, 92.13737
387.6299, 94.42098
388.1120, 94.04450
388.5941, 93.74979
389.0763, 94.47369
389.5584, 95.85031
390.0405, 97.36509
390.5226, 98.93864
391.0047, 100.1806
391.4868, 100.0149
391.9690, 98.15909
392.4511, 97.72283
392.9332, 100.8873
393.4153, 104.5607
393.8974, 105.4357
394.3795, 103.5187
394.8617, 102.0518
395.3438, 103.6291
395.8259, 106.3250
396.3080, 106.5247
396.7901, 103.7837
397.2722, 100.9833
397.7544, 100.0757
398.2365, 100.8351
398.7186, 101.5976
399.2007, 102.8791
399.6828, 103.5881
400.1649, 102.5373
400.6471, 100.8109
401.1292, 100.4702
401.6113, 102.2016
402.0934, 104.5446
402.5755, 105.2370
403.0576, 103.2727
403.5398, 102.7474
404.0219, 104.5506
404.5040, 106.7491
404.9861, 108.8214
405.4682, 110.4621
405.9503, 111.1725
406.4325, 110.5542
406.9146, 108.9712
407.3967, 107.5960
407.8788, 106.0203
408.3609, 105.5495
408.8430, 107.2698
409.3252, 109.5440
409.8073, 111.2731
410.2894, 112.2405
410.7715, 112.5485
411.2536, 111.8730
411.7357, 110.4871
412.2179, 109.8681
412.7000, 110.2874
413.1821, 111.0519
413.6642, 111.3763
414.1463, 111.7296
414.6284, 113.1515
415.1106, 115.9600
415.5927, 119.7453
416.0748, 125.6132
416.5569, 132.3936
417.0390, 136.1295
417.5211, 135.1870
418.0033, 131.6983
418.4854, 128.4986
418.9675, 125.2882
419.4496, 123.6567
419.9317, 124.1235
420.4138, 125.8344
420.8960, 128.7522
421.3781, 132.4707
421.8602, 136.1285
422.3423, 139.2343
422.8244, 141.7492
423.3065, 143.4892
423.7887, 144.0735
424.2708, 144.4297
424.7529, 144.1929
425.2350, 144.0974
425.7171, 144.7224
426.1992, 146.1543
426.6814, 148.1096
427.1635, 150.5507
427.6456, 153.4219
428.1277, 155.7385
428.6098, 157.1111
429.0919, 158.6749
429.5741, 160.8175
430.0562, 163.5754
430.5383, 167.3083
431.0204, 172.8145
431.5025, 177.7663
431.9846, 179.6131
432.4668, 179.1963
432.9489, 179.4680
433.4310, 181.1624
433.9131, 183.7803
434.3952, 186.5921
434.8773, 189.4897
435.3595, 194.1283
435.8416, 202.8230
436.3237, 211.2689
436.8058, 216.2063
437.2879, 218.7150
437.7701, 221.8529
438.2522, 227.1830
438.7343, 234.0862
439.2164, 240.8722
439.6985, 246.3764
440.1806, 253.9347
440.6628, 265.4895
441.1449, 277.3706
441.6270, 286.8281
442.1091, 294.2304
442.5912, 302.0504
443.0733, 312.1889
443.5555, 324.1257
444.0376, 335.7785
444.5197, 346.8529
445.0018, 358.4912
445.4839, 371.8402
445.9660, 385.7246
446.4482, 399.0999
446.9303, 411.7725
447.4124, 424.0244
447.8945, 436.1349
448.3766, 447.9325
448.8587, 458.1891
449.3409, 466.5610
449.8230, 476.8742
450.3051, 493.7607
450.7872, 515.9398
451.2693, 530.8554
451.7514, 530.2101
452.2336, 532.5118
452.7157, 548.1152
453.1978, 568.7445
453.6799, 583.2365
454.1620, 588.2551
454.6441, 586.6794
455.1263, 581.4517
455.6084, 571.5918
456.0905, 563.6827
456.5726, 562.0223
457.0547, 557.9551
457.5368, 548.4042
458.0190, 534.7845
458.5011, 519.2001
458.9832, 502.2502
459.4653, 484.9193
459.9474, 468.6489
460.4295, 453.5240
460.9117, 437.7777
461.3938, 420.7742
461.8759, 403.4611
462.3580, 386.5966
462.8401, 370.1106
463.3222, 353.4552
463.8044, 334.2556
464.2865, 316.4727
464.7686, 304.9790
465.2507, 298.3791
465.7328, 291.1100
466.2149, 280.8002
466.6971, 268.4109
467.1792, 255.6954
467.6613, 240.6070
468.1434, 229.8572
468.6255, 226.7405
469.1076, 224.9947
469.5898, 221.2034
470.0719, 215.3790
470.5540, 208.6877
471.0361, 201.6348
471.5182, 194.7472
472.0003, 189.6846
472.4825, 187.3888
472.9646, 184.4354
473.4467, 179.2361
473.9288, 173.7811
474.4109, 169.4111
474.8930, 166.1308
475.3752, 162.9586
475.8573, 158.1896
476.3394, 153.6255
476.8215, 153.0658
477.3036, 156.6271
477.7857, 160.2339
478.2679, 162.5476
478.7500, 163.0492
479.2321, 159.6625
479.7142, 149.6588
480.1963, 143.1500
480.6784, 144.6200
481.1606, 148.6839
481.6427, 150.8396
482.1248, 150.6472
482.6069, 149.3681
483.0890, 147.7196
483.5711, 146.0243
484.0533, 146.3377
484.5354, 151.8475
485.0175, 153.9907
485.4996, 147.5271
485.9817, 140.4638
486.4638, 140.4814
486.9460, 147.6396
487.4281, 154.4215
487.9102, 153.3636
488.3923, 147.4896
488.8744, 146.7244
489.3565, 152.1069
489.8387, 157.0516
490.3208, 158.5312
490.8029, 157.2398
491.2850, 154.5659
491.7671, 149.3258
492.2492, 146.0937
492.7314, 147.1605
493.2135, 150.6458
493.6956, 155.6204
494.1777, 161.3490
494.6598, 164.9571
495.1419, 163.7198
495.6241, 158.8312
496.1062, 158.1095
496.5883, 165.2594
497.0704, 171.5446
497.5525, 176.2433
498.0346, 179.7097
498.5168, 182.1848
498.9989, 183.7283
499.4810, 184.2821
499.9631, 182.6814
500.4452, 180.0920
500.9273, 181.8530
501.4095, 189.3735
501.8916, 195.2006
502.3737, 194.7937
502.8558, 191.5506
503.3379, 190.8347
503.8200, 193.1052
504.3022, 196.3671
504.7843, 199.8822
505.2664, 203.9930
505.7485, 209.6689
506.2306, 216.6344
506.7127, 222.8646
507.1949, 227.0873
507.6770, 229.4478
508.1591, 230.4718
508.6412, 227.9750
509.1233, 227.3910
509.6054, 229.9382
510.0876, 233.6753
510.5697, 237.1262
511.0518, 240.3139
511.5339, 244.2342
512.0161, 249.7182
512.4982, 256.3618
512.9803, 263.7575
513.4624, 272.3660
513.9445, 278.3893
514.4266, 278.5193
514.9088, 277.1017
515.3909, 280.3891
515.8730, 288.8491
516.3551, 295.8277
516.8372, 297.3124
517.3193, 297.9261
517.8015, 302.5185
518.2836, 310.3991
518.7657, 317.9259
519.2478, 323.1702
519.7299, 326.7714
520.2120, 330.2097
520.6942, 333.4918
521.1763, 336.6083
521.6584, 339.9226
522.1405, 342.7556
522.6226, 343.7942
523.1047, 344.0652
523.5869, 346.2432
524.0690, 352.3099
524.5511, 359.7131
525.0332, 363.6251
525.5153, 364.0798
525.9974, 366.8251
526.4796, 374.5003
526.9617, 382.8031
527.4438, 386.9906
527.9259, 387.5258
528.4080, 387.3346
528.8901, 384.0842
529.3723, 382.9186
529.8544, 389.2899
530.3365, 399.4905
530.8186, 405.6500
531.3007, 405.2072
531.7828, 402.9061
532.2650, 405.7432
532.7471, 415.1200
533.2292, 420.9265
533.7113, 419.8896
534.1934, 418.9353
534.6755, 421.9754
535.1577, 425.6519
535.6398, 424.3095
536.1219, 415.7614
536.6040, 407.5224
537.0861, 407.7933
537.5682, 414.0419
538.0504, 417.9414
538.5325, 418.2776
539.0146, 418.1264
539.4967, 419.8076
539.9788, 422.7624
540.4609, 424.1957
540.9431, 424.4971
541.4252, 422.9750
541.9073, 417.7426
542.3894, 411.7568
542.8715, 407.9552
543.3536, 406.4641
543.8358, 405.6095
544.3179, 404.2604
544.8000, 402.2673
545.2821, 398.8067
545.7642, 393.3472
546.2463, 387.8752
546.7285, 382.2506
547.2106, 377.3285
547.6926, 374.4145
548.1747, 373.2707
548.6569, 371.0599
549.1390, 366.3749
549.6211, 360.1504
550.1032, 352.4749
550.5853, 343.9353
551.0674, 337.5544
551.5496, 334.8511
552.0317, 332.8201
552.5138, 326.1900
552.9959, 312.4106
553.4780, 302.6451
553.9601, 297.6917
554.4423, 295.2224
554.9244, 296.1641
555.4065, 298.3927
555.8886, 299.1624
556.3707, 297.4906
556.8528, 293.4696
557.3350, 285.4851
557.8171, 274.4129
558.2992, 268.1914
558.7813, 269.0617
559.2634, 269.8489
559.7455, 264.2497
560.2277, 255.2096
560.7098, 252.3105
561.1919, 260.2253
561.6740, 266.1948
562.1561, 264.3570
562.6382, 259.7509
563.1204, 257.7329
563.6025, 258.6536
564.0846, 259.8613
564.5667, 259.4293
565.0488, 257.7640
565.5309, 256.2334
566.0131, 254.1554
566.4952, 253.9360
566.9773, 256.7633
567.4594, 261.0475
567.9415, 267.3025
568.4236, 274.5737
568.9058, 279.0278
569.3879, 277.8905
569.8700, 274.2932
570.3521, 271.1413
570.8342, 268.1851
571.3163, 264.4787
571.7985, 259.6907
572.2806, 254.5543
572.7627, 250.2067
573.2448, 246.9574
573.7269, 241.3543
574.2090, 230.0857
574.6912, 220.4596
575.1733, 215.8574
575.6554, 213.0318
576.1375, 207.5038
576.6196, 198.6130
577.1017, 190.8607
577.5839, 189.9910
578.0660, 193.5006
578.5481, 192.5610
579.0302, 186.6206
579.5123, 179.9103
579.9944, 173.6800
580.4766, 168.3995
580.9587, 165.4809
581.4408, 165.5990
581.9229, 164.7480
582.4050, 161.1759
582.8871, 157.5799
583.3693, 155.8994
583.8514, 155.6149
584.3335, 155.4454
584.8156, 154.8179
585.2977, 153.6545
585.7798, 151.3367
586.2620, 147.6105
586.7441, 146.0124
587.2262, 148.0022
587.7083, 149.9859
588.1904, 149.3161
588.6725, 147.4534
589.1547, 146.9908
589.6368, 149.1017
590.1189, 150.4061
590.6010, 148.7445
591.0831, 145.6489
591.5652, 142.7732
592.0474, 140.3931
592.5295, 138.3839
593.0116, 136.5759
593.4937, 135.3752
593.9758, 136.2726
594.4579, 140.6098
594.9401, 143.8409
595.4222, 145.7589
595.9043, 146.2748
596.3864, 144.1424
596.8685, 140.5647
597.3506, 138.5400
597.8328, 139.7091
598.3149, 141.7350
598.7970, 142.3089
599.2791, 142.1115
599.7612, 143.1032
600.2433, 145.6699
600.7255, 148.4105
601.2076, 150.1784
601.6897, 151.0617
602.1718, 151.8104
602.6539, 154.3684
603.1360, 153.9832
603.6182, 146.2703
604.1003, 138.7097
604.5824, 138.3740
605.0645, 143.8858
605.5466, 147.4223
606.0287, 142.8621
606.5109, 136.1354
606.9930, 137.2641
607.4751, 145.1571
607.9572, 150.9908
608.4393, 152.4048
608.9214, 152.0466
609.4036, 152.5476
609.8857, 153.9095
610.3678, 154.0460
610.8499, 151.2687
611.3320, 149.5210
611.8141, 150.1275
612.2963, 151.9369
612.7784, 154.4987
613.2605, 157.2699
613.7426, 158.6105
614.2247, 156.4878
614.7068, 152.7146
615.1890, 151.9284
615.6711, 154.2407
616.1532, 157.4129
616.6353, 161.8159
617.1174, 165.0022
617.5995, 163.3570
618.0817, 156.7541
618.5638, 152.1613
619.0459, 149.9335
619.5280, 149.6504
620.0101, 152.6863
620.4922, 156.8237
620.9744, 159.5363
