##NAMES=Vivianite
##RRUFFID=R050596
##IDEAL CHEMISTRY=Fe^2+^_3_(PO_4_)_2_&#183;8H_2_O
##LOCALITY=Chernomorskiy Quarry, near Kertch City, Crimea Peninsula, Ukraine
##OWNER=RRUFF
##SOURCE=Barb Dutrow
##DESCRIPTION=Group of dark blue elongated prismatic single crystals in a fossilized clam shell
##STATUS=The identification of this mineral has been confirmed by X-ray diffraction and chemical analysis
##URL=rruff.info/R050596
##MEASURED CHEMISTRY=(Fe^2+^_2.89_Mg_0.08_Mn_0.03_)_Σ=3_(P_1.00_O_4_)_2_·8H_2_O
91.11523, 7.170207
91.59735, 6.982728
92.07947, 7.170667
92.56158, 7.609312
93.04370, 7.905374
93.52582, 7.723948
94.00793, 7.250917
94.49006, 6.880018
94.97218, 6.652128
95.45429, 6.532846
95.93641, 6.488356
96.41853, 6.517410
96.90064, 6.568927
97.38276, 6.596488
97.86488, 6.605566
98.34699, 6.665313
98.82911, 6.797826
99.31123, 6.981675
99.79334, 7.169827
100.2755, 7.381397
100.7576, 7.525105
101.2397, 7.491964
101.7218, 7.243058
102.2039, 6.996881
102.6861, 6.781230
103.1682, 6.595047
103.6503, 6.515047
104.1324, 6.584902
104.6145, 6.711747
105.0966, 6.776818
105.5788, 6.716105
106.0609, 6.703303
106.5430, 6.780611
107.0251, 6.956637
107.5072, 7.199117
107.9893, 7.571267
108.4715, 7.995931
108.9536, 8.334750
109.4357, 8.467266
109.9178, 8.624146
110.3999, 8.908810
110.8820, 9.588222
111.3642, 9.952925
111.8463, 9.404630
112.3284, 8.452213
112.8105, 8.490075
113.2926, 10.75391
113.7747, 13.34063
114.2569, 15.26990
114.7390, 15.87807
115.2211, 16.42576
115.7032, 17.08984
116.1853, 17.88336
116.6674, 18.86813
117.1496, 19.89767
117.6317, 21.22011
118.1138, 23.02524
118.5959, 25.61473
119.0780, 28.50477
119.5602, 31.59143
120.0423, 34.88222
120.5244, 38.05336
121.0065, 40.77092
121.4886, 43.29849
121.9707, 45.99556
122.4529, 48.91157
122.9350, 52.08526
123.4171, 55.62945
123.8992, 59.57348
124.3813, 63.56668
124.8634, 67.26595
125.3456, 70.79170
125.8277, 74.43318
126.3098, 78.03333
126.7919, 81.89084
127.2740, 86.39936
127.7561, 91.58495
128.2383, 97.44491
128.7204, 104.4361
129.2025, 112.3268
129.6846, 119.8996
130.1667, 126.9035
130.6488, 133.0084
131.1310, 137.7433
131.6131, 141.2029
132.0952, 142.9814
132.5773, 141.7413
133.0594, 137.4267
133.5416, 132.4751
134.0237, 128.2796
134.5058, 124.8186
134.9879, 121.9834
135.4700, 119.7048
135.9521, 118.0467
136.4343, 117.2294
136.9164, 117.3394
137.3985, 117.9400
137.8806, 118.6422
138.3627, 119.4077
138.8448, 120.6340
139.3270, 122.5188
139.8091, 124.9944
140.2912, 127.3053
140.7733, 129.4029
141.2554, 131.4591
141.7375, 133.5860
142.2197, 135.7445
142.7018, 138.1239
143.1839, 140.6707
143.6660, 143.3315
144.1481, 146.7475
144.6303, 150.8783
145.1124, 155.7786
145.5945, 161.5587
146.0766, 169.1503
146.5587, 176.3005
147.0408, 182.3768
147.5230, 187.1027
148.0051, 191.7009
148.4872, 195.3673
148.9693, 197.7000
149.4514, 199.7070
149.9335, 201.6722
150.4157, 203.0833
150.8978, 203.7298
151.3799, 203.2546
151.8620, 202.8609
152.3441, 202.7727
152.8262, 202.7529
153.3084, 202.3474
153.7905, 201.1200
154.2726, 199.8645
154.7547, 198.8194
155.2368, 197.9087
155.7189, 197.3806
156.2011, 197.1590
156.6832, 197.3096
157.1653, 198.0251
157.6474, 199.4322
158.1295, 201.3216
158.6117, 203.5746
159.0938, 206.0325
159.5759, 209.0198
160.0580, 212.6855
160.5401, 216.9491
161.0222, 221.5553
161.5044, 226.7243
161.9865, 232.0229
162.4686, 237.1789
162.9507, 242.5294
163.4328, 247.2847
163.9149, 251.4652
164.3971, 254.9931
164.8792, 257.2123
165.3613, 257.6748
165.8434, 256.7911
166.3255, 254.9234
166.8076, 252.0319
167.2898, 248.3708
167.7719, 243.7772
168.2540, 238.3466
168.7361, 232.8950
169.2182, 227.3097
169.7004, 222.1356
170.1825, 218.0252
170.6646, 215.5045
171.1467, 213.9291
171.6288, 212.8522
172.1109, 212.2731
172.5931, 212.0855
173.0752, 212.0272
173.5573, 212.3257
174.0394, 213.3596
174.5215, 215.3954
175.0036, 218.1705
175.4858, 221.2957
175.9679, 224.7811
176.4500, 228.9174
176.9321, 234.0329
177.4142, 240.0430
177.8963, 246.6519
178.3785, 254.0164
178.8606, 261.9263
179.3427, 269.6571
179.8248, 277.2007
180.3069, 285.3219
180.7891, 294.5651
181.2712, 304.9298
181.7533, 316.3726
182.2354, 328.9958
182.7175, 342.6367
183.1996, 356.7108
183.6818, 371.4293
184.1639, 386.2596
184.6460, 401.1705
185.1281, 416.0088
185.6102, 430.7650
186.0923, 445.2809
186.5745, 459.6680
187.0566, 473.7780
187.5387, 487.8102
188.0208, 501.4610
188.5029, 515.0585
188.9850, 528.4904
189.4672, 540.9907
189.9493, 551.9053
190.4314, 561.4616
190.9135, 571.3090
191.3956, 581.4733
191.8778, 591.9632
192.3599, 603.2487
192.8420, 615.2875
193.3241, 627.5423
193.8062, 639.6033
194.2883, 651.6156
194.7705, 664.3036
195.2526, 678.0977
195.7347, 691.8132
196.2168, 703.4784
196.6989, 713.0670
197.1810, 720.8180
197.6632, 727.5878
198.1453, 733.4192
198.6274, 734.5430
199.1095, 730.5301
199.5916, 722.0438
200.0737, 710.5264
200.5559, 695.9932
201.0380, 678.2566
201.5201, 656.6276
202.0022, 630.6765
202.4843, 604.2975
202.9665, 577.4515
203.4486, 550.5730
203.9307, 524.3847
204.4128, 499.0077
204.8949, 474.8160
205.3770, 451.8490
205.8592, 429.9503
206.3413, 410.3229
206.8234, 393.0930
207.3055, 378.0898
207.7876, 364.9282
208.2697, 353.7584
208.7519, 344.2261
209.2340, 336.1268
209.7161, 329.4933
210.1982, 324.1236
210.6803, 320.1158
211.1624, 317.2972
211.6446, 315.2141
212.1267, 313.8838
212.6088, 313.2944
213.0909, 313.4198
213.5730, 314.2352
214.0551, 315.9023
214.5373, 318.5516
215.0194, 322.0076
215.5015, 325.7549
215.9836, 329.5580
216.4657, 334.1924
216.9479, 340.2859
217.4300, 348.3022
217.9121, 356.2960
218.3942, 363.9931
218.8763, 371.6173
219.3584, 379.7139
219.8406, 388.1224
220.3227, 397.1819
220.8048, 407.0849
221.2869, 418.1087
221.7690, 429.3492
222.2511, 440.6255
222.7333, 452.1097
223.2154, 463.9710
223.6975, 476.5107
224.1796, 489.1495
224.6617, 501.8046
225.1438, 514.9319
225.6260, 526.8605
226.1081, 537.5384
226.5902, 546.9875
227.0723, 554.8697
227.5544, 560.9926
228.0366, 566.0146
228.5187, 570.3248
229.0008, 574.2786
229.4829, 576.5602
229.9650, 576.6339
230.4471, 575.1673
230.9293, 573.9158
231.4114, 572.9187
231.8935, 572.0120
232.3756, 571.0156
232.8577, 569.3928
233.3398, 568.8803
233.8220, 569.6075
234.3041, 571.3906
234.7862, 573.8389
235.2683, 577.2718
235.7504, 580.8721
236.2325, 584.4975
236.7147, 588.5355
237.1968, 591.5468
237.6789, 593.7689
238.1610, 594.9098
238.6431, 594.4123
239.1253, 592.6926
239.6074, 588.7214
240.0895, 582.0359
240.5716, 572.4786
241.0537, 560.8619
241.5358, 546.9340
242.0180, 531.0595
242.5001, 513.8322
242.9822, 494.7460
243.4643, 475.0734
243.9464, 455.0395
244.4285, 434.1079
244.9107, 414.3168
245.3928, 395.5497
245.8749, 377.8327
246.3570, 361.1747
246.8391, 345.3800
247.3212, 330.9888
247.8034, 318.3449
248.2855, 307.7514
248.7676, 297.4858
249.2497, 287.3255
249.7318, 277.5871
250.2140, 268.7015
250.6961, 260.5235
251.1782, 253.4678
251.6603, 247.7481
252.1424, 243.5402
252.6245, 239.5564
253.1067, 235.7502
253.5888, 232.1820
254.0709, 228.8569
254.5530, 225.7239
255.0351, 222.9258
255.5172, 220.5414
255.9994, 218.5716
256.4815, 216.8370
256.9636, 215.3214
257.4457, 214.0763
257.9278, 213.1995
258.4099, 212.8607
258.8921, 212.4878
259.3742, 211.8777
259.8563, 211.0269
260.3384, 210.5027
260.8205, 210.3686
261.3026, 210.4843
261.7848, 210.6905
262.2669, 210.9058
262.7490, 211.4423
263.2311, 212.4143
263.7132, 213.7998
264.1953, 215.2132
264.6775, 216.6604
265.1596, 218.1092
265.6417, 219.5554
266.1238, 221.0340
266.6059, 222.3551
267.0880, 223.3895
267.5702, 224.2175
268.0523, 225.3853
268.5344, 227.0926
269.0165, 228.7596
269.4987, 229.8568
269.9808, 230.1926
270.4629, 230.8968
270.9450, 232.2624
271.4271, 234.0720
271.9092, 235.3960
272.3914, 236.1586
272.8735, 236.6495
273.3556, 237.1730
273.8377, 237.8378
274.3198, 237.7365
274.8019, 236.6466
275.2841, 234.8330
275.7662, 233.0267
276.2483, 231.2893
276.7304, 229.3214
277.2125, 227.0617
277.6946, 224.5217
278.1768, 221.3680
278.6589, 217.4642
279.1410, 213.0966
279.6231, 208.9057
280.1052, 204.9140
280.5873, 200.6756
281.0695, 195.9137
281.5516, 190.6176
282.0337, 185.3627
282.5158, 180.1241
282.9979, 175.0124
283.4800, 170.2138
283.9622, 165.7325
284.4443, 161.4355
284.9264, 157.1289
285.4085, 152.9071
285.8906, 149.3802
286.3727, 146.6465
286.8549, 144.2482
287.3370, 141.5271
287.8191, 138.5109
288.3012, 135.7789
288.7833, 133.6032
289.2654, 131.8992
289.7476, 130.3258
290.2297, 128.8780
290.7118, 127.6063
291.1939, 126.5518
291.6761, 125.7234
292.1582, 125.1193
292.6403, 124.7865
293.1224, 124.6566
293.6045, 124.5718
294.0866, 124.5331
294.5688, 124.5570
295.0509, 124.5026
295.5330, 124.4925
296.0151, 124.9814
296.4972, 126.2147
296.9793, 127.8440
297.4615, 129.2197
297.9436, 130.3899
298.4257, 131.6654
298.9078, 133.2818
299.3899, 135.1635
299.8720, 137.1073
300.3542, 139.0953
300.8363, 141.1453
301.3184, 143.2942
301.8005, 145.5475
302.2826, 147.8333
302.7647, 150.3551
303.2469, 152.8223
303.7290, 154.8005
304.2111, 156.1464
304.6932, 157.2976
305.1753, 158.8651
305.6574, 160.5672
306.1396, 161.6764
306.6217, 161.8016
307.1038, 161.1782
307.5859, 159.9286
308.0680, 158.0124
308.5501, 155.9077
309.0323, 154.0913
309.5144, 152.3049
309.9965, 150.1475
310.4786, 147.1721
310.9607, 143.9402
311.4428, 140.8235
311.9250, 137.8423
312.4071, 134.8742
312.8892, 131.7964
313.3713, 128.7855
313.8534, 126.0034
314.3355, 123.5190
314.8177, 121.2976
315.2998, 119.4660
315.7819, 117.9552
316.2640, 116.3409
316.7462, 114.2052
317.2283, 112.0403
317.7104, 110.2045
318.1925, 108.9077
318.6746, 107.7554
319.1567, 106.6483
319.6389, 105.5819
320.1210, 104.5746
320.6031, 103.7273
321.0852, 102.8694
321.5673, 101.8635
322.0494, 100.5280
322.5316, 99.43217
323.0137, 98.85130
323.4958, 98.55781
323.9779, 98.18169
324.4600, 97.51388
324.9421, 96.88724
325.4243, 96.42007
325.9064, 96.13873
326.3885, 95.91403
326.8706, 95.76633
327.3527, 95.65978
327.8348, 95.55413
328.3170, 95.34525
328.7991, 95.24751
329.2812, 95.30530
329.7633, 95.52003
330.2454, 95.79469
330.7275, 96.13535
331.2097, 96.52386
331.6918, 96.96118
332.1739, 97.59120
332.6560, 98.01891
333.1381, 98.07476
333.6202, 97.87183
334.1024, 97.97886
334.5845, 98.57487
335.0666, 99.20947
335.5487, 99.63511
336.0308, 99.75492
336.5129, 99.92704
336.9951, 100.1305
337.4772, 100.4138
337.9593, 100.9541
338.4414, 101.8999
338.9236, 102.6831
339.4057, 102.9931
339.8878, 102.7744
340.3699, 102.8893
340.8520, 103.4533
341.3341, 104.1367
341.8163, 104.4899
342.2984, 104.4748
342.7805, 104.5201
343.2626, 104.8766
343.7447, 105.4080
344.2268, 105.3076
344.7090, 104.4999
345.1911, 103.4852
345.6732, 102.7874
346.1553, 102.3411
346.6374, 101.7105
347.1195, 100.8114
347.6017, 99.66164
348.0838, 98.03139
348.5659, 95.95921
349.0480, 94.31557
349.5301, 94.33556
350.0122, 95.23807
350.4944, 94.91116
350.9765, 92.92249
351.4586, 90.27944
351.9407, 88.06238
352.4228, 86.20789
352.9049, 84.50485
353.3871, 82.81111
353.8692, 81.22105
354.3513, 79.82817
354.8334, 78.63293
355.3155, 77.70879
355.7976, 77.32293
356.2798, 77.20362
356.7619, 76.90972
357.2440, 76.10698
357.7261, 75.19899
358.2082, 74.44835
358.6903, 73.84534
359.1725, 73.32773
359.6546, 72.93620
360.1367, 72.57546
360.6188, 72.13624
361.1009, 71.39698
361.5831, 70.89262
362.0652, 71.11643
362.5473, 71.76710
363.0294, 72.10144
363.5115, 71.57190
363.9937, 70.89275
364.4758, 70.43026
364.9579, 70.28445
365.4400, 70.15141
365.9221, 69.92711
366.4042, 69.69438
366.8864, 69.55809
367.3685, 69.64236
367.8506, 69.71491
368.3327, 69.73640
368.8148, 69.70665
369.2969, 69.60347
369.7791, 69.31557
370.2612, 69.03303
370.7433, 68.88187
371.2254, 68.84676
371.7075, 68.97906
372.1896, 69.40615
372.6718, 70.01662
373.1539, 70.31267
373.6360, 70.10111
374.1181, 69.88681
374.6002, 69.90404
375.0823, 70.18853
375.5645, 70.60851
376.0466, 71.26115
376.5287, 71.93574
377.0108, 72.23061
377.4929, 72.05862
377.9750, 71.90030
378.4572, 71.89220
378.9393, 72.03313
379.4214, 72.38270
379.9035, 72.99588
380.3856, 73.57732
380.8677, 73.75657
381.3499, 73.56827
381.8320, 73.47839
382.3141, 73.62227
382.7962, 73.87866
383.2783, 73.93672
383.7604, 73.81361
384.2426, 73.80476
384.7247, 74.33207
385.2068, 75.09612
385.6889, 75.33977
386.1711, 74.88101
386.6532, 74.30432
387.1353, 74.33179
387.6174, 74.74853
388.0995, 74.99509
388.5816, 74.51597
389.0638, 73.91489
389.5459, 73.90256
390.0280, 74.47601
390.5101, 75.01336
390.9922, 75.02934
391.4743, 74.81478
391.9565, 74.69836
392.4386, 74.90903
392.9207, 75.07886
393.4028, 74.87908
393.8849, 74.46084
394.3670, 74.28045
394.8492, 74.79837
395.3313, 75.39359
395.8134, 75.67797
396.2955, 75.44100
396.7776, 75.34555
397.2597, 75.64314
397.7419, 76.12880
398.2240, 76.53800
398.7061, 76.88524
399.1882, 77.10143
399.6703, 77.09966
400.1524, 76.86613
400.6346, 76.77408
401.1167, 76.80627
401.5988, 76.99500
402.0809, 77.38546
402.5630, 78.14030
403.0451, 78.78635
403.5273, 79.30846
404.0094, 79.69209
404.4915, 79.83604
404.9736, 79.60342
405.4557, 79.46127
405.9378, 79.64271
406.4200, 80.17883
406.9021, 80.68295
407.3842, 81.15748
407.8663, 81.58382
408.3484, 81.91344
408.8306, 82.14636
409.3127, 82.38455
409.7948, 82.59407
410.2769, 82.86467
410.7590, 83.57852
411.2411, 84.74295
411.7233, 85.78102
412.2054, 86.07134
412.6875, 85.90099
413.1696, 86.11904
413.6517, 86.94666
414.1339, 87.86243
414.6160, 88.08064
415.0981, 87.86498
415.5802, 87.93442
416.0623, 88.94367
416.5444, 90.24660
417.0266, 91.19587
417.5087, 91.77867
417.9908, 92.18617
418.4729, 92.31873
418.9550, 92.42357
419.4371, 92.76869
419.9193, 93.61869
420.4014, 94.49783
420.8835, 95.11332
421.3656, 95.58339
421.8477, 96.27766
422.3298, 97.72145
422.8120, 99.06978
423.2941, 99.86723
423.7762, 99.80782
424.2583, 99.99140
424.7404, 100.6852
425.2225, 101.6195
425.7047, 102.5031
426.1868, 103.2874
426.6689, 104.0662
427.1510, 104.7744
427.6331, 105.4439
428.1152, 106.5008
428.5974, 108.1820
429.0795, 109.9177
429.5616, 111.3097
430.0437, 112.1709
430.5258, 113.5048
431.0079, 115.4841
431.4901, 117.7759
431.9722, 119.7214
432.4543, 121.2582
432.9364, 123.0096
433.4185, 125.2428
433.9007, 127.8665
434.3828, 130.4006
434.8649, 132.8286
435.3470, 135.3670
435.8291, 138.1888
436.3112, 141.2930
436.7934, 144.6398
437.2755, 148.2927
437.7576, 152.0732
438.2397, 155.5231
438.7218, 158.8199
439.2039, 162.5522
439.6861, 167.2841
440.1682, 172.5201
440.6503, 177.6481
441.1324, 182.6696
441.6145, 187.7403
442.0966, 192.8271
442.5788, 198.0572
443.0609, 203.5682
443.5430, 209.5459
444.0251, 215.6478
444.5072, 221.5730
444.9893, 227.4734
445.4715, 233.9592
445.9536, 241.9328
446.4357, 249.9328
446.9178, 257.2538
447.3999, 263.4951
447.8820, 270.1000
448.3642, 277.4862
448.8463, 285.0671
449.3284, 292.3317
449.8105, 299.0444
450.2926, 305.7763
450.7747, 312.7862
451.2569, 319.9562
451.7390, 326.2891
452.2211, 331.6820
452.7032, 336.6430
453.1853, 341.5820
453.6674, 346.5831
454.1496, 350.7492
454.6317, 354.1509
455.1138, 356.5020
455.5959, 357.1828
456.0781, 356.2760
456.5602, 354.6884
457.0423, 352.9206
457.5244, 350.5791
458.0065, 346.8063
458.4886, 341.6714
458.9708, 335.4902
459.4529, 328.5088
459.9350, 320.6382
460.4171, 311.7930
460.8992, 301.5632
461.3813, 291.3250
461.8635, 282.1832
462.3456, 273.6889
462.8277, 265.2882
463.3098, 256.7669
463.7919, 248.1366
464.2740, 239.1238
464.7562, 229.7961
465.2383, 221.1140
465.7204, 213.3556
466.2025, 206.3171
466.6846, 199.9755
467.1667, 194.6095
467.6489, 189.4990
468.1310, 184.5487
468.6131, 179.8184
469.0952, 175.2732
469.5773, 170.8125
470.0594, 166.7182
470.5416, 163.0600
471.0237, 159.8456
471.5058, 156.7503
471.9879, 153.6726
472.4700, 150.9346
472.9521, 148.9771
473.4343, 147.8456
473.9164, 146.3297
474.3985, 144.1593
474.8806, 141.8639
475.3627, 140.3650
475.8448, 139.6040
476.3270, 138.9754
476.8091, 138.2041
477.2912, 137.4051
477.7733, 136.8942
478.2554, 136.6480
478.7375, 136.3132
479.2197, 135.4724
479.7018, 134.4276
480.1839, 133.5774
480.6660, 132.9799
481.1482, 132.6495
481.6303, 132.8098
482.1124, 133.2148
482.5945, 133.4482
483.0766, 132.9677
483.5587, 132.6408
484.0409, 132.9875
484.5230, 133.9907
485.0051, 134.7729
485.4872, 134.8216
485.9693, 134.8551
486.4514, 135.2960
486.9336, 136.3150
487.4157, 137.4693
487.8978, 138.9599
488.3799, 140.4756
488.8620, 141.5040
489.3441, 141.7736
489.8263, 142.2393
490.3084, 143.1605
490.7905, 144.5014
491.2726, 145.9952
491.7547, 147.6808
492.2368, 149.3791
492.7190, 150.8958
493.2011, 152.2775
493.6832, 153.6894
494.1653, 155.1501
494.6474, 156.6750
495.1295, 158.2827
495.6117, 159.9838
496.0938, 161.8392
496.5759, 163.9900
497.0580, 166.2086
497.5401, 168.1140
498.0222, 169.8039
498.5044, 171.6822
498.9865, 174.1770
499.4686, 176.8581
499.9507, 179.3843
500.4328, 181.6648
500.9149, 183.9419
501.3971, 186.2411
501.8792, 188.6232
502.3613, 191.1578
502.8434, 193.9685
503.3256, 196.8408
503.8077, 199.7656
504.2898, 202.7300
504.7719, 205.6739
505.2540, 208.4927
505.7361, 211.4264
506.2183, 214.6363
506.7004, 218.1563
507.1825, 221.6251
507.6646, 225.0366
508.1467, 228.4105
508.6288, 231.6804
509.1110, 234.8494
509.5931, 238.3685
510.0752, 242.4502
510.5573, 246.7537
511.0394, 250.5495
511.5215, 253.9254
512.0037, 257.4216
512.4858, 261.3740
512.9679, 265.6133
513.4500, 269.9871
513.9321, 274.4840
514.4142, 278.8637
514.8964, 282.8544
515.3785, 286.6992
515.8606, 290.5893
516.3427, 294.5192
516.8248, 298.6420
517.3069, 303.0956
517.7891, 307.7704
518.2712, 312.4848
518.7533, 317.4168
519.2354, 322.1167
519.7175, 326.2426
520.1996, 329.8278
520.6818, 333.8292
521.1639, 338.5784
521.6460, 343.3545
522.1281, 347.6435
522.6102, 351.2856
523.0923, 355.2105
523.5745, 359.6143
524.0566, 364.0372
524.5387, 367.7390
525.0208, 370.7364
525.5029, 373.7334
525.9850, 376.8961
526.4672, 380.2161
526.9493, 383.9384
527.4314, 388.0195
527.9135, 391.7641
528.3956, 394.7904
528.8777, 397.2951
529.3599, 399.2850
529.8420, 400.7255
530.3241, 402.5196
530.8062, 405.7940
531.2883, 409.5845
531.7704, 412.7150
532.2526, 414.3667
532.7347, 416.0712
533.2168, 418.6159
533.6989, 421.5537
534.1810, 423.9034
534.6631, 425.2475
535.1453, 426.2390
535.6274, 426.9757
536.1095, 427.4640
536.5916, 427.8907
537.0737, 428.2402
537.5558, 428.5608
538.0380, 429.0558
538.5201, 429.8902
539.0023, 429.6455
539.4844, 428.0338
539.9665, 425.8173
540.4486, 424.2782
540.9307, 423.2938
541.4128, 421.7611
541.8950, 419.1749
542.3771, 415.9954
542.8592, 412.9012
543.3413, 409.8728
543.8234, 406.6202
544.3055, 403.2074
544.7877, 399.3390
545.2698, 394.5231
545.7519, 388.6264
546.2340, 382.9966
546.7161, 378.6198
547.1982, 374.6714
547.6804, 370.3198
548.1625, 365.2659
548.6446, 360.0322
549.1267, 354.6426
549.6088, 349.1353
550.0909, 343.5892
550.5731, 337.9827
551.0552, 332.3575
551.5373, 326.6789
552.0194, 320.9792
552.5015, 315.8795
552.9836, 311.5057
553.4658, 307.2859
553.9479, 302.6807
554.4300, 297.7758
554.9121, 293.5338
555.3942, 290.0868
555.8763, 287.0495
556.3585, 283.8903
556.8406, 280.8051
557.3227, 278.3275
557.8048, 276.7640
558.2869, 275.6314
558.7690, 274.6366
559.2512, 273.7203
559.7333, 272.7447
560.2154, 271.1704
560.6975, 269.9371
561.1796, 269.5464
561.6617, 270.0359
562.1439, 270.9340
562.6260, 272.3585
563.1081, 274.0204
563.5902, 275.7172
564.0723, 277.0688
564.5544, 279.3273
565.0366, 282.8219
565.5187, 286.9291
566.0008, 290.7913
566.4829, 294.4085
566.9650, 297.9885
567.4471, 301.6598
567.9293, 305.2396
568.4114, 308.2838
568.8935, 310.7917
569.3756, 312.5735
569.8577, 313.7729
570.3398, 314.0709
570.8220, 312.8563
571.3041, 310.1254
571.7862, 306.2398
572.2683, 301.3722
572.7504, 295.5040
573.2325, 288.4565
573.7147, 280.0268
574.1968, 270.9974
574.6789, 261.3115
575.1610, 251.3526
575.6431, 241.4845
576.1252, 231.3338
576.6074, 221.9562
577.0895, 213.6453
577.5716, 206.1836
578.0537, 198.5395
578.5358, 190.4239
579.0179, 182.7929
579.5001, 176.0558
579.9822, 170.1345
580.4643, 164.7675
580.9464, 159.9863
581.4285, 155.5493
581.9106, 151.0968
582.3928, 146.7646
582.8749, 143.0949
583.3570, 140.2070
583.8391, 137.6336
584.3212, 134.9186
584.8033, 132.1754
585.2855, 129.5739
