##NAMES=Vladimirite
##RRUFFID=R100075
##IDEAL CHEMISTRY=Ca_4_(As^5+^O_4_)_2_(As^5+^O_3_OH)&#183;4H_2_O
##LOCALITY=Ait Ahmane vein No. 53, Bou Azzer district, Morroco
##OWNER=RRUFF
##SOURCE=Bob Jenkins
##DESCRIPTION=Sprays of elongated bladed colorless crystals
##STATUS=The identification of this mineral is confirmed by single-crystal X-ray diffraction and chemical analysis.
##URL=rruff.info/R100075
##MEASURED CHEMISTRY=Ca_4.03_(As_0.99_O_3_OH)(AsO_4_)_2_Â·4H_2_O
91.53320, 211.0370
92.01532, 214.2297
92.49744, 214.7737
92.97955, 214.1062
93.46167, 211.6360
93.94379, 209.2421
94.42590, 209.0924
94.90802, 209.4826
95.39014, 208.0350
95.87225, 204.5394
96.35437, 200.4662
96.83649, 196.4569
97.31860, 192.4719
97.80072, 188.3820
98.28284, 183.8212
98.76495, 178.8015
99.24707, 174.3735
99.72919, 171.2604
100.2113, 167.9539
100.6934, 163.5798
101.1755, 158.6318
101.6577, 154.2024
102.1398, 151.2376
102.6219, 149.9866
103.1040, 148.8671
103.5861, 147.3199
104.0682, 146.2368
104.5504, 146.2951
105.0325, 147.5081
105.5146, 149.1936
105.9967, 150.4239
106.4788, 151.0858
106.9609, 151.4783
107.4431, 151.4520
107.9252, 151.2037
108.4073, 150.9295
108.8894, 150.6211
109.3715, 150.4771
109.8536, 150.7909
110.3358, 151.4953
110.8179, 152.6340
111.3000, 154.2734
111.7821, 156.3958
112.2642, 158.9150
112.7463, 162.6522
113.2285, 166.2206
113.7106, 168.2863
114.1927, 168.5336
114.6748, 167.4610
115.1569, 165.4946
115.6390, 162.1337
116.1212, 159.1157
116.6033, 157.1165
117.0854, 155.5824
117.5675, 154.0330
118.0496, 152.2548
118.5317, 150.2312
119.0139, 147.8950
119.4960, 144.5790
119.9781, 141.6642
120.4602, 139.1221
120.9423, 137.1492
121.4244, 136.0878
121.9066, 136.2650
122.3887, 137.7803
122.8708, 139.2077
123.3529, 140.6261
123.8350, 141.9230
124.3171, 143.0117
124.7993, 143.9046
125.2814, 144.7059
125.7635, 145.5626
126.2456, 146.5213
126.7277, 147.0847
127.2098, 147.4792
127.6920, 147.3687
128.1741, 146.3300
128.6562, 144.2312
129.1383, 141.4556
129.6204, 137.9922
130.1025, 133.8996
130.5847, 130.5574
131.0668, 128.8920
131.5489, 128.4973
132.0310, 127.9840
132.5131, 127.0877
132.9952, 125.9314
133.4774, 124.8624
133.9595, 123.8725
134.4416, 122.3343
134.9237, 119.2948
135.4058, 114.4087
135.8879, 110.3483
136.3701, 108.1612
136.8522, 106.6316
137.3343, 105.1424
137.8164, 103.5274
138.2985, 102.0291
138.7806, 101.0994
139.2628, 101.1795
139.7449, 101.0453
140.2270, 100.1692
140.7091, 99.24351
141.1912, 98.92422
141.6733, 99.50679
142.1555, 100.7657
142.6376, 101.9273
143.1197, 103.0506
143.6018, 103.9946
144.0839, 104.5236
144.5660, 104.8838
145.0482, 105.4491
145.5303, 106.4363
146.0124, 107.8149
146.4945, 109.3809
146.9766, 111.5222
147.4587, 113.4293
147.9409, 114.8327
148.4230, 115.7303
148.9051, 116.1525
149.3872, 116.0557
149.8693, 115.4277
150.3514, 114.6124
150.8336, 113.2886
151.3157, 111.9794
151.7978, 111.1439
152.2799, 110.8120
152.7620, 110.7821
153.2441, 110.9998
153.7263, 111.4127
154.2084, 111.9849
154.6905, 112.4988
155.1726, 113.1886
155.6547, 114.6639
156.1368, 117.2444
156.6190, 120.0706
157.1011, 123.0228
157.5832, 125.8606
158.0653, 128.1282
158.5474, 129.5142
159.0295, 130.0426
159.5117, 130.0031
159.9938, 128.7255
160.4759, 127.4997
160.9580, 126.8113
161.4401, 126.5737
161.9222, 126.4733
162.4044, 126.2082
162.8865, 125.7070
163.3686, 125.4647
163.8507, 125.4300
164.3328, 125.6660
164.8149, 126.3755
165.2971, 127.4720
165.7792, 128.6088
166.2613, 129.4224
166.7434, 129.9452
167.2255, 129.9064
167.7076, 129.0480
168.1898, 127.8978
168.6719, 126.9005
169.1540, 126.1187
169.6361, 125.1924
170.1182, 123.5252
170.6003, 120.5608
171.0825, 118.3067
171.5646, 117.0665
172.0467, 116.5028
172.5288, 116.2820
173.0109, 116.3246
173.4930, 116.6093
173.9752, 117.0931
174.4573, 117.6813
174.9394, 118.7223
175.4215, 120.7403
175.9036, 123.2878
176.3857, 125.3184
176.8679, 126.4463
177.3500, 127.0978
177.8321, 127.8747
178.3142, 128.7970
178.7963, 129.6597
179.2784, 130.5382
179.7606, 131.3682
180.2427, 131.5136
180.7248, 130.3262
181.2069, 128.7678
181.6890, 127.7190
182.1711, 127.2536
182.6533, 126.9288
183.1354, 126.3108
183.6175, 125.3591
184.0996, 124.4372
184.5817, 123.6087
185.0638, 122.8480
185.5460, 122.0430
186.0281, 121.1855
186.5102, 120.5699
186.9923, 120.6350
187.4744, 121.5395
187.9565, 122.7533
188.4387, 124.4459
188.9208, 126.2362
189.4029, 128.0565
189.8850, 129.8454
190.3671, 131.2239
190.8492, 131.4232
191.3314, 129.6471
191.8135, 127.8703
192.2956, 126.1085
192.7777, 124.4593
193.2598, 122.9246
193.7419, 121.5212
194.2241, 120.3900
194.7062, 119.8730
195.1883, 120.9193
195.6704, 121.5114
196.1525, 121.0348
196.6346, 120.2658
197.1168, 120.1712
197.5989, 121.1869
198.0810, 122.9378
198.5631, 124.3544
199.0452, 125.2663
199.5273, 126.1019
200.0095, 126.7416
200.4916, 127.3694
200.9737, 128.4308
201.4558, 130.2634
201.9379, 132.3784
202.4200, 133.2932
202.9022, 132.4500
203.3843, 131.6731
203.8664, 131.4506
204.3485, 131.7649
204.8306, 132.6065
205.3127, 134.0556
205.7949, 135.9738
206.2770, 138.1034
206.7591, 140.8506
207.2412, 142.9911
207.7233, 143.6099
208.2054, 142.8904
208.6876, 141.9651
209.1697, 141.3963
209.6518, 140.7197
210.1339, 139.2858
210.6160, 136.9074
211.0981, 134.2584
211.5803, 131.9878
212.0624, 130.1030
212.5445, 127.7924
213.0266, 124.3139
213.5087, 120.5753
213.9908, 117.4058
214.4730, 114.9710
214.9551, 112.9516
215.4372, 111.0291
215.9193, 109.1601
216.4014, 107.6170
216.8836, 106.8358
217.3657, 106.2135
217.8478, 105.3277
218.3299, 104.0782
218.8120, 102.7005
219.2941, 101.4265
219.7763, 100.1311
220.2584, 99.38512
220.7405, 99.79316
221.2226, 100.4354
221.7047, 100.6457
222.1868, 100.2532
222.6690, 99.62781
223.1511, 99.42604
223.6332, 100.0399
224.1153, 100.1560
224.5974, 99.24385
225.0795, 98.13037
225.5617, 97.39953
226.0438, 97.21734
226.5259, 97.36401
227.0080, 97.43015
227.4901, 97.12539
227.9722, 97.31963
228.4544, 98.42306
228.9365, 99.72597
229.4186, 100.5701
229.9007, 100.8082
230.3828, 100.8951
230.8649, 101.6186
231.3471, 103.3476
231.8292, 105.2118
232.3113, 107.4147
232.7934, 109.6187
233.2755, 111.6954
233.7576, 113.5593
234.2398, 115.0008
234.7219, 115.6161
235.2040, 114.7179
235.6861, 114.1623
236.1682, 114.5769
236.6503, 114.9921
237.1325, 114.4916
237.6146, 112.8466
238.0967, 110.4939
238.5788, 107.9892
239.0609, 105.0220
239.5430, 102.7464
240.0252, 101.5145
240.5073, 100.8516
240.9894, 100.3443
241.4715, 99.88999
241.9536, 99.54765
242.4357, 99.43200
242.9179, 99.61520
243.4000, 99.70767
243.8821, 99.52760
244.3642, 99.30727
244.8463, 99.24923
245.3284, 99.38755
245.8106, 99.78956
246.2927, 100.6462
246.7748, 101.9787
247.2569, 103.1866
247.7390, 104.3288
248.2211, 105.2425
248.7033, 105.6499
249.1854, 105.4685
249.6675, 105.1068
250.1496, 105.0461
250.6317, 105.2156
251.1138, 105.0656
251.5960, 104.3152
252.0781, 103.2545
252.5602, 102.1449
253.0423, 100.9647
253.5244, 100.0248
254.0065, 99.90979
254.4887, 100.3106
254.9708, 100.3513
255.4529, 99.41536
255.9350, 98.15835
256.4171, 97.47021
256.8992, 97.41199
257.3813, 97.75926
257.8635, 98.61546
258.3456, 99.75664
258.8277, 100.8471
259.3098, 101.8937
259.7919, 102.7699
260.2740, 103.1650
260.7562, 102.9383
261.2383, 102.8361
261.7204, 103.7181
262.2025, 104.8747
262.6846, 105.3338
263.1667, 104.4641
263.6489, 103.2097
264.1310, 103.0061
264.6131, 104.0942
265.0952, 105.1846
265.5773, 105.7225
266.0594, 105.9584
266.5416, 106.1068
267.0237, 106.2444
267.5058, 106.2599
267.9879, 105.9002
268.4700, 105.0404
268.9521, 104.3948
269.4343, 104.5784
269.9164, 104.8833
270.3985, 104.7052
270.8806, 103.8695
271.3627, 102.8473
271.8448, 102.2782
272.3270, 102.2788
272.8091, 102.1086
273.2912, 101.4900
273.7733, 100.7005
274.2554, 99.92310
274.7375, 99.17849
275.2197, 98.31547
275.7018, 97.01578
276.1839, 95.15314
276.6660, 93.70712
277.1481, 93.30499
277.6302, 93.01792
278.1124, 92.31133
278.5945, 91.19490
279.0766, 90.14369
279.5587, 89.69418
280.0408, 89.92376
280.5229, 90.04205
281.0051, 89.84807
281.4872, 89.68349
281.9693, 89.66637
282.4514, 89.80324
282.9335, 90.05820
283.4156, 90.36238
283.8978, 90.71010
284.3799, 91.37930
284.8620, 92.74012
285.3441, 94.06831
285.8262, 94.85625
286.3083, 95.40569
286.7905, 96.40349
287.2726, 98.42919
287.7547, 101.3602
288.2368, 103.9944
288.7189, 106.2699
289.2010, 108.2760
289.6832, 109.7760
290.1653, 111.0755
290.6474, 112.6538
291.1295, 114.8102
291.6116, 117.3853
292.0938, 119.6902
292.5759, 121.2905
293.0580, 123.2514
293.5401, 125.8270
294.0222, 128.8166
294.5043, 132.1023
294.9865, 135.6544
295.4686, 139.2076
295.9507, 142.0345
296.4328, 143.4600
296.9149, 145.3608
297.3970, 148.3587
297.8792, 151.6330
298.3613, 154.5245
298.8434, 156.8267
299.3255, 158.6636
299.8076, 160.1525
300.2897, 160.9745
300.7719, 162.1877
301.2540, 164.6670
301.7361, 166.9028
302.2182, 167.7079
302.7003, 167.0193
303.1824, 165.8865
303.6646, 165.5803
304.1467, 166.3493
304.6288, 167.0656
305.1109, 168.5029
305.5930, 169.2346
306.0751, 168.1994
306.5573, 165.6942
307.0394, 162.9366
307.5215, 161.0955
308.0036, 160.2644
308.4857, 158.8078
308.9678, 156.0994
309.4500, 153.3464
309.9321, 150.8762
310.4142, 148.6155
310.8963, 146.3097
311.3784, 143.7218
311.8605, 140.9509
312.3427, 138.8319
312.8248, 138.0060
313.3069, 137.1101
313.7890, 135.7728
314.2711, 134.2563
314.7532, 132.8748
315.2354, 131.7864
315.7175, 130.9708
316.1996, 130.4337
316.6817, 130.6237
317.1638, 130.3533
317.6459, 129.1223
318.1281, 127.6295
318.6102, 126.3825
319.0923, 125.5725
319.5744, 125.2641
320.0565, 125.6269
320.5386, 126.9444
321.0208, 128.3065
321.5029, 129.6196
321.9850, 130.9968
322.4671, 132.5766
322.9492, 134.3410
323.4313, 136.0879
323.9135, 137.5417
324.3956, 138.5540
324.8777, 140.0328
325.3598, 142.1697
325.8419, 144.5989
326.3240, 147.4012
326.8062, 150.4205
327.2883, 153.2953
327.7704, 155.6409
328.2525, 157.5285
328.7346, 160.3209
329.2167, 164.9973
329.6989, 169.5462
330.1810, 173.3455
330.6631, 176.7434
331.1452, 180.1818
331.6273, 183.8625
332.1094, 187.8733
332.5916, 192.6341
333.0737, 199.1764
333.5558, 204.6467
334.0379, 207.7086
334.5200, 210.0988
335.0021, 213.4848
335.4843, 218.4038
335.9664, 223.9774
336.4485, 228.7970
336.9306, 232.7065
337.4127, 236.3382
337.8948, 240.1523
338.3770, 243.4314
338.8591, 245.8611
339.3412, 247.3556
339.8233, 247.8284
340.3055, 246.9749
340.7876, 244.6658
341.2697, 242.3723
341.7518, 240.2986
342.2339, 238.0384
342.7160, 234.9548
343.1982, 231.5263
343.6803, 228.8543
344.1624, 227.8006
344.6445, 228.0836
345.1266, 228.3065
345.6087, 228.3990
346.0909, 228.5513
346.5730, 228.3663
347.0551, 228.4109
347.5372, 229.4743
348.0193, 231.9768
348.5014, 235.3258
348.9836, 238.5790
349.4657, 241.7815
349.9478, 244.6825
350.4299, 246.7716
350.9120, 248.8127
351.3941, 251.3505
351.8763, 254.4820
352.3584, 257.9688
352.8405, 261.7760
353.3226, 265.9438
353.8047, 269.4745
354.2868, 271.9227
354.7690, 273.9802
355.2511, 276.1071
355.7332, 278.2677
356.2153, 280.2067
356.6974, 281.9465
357.1795, 283.3654
357.6617, 283.9587
358.1438, 283.6067
358.6259, 282.6246
359.1080, 281.3217
359.5901, 279.5479
360.0722, 276.9566
360.5544, 273.2953
361.0365, 268.9195
361.5186, 264.0425
362.0007, 258.5815
362.4828, 253.4726
362.9649, 249.4535
363.4471, 245.7714
363.9292, 241.4469
364.4113, 236.2183
364.8934, 231.0529
365.3755, 226.5558
365.8576, 222.7156
366.3398, 219.5095
366.8219, 217.0264
367.3040, 215.0483
367.7861, 213.3172
368.2682, 211.8228
368.7503, 210.6253
369.2325, 209.8122
369.7146, 209.2880
370.1967, 209.0046
370.6788, 209.0227
371.1609, 208.8552
371.6430, 207.9181
372.1252, 206.4720
372.6073, 205.4163
373.0894, 205.2205
373.5715, 205.1746
374.0536, 204.5772
374.5357, 203.5543
375.0179, 202.8371
375.5000, 202.7596
375.9821, 203.2543
376.4642, 204.1338
376.9463, 205.4323
377.4284, 206.9495
377.9106, 208.6566
378.3927, 210.5215
378.8748, 212.5437
379.3569, 214.7444
379.8390, 216.9439
380.3211, 218.9849
380.8033, 220.9055
381.2854, 222.3233
381.7675, 222.5400
382.2496, 222.7133
382.7317, 224.0732
383.2138, 226.5005
383.6960, 228.5979
384.1781, 229.2446
384.6602, 228.5549
385.1423, 228.3467
385.6244, 229.2562
386.1065, 229.8425
386.5887, 229.4937
387.0708, 228.5269
387.5529, 227.5781
388.0350, 226.9412
388.5171, 226.2469
388.9992, 224.6999
389.4814, 222.3356
389.9635, 218.8873
390.4456, 213.6329
390.9277, 207.7926
391.4098, 202.2799
391.8919, 197.2643
392.3741, 192.3553
392.8562, 187.1031
393.3383, 181.3482
393.8204, 176.3487
394.3025, 172.2866
394.7846, 168.7220
395.2668, 165.7847
395.7489, 163.1984
396.2310, 160.4890
396.7131, 157.3564
397.1952, 153.9747
397.6773, 150.9092
398.1595, 148.0565
398.6416, 145.7367
399.1237, 144.2288
399.6058, 143.0468
400.0879, 141.8022
400.5700, 140.3958
401.0522, 138.9478
401.5343, 137.6614
402.0164, 136.6305
402.4985, 135.2107
402.9806, 132.6358
403.4627, 130.3824
403.9449, 129.2281
404.4270, 128.9261
404.9091, 128.7811
405.3912, 128.4234
405.8733, 127.8804
406.3554, 127.1541
406.8376, 126.0155
407.3197, 125.2607
407.8018, 125.5505
408.2839, 126.2182
408.7660, 126.6044
409.2481, 126.5378
409.7303, 126.2879
410.2124, 125.8596
410.6945, 125.3130
411.1766, 125.5940
411.6587, 127.1316
412.1408, 129.3139
412.6230, 131.6846
413.1051, 134.2022
413.5872, 136.5382
414.0693, 138.3573
414.5514, 139.9864
415.0335, 141.9359
415.5157, 144.2494
415.9978, 146.6927
416.4799, 148.9745
416.9620, 151.3242
417.4441, 154.3733
417.9262, 158.7291
418.4084, 163.0158
418.8905, 166.3309
419.3726, 168.9601
419.8547, 171.6279
420.3368, 174.5952
420.8189, 177.6610
421.3011, 180.5747
421.7832, 183.4715
422.2653, 185.6598
422.7474, 186.9565
423.2295, 187.5859
423.7116, 187.5344
424.1938, 186.9129
424.6759, 186.2306
425.1580, 185.9173
425.6401, 185.9324
426.1222, 185.4921
426.6043, 184.6859
427.0865, 183.4012
427.5686, 181.4017
428.0507, 178.9634
428.5328, 176.3186
429.0149, 173.5686
429.4970, 170.9958
429.9792, 169.1475
430.4613, 168.5843
430.9434, 167.4978
431.4255, 165.3388
431.9076, 163.2275
432.3897, 162.0894
432.8719, 161.6390
433.3540, 160.7927
433.8361, 158.6578
434.3182, 155.4072
434.8003, 152.2494
435.2824, 149.4047
435.7646, 146.3210
436.2467, 142.5764
436.7288, 138.6997
437.2109, 135.3893
437.6930, 132.8694
438.1751, 130.4716
438.6573, 127.1103
439.1394, 122.6645
439.6215, 119.0208
440.1036, 116.9711
440.5857, 115.1962
441.0678, 112.5784
441.5500, 109.4078
442.0321, 106.8254
442.5142, 105.7873
442.9963, 105.5407
443.4784, 104.6030
443.9605, 102.8586
444.4427, 101.3075
444.9248, 100.3565
445.4069, 99.99122
445.8890, 100.2075
446.3711, 101.2485
446.8532, 102.1916
447.3354, 102.2905
447.8175, 101.9501
448.2996, 102.2145
448.7817, 103.4163
449.2638, 104.5691
449.7459, 104.4289
450.2281, 102.8940
450.7102, 102.0573
451.1923, 102.6876
451.6744, 103.4204
452.1565, 103.4770
452.6386, 102.9187
453.1208, 102.0833
453.6029, 101.1501
454.0850, 99.72937
454.5671, 98.50674
455.0492, 96.23024
455.5313, 93.95829
456.0135, 91.61320
456.4956, 89.33282
456.9777, 87.17831
457.4598, 85.18157
457.9419, 83.34874
458.4240, 81.66626
458.9062, 80.13664
459.3883, 78.86362
459.8704, 77.78989
460.3525, 77.07162
460.8346, 77.03701
461.3167, 77.26750
461.7989, 77.23797
462.2810, 76.74583
462.7631, 76.01051
463.2452, 75.35759
463.7273, 74.80445
464.2094, 74.22305
464.6916, 73.48701
465.1737, 72.82910
465.6558, 72.41684
466.1379, 72.20638
466.6200, 72.01820
467.1021, 71.75424
467.5843, 71.44917
468.0664, 71.26923
468.5485, 71.27803
469.0306, 70.93526
469.5127, 69.90176
469.9948, 68.40278
470.4770, 66.69694
470.9591, 64.58514
471.4412, 63.05709
471.9233, 63.23201
472.4054, 64.17336
472.8875, 64.04504
473.3697, 62.47779
473.8518, 60.56131
474.3339, 59.25106
474.8160, 58.55708
475.2981, 57.73708
475.7802, 56.58332
476.2624, 55.52794
476.7445, 54.89826
477.2266, 54.47826
477.7087, 53.76811
478.1908, 52.55530
478.6729, 51.26586
479.1551, 50.71751
479.6372, 51.45778
480.1193, 51.64957
480.6014, 50.77255
481.0835, 49.88969
481.5656, 49.85662
482.0478, 50.35369
482.5299, 50.30342
483.0120, 48.86401
483.4941, 46.60424
483.9762, 45.86308
484.4583, 47.68189
484.9405, 48.89398
485.4226, 48.32835
485.9047, 47.34689
486.3868, 47.10685
486.8689, 47.70435
487.3510, 48.22395
487.8332, 47.70435
488.3153, 46.39974
488.7974, 45.53549
489.2795, 45.20521
489.7616, 45.19855
490.2437, 45.67966
490.7259, 46.33767
491.2080, 46.68780
491.6901, 46.57906
492.1722, 46.27369
492.6543, 45.91593
493.1364, 45.50908
493.6186, 44.97468
494.1007, 44.21410
494.5828, 43.66659
495.0649, 44.03192
495.5470, 45.44463
496.0291, 46.03309
496.5113, 45.01257
496.9934, 43.82959
497.4755, 43.23060
497.9576, 43.15168
498.4397, 43.43962
498.9218, 44.05248
499.4040, 44.67707
499.8861, 44.55415
500.3682, 42.92144
500.8503, 41.95058
501.3324, 41.97952
501.8145, 42.29504
502.2967, 42.66791
502.7788, 42.95034
503.2609, 42.87368
503.7430, 42.15690
504.2251, 41.04778
504.7072, 40.55472
505.1894, 40.93405
505.6715, 41.34406
506.1536, 41.65978
506.6357, 41.86280
507.1178, 41.90426
507.5999, 41.78584
508.0821, 41.61266
508.5642, 41.62273
509.0463, 41.63610
509.5284, 40.90366
510.0105, 39.13763
510.4926, 37.74012
510.9748, 37.83468
511.4569, 38.86613
511.9390, 39.48943
512.4211, 39.52047
512.9032, 39.34392
513.3853, 39.05161
513.8674, 38.70132
514.3495, 38.39154
514.8317, 38.14164
515.3138, 37.93829
515.7959, 37.78786
516.2780, 37.70126
516.7601, 37.46724
517.2422, 37.00151
517.7244, 36.50702
518.2065, 35.93059
518.6886, 35.40804
519.1707, 35.10653
519.6528, 35.08836
520.1349, 35.33448
520.6171, 35.99532
521.0992, 37.42623
521.5813, 37.81586
522.0634, 35.87642
522.5455, 34.14228
523.0276, 33.61054
523.5098, 33.93399
523.9919, 34.43175
524.4740, 34.86686
524.9561, 35.17141
525.4382, 35.20990
525.9203, 34.97753
526.4025, 34.69304
526.8846, 34.25415
527.3667, 33.98927
527.8488, 34.39315
528.3309, 35.33601
528.8130, 35.96486
529.2952, 35.76918
529.7773, 35.35402
530.2594, 35.33694
530.7415, 35.62345
531.2236, 35.68542
531.7057, 35.23948
532.1879, 34.59303
532.6700, 34.34724
533.1521, 34.72403
533.6342, 35.01598
534.1163, 35.19518
534.5984, 35.29926
535.0806, 35.30186
535.5627, 35.24731
536.0448, 35.20403
536.5269, 35.19588
537.0090, 35.30364
537.4911, 35.86233
537.9733, 37.36047
538.4554, 38.22878
538.9375, 37.79537
539.4196, 37.11378
539.9017, 36.68545
540.3839, 36.58379
540.8660, 36.79807
541.3481, 37.47060
541.8302, 38.37133
542.3123, 38.97963
542.7944, 39.27111
543.2766, 39.49551
543.7587, 39.84449
544.2408, 40.08160
544.7229, 39.74525
545.2050, 38.72521
545.6871, 38.11808
546.1693, 38.70279
546.6514, 39.63879
547.1335, 39.87901
547.6156, 39.47805
548.0977, 39.34292
548.5798, 40.10070
549.0620, 41.40134
549.5441, 42.05883
550.0262, 41.70197
550.5083, 41.14286
550.9904, 39.91475
551.4725, 38.83906
551.9547, 38.75755
552.4368, 39.48519
552.9189, 40.09296
553.4010, 39.85535
553.8831, 38.99926
554.3652, 38.43337
554.8474, 38.23724
555.3295, 38.13801
555.8116, 38.31623
556.2937, 38.39281
556.7758, 37.98478
557.2579, 37.11449
557.7401, 36.29435
558.2222, 35.81416
558.7043, 35.58189
559.1864, 35.55891
559.6685, 35.74493
560.1506, 35.61980
560.6328, 34.80912
561.1149, 33.65159
561.5970, 32.87770
562.0791, 32.54557
562.5612, 32.31850
563.0433, 32.16430
563.5255, 32.06948
564.0076, 32.04219
564.4897, 32.06741
564.9718, 32.12487
565.4539, 32.21887
565.9360, 32.27916
566.4182, 32.04609
566.9003, 31.27265
567.3824, 30.66837
567.8645, 30.32826
568.3466, 30.11004
568.8287, 30.02783
569.3109, 30.00310
569.7930, 29.81011
570.2751, 29.19951
570.7572, 28.44500
571.2393, 28.19711
571.7214, 28.50454
572.2036, 28.73314
572.6857, 28.68091
573.1678, 28.46496
573.6499, 28.10990
574.1320, 27.62038
574.6141, 27.47590
575.0963, 28.25941
575.5784, 29.08197
576.0605, 29.00782
576.5426, 28.27337
577.0247, 27.80165
577.5068, 28.03772
577.9890, 28.58044
578.4711, 28.64421
578.9532, 27.84976
579.4353, 27.55289
579.9174, 28.29596
580.3995, 28.93157
580.8817, 28.80203
581.3638, 28.17161
581.8459, 27.60402
582.3280, 27.36579
582.8101, 27.28863
583.2922, 27.01781
583.7744, 26.51440
584.2565, 26.45809
584.7386, 27.28399
585.2207, 28.08168
585.7029, 28.15069
586.1850, 27.70156
586.6671, 27.24112
