##NAMES=Vladimirite
##RRUFFID=R080001
##IDEAL CHEMISTRY=Ca_4_(As^5+^O_4_)_2_(As^5+^O_3_OH)&#183;4H_2_O
##LOCALITY=Cobriza mine, Copiapó, Chile
##OWNER=RRUFF
##SOURCE=Bob Jenkins
##DESCRIPTION=Parallel aggregate of colorless thin prisms.
##STATUS=The identification of this mineral is confirmed by single-crystal X-ray diffraction and chemical analysis.
##URL=rruff.info/R080001
##MEASURED CHEMISTRY=(Ca_3.974_Zn_0.002_Mn_0.002_)_Σ=3.978_(As_1.009_O_3_OH)(AsO_4_)_2_·4H_2_O
94.99219, 4836.245
95.47430, 4842.474
95.95642, 4870.416
96.43854, 4913.120
96.92065, 4954.006
97.40277, 4958.713
97.88489, 4926.220
98.36700, 4889.727
98.84912, 4847.634
99.33124, 4802.915
99.81335, 4757.177
100.2955, 4711.821
100.7776, 4670.319
101.2597, 4640.131
101.7418, 4613.074
102.2239, 4587.123
102.7061, 4559.466
103.1882, 4532.661
103.6703, 4512.261
104.1524, 4499.838
104.6345, 4495.283
105.1166, 4496.523
105.5988, 4504.809
106.0809, 4515.423
106.5630, 4525.593
107.0451, 4535.812
107.5272, 4541.437
108.0093, 4535.938
108.4915, 4526.547
108.9736, 4518.354
109.4557, 4512.672
109.9378, 4509.754
110.4199, 4510.304
110.9020, 4513.297
111.3842, 4521.909
111.8663, 4538.606
112.3484, 4560.310
112.8305, 4583.244
113.3126, 4605.185
113.7947, 4626.310
114.2769, 4642.056
114.7590, 4658.515
115.2411, 4664.838
115.7232, 4652.421
116.2053, 4624.196
116.6874, 4591.468
117.1695, 4565.129
117.6517, 4547.110
118.1338, 4529.382
118.6159, 4511.943
119.0980, 4494.759
119.5801, 4477.194
120.0622, 4459.074
120.5444, 4441.780
121.0265, 4426.056
121.5086, 4410.907
121.9907, 4402.962
122.4728, 4408.190
122.9549, 4422.342
123.4371, 4434.565
123.9192, 4440.935
124.4013, 4445.921
124.8834, 4454.783
125.3655, 4467.707
125.8476, 4480.989
126.3298, 4492.657
126.8119, 4502.824
127.2940, 4509.221
127.7761, 4508.487
128.2582, 4505.054
128.7404, 4500.118
129.2225, 4493.978
129.7046, 4488.888
130.1867, 4489.716
130.6688, 4502.680
131.1509, 4509.565
131.6331, 4507.646
132.1152, 4499.900
132.5973, 4489.920
133.0794, 4479.586
133.5615, 4466.861
134.0436, 4443.214
134.5258, 4397.373
135.0079, 4351.968
135.4900, 4307.659
135.9721, 4265.810
136.4542, 4227.736
136.9363, 4194.135
137.4184, 4165.204
137.9006, 4142.856
138.3827, 4130.000
138.8648, 4119.232
139.3469, 4106.250
139.8290, 4091.602
140.3111, 4079.476
140.7933, 4073.921
141.2754, 4074.596
141.7575, 4074.807
142.2396, 4074.328
142.7217, 4073.197
143.2038, 4070.639
143.6860, 4065.976
144.1681, 4062.810
144.6502, 4065.773
145.1323, 4072.641
145.6144, 4078.839
146.0965, 4081.755
146.5787, 4082.466
147.0608, 4084.706
147.5429, 4090.398
148.0250, 4095.006
148.5071, 4095.878
148.9892, 4093.701
149.4714, 4090.487
149.9535, 4087.009
150.4356, 4083.064
150.9177, 4081.441
151.3998, 4086.925
151.8819, 4090.988
152.3641, 4088.363
152.8462, 4080.133
153.3283, 4072.303
153.8104, 4072.145
154.2925, 4082.852
154.7746, 4092.717
155.2568, 4100.970
155.7389, 4109.156
156.2210, 4119.069
156.7031, 4130.686
157.1852, 4141.782
157.6673, 4148.827
158.1495, 4149.449
158.6316, 4149.254
159.1137, 4146.875
159.5958, 4144.281
160.0779, 4144.138
160.5600, 4147.461
161.0422, 4151.777
161.5243, 4151.382
162.0064, 4143.599
162.4885, 4137.968
162.9706, 4137.975
163.4527, 4141.494
163.9349, 4144.468
164.4170, 4145.437
164.8991, 4144.949
165.3812, 4144.170
165.8633, 4143.151
166.3454, 4141.832
166.8276, 4140.966
167.3097, 4140.253
167.7918, 4137.323
168.2739, 4131.476
168.7560, 4122.477
169.2381, 4109.696
169.7203, 4092.066
170.2024, 4073.998
170.6845, 4059.851
171.1666, 4050.093
171.6487, 4041.911
172.1308, 4034.572
172.6130, 4028.363
173.0951, 4023.397
173.5772, 4019.583
174.0593, 4017.615
174.5414, 4019.307
175.0235, 4027.034
175.5057, 4033.430
175.9878, 4035.349
176.4699, 4036.093
176.9520, 4039.587
177.4341, 4047.831
177.9162, 4058.132
178.3984, 4062.003
178.8805, 4052.418
179.3626, 4044.894
179.8447, 4042.801
180.3268, 4043.398
180.8089, 4043.384
181.2911, 4040.960
181.7732, 4036.371
182.2553, 4030.769
182.7374, 4020.753
183.2195, 4013.499
183.7016, 4012.701
184.1838, 4015.564
184.6659, 4016.882
185.1480, 4013.245
185.6301, 4005.293
186.1122, 3999.659
186.5943, 3995.614
187.0765, 3993.938
187.5586, 3996.744
188.0407, 4002.658
188.5228, 4007.441
189.0049, 4008.380
189.4870, 4005.491
189.9692, 4001.279
190.4513, 3993.673
190.9334, 3986.467
191.4155, 3982.682
191.8976, 3982.141
192.3797, 3981.709
192.8619, 3979.972
193.3440, 3976.591
193.8261, 3970.974
194.3082, 3959.778
194.7903, 3948.538
195.2724, 3944.088
195.7546, 3947.379
196.2367, 3951.359
196.7188, 3951.255
197.2009, 3949.134
197.6830, 3947.359
198.1651, 3945.553
198.6473, 3945.228
199.1294, 3950.051
199.6115, 3962.600
200.0936, 3973.823
200.5757, 3978.089
201.0578, 3979.010
201.5400, 3981.077
202.0221, 3986.660
202.5042, 3994.491
202.9863, 4000.509
203.4684, 4001.699
203.9505, 4006.151
204.4327, 4017.369
204.9148, 4032.636
205.3969, 4048.739
205.8790, 4064.512
206.3611, 4079.279
206.8432, 4089.846
207.3254, 4093.722
207.8075, 4095.798
208.2896, 4097.393
208.7717, 4097.985
209.2538, 4096.509
209.7359, 4092.128
210.2181, 4085.192
210.7002, 4079.039
211.1823, 4073.744
211.6644, 4069.262
212.1465, 4066.961
212.6286, 4065.400
213.1108, 4061.852
213.5929, 4054.221
214.0750, 4042.983
214.5571, 4035.373
215.0392, 4032.890
215.5213, 4031.960
216.0035, 4032.468
216.4856, 4033.859
216.9677, 4034.900
217.4498, 4034.484
217.9319, 4032.964
218.4140, 4035.407
218.8961, 4045.302
219.3783, 4054.636
219.8604, 4059.701
220.3425, 4061.503
220.8246, 4063.718
221.3067, 4069.189
221.7888, 4076.952
222.2710, 4080.657
222.7531, 4078.069
223.2352, 4074.111
223.7173, 4071.099
224.1994, 4068.835
224.6815, 4066.105
225.1637, 4062.053
225.6458, 4056.947
226.1279, 4052.098
226.6100, 4046.896
227.0921, 4042.520
227.5742, 4039.598
228.0564, 4038.141
228.5385, 4038.139
229.0206, 4039.645
229.5027, 4042.806
229.9848, 4047.189
230.4669, 4051.731
230.9491, 4058.925
231.4312, 4072.684
231.9133, 4093.090
232.3954, 4112.039
232.8775, 4126.583
233.3596, 4136.717
233.8418, 4142.511
234.3239, 4143.684
234.8060, 4141.194
235.2881, 4135.053
235.7702, 4124.857
236.2523, 4114.815
236.7345, 4105.813
237.2166, 4098.216
237.6987, 4093.829
238.1808, 4094.014
238.6629, 4092.990
239.1451, 4082.260
239.6272, 4059.700
240.1093, 4038.830
240.5914, 4022.818
241.0735, 4010.659
241.5556, 4003.096
242.0378, 4000.337
242.5199, 3999.442
243.0020, 3996.259
243.4841, 3989.786
243.9662, 3984.738
244.4483, 3981.381
244.9305, 3980.008
245.4126, 3981.509
245.8947, 3985.931
246.3768, 3991.572
246.8589, 3996.662
247.3410, 4001.935
247.8232, 4004.147
248.3053, 3998.302
248.7874, 3992.870
249.2695, 3994.947
249.7516, 4004.906
250.2337, 4015.741
250.7159, 4017.419
251.1980, 4005.657
251.6801, 3996.298
252.1622, 3992.334
252.6443, 3988.532
253.1264, 3981.363
253.6086, 3970.706
254.0907, 3959.202
254.5728, 3949.911
255.0549, 3942.635
255.5370, 3938.407
256.0191, 3937.671
256.5013, 3938.970
256.9834, 3942.129
257.4655, 3946.779
257.9476, 3952.103
258.4297, 3957.205
258.9118, 3961.951
259.3940, 3967.000
259.8761, 3973.682
260.3582, 3979.432
260.8403, 3983.489
261.3224, 3985.475
261.8045, 3984.792
262.2867, 3980.523
262.7688, 3971.954
263.2509, 3964.652
263.7330, 3959.029
264.2151, 3954.036
264.6972, 3950.375
265.1794, 3947.232
265.6615, 3941.900
266.1436, 3931.611
266.6257, 3915.930
267.1078, 3905.619
267.5899, 3901.818
268.0721, 3900.831
268.5542, 3902.613
269.0363, 3906.110
269.5184, 3908.982
270.0005, 3909.537
270.4826, 3907.929
270.9648, 3906.491
271.4469, 3905.886
271.9290, 3904.725
272.4111, 3902.112
272.8932, 3898.502
273.3753, 3895.109
273.8575, 3892.792
274.3396, 3891.116
274.8217, 3887.772
275.3038, 3883.346
275.7859, 3877.064
276.2680, 3866.479
276.7502, 3853.911
277.2323, 3844.610
277.7144, 3841.642
278.1965, 3842.343
278.6786, 3838.289
279.1607, 3826.124
279.6429, 3816.357
280.1250, 3814.112
280.6071, 3815.893
281.0892, 3814.761
281.5713, 3807.580
282.0534, 3798.313
282.5356, 3795.307
283.0177, 3799.721
283.4998, 3804.413
283.9819, 3807.440
284.4640, 3809.738
284.9461, 3812.134
285.4283, 3814.524
285.9104, 3818.655
286.3925, 3828.123
286.8746, 3843.294
287.3567, 3857.866
287.8388, 3871.376
288.3210, 3883.343
288.8031, 3891.886
289.2852, 3896.314
289.7673, 3901.298
290.2494, 3912.781
290.7315, 3930.427
291.2137, 3946.801
291.6958, 3959.807
292.1779, 3971.643
292.6600, 3984.884
293.1421, 3999.793
293.6242, 4014.329
294.1064, 4025.680
294.5885, 4034.936
295.0706, 4047.475
295.5527, 4069.120
296.0348, 4090.566
296.5169, 4101.517
296.9991, 4102.255
297.4812, 4104.735
297.9633, 4117.743
298.4454, 4137.882
298.9275, 4153.655
299.4096, 4162.322
299.8918, 4169.188
300.3739, 4178.533
300.8560, 4189.798
301.3381, 4198.872
301.8202, 4203.444
302.3023, 4204.910
302.7845, 4206.978
303.2666, 4210.710
303.7487, 4212.583
304.2308, 4209.485
304.7129, 4202.660
305.1950, 4196.572
305.6772, 4193.064
306.1593, 4190.308
306.6414, 4186.061
307.1235, 4180.536
307.6056, 4172.966
308.0877, 4163.462
308.5699, 4151.638
309.0520, 4136.563
309.5341, 4118.000
310.0162, 4096.165
310.4983, 4069.892
310.9804, 4039.773
311.4626, 4010.431
311.9447, 3982.007
312.4268, 3955.671
312.9089, 3933.326
313.3910, 3915.310
313.8731, 3899.824
314.3553, 3886.030
314.8374, 3873.604
315.3195, 3861.560
315.8016, 3848.188
316.2837, 3835.963
316.7658, 3827.990
317.2480, 3824.387
317.7301, 3822.410
318.2122, 3820.583
318.6943, 3819.296
319.1764, 3819.369
319.6585, 3821.616
320.1407, 3824.340
320.6228, 3826.135
321.1049, 3827.182
321.5870, 3828.628
322.0691, 3830.724
322.5512, 3833.844
323.0334, 3838.539
323.5155, 3845.223
323.9976, 3852.080
324.4797, 3856.969
324.9618, 3861.122
325.4439, 3868.909
325.9261, 3882.969
326.4082, 3898.352
326.8903, 3907.379
327.3724, 3909.932
327.8545, 3915.395
328.3366, 3928.215
328.8188, 3945.628
329.3009, 3963.354
329.7830, 3980.764
330.2651, 3998.454
330.7472, 4017.231
331.2293, 4036.865
331.7115, 4056.377
332.1936, 4075.167
332.6757, 4094.014
333.1578, 4113.546
333.6399, 4133.844
334.1220, 4155.573
334.6042, 4181.095
335.0863, 4208.242
335.5684, 4229.152
336.0505, 4237.308
336.5326, 4245.633
337.0147, 4265.751
337.4969, 4294.567
337.9790, 4317.694
338.4611, 4327.889
338.9432, 4329.118
339.4253, 4330.085
339.9074, 4329.554
340.3896, 4331.663
340.8717, 4341.252
341.3538, 4354.247
341.8359, 4361.661
342.3180, 4360.121
342.8001, 4355.511
343.2822, 4355.728
343.7643, 4360.623
344.2465, 4368.557
344.7286, 4379.883
345.2107, 4393.778
345.6928, 4409.038
346.1749, 4425.571
346.6570, 4444.769
347.1392, 4468.331
347.6213, 4496.607
348.1034, 4524.183
348.5855, 4550.225
349.0676, 4576.388
349.5497, 4603.955
350.0319, 4632.849
350.5140, 4662.594
350.9961, 4693.885
351.4782, 4725.452
351.9603, 4751.093
352.4424, 4766.290
352.9246, 4782.257
353.4067, 4804.853
353.8888, 4830.299
354.3709, 4851.422
354.8530, 4865.321
355.3351, 4874.948
355.8173, 4885.899
356.2994, 4900.062
356.7815, 4911.309
357.2636, 4921.177
357.7457, 4926.786
358.2278, 4923.409
358.7100, 4910.918
359.1921, 4896.122
359.6742, 4887.178
360.1563, 4886.123
360.6384, 4877.224
361.1205, 4856.681
361.6027, 4832.661
362.0848, 4807.428
362.5669, 4782.282
363.0490, 4759.179
363.5311, 4739.664
364.0132, 4723.400
364.4954, 4708.198
364.9775, 4694.266
365.4596, 4681.071
365.9417, 4668.141
366.4238, 4656.040
366.9059, 4645.504
367.3881, 4636.783
367.8702, 4629.782
368.3523, 4624.425
368.8344, 4623.050
369.3165, 4619.452
369.7986, 4610.764
370.2808, 4602.007
370.7629, 4599.189
371.2450, 4601.717
371.7271, 4601.938
372.2092, 4590.854
372.6913, 4566.021
373.1735, 4545.209
373.6556, 4529.362
374.1377, 4516.379
374.6198, 4506.373
375.1019, 4498.692
375.5840, 4492.610
376.0662, 4487.740
376.5483, 4483.890
377.0304, 4480.175
377.5125, 4475.714
377.9946, 4472.817
378.4767, 4472.308
378.9589, 4473.177
379.4410, 4475.367
379.9231, 4478.672
380.4052, 4480.771
380.8873, 4477.903
381.3694, 4469.120
381.8516, 4458.334
382.3337, 4445.396
382.8158, 4430.839
383.2979, 4414.501
383.7800, 4396.612
384.2621, 4377.930
384.7443, 4359.315
385.2264, 4340.694
385.7085, 4320.079
386.1906, 4297.047
386.6727, 4272.404
387.1548, 4245.126
387.6370, 4217.056
388.1191, 4191.583
388.6012, 4170.790
389.0833, 4151.688
389.5654, 4128.408
390.0475, 4099.679
390.5297, 4072.667
391.0118, 4052.227
391.4939, 4032.725
391.9760, 4008.514
392.4581, 3978.697
392.9402, 3950.497
393.4224, 3930.472
393.9045, 3917.529
394.3866, 3905.354
394.8687, 3893.968
395.3508, 3881.677
395.8329, 3865.252
396.3151, 3846.415
396.7972, 3831.159
397.2793, 3823.830
397.7614, 3820.432
398.2435, 3815.700
398.7256, 3809.616
399.2078, 3802.138
399.6899, 3791.789
400.1720, 3780.738
400.6541, 3773.711
401.1362, 3773.214
401.6183, 3772.473
402.1005, 3767.353
402.5826, 3758.882
403.0647, 3749.212
403.5468, 3738.293
404.0289, 3728.360
404.5110, 3723.284
404.9932, 3723.290
405.4753, 3723.349
405.9574, 3724.026
406.4395, 3723.434
406.9216, 3717.803
407.4037, 3707.544
407.8859, 3699.694
408.3680, 3700.205
408.8501, 3708.421
409.3322, 3714.713
409.8143, 3719.061
410.2964, 3721.926
410.7786, 3722.580
411.2607, 3722.058
411.7428, 3721.337
412.2249, 3720.712
412.7070, 3722.001
413.1891, 3729.116
413.6713, 3747.830
414.1534, 3762.107
414.6355, 3769.484
415.1176, 3774.471
415.5997, 3778.486
416.0818, 3782.769
416.5640, 3790.349
417.0461, 3804.817
417.5282, 3826.312
418.0103, 3841.891
418.4924, 3845.899
418.9745, 3849.852
419.4567, 3856.450
419.9388, 3864.435
420.4209, 3871.098
420.9030, 3875.096
421.3851, 3879.417
421.8672, 3891.311
422.3494, 3916.003
422.8315, 3934.865
423.3136, 3944.285
423.7957, 3949.309
424.2778, 3951.885
424.7599, 3952.684
425.2421, 3952.517
425.7242, 3952.371
426.2063, 3952.046
426.6884, 3949.339
427.1705, 3942.896
427.6526, 3936.300
428.1348, 3932.753
428.6169, 3929.606
429.0990, 3922.531
429.5811, 3909.094
430.0632, 3893.664
430.5453, 3881.827
431.0275, 3873.657
431.5096, 3865.843
431.9917, 3858.934
432.4738, 3850.403
432.9559, 3836.912
433.4380, 3818.531
433.9202, 3801.212
434.4023, 3789.210
434.8844, 3779.713
435.3665, 3768.028
435.8486, 3753.640
436.3307, 3737.475
436.8129, 3718.764
437.2950, 3698.842
437.7771, 3682.982
438.2592, 3674.516
438.7413, 3666.587
439.2234, 3655.288
439.7056, 3641.731
440.1877, 3628.410
440.6698, 3616.100
441.1519, 3604.925
441.6340, 3595.132
442.1161, 3587.441
442.5983, 3579.097
443.0804, 3567.859
443.5625, 3557.550
444.0446, 3550.545
444.5267, 3547.152
445.0089, 3547.196
445.4910, 3551.081
445.9731, 3558.184
446.4552, 3562.442
446.9373, 3559.740
447.4194, 3559.157
447.9016, 3563.645
448.3837, 3570.167
448.8658, 3575.243
449.3479, 3577.854
449.8300, 3579.570
450.3121, 3583.037
450.7943, 3589.529
451.2764, 3592.940
451.7585, 3591.745
452.2406, 3588.769
452.7227, 3584.416
453.2048, 3579.100
453.6870, 3573.456
454.1691, 3567.869
454.6512, 3562.184
455.1333, 3556.090
455.6154, 3549.981
456.0975, 3542.284
456.5797, 3529.704
457.0618, 3516.985
457.5439, 3507.362
458.0260, 3501.373
458.5081, 3498.362
458.9902, 3499.417
459.4724, 3503.274
459.9545, 3505.600
460.4366, 3506.138
460.9187, 3504.584
461.4008, 3498.416
461.8829, 3489.936
462.3651, 3485.082
462.8472, 3487.314
463.3293, 3490.874
463.8114, 3491.011
464.2935, 3488.738
464.7756, 3487.925
465.2578, 3490.272
465.7399, 3493.999
466.2220, 3496.477
466.7041, 3498.187
467.1862, 3496.912
467.6683, 3489.314
468.1505, 3480.825
468.6326, 3476.585
469.1147, 3476.144
469.5968, 3475.183
470.0789, 3470.425
470.5610, 3462.653
471.0432, 3457.285
471.5253, 3455.937
472.0074, 3455.033
472.4895, 3455.623
472.9716, 3455.728
473.4537, 3453.685
473.9359, 3449.010
474.4180, 3441.669
474.9001, 3430.286
475.3822, 3413.600
475.8643, 3403.997
476.3464, 3409.386
476.8286, 3413.732
477.3107, 3410.664
477.7928, 3403.418
478.2749, 3397.602
478.7570, 3395.839
479.2391, 3396.008
479.7213, 3394.898
480.2034, 3392.449
480.6855, 3388.938
481.1676, 3382.283
481.6497, 3376.667
482.1318, 3376.921
482.6140, 3382.113
483.0961, 3384.875
483.5782, 3378.000
484.0603, 3368.099
484.5424, 3366.819
485.0245, 3374.808
485.5067, 3382.552
485.9888, 3384.892
486.4709, 3383.446
486.9530, 3382.941
487.4351, 3384.764
487.9172, 3384.513
488.3994, 3378.202
488.8815, 3369.989
489.3636, 3366.005
489.8457, 3367.267
490.3278, 3369.779
490.8099, 3369.477
491.2921, 3366.127
491.7742, 3365.944
492.2563, 3373.241
492.7384, 3378.237
493.2205, 3375.490
493.7026, 3369.431
494.1848, 3367.042
494.6669, 3370.782
495.1490, 3376.327
495.6311, 3376.055
496.1132, 3366.721
496.5953, 3362.106
497.0775, 3367.567
497.5596, 3372.725
498.0417, 3374.021
498.5238, 3371.740
499.0059, 3366.762
499.4880, 3358.609
499.9702, 3349.773
500.4523, 3346.035
500.9344, 3348.402
501.4165, 3349.412
501.8986, 3347.242
502.3807, 3342.558
502.8629, 3335.100
503.3450, 3325.112
503.8271, 3316.495
504.3092, 3312.773
504.7913, 3310.851
505.2734, 3304.969
505.7556, 3294.876
506.2377, 3286.768
506.7198, 3284.992
507.2019, 3287.341
507.6840, 3286.982
508.1661, 3283.967
508.6482, 3278.697
509.1303, 3270.060
509.6125, 3259.856
510.0946, 3249.656
510.5767, 3239.938
511.0588, 3231.299
511.5409, 3224.225
512.0231, 3218.710
512.5052, 3215.019
512.9873, 3215.469
513.4694, 3214.961
513.9515, 3213.023
514.4337, 3209.377
514.9158, 3203.742
515.3979, 3196.038
515.8800, 3186.534
516.3621, 3173.462
516.8442, 3155.722
517.3264, 3147.169
517.8085, 3156.129
518.2906, 3163.689
518.7727, 3160.507
519.2548, 3150.644
519.7369, 3140.675
520.2191, 3132.389
520.7012, 3125.710
521.1833, 3121.413
521.6654, 3119.084
522.1475, 3115.434
522.6296, 3109.527
523.1118, 3102.434
523.5939, 3094.263
524.0760, 3085.359
524.5581, 3079.170
525.0402, 3077.230
525.5223, 3077.333
526.0045, 3079.333
526.4866, 3082.169
526.9687, 3083.283
527.4508, 3081.626
527.9329, 3077.249
528.4150, 3069.649
528.8972, 3054.588
529.3793, 3046.683
529.8614, 3051.786
530.3435, 3058.179
530.8256, 3060.060
531.3077, 3057.698
531.7899, 3053.092
532.2720, 3047.135
532.7541, 3040.888
533.2362, 3037.640
533.7183, 3039.209
534.2004, 3038.557
534.6826, 3031.190
535.1647, 3023.854
535.6468, 3020.847
536.1289, 3021.734
536.6110, 3023.244
537.0931, 3023.745
537.5753, 3023.512
538.0574, 3023.424
538.5395, 3023.571
539.0216, 3021.792
539.5037, 3016.222
539.9858, 3009.104
540.4680, 3004.335
540.9501, 3002.237
541.4322, 2999.972
541.9143, 2995.206
542.3964, 2990.932
542.8785, 2991.138
543.3607, 2995.234
543.8428, 2998.662
544.3249, 2998.307
544.8070, 2995.479
545.2891, 2995.071
545.7712, 3001.775
546.2534, 3004.345
546.7355, 2998.742
547.2176, 2991.801
547.6997, 2988.819
548.1818, 2989.691
548.6639, 2990.919
549.1461, 2989.793
549.6282, 2986.863
550.1103, 2984.613
550.5924, 2983.585
551.0745, 2981.744
551.5566, 2976.402
552.0388, 2971.266
552.5209, 2969.868
553.0030, 2972.382
553.4851, 2974.965
553.9672, 2975.945
554.4493, 2975.376
554.9315, 2972.658
555.4136, 2967.765
555.8957, 2963.751
556.3778, 2962.530
556.8599, 2963.158
557.3420, 2963.148
557.8242, 2962.405
558.3063, 2961.455
558.7884, 2961.333
559.2705, 2960.421
559.7526, 2956.354
560.2347, 2949.697
560.7169, 2943.359
561.1990, 2939.321
561.6811, 2937.518
562.1632, 2938.024
562.6453, 2942.990
563.1274, 2946.478
563.6096, 2948.217
564.0917, 2948.126
564.5738, 2945.328
565.0559, 2940.347
565.5380, 2935.462
566.0201, 2932.186
566.5023, 2930.217
566.9844, 2929.233
567.4665, 2929.593
567.9486, 2928.615
568.4307, 2924.427
568.9128, 2919.163
569.3950, 2915.630
569.8771, 2913.889
570.3592, 2913.081
570.8413, 2912.895
571.3234, 2913.551
571.8055, 2916.476
572.2877, 2920.882
572.7698, 2922.960
573.2519, 2920.480
573.7340, 2914.735
574.2161, 2909.064
574.6982, 2904.213
575.1804, 2897.941
575.6625, 2885.598
576.1446, 2875.975
576.6267, 2875.803
577.1088, 2882.960
577.5909, 2891.431
578.0731, 2898.048
578.5552, 2902.558
579.0373, 2903.841
579.5194, 2901.229
580.0015, 2899.111
580.4836, 2898.851
580.9658, 2898.803
581.4479, 2897.287
581.9300, 2894.771
582.4121, 2893.308
582.8942, 2894.877
583.3763, 2896.828
583.8585, 2896.529
584.3406, 2894.397
584.8227, 2891.961
585.3048, 2889.759
585.7869, 2887.313
586.2690, 2883.545
586.7512, 2877.533
587.2333, 2875.326
587.7154, 2880.243
588.1975, 2885.124
588.6796, 2886.760
589.1617, 2886.403
589.6438, 2886.066
