##NAMES=Vlasovite
##RRUFFID=R060913
##IDEAL CHEMISTRY=Na_2_Zr^4+^Si_4_O_11_
##LOCALITY=Kipawa complex, Quebec, Canada
##OWNER=RRUFF
##SOURCE=Royal Ontario Museum
##DESCRIPTION=Honey yellow single crystal fragment
##STATUS=The identification of this mineral has been made only by X-ray diffraction.
##URL=rruff.info/R060913
154.3069, 7685.528
154.7890, 7685.245
155.2712, 7691.099
155.7533, 7707.054
156.2354, 7732.264
156.7175, 7757.329
157.1996, 7781.267
157.6817, 7804.140
158.1639, 7825.984
158.6460, 7847.856
159.1281, 7867.078
159.6102, 7880.530
160.0923, 7887.507
160.5744, 7896.715
161.0566, 7906.015
161.5387, 7919.879
162.0208, 7943.441
162.5029, 7997.264
162.9850, 8046.160
163.4671, 8066.382
163.9493, 8049.830
164.4314, 8039.562
164.9135, 8073.068
165.3956, 8124.912
165.8777, 8153.271
166.3598, 8111.295
166.8420, 8056.850
167.3241, 8034.863
167.8062, 8060.083
168.2883, 8092.073
168.7704, 8107.127
169.2525, 8109.315
169.7346, 8108.343
170.2168, 8102.256
170.6989, 8098.992
171.1810, 8108.251
171.6631, 8137.242
172.1452, 8169.469
172.6273, 8189.964
173.1095, 8200.955
173.5916, 8212.600
174.0737, 8231.684
174.5558, 8255.470
175.0379, 8278.631
175.5201, 8294.946
176.0022, 8315.770
176.4843, 8361.582
176.9664, 8429.106
177.4485, 8491.716
177.9306, 8523.036
178.4128, 8533.903
178.8949, 8548.570
179.3770, 8578.093
179.8591, 8613.635
180.3412, 8638.771
180.8233, 8653.590
181.3055, 8670.354
181.7876, 8701.154
182.2697, 8743.498
182.7518, 8790.388
183.2339, 8843.538
183.7160, 8898.476
184.1982, 8943.909
184.6803, 8979.634
185.1624, 9006.584
185.6445, 9025.416
186.1266, 9036.134
186.6087, 9040.203
187.0908, 9028.256
187.5730, 9008.016
188.0551, 9014.231
188.5372, 9052.316
189.0193, 9099.539
189.5014, 9127.233
189.9835, 9136.150
190.4657, 9136.032
190.9478, 9124.010
191.4299, 9103.497
191.9120, 9100.800
192.3941, 9119.508
192.8762, 9151.123
193.3584, 9184.605
193.8405, 9220.173
194.3226, 9251.677
194.8047, 9275.283
195.2868, 9291.221
195.7689, 9301.964
196.2511, 9306.254
196.7332, 9307.726
197.2153, 9315.531
197.6974, 9330.772
198.1795, 9345.735
198.6616, 9356.945
199.1438, 9364.719
199.6259, 9365.288
200.1080, 9356.799
200.5901, 9341.822
201.0722, 9322.778
201.5543, 9294.438
202.0364, 9281.771
202.5186, 9316.735
203.0007, 9409.654
203.4828, 9463.389
203.9649, 9456.687
204.4470, 9401.622
204.9291, 9350.956
205.4113, 9304.301
205.8934, 9261.196
206.3755, 9220.263
206.8576, 9180.232
207.3397, 9148.530
207.8218, 9129.021
208.3040, 9119.619
208.7861, 9104.403
209.2682, 9081.960
209.7503, 9057.628
210.2324, 9037.101
210.7145, 9022.908
211.1967, 9005.168
211.6788, 8979.759
212.1609, 8947.841
212.6430, 8926.229
213.1251, 8916.572
213.6072, 8915.561
214.0894, 8923.158
214.5715, 8946.406
215.0536, 8957.434
215.5357, 8943.748
216.0178, 8904.398
216.4999, 8888.476
216.9820, 8907.729
217.4642, 8935.365
217.9463, 8938.725
218.4284, 8903.754
218.9105, 8877.636
219.3926, 8875.430
219.8747, 8899.856
220.3569, 8911.052
220.8390, 8900.628
221.3211, 8885.343
221.8032, 8887.707
222.2853, 8918.601
222.7674, 8944.652
223.2496, 8954.248
223.7317, 8943.718
224.2138, 8946.378
224.6959, 8973.176
225.1780, 9004.507
225.6601, 9011.086
226.1423, 8975.862
226.6244, 8948.115
227.1065, 8943.777
227.5886, 8967.804
228.0707, 8991.405
228.5528, 9016.855
229.0350, 9040.237
229.5171, 9053.979
229.9992, 9049.895
230.4813, 9050.396
230.9634, 9064.174
231.4455, 9096.764
231.9276, 9121.171
232.4098, 9134.060
232.8919, 9140.815
233.3740, 9149.454
233.8561, 9158.100
234.3382, 9172.042
234.8203, 9195.563
235.3025, 9234.689
235.7846, 9261.600
236.2667, 9267.996
236.7488, 9266.598
237.2309, 9281.642
237.7130, 9322.183
238.1952, 9364.736
238.6773, 9401.722
239.1594, 9432.225
239.6415, 9459.539
240.1236, 9479.682
240.6057, 9498.791
241.0879, 9530.038
241.5700, 9580.302
242.0521, 9631.347
242.5342, 9673.521
243.0163, 9695.245
243.4984, 9743.198
243.9806, 9832.590
244.4627, 9941.406
244.9448, 10023.00
245.4269, 10059.22
245.9090, 10095.32
246.3911, 10148.05
246.8732, 10221.58
247.3554, 10299.64
247.8375, 10387.26
248.3196, 10476.76
248.8017, 10549.65
249.2838, 10588.04
249.7659, 10637.67
250.2481, 10719.64
250.7302, 10850.40
251.2123, 10966.55
251.6944, 11061.74
252.1765, 11146.00
252.6586, 11241.78
253.1408, 11354.15
253.6229, 11470.95
254.1050, 11586.76
254.5871, 11693.51
255.0692, 11823.70
255.5513, 11986.64
256.0334, 12168.26
256.5156, 12342.98
256.9977, 12507.24
257.4798, 12672.43
257.9619, 12841.61
258.4440, 13015.12
258.9261, 13196.70
259.4083, 13392.68
259.8904, 13594.08
260.3725, 13779.04
260.8546, 13943.58
261.3367, 14102.66
261.8188, 14265.43
262.3010, 14441.66
262.7831, 14587.96
263.2652, 14705.02
263.7473, 14792.15
264.2294, 14849.96
264.7115, 14876.13
265.1937, 14876.78
265.6758, 14852.96
266.1579, 14804.23
266.6400, 14734.08
267.1221, 14636.21
267.6042, 14524.04
268.0864, 14427.38
268.5685, 14355.13
269.0506, 14270.80
269.5327, 14151.55
270.0148, 13987.94
270.4969, 13860.79
270.9791, 13779.73
271.4612, 13723.54
271.9433, 13657.35
272.4254, 13577.03
272.9075, 13503.83
273.3896, 13443.27
273.8718, 13395.11
274.3539, 13373.75
274.8360, 13385.84
275.3181, 13413.81
275.8002, 13422.87
276.2823, 13404.11
276.7645, 13414.00
277.2466, 13484.87
277.7287, 13617.74
278.2108, 13723.53
278.6929, 13792.58
279.1750, 13856.46
279.6572, 13958.24
280.1393, 14099.67
280.6214, 14259.93
281.1035, 14428.43
281.5856, 14606.78
282.0677, 14817.77
282.5499, 15063.45
283.0320, 15335.19
283.5141, 15612.52
283.9962, 15894.29
284.4783, 16228.42
284.9604, 16641.33
285.4425, 17125.42
285.9247, 17616.09
286.4068, 18106.39
286.8889, 18626.30
287.3710, 19202.86
287.8531, 19835.98
288.3352, 20524.59
288.8174, 21275.54
289.2995, 22080.86
289.7816, 22916.68
290.2637, 23766.93
290.7458, 24655.99
291.2279, 25594.69
291.7101, 26584.44
292.1922, 27640.95
292.6743, 28764.40
293.1564, 29948.78
293.6385, 31192.53
294.1206, 32492.14
294.6028, 33789.94
295.0849, 35074.57
295.5670, 36331.84
296.0491, 37527.63
296.5312, 38698.78
297.0133, 39751.74
297.4955, 40562.08
297.9776, 41113.59
298.4597, 41345.98
298.9418, 41198.81
299.4239, 40691.98
299.9060, 39841.25
300.3882, 38583.81
300.8703, 37073.13
301.3524, 35461.82
301.8345, 33762.96
302.3166, 32082.28
302.7987, 30424.42
303.2809, 28838.70
303.7630, 27370.78
304.2451, 26053.16
304.7272, 24844.54
305.2093, 23725.53
305.6914, 22685.98
306.1736, 21757.46
306.6557, 20951.44
307.1378, 20247.65
307.6199, 19626.27
308.1020, 19089.47
308.5841, 18606.30
309.0663, 18155.43
309.5484, 17734.47
310.0305, 17356.50
310.5126, 17014.54
310.9947, 16720.09
311.4768, 16497.18
311.9590, 16365.29
312.4411, 16249.99
312.9232, 16096.87
313.4053, 15929.69
313.8874, 15796.92
314.3695, 15733.08
314.8517, 15696.79
315.3337, 15659.13
315.8159, 15612.53
316.2980, 15589.84
316.7801, 15610.74
317.2622, 15662.90
317.7443, 15729.17
318.2264, 15819.37
318.7086, 15908.79
319.1907, 15978.31
319.6728, 16022.19
320.1549, 16092.30
320.6370, 16210.52
321.1191, 16359.94
321.6013, 16523.77
322.0834, 16699.85
322.5655, 16885.74
323.0476, 17095.74
323.5297, 17330.60
324.0118, 17523.49
324.4940, 17635.02
324.9761, 17715.72
325.4582, 17804.28
325.9403, 17947.81
326.4224, 18051.82
326.9045, 18099.62
327.3867, 18092.91
327.8688, 18060.80
328.3509, 17999.10
328.8330, 17915.48
329.3151, 17814.51
329.7972, 17723.22
330.2794, 17576.23
330.7615, 17349.02
331.2436, 17058.50
331.7257, 16782.11
332.2078, 16525.30
332.6899, 16274.05
333.1721, 16018.96
333.6542, 15749.28
334.1363, 15503.19
334.6184, 15277.78
335.1005, 15076.83
335.5826, 14908.09
336.0648, 14785.77
336.5469, 14666.43
337.0290, 14526.48
337.5111, 14355.04
337.9932, 14212.73
338.4753, 14101.70
338.9575, 14016.64
339.4396, 13947.87
339.9217, 13893.56
340.4038, 13862.59
340.8859, 13864.87
341.3680, 13898.77
341.8502, 13919.45
342.3323, 13922.71
342.8144, 13924.50
343.2965, 13933.92
343.7786, 13951.01
344.2607, 14007.06
344.7429, 14122.62
345.2250, 14282.95
345.7071, 14430.06
346.1892, 14563.64
346.6713, 14708.64
347.1534, 14899.15
347.6355, 15126.74
348.1176, 15350.67
348.5998, 15559.20
349.0819, 15764.28
349.5640, 15986.00
350.0461, 16226.59
350.5282, 16480.14
351.0103, 16759.45
351.4925, 17047.64
351.9746, 17318.21
352.4567, 17567.21
352.9388, 17788.83
353.4209, 17978.52
353.9030, 18135.90
354.3852, 18259.85
354.8673, 18360.52
355.3494, 18423.18
355.8315, 18432.21
356.3136, 18386.39
356.7957, 18289.03
357.2779, 18133.98
357.7600, 17929.87
358.2421, 17694.74
358.7242, 17431.85
359.2063, 17142.03
359.6884, 16814.44
360.1706, 16446.58
360.6527, 16086.66
361.1348, 15749.96
361.6169, 15434.07
362.0990, 15140.53
362.5811, 14878.91
363.0633, 14626.73
363.5454, 14370.56
364.0275, 14112.39
364.5096, 13877.43
364.9917, 13679.56
365.4738, 13502.39
365.9560, 13334.62
366.4381, 13178.93
366.9202, 13030.34
367.4023, 12885.06
367.8844, 12745.38
368.3665, 12619.59
368.8487, 12506.53
369.3308, 12408.85
369.8129, 12330.03
370.2950, 12281.62
370.7771, 12229.38
371.2592, 12172.98
371.7414, 12112.95
372.2235, 12047.44
372.7056, 11966.21
373.1877, 11895.67
373.6698, 11845.41
374.1519, 11817.15
374.6341, 11794.07
375.1162, 11780.74
375.5983, 11766.00
376.0804, 11732.81
376.5625, 11674.45
377.0446, 11628.04
377.5267, 11605.90
378.0089, 11603.65
378.4910, 11596.20
378.9731, 11583.36
379.4552, 11567.45
379.9373, 11550.95
380.4194, 11533.86
380.9016, 11513.25
381.3837, 11486.61
381.8658, 11459.44
382.3479, 11443.73
382.8300, 11439.17
383.3121, 11437.37
383.7943, 11421.01
384.2764, 11403.63
384.7585, 11429.75
385.2406, 11511.85
385.7227, 11600.26
386.2048, 11628.15
386.6870, 11612.86
387.1691, 11602.19
387.6512, 11616.21
388.1333, 11647.71
388.6154, 11695.22
389.0975, 11758.54
389.5797, 11817.39
390.0618, 11851.56
390.5439, 11873.77
391.0260, 11899.33
391.5081, 11928.83
391.9902, 11967.86
392.4724, 12024.90
392.9545, 12097.10
393.4366, 12168.60
393.9187, 12221.00
394.4008, 12277.91
394.8829, 12356.42
395.3651, 12461.34
395.8472, 12585.12
396.3293, 12740.91
396.8114, 12913.97
397.2935, 13072.49
397.7756, 13183.99
398.2578, 13303.78
398.7399, 13451.04
399.2220, 13629.97
399.7041, 13824.94
400.1862, 14037.35
400.6683, 14264.35
401.1505, 14501.40
401.6326, 14735.18
402.1147, 15001.44
402.5968, 15315.87
403.0789, 15676.09
403.5610, 16030.16
404.0432, 16367.21
404.5253, 16716.35
405.0074, 17109.88
405.4895, 17567.89
405.9716, 17987.65
406.4537, 18354.38
406.9359, 18679.37
407.4180, 18981.59
407.9001, 19260.41
408.3822, 19528.38
408.8643, 19778.04
409.3464, 20016.44
409.8285, 20312.79
410.3106, 20676.56
410.7928, 21063.77
411.2749, 21407.29
411.7570, 21723.99
412.2391, 22085.76
412.7212, 22533.93
413.2033, 23043.46
413.6855, 23583.18
414.1676, 24148.38
414.6497, 24701.90
415.1318, 25220.33
415.6139, 25702.27
416.0960, 26140.14
416.5782, 26554.80
417.0603, 26895.11
417.5424, 27142.75
418.0245, 27284.80
418.5066, 27284.65
418.9887, 27128.14
419.4709, 26822.29
419.9530, 26353.00
420.4351, 25701.62
420.9172, 24973.66
421.3993, 24168.53
421.8814, 23324.58
422.3636, 22490.85
422.8457, 21647.00
423.3278, 20846.36
423.8099, 20112.87
424.2920, 19441.25
424.7741, 18813.98
425.2563, 18229.24
425.7384, 17684.83
426.2205, 17189.50
426.7026, 16734.94
427.1847, 16339.84
427.6668, 16020.13
428.1490, 15759.12
428.6311, 15510.45
429.1132, 15264.05
429.5953, 15045.12
430.0774, 14870.99
430.5595, 14744.79
431.0417, 14617.22
431.5238, 14481.89
432.0059, 14360.86
432.4880, 14290.02
432.9701, 14269.62
433.4522, 14251.38
433.9344, 14223.32
434.4165, 14186.54
434.8986, 14129.23
435.3807, 14051.89
435.8628, 14002.33
436.3449, 14040.23
436.8271, 14132.92
437.3092, 14199.80
437.7913, 14215.52
438.2734, 14231.03
438.7555, 14304.48
439.2376, 14420.70
439.7197, 14540.17
440.2018, 14631.22
440.6840, 14724.30
441.1661, 14844.14
441.6482, 14991.67
442.1303, 15158.14
442.6124, 15334.93
443.0945, 15530.51
443.5767, 15751.15
444.0588, 16019.41
444.5409, 16293.05
445.0230, 16546.06
445.5051, 16790.32
445.9872, 17077.98
446.4694, 17442.62
446.9515, 17831.11
447.4336, 18220.04
447.9157, 18600.23
448.3978, 19001.30
448.8799, 19426.49
449.3621, 19869.53
449.8442, 20318.23
450.3263, 20784.78
450.8084, 21229.21
451.2905, 21655.96
451.7726, 22056.70
452.2548, 22369.31
452.7369, 22595.40
453.2190, 22728.49
453.7011, 22766.51
454.1832, 22708.62
454.6653, 22552.22
455.1475, 22292.65
455.6296, 21940.07
456.1117, 21472.95
456.5938, 20906.40
457.0759, 20336.46
457.5580, 19820.59
458.0402, 19340.29
458.5223, 18856.86
459.0044, 18363.73
459.4865, 17895.79
459.9686, 17475.51
460.4507, 17097.54
460.9329, 16743.01
461.4150, 16406.08
461.8971, 16101.98
462.3792, 15846.34
462.8613, 15633.83
463.3434, 15435.19
463.8256, 15243.35
464.3077, 15060.74
464.7898, 14884.77
465.2719, 14710.82
465.7540, 14558.70
466.2361, 14445.88
466.7183, 14350.82
467.2004, 14247.96
467.6825, 14106.25
468.1646, 13990.84
468.6467, 13918.88
469.1288, 13887.85
469.6110, 13849.90
470.0930, 13802.08
470.5752, 13750.96
471.0573, 13697.25
471.5394, 13637.21
472.0215, 13593.12
472.5036, 13571.02
472.9857, 13558.22
473.4679, 13530.02
473.9500, 13485.92
474.4321, 13445.48
474.9142, 13418.12
475.3963, 13400.57
475.8784, 13378.03
476.3606, 13350.39
476.8427, 13334.10
477.3248, 13360.98
477.8069, 13408.18
478.2890, 13424.49
478.7711, 13385.04
479.2533, 13341.81
479.7354, 13348.38
480.2175, 13389.79
480.6996, 13428.97
481.1817, 13430.28
481.6638, 13435.69
482.1460, 13475.54
482.6281, 13553.56
483.1102, 13636.18
483.5923, 13719.06
484.0744, 13796.62
484.5565, 13864.32
485.0387, 13905.12
485.5208, 13952.62
486.0029, 14012.01
486.4850, 14080.85
486.9671, 14153.57
487.4492, 14236.01
487.9314, 14313.47
488.4135, 14379.88
488.8956, 14433.35
489.3777, 14488.71
489.8598, 14548.36
490.3419, 14608.02
490.8241, 14667.27
491.3062, 14727.82
491.7883, 14770.56
492.2704, 14784.69
492.7525, 14786.27
493.2346, 14825.64
493.7168, 14898.91
494.1989, 14952.13
494.6810, 14941.56
495.1631, 14888.72
495.6452, 14837.67
496.1273, 14793.46
496.6095, 14735.07
497.0916, 14634.49
497.5737, 14511.15
498.0558, 14393.28
498.5379, 14297.61
499.0201, 14205.40
499.5022, 14107.35
499.9843, 14004.57
500.4664, 13904.15
500.9485, 13808.12
501.4306, 13716.78
501.9127, 13630.70
502.3948, 13548.54
502.8770, 13476.46
503.3591, 13421.70
503.8412, 13374.48
504.3233, 13323.48
504.8054, 13263.25
505.2875, 13207.84
505.7697, 13155.80
506.2518, 13109.24
506.7339, 13087.68
507.2160, 13101.17
507.6981, 13106.23
508.1802, 13064.71
508.6624, 12979.84
509.1445, 12937.01
509.6266, 12943.66
510.1087, 12973.78
510.5908, 13000.48
511.0729, 13024.91
511.5551, 13051.80
512.0372, 13088.45
512.5193, 13122.91
513.0014, 13125.65
513.4835, 13107.18
513.9656, 13113.06
514.4478, 13190.42
514.9299, 13291.05
515.4120, 13374.11
515.8941, 13430.63
516.3762, 13487.25
516.8583, 13552.71
517.3405, 13623.88
517.8226, 13697.16
518.3047, 13765.11
518.7868, 13842.26
519.2689, 13928.58
519.7510, 14025.36
520.2332, 14140.92
520.7153, 14278.50
521.1974, 14426.36
521.6795, 14576.99
522.1616, 14727.11
522.6437, 14903.00
523.1259, 15107.15
523.6080, 15328.69
524.0901, 15553.33
524.5722, 15783.05
525.0543, 16025.98
525.5364, 16286.05
526.0186, 16563.27
526.5007, 16858.20
526.9828, 17168.63
527.4649, 17497.68
527.9470, 17837.41
528.4291, 18198.79
528.9113, 18612.72
529.3934, 19078.34
529.8755, 19570.26
530.3576, 20071.54
530.8397, 20587.66
531.3218, 21134.01
531.8040, 21723.98
532.2861, 22328.47
532.7682, 22925.70
533.2503, 23526.71
533.7324, 24135.72
534.2145, 24825.34
534.6967, 25458.11
535.1788, 26014.85
535.6609, 26497.07
536.1430, 26860.01
536.6251, 27117.33
537.1072, 27228.27
537.5894, 27149.48
538.0715, 26872.61
538.5536, 26458.06
539.0357, 25895.05
539.5178, 25229.57
539.9999, 24508.71
540.4821, 23744.13
540.9642, 22984.06
541.4463, 22222.76
541.9284, 21484.07
542.4105, 20808.00
542.8926, 20195.83
543.3748, 19629.99
543.8569, 19112.19
544.3390, 18635.82
544.8211, 18187.52
545.3032, 17758.78
545.7853, 17363.29
546.2675, 17013.42
546.7495, 16698.96
547.2316, 16405.31
547.7137, 16130.58
548.1959, 15875.97
548.6780, 15633.14
549.1601, 15405.49
549.6422, 15214.09
550.1243, 15077.12
550.6064, 14953.54
551.0886, 14825.35
551.5707, 14691.46
552.0528, 14556.44
552.5349, 14418.51
553.0170, 14286.04
553.4991, 14168.28
553.9813, 14065.17
554.4634, 13978.63
554.9455, 13914.48
555.4276, 13859.14
555.9097, 13787.75
556.3918, 13703.75
556.8740, 13621.32
557.3561, 13542.63
557.8382, 13473.36
558.3203, 13424.56
558.8024, 13396.80
559.2845, 13367.38
559.7667, 13317.52
560.2488, 13263.56
560.7309, 13219.45
561.2130, 13194.69
561.6951, 13169.66
562.1772, 13133.85
562.6594, 13096.24
563.1415, 13075.32
563.6236, 13093.13
564.1057, 13094.29
564.5878, 13058.41
565.0699, 12990.85
565.5521, 12945.45
566.0342, 12925.87
566.5163, 12917.04
566.9984, 12909.75
567.4805, 12904.24
567.9626, 12904.27
568.4448, 12910.94
568.9269, 12919.12
569.4090, 12929.72
569.8911, 12937.49
570.3732, 12927.35
570.8553, 12885.51
571.3375, 12835.43
571.8196, 12792.50
572.3017, 12758.61
572.7838, 12741.35
573.2659, 12764.90
573.7480, 12788.27
574.2302, 12783.77
574.7123, 12745.18
575.1944, 12722.21
575.6765, 12736.27
576.1586, 12759.96
576.6407, 12775.26
577.1229, 12776.53
577.6050, 12782.53
578.0871, 12798.74
578.5692, 12815.95
579.0513, 12815.75
579.5334, 12795.79
580.0156, 12773.94
580.4977, 12745.40
580.9798, 12724.31
581.4619, 12762.32
581.9440, 12855.66
582.4261, 12954.24
582.9083, 13033.87
583.3904, 13092.13
583.8725, 13118.81
584.3546, 13109.90
584.8367, 13103.66
585.3188, 13123.37
585.8010, 13160.25
586.2831, 13204.88
586.7652, 13259.24
587.2473, 13315.16
587.7294, 13365.51
588.2115, 13416.32
588.6937, 13482.64
589.1758, 13570.20
589.6579, 13666.12
590.1400, 13769.68
590.6221, 13880.35
591.1042, 13987.49
591.5864, 14088.51
592.0685, 14190.80
592.5506, 14295.79
593.0327, 14404.44
593.5148, 14528.72
593.9969, 14670.38
594.4791, 14825.86
594.9612, 14995.59
595.4433, 15176.33
595.9254, 15358.93
596.4075, 15540.43
596.8896, 15723.95
597.3718, 15911.45
597.8539, 16101.90
598.3360, 16290.90
598.8181, 16492.42
599.3002, 16678.56
599.7823, 16838.68
600.2645, 16973.01
600.7466, 17080.54
601.2287, 17178.88
601.7108, 17233.50
602.1929, 17223.73
602.6750, 17139.82
603.1572, 17016.64
603.6393, 16844.84
604.1214, 16647.82
604.6035, 16449.20
605.0856, 16248.15
605.5677, 16050.42
606.0499, 15857.50
606.5320, 15664.28
607.0141, 15455.25
607.4962, 15236.19
607.9783, 15025.01
608.4604, 14830.99
608.9425, 14651.76
609.4246, 14487.87
609.9067, 14337.96
610.3889, 14204.07
610.8710, 14097.88
611.3531, 14000.14
611.8352, 13897.34
612.3173, 13777.00
612.7994, 13674.37
613.2816, 13592.57
613.7637, 13527.00
614.2458, 13475.75
614.7279, 13447.97
615.2100, 13405.58
615.6921, 13337.48
616.1743, 13256.78
616.6564, 13198.66
617.1385, 13162.89
617.6206, 13129.64
618.1027, 13087.23
618.5848, 13041.63
619.0670, 13003.60
619.5491, 12972.62
620.0312, 12944.36
620.5133, 12914.04
620.9954, 12885.50
621.4775, 12863.21
621.9597, 12849.24
622.4418, 12833.93
622.9239, 12814.27
623.4060, 12791.21
623.8881, 12765.26
624.3702, 12729.84
624.8524, 12700.65
625.3345, 12677.44
625.8166, 12661.38
626.2987, 12657.89
626.7808, 12670.98
627.2629, 12679.45
627.7451, 12674.25
628.2272, 12660.12
628.7093, 12659.79
629.1914, 12672.43
629.6735, 12670.89
630.1556, 12620.75
630.6378, 12551.61
631.1199, 12509.58
631.6020, 12499.30
632.0841, 12492.64
632.5662, 12468.67
633.0483, 12441.34
633.5305, 12423.74
634.0126, 12421.58
634.4947, 12425.44
634.9768, 12434.12
635.4589, 12447.89
635.9410, 12469.05
636.4232, 12512.79
636.9053, 12532.38
637.3874, 12509.50
637.8695, 12459.57
638.3516, 12437.47
638.8337, 12444.87
639.3159, 12458.23
639.7980, 12473.59
640.2801, 12485.08
640.7622, 12468.53
641.2443, 12425.32
641.7264, 12387.02
642.2086, 12376.79
642.6907, 12384.44
643.1728, 12403.62
643.6549, 12438.66
644.1370, 12463.14
644.6191, 12459.27
645.1013, 12443.12
645.5834, 12431.39
646.0655, 12424.86
646.5476, 12424.68
647.0297, 12429.65
647.5118, 12441.26
647.9940, 12466.93
648.4761, 12513.88
648.9582, 12543.84
649.4403, 12539.60
649.9224, 12512.19
650.4045, 12496.19
650.8867, 12490.84
651.3688, 12489.61
651.8509, 12485.96
652.3330, 12484.99
652.8151, 12499.37
