##NAMES=Volborthite
##RRUFFID=R070710
##IDEAL CHEMISTRY=Cu^2+^_3_V^5+^_2_O_7_(OH)_2_&#183;2H_2_O
##LOCALITY=Newmont Gold mine, Carlin District, Elko County, Nevada,  USA
##OWNER=RRUFF
##SOURCE=Michael Scott
##DESCRIPTION=Clusters of olive to yellowish green pseudohexagonal crystals
##STATUS=The identification of this mineral has been confirmed by single-crystal X-ray diffraction.
##URL=rruff.info/R070710
93.77539, 29.88023
94.25751, 28.60407
94.73962, 29.19607
95.22174, 31.37234
95.70386, 34.11056
96.18597, 37.03587
96.66809, 40.22563
97.15021, 43.98197
97.63232, 48.34921
98.11444, 53.19085
98.59656, 58.26478
99.07867, 63.58988
99.56079, 69.25321
100.0429, 75.04948
100.5250, 80.93587
101.0071, 88.03458
101.4893, 96.48244
101.9714, 105.9860
102.4535, 115.5342
102.9356, 124.9248
103.4177, 135.1189
103.8998, 146.9514
104.3820, 161.6205
104.8641, 174.5637
105.3462, 185.1871
105.8283, 193.8249
106.3104, 202.9506
106.7925, 212.9318
107.2747, 222.9143
107.7568, 232.1765
108.2389, 240.7176
108.7210, 248.7047
109.2031, 256.2405
109.6852, 263.4060
110.1674, 269.7621
110.6495, 273.1817
111.1316, 276.8349
111.6137, 283.4359
112.0958, 295.2158
112.5779, 307.9088
113.0601, 320.8006
113.5422, 333.9731
114.0243, 347.3841
114.5064, 361.2151
114.9885, 375.1792
115.4706, 389.1128
115.9528, 403.4830
116.4349, 417.3424
116.9170, 430.1155
117.3991, 441.8889
117.8812, 452.8127
118.3633, 463.2171
118.8455, 472.8227
119.3276, 481.0473
119.8097, 486.9425
120.2918, 491.8888
120.7739, 496.9011
121.2560, 502.5273
121.7382, 507.6629
122.2203, 511.7697
122.7024, 514.8645
123.1845, 517.0035
123.6666, 517.9912
124.1487, 518.1137
124.6309, 517.6249
125.1130, 516.1423
125.5951, 514.5748
126.0772, 513.8209
126.5593, 513.8391
127.0414, 514.2574
127.5236, 514.9192
128.0057, 515.7669
128.4878, 516.7028
128.9699, 517.7638
129.4520, 518.8494
129.9341, 519.7473
130.4162, 520.4506
130.8984, 521.1241
131.3805, 522.2039
131.8626, 523.5265
132.3447, 524.2177
132.8268, 523.5670
133.3089, 521.9525
133.7911, 519.9359
134.2732, 515.9835
134.7553, 510.9884
135.2374, 507.4550
135.7195, 505.3665
136.2016, 503.0155
136.6838, 499.7292
137.1659, 495.5414
137.6480, 490.6236
138.1301, 484.6447
138.6122, 478.4222
139.0943, 473.3468
139.5765, 469.5419
140.0586, 466.2000
140.5407, 462.9898
141.0228, 459.9325
141.5049, 456.6869
141.9870, 453.0030
142.4692, 449.1737
142.9513, 446.2488
143.4334, 444.6739
143.9155, 443.0622
144.3976, 440.3783
144.8797, 435.5083
145.3619, 432.3829
145.8440, 432.0191
146.3261, 433.7324
146.8082, 434.0472
147.2903, 432.4209
147.7724, 430.0176
148.2546, 427.4447
148.7367, 424.0939
149.2188, 421.5045
149.7009, 419.9995
150.1830, 419.5249
150.6651, 419.2320
151.1473, 419.4331
151.6294, 419.6327
152.1115, 419.4792
152.5936, 418.5840
153.0757, 417.7712
153.5578, 417.3841
154.0400, 417.4886
154.5221, 416.7990
155.0042, 414.6020
155.4863, 411.8661
155.9684, 409.4335
156.4505, 406.8202
156.9327, 405.0162
157.4148, 404.6311
157.8969, 405.9051
158.3790, 406.6196
158.8611, 405.7863
159.3432, 404.3722
159.8254, 403.4508
160.3075, 403.8701
160.7896, 404.3351
161.2717, 404.5807
161.7538, 404.7285
162.2359, 403.8803
162.7181, 400.0208
163.2002, 395.3386
163.6823, 392.8697
164.1644, 396.2246
164.6465, 400.2334
165.1286, 401.7294
165.6108, 399.6651
166.0929, 397.8885
166.5750, 398.8773
167.0571, 401.4096
167.5392, 403.2711
168.0213, 402.5990
168.5035, 401.3738
168.9856, 401.1030
169.4677, 402.1674
169.9498, 403.6867
170.4319, 405.3329
170.9140, 407.0052
171.3962, 408.4521
171.8783, 409.7856
172.3604, 410.7229
172.8425, 410.8694
173.3246, 409.9221
173.8067, 408.7421
174.2889, 408.0305
174.7710, 407.7040
175.2531, 407.5008
175.7352, 406.9075
176.2173, 406.4464
176.6994, 406.9256
177.1816, 408.7664
177.6637, 411.1120
178.1458, 413.3880
178.6279, 415.5064
179.1100, 416.9210
179.5921, 416.8069
180.0743, 415.7908
180.5564, 415.1188
181.0385, 415.1646
181.5206, 415.4772
182.0027, 415.2706
182.4848, 414.6176
182.9670, 414.2078
183.4491, 415.2041
183.9312, 416.9118
184.4133, 417.1746
184.8954, 414.8286
185.3775, 411.5568
185.8597, 410.5200
186.3418, 411.6936
186.8239, 413.3087
187.3060, 414.0352
187.7881, 414.0045
188.2702, 413.7207
188.7523, 413.1970
189.2345, 412.5736
189.7166, 412.2992
190.1987, 412.4043
190.6808, 412.3604
191.1629, 411.2260
191.6451, 409.2383
192.1272, 408.4034
192.6093, 409.5891
193.0914, 412.1075
193.5735, 413.8414
194.0556, 414.7560
194.5378, 415.3012
195.0199, 415.6766
195.5020, 415.9033
195.9841, 416.6182
196.4662, 418.1022
196.9483, 420.1730
197.4305, 422.0869
197.9126, 423.8147
198.3947, 425.4425
198.8768, 427.0722
199.3589, 428.7142
199.8410, 429.9760
200.3232, 430.4332
200.8053, 430.3628
201.2874, 431.7884
201.7695, 435.1223
202.2516, 438.6871
202.7337, 440.5267
203.2159, 440.3702
203.6980, 440.5943
204.1801, 441.7607
204.6622, 443.8260
205.1443, 446.4195
205.6264, 449.6520
206.1086, 453.1691
206.5907, 456.7599
207.0728, 460.5088
207.5549, 463.7362
208.0370, 466.1747
208.5191, 467.8725
209.0013, 469.6068
209.4834, 471.3983
209.9655, 473.1891
210.4476, 474.6835
210.9297, 475.5067
211.4118, 477.4887
211.8940, 481.5093
212.3761, 487.4958
212.8582, 492.1314
213.3403, 495.0240
213.8224, 497.2121
214.3045, 499.8049
214.7867, 503.0350
215.2688, 505.9814
215.7509, 508.0968
216.2330, 509.3763
216.7151, 512.4813
217.1972, 518.0046
217.6794, 524.5526
218.1615, 530.6339
218.6436, 536.1998
219.1257, 541.5180
219.6078, 546.3865
220.0899, 550.8355
220.5721, 555.8281
221.0542, 561.3642
221.5363, 567.3776
222.0184, 573.6133
222.5005, 579.7968
222.9826, 587.0328
223.4648, 595.7538
223.9469, 606.1031
224.4290, 615.4914
224.9111, 623.5372
225.3932, 631.1686
225.8753, 639.3829
226.3575, 648.0572
226.8396, 657.5117
227.3217, 667.8456
227.8038, 679.2110
228.2859, 690.0255
228.7680, 699.6950
229.2502, 709.4881
229.7323, 720.5073
230.2144, 733.4075
230.6965, 746.4755
231.1786, 759.4928
231.6607, 772.4625
232.1429, 785.2357
232.6250, 797.6954
233.1071, 810.0917
233.5892, 822.4672
234.0713, 834.6471
234.5534, 847.1345
235.0356, 860.1971
235.5177, 873.6863
235.9998, 886.2865
236.4819, 897.1891
236.9640, 908.2520
237.4461, 921.3251
237.9283, 937.9075
238.4104, 953.4812
238.8925, 967.4822
239.3746, 979.9395
239.8567, 990.3297
240.3388, 997.7466
240.8210, 1004.249
241.3031, 1011.802
241.7852, 1022.573
242.2673, 1029.921
242.7494, 1032.387
243.2315, 1030.289
243.7137, 1027.442
244.1958, 1024.483
244.6779, 1019.995
245.1600, 1013.034
245.6421, 1003.642
246.1242, 991.6248
246.6064, 976.3272
247.0885, 958.1783
247.5706, 939.9973
248.0527, 922.0145
248.5348, 903.9188
249.0169, 885.8631
249.4990, 868.1608
249.9812, 849.5311
250.4633, 829.5793
250.9454, 808.5911
251.4275, 787.6346
251.9096, 766.1157
252.3917, 745.7543
252.8739, 728.0997
253.3560, 714.4620
253.8381, 699.9836
254.3202, 683.8489
254.8023, 666.6453
255.2844, 650.8222
255.7666, 636.6008
256.2487, 623.4069
256.7308, 611.2560
257.2129, 600.4930
257.6950, 589.6013
258.1772, 578.3829
258.6593, 567.0804
259.1414, 555.8971
259.6235, 544.2660
260.1056, 533.7242
260.5877, 525.0754
261.0699, 519.3527
261.5520, 512.3891
262.0341, 503.4305
262.5162, 493.6829
262.9983, 485.4442
263.4804, 478.9357
263.9626, 473.5948
264.4447, 469.6393
264.9268, 467.7008
265.4089, 463.9589
265.8910, 457.5066
266.3731, 450.0957
266.8553, 444.7679
267.3374, 442.2294
267.8195, 439.9547
268.3016, 437.1378
268.7837, 433.6861
269.2658, 430.0580
269.7480, 425.9153
270.2301, 422.0616
270.7122, 420.0295
271.1943, 420.4235
271.6764, 420.3895
272.1585, 418.7932
272.6407, 415.6308
273.1228, 413.2739
273.6049, 411.9919
274.0870, 411.0285
274.5691, 409.2870
275.0512, 406.4919
275.5334, 404.3510
276.0155, 403.4717
276.4976, 403.7292
276.9797, 403.7620
277.4618, 403.4911
277.9439, 403.2147
278.4261, 403.3843
278.9081, 404.0934
279.3903, 404.3298
279.8724, 403.7431
280.3545, 402.5270
280.8366, 401.3228
281.3187, 399.9915
281.8008, 399.3033
282.2830, 400.0611
282.7651, 402.2860
283.2472, 404.9673
283.7293, 408.2433
284.2114, 411.6548
284.6935, 413.5795
285.1757, 413.9011
285.6578, 413.9503
286.1399, 414.7639
286.6220, 416.2677
287.1041, 417.3281
287.5862, 417.4620
288.0684, 417.5777
288.5505, 420.0728
289.0326, 424.9655
289.5147, 429.5063
289.9968, 431.4975
290.4789, 431.4516
290.9611, 432.3751
291.4432, 434.6932
291.9253, 437.6006
292.4074, 439.7663
292.8895, 441.2826
293.3716, 442.8921
293.8538, 444.8341
294.3359, 447.1721
294.8180, 450.4527
295.3001, 454.8918
295.7822, 459.1447
296.2643, 461.0067
296.7465, 461.0069
297.2286, 461.5977
297.7107, 464.2378
298.1928, 468.1617
298.6749, 471.7952
299.1570, 475.1473
299.6392, 478.3319
300.1213, 481.4934
300.6034, 484.5554
301.0855, 487.1612
301.5676, 488.8334
302.0497, 490.2377
302.5319, 492.4583
303.0140, 495.4601
303.4961, 498.3794
303.9782, 500.2706
304.4603, 501.6593
304.9424, 503.6110
305.4246, 506.8316
305.9067, 510.2199
306.3888, 512.9210
306.8709, 514.8566
307.3530, 515.6966
307.8351, 514.2200
308.3173, 511.8714
308.7994, 510.4612
309.2815, 510.6646
309.7636, 511.2223
310.2457, 511.1439
310.7278, 510.6267
311.2100, 510.2016
311.6921, 510.2227
312.1742, 510.4235
312.6563, 510.4288
313.1384, 509.9903
313.6205, 510.1488
314.1027, 512.6112
314.5848, 515.9802
315.0669, 517.8459
315.5490, 515.3118
316.0311, 512.3863
316.5132, 511.6786
316.9954, 513.5774
317.4775, 515.6812
317.9596, 517.0284
318.4417, 517.9848
318.9238, 518.9797
319.4059, 519.2548
319.8881, 520.3865
320.3702, 523.5513
320.8523, 528.6659
321.3344, 533.0437
321.8165, 535.0795
322.2986, 536.5140
322.7808, 538.6705
323.2629, 541.7452
323.7450, 545.6349
324.2271, 550.9632
324.7092, 557.3219
325.1913, 562.8665
325.6735, 565.7596
326.1556, 568.9212
326.6377, 573.8742
327.1198, 582.1930
327.6019, 590.2183
328.0840, 597.5162
328.5662, 604.3439
329.0483, 611.5576
329.5304, 619.5263
330.0125, 627.4617
330.4946, 634.9483
330.9767, 641.4001
331.4589, 649.0607
331.9410, 658.7855
332.4231, 669.3388
332.9052, 678.9886
333.3873, 687.1340
333.8694, 695.4059
334.3516, 704.0131
334.8337, 712.9694
335.3158, 722.5782
335.7979, 733.0060
336.2800, 743.7818
336.7621, 754.3424
337.2443, 764.8035
337.7264, 774.9696
338.2085, 784.9571
338.6906, 794.6448
339.1727, 803.7839
339.6548, 812.2737
340.1370, 820.5193
340.6191, 829.1354
341.1012, 838.1471
341.5833, 846.2219
342.0654, 853.0057
342.5475, 858.9310
343.0297, 865.1144
343.5118, 871.6504
343.9939, 877.3871
344.4760, 882.0936
344.9581, 885.6298
345.4402, 886.3445
345.9224, 883.7614
346.4045, 879.6758
346.8866, 877.0133
347.3687, 875.5238
347.8508, 872.5226
348.3329, 866.8350
348.8151, 858.8874
349.2972, 849.7542
349.7793, 839.4783
350.2614, 828.1412
350.7435, 815.9353
351.2256, 802.8990
351.7078, 788.7841
352.1899, 773.2091
352.6720, 757.0443
353.1541, 741.3803
353.6362, 725.9837
354.1183, 710.3008
354.6005, 693.9857
355.0826, 677.1698
355.5647, 659.4066
356.0468, 639.9871
356.5289, 621.5829
357.0110, 606.6620
357.4932, 594.3720
357.9753, 582.7216
358.4574, 570.6353
358.9395, 558.8126
359.4216, 548.0490
359.9037, 538.4719
360.3859, 529.2380
360.8680, 519.8402
361.3501, 510.6044
361.8322, 501.9768
362.3143, 493.8159
362.7964, 486.5593
363.2786, 480.6951
363.7607, 476.1138
364.2428, 471.6317
364.7249, 467.2250
365.2070, 462.6051
365.6891, 457.5739
366.1713, 451.6649
366.6534, 445.8656
367.1355, 440.8694
367.6176, 436.1958
368.0997, 430.5385
368.5818, 422.3454
369.0640, 414.3515
369.5461, 407.6508
370.0282, 403.0255
370.5103, 397.8245
370.9924, 391.6955
371.4745, 385.1219
371.9567, 378.6823
372.4388, 372.2712
372.9209, 366.2302
373.4030, 360.4935
373.8851, 355.0277
374.3672, 350.5460
374.8494, 347.5213
375.3315, 344.7662
375.8136, 341.2723
376.2957, 336.6917
376.7778, 332.3585
377.2599, 328.3315
377.7421, 324.6986
378.2242, 321.9777
378.7063, 320.3990
379.1884, 318.8656
379.6705, 316.4764
380.1526, 313.1982
380.6348, 311.3501
381.1169, 311.4109
381.5990, 311.9001
382.0811, 310.2264
382.5632, 306.5706
383.0453, 303.6442
383.5275, 303.0989
384.0096, 304.0020
384.4917, 303.4723
384.9738, 301.4711
385.4559, 299.4528
385.9380, 298.9726
386.4202, 299.4872
386.9023, 299.5796
387.3844, 298.7851
387.8665, 297.6004
388.3486, 296.5625
388.8307, 295.6439
389.3129, 294.7354
389.7950, 293.2791
390.2771, 292.0251
390.7592, 292.0242
391.2413, 293.6407
391.7234, 295.3408
392.2056, 296.0392
392.6877, 296.1215
393.1698, 296.2044
393.6519, 296.9131
394.1340, 297.3591
394.6161, 296.7559
395.0983, 295.1404
395.5804, 294.0365
396.0625, 294.4834
396.5446, 295.3820
397.0267, 295.9041
397.5089, 295.4405
397.9910, 295.1241
398.4731, 294.9580
398.9552, 295.0580
399.4373, 295.7730
399.9194, 298.2452
400.4016, 300.3552
400.8837, 301.1040
401.3658, 299.6355
401.8479, 299.4524
402.3300, 301.2688
402.8121, 303.9232
403.2942, 306.0606
403.7763, 307.5773
404.2585, 308.7485
404.7406, 309.4141
405.2227, 309.6785
405.7048, 310.6053
406.1869, 312.2360
406.6690, 314.4134
407.1512, 317.2542
407.6333, 320.9062
408.1154, 323.9583
408.5975, 326.2152
409.0796, 327.9101
409.5617, 329.3245
410.0439, 330.4367
410.5260, 332.0996
411.0081, 334.8207
411.4902, 338.4307
411.9723, 342.5724
412.4544, 347.3672
412.9366, 351.8730
413.4187, 354.7390
413.9008, 356.6039
414.3829, 359.3002
414.8650, 363.6320
415.3471, 368.7553
415.8293, 373.7735
416.3114, 378.6976
416.7935, 383.3622
417.2756, 387.3449
417.7577, 391.2002
418.2398, 395.3676
418.7220, 399.9077
419.2041, 404.9748
419.6862, 410.7313
420.1683, 417.1656
420.6504, 424.0705
421.1325, 432.6447
421.6147, 440.7026
422.0968, 446.8504
422.5789, 451.2115
423.0610, 456.0790
423.5431, 461.8745
424.0252, 468.5307
424.5074, 476.1421
424.9895, 485.7767
425.4716, 494.7584
425.9537, 502.0163
426.4358, 508.5958
426.9179, 516.9432
427.4001, 529.1884
427.8822, 540.6465
428.3643, 549.5897
428.8464, 555.4954
429.3285, 562.6002
429.8106, 571.4900
430.2928, 580.7678
430.7749, 588.8365
431.2570, 595.0198
431.7391, 602.7999
432.2212, 613.2040
432.7033, 625.3527
433.1855, 636.8087
433.6676, 647.6467
434.1497, 657.1708
434.6318, 663.9907
435.1139, 668.7577
435.5960, 675.8300
436.0782, 685.8830
436.5603, 696.2968
437.0424, 703.9401
437.5245, 709.2491
438.0066, 713.5419
438.4887, 717.0690
438.9709, 720.0159
439.4530, 722.5914
439.9351, 724.8087
440.4172, 726.6688
440.8993, 728.7049
441.3814, 730.1677
441.8636, 730.1189
442.3457, 728.0709
442.8278, 725.4834
443.3099, 723.0658
443.7920, 720.6959
444.2741, 718.1193
444.7563, 716.0928
445.2384, 713.1011
445.7205, 708.3442
446.2026, 701.7982
446.6847, 694.7830
447.1668, 687.5448
447.6490, 679.9914
448.1311, 672.0462
448.6132, 663.2843
449.0953, 654.7513
449.5774, 646.4495
450.0595, 638.4300
450.5417, 630.9783
451.0238, 624.8582
451.5059, 618.0488
451.9880, 609.5336
452.4701, 599.0989
452.9522, 590.4007
453.4344, 583.6710
453.9165, 577.8209
454.3986, 571.7187
454.8807, 565.2997
455.3628, 559.5240
455.8449, 554.5146
456.3271, 550.1544
456.8092, 546.1036
457.2913, 542.3552
457.7734, 539.3019
458.2555, 537.2020
458.7376, 535.9152
459.2198, 535.3100
459.7019, 535.4237
460.1840, 535.4836
460.6661, 534.4530
461.1482, 532.9864
461.6303, 532.1669
462.1125, 532.4332
462.5946, 533.2966
463.0767, 534.3285
463.5588, 535.6635
464.0409, 537.6724
464.5230, 541.2450
465.0052, 544.9594
465.4873, 547.5675
465.9694, 548.5020
466.4515, 550.8984
466.9336, 556.7497
467.4157, 563.8165
467.8979, 569.9874
468.3800, 574.9351
468.8621, 579.0300
469.3442, 581.3510
469.8263, 582.6805
470.3084, 586.4279
470.7906, 594.2625
471.2727, 601.9713
471.7548, 607.8004
472.2369, 611.5331
472.7190, 614.9948
473.2011, 618.5256
473.6833, 621.2689
474.1654, 622.0331
474.6475, 620.7548
475.1296, 619.1428
475.6117, 617.9832
476.0938, 616.2924
476.5760, 611.2297
477.0581, 602.9929
477.5402, 594.4188
478.0223, 587.7756
478.5044, 581.8918
478.9865, 574.4927
479.4687, 565.3806
479.9508, 555.1828
480.4329, 543.3290
480.9150, 531.1091
481.3971, 520.6171
481.8792, 514.3452
482.3614, 507.9784
482.8435, 498.1700
483.3256, 486.0433
483.8077, 475.1710
484.2898, 467.8743
484.7719, 461.5227
485.2541, 454.7612
485.7362, 447.2835
486.2183, 440.4373
486.7004, 434.4459
487.1825, 429.1477
487.6646, 424.3555
488.1468, 420.5766
488.6289, 416.6296
489.1110, 412.1092
489.5931, 407.3764
490.0752, 403.5278
490.5573, 400.6180
491.0395, 398.4550
491.5216, 397.2303
492.0037, 396.9706
492.4858, 395.7940
492.9679, 393.5195
493.4500, 391.0207
493.9322, 389.0624
494.4143, 387.6525
494.8964, 387.0667
495.3785, 387.6259
495.8606, 388.5547
496.3427, 388.4179
496.8249, 387.5441
497.3070, 387.1880
497.7891, 389.0595
498.2712, 391.2232
498.7533, 391.1732
499.2354, 388.7776
499.7176, 386.8004
500.1997, 387.1625
500.6818, 388.5836
501.1639, 389.8685
501.6460, 390.5670
502.1281, 391.3764
502.6103, 392.4155
503.0924, 393.7135
503.5745, 395.3155
504.0566, 397.4543
504.5387, 399.6680
505.0208, 402.1272
505.5030, 404.8966
505.9851, 406.1418
506.4672, 404.6538
506.9493, 403.2622
507.4314, 404.3805
507.9135, 408.9790
508.3957, 411.4986
508.8778, 411.0775
509.3599, 409.2758
509.8420, 408.8721
510.3241, 409.8301
510.8062, 410.4057
511.2884, 410.0890
511.7705, 408.8675
512.2526, 406.6430
512.7347, 403.4384
513.2168, 399.5721
513.6989, 394.8397
514.1810, 389.7503
514.6631, 385.1920
515.1453, 381.4654
515.6274, 377.3211
516.1095, 371.6678
516.5916, 365.1078
517.0737, 358.4452
517.5558, 351.6657
518.0380, 345.1175
518.5201, 338.7061
519.0022, 332.5541
519.4843, 327.2101
519.9664, 323.5575
520.4485, 320.0817
520.9307, 316.2092
521.4128, 311.7845
521.8949, 307.5470
522.3770, 303.6585
522.8591, 299.7762
523.3412, 295.2364
523.8234, 289.6456
524.3055, 285.7329
524.7876, 284.3933
525.2697, 284.3794
525.7518, 282.7357
526.2339, 279.4679
526.7161, 276.1777
527.1982, 273.5711
527.6803, 271.5301
528.1624, 269.7934
528.6445, 268.3423
529.1266, 267.0188
529.6088, 265.7155
530.0909, 264.4328
530.5730, 263.2538
531.0551, 262.3116
531.5372, 261.0917
532.0193, 258.7633
532.5015, 256.0267
532.9836, 254.0008
533.4657, 253.5522
533.9478, 253.3232
534.4299, 252.9623
534.9120, 252.4557
535.3942, 251.7653
535.8763, 250.6968
536.3584, 249.6478
536.8405, 248.8494
537.3226, 248.4681
537.8047, 247.6450
538.2869, 246.1404
538.7690, 244.5434
539.2511, 243.5939
539.7332, 243.3688
540.2153, 243.1431
540.6974, 242.8373
541.1796, 242.3985
541.6617, 241.5688
542.1438, 240.4022
542.6259, 239.4177
543.1080, 239.0459
543.5901, 238.9673
544.0723, 238.5954
544.5544, 237.9454
545.0365, 237.4203
545.5186, 237.5077
546.0007, 237.7722
546.4828, 237.7246
546.9650, 237.1154
547.4471, 236.5889
547.9292, 236.2830
548.4113, 236.2545
548.8934, 236.5822
549.3755, 237.9936
549.8577, 238.9668
550.3398, 239.0793
550.8219, 238.4710
551.3040, 237.8600
551.7861, 237.2430
552.2682, 236.6112
552.7504, 235.9756
553.2325, 235.3443
553.7146, 234.5535
554.1967, 233.5359
554.6788, 232.5595
555.1609, 231.8791
555.6431, 231.4921
556.1252, 231.2878
556.6073, 231.2397
557.0894, 231.3896
557.5715, 232.0316
558.0536, 232.9549
558.5358, 233.5420
559.0179, 233.2708
559.5000, 232.7039
559.9821, 232.2570
560.4642, 231.9252
560.9464, 231.6488
561.4285, 231.5204
561.9106, 231.3465
562.3927, 230.9583
562.8748, 230.1930
563.3569, 229.6442
563.8391, 229.4722
564.3212, 229.4895
564.8033, 229.5283
565.2854, 229.5231
565.7675, 229.6826
566.2496, 230.1018
566.7318, 230.6593
567.2139, 231.1347
567.6960, 231.5918
568.1781, 231.5632
568.6602, 230.5615
569.1423, 228.9760
569.6245, 228.3870
570.1066, 228.7785
570.5887, 229.2846
571.0708, 229.2144
571.5529, 228.8477
572.0350, 228.7531
572.5172, 229.0945
572.9993, 229.1083
573.4814, 227.5705
573.9635, 225.6155
574.4456, 224.6561
574.9277, 226.5981
575.4099, 227.9400
575.8920, 227.1002
576.3741, 224.9059
576.8562, 223.6568
577.3383, 224.0500
577.8204, 224.8152
578.3026, 225.8630
578.7847, 227.1636
579.2668, 227.7122
579.7489, 227.3276
580.2310, 226.6356
580.7131, 225.7696
581.1953, 224.7460
581.6774, 225.0572
582.1595, 227.0576
582.6416, 229.2161
583.1237, 229.5248
583.6058, 228.4744
584.0880, 227.4241
584.5701, 226.6874
585.0522, 226.2277
585.5343, 226.4012
586.0164, 226.8374
586.4985, 226.6387
586.9807, 224.5056
587.4628, 222.4453
587.9449, 221.3309
588.4270, 221.2056
588.9091, 221.9853
589.3912, 225.1724
589.8734, 227.9904
590.3555, 228.9492
