##NAMES=Volborthite
##RRUFFID=R050249
##IDEAL CHEMISTRY=Cu^2+^_3_V^5+^_2_O_7_(OH)_2_&#183;2H_2_O
##LOCALITY=Carlin Gold mine, Elko, Lynn District, Eureka County, Nevada, USA
##OWNER=RRUFF
##SOURCE=Marcus Origlieri
##DESCRIPTION=Green lamellar
##STATUS=The identification of this mineral has been confirmed by X-ray diffraction.
##URL=rruff.info/R050249
136.2005, 492.5505
136.6827, 504.6084
137.1648, 514.4553
137.6469, 520.5695
138.1290, 523.1074
138.6111, 524.5810
139.0932, 524.6237
139.5753, 524.1692
140.0575, 524.2720
140.5396, 524.7734
141.0217, 526.2669
141.5038, 529.6810
141.9859, 536.5551
142.4680, 539.4987
142.9502, 536.4868
143.4323, 530.0330
143.9144, 527.2623
144.3965, 530.3540
144.8786, 534.3493
145.3607, 536.5043
145.8429, 534.0908
146.3250, 534.3352
146.8071, 538.9302
147.2892, 547.7252
147.7713, 554.3976
148.2534, 556.8982
148.7356, 558.4991
149.2177, 561.8802
149.6998, 570.0545
150.1819, 576.9939
150.6640, 581.2695
151.1461, 581.9589
151.6283, 583.6990
152.1104, 587.0768
152.5925, 591.5098
153.0746, 596.1133
153.5567, 603.6807
154.0388, 609.0587
154.5210, 609.9379
155.0031, 601.5998
155.4852, 596.2623
155.9673, 598.2859
156.4494, 605.2844
156.9315, 609.8202
157.4137, 606.2786
157.8958, 602.0300
158.3779, 601.5644
158.8600, 610.5098
159.3421, 618.8928
159.8242, 624.1929
160.3064, 626.3594
160.7885, 626.7032
161.2706, 625.1967
161.7527, 622.2670
162.2348, 618.3582
162.7169, 608.9916
163.1991, 602.1812
163.6812, 603.9088
164.1633, 616.3051
164.6454, 627.2031
165.1275, 626.9904
165.6096, 621.2587
166.0918, 619.9006
166.5739, 635.4755
167.0560, 652.9280
167.5381, 658.7599
168.0202, 645.4188
168.5023, 631.1464
168.9845, 629.4678
169.4666, 637.7703
169.9487, 647.3255
170.4308, 654.3536
170.9129, 659.3201
171.3950, 662.5862
171.8772, 662.4112
172.3593, 662.2939
172.8414, 666.5934
173.3235, 674.9573
173.8056, 682.6467
174.2877, 685.4716
174.7699, 685.0150
175.2520, 684.1624
175.7341, 683.9977
176.2162, 684.1044
176.6983, 683.8879
177.1804, 683.3074
177.6626, 682.6452
178.1447, 680.0858
178.6268, 677.0669
179.1089, 678.4313
179.5910, 692.5435
180.0731, 712.1149
180.5553, 721.3759
181.0374, 716.9785
181.5195, 707.1092
182.0016, 701.3444
182.4837, 699.5434
182.9658, 700.1812
183.4479, 702.7653
183.9301, 707.0911
184.4122, 713.0519
184.8943, 722.6149
185.3764, 731.7682
185.8585, 730.1622
186.3406, 717.5560
186.8228, 706.3901
187.3049, 711.2928
187.7870, 729.3154
188.2691, 742.2417
188.7512, 743.5133
189.2333, 736.0644
189.7155, 728.2513
190.1976, 719.6769
190.6797, 713.0438
191.1618, 713.4611
191.6439, 720.6127
192.1260, 725.9395
192.6082, 723.8280
193.0903, 715.5578
193.5724, 714.1545
194.0545, 721.1200
194.5366, 731.3223
195.0187, 736.7550
195.5009, 737.1550
195.9830, 736.1563
196.4651, 735.0471
196.9472, 733.8204
197.4293, 733.6426
197.9114, 734.6595
198.3936, 736.6450
198.8757, 738.8731
199.3578, 741.1062
199.8399, 744.6746
200.3220, 751.6284
200.8041, 762.5778
201.2863, 770.2143
201.7684, 772.4908
202.2505, 770.9955
202.7326, 771.8410
203.2147, 775.2081
203.6968, 780.4010
204.1790, 788.0726
204.6611, 799.3454
205.1432, 806.7468
205.6253, 807.0805
206.1074, 801.2474
206.5895, 800.1762
207.0716, 804.7967
207.5538, 812.4952
208.0359, 820.7507
208.5180, 829.8303
209.0001, 838.6796
209.4822, 847.9317
209.9643, 857.9654
210.4465, 861.4520
210.9286, 855.0959
211.4107, 845.8866
211.8928, 845.3050
212.3749, 855.8564
212.8570, 868.5104
213.3392, 881.0991
213.8213, 894.8237
214.3034, 902.3668
214.7855, 901.0944
215.2676, 895.1464
215.7497, 893.7957
216.2319, 897.8328
216.7140, 904.8727
217.1961, 915.0231
217.6782, 930.7547
218.1603, 941.1212
218.6424, 943.7072
219.1246, 940.8484
219.6067, 941.1834
220.0888, 945.9174
220.5709, 951.9774
221.0530, 957.4575
221.5351, 961.6239
222.0173, 966.8977
222.4994, 973.3367
222.9815, 981.0600
223.4636, 990.5477
223.9457, 1002.275
224.4278, 1015.255
224.9100, 1029.312
225.3921, 1045.841
225.8742, 1059.994
226.3563, 1068.977
226.8384, 1072.853
227.3205, 1085.189
227.8026, 1110.474
228.2848, 1139.573
228.7669, 1162.550
229.2490, 1175.945
229.7311, 1190.219
230.2132, 1207.855
230.6953, 1229.652
231.1775, 1249.558
231.6596, 1265.172
232.1417, 1280.795
232.6238, 1302.432
233.1059, 1334.348
233.5880, 1364.976
234.0702, 1390.723
234.5523, 1410.286
235.0344, 1430.507
235.5165, 1452.142
235.9986, 1473.923
236.4807, 1493.913
236.9629, 1511.107
237.4450, 1527.819
237.9271, 1544.602
238.4092, 1560.509
238.8913, 1579.343
239.3734, 1606.106
239.8556, 1634.310
240.3377, 1647.750
240.8198, 1636.635
241.3019, 1624.957
241.7840, 1623.722
242.2661, 1639.646
242.7483, 1651.230
243.2304, 1658.186
243.7125, 1660.642
244.1946, 1659.185
244.6767, 1654.769
245.1588, 1645.125
245.6410, 1628.188
246.1231, 1600.287
246.6052, 1573.767
247.0873, 1551.192
247.5694, 1530.769
248.0515, 1503.050
248.5337, 1461.730
249.0158, 1421.329
249.4979, 1392.530
249.9800, 1384.199
250.4621, 1367.990
250.9442, 1338.492
251.4263, 1297.750
251.9085, 1259.765
252.3906, 1223.758
252.8727, 1191.387
253.3548, 1164.959
253.8369, 1147.157
254.3190, 1128.644
254.8012, 1107.307
255.2833, 1083.615
255.7654, 1062.293
256.2475, 1044.314
256.7296, 1027.462
257.2118, 1009.398
257.6939, 989.1445
258.1760, 969.7584
258.6581, 951.6501
259.1402, 934.6771
259.6223, 919.8975
260.1045, 908.0752
260.5866, 897.2880
261.0687, 885.3279
261.5508, 871.8348
262.0329, 858.3306
262.5150, 844.9477
262.9971, 831.7020
263.4792, 819.9797
263.9614, 809.7635
264.4435, 801.2602
264.9256, 795.6071
265.4077, 794.8835
265.8898, 790.8699
266.3719, 780.3260
266.8541, 762.8612
267.3362, 746.8425
267.8183, 730.9484
268.3004, 718.4046
268.7825, 715.3342
269.2646, 724.8359
269.7468, 733.0724
270.2289, 735.1234
270.7110, 730.5829
271.1931, 727.6384
271.6752, 727.1130
272.1573, 726.9302
272.6395, 723.1484
273.1216, 714.4521
273.6037, 708.0082
274.0858, 708.2266
274.5679, 715.6234
275.0500, 715.8654
275.5322, 706.4554
276.0143, 694.1304
276.4964, 690.4460
276.9785, 696.9952
277.4606, 702.4306
277.9427, 701.1168
278.4249, 692.8333
278.9070, 687.0875
279.3891, 684.3862
279.8712, 683.1389
280.3533, 679.9984
280.8354, 674.5621
281.3176, 671.6609
281.7997, 675.3331
282.2818, 685.1580
282.7639, 690.5056
283.2460, 690.4024
283.7281, 687.6993
284.2103, 686.7763
284.6924, 687.6716
285.1745, 688.6953
285.6566, 688.6868
286.1387, 687.8823
286.6208, 688.4409
287.1030, 690.8206
287.5851, 693.5969
288.0672, 693.2688
288.5493, 690.0654
289.0314, 689.5859
289.5135, 698.0876
289.9957, 712.6646
290.4778, 719.6276
290.9599, 716.8094
291.4420, 709.9666
291.9241, 706.1616
292.4063, 705.3470
292.8884, 707.4114
293.3705, 715.1359
293.8526, 725.8237
294.3347, 731.3574
294.8168, 730.3044
295.2990, 726.6022
295.7811, 723.9835
296.2632, 722.6622
296.7453, 723.7471
297.2274, 727.6228
297.7095, 734.3813
298.1917, 745.4575
298.6738, 762.1519
299.1559, 778.4537
299.6380, 787.3517
300.1201, 789.8956
300.6022, 789.4832
301.0844, 783.4674
301.5665, 777.0300
302.0486, 779.8602
302.5307, 795.1890
303.0128, 810.6479
303.4949, 811.1885
303.9771, 801.6801
304.4592, 795.1705
304.9413, 802.5304
305.4234, 814.7363
305.9055, 821.7897
306.3876, 822.3438
306.8697, 819.1056
307.3518, 810.8884
307.8340, 800.3610
308.3161, 793.3527
308.7982, 793.4818
309.2803, 797.8714
309.7624, 805.2769
310.2445, 816.7756
310.7267, 826.2615
311.2088, 828.9590
311.6909, 827.1696
312.1730, 824.9689
312.6551, 824.4575
313.1372, 823.9408
313.6194, 822.5878
314.1015, 820.4943
314.5836, 816.6536
315.0657, 808.9988
315.5478, 799.5720
316.0299, 791.5779
316.5121, 784.8379
316.9942, 780.7438
317.4763, 781.2972
317.9584, 788.1133
318.4405, 792.4389
318.9226, 787.8879
319.4048, 780.0671
319.8869, 776.4031
320.3690, 783.0587
320.8511, 790.4067
321.3332, 794.9757
321.8153, 796.0134
322.2975, 796.8136
322.7796, 797.2045
323.2617, 797.9099
323.7438, 799.7875
324.2259, 800.1346
324.7080, 804.3715
325.1902, 816.5587
325.6723, 839.9404
326.1544, 854.8813
326.6365, 850.2604
327.1186, 840.7938
327.6007, 842.1287
328.0829, 862.7453
328.5650, 884.6035
329.0471, 907.6191
329.5292, 933.4092
330.0113, 944.7490
330.4934, 926.9899
330.9756, 905.1947
331.4577, 904.2337
331.9398, 939.8111
332.4219, 970.2280
332.9040, 985.8110
333.3861, 986.6205
333.8683, 992.9294
334.3504, 1007.501
334.8325, 1024.126
335.3146, 1036.075
335.7967, 1039.990
336.2788, 1049.172
336.7610, 1068.339
337.2431, 1095.555
337.7252, 1115.229
338.2073, 1125.039
338.6894, 1132.217
339.1715, 1141.543
339.6537, 1152.615
340.1358, 1169.108
340.6179, 1193.855
341.1000, 1223.677
341.5821, 1245.840
342.0642, 1260.055
342.5464, 1269.147
343.0285, 1273.540
343.5106, 1273.496
343.9927, 1275.827
344.4748, 1282.594
344.9569, 1291.111
345.4391, 1295.150
345.9212, 1294.684
346.4033, 1293.886
346.8854, 1298.167
347.3675, 1304.941
347.8496, 1304.002
348.3318, 1291.615
348.8139, 1275.863
349.2960, 1271.027
349.7781, 1274.895
350.2602, 1274.041
350.7423, 1255.243
351.2244, 1227.278
351.7065, 1206.348
352.1887, 1196.032
352.6708, 1187.558
353.1529, 1172.059
353.6350, 1151.201
354.1171, 1129.567
354.5992, 1110.560
355.0814, 1091.522
355.5635, 1068.399
356.0456, 1039.558
356.5277, 1012.574
357.0098, 994.3806
357.4919, 981.4084
357.9741, 967.5345
358.4562, 947.6407
358.9383, 927.8812
359.4204, 911.9080
359.9025, 900.1773
360.3846, 890.1489
360.8668, 881.9637
361.3489, 874.4755
361.8310, 866.3655
362.3131, 857.3131
362.7952, 847.4689
363.2773, 836.1464
363.7595, 823.2219
364.2416, 812.3231
364.7237, 807.3370
365.2058, 803.1216
365.6879, 795.4537
366.1700, 776.3466
366.6522, 761.6979
367.1343, 757.2126
367.6164, 762.0872
368.0985, 761.3683
368.5806, 749.0511
369.0627, 735.4833
369.5449, 726.8145
370.0270, 729.1286
370.5091, 726.8120
370.9912, 716.6423
371.4733, 700.8915
371.9554, 688.7112
372.4376, 680.4738
372.9197, 675.2571
373.4018, 673.2336
373.8839, 676.1511
374.3660, 676.7156
374.8481, 674.2174
375.3303, 669.5416
375.8124, 664.4717
376.2945, 658.7935
376.7766, 653.3728
377.2587, 648.7941
377.7408, 645.1467
378.2230, 640.3233
378.7051, 633.5643
379.1872, 627.1904
379.6693, 625.0938
380.1514, 627.1904
380.6335, 630.1316
381.1157, 634.0021
381.5978, 637.7676
382.0799, 636.4485
382.5620, 629.5999
383.0441, 621.4713
383.5262, 617.1079
384.0084, 615.3915
384.4905, 612.8474
384.9726, 606.4080
385.4547, 599.5742
385.9368, 598.2994
386.4189, 602.3049
386.9011, 606.8414
387.3832, 609.6307
387.8653, 610.3965
388.3474, 608.2338
388.8295, 599.4426
389.3116, 591.9901
389.7938, 592.8937
390.2759, 600.6843
390.7580, 609.2354
391.2401, 617.1836
391.7222, 623.4644
392.2043, 627.2712
392.6865, 628.8944
393.1686, 627.1584
393.6507, 618.3597
394.1328, 605.9452
394.6149, 597.0744
395.0970, 595.6818
395.5792, 596.9609
396.0613, 599.2258
396.5434, 602.6963
397.0255, 605.9888
397.5076, 609.3434
397.9897, 612.3147
398.4718, 614.2493
398.9539, 611.4783
399.4361, 611.7563
399.9182, 618.1758
400.4003, 631.8370
400.8824, 640.9946
401.3645, 644.8502
401.8466, 644.9536
402.3288, 641.6770
402.8109, 631.6000
403.2930, 626.7006
403.7751, 630.5339
404.2572, 641.2740
404.7393, 647.5656
405.2215, 648.1022
405.7036, 648.1196
406.1857, 651.1513
406.6678, 657.2859
407.1499, 665.4666
407.6320, 676.5749
408.1142, 687.9957
408.5963, 693.8246
409.0784, 694.0808
409.5605, 692.6349
410.0426, 689.7109
410.5247, 686.6282
411.0069, 688.4556
411.4890, 696.0550
411.9711, 705.7855
412.4532, 714.7377
412.9353, 722.5650
413.4174, 728.5105
413.8996, 729.6526
414.3817, 730.0304
414.8638, 734.8160
415.3459, 744.0305
415.8280, 754.3882
416.3102, 762.7230
416.7923, 771.1132
417.2744, 782.3996
417.7565, 802.4213
418.2386, 820.7015
418.7207, 830.1251
419.2029, 832.2774
419.6850, 834.9706
420.1671, 837.2932
420.6492, 843.6341
421.1313, 857.7686
421.6134, 889.1931
422.0956, 913.8960
422.5777, 922.8827
423.0598, 922.3694
423.5419, 927.1171
424.0240, 938.2438
424.5061, 954.8770
424.9883, 978.6583
425.4704, 1013.062
425.9525, 1041.065
426.4346, 1059.342
426.9167, 1074.007
427.3988, 1092.517
427.8810, 1116.754
428.3631, 1140.305
428.8452, 1161.337
429.3273, 1180.141
429.8094, 1199.198
430.2915, 1218.089
430.7737, 1239.072
431.2558, 1265.612
431.7379, 1297.830
432.2200, 1325.998
432.7021, 1348.228
433.1842, 1366.101
433.6664, 1382.673
434.1485, 1397.880
434.6306, 1411.968
435.1127, 1421.458
435.5948, 1430.225
436.0769, 1450.184
436.5591, 1484.513
437.0412, 1518.667
437.5233, 1535.405
438.0054, 1540.609
438.4875, 1547.380
438.9696, 1569.404
439.4518, 1590.014
439.9339, 1591.478
440.4160, 1574.207
440.8981, 1559.220
441.3802, 1561.441
441.8623, 1569.875
442.3444, 1574.153
442.8265, 1569.030
443.3087, 1561.993
443.7908, 1557.014
444.2729, 1552.360
444.7550, 1541.477
445.2371, 1515.930
445.7192, 1489.609
446.2014, 1468.617
446.6835, 1455.716
447.1656, 1443.174
447.6477, 1432.322
448.1298, 1421.276
448.6119, 1406.788
449.0941, 1385.758
449.5762, 1366.998
450.0583, 1354.326
450.5404, 1347.698
451.0225, 1333.419
451.5046, 1309.167
451.9868, 1282.269
452.4689, 1260.495
452.9510, 1244.050
453.4331, 1224.363
453.9152, 1197.763
454.3973, 1169.076
454.8795, 1151.257
455.3616, 1143.996
455.8437, 1138.319
456.3258, 1127.685
456.8079, 1114.513
457.2900, 1105.236
457.7722, 1101.448
458.2543, 1096.930
458.7364, 1081.026
459.2185, 1059.767
459.7006, 1046.154
460.1827, 1054.472
460.6649, 1066.232
461.1470, 1064.354
461.6291, 1049.535
462.1112, 1039.308
462.5933, 1047.041
463.0754, 1060.673
463.5576, 1070.256
464.0397, 1071.437
464.5218, 1071.078
465.0039, 1068.270
465.4860, 1064.778
465.9681, 1065.753
466.4503, 1076.434
466.9324, 1087.525
467.4145, 1095.585
467.8966, 1099.072
468.3787, 1105.254
468.8608, 1116.566
469.3430, 1128.509
469.8251, 1135.111
470.3072, 1134.122
470.7893, 1134.572
471.2714, 1138.895
471.7535, 1146.248
472.2357, 1151.920
472.7178, 1155.629
473.1999, 1159.140
473.6820, 1164.038
474.1641, 1170.060
474.6462, 1175.852
475.1284, 1181.853
475.6105, 1185.783
476.0926, 1183.343
476.5747, 1175.696
477.0568, 1167.352
477.5389, 1162.499
478.0211, 1157.194
478.5032, 1145.781
478.9853, 1128.039
479.4674, 1109.449
479.9495, 1094.691
480.4316, 1080.696
480.9138, 1063.786
481.3959, 1037.022
481.8780, 1014.094
482.3601, 1003.162
482.8422, 1000.956
483.3243, 996.1430
483.8065, 987.0855
484.2886, 974.0137
484.7707, 955.7433
485.2528, 927.6528
485.7349, 905.8647
486.2170, 891.6320
486.6991, 883.1784
487.1812, 879.1847
487.6634, 883.0677
488.1455, 884.0859
488.6276, 879.8543
489.1097, 870.8609
489.5918, 860.0516
490.0739, 846.5164
490.5561, 834.1140
491.0382, 825.3940
491.5203, 820.2142
492.0024, 818.3594
492.4845, 820.7486
492.9666, 823.8170
493.4488, 820.7704
493.9309, 813.2531
494.4130, 808.5447
494.8951, 812.4475
495.3772, 819.8656
495.8593, 823.9990
496.3415, 824.9135
496.8236, 825.5338
497.3057, 829.5374
497.7878, 833.5477
498.2699, 833.7285
498.7520, 825.7735
499.2342, 818.7993
499.7163, 817.4046
500.1984, 819.6353
500.6805, 820.7192
501.1626, 815.6401
501.6447, 812.7319
502.1269, 815.3725
502.6090, 824.6967
503.0911, 835.2770
503.5732, 849.5557
504.0553, 863.0575
504.5374, 871.2872
505.0196, 872.5698
505.5017, 872.7617
505.9838, 871.8404
506.4659, 870.7249
506.9480, 873.4231
507.4301, 880.7941
507.9123, 886.3259
508.3944, 884.3341
508.8765, 876.5455
509.3586, 874.1570
509.8407, 878.1710
510.3228, 883.9699
510.8050, 887.2495
511.2871, 888.2803
511.7692, 887.5165
512.2513, 883.3949
512.7334, 879.2975
513.2155, 881.1545
513.6976, 886.9172
514.1797, 887.3932
514.6619, 872.9394
515.1440, 854.7617
515.6261, 840.5316
516.1082, 831.9709
516.5903, 825.4005
517.0724, 825.1898
517.5546, 824.6603
518.0367, 815.3365
518.5188, 781.9219
519.0009, 756.1678
519.4830, 745.6662
519.9651, 748.3563
520.4473, 746.5253
520.9294, 738.8158
521.4115, 728.9175
521.8936, 717.7709
522.3757, 704.8741
522.8578, 697.1520
523.3400, 696.6340
523.8221, 697.4216
524.3042, 688.6511
524.7863, 671.4604
525.2684, 658.4801
525.7505, 657.4041
526.2327, 661.4593
526.7148, 657.0687
527.1969, 645.2126
527.6790, 634.4649
528.1611, 631.5245
528.6432, 632.7052
529.1254, 634.0175
529.6075, 635.0030
530.0896, 635.3423
530.5717, 634.9305
531.0538, 633.7689
531.5359, 631.8496
532.0181, 626.1724
532.5002, 622.7688
532.9823, 624.7445
533.4644, 631.9696
533.9465, 637.1786
534.4286, 640.9613
534.9108, 642.0317
535.3929, 639.2613
535.8750, 630.7573
536.3571, 623.3882
536.8392, 616.4630
537.3214, 611.5321
537.8035, 612.3739
538.2856, 619.6312
538.7677, 624.3762
539.2498, 622.9681
539.7319, 617.5583
540.2141, 613.6441
540.6962, 611.1987
541.1783, 610.3546
541.6604, 612.2874
542.1425, 615.5416
542.6246, 617.5786
543.1068, 617.6290
543.5889, 618.1787
544.0710, 623.3484
544.5531, 629.6779
545.0352, 632.1188
545.5173, 625.6350
545.9995, 617.9886
546.4816, 610.1286
546.9637, 602.7462
547.4458, 600.5679
547.9279, 609.0547
548.4100, 618.9480
548.8922, 626.7427
549.3743, 633.6324
549.8564, 634.5237
550.3385, 626.4442
550.8206, 615.6316
551.3027, 610.3745
551.7849, 611.6338
552.2670, 612.5331
552.7491, 610.6224
553.2312, 607.9426
553.7133, 612.8154
554.1954, 624.8815
554.6776, 632.6953
555.1597, 623.1903
555.6418, 606.0770
556.1239, 601.0526
556.6060, 610.6240
557.0881, 621.6823
557.5703, 624.3702
558.0524, 621.8564
558.5345, 618.1916
559.0166, 612.2024
559.4987, 608.0438
559.9808, 608.0837
560.4630, 611.3505
560.9451, 614.8051
561.4272, 620.5088
561.9093, 623.7213
562.3914, 622.4321
562.8735, 615.9755
563.3557, 609.0413
563.8378, 599.9642
564.3199, 592.5369
564.8020, 590.6348
565.2841, 595.2858
565.7662, 599.9305
566.2484, 604.6464
566.7305, 607.7748
567.2126, 604.0336
567.6947, 594.1996
568.1768, 587.4468
568.6589, 591.4105
569.1411, 599.9378
569.6232, 602.5201
570.1053, 599.4191
570.5874, 595.4518
571.0695, 593.7409
571.5516, 592.9680
572.0338, 591.8045
572.5159, 589.6785
572.9980, 587.8357
573.4801, 587.7029
573.9622, 587.9082
574.4443, 586.4486
574.9265, 578.2274
575.4086, 573.8275
575.8907, 576.9371
576.3728, 586.3828
576.8549, 591.6964
577.3370, 591.3726
577.8192, 589.8730
578.3013, 589.3622
578.7834, 589.8611
579.2655, 591.6765
579.7476, 595.5551
580.2297, 598.0903
580.7119, 593.1160
581.1940, 582.7851
581.6761, 576.1669
582.1582, 577.4190
582.6403, 580.8710
583.1224, 579.6168
583.6046, 574.9977
584.0867, 571.1044
584.5688, 570.7886
585.0509, 571.2413
585.5330, 569.9462
586.0151, 566.5302
586.4973, 565.6094
586.9794, 570.5750
587.4615, 577.0953
587.9436, 582.1413
588.4257, 586.1754
588.9078, 587.7233
589.3900, 585.7376
589.8721, 581.9952
590.3542, 579.3078
590.8363, 577.6436
591.3184, 577.2913
591.8005, 578.9057
592.2827, 581.7019
592.7648, 582.8118
593.2469, 582.2371
593.7290, 581.0963
594.2111, 580.6812
594.6932, 580.0586
595.1754, 576.5898
595.6575, 569.5455
596.1396, 564.2209
596.6217, 566.2997
597.1038, 571.7958
597.5859, 576.1255
598.0680, 579.8369
598.5501, 579.9508
599.0322, 571.8170
599.5143, 559.2101
599.9965, 552.9177
600.4786, 558.3820
600.9607, 564.5803
601.4428, 569.1915
601.9249, 572.1799
602.4070, 572.6396
602.8892, 569.8406
603.3713, 566.3642
603.8534, 563.6873
604.3355, 561.8607
604.8176, 561.6895
605.2997, 563.5151
605.7819, 565.9193
606.2640, 569.0616
606.7461, 571.4799
607.2282, 569.0924
607.7103, 554.8839
608.1924, 541.2239
608.6746, 540.2667
609.1567, 548.7836
609.6388, 556.5605
610.1209, 560.7896
610.6030, 562.2911
611.0851, 560.3828
611.5673, 554.0596
612.0494, 550.7463
612.5315, 553.7645
613.0136, 556.9749
613.4957, 555.3300
613.9778, 545.9971
614.4600, 541.9598
614.9421, 545.5279
615.4242, 552.0359
615.9063, 553.2072
616.3884, 549.4109
616.8705, 547.1473
617.3527, 549.8535
617.8348, 554.0571
618.3169, 553.4765
618.7990, 548.9119
619.2811, 544.2597
619.7632, 540.9017
620.2454, 539.0225
620.7275, 539.0915
621.2096, 541.2810
621.6917, 543.5896
622.1738, 546.5850
622.6559, 548.6694
623.1381, 548.4983
623.6202, 540.9584
624.1023, 538.9182
624.5844, 546.1142
625.0665, 556.3303
625.5486, 558.8779
626.0308, 552.0720
626.5129, 544.9714
626.9950, 539.2897
627.4771, 535.4118
627.9592, 535.8423
628.4413, 540.2688
628.9235, 543.4141
629.4056, 539.4700
629.8877, 533.4056
630.3698, 534.3819
630.8519, 542.9666
631.3340, 548.0952
631.8162, 537.7973
632.2983, 523.4268
632.7804, 515.5846
633.2625, 519.8376
633.7446, 524.4075
634.2267, 526.8674
