##NAMES=Volkovskite
##RRUFFID=R110151
##IDEAL CHEMISTRY=KCa_4_[B_5_O_8_(OH)]_4_[B(OH)_3_]_2_Cl&#183;4H_2_O
##LOCALITY=Potash Corporation of Saskatchewan mine, Penobsquis, Kings County, New Brunswick, Canada
##OWNER=RRUFF
##SOURCE=Donald M Doell and Brian Roulston
##DESCRIPTION=Pale red platy crystals, extracted by dissolving the matrix of sylvite/halite, associated with strontioginorite R110149, howlite R110150, ruitenbergite R110152, congolite R110153, and hilgardite
##STATUS=The identification of this mineral has been confirmed by single-crystal X-ray diffraction.
##URL=rruff.info/R110151
136.9225, 1023.277
137.4046, 1022.628
137.8867, 1020.363
138.3688, 1017.314
138.8510, 1013.804
139.3331, 1009.838
139.8152, 1005.382
140.2973, 999.6297
140.7794, 994.5671
141.2615, 991.6027
141.7437, 990.2852
142.2258, 988.5529
142.7079, 985.4271
143.1900, 981.0518
143.6721, 975.8969
144.1542, 969.0306
144.6364, 962.5443
145.1185, 959.3246
145.6006, 960.1100
146.0827, 959.6552
146.5648, 952.8621
147.0469, 944.0960
147.5291, 937.9808
148.0112, 936.8033
148.4933, 938.5172
148.9754, 938.5167
149.4575, 935.9088
149.9396, 932.9940
150.4218, 930.3527
150.9039, 927.9538
151.3860, 925.6823
151.8681, 923.3540
152.3502, 921.0897
152.8323, 920.0488
153.3145, 921.1965
153.7966, 922.7781
154.2787, 925.2681
154.7608, 927.9510
155.2429, 929.5305
155.7250, 928.8386
156.2072, 925.6447
156.6893, 923.5758
157.1714, 922.6605
157.6535, 922.5493
158.1356, 923.5710
158.6177, 925.4434
159.0999, 927.2220
159.5820, 927.9704
160.0641, 927.4633
160.5462, 927.4725
161.0283, 928.1439
161.5104, 929.1965
161.9926, 930.7850
162.4747, 932.9001
162.9568, 934.5693
163.4389, 934.5452
163.9210, 932.9106
164.4031, 931.1013
164.8853, 929.1185
165.3674, 927.1660
165.8495, 925.4064
166.3316, 923.6523
166.8137, 922.7098
167.2958, 923.9901
167.7780, 926.9193
168.2601, 929.3164
168.7422, 929.9469
169.2243, 929.1548
169.7064, 928.1409
170.1885, 926.2610
170.6707, 925.2751
171.1528, 927.0801
171.6349, 930.9799
172.1170, 934.1146
172.5991, 933.8243
173.0812, 929.9308
173.5634, 926.4553
174.0455, 924.0160
174.5276, 921.6883
175.0097, 919.0977
175.4918, 916.2428
175.9739, 913.3371
176.4561, 910.3934
176.9382, 906.9020
177.4203, 905.1419
177.9024, 906.6299
178.3845, 908.4533
178.8666, 908.9147
179.3488, 907.8992
179.8309, 906.5423
180.3130, 906.4553
180.7951, 908.5358
181.2772, 909.8889
181.7593, 910.2124
182.2415, 910.1136
182.7236, 909.9576
183.2057, 909.8571
183.6878, 909.8033
184.1699, 909.8016
184.6520, 910.0145
185.1342, 909.9315
185.6163, 909.6105
186.0984, 908.9699
186.5805, 907.8312
187.0626, 906.1229
187.5447, 904.1357
188.0269, 902.1736
188.5090, 899.9465
188.9911, 898.7295
189.4732, 899.8727
189.9553, 902.0547
190.4374, 902.7103
190.9196, 900.6575
191.4017, 897.8423
191.8838, 897.3834
192.3659, 899.4271
192.8480, 901.0145
193.3301, 900.6374
193.8123, 898.6588
194.2944, 896.2238
194.7765, 892.8504
195.2586, 890.1348
195.7407, 889.9324
196.2228, 892.2867
196.7050, 894.6286
197.1871, 894.5744
197.6692, 892.2811
198.1513, 891.3259
198.6334, 893.3679
199.1155, 896.2457
199.5977, 898.9725
200.0798, 901.3792
200.5619, 902.8358
201.0440, 901.9445
201.5261, 898.0254
202.0082, 896.3431
202.4904, 900.1131
202.9725, 904.5217
203.4546, 906.9865
203.9367, 907.3158
204.4188, 907.2635
204.9009, 909.2552
205.3831, 914.3713
205.8652, 918.1764
206.3473, 920.1241
206.8294, 921.1577
207.3115, 921.6620
207.7936, 921.7528
208.2758, 921.4139
208.7579, 920.5746
209.2400, 918.9628
209.7221, 917.4124
210.2042, 916.7953
210.6863, 915.6553
211.1685, 912.6354
211.6506, 907.6337
212.1327, 901.9301
212.6148, 897.3088
213.0969, 894.2147
213.5790, 891.5577
214.0612, 889.5794
214.5433, 887.8572
215.0254, 885.8208
215.5075, 883.4118
215.9896, 881.3314
216.4717, 880.7389
216.9539, 882.8268
217.4360, 883.4684
217.9181, 881.3287
218.4002, 878.3453
218.8823, 876.4798
219.3644, 876.2161
219.8466, 876.5521
220.3287, 876.1621
220.8108, 874.9323
221.2929, 873.6491
221.7750, 872.5905
222.2571, 871.4683
222.7393, 869.5176
223.2214, 866.3729
223.7035, 863.6631
224.1856, 864.1744
224.6677, 867.6290
225.1498, 870.3296
225.6320, 871.2738
226.1141, 870.9005
226.5962, 869.5187
227.0783, 866.7064
227.5604, 864.2780
228.0425, 864.6253
228.5247, 867.0992
229.0068, 869.2205
229.4889, 870.2329
229.9710, 870.2052
230.4531, 869.0758
230.9352, 866.3851
231.4174, 863.5311
231.8995, 861.3411
232.3816, 859.7822
232.8637, 858.9103
233.3458, 858.7371
233.8280, 859.2650
234.3101, 860.8873
234.7922, 864.9850
235.2743, 867.7051
235.7564, 865.7407
236.2385, 861.0096
236.7207, 857.4240
237.2028, 857.9147
237.6849, 861.3714
238.1670, 862.8242
238.6491, 860.4758
239.1312, 858.7927
239.6134, 860.5182
240.0955, 863.9559
240.5776, 866.0745
241.0597, 864.4816
241.5418, 860.3024
242.0239, 859.2373
242.5061, 864.2494
242.9882, 868.4166
243.4703, 869.0986
243.9524, 867.8548
244.4345, 867.0324
244.9166, 868.0492
245.3988, 870.4366
245.8809, 871.9666
246.3630, 872.0832
246.8451, 871.9623
247.3272, 871.9774
247.8093, 871.8839
248.2915, 871.3069
248.7736, 870.0204
249.2557, 868.1924
249.7378, 866.4857
250.2199, 864.2198
250.7020, 863.0256
251.1842, 864.1993
251.6663, 866.1785
252.1484, 866.9319
252.6305, 865.4570
253.1126, 862.6367
253.5947, 861.2416
254.0769, 863.2616
254.5590, 864.4005
255.0411, 863.7340
255.5232, 862.3239
256.0053, 861.4590
256.4874, 861.6812
256.9695, 862.3994
257.4517, 862.1802
257.9338, 858.9777
258.4159, 857.3154
258.8980, 858.1238
259.3801, 860.0883
259.8622, 862.1522
260.3444, 863.9138
260.8265, 865.0537
261.3086, 864.9375
261.7907, 862.5717
262.2728, 860.3795
262.7549, 857.7007
263.2371, 855.5275
263.7192, 855.3456
264.2013, 857.4711
264.6834, 860.1606
265.1655, 860.6744
265.6476, 857.3917
266.1298, 855.9114
266.6119, 858.5151
267.0940, 861.7672
267.5761, 861.9349
268.0582, 858.3950
268.5403, 854.1664
269.0225, 852.9367
269.5046, 855.6947
269.9867, 857.1472
270.4688, 856.8181
270.9509, 855.3695
271.4330, 852.7281
271.9152, 849.0353
272.3973, 845.9665
272.8794, 845.5568
273.3615, 848.0304
273.8436, 848.6481
274.3257, 845.5688
274.8079, 841.8519
275.2900, 839.8030
275.7721, 839.5258
276.2542, 840.1913
276.7363, 841.6617
277.2184, 843.6310
277.7006, 844.1494
278.1827, 841.3015
278.6648, 838.5129
279.1469, 838.9328
279.6290, 842.1282
280.1111, 844.3192
280.5933, 842.6063
281.0754, 838.3626
281.5575, 836.5612
282.0396, 838.6673
282.5217, 841.3978
283.0038, 842.8255
283.4860, 843.1458
283.9681, 843.3370
284.4502, 843.6590
284.9323, 844.2952
285.4144, 845.5871
285.8965, 847.7975
286.3787, 849.9908
286.8608, 851.9791
287.3429, 853.6035
287.8250, 853.9938
288.3071, 852.0103
288.7892, 849.8750
289.2714, 851.0539
289.7535, 855.8604
290.2356, 860.6829
290.7177, 864.5179
291.1998, 867.1243
291.6819, 867.5143
292.1641, 864.6613
292.6462, 861.1029
293.1283, 859.1871
293.6104, 858.7757
294.0925, 860.0931
294.5746, 865.0016
295.0568, 871.4099
295.5389, 874.5216
296.0210, 872.7233
296.5031, 870.8019
296.9852, 873.7885
297.4673, 880.0900
297.9495, 885.5842
298.4316, 887.8818
298.9137, 889.0032
299.3958, 892.2834
299.8779, 898.2577
300.3600, 904.1375
300.8422, 907.7510
301.3243, 910.0367
301.8064, 912.5248
302.2885, 916.1721
302.7706, 919.5825
303.2527, 921.2687
303.7349, 921.2078
304.2170, 919.8007
304.6991, 916.7165
305.1812, 912.5459
305.6633, 908.2128
306.1454, 904.0472
306.6276, 899.1904
307.1097, 892.5371
307.5918, 884.2069
308.0739, 875.9411
308.5560, 868.1066
309.0381, 860.8981
309.5203, 854.3881
310.0024, 848.5457
310.4845, 843.4450
310.9666, 838.9764
311.4487, 835.2324
311.9308, 833.0107
312.4130, 833.4718
312.8951, 834.0397
313.3772, 831.8365
313.8593, 827.3195
314.3414, 823.5840
314.8235, 822.7574
315.3057, 823.8165
315.7878, 823.9943
316.2699, 822.6919
316.7520, 821.4191
317.2341, 821.7139
317.7162, 822.8942
318.1984, 823.4507
318.6805, 822.5096
319.1626, 820.7928
319.6447, 819.3683
320.1268, 818.2579
320.6089, 817.3523
321.0911, 816.6682
321.5732, 816.1385
322.0553, 815.6704
322.5374, 815.1910
323.0195, 814.8571
323.5016, 815.0062
323.9838, 815.6462
324.4659, 815.9293
324.9480, 815.3041
325.4301, 814.3013
325.9122, 813.4279
326.3943, 812.6097
326.8765, 812.4186
327.3586, 813.9396
327.8407, 816.7255
328.3228, 818.0915
328.8049, 816.7455
329.2870, 814.7169
329.7692, 814.2257
330.2513, 815.1305
330.7334, 815.9044
331.2155, 815.6810
331.6976, 814.8115
332.1797, 814.1086
332.6619, 813.6883
333.1440, 813.3412
333.6261, 812.6155
334.1082, 811.7907
334.5903, 811.6600
335.0724, 813.3022
335.5546, 815.3482
336.0367, 816.0546
336.5188, 815.3583
337.0009, 813.8474
337.4830, 811.0466
337.9651, 807.8999
338.4473, 806.2897
338.9294, 807.2562
339.4115, 808.4721
339.8936, 807.9255
340.3757, 805.8412
340.8578, 803.8978
341.3400, 802.6472
341.8221, 801.9181
342.3042, 801.2459
342.7863, 800.4886
343.2684, 800.4493
343.7505, 802.3464
344.2327, 805.2234
344.7148, 806.6609
345.1969, 805.9244
345.6790, 804.2661
346.1611, 802.7408
346.6432, 801.3517
347.1254, 800.5836
347.6075, 800.6704
348.0896, 801.3947
348.5717, 802.9210
349.0538, 805.3251
349.5359, 807.0167
350.0181, 806.5037
350.5002, 804.2073
350.9823, 802.3678
351.4644, 801.0196
351.9465, 800.2413
352.4286, 800.1270
352.9108, 800.6431
353.3929, 801.7698
353.8750, 803.8087
354.3571, 806.1324
354.8393, 807.1385
355.3214, 806.3843
355.8035, 805.5509
356.2856, 805.0799
356.7677, 804.9601
357.2498, 805.0926
357.7320, 805.4075
358.2141, 806.2189
358.6962, 808.1772
359.1783, 811.5090
359.6604, 814.5335
360.1425, 817.3600
360.6247, 819.6335
361.1068, 820.6609
361.5889, 820.5063
362.0710, 820.4002
362.5531, 821.4269
363.0352, 823.5845
363.5174, 825.3415
363.9995, 826.1667
364.4816, 827.1634
364.9637, 829.2927
365.4458, 832.0397
365.9279, 834.0994
366.4101, 834.7902
366.8922, 834.3427
367.3743, 833.4329
367.8564, 831.7367
368.3385, 830.0669
368.8206, 829.1021
369.3028, 827.9650
369.7849, 825.5300
370.2670, 821.5205
370.7491, 816.6141
371.2312, 811.6232
371.7133, 806.2494
372.1955, 801.9492
372.6776, 799.4164
373.1597, 797.2991
373.6418, 794.8069
374.1239, 791.9316
374.6060, 789.0244
375.0882, 786.3059
375.5703, 783.7936
376.0524, 781.6403
376.5345, 779.7145
377.0166, 778.2753
377.4987, 777.8204
377.9809, 777.7770
378.4630, 777.2830
378.9451, 775.9387
379.4272, 774.1149
379.9093, 772.6635
380.3914, 771.5362
380.8736, 770.9238
381.3557, 770.9725
381.8378, 771.3669
382.3199, 771.9008
382.8020, 772.5307
383.2841, 773.3292
383.7663, 774.5157
384.2484, 776.2758
384.7305, 777.1204
385.2126, 775.1475
385.6947, 774.0844
386.1768, 776.2195
386.6590, 780.1157
387.1411, 782.7385
387.6232, 782.0499
388.1053, 779.1097
388.5874, 777.8029
389.0695, 779.0819
389.5517, 780.2408
390.0338, 781.3236
390.5159, 781.6785
390.9980, 780.3820
391.4801, 777.2029
391.9622, 773.4553
392.4444, 770.8970
392.9265, 769.7257
393.4086, 767.8400
393.8907, 763.7013
394.3728, 760.0529
394.8549, 758.6281
395.3371, 759.1263
395.8192, 760.1837
396.3013, 761.5007
396.7834, 762.7026
397.2655, 762.2071
397.7477, 759.1947
398.2298, 756.6224
398.7119, 756.1682
399.1940, 757.0348
399.6761, 758.4982
400.1582, 760.7004
400.6404, 762.7207
401.1225, 763.5177
401.6046, 763.1517
402.0867, 762.5317
402.5688, 761.6730
403.0509, 760.9607
403.5331, 760.7952
404.0152, 761.1682
404.4973, 761.8881
404.9794, 763.8615
405.4615, 765.8505
405.9436, 764.9620
406.4258, 760.4726
406.9079, 756.4055
407.3900, 756.6973
407.8721, 760.4454
408.3542, 762.5699
408.8363, 761.2582
409.3185, 759.5573
409.8006, 759.5966
410.2827, 760.9344
410.7648, 761.9835
411.2469, 762.0148
411.7290, 761.4286
412.2112, 761.1313
412.6933, 761.3233
413.1754, 761.2617
413.6575, 760.9370
414.1396, 760.2330
414.6217, 758.4279
415.1039, 755.6122
415.5860, 753.7396
416.0681, 755.1584
416.5502, 760.4149
417.0323, 762.6383
417.5144, 759.4769
417.9966, 756.2612
418.4787, 755.2820
418.9608, 755.8195
419.4429, 756.2428
419.9250, 755.7145
420.4071, 754.5497
420.8893, 753.6067
421.3714, 752.9634
421.8535, 752.4649
422.3356, 752.5713
422.8177, 752.4934
423.2998, 751.3587
423.7820, 749.2238
424.2641, 747.0929
424.7462, 746.0728
425.2283, 746.2542
425.7104, 746.1316
426.1925, 745.7181
426.6747, 744.9396
427.1568, 743.1951
427.6389, 741.2037
428.1210, 740.1178
428.6031, 740.5516
429.0852, 741.8919
429.5674, 743.1063
430.0495, 744.4171
430.5316, 744.8245
431.0137, 743.1680
431.4958, 741.1324
431.9779, 739.6969
432.4601, 738.9481
432.9422, 738.5300
433.4243, 738.0563
433.9064, 737.6666
434.3885, 738.1443
434.8706, 739.9977
435.3528, 741.6196
435.8349, 741.7492
436.3170, 740.9928
436.7991, 740.3021
437.2812, 739.9897
437.7633, 739.6946
438.2455, 739.1682
438.7276, 738.3922
439.2097, 737.1339
439.6918, 734.9974
440.1739, 732.8224
440.6560, 732.0210
441.1382, 732.6383
441.6203, 733.2654
442.1024, 733.3696
442.5845, 733.3616
443.0666, 733.8391
443.5487, 734.8138
444.0309, 735.6210
444.5130, 735.7125
444.9951, 735.1729
445.4772, 734.8586
445.9593, 734.8916
446.4414, 734.9747
446.9236, 735.1949
447.4057, 735.3600
447.8878, 735.1589
448.3699, 734.4896
448.8520, 733.5217
449.3341, 732.4039
449.8163, 730.6570
450.2984, 730.2479
450.7805, 731.3818
451.2626, 733.4343
451.7447, 737.2939
452.2268, 741.8652
452.7090, 744.4751
453.1911, 743.0682
453.6732, 738.8394
454.1553, 736.8373
454.6374, 738.0379
455.1195, 739.9537
455.6017, 743.2805
456.0838, 746.3459
456.5659, 746.9819
457.0480, 745.1110
457.5301, 743.6650
458.0122, 746.2917
458.4944, 752.8993
458.9765, 758.1606
459.4586, 761.7851
459.9407, 764.1361
460.4228, 764.6570
460.9049, 764.3128
461.3871, 765.0577
461.8692, 768.4042
462.3513, 771.7336
462.8334, 771.1932
463.3155, 766.9554
463.7976, 763.6913
464.2798, 763.6119
464.7619, 764.1809
465.2440, 761.4500
465.7261, 755.3030
466.2082, 751.1523
466.6903, 752.3312
467.1725, 755.6506
467.6546, 757.5958
468.1367, 757.8547
468.6188, 756.6849
469.1009, 753.5693
469.5830, 749.3502
470.0652, 748.2198
470.5473, 752.2257
471.0294, 756.2564
471.5115, 759.4999
471.9936, 761.8553
472.4757, 762.7560
472.9579, 762.1887
473.4400, 761.5976
473.9221, 762.8992
474.4042, 766.7040
474.8863, 768.8043
475.3684, 768.4371
475.8506, 767.4147
476.3327, 765.8456
476.8148, 764.1884
477.2969, 763.0842
477.7790, 762.8546
478.2611, 763.2468
478.7433, 763.8347
479.2254, 764.8242
479.7075, 765.4189
480.1896, 765.7849
480.6717, 765.5224
481.1538, 764.5302
481.6360, 762.7142
482.1181, 759.7821
482.6002, 754.8507
483.0823, 748.8905
483.5644, 744.9198
484.0465, 743.6451
484.5287, 741.7955
485.0108, 736.6544
485.4929, 730.8466
485.9750, 727.5340
486.4571, 727.3186
486.9392, 728.2345
487.4214, 729.8130
487.9035, 731.5693
488.3856, 732.1505
488.8677, 731.1941
489.3498, 730.2388
489.8319, 730.3745
490.3141, 731.7294
490.7962, 734.2396
491.2783, 739.4845
491.7604, 744.2281
492.2425, 746.2378
492.7246, 746.8690
493.2068, 748.9008
493.6889, 753.3015
494.1710, 758.5445
494.6531, 762.2875
495.1352, 764.3267
495.6173, 765.3323
496.0995, 765.3326
496.5816, 764.4434
497.0637, 762.8840
497.5458, 760.4640
498.0279, 756.5883
498.5100, 750.8051
498.9922, 743.9409
499.4743, 738.0934
499.9564, 733.9347
500.4385, 729.0936
500.9206, 721.9120
501.4027, 714.9566
501.8849, 709.6439
502.3670, 706.0708
502.8491, 703.9279
503.3312, 703.9938
503.8133, 705.1078
504.2954, 703.6295
504.7776, 698.8715
505.2597, 694.8444
505.7418, 693.9406
506.2239, 694.5888
506.7060, 694.5477
507.1881, 693.6291
507.6703, 692.3594
508.1524, 690.3193
508.6345, 688.3185
509.1166, 688.0814
509.5987, 689.8666
510.0808, 691.7546
510.5630, 692.2776
511.0451, 691.4767
511.5272, 690.1515
512.0093, 687.4345
512.4914, 685.2797
512.9735, 684.2375
513.4556, 684.0801
513.9377, 684.7484
514.4199, 686.1269
514.9020, 687.6024
515.3841, 688.4346
515.8662, 688.6149
516.3483, 688.2221
516.8304, 686.9005
517.3126, 685.3646
517.7947, 683.0999
518.2768, 680.9642
518.7589, 680.4776
519.2410, 682.3247
519.7231, 684.7026
520.2053, 684.9088
520.6874, 682.7924
521.1695, 680.5235
521.6516, 677.4431
522.1337, 675.5378
522.6158, 677.0519
523.0980, 680.7538
523.5801, 683.0702
524.0622, 682.0214
524.5443, 679.7624
525.0264, 678.7443
525.5085, 678.6506
525.9907, 677.4590
526.4728, 674.1246
526.9549, 670.1375
527.4370, 667.6788
527.9191, 666.8595
528.4012, 666.5967
528.8834, 666.7562
529.3655, 667.4697
529.8476, 669.6260
530.3297, 672.4749
530.8118, 673.8723
531.2939, 672.5992
531.7761, 669.6102
532.2582, 667.2753
532.7403, 665.5757
533.2224, 664.6245
533.7045, 664.6924
534.1866, 665.1521
534.6688, 666.0425
535.1509, 667.0253
535.6330, 667.2697
536.1151, 666.0222
536.5972, 663.9506
537.0793, 662.8445
537.5615, 662.8668
538.0436, 663.2513
538.5257, 664.5070
539.0078, 665.4647
539.4899, 664.9361
539.9720, 662.9620
540.4542, 660.8798
540.9363, 658.6328
541.4184, 657.0207
541.9005, 658.0616
542.3826, 661.5991
542.8647, 663.5705
543.3469, 661.2001
543.8290, 656.5927
544.3111, 655.5636
544.7932, 660.4692
545.2753, 662.8928
545.7574, 658.7751
546.2396, 653.7649
546.7217, 653.2470
547.2038, 656.8299
547.6859, 660.4492
548.1680, 661.2087
548.6501, 659.8184
549.1323, 659.5935
549.6144, 662.4895
550.0965, 663.0642
550.5786, 658.3739
551.0607, 653.2729
551.5428, 651.5270
552.0250, 653.0889
552.5071, 655.2488
552.9892, 656.2784
553.4713, 656.3707
553.9534, 655.9374
554.4355, 654.8371
554.9177, 653.9149
555.3998, 653.4383
555.8819, 653.3807
556.3640, 653.8466
556.8461, 654.9639
557.3282, 655.5482
557.8104, 654.6602
558.2925, 653.2789
558.7746, 652.3215
559.2567, 651.9232
559.7388, 652.5339
560.2209, 654.7028
560.7031, 657.6381
561.1852, 658.8159
561.6673, 656.5081
562.1494, 654.8270
562.6315, 654.4899
563.1136, 654.2759
563.5958, 652.8608
564.0779, 650.6287
564.5600, 649.2931
565.0421, 650.2184
565.5242, 652.6455
566.0063, 653.9164
566.4885, 653.4615
566.9706, 653.4909
567.4527, 654.9681
567.9348, 656.7769
568.4169, 658.3840
568.8990, 659.6818
569.3812, 660.4189
569.8633, 659.6979
570.3454, 658.7322
570.8275, 659.5278
571.3096, 661.9791
571.7917, 664.4355
572.2739, 666.3715
572.7560, 667.7208
573.2381, 668.3112
573.7202, 668.0688
574.2023, 667.4587
574.6844, 666.4142
575.1666, 665.1105
575.6487, 663.5555
576.1308, 661.8434
576.6129, 660.1307
577.0950, 658.4833
577.5771, 656.9628
578.0593, 655.7434
578.5414, 655.0027
579.0235, 654.0714
579.5056, 652.8934
579.9877, 651.5270
580.4698, 649.8452
580.9520, 647.9980
581.4341, 646.3864
581.9162, 645.4245
582.3983, 644.2726
582.8804, 640.8787
583.3625, 635.6461
583.8447, 633.4515
584.3268, 636.3533
584.8089, 640.4662
585.2910, 641.9293
585.7731, 640.9442
586.2552, 639.5054
586.7374, 636.9259
587.2195, 634.8332
587.7016, 634.3143
588.1837, 634.8043
588.6658, 635.5261
589.1479, 636.1918
589.6301, 636.3965
590.1122, 635.4504
590.5943, 633.1025
591.0764, 632.0369
591.5585, 633.4031
592.0406, 634.7533
592.5228, 635.8029
593.0049, 636.3864
593.4870, 635.7851
593.9691, 633.9007
594.4512, 632.9487
594.9333, 636.2554
595.4155, 642.4938
595.8976, 645.3558
596.3797, 643.7516
596.8618, 642.1276
597.3439, 643.2202
597.8260, 646.0209
598.3082, 647.8794
598.7903, 648.3468
599.2724, 649.0174
599.7545, 650.6689
600.2366, 652.6165
600.7188, 653.9598
601.2009, 654.7687
601.6830, 655.8948
602.1652, 657.9467
602.6473, 660.6866
603.1294, 663.2889
603.6115, 666.0559
604.0936, 668.0875
604.5757, 668.4984
605.0579, 668.9518
605.5400, 670.5096
606.0221, 673.0228
606.5042, 675.7105
606.9863, 678.0028
607.4684, 680.4213
607.9506, 683.7562
608.4327, 688.0137
608.9148, 693.2039
609.3969, 699.6588
609.8790, 706.4611
610.3611, 712.9838
610.8433, 719.2001
611.3254, 723.9288
611.8075, 727.0815
612.2896, 728.6835
612.7717, 729.3568
613.2538, 728.3164
613.7360, 723.5511
614.2181, 714.6757
614.7002, 704.4997
615.1823, 696.2780
615.6644, 690.1136
616.1465, 683.6735
616.6287, 676.2356
617.1108, 669.5867
617.5929, 663.9954
618.0750, 659.4783
618.5571, 656.4913
619.0392, 655.0315
619.5214, 653.3875
620.0035, 649.7813
620.4856, 645.1932
620.9677, 641.8394
621.4498, 639.8458
621.9319, 638.2030
622.4141, 636.2346
622.8962, 636.0934
623.3783, 634.4679
623.8604, 636.6716
624.3425, 638.5056
624.8246, 639.9882
625.3068, 640.7325
625.7889, 639.9868
626.2710, 638.3123
626.7531, 637.0904
627.2352, 637.0169
627.7173, 637.3423
628.1995, 636.4415
628.6816, 633.8404
