##NAMES=Volkovskite
##RRUFFID=R110151
##IDEAL CHEMISTRY=KCa_4_[B_5_O_8_(OH)]_4_[B(OH)_3_]_2_Cl&#183;4H_2_O
##LOCALITY=Potash Corporation of Saskatchewan mine, Penobsquis, Kings County, New Brunswick, Canada
##OWNER=RRUFF
##SOURCE=Donald M Doell and Brian Roulston
##DESCRIPTION=Pale red platy crystals, extracted by dissolving the matrix of sylvite/halite, associated with strontioginorite R110149, howlite R110150, ruitenbergite R110152, congolite R110153, and hilgardite
##STATUS=The identification of this mineral has been confirmed by single-crystal X-ray diffraction.
##URL=rruff.info/R110151
162.3276, 33.76178
162.8097, 38.29004
163.2918, 41.58378
163.7739, 42.53690
164.2560, 43.01057
164.7382, 43.54658
165.2203, 44.18555
165.7024, 45.08287
166.1845, 46.57945
166.6666, 48.25462
167.1487, 49.69909
167.6309, 50.49847
168.1130, 51.37532
168.5951, 52.88034
169.0772, 54.92226
169.5593, 56.91501
170.0414, 58.80708
170.5236, 60.37319
171.0057, 61.29557
171.4878, 60.58909
171.9699, 59.89747
172.4520, 60.89135
172.9341, 63.44773
173.4163, 65.98695
173.8984, 67.60705
174.3805, 68.42480
174.8626, 68.60431
175.3447, 67.26038
175.8268, 65.81754
176.3090, 66.29670
176.7911, 68.71288
177.2732, 71.03400
177.7553, 70.14394
178.2374, 67.44705
178.7195, 66.48543
179.2017, 70.50426
179.6838, 76.43883
180.1659, 79.36227
180.6480, 79.16254
181.1301, 77.98827
181.6122, 77.50618
182.0944, 77.69029
182.5765, 78.48079
183.0586, 80.30468
183.5407, 82.63354
184.0228, 84.49890
184.5049, 85.88342
184.9871, 86.75142
185.4692, 86.71596
185.9513, 85.95339
186.4334, 85.41824
186.9155, 85.53572
187.3976, 86.21983
187.8798, 87.37128
188.3619, 89.11165
188.8440, 90.81095
189.3261, 91.44072
189.8082, 91.07719
190.2903, 90.60445
190.7725, 90.56295
191.2546, 90.83990
191.7367, 90.79488
192.2188, 90.39784
192.7009, 89.69728
193.1830, 88.47779
193.6652, 86.73330
194.1473, 85.51926
194.6294, 85.79845
195.1115, 87.41372
195.5936, 88.27978
196.0757, 88.11860
196.5579, 87.44720
197.0400, 87.19345
197.5221, 87.37016
198.0042, 87.78927
198.4863, 88.49430
198.9684, 89.48976
199.4506, 90.18903
199.9327, 90.57994
200.4148, 90.62325
200.8969, 89.81147
201.3790, 87.81422
201.8611, 86.67256
202.3433, 88.16273
202.8254, 92.61715
203.3075, 95.56718
203.7896, 96.24107
204.2717, 95.59434
204.7538, 96.19160
205.2360, 98.38946
205.7181, 100.5030
206.2002, 101.6626
206.6823, 101.8776
207.1644, 100.8464
207.6465, 97.76112
208.1287, 93.84079
208.6108, 93.09814
209.0929, 96.55512
209.5750, 100.3586
210.0571, 102.0231
210.5392, 101.1061
211.0214, 100.2415
211.5035, 99.72330
211.9856, 99.39100
212.4677, 98.54929
212.9498, 96.89394
213.4319, 95.41017
213.9140, 94.76022
214.3962, 95.19415
214.8783, 95.61853
215.3604, 96.12047
215.8425, 96.52329
216.3246, 95.87033
216.8067, 93.45729
217.2889, 91.32896
217.7710, 90.89408
218.2531, 92.85112
218.7352, 94.47787
219.2173, 95.73395
219.6994, 96.49796
220.1816, 95.98604
220.6637, 93.44398
221.1458, 90.91231
221.6279, 89.67070
222.1100, 89.95774
222.5921, 90.94859
223.0743, 93.02397
223.5564, 95.77565
224.0385, 97.28886
224.5206, 97.04144
225.0027, 96.34649
225.4848, 95.93381
225.9670, 95.76762
226.4491, 96.01913
226.9312, 96.93283
227.4133, 98.29740
227.8954, 99.24721
228.3775, 100.1714
228.8597, 100.1013
229.3418, 98.11391
229.8239, 92.74790
230.3060, 88.91807
230.7881, 87.48842
231.2702, 87.93246
231.7524, 87.73562
232.2345, 86.22749
232.7166, 85.02351
233.1987, 85.22575
233.6808, 87.77204
234.1629, 89.63271
234.6451, 90.50070
235.1272, 90.53724
235.6093, 90.48870
236.0914, 90.50847
236.5735, 90.23581
237.0556, 89.27257
237.5378, 86.62399
238.0199, 85.54201
238.5020, 86.87563
238.9841, 89.92265
239.4662, 91.69804
239.9483, 91.32233
240.4305, 90.88699
240.9126, 91.64465
241.3947, 94.62483
241.8768, 96.47894
242.3589, 96.55826
242.8410, 95.44202
243.3232, 95.29262
243.8053, 96.96801
244.2874, 98.42834
244.7695, 98.44226
245.2516, 95.77541
245.7337, 94.51783
246.2159, 95.57845
246.6980, 98.02640
247.1801, 98.76891
247.6622, 96.91229
248.1443, 94.71072
248.6264, 93.22324
249.1086, 92.65675
249.5907, 92.32040
250.0728, 92.43045
250.5549, 92.70186
251.0370, 92.29176
251.5191, 90.71378
252.0013, 89.22749
252.4834, 88.38379
252.9655, 88.37997
253.4476, 88.51390
253.9297, 88.71774
254.4118, 89.08966
254.8940, 90.01176
255.3761, 92.13072
255.8582, 93.65553
256.3403, 93.62683
256.8224, 91.34318
257.3046, 89.85221
257.7867, 89.39311
258.2688, 89.58162
258.7509, 89.72874
259.2330, 89.87868
259.7151, 89.89382
260.1973, 89.75108
260.6794, 89.49874
261.1615, 88.75348
261.6436, 87.00902
262.1257, 85.21577
262.6078, 85.25691
263.0900, 88.05098
263.5721, 90.47972
264.0542, 91.29642
264.5363, 90.19619
265.0184, 89.65820
265.5005, 89.97592
265.9827, 90.50510
266.4648, 90.20654
266.9469, 88.73067
267.4290, 87.43599
267.9111, 86.64629
268.3932, 86.35837
268.8754, 86.85707
269.3575, 88.48293
269.8396, 90.36555
270.3217, 91.36228
270.8038, 91.31410
271.2859, 90.97938
271.7681, 90.51498
272.2502, 89.92516
272.7323, 89.20164
273.2144, 88.20488
273.6965, 87.38295
274.1786, 87.35950
274.6608, 88.31657
275.1429, 89.07886
275.6250, 89.30801
276.1071, 89.08247
276.5892, 89.01575
277.0714, 89.16020
277.5535, 89.31747
278.0356, 89.34071
278.5177, 89.23753
278.9998, 88.86113
279.4819, 87.97285
279.9641, 86.82573
280.4462, 86.76027
280.9283, 88.01489
281.4104, 89.32565
281.8925, 89.41279
282.3746, 88.25042
282.8568, 87.83150
283.3389, 88.72256
283.8210, 90.37425
284.3031, 91.19962
284.7852, 91.12436
285.2673, 90.89687
285.7495, 91.26997
286.2316, 92.15108
286.7137, 92.08212
287.1958, 90.47655
287.6779, 88.43382
288.1600, 88.44197
288.6422, 90.52861
289.1243, 92.89221
289.6064, 94.41735
290.0885, 95.23607
290.5706, 95.89401
291.0527, 96.38750
291.5349, 96.86059
292.0170, 97.63811
292.4991, 98.67593
292.9812, 99.57399
293.4633, 99.87099
293.9454, 99.82788
294.4276, 100.4103
294.9097, 101.7851
295.3918, 103.2441
295.8739, 103.8791
296.3560, 103.7956
296.8381, 103.5164
297.3203, 102.3853
297.8024, 101.3876
298.2845, 103.1093
298.7666, 107.8385
299.2487, 112.9451
299.7308, 115.9070
300.2130, 117.1654
300.6951, 117.9438
301.1772, 118.6229
301.6593, 119.1599
302.1414, 119.4787
302.6235, 119.5783
303.1057, 119.5516
303.5878, 119.3482
304.0699, 119.0829
304.5520, 119.0311
305.0341, 119.9050
305.5162, 120.4584
305.9984, 118.9805
306.4805, 115.7414
306.9626, 112.4883
307.4447, 110.7113
307.9268, 109.5580
308.4089, 107.9592
308.8911, 105.5651
309.3732, 102.7669
309.8553, 99.31258
310.3374, 95.57451
310.8195, 92.75127
311.3016, 92.48640
311.7838, 92.98435
312.2659, 92.46510
312.7480, 90.02837
313.2301, 87.89980
313.7122, 87.79951
314.1943, 88.95903
314.6765, 89.76577
315.1586, 89.25996
315.6407, 88.34092
316.1228, 87.47107
316.6049, 86.65392
317.0870, 86.15067
317.5692, 86.43052
318.0513, 87.01979
318.5334, 87.25410
319.0155, 86.30928
319.4976, 85.48769
319.9797, 85.55989
320.4619, 86.67556
320.9440, 87.40440
321.4261, 87.04912
321.9082, 86.22185
322.3903, 85.50166
322.8724, 84.46010
323.3546, 84.09085
323.8367, 85.31332
324.3188, 88.02150
324.8009, 89.36333
325.2830, 87.28313
325.7651, 84.67110
326.2473, 83.40138
326.7294, 85.16805
327.2115, 86.52840
327.6936, 86.94051
328.1757, 86.60875
328.6578, 86.57714
329.1400, 87.08443
329.6221, 87.70867
330.1042, 88.31709
330.5863, 89.32997
331.0684, 89.60278
331.5505, 88.58146
332.0327, 86.92003
332.5148, 86.05315
332.9969, 86.05578
333.4790, 86.77473
333.9611, 88.43755
334.4432, 91.59235
334.9254, 93.44154
335.4075, 93.59748
335.8896, 92.75215
336.3717, 91.75404
336.8538, 90.47740
337.3359, 89.37608
337.8180, 88.62901
338.3001, 88.23251
338.7823, 87.62954
339.2644, 86.56091
339.7465, 85.80926
340.2286, 86.38975
340.7107, 88.59348
341.1928, 90.36530
341.6750, 91.21470
342.1571, 91.36121
342.6392, 91.55034
343.1213, 91.78059
343.6034, 92.07411
344.0855, 92.56352
344.5677, 93.22571
345.0498, 93.55629
345.5319, 93.46787
346.0140, 93.06178
346.4961, 92.32923
346.9782, 91.29619
347.4604, 90.58024
347.9425, 90.77205
348.4246, 91.60625
348.9067, 92.10063
349.3888, 92.17329
349.8709, 92.05875
350.3531, 92.01176
350.8352, 92.01118
351.3173, 91.97906
351.7994, 91.32453
352.2815, 90.80344
352.7636, 92.16466
353.2458, 95.40374
353.7279, 98.40010
354.2100, 99.19591
354.6921, 98.54897
355.1742, 97.72400
355.6563, 96.78049
356.1385, 96.16304
356.6206, 96.41827
357.1027, 97.43233
357.5848, 98.62194
358.0669, 99.67600
358.5490, 100.7294
359.0312, 101.9164
359.5133, 103.3166
359.9954, 104.7632
360.4775, 106.5396
360.9596, 108.3022
361.4417, 109.2984
361.9239, 107.9523
362.4060, 106.7507
362.8881, 107.3329
363.3702, 110.2555
363.8523, 112.8649
364.3344, 114.2739
364.8166, 114.9262
365.2987, 115.3304
365.7808, 115.3615
366.2629, 115.3886
366.7450, 115.7377
367.2271, 116.4006
367.7093, 116.3125
368.1914, 115.0613
368.6735, 113.2020
369.1556, 111.0658
369.6377, 107.7812
370.1198, 105.4010
370.6020, 104.3853
371.0841, 104.3825
371.5662, 104.1828
372.0483, 104.2478
372.5304, 103.5547
373.0125, 101.4532
373.4947, 97.09792
373.9768, 93.83657
374.4589, 91.97765
374.9410, 90.92834
375.4231, 89.73962
375.9052, 88.23512
376.3874, 87.08228
376.8695, 86.63288
377.3516, 86.85738
377.8337, 86.64799
378.3158, 85.94643
378.7979, 84.98065
379.2801, 83.82841
379.7622, 82.45229
380.2443, 81.52358
380.7264, 81.21111
381.2085, 81.38448
381.6906, 81.68769
382.1728, 82.11481
382.6549, 82.79066
383.1370, 84.17535
383.6191, 85.95837
384.1012, 86.71878
384.5833, 86.13638
385.0655, 85.13518
385.5476, 85.13371
386.0297, 85.82165
386.5118, 86.07240
386.9939, 84.46217
387.4760, 82.44833
387.9582, 82.53625
388.4403, 84.79384
388.9224, 87.02515
389.4045, 87.26871
389.8866, 86.40604
390.3687, 85.67380
390.8509, 85.59772
391.3330, 85.65862
391.8151, 85.59884
392.2972, 85.39724
392.7793, 84.96922
393.2614, 83.82391
393.7436, 82.72433
394.2257, 82.21550
394.7078, 82.53362
395.1899, 83.11607
395.6720, 84.27434
396.1541, 85.48215
396.6363, 85.89376
397.1184, 84.21495
397.6005, 82.72035
398.0826, 82.12959
398.5647, 82.52409
399.0468, 83.46011
399.5290, 86.08846
400.0111, 88.57282
400.4932, 89.41370
400.9753, 86.75150
401.4574, 84.93440
401.9395, 84.49014
402.4217, 85.21519
402.9038, 86.23675
403.3859, 87.80860
403.8680, 89.30690
404.3501, 90.57539
404.8322, 91.87294
405.3144, 91.76341
405.7965, 89.51723
406.2786, 86.73339
406.7607, 86.19946
407.2428, 88.31624
407.7249, 90.51506
408.2071, 91.98951
408.6892, 92.82464
409.1713, 93.52361
409.6534, 94.11018
410.1355, 94.42403
410.6176, 94.18514
411.0998, 93.48804
411.5819, 92.86192
412.0640, 92.36026
412.5461, 92.05639
413.0282, 92.59926
413.5103, 93.70893
413.9925, 93.77410
414.4746, 90.40234
414.9567, 85.85730
415.4388, 84.20628
415.9209, 86.05640
416.4030, 87.97860
416.8852, 86.39250
417.3673, 83.07616
417.8494, 80.92512
418.3315, 82.33652
418.8136, 84.19884
419.2957, 84.56033
419.7779, 83.57025
420.2600, 82.30053
420.7421, 80.84236
421.2242, 79.53208
421.7063, 78.63905
422.1884, 78.20235
422.6706, 78.15897
423.1527, 79.02984
423.6348, 80.22268
424.1169, 80.63116
424.5990, 79.09715
425.0811, 77.71487
425.5633, 77.25574
426.0454, 77.91453
426.5275, 78.13214
427.0096, 77.70926
427.4917, 77.00049
427.9738, 76.17899
428.4560, 74.69744
428.9381, 74.33960
429.4202, 75.86726
429.9023, 78.53514
430.3844, 79.78592
430.8665, 79.28664
431.3487, 78.28606
431.8308, 77.12242
432.3129, 75.74279
432.7950, 75.47862
433.2771, 76.59040
433.7592, 78.16872
434.2414, 79.33080
434.7235, 80.04473
435.2056, 79.78972
435.6877, 77.74245
436.1698, 75.08653
436.6519, 74.62767
437.1341, 76.26524
437.6162, 78.07160
438.0983, 78.71074
438.5804, 78.54990
439.0625, 78.11936
439.5446, 77.39428
440.0268, 76.79414
440.5089, 76.64653
440.9910, 76.90184
441.4731, 77.45550
441.9552, 78.68297
442.4373, 79.86201
442.9195, 80.56127
443.4016, 80.76685
443.8837, 80.67694
444.3658, 79.99294
444.8479, 79.25493
445.3300, 78.89822
445.8122, 79.30620
446.2943, 79.70151
446.7764, 79.91753
447.2585, 80.02603
447.7406, 80.21117
448.2227, 80.49120
448.7049, 80.84646
449.1870, 81.31703
449.6691, 81.94545
450.1512, 82.35229
450.6333, 82.14925
451.1154, 82.14104
451.5976, 83.36980
452.0797, 86.53297
452.5618, 88.48495
453.0439, 88.37674
453.5260, 86.93672
454.0081, 86.27617
454.4903, 86.40446
454.9724, 87.26447
455.4545, 89.34317
455.9366, 92.34663
456.4187, 94.10233
456.9008, 94.36146
457.3830, 94.29523
457.8651, 95.20311
458.3472, 96.89633
458.8293, 98.73954
459.3114, 100.5846
459.7935, 102.4333
460.2757, 104.2866
460.7578, 106.1540
461.2399, 108.1270
461.7220, 111.1178
462.2041, 113.7767
462.6862, 114.3832
463.1684, 112.1561
463.6505, 110.3330
464.1326, 111.6621
464.6147, 114.0602
465.0968, 114.8430
465.5789, 111.4201
466.0611, 108.0812
466.5432, 105.9373
467.0253, 104.9904
467.5074, 104.7068
467.9895, 105.5794
468.4716, 106.6628
468.9538, 107.4617
469.4359, 107.5452
469.9180, 108.3166
470.4001, 110.2507
470.8822, 112.5518
471.3643, 113.9475
471.8465, 114.0699
472.3286, 114.3338
472.8107, 115.0331
473.2928, 116.1574
473.7749, 118.0063
474.2570, 120.7815
474.7392, 123.1610
475.2213, 123.6592
475.7034, 122.6482
476.1855, 122.9756
476.6676, 125.2975
477.1497, 127.7723
477.6319, 127.2360
478.1140, 124.6303
478.5961, 123.0338
479.0782, 124.7551
479.5603, 127.5855
480.0424, 129.2634
480.5246, 129.8150
481.0067, 129.4267
481.4888, 128.0852
481.9709, 125.9431
482.4530, 123.0239
482.9352, 119.0345
483.4173, 115.0185
483.8994, 111.3077
484.3815, 107.8298
484.8636, 104.5133
485.3457, 101.0101
485.8279, 98.01244
486.3100, 95.80138
486.7921, 94.38451
487.2742, 93.14903
487.7563, 92.15922
488.2384, 91.27477
488.7206, 90.44545
489.2027, 89.73741
489.6848, 88.83894
490.1669, 87.44966
490.6490, 86.19213
491.1311, 86.20388
491.6133, 87.66767
492.0954, 89.14551
492.5775, 90.24675
493.0596, 91.01159
493.5417, 91.66002
494.0238, 92.19363
494.5060, 92.39058
494.9881, 91.49358
495.4702, 90.16139
495.9523, 90.33284
496.4344, 92.57209
496.9165, 94.86382
497.3987, 95.19076
497.8808, 94.13396
498.3629, 92.78008
498.8450, 91.15849
499.3271, 89.74431
499.8092, 89.25446
500.2914, 89.42888
500.7735, 88.89218
501.2556, 86.24215
501.7377, 83.35046
502.2198, 81.28831
502.7019, 80.28362
503.1841, 79.78744
503.6662, 80.35335
504.1483, 81.13348
504.6304, 81.08543
505.1125, 79.31575
505.5946, 78.19965
506.0768, 78.39040
506.5589, 79.54424
507.0410, 79.96439
507.5231, 79.59762
508.0052, 78.65090
508.4873, 76.68438
508.9695, 73.70199
509.4516, 72.78273
509.9337, 74.27483
510.4158, 76.44561
510.8979, 77.41734
511.3800, 77.36996
511.8622, 77.02986
512.3443, 76.46925
512.8264, 75.88488
513.3085, 75.41692
513.7906, 75.11452
514.2728, 75.15409
514.7549, 75.92387
515.2370, 76.89119
515.7191, 77.69777
516.2012, 78.32686
516.6833, 78.57163
517.1655, 78.02177
517.6476, 77.22105
518.1297, 76.63635
518.6118, 76.63450
519.0939, 76.51808
519.5760, 76.14680
520.0582, 75.59016
520.5403, 74.98222
521.0224, 73.97402
521.5045, 73.42728
521.9866, 73.76692
522.4688, 74.99187
522.9509, 75.63901
523.4330, 75.62645
523.9151, 75.23875
524.3972, 74.45795
524.8793, 73.26695
525.3615, 72.83977
525.8436, 73.41341
526.3257, 74.39610
526.8078, 75.03657
527.2899, 75.34713
527.7720, 75.34810
528.2542, 74.81255
528.7363, 74.15522
529.2184, 73.68647
529.7005, 73.49447
530.1826, 74.03430
530.6647, 77.10557
531.1469, 80.10603
531.6290, 80.36482
532.1111, 76.84924
532.5932, 73.88477
533.0753, 73.56557
533.5574, 74.48256
534.0396, 75.17860
534.5217, 75.18216
535.0038, 75.21399
535.4859, 75.51163
535.9680, 75.92163
536.4501, 75.92653
536.9323, 75.28803
537.4144, 74.64233
537.8965, 74.15782
538.3786, 73.82901
538.8607, 74.01681
539.3428, 74.92407
539.8250, 75.71446
540.3071, 75.44888
540.7892, 74.24783
541.2713, 73.07530
541.7534, 71.90058
542.2355, 71.30300
542.7177, 72.77411
543.1998, 75.63384
543.6819, 77.67543
544.1640, 77.13242
544.6461, 75.81908
545.1282, 75.52538
545.6104, 76.06976
546.0925, 76.29308
546.5746, 74.74726
547.0567, 73.27113
547.5388, 73.30302
548.0209, 75.63036
548.5031, 77.46912
548.9852, 77.95993
549.4673, 77.82801
549.9494, 77.84504
550.4315, 78.24794
550.9136, 78.44932
551.3958, 78.31870
551.8779, 77.96358
552.3600, 77.64445
552.8421, 77.27541
553.3242, 77.25438
553.8063, 78.05402
554.2885, 79.46197
554.7706, 79.47667
555.2527, 77.95805
555.7348, 76.53001
556.2169, 76.97404
556.6990, 78.59496
557.1812, 79.53662
557.6633, 79.38303
558.1454, 79.00063
558.6275, 79.25484
559.1096, 79.86075
559.5917, 80.32140
560.0739, 80.14297
560.5560, 80.04333
561.0381, 80.43592
561.5202, 81.22906
562.0023, 82.02114
562.4844, 82.86037
562.9666, 83.54895
563.4487, 83.97154
563.9308, 84.09464
564.4129, 84.07124
564.8950, 83.41554
565.3771, 83.14413
565.8593, 84.41773
566.3414, 87.89565
566.8235, 89.97124
567.3056, 89.94646
567.7877, 88.93941
568.2698, 88.92538
568.7520, 89.86363
569.2341, 91.09498
569.7162, 92.68480
570.1983, 94.20939
570.6804, 94.64122
571.1625, 94.14695
571.6447, 93.89380
572.1268, 94.71327
572.6089, 96.10369
573.0910, 97.83192
573.5731, 100.0220
574.0552, 101.4351
574.5374, 101.3168
575.0195, 100.2653
575.5016, 98.84354
575.9837, 97.00193
576.4658, 94.97742
576.9479, 92.20724
577.4301, 89.38237
577.9122, 87.99049
578.3943, 88.93636
578.8764, 89.45112
579.3585, 88.56564
579.8406, 86.55800
580.3228, 85.53726
580.8049, 85.66009
581.2870, 85.75964
581.7691, 84.80556
582.2512, 83.13421
582.7333, 82.23129
583.2155, 82.25276
583.6975, 82.32096
584.1796, 81.24849
584.6617, 79.73997
585.1439, 78.99589
585.6260, 79.61608
586.1081, 80.58028
586.5902, 81.83464
587.0723, 82.93579
587.5544, 83.01823
588.0366, 80.06868
588.5187, 77.85933
589.0008, 77.92731
589.4829, 80.18638
589.9650, 82.13557
590.4471, 84.14315
590.9293, 85.34554
591.4114, 85.00590
591.8935, 82.74203
592.3756, 81.77605
592.8577, 82.38773
593.3398, 83.54201
593.8220, 84.23325
594.3041, 84.50897
594.7862, 84.69609
595.2683, 84.79523
595.7504, 84.98685
596.2325, 85.64838
596.7147, 86.60598
597.1968, 87.39397
597.6789, 87.18675
598.1610, 87.26256
598.6431, 89.00439
599.1252, 91.99860
599.6074, 94.33525
600.0895, 94.72444
600.5716, 94.83419
601.0537, 95.43700
601.5358, 96.66269
602.0179, 98.05629
602.5001, 99.89135
602.9822, 101.6179
603.4643, 102.7151
603.9464, 102.8932
604.4285, 103.6694
604.9106, 105.2768
605.3928, 107.2598
605.8749, 109.1393
606.3570, 110.8887
606.8391, 112.0311
607.3212, 112.1878
607.8033, 111.9633
608.2855, 111.8651
608.7676, 112.0803
609.2497, 113.3014
609.7318, 116.8765
610.2139, 120.8936
610.6960, 123.7096
611.1782, 125.2882
611.6603, 127.0156
612.1424, 130.5329
612.6245, 133.5341
613.1066, 134.5344
613.5887, 132.7543
614.0709, 130.5385
614.5530, 128.1198
615.0351, 125.0308
615.5172, 120.3203
615.9993, 113.2212
616.4814, 107.8927
616.9636, 105.2170
617.4457, 104.1527
617.9278, 102.8563
618.4099, 101.3503
618.8920, 99.87914
619.3741, 98.40018
619.8563, 97.09647
620.3384, 96.57652
620.8205, 96.62898
621.3026, 96.19896
621.7847, 94.09251
622.2668, 91.68523
622.7490, 90.02368
623.2311, 89.23544
623.7132, 88.69508
624.1953, 88.28931
624.6774, 88.04518
625.1595, 88.00612
625.6417, 88.44495
626.1238, 88.57673
626.6059, 88.45824
627.0880, 87.97674
627.5701, 86.56074
628.0522, 83.96378
628.5344, 83.03071
629.0165, 84.91451
629.4986, 87.94661
629.9807, 88.76350
630.4628, 87.70699
630.9449, 86.61809
631.4271, 86.17501
631.9092, 86.30663
632.3913, 87.34941
632.8734, 89.09819
633.3555, 90.27212
633.8376, 89.51939
634.3198, 88.56317
634.8019, 88.49559
635.2840, 89.60477
635.7661, 90.64876
636.2482, 91.43236
636.7303, 92.17181
637.2125, 93.08144
637.6946, 94.43169
638.1767, 95.04699
638.6588, 94.56078
639.1409, 93.89339
639.6230, 94.83830
640.1052, 97.22371
640.5873, 98.25500
641.0694, 96.96625
641.5515, 94.42765
642.0336, 91.56799
642.5157, 88.72533
642.9979, 86.84794
643.4800, 87.12690
643.9621, 87.96278
644.4442, 88.56801
644.9263, 88.85814
645.4084, 88.47554
645.8906, 86.37599
646.3727, 84.38622
646.8548, 83.38310
647.3369, 83.44937
647.8190, 83.88107
648.3011, 84.97005
648.7833, 85.98180
649.2654, 86.18002
649.7475, 85.44994
650.2296, 85.54851
650.7117, 86.76464
651.1938, 88.07227
651.6760, 87.82032
652.1581, 86.56741
652.6402, 86.13273
653.1223, 87.30190
653.6044, 88.76954
654.0865, 89.46008
