##NAMES=Voltaite
##RRUFFID=R060237
##IDEAL CHEMISTRY=K_2_Fe^2+^_5_Fe^3+^_3_Al(S^6+^O_4_)_12_&#183;18H_2_O
##LOCALITY=Dexter no. 7 mine, Calf Mesa, San Rafael Swell, Emery County, Utah, USA
##OWNER=RRUFF
##SOURCE=University of Arizona Mineral Museum
##DESCRIPTION=Dark blue modified octahedra associated with romerite and coquimbite
##STATUS=The identification of this mineral has been confirmed by single-crystal X-ray diffraction.
##URL=rruff.info/R060237
156.9129, 476.4571
157.3950, 478.2577
157.8771, 480.7490
158.3592, 482.0234
158.8414, 481.4587
159.3235, 481.2235
159.8056, 482.2285
160.2877, 483.5797
160.7698, 484.4240
161.2519, 484.3598
161.7341, 483.7926
162.2162, 483.9376
162.6983, 485.5470
163.1804, 486.9044
163.6625, 487.8604
164.1446, 488.4200
164.6268, 488.5190
165.1089, 488.0932
165.5910, 487.2668
166.0731, 486.8390
166.5552, 487.3309
167.0373, 487.6529
167.5195, 487.1830
168.0016, 486.3817
168.4837, 486.2375
168.9658, 487.5011
169.4479, 490.0367
169.9300, 491.6093
170.4122, 491.5570
170.8943, 491.3964
171.3764, 492.0581
171.8585, 493.3337
172.3406, 494.1211
172.8227, 493.3704
173.3049, 491.3193
173.7870, 490.3170
174.2691, 491.1241
174.7512, 492.4364
175.2333, 493.3802
175.7154, 493.9298
176.1976, 493.9803
176.6797, 493.0213
177.1618, 491.4891
177.6439, 490.4731
178.1260, 490.6636
178.6081, 491.3233
179.0903, 491.2287
179.5724, 490.0641
180.0545, 489.0812
180.5366, 489.6293
181.0187, 490.8284
181.5008, 491.2312
181.9830, 489.9675
182.4651, 487.4637
182.9472, 484.8594
183.4293, 481.5491
183.9114, 479.2153
184.3935, 479.1835
184.8757, 480.4150
185.3578, 481.0869
185.8399, 479.7872
186.3220, 476.7639
186.8041, 474.7747
187.2862, 475.9113
187.7684, 475.8386
188.2505, 472.1765
188.7326, 466.3320
189.2147, 461.1982
189.6968, 459.2529
190.1789, 460.6451
190.6611, 460.8508
191.1432, 458.6458
191.6253, 456.4403
192.1074, 454.8603
192.5895, 453.9280
193.0716, 453.5361
193.5538, 453.7526
194.0359, 454.8383
194.5180, 454.1788
195.0001, 450.5968
195.4822, 446.7715
195.9643, 443.9950
196.4465, 442.2160
196.9286, 440.5960
197.4107, 438.3745
197.8928, 435.4484
198.3749, 432.6548
198.8570, 429.8668
199.3392, 427.2905
199.8213, 425.0254
200.3034, 423.0866
200.7855, 421.5591
201.2676, 420.7666
201.7497, 420.7255
202.2319, 419.6284
202.7140, 416.5799
203.1961, 412.9270
203.6782, 409.9029
204.1603, 407.6389
204.6424, 405.6449
205.1246, 403.6205
205.6067, 401.5259
206.0888, 399.1602
206.5709, 395.8322
207.0530, 392.4597
207.5351, 390.5151
208.0173, 390.3966
208.4994, 390.5439
208.9815, 389.7884
209.4636, 388.3902
209.9457, 386.7730
210.4278, 384.6330
210.9100, 382.4274
211.3921, 381.3550
211.8742, 382.0091
212.3563, 382.5764
212.8384, 381.9407
213.3205, 380.4857
213.8027, 378.8645
214.2848, 377.5218
214.7669, 376.2621
215.2490, 374.2307
215.7311, 370.4265
216.2132, 367.4536
216.6954, 366.5894
217.1775, 367.1488
217.6596, 368.0093
218.1417, 368.6610
218.6238, 369.0519
219.1059, 368.7661
219.5881, 366.7434
220.0702, 365.3801
220.5523, 365.6700
221.0344, 367.0203
221.5165, 368.5368
221.9986, 369.7254
222.4808, 370.5514
222.9629, 370.6606
223.4450, 369.0863
223.9271, 367.7732
224.4092, 366.9653
224.8913, 366.7096
225.3735, 367.1270
225.8556, 368.3975
226.3377, 370.3783
226.8198, 371.4959
227.3019, 370.4737
227.7840, 369.8921
228.2662, 370.4116
228.7483, 371.7512
229.2304, 373.3488
229.7125, 374.8462
230.1946, 376.2819
230.6767, 378.0613
231.1589, 380.3678
231.6410, 382.7783
232.1231, 385.4007
232.6052, 388.0529
233.0873, 390.4536
233.5694, 392.4488
234.0516, 394.0359
234.5337, 395.1276
235.0158, 394.1960
235.4979, 394.5154
235.9800, 397.7242
236.4621, 402.9263
236.9443, 408.2531
237.4264, 412.7335
237.9085, 416.4937
238.3906, 420.1251
238.8727, 424.1337
239.3548, 427.4996
239.8370, 429.0595
240.3191, 429.6304
240.8012, 431.2524
241.2833, 435.0368
241.7654, 440.4526
242.2475, 445.9603
242.7297, 452.0483
243.2118, 457.4574
243.6939, 461.1908
244.1760, 463.7042
244.6581, 466.2603
245.1402, 469.1668
245.6224, 472.6881
246.1045, 477.3912
246.5866, 483.6171
247.0687, 489.8770
247.5508, 495.7376
248.0329, 501.0824
248.5151, 505.4609
248.9972, 508.3682
249.4793, 510.6585
249.9614, 513.6653
250.4435, 517.5147
250.9256, 521.2628
251.4078, 524.2485
251.8899, 526.6501
252.3720, 529.4212
252.8541, 533.1149
253.3362, 536.8248
253.8183, 539.4579
254.3005, 541.0310
254.7826, 542.6194
255.2647, 545.1301
255.7468, 548.3094
256.2289, 550.8401
256.7110, 552.3113
257.1931, 553.2719
257.6753, 554.1609
258.1574, 554.9879
258.6395, 555.8104
259.1216, 556.7608
259.6037, 557.7759
260.0858, 558.5057
260.5680, 558.8879
261.0501, 558.9824
261.5322, 559.2459
262.0143, 559.3965
262.4964, 558.5831
262.9785, 555.8975
263.4607, 551.6476
263.9428, 547.5757
264.4249, 543.8640
264.9070, 540.1014
265.3891, 536.0579
265.8712, 531.8246
266.3534, 527.5882
266.8355, 523.3519
267.3176, 519.2122
267.7997, 515.7572
268.2818, 514.2894
268.7639, 511.3804
269.2461, 504.8978
269.7282, 496.6038
270.2103, 489.1418
270.6924, 484.0941
271.1745, 480.6039
271.6566, 475.7865
272.1388, 468.3717
272.6209, 461.8495
273.1030, 457.7680
273.5851, 454.6936
274.0672, 451.0891
274.5493, 446.2471
275.0315, 440.5013
275.5136, 434.6107
275.9957, 428.1651
276.4778, 422.3664
276.9599, 417.4324
277.4420, 413.1002
277.9242, 409.4034
278.4063, 406.3188
278.8884, 403.2115
279.3705, 398.6075
279.8526, 391.1801
280.3347, 385.1786
280.8169, 381.7690
281.2990, 379.2085
281.7811, 376.3221
282.2632, 372.7966
282.7453, 369.0034
283.2274, 365.4508
283.7096, 362.1377
284.1917, 359.1010
284.6738, 356.4200
285.1559, 353.9052
285.6380, 351.7231
286.1201, 349.7381
286.6023, 347.3497
287.0844, 343.6394
287.5665, 338.0107
288.0486, 333.5534
288.5307, 330.5993
289.0128, 328.4072
289.4950, 327.1036
289.9771, 326.3784
290.4592, 325.4712
290.9413, 323.5878
291.4234, 320.5998
291.9055, 318.3913
292.3877, 318.1053
292.8698, 317.4419
293.3519, 315.3436
293.8340, 312.2675
294.3161, 309.2625
294.7982, 307.0659
295.2804, 305.6230
295.7625, 304.3354
296.2446, 303.8921
296.7267, 302.8491
297.2088, 300.0916
297.6909, 296.7262
298.1731, 294.5429
298.6552, 294.5842
299.1373, 296.1655
299.6194, 296.6960
300.1015, 295.5775
300.5836, 293.9879
301.0658, 291.4640
301.5479, 288.7601
302.0300, 286.6628
302.5121, 285.4868
302.9942, 284.9636
303.4763, 284.5954
303.9585, 285.1938
304.4406, 284.6209
304.9227, 281.4861
305.4048, 278.1147
305.8869, 276.6400
306.3690, 277.4258
306.8512, 278.9439
307.3333, 278.9796
307.8154, 276.5044
308.2975, 275.2903
308.7796, 276.7168
309.2617, 278.0753
309.7439, 277.5533
310.2260, 275.2005
310.7081, 272.2682
311.1902, 269.9137
311.6723, 268.0865
312.1544, 267.1695
312.6366, 267.6374
313.1187, 268.3941
313.6008, 269.3998
314.0829, 270.3669
314.5650, 270.7019
315.0471, 269.8845
315.5293, 268.0448
316.0114, 266.9133
316.4935, 267.7853
316.9756, 267.9122
317.4577, 266.0307
317.9398, 263.1881
318.4220, 260.9066
318.9041, 259.9594
319.3862, 260.1015
319.8683, 260.5750
320.3504, 261.7712
320.8326, 262.8180
321.3147, 264.1343
321.7968, 265.0628
322.2789, 264.5396
322.7610, 262.3403
323.2431, 259.7800
323.7253, 259.3089
324.2074, 263.1920
324.6895, 264.6415
325.1716, 261.9195
325.6537, 258.4205
326.1358, 256.2274
326.6180, 255.6884
327.1001, 256.1294
327.5822, 256.9730
328.0643, 258.4812
328.5464, 258.9913
329.0285, 257.6176
329.5107, 256.2367
329.9928, 255.7828
330.4749, 256.0082
330.9570, 256.0264
331.4391, 255.0706
331.9212, 253.2782
332.4034, 252.7094
332.8855, 255.2882
333.3676, 257.0390
333.8497, 256.5648
334.3318, 254.9602
334.8139, 253.8298
335.2961, 253.9894
335.7782, 254.9671
336.2603, 255.3760
336.7424, 254.7469
337.2245, 254.2168
337.7066, 254.1398
338.1888, 254.0394
338.6709, 253.3280
339.1530, 251.9075
339.6351, 250.3831
340.1172, 249.7657
340.5993, 250.6772
341.0815, 250.9043
341.5636, 250.1165
342.0457, 249.0204
342.5278, 247.8538
343.0099, 246.7137
343.4920, 245.6950
343.9742, 244.8900
344.4563, 244.3048
344.9384, 243.8191
345.4205, 243.2885
345.9026, 243.0209
346.3847, 243.2938
346.8669, 243.8734
347.3490, 244.3879
347.8311, 244.6349
348.3132, 244.6047
348.7953, 244.2136
349.2774, 243.0706
349.7596, 242.1699
350.2417, 241.9569
350.7238, 241.9171
351.2059, 241.4323
351.6880, 240.3004
352.1701, 239.0374
352.6523, 238.5722
353.1344, 239.2215
353.6165, 239.7031
354.0986, 239.8684
354.5807, 239.8478
355.0628, 239.5850
355.5450, 239.1440
356.0271, 238.7907
356.5092, 238.9221
356.9913, 239.5721
357.4734, 239.6853
357.9555, 238.4770
358.4377, 237.6149
358.9198, 238.2370
359.4019, 239.6827
359.8840, 240.5182
360.3661, 239.6516
360.8482, 237.7884
361.3304, 237.2096
361.8125, 238.6355
362.2946, 239.7652
362.7767, 239.1204
363.2588, 238.0989
363.7409, 238.4059
364.2231, 240.7288
364.7052, 243.3717
365.1873, 243.8349
365.6694, 241.8079
366.1515, 240.5041
366.6336, 241.0873
367.1158, 242.3253
367.5979, 243.3853
368.0800, 244.2267
368.5621, 245.0858
369.0442, 246.3929
369.5263, 247.9386
370.0085, 248.6165
370.4906, 247.9993
370.9727, 247.1121
371.4548, 246.4942
371.9369, 246.1400
372.4190, 246.0584
372.9012, 246.1322
373.3833, 246.5594
373.8654, 247.8510
374.3475, 250.1238
374.8296, 252.2279
375.3117, 253.6080
375.7939, 254.4462
376.2760, 255.0641
376.7581, 255.5365
377.2402, 255.6611
377.7223, 255.0402
378.2044, 253.8723
378.6866, 252.9474
379.1687, 252.3254
379.6508, 252.2967
380.1329, 253.5986
380.6150, 256.1864
381.0971, 258.1958
381.5793, 258.8888
382.0614, 258.7219
382.5435, 258.1248
383.0256, 257.1134
383.5077, 256.2545
383.9898, 255.8923
384.4720, 256.0999
384.9541, 256.9107
385.4362, 259.0156
385.9183, 261.0970
386.4004, 262.4122
386.8825, 263.0412
387.3647, 263.2502
387.8468, 263.0800
388.3289, 262.6993
388.8110, 262.5915
389.2931, 263.0801
389.7752, 263.1155
390.2574, 262.1177
390.7395, 260.7141
391.2216, 259.5777
391.7037, 258.8709
392.1858, 258.5421
392.6679, 258.6109
393.1501, 259.2220
393.6322, 259.4434
394.1143, 259.4542
394.5964, 258.9580
395.0785, 257.2355
395.5606, 254.7841
396.0428, 253.0869
396.5249, 253.1938
397.0070, 254.6719
397.4891, 255.1821
397.9712, 254.2346
398.4533, 252.8602
398.9355, 250.3679
399.4176, 247.8617
399.8997, 246.8134
400.3818, 247.5799
400.8639, 248.8626
401.3460, 248.6310
401.8282, 246.1753
402.3103, 244.1552
402.7924, 242.5307
403.2745, 241.2953
403.7566, 240.5558
404.2387, 240.2194
404.7209, 240.1005
405.2030, 240.1384
405.6851, 240.2539
406.1672, 239.7931
406.6493, 238.2031
407.1314, 236.8234
407.6136, 236.1608
408.0957, 235.7621
408.5778, 235.0049
409.0599, 233.6625
409.5420, 232.3397
410.0241, 232.2006
410.5063, 233.6421
410.9884, 234.1137
411.4705, 232.0071
411.9526, 229.8609
412.4347, 229.3490
412.9168, 230.2361
413.3990, 231.0205
413.8811, 230.0802
414.3632, 228.1571
414.8453, 228.2801
415.3274, 231.2418
415.8095, 234.2998
416.2917, 235.6310
416.7738, 236.2595
417.2559, 237.7621
417.7380, 241.1965
418.2201, 244.1515
418.7022, 243.3422
419.1844, 239.2843
419.6665, 237.1441
420.1486, 239.2840
420.6307, 242.8654
421.1128, 243.8812
421.5949, 242.3428
422.0771, 241.9777
422.5592, 245.2282
423.0413, 249.9298
423.5234, 253.2573
424.0055, 254.9039
424.4876, 255.5611
424.9698, 255.1843
425.4519, 254.1850
425.9340, 254.9127
426.4161, 258.9908
426.8982, 263.0169
427.3803, 265.6129
427.8625, 267.0390
428.3446, 267.6370
428.8267, 267.4663
429.3088, 267.0694
429.7909, 267.4198
430.2730, 269.0899
430.7552, 270.2173
431.2373, 270.3560
431.7194, 270.2715
432.2015, 270.5346
432.6836, 271.1365
433.1657, 271.6728
433.6479, 271.7514
434.1300, 271.4574
434.6121, 271.9598
435.0942, 275.2109
435.5763, 276.9795
436.0584, 275.3868
436.5406, 272.4712
437.0227, 270.3596
437.5048, 269.8394
437.9869, 270.6259
438.4690, 272.7081
438.9511, 277.0739
439.4333, 279.4962
439.9154, 277.8167
440.3975, 276.0529
440.8796, 276.2337
441.3617, 277.8804
441.8438, 279.2442
442.3260, 278.8791
442.8081, 277.5960
443.2902, 278.4306
443.7723, 282.5700
444.2544, 285.8488
444.7365, 286.3917
445.2187, 285.6560
445.7008, 284.5164
446.1829, 283.0808
446.6650, 282.2424
447.1471, 283.1206
447.6292, 285.4049
448.1114, 287.4232
448.5935, 288.9460
449.0756, 290.1205
449.5577, 290.8358
450.0398, 291.2672
450.5219, 291.9722
451.0041, 293.2531
451.4862, 294.7567
451.9683, 296.2901
452.4504, 297.8071
452.9325, 298.9227
453.4146, 299.3337
453.8968, 299.4051
454.3789, 300.0030
454.8610, 301.3347
455.3431, 302.4134
455.8252, 302.9278
456.3073, 303.1276
456.7895, 303.3637
457.2716, 303.6493
457.7537, 303.5021
458.2358, 302.2355
458.7179, 299.8484
459.2000, 299.7468
459.6822, 304.8679
460.1643, 308.5100
460.6464, 307.7027
461.1285, 304.6545
461.6106, 302.5289
462.0927, 302.5041
462.5748, 303.4597
463.0569, 303.5965
463.5391, 302.8237
464.0212, 301.4371
464.5033, 299.3020
464.9854, 296.7284
465.4675, 293.4668
465.9496, 289.8604
466.4318, 286.6774
466.9139, 284.4839
467.3960, 282.9664
467.8781, 281.1984
468.3602, 279.2541
468.8423, 276.8394
469.3245, 273.5347
469.8066, 269.9164
470.2887, 266.2328
470.7708, 262.5468
471.2529, 259.3683
471.7350, 257.4222
472.2172, 256.3505
472.6993, 254.8812
473.1814, 252.9385
473.6635, 250.5031
474.1456, 247.4589
474.6277, 243.8971
475.1099, 239.9568
475.5920, 235.2484
476.0741, 230.7197
476.5562, 226.9173
477.0383, 223.8310
477.5204, 221.5056
478.0026, 220.1082
478.4847, 218.9739
478.9668, 217.0720
479.4489, 214.1003
479.9310, 211.8789
480.4131, 211.3551
480.8953, 210.9031
481.3774, 209.3714
481.8595, 206.9285
482.3416, 204.3146
482.8237, 201.9265
483.3058, 199.7659
483.7880, 197.8293
484.2701, 196.3966
484.7522, 194.7940
485.2343, 192.5876
485.7164, 190.4945
486.1985, 189.2637
486.6807, 188.8205
487.1628, 188.3566
487.6449, 187.1204
488.1270, 185.1613
488.6091, 183.1964
489.0912, 181.1073
489.5734, 179.2034
490.0555, 177.0889
490.5376, 175.3925
491.0197, 175.1121
491.5018, 176.5921
491.9839, 178.3015
492.4661, 178.5211
492.9482, 177.4322
493.4303, 176.7582
493.9124, 177.1226
494.3945, 177.1828
494.8766, 175.1643
495.3588, 171.9255
495.8409, 169.8529
496.3230, 170.1982
496.8051, 171.2744
497.2872, 172.0342
497.7693, 172.4140
498.2515, 172.0023
498.7336, 170.4630
499.2157, 168.6006
499.6978, 167.7667
500.1799, 168.3395
500.6620, 168.4931
501.1442, 167.8427
501.6263, 166.9704
502.1084, 165.7963
502.5905, 164.7019
503.0726, 164.8784
503.5547, 167.2288
504.0369, 170.8112
504.5190, 172.3028
505.0011, 169.8486
505.4832, 168.1837
505.9653, 168.3801
506.4474, 168.7566
506.9296, 167.7868
507.4117, 165.6202
507.8938, 163.7587
508.3759, 163.6130
508.8580, 164.8267
509.3401, 165.2615
509.8223, 164.5470
510.3044, 163.8628
510.7865, 163.9400
511.2686, 164.0951
511.7507, 163.4140
512.2328, 161.6480
512.7150, 160.2830
513.1971, 160.8169
513.6792, 162.6136
514.1613, 163.8725
514.6434, 164.3737
515.1255, 164.3606
515.6077, 163.7673
516.0898, 162.7835
516.5719, 162.2476
517.0540, 162.6666
517.5361, 162.9602
518.0182, 162.5531
518.5004, 161.7225
518.9825, 160.8244
519.4646, 159.9634
519.9467, 159.3576
520.4288, 159.3008
520.9109, 159.8865
521.3931, 160.4082
521.8752, 160.7496
522.3573, 161.1694
522.8394, 162.0914
523.3215, 163.0479
523.8036, 163.1606
524.2858, 162.1011
524.7679, 160.7305
525.2500, 160.6262
525.7321, 162.1785
526.2142, 162.9988
526.6964, 162.1366
527.1785, 161.3881
527.6606, 161.7970
528.1427, 162.9376
528.6248, 163.8150
529.1069, 163.9380
529.5891, 163.7382
530.0712, 163.8714
530.5533, 164.2980
531.0354, 164.2802
531.5175, 163.4233
531.9996, 162.3499
532.4818, 161.8836
532.9639, 161.9710
533.4460, 161.8787
533.9281, 161.1556
534.4102, 160.4545
534.8923, 160.3713
535.3745, 160.7640
535.8566, 161.0704
536.3387, 161.0087
536.8208, 160.8203
537.3029, 160.9991
537.7850, 161.6932
538.2672, 162.4883
538.7493, 164.1729
539.2314, 165.2428
539.7135, 164.1574
540.1956, 161.7197
540.6777, 160.1185
541.1599, 160.7557
541.6420, 162.6923
542.1241, 163.5781
542.6062, 163.2218
543.0883, 162.4221
543.5704, 160.4362
544.0526, 158.7847
544.5347, 158.8839
545.0168, 160.3604
545.4989, 161.2732
545.9810, 160.1104
546.4631, 158.0603
546.9453, 156.9221
547.4274, 156.6775
547.9095, 156.8528
548.3916, 157.3895
548.8737, 158.0871
549.3558, 158.4641
549.8380, 158.3631
550.3201, 158.8885
550.8022, 161.2602
551.2843, 163.5465
551.7664, 163.8548
552.2485, 162.5608
552.7307, 161.3322
553.2128, 161.1052
553.6949, 161.6038
554.1770, 162.0852
554.6591, 162.7610
555.1412, 163.0151
555.6234, 162.4644
556.1055, 161.8694
556.5876, 161.6646
557.0697, 161.8259
557.5518, 162.1397
558.0339, 162.5083
558.5161, 162.8919
558.9982, 163.2167
559.4803, 163.4932
559.9624, 163.6359
560.4445, 163.5397
560.9266, 163.3759
561.4088, 163.3245
561.8909, 163.3743
562.3730, 163.3793
562.8551, 162.7414
563.3372, 162.4135
563.8193, 163.9415
564.3015, 166.9121
564.7836, 169.1068
565.2657, 169.5057
565.7478, 168.7572
566.2299, 167.9851
566.7120, 167.0595
567.1942, 166.4739
567.6763, 165.9692
568.1584, 166.0403
568.6405, 167.3850
569.1226, 169.5047
569.6047, 171.3559
570.0869, 172.3886
570.5690, 172.8255
571.0511, 172.9930
571.5332, 172.7089
572.0153, 172.8712
572.4974, 173.8669
572.9796, 175.0448
573.4617, 176.0663
573.9438, 176.9959
574.4259, 178.0860
574.9080, 179.7394
575.3901, 181.1524
575.8723, 180.8897
576.3544, 179.3600
576.8365, 178.9944
577.3186, 180.6566
577.8007, 183.0731
578.2828, 184.8438
578.7650, 185.9244
579.2471, 187.2005
579.7292, 189.0169
580.2113, 190.6854
580.6934, 192.1314
581.1755, 193.1417
581.6577, 193.1847
582.1398, 192.1428
582.6219, 190.8829
583.1040, 190.6525
583.5861, 191.6405
584.0682, 192.1541
584.5504, 191.6959
585.0325, 191.3574
585.5146, 191.3846
585.9967, 191.7511
586.4788, 192.5474
586.9609, 193.8320
587.4431, 194.9902
587.9252, 195.3899
588.4073, 195.1732
588.8894, 194.8312
589.3715, 194.3650
589.8536, 193.9799
590.3358, 193.7755
590.8179, 193.7725
591.3000, 194.0206
591.7821, 194.8727
592.2642, 195.3446
592.7463, 194.9015
593.2285, 194.0481
593.7106, 193.2687
594.1927, 192.6570
594.6748, 192.2276
595.1569, 192.0740
595.6390, 192.0265
596.1212, 191.0854
596.6033, 188.1826
597.0854, 186.2636
597.5675, 186.2884
598.0496, 186.8121
598.5317, 187.0663
599.0139, 186.8852
599.4960, 186.1278
599.9781, 184.2598
600.4602, 182.0997
600.9423, 181.3737
601.4244, 182.0988
601.9066, 182.7775
602.3887, 183.0383
602.8708, 182.8651
603.3529, 181.8916
603.8350, 180.0757
604.3171, 179.1666
604.7993, 180.3515
605.2814, 181.6067
605.7635, 181.5999
606.2456, 180.6869
606.7277, 179.5746
607.2098, 178.5560
607.6920, 177.9247
608.1741, 178.2612
608.6562, 179.8466
609.1383, 180.8642
609.6204, 181.1151
610.1025, 180.9854
610.5847, 180.1232
611.0668, 179.1437
611.5489, 178.8228
612.0310, 179.3732
612.5131, 180.5571
612.9952, 182.8800
613.4774, 185.6702
613.9595, 186.3802
614.4416, 184.4842
614.9237, 182.7924
615.4058, 183.2337
615.8879, 185.0940
616.3701, 185.9930
616.8522, 185.2487
617.3343, 185.0465
617.8164, 186.4396
618.2985, 188.1087
618.7806, 188.7331
619.2628, 188.4543
619.7449, 188.3337
620.2270, 189.0765
620.7091, 190.3292
621.1912, 190.9510
621.6733, 190.4322
622.1555, 190.8259
622.6376, 193.6745
623.1197, 196.2854
623.6018, 197.1251
624.0839, 196.5217
624.5660, 195.4739
625.0482, 194.1904
625.5303, 192.8877
626.0124, 191.7352
626.4945, 190.7491
626.9766, 190.0271
627.4587, 189.6015
627.9409, 189.3531
628.4230, 189.2318
628.9051, 189.2305
629.3872, 188.8958
629.8693, 188.1430
630.3514, 187.2226
630.8336, 185.9294
631.3157, 184.6412
631.7978, 183.5005
632.2799, 182.6797
632.7620, 182.7652
633.2441, 184.6792
633.7263, 187.6441
634.2084, 188.2875
634.6905, 185.9638
635.1726, 183.8611
635.6547, 182.9029
636.1368, 182.5822
636.6190, 182.5514
637.1011, 182.7660
637.5832, 182.6592
638.0653, 181.7726
638.5474, 180.7438
639.0295, 179.8387
639.5117, 179.2284
639.9938, 179.4072
640.4759, 180.5444
640.9580, 182.1363
641.4401, 183.6184
641.9222, 185.0558
642.4044, 185.7733
642.8865, 185.4953
643.3686, 184.7669
643.8507, 183.0534
644.3328, 181.2986
644.8149, 180.6860
645.2971, 181.3529
645.7792, 182.1036
646.2613, 181.7304
646.7434, 180.7740
647.2255, 180.7844
647.7076, 181.8347
648.1898, 182.4571
648.6719, 181.9285
649.1540, 180.7630
649.6361, 179.7173
650.1182, 178.7036
650.6003, 178.2160
651.0825, 178.9646
651.5646, 179.5824
652.0467, 179.1537
