##NAMES=Voltaite
##RRUFFID=R060237
##IDEAL CHEMISTRY=K_2_Fe^2+^_5_Fe^3+^_3_Al(S^6+^O_4_)_12_&#183;18H_2_O
##LOCALITY=Dexter no. 7 mine, Calf Mesa, San Rafael Swell, Emery County, Utah, USA
##OWNER=RRUFF
##SOURCE=University of Arizona Mineral Museum
##DESCRIPTION=Dark blue modified octahedra associated with romerite and coquimbite
##STATUS=The identification of this mineral has been confirmed by single-crystal X-ray diffraction.
##URL=rruff.info/R060237
150.4142, 218.9376
150.8963, 222.0816
151.3785, 225.1144
151.8606, 227.9382
152.3427, 230.2717
152.8248, 233.1600
153.3069, 236.8841
153.7890, 241.1603
154.2712, 244.7713
154.7533, 247.0458
155.2354, 248.8884
155.7175, 250.1353
156.1996, 250.3268
156.6817, 250.7422
157.1639, 251.7722
157.6460, 253.1406
158.1281, 254.2342
158.6102, 254.6751
159.0923, 254.9961
159.5744, 255.4741
160.0566, 256.2974
160.5387, 257.0426
161.0208, 257.4301
161.5029, 257.6220
161.9850, 258.0886
162.4671, 259.4720
162.9493, 260.9063
163.4314, 261.7896
163.9135, 261.6138
164.3956, 261.3543
164.8777, 261.4134
165.3598, 261.7336
165.8420, 262.0869
166.3241, 262.2388
166.8062, 262.4229
167.2883, 262.8416
167.7704, 263.5189
168.2525, 264.4624
168.7346, 265.9075
169.2168, 267.7486
169.6989, 269.3242
170.1810, 270.0837
170.6631, 270.4033
171.1452, 270.7377
171.6273, 271.4226
172.1095, 272.0320
172.5916, 272.0348
173.0737, 271.4950
173.5558, 271.1459
174.0379, 271.6128
174.5201, 272.6045
175.0022, 273.6658
175.4843, 274.8289
175.9664, 275.8751
176.4485, 276.4117
176.9306, 276.4549
177.4128, 276.4715
177.8949, 276.9161
178.3770, 277.6314
178.8591, 278.2809
179.3412, 278.7299
179.8233, 279.0293
180.3055, 279.2706
180.7876, 279.4586
181.2697, 279.5467
181.7518, 279.3532
182.2339, 278.9930
182.7160, 278.8291
183.1982, 279.1573
183.6803, 279.7752
184.1624, 280.2801
184.6445, 280.6784
185.1266, 280.9049
185.6087, 280.7456
186.0909, 280.2829
186.5730, 279.9610
187.0551, 280.0472
187.5372, 280.4306
188.0193, 280.7867
188.5014, 281.1310
188.9836, 281.3503
189.4657, 281.3036
189.9478, 280.9964
190.4299, 280.5099
190.9120, 279.8212
191.3941, 278.9640
191.8763, 278.0640
192.3584, 277.0786
192.8405, 276.1878
193.3226, 275.8096
193.8047, 275.9502
194.2868, 275.7849
194.7690, 274.7361
195.2511, 272.8914
195.7332, 271.4210
196.2153, 270.4363
196.6974, 269.6428
197.1795, 268.5150
197.6617, 267.0135
198.1438, 265.6628
198.6259, 264.9372
199.1080, 264.8400
199.5901, 263.9583
200.0722, 262.0652
200.5544, 259.6962
201.0365, 257.8610
201.5186, 256.6114
202.0007, 255.4717
202.4828, 254.2180
202.9649, 252.8352
203.4471, 251.5305
203.9292, 250.3256
204.4113, 249.1514
204.8934, 247.8803
205.3755, 246.5343
205.8576, 245.0420
206.3398, 243.2857
206.8219, 241.1857
207.3040, 239.3746
207.7861, 237.9642
208.2682, 236.7695
208.7503, 235.4612
209.2325, 234.0889
209.7146, 232.4998
210.1967, 230.5234
210.6788, 228.0114
211.1609, 225.8666
211.6430, 224.2032
212.1252, 222.8291
212.6073, 221.3712
213.0894, 219.8677
213.5715, 218.2067
214.0536, 216.2466
214.5357, 213.7876
215.0179, 211.7676
215.5000, 210.2595
215.9821, 209.1289
216.4642, 208.1110
216.9463, 207.2787
217.4284, 206.4168
217.9105, 205.4591
218.3927, 204.4783
218.8748, 203.1267
219.3569, 201.1143
219.8390, 198.8928
220.3211, 197.4836
220.8032, 197.2520
221.2854, 197.1407
221.7675, 196.6777
222.2496, 195.6859
222.7317, 194.9160
223.2138, 194.4562
223.6959, 194.1743
224.1781, 193.7412
224.6602, 193.0023
225.1423, 192.3899
225.6244, 192.1777
226.1065, 192.6732
226.5886, 192.5957
227.0708, 191.6382
227.5529, 190.2582
228.0350, 189.4059
228.5171, 189.2671
228.9992, 189.3307
229.4813, 189.4001
229.9635, 189.4183
230.4456, 189.6348
230.9277, 190.1598
231.4098, 190.8255
231.8919, 191.2917
232.3740, 191.3659
232.8562, 191.5492
233.3383, 192.0305
233.8204, 192.8832
234.3025, 193.8063
234.7846, 194.8376
235.2667, 195.9225
235.7489, 196.8975
236.2310, 197.5124
236.7131, 198.4224
237.1952, 199.9251
237.6773, 202.1843
238.1594, 204.3635
238.6416, 206.4389
239.1237, 208.4527
239.6058, 210.4497
240.0879, 212.3844
240.5700, 214.4108
241.0521, 216.5388
241.5343, 218.6731
242.0164, 221.2690
242.4985, 224.5616
242.9806, 228.1516
243.4627, 231.4272
243.9448, 234.1106
244.4270, 236.9295
244.9091, 239.9550
245.3912, 243.0638
245.8733, 247.1972
246.3554, 252.9876
246.8375, 259.3206
247.3197, 264.6439
247.8018, 268.2119
248.2839, 272.1136
248.7660, 277.0040
249.2481, 283.0800
249.7302, 288.7080
250.2124, 293.6381
250.6945, 298.4022
251.1766, 303.7240
251.6587, 309.9329
252.1408, 316.0617
252.6229, 321.8294
253.1051, 327.2457
253.5872, 332.9181
254.0693, 338.9492
254.5514, 345.2247
255.0335, 351.6616
255.5156, 358.2078
255.9978, 364.8802
256.4799, 371.6850
256.9620, 378.6483
257.4441, 385.7023
257.9262, 392.9017
258.4083, 400.1010
258.8904, 407.0938
259.3726, 413.9928
259.8547, 420.5164
260.3368, 426.4636
260.8189, 431.9341
261.3010, 437.5234
261.7831, 443.4132
262.2653, 449.1230
262.7474, 454.1374
263.2295, 458.2813
263.7116, 462.4214
264.1937, 466.9664
264.6758, 471.6468
265.1580, 475.1237
265.6401, 477.2109
266.1222, 478.4070
266.6043, 478.9580
267.0864, 478.7458
267.5685, 478.3843
268.0507, 478.0955
268.5328, 477.6649
269.0149, 476.2239
269.4970, 473.5434
269.9791, 470.3627
270.4612, 467.2062
270.9434, 464.3400
271.4255, 460.1933
271.9076, 454.2437
272.3897, 447.1875
272.8718, 440.8518
273.3539, 435.4784
273.8361, 430.0103
274.3182, 423.9328
274.8003, 417.2490
275.2824, 410.0486
275.7645, 402.2491
276.2466, 394.0921
276.7288, 385.9569
277.2109, 377.8199
277.6930, 369.9117
278.1751, 362.6809
278.6572, 356.1564
279.1393, 348.9789
279.6215, 340.9279
280.1036, 332.6635
280.5857, 325.2623
281.0678, 318.8346
281.5499, 312.4678
282.0320, 305.8807
282.5142, 299.0832
282.9963, 292.5855
283.4784, 286.4209
283.9605, 280.4544
284.4426, 274.4066
284.9247, 268.2650
285.4069, 262.6227
285.8890, 257.8891
286.3711, 253.8556
286.8532, 249.1299
287.3353, 243.5778
287.8174, 238.0451
288.2996, 233.5784
288.7817, 230.0776
289.2638, 226.6536
289.7459, 223.1017
290.2280, 219.4585
290.7101, 215.5722
291.1923, 211.3960
291.6744, 207.5185
292.1565, 204.5739
292.6386, 202.3924
293.1207, 200.1103
293.6028, 197.4842
294.0850, 194.7269
294.5671, 192.0855
295.0492, 189.5603
295.5313, 187.1758
296.0134, 185.1273
296.4955, 183.2603
296.9777, 181.0575
297.4598, 178.3083
297.9419, 175.5330
298.4240, 173.5953
298.9061, 172.3914
299.3882, 171.3313
299.8704, 170.2025
300.3525, 168.9600
300.8346, 167.4202
301.3167, 165.5151
301.7988, 163.5828
302.2809, 161.9543
302.7631, 160.5906
303.2452, 159.3194
303.7273, 158.2076
304.2094, 157.0883
304.6915, 155.6465
305.1736, 153.8147
305.6558, 152.1253
306.1379, 151.1375
306.6200, 150.6131
307.1021, 150.1074
307.5842, 149.4070
308.0663, 148.6501
308.5485, 147.9789
309.0306, 147.3908
309.5127, 146.7486
309.9948, 146.0538
310.4769, 145.2191
310.9590, 144.1248
311.4412, 142.4150
311.9233, 140.7241
312.4054, 139.4975
312.8875, 138.6749
313.3696, 138.0009
313.8517, 137.4480
314.3339, 136.9321
314.8160, 136.3790
315.2981, 135.7803
315.7802, 135.1399
316.2623, 134.5097
316.7444, 133.8528
317.2266, 133.0516
317.7087, 131.8336
318.1908, 130.6193
318.6729, 129.6662
319.1550, 129.0696
319.6371, 128.5855
320.1193, 128.1755
320.6014, 127.8186
321.0835, 127.4745
321.5656, 127.2887
322.0477, 126.9800
322.5298, 126.2894
323.0120, 125.0466
323.4941, 124.2409
323.9762, 124.5983
324.4583, 125.2956
324.9404, 125.4428
325.4225, 124.2686
325.9047, 123.1596
326.3868, 122.4518
326.8689, 122.1518
327.3510, 122.0224
327.8331, 122.3063
328.3152, 122.6059
328.7974, 122.6458
329.2795, 122.1563
329.7616, 121.7206
330.2437, 121.3489
330.7258, 121.0547
331.2079, 120.9135
331.6901, 120.9817
332.1722, 121.1445
332.6543, 121.3525
333.1364, 121.6290
333.6185, 121.9008
334.1006, 122.1692
334.5828, 122.4283
335.0649, 122.6590
335.5470, 122.8557
336.0291, 123.0349
336.5112, 123.2094
336.9933, 123.3933
337.4755, 123.5028
337.9576, 123.5205
338.4397, 123.4846
338.9218, 123.4097
339.4039, 123.2427
339.8860, 123.2497
340.3681, 123.6114
340.8503, 124.2802
341.3324, 124.5243
341.8145, 124.2754
342.2966, 123.8034
342.7787, 123.3429
343.2608, 122.9030
343.7430, 122.3522
344.2251, 121.6141
344.7072, 120.7881
345.1893, 120.2030
345.6714, 119.8664
346.1535, 119.6118
346.6357, 119.3194
347.1178, 119.0026
347.5999, 118.7968
348.0820, 118.7865
348.5641, 118.7170
349.0462, 117.9642
349.5284, 116.6474
350.0105, 115.6395
350.4926, 115.8527
350.9747, 116.6423
351.4568, 116.4404
351.9389, 115.1091
352.4211, 113.5323
352.9032, 112.5047
353.3853, 111.9391
353.8674, 111.6311
354.3495, 111.7259
354.8316, 111.8970
355.3138, 111.7309
355.7959, 111.2533
356.2780, 110.7304
356.7601, 110.3835
357.2422, 110.0849
357.7243, 109.6269
358.2065, 108.7371
358.6886, 108.0168
359.1707, 108.1242
359.6528, 108.7880
360.1349, 109.1902
360.6170, 108.4442
361.0992, 107.6033
361.5813, 107.5281
362.0634, 108.6200
362.5455, 109.5549
363.0276, 109.6107
363.5097, 109.2148
363.9919, 109.0031
364.4740, 109.4663
364.9561, 109.8728
365.4382, 109.8300
365.9203, 109.2631
366.4024, 108.9804
366.8846, 109.4200
367.3667, 110.0562
367.8488, 110.4632
368.3309, 110.2115
368.8130, 110.1585
369.2951, 110.5056
369.7773, 111.1956
370.2594, 111.7982
370.7415, 112.2393
371.2236, 112.6686
371.7057, 113.1614
372.1878, 113.7738
372.6700, 114.3331
373.1521, 114.7157
373.6342, 115.0943
374.1163, 115.8467
374.5984, 117.1972
375.0805, 118.4687
375.5627, 119.4295
376.0448, 120.0537
376.5269, 120.7170
377.0090, 121.4522
377.4911, 122.1755
377.9732, 122.7694
378.4554, 123.1921
378.9375, 123.7117
379.4196, 124.3302
379.9017, 125.1069
380.3838, 126.4297
380.8659, 128.3647
381.3481, 130.2458
381.8302, 131.5147
382.3123, 132.2464
382.7944, 132.9360
383.2765, 133.5938
383.7586, 134.3573
384.2408, 135.5535
384.7229, 137.1074
385.2050, 138.6236
385.6871, 139.8914
386.1692, 140.9677
386.6513, 141.9233
387.1335, 142.7417
387.6156, 143.6881
388.0977, 145.1810
388.5798, 146.9365
389.0619, 148.4453
389.5440, 149.3740
390.0262, 150.1238
390.5083, 151.0674
390.9904, 152.1696
391.4725, 153.2301
391.9546, 154.1102
392.4367, 154.9056
392.9189, 155.7150
393.4010, 156.5748
393.8831, 157.3892
394.3652, 158.1360
394.8473, 158.7958
395.3294, 159.3404
395.8116, 159.7413
396.2937, 160.0362
396.7758, 160.2043
397.2579, 160.2299
397.7400, 160.2984
398.2221, 160.6573
398.7043, 160.9621
399.1864, 160.9309
399.6685, 160.2758
400.1506, 159.5861
400.6327, 158.9961
401.1148, 158.4414
401.5970, 157.5975
402.0791, 156.2814
402.5612, 154.9002
403.0433, 153.6231
403.5254, 152.4614
404.0075, 151.4032
404.4897, 150.5665
404.9718, 149.7367
405.4539, 148.5569
405.9360, 146.9249
406.4181, 145.2574
406.9002, 143.6537
407.3824, 142.1169
407.8645, 140.5177
408.3466, 138.8305
408.8287, 137.1740
409.3108, 135.6161
409.7929, 134.1647
410.2751, 132.9062
410.7572, 131.8922
411.2393, 130.9838
411.7214, 129.9338
412.2035, 128.7501
412.6856, 127.5580
413.1678, 126.3654
413.6499, 125.2248
414.1320, 124.2172
414.6141, 123.3324
415.0962, 122.6555
415.5783, 122.3864
416.0605, 122.3649
416.5426, 122.2716
417.0247, 121.7734
417.5068, 121.3611
417.9889, 121.7266
418.4710, 122.6609
418.9532, 123.1991
419.4353, 122.0140
419.9174, 120.6809
420.3995, 120.5520
420.8816, 122.2391
421.3637, 124.1448
421.8459, 125.6307
422.3280, 126.9386
422.8101, 128.4601
423.2922, 130.0173
423.7743, 132.0470
424.2564, 135.0118
424.7386, 139.0115
425.2207, 142.2353
425.7028, 144.0219
426.1849, 145.2882
426.6670, 146.6153
427.1491, 148.0201
427.6313, 149.4466
428.1134, 150.7409
428.5955, 152.0811
429.0776, 154.0351
429.5597, 157.0556
430.0418, 159.8479
430.5240, 161.9224
431.0061, 163.2362
431.4882, 164.3319
431.9703, 165.1620
432.4524, 165.8611
432.9345, 166.5714
433.4167, 167.2897
433.8988, 168.0015
434.3809, 168.7577
434.8630, 169.4377
435.3451, 169.7328
435.8272, 169.6469
436.3094, 169.3102
436.7915, 168.5987
437.2736, 167.7147
437.7557, 167.1535
438.2378, 166.9624
438.7199, 167.0458
439.2020, 167.5043
439.6841, 168.1589
440.1663, 168.6418
440.6484, 168.4745
441.1305, 168.3129
441.6126, 168.9008
442.0947, 170.0934
442.5768, 170.9906
443.0590, 170.7469
443.5411, 170.2384
444.0232, 170.1626
444.5053, 170.8049
444.9874, 171.5432
445.4695, 172.2563
445.9517, 172.9151
446.4338, 173.4800
446.9159, 173.9629
447.3980, 174.3327
447.8801, 174.4308
448.3622, 174.2170
448.8444, 174.4816
449.3265, 175.3681
449.8086, 176.6146
450.2907, 178.1074
450.7728, 180.1275
451.2549, 181.7859
451.7371, 182.9425
452.2192, 183.7611
452.7013, 184.5004
453.1834, 185.0490
453.6655, 185.9211
454.1476, 187.4323
454.6298, 189.5040
455.1119, 191.3298
455.5940, 192.8642
456.0761, 194.3106
456.5582, 195.8753
457.0403, 197.5223
457.5225, 199.0138
458.0046, 200.2203
458.4867, 201.3418
458.9688, 202.5047
459.4509, 203.7746
459.9330, 205.3753
460.4152, 207.9507
460.8973, 210.6939
461.3794, 212.4999
461.8615, 213.3206
462.3436, 214.0109
462.8257, 215.1971
463.3079, 216.5494
463.7900, 217.7010
464.2721, 218.5464
464.7542, 219.1912
465.2363, 219.7252
465.7184, 220.0993
466.2006, 220.1721
466.6827, 220.0119
467.1648, 219.4577
467.6469, 218.3062
468.1290, 216.2982
468.6111, 214.7139
469.0933, 214.2090
469.5754, 213.7026
470.0575, 212.1889
470.5396, 209.1798
471.0217, 206.1716
471.5038, 203.3990
471.9860, 200.7106
472.4681, 197.4739
472.9502, 193.5248
473.4323, 189.5608
473.9144, 185.9953
474.3965, 182.7961
474.8787, 179.5236
475.3608, 176.2201
475.8429, 172.6927
476.3250, 168.6669
476.8071, 164.2298
477.2892, 159.8018
477.7714, 155.5292
478.2535, 151.3404
478.7356, 147.0766
479.2177, 142.7819
479.6998, 138.7534
480.1819, 135.1427
480.6641, 131.8350
481.1462, 128.8877
481.6283, 126.3199
482.1104, 123.5767
482.5925, 120.0914
483.0746, 116.3712
483.5568, 112.9248
484.0389, 110.1124
484.5210, 107.4088
485.0031, 104.6565
485.4852, 101.9152
485.9673, 99.27757
486.4495, 96.78713
486.9316, 94.40990
487.4137, 92.11003
487.8958, 89.84853
488.3779, 87.84383
488.8600, 86.21338
489.3422, 84.69650
489.8243, 83.02189
490.3064, 81.14300
490.7885, 79.29386
491.2706, 77.42236
491.7527, 75.66735
492.2349, 74.41026
492.7170, 73.70178
493.1991, 73.02480
493.6812, 72.07323
494.1633, 70.94838
494.6454, 70.12024
495.1276, 69.61526
495.6097, 69.04097
496.0918, 67.91188
496.5739, 66.46045
497.0560, 65.22088
497.5381, 64.31599
498.0203, 63.59854
498.5024, 63.00748
498.9845, 62.49723
499.4666, 61.95086
499.9487, 61.17775
500.4308, 60.47189
500.9130, 60.11086
501.3951, 60.10033
501.8772, 59.86851
502.3593, 58.95448
502.8414, 57.95321
503.3235, 57.24672
503.8057, 57.04892
504.2878, 56.91738
504.7699, 56.91895
505.2520, 56.94869
505.7341, 56.82415
506.2162, 56.48102
506.6984, 56.11145
507.1805, 55.77483
507.6626, 55.46020
508.1447, 55.02195
508.6268, 54.39949
509.1089, 53.87691
509.5911, 53.75942
510.0732, 53.99517
510.5553, 53.97285
511.0374, 53.61099
511.5195, 53.11970
512.0016, 52.71510
512.4838, 52.39524
512.9659, 52.15956
513.4480, 51.99445
513.9301, 51.91957
514.4122, 52.04842
514.8943, 52.31857
515.3765, 52.46460
515.8586, 52.22634
516.3407, 51.87804
516.8228, 51.62832
517.3049, 51.51315
517.7870, 51.42210
518.2692, 51.30135
518.7513, 51.19461
519.2334, 51.14460
519.7155, 51.24989
520.1976, 51.30135
520.6797, 51.28850
521.1619, 51.20850
521.6440, 51.03328
522.1261, 50.67013
522.6082, 50.38134
523.0903, 50.27310
523.5724, 50.34890
524.0546, 50.44780
524.5367, 50.59161
525.0188, 50.68993
525.5009, 50.56916
525.9830, 50.26696
526.4651, 50.29846
526.9473, 50.84247
527.4294, 51.44533
527.9115, 51.30766
528.3936, 50.63948
528.8757, 50.13485
529.3578, 50.24052
529.8400, 50.58503
530.3221, 50.83829
530.8042, 50.99903
531.2863, 51.08456
531.7684, 50.99809
532.2505, 50.90635
532.7327, 50.96504
533.2148, 51.26936
533.6969, 51.47547
534.1790, 51.44851
534.6611, 51.29366
535.1432, 51.12815
535.6254, 50.90334
536.1075, 50.74559
536.5896, 50.71732
537.0717, 50.76503
537.5538, 50.66477
538.0359, 50.28002
538.5181, 50.06959
539.0002, 50.30282
539.4823, 50.96655
539.9644, 51.41899
540.4465, 51.64988
540.9286, 51.72300
541.4108, 51.58846
541.8929, 51.31823
542.3750, 51.26859
542.8571, 51.55732
543.3392, 51.91137
543.8214, 52.02845
544.3035, 51.95594
544.7856, 51.81623
545.2677, 51.54460
545.7498, 51.32104
546.2319, 51.37333
546.7141, 51.63910
547.1962, 51.74601
547.6783, 51.29034
548.1604, 50.82623
548.6425, 50.69844
549.1246, 51.10258
549.6068, 51.36237
550.0889, 51.30567
550.5710, 51.15048
551.0531, 51.08808
551.5352, 51.12856
552.0173, 51.26495
552.4995, 51.59440
552.9816, 51.95590
553.4637, 51.86492
553.9458, 51.24578
554.4279, 50.70435
554.9100, 50.52210
555.3922, 50.61876
555.8743, 50.68131
556.3564, 50.70938
556.8385, 50.76619
557.3206, 50.99780
557.8027, 51.26641
558.2849, 51.27930
558.7670, 50.92665
559.2491, 50.63941
559.7312, 50.83575
560.2133, 51.27663
560.6954, 51.63741
561.1776, 51.80660
561.6597, 51.87355
562.1418, 51.77587
562.6239, 51.57956
563.1060, 51.52396
563.5881, 51.77036
564.0703, 52.03016
564.5524, 52.16682
565.0345, 52.14758
565.5166, 52.47016
565.9987, 53.36983
566.4808, 54.21208
566.9630, 54.40755
567.4451, 53.88619
567.9272, 53.67100
568.4093, 53.88230
568.8914, 54.30867
569.3735, 54.69012
569.8557, 55.03234
570.3378, 55.37569
570.8199, 55.70675
571.3020, 56.07160
571.7841, 56.54084
572.2662, 57.09532
572.7484, 57.66211
573.2305, 58.18834
573.7126, 58.72715
574.1947, 59.32157
574.6768, 59.97047
575.1589, 60.66404
575.6411, 61.36077
576.1232, 62.11304
576.6053, 62.95612
577.0874, 64.02051
577.5695, 64.95470
578.0516, 65.64262
578.5338, 66.26581
579.0159, 67.13229
579.4980, 68.31821
579.9801, 69.41772
580.4622, 70.27903
580.9443, 71.03228
581.4265, 72.11221
581.9086, 73.51807
582.3907, 74.87339
582.8728, 76.00807
583.3549, 76.93740
583.8370, 77.63496
584.3192, 78.10976
584.8013, 78.68826
585.2834, 79.80920
585.7655, 81.08290
586.2476, 82.01865
586.7297, 82.34966
587.2118, 82.83102
587.6939, 83.99666
588.1760, 85.42491
588.6581, 86.57856
589.1403, 87.32825
589.6224, 87.82683
590.1045, 88.02759
590.5866, 87.99926
591.0687, 87.95778
591.5508, 87.88149
592.0330, 87.84412
592.5151, 87.90347
592.9972, 88.04276
593.4793, 88.06106
593.9614, 87.95312
594.4435, 87.76870
594.9257, 87.55183
595.4078, 87.29263
595.8899, 86.97541
596.3720, 86.61571
596.8541, 86.10826
597.3362, 85.16640
597.8184, 84.06210
598.3005, 83.21643
598.7826, 83.02727
599.2647, 82.80000
599.7468, 82.13610
600.2289, 81.20512
600.7111, 80.37900
601.1932, 79.97733
601.6753, 79.44776
602.1574, 78.49581
602.6395, 77.17960
603.1216, 76.32471
603.6038, 76.13699
604.0859, 76.01856
604.5680, 75.61214
605.0501, 74.88503
605.5322, 74.34812
606.0143, 74.00026
606.4965, 73.82569
606.9786, 73.91928
607.4607, 74.18286
607.9428, 74.25707
608.4249, 74.00513
608.9070, 73.75337
609.3892, 73.87032
609.8713, 74.22343
610.3534, 74.56836
610.8355, 74.73902
611.3176, 74.93550
611.7997, 75.20217
612.2819, 75.55990
612.7640, 76.09156
613.2461, 76.83194
613.7282, 77.73129
614.2103, 78.83137
614.6924, 80.12791
615.1746, 81.34771
615.6567, 82.53993
616.1388, 83.54178
616.6209, 84.09018
617.1030, 84.15466
617.5851, 84.83292
618.0673, 86.26234
618.5494, 87.91646
619.0315, 89.09469
619.5136, 89.96407
619.9957, 90.99709
620.4778, 92.38857
620.9600, 93.85325
621.4421, 95.07703
621.9242, 96.18704
622.4063, 97.42141
622.8884, 99.37852
623.3705, 100.9867
623.8527, 101.5179
624.3348, 101.1623
624.8169, 101.3451
625.2990, 103.0107
625.7811, 104.3751
626.2632, 104.6832
626.7454, 103.8430
627.2275, 103.4067
627.7096, 103.4991
628.1917, 103.6711
628.6738, 103.5926
629.1559, 103.2759
629.6381, 102.8442
630.1202, 102.3057
630.6023, 101.6653
631.0844, 100.8801
631.5665, 99.99697
632.0486, 99.13050
632.5308, 98.42701
633.0129, 97.57023
633.4950, 96.06425
633.9771, 94.28498
634.4592, 92.92432
634.9413, 92.51338
635.4235, 92.22264
635.9056, 91.95760
636.3877, 91.64844
636.8698, 90.85533
637.3519, 89.21117
637.8340, 87.68879
638.3162, 86.75846
638.7983, 86.39758
639.2804, 85.78713
639.7625, 84.87856
640.2446, 83.97584
640.7267, 83.37691
641.2089, 82.99184
641.6910, 82.53970
642.1731, 81.98988
642.6552, 81.42214
643.1373, 80.82944
643.6194, 80.29927
644.1016, 79.97131
644.5837, 80.01978
645.0658, 80.04540
645.5479, 79.89275
