##NAMES=Vonsenite
##RRUFFID=R050221
##IDEAL CHEMISTRY=Fe^2+^_2_Fe^3+^O_2_(BO_3_)
##LOCALITY=Monchi mine, Burguillos del Cerro, Badajoz, Extremadura, Spain
##OWNER=RRUFF
##SOURCE=Marcus Origlieri
##DESCRIPTION=Mass of thin bladed black crystals
##STATUS=The identification of this mineral has been confirmed by X-ray diffraction and chemical analysis
##URL=rruff.info/R050221
##MEASURED CHEMISTRY=(Fe^2+^_1.96_Mg_0.03_Mn_0.01_)_Σ=2_(Fe^3+^_0.98_Al_0.02_)_Σ=1_BO_5_
92.29974, 0.0000000E+00
92.78186, 0.0000000E+00
93.26398, 0.0000000E+00
93.74609, 5.116133
94.22821, 5.006984
94.71033, 5.098090
95.19244, 5.338486
95.67456, 5.522173
96.15668, 5.506968
96.63879, 5.352343
97.12091, 5.257382
97.60303, 5.216944
98.08514, 5.263868
98.56726, 5.491611
99.04938, 5.908738
99.53149, 6.325162
100.0136, 6.595491
100.4957, 6.712495
100.9778, 6.966045
101.4600, 7.411827
101.9421, 7.979800
102.4242, 8.437546
102.9063, 8.740122
103.3884, 9.056384
103.8705, 9.525568
104.3527, 10.24798
104.8348, 10.81956
105.3169, 11.08111
105.7990, 11.09081
106.2811, 11.58653
106.7632, 12.94964
107.2454, 14.42385
107.7275, 15.34767
108.2096, 15.44157
108.6917, 15.37670
109.1738, 15.17652
109.6559, 14.78325
110.1381, 14.62403
110.6202, 14.85190
111.1023, 15.25784
111.5844, 15.62152
112.0665, 15.71040
112.5486, 15.97328
113.0308, 16.52534
113.5129, 17.41874
113.9950, 18.46375
114.4771, 19.80816
114.9592, 21.25703
115.4413, 22.53305
115.9235, 23.49570
116.4056, 24.31808
116.8877, 25.09961
117.3698, 25.98969
117.8519, 26.58660
118.3340, 26.58368
118.8162, 26.16470
119.2983, 25.78239
119.7804, 25.50727
120.2625, 25.40163
120.7446, 25.51020
121.2267, 25.83151
121.7089, 26.38294
122.1910, 27.37427
122.6731, 28.69013
123.1552, 29.81479
123.6373, 30.49407
124.1194, 30.78476
124.6016, 30.74206
125.0837, 30.17410
125.5658, 29.44932
126.0479, 28.85001
126.5300, 28.38340
127.0121, 28.17084
127.4943, 28.37332
127.9764, 28.90924
128.4585, 29.60126
128.9406, 30.45837
129.4227, 31.40101
129.9048, 32.32170
130.3869, 33.22953
130.8691, 34.02503
131.3512, 34.65532
131.8333, 35.10355
132.3154, 35.26958
132.7975, 34.90131
133.2796, 34.15442
133.7618, 33.74897
134.2439, 33.65349
134.7260, 33.63172
135.2081, 33.56132
135.6902, 33.51760
136.1723, 33.58216
136.6545, 33.81371
137.1366, 34.20874
137.6187, 34.64589
138.1008, 35.13332
138.5829, 35.64764
139.0650, 36.30933
139.5472, 37.29784
140.0293, 37.76957
140.5114, 37.04983
140.9935, 34.78850
141.4756, 33.08749
141.9577, 32.15193
142.4399, 31.80383
142.9220, 31.41946
143.4041, 30.91179
143.8862, 30.51301
144.3683, 30.38721
144.8504, 30.66225
145.3326, 30.90577
145.8147, 31.08103
146.2968, 31.19205
146.7789, 30.13124
147.2610, 31.43711
147.7431, 32.13718
148.2253, 32.26398
148.7074, 30.10062
149.1895, 30.89455
149.6716, 30.50334
150.1537, 30.06352
150.6358, 31.27369
151.1180, 29.44341
151.6001, 30.62741
152.0822, 30.60817
152.5643, 31.13962
153.0464, 30.47860
153.5285, 30.18590
154.0107, 31.08603
154.4928, 31.32569
154.9749, 30.52740
155.4570, 31.09385
155.9391, 29.22194
156.4212, 29.48973
156.9034, 30.68069
157.3855, 29.94235
157.8676, 30.53061
158.3497, 30.61363
158.8318, 28.40055
159.3139, 30.18062
159.7961, 30.23376
160.2782, 28.51377
160.7603, 30.15701
161.2424, 28.68147
161.7245, 28.31914
162.2066, 28.79458
162.6888, 28.39666
163.1709, 29.37569
163.6530, 29.02822
164.1351, 28.56223
164.6172, 28.61346
165.0993, 27.19907
165.5815, 28.50367
166.0636, 27.95098
166.5457, 28.32152
167.0278, 27.75413
167.5099, 27.52825
167.9920, 27.45560
168.4742, 27.46522
168.9563, 27.50599
169.4384, 27.57511
169.9205, 27.66059
170.4026, 27.78995
170.8847, 27.93652
171.3669, 28.02503
171.8490, 28.02073
172.3311, 27.93527
172.8132, 27.76209
173.2953, 27.44730
173.7774, 27.14048
174.2596, 26.99234
174.7417, 26.97162
175.2238, 26.96482
175.7059, 26.83559
176.1880, 26.69064
176.6701, 26.69395
177.1523, 26.93082
177.6344, 27.25931
178.1165, 27.57129
178.5986, 27.85748
179.0807, 28.04354
179.5628, 28.01026
180.0450, 27.84561
180.5271, 27.73281
181.0092, 27.74412
181.4913, 27.79445
181.9734, 27.72504
182.4555, 27.54753
182.9377, 27.41003
183.4198, 27.47236
183.9019, 27.67371
184.3840, 27.83130
184.8661, 27.88696
185.3482, 27.88412
185.8304, 27.89477
186.3125, 27.91891
186.7946, 27.96556
187.2767, 28.07456
187.7588, 28.22503
188.2409, 28.31167
188.7231, 28.28237
189.2052, 28.18372
189.6873, 28.14474
190.1694, 28.16992
190.6515, 28.19173
191.1336, 28.10900
191.6158, 27.93982
192.0979, 27.85731
192.5800, 27.95804
193.0621, 28.17013
193.5442, 28.22973
194.0263, 28.12370
194.5085, 27.94801
194.9906, 27.73485
195.4727, 27.48984
195.9548, 27.44277
196.4369, 27.78739
196.9190, 28.39220
197.4012, 28.51709
197.8833, 28.07237
198.3654, 27.51398
198.8475, 27.37607
199.3296, 27.67656
199.8117, 27.98857
200.2939, 28.18594
200.7760, 28.28829
201.2581, 28.44831
201.7402, 28.66766
202.2223, 28.93803
202.7044, 29.31029
203.1866, 29.81669
203.6687, 30.13603
204.1508, 30.05819
204.6329, 29.63299
205.1150, 29.70289
205.5971, 30.41793
206.0793, 31.30191
206.5614, 31.76822
207.0435, 31.72328
207.5256, 31.71206
208.0077, 31.91824
208.4898, 32.33439
208.9720, 32.54613
209.4541, 32.45310
209.9362, 32.32852
210.4183, 32.54116
210.9004, 33.19875
211.3825, 33.79736
211.8647, 34.19079
212.3468, 34.37530
212.8289, 34.58886
213.3110, 34.80853
213.7931, 35.09198
214.2752, 35.50290
214.7574, 36.05333
215.2395, 36.71216
215.7216, 37.51972
216.2037, 38.47823
216.6858, 39.30505
217.1679, 39.92287
217.6500, 40.51070
218.1322, 41.29200
218.6143, 42.36128
219.0964, 43.40575
219.5785, 44.34342
220.0606, 45.18391
220.5427, 45.91876
221.0249, 46.55752
221.5070, 47.07104
221.9891, 47.44115
222.4712, 47.74352
222.9533, 47.73510
223.4354, 47.34095
223.9176, 46.54598
224.3997, 45.54528
224.8818, 44.27061
225.3639, 42.85696
225.8460, 41.38696
226.3281, 39.74743
226.8103, 38.31773
227.2924, 37.25753
227.7745, 36.57348
228.2566, 35.82918
228.7387, 34.97964
229.2208, 34.11730
229.7030, 33.34092
230.1851, 32.60960
230.6672, 32.03389
231.1493, 31.67401
231.6314, 31.53905
232.1135, 31.35607
232.5957, 31.10686
233.0778, 30.82874
233.5599, 30.54556
234.0420, 30.19422
234.5241, 29.96927
235.0062, 29.96827
235.4884, 30.19275
235.9705, 30.23930
236.4526, 29.99242
236.9347, 29.68818
237.4168, 29.55606
237.8989, 29.71185
238.3811, 29.81012
238.8632, 29.75957
239.3453, 29.56247
239.8274, 29.48294
240.3095, 29.59403
240.7916, 29.73961
241.2738, 29.79041
241.7559, 29.72303
242.2380, 29.60443
242.7201, 29.41590
243.2022, 29.16496
243.6843, 29.01080
244.1665, 29.05643
244.6486, 29.07778
245.1307, 28.87759
245.6128, 28.29468
246.0949, 27.82474
246.5770, 27.57349
247.0592, 27.51192
247.5413, 27.34925
248.0234, 27.01779
248.5055, 26.67237
248.9876, 26.41706
249.4697, 26.24599
249.9519, 26.18086
250.4340, 26.28014
250.9161, 26.50121
251.3982, 26.58051
251.8803, 26.46062
252.3624, 26.27717
252.8446, 26.09994
253.3267, 25.88522
253.8088, 25.78575
254.2909, 25.86557
254.7730, 26.07008
255.2551, 26.15830
255.7373, 26.06302
256.2194, 25.96140
256.7015, 25.96696
257.1836, 26.15147
257.6657, 26.23561
258.1478, 26.12105
258.6299, 25.91882
259.1121, 26.01179
259.5942, 26.59719
260.0763, 27.12679
260.5584, 27.30008
261.0405, 26.94281
261.5226, 26.78015
262.0048, 26.90341
262.4869, 27.18926
262.9690, 27.33862
263.4511, 27.29421
263.9332, 27.23427
264.4153, 27.23917
264.8975, 27.33076
265.3796, 27.39150
265.8617, 27.38889
266.3438, 27.38366
266.8259, 27.51223
267.3080, 27.83282
267.7902, 28.12884
268.2723, 28.30739
268.7544, 28.35767
269.2365, 28.35925
269.7186, 28.24081
270.2007, 28.16434
270.6829, 28.45604
271.1650, 29.25687
271.6471, 29.91510
272.1292, 30.17237
272.6113, 30.02250
273.0934, 29.80700
273.5756, 29.44367
274.0577, 29.16525
274.5398, 29.34415
275.0219, 30.09392
275.5040, 30.72927
275.9861, 31.00801
276.4683, 30.96547
276.9504, 31.08891
277.4325, 31.42706
277.9146, 31.80390
278.3967, 32.00837
278.8788, 32.01662
279.3610, 32.06461
279.8431, 32.17091
280.3252, 32.36175
280.8073, 32.86007
281.2894, 33.74326
281.7715, 34.61430
282.2537, 35.05825
282.7358, 35.06468
283.2179, 35.14634
283.7000, 35.40060
284.1821, 35.79780
284.6642, 36.29661
285.1464, 36.92070
285.6285, 37.45931
286.1106, 37.68190
286.5927, 37.61657
287.0748, 37.68470
287.5569, 37.99968
288.0391, 38.40936
288.5212, 38.59750
289.0033, 38.56541
289.4854, 38.37981
289.9675, 37.99809
290.4496, 37.46438
290.9318, 37.07990
291.4139, 36.91503
291.8960, 36.79700
292.3781, 36.41155
292.8602, 35.77942
293.3423, 35.16330
293.8245, 34.71212
294.3066, 34.38460
294.7887, 34.05259
295.2708, 33.71289
295.7529, 33.36596
296.2350, 33.01644
296.7172, 32.66311
297.1993, 32.29547
297.6814, 31.91865
298.1635, 31.51844
298.6456, 31.05042
299.1277, 30.50634
299.6099, 29.96721
300.0920, 29.50625
300.5741, 29.11886
301.0562, 28.81733
301.5383, 28.68685
302.0204, 28.59521
302.5026, 28.34252
302.9847, 27.93119
303.4668, 27.46710
303.9489, 26.91601
304.4310, 26.38705
304.9131, 26.07337
305.3953, 26.19144
305.8774, 26.37897
306.3595, 26.22079
306.8416, 25.76993
307.3237, 25.29567
307.8058, 24.99525
308.2880, 24.77045
308.7701, 24.48934
309.2522, 24.07146
309.7343, 23.68569
310.2164, 23.48158
310.6985, 23.41882
311.1807, 23.38902
311.6628, 23.41382
312.1449, 23.40132
312.6270, 23.21502
313.1091, 22.74799
313.5912, 22.41377
314.0734, 22.63592
314.5555, 23.14166
315.0376, 23.43778
315.5197, 23.09015
316.0018, 22.63318
316.4839, 22.41938
316.9661, 22.50853
317.4482, 22.57782
317.9303, 22.41871
318.4124, 22.18619
318.8945, 22.05999
319.3766, 22.25124
319.8588, 22.42258
320.3409, 22.39208
320.8230, 22.16094
321.3051, 22.01773
321.7872, 22.16339
322.2693, 22.36893
322.7515, 22.45408
323.2336, 22.26632
323.7157, 22.08016
324.1978, 21.92908
324.6799, 21.81937
325.1620, 21.77455
325.6442, 21.91041
326.1263, 22.03137
326.6084, 22.03318
327.0905, 21.76529
327.5726, 21.57252
328.0547, 21.50287
328.5369, 21.52461
329.0190, 21.55273
329.5011, 21.61863
329.9832, 21.65935
330.4653, 21.64400
330.9474, 21.52863
331.4296, 21.47305
331.9117, 21.51867
332.3938, 21.60638
332.8759, 21.40733
333.3580, 21.68196
333.8401, 21.82451
334.3223, 21.84211
334.8044, 21.35788
335.2865, 21.52372
335.7686, 21.43029
336.2507, 21.32708
336.7328, 21.58696
337.2150, 21.18032
337.6971, 21.43623
338.1792, 21.42892
338.6613, 21.54339
339.1434, 21.39699
339.6255, 21.33233
340.1076, 21.53041
340.5898, 21.58439
341.0719, 21.41143
341.5540, 21.53894
342.0361, 21.13209
342.5182, 21.19582
343.0003, 21.46310
343.4825, 21.30776
343.9646, 21.44452
344.4467, 21.47127
344.9288, 20.99489
345.4109, 21.39595
345.8930, 21.41883
346.3752, 21.05336
346.8573, 21.42706
347.3394, 21.11705
347.8215, 21.05229
348.3036, 21.17233
348.7857, 21.10155
349.2679, 21.33391
349.7500, 21.27599
350.2321, 21.19294
350.7142, 21.22433
351.1963, 20.93488
351.6784, 21.24319
352.1606, 21.14468
352.6427, 21.24973
353.1248, 21.40161
353.6069, 21.20265
354.0890, 21.37695
354.5711, 20.97469
355.0533, 21.05651
355.5354, 21.08718
356.0175, 21.42759
356.4996, 21.03172
356.9817, 21.10368
357.4638, 21.37535
357.9460, 21.36972
358.4281, 21.48130
358.9102, 21.24944
359.3923, 21.34195
359.8744, 21.34619
360.3565, 21.65943
360.8387, 21.73033
361.3208, 21.50878
361.8029, 21.28936
362.2850, 21.62835
362.7671, 21.43981
363.2492, 21.53724
363.7314, 21.34116
364.2135, 21.40016
364.6956, 21.45603
365.1777, 21.64311
365.6598, 21.43594
366.1419, 21.74222
366.6241, 21.75315
367.1062, 21.85224
367.5883, 21.94251
368.0704, 21.63614
368.5525, 21.65655
369.0346, 22.14416
369.5168, 21.92152
369.9989, 21.84331
370.4810, 21.86802
370.9631, 22.37517
371.4452, 22.43562
371.9273, 21.96196
372.4095, 22.45058
372.8916, 22.34862
373.3737, 22.42332
373.8558, 22.42118
374.3379, 22.51117
374.8200, 22.57405
375.3022, 22.65143
375.7843, 22.78400
376.2664, 22.99397
376.7485, 23.19024
377.2306, 23.36264
377.7127, 23.51283
378.1949, 23.63210
378.6770, 23.70625
379.1591, 23.80293
379.6412, 23.98426
380.1233, 24.25281
380.6054, 24.42674
381.0876, 24.46734
381.5697, 24.49026
382.0518, 24.74361
382.5339, 25.20351
383.0160, 25.50005
383.4981, 25.33820
383.9803, 24.92277
384.4624, 24.91198
384.9445, 25.31684
385.4266, 25.78695
385.9087, 25.98912
386.3908, 26.01401
386.8730, 26.10180
387.3551, 26.33948
387.8372, 26.62790
388.3193, 26.82886
388.8014, 26.96794
389.2835, 27.14975
389.7657, 27.51469
390.2478, 27.92021
390.7299, 28.18438
391.2120, 28.25293
391.6941, 28.31994
392.1762, 28.48986
392.6584, 28.74906
393.1405, 29.07850
393.6226, 29.55914
394.1047, 30.03281
394.5868, 30.41762
395.0689, 30.71137
395.5511, 30.95132
396.0332, 31.13367
396.5153, 31.27697
396.9974, 31.39438
397.4795, 31.37163
397.9616, 31.45945
398.4438, 31.81907
398.9259, 32.34056
399.4080, 32.67955
399.8901, 32.59910
400.3722, 32.50912
400.8543, 32.58464
401.3365, 32.94513
401.8186, 33.12064
402.3007, 33.02488
402.7828, 32.79658
403.2649, 32.59732
403.7470, 32.41651
404.2292, 32.28836
404.7113, 32.24930
405.1934, 32.28512
405.6755, 32.24047
406.1576, 32.12783
406.6397, 31.90966
407.1219, 31.49940
407.6040, 30.85519
408.0861, 30.39914
408.5682, 30.22788
409.0503, 30.18212
409.5324, 29.91622
410.0146, 29.42430
410.4967, 28.95564
410.9788, 28.66801
411.4609, 28.51201
411.9430, 28.27995
412.4251, 27.97010
412.9073, 27.57111
413.3894, 26.96878
413.8715, 26.24726
414.3536, 25.67064
414.8357, 25.34899
415.3178, 25.15889
415.8000, 24.96179
416.2821, 24.76249
416.7642, 24.59322
417.2463, 24.59268
417.7284, 24.57390
418.2105, 24.28164
418.6927, 23.59350
419.1748, 22.98232
419.6569, 22.83169
420.1390, 22.92125
420.6211, 22.91529
421.1032, 22.57842
421.5854, 22.22403
422.0675, 21.99131
422.5496, 21.87890
423.0317, 21.78688
423.5138, 21.69520
423.9959, 21.60982
424.4781, 21.53370
424.9602, 21.50065
425.4423, 21.43543
425.9244, 21.26072
426.4065, 21.05433
426.8886, 20.99850
427.3708, 21.28020
427.8529, 21.47698
428.3350, 21.41196
428.8171, 21.02040
429.2992, 20.84092
429.7813, 20.97425
430.2635, 21.18623
430.7456, 21.22822
431.2277, 21.04494
431.7098, 20.92971
432.1919, 20.96015
432.6740, 21.07571
433.1562, 21.07009
433.6383, 20.92938
434.1204, 20.78413
434.6025, 20.70789
435.0846, 20.69418
435.5667, 20.72995
436.0489, 20.83210
436.5310, 20.89904
437.0131, 20.73833
437.4952, 20.42355
437.9773, 20.20817
438.4594, 20.20804
438.9415, 20.33839
439.4236, 20.55002
439.9058, 20.82308
440.3879, 21.01238
440.8700, 20.93603
441.3521, 20.77012
441.8342, 20.71141
442.3163, 20.82756
442.7985, 20.95513
443.2806, 21.04263
443.7627, 21.07165
444.2448, 21.01428
444.7269, 20.78001
445.2090, 20.53228
445.6912, 20.29742
446.1733, 20.07836
446.6554, 19.98914
447.1375, 20.22103
447.6196, 20.47918
448.1017, 20.57812
448.5839, 20.33081
449.0660, 20.15558
449.5481, 20.06098
450.0302, 20.03753
450.5123, 20.07640
450.9944, 20.22581
451.4766, 20.35126
451.9587, 20.40961
452.4408, 20.39874
452.9229, 20.35863
453.4050, 20.27003
453.8871, 20.19588
454.3693, 20.22532
454.8514, 20.36738
455.3335, 20.39989
455.8156, 20.24785
456.2977, 20.02788
456.7798, 20.01382
457.2620, 20.18800
457.7441, 20.31638
458.2262, 20.22352
458.7083, 20.00527
459.1904, 19.86738
459.6725, 19.81874
460.1547, 19.80646
460.6368, 19.79584
461.1189, 19.78820
461.6010, 19.78859
462.0831, 19.81644
462.5652, 19.82744
463.0474, 19.76609
463.5295, 19.65826
464.0116, 19.57809
464.4937, 19.57845
464.9758, 19.60168
465.4579, 19.61666
465.9401, 19.61816
466.4222, 19.62290
466.9043, 19.65796
467.3864, 19.68713
467.8685, 19.67629
468.3506, 19.46571
468.8328, 19.40617
469.3149, 19.64233
469.7970, 20.06779
470.2791, 20.27711
470.7612, 20.18160
471.2433, 19.99861
471.7255, 19.78238
472.2076, 19.50237
472.6897, 19.40306
473.1718, 19.53539
473.6539, 19.74494
474.1360, 19.84235
474.6182, 19.82104
475.1003, 19.84667
475.5824, 19.98548
476.0645, 20.16274
476.5466, 20.17075
477.0287, 20.02341
477.5109, 19.89901
477.9930, 19.92171
478.4751, 20.04053
478.9572, 20.17253
479.4393, 20.31541
479.9214, 20.43278
480.4036, 20.50400
480.8857, 20.52574
481.3678, 20.48729
481.8499, 20.31512
482.3320, 20.16273
482.8141, 20.14471
483.2963, 20.22655
483.7784, 20.30163
484.2605, 20.32594
484.7426, 20.33617
485.2247, 20.33138
485.7068, 20.28708
486.1890, 20.33626
486.6711, 20.68179
487.1532, 21.03090
487.6353, 21.10157
488.1174, 20.61448
488.5995, 20.29133
489.0817, 20.24089
489.5638, 20.39868
490.0459, 20.56778
490.5280, 20.77411
491.0101, 20.92602
491.4922, 20.96852
491.9744, 20.89916
492.4565, 20.84598
492.9386, 20.80460
493.4207, 20.79181
493.9028, 20.87775
494.3849, 21.03265
494.8671, 21.03725
495.3492, 20.78141
495.8313, 20.46506
496.3134, 20.44129
496.7955, 20.63546
497.2776, 20.76553
497.7598, 20.60905
498.2419, 20.34766
498.7240, 20.19029
499.2061, 20.14533
499.6882, 20.05732
500.1703, 19.73834
500.6525, 19.38109
501.1346, 19.16901
501.6167, 19.20399
502.0988, 19.29464
502.5809, 19.49253
503.0630, 19.70293
503.5452, 19.72469
504.0273, 19.24847
504.5094, 18.87238
504.9915, 18.78951
505.4736, 19.01239
505.9557, 19.14026
506.4379, 19.15745
506.9200, 19.09816
507.4021, 18.95627
507.8842, 18.68637
508.3663, 18.55754
508.8484, 18.63205
509.3306, 18.77577
509.8127, 18.73965
510.2948, 18.52889
510.7769, 18.35859
511.2590, 18.34735
511.7411, 18.41239
512.2233, 18.35928
512.7054, 18.19409
513.1875, 17.97903
513.6696, 17.65122
514.1517, 17.34044
514.6339, 17.27816
515.1160, 17.55122
515.5981, 17.80080
516.0802, 17.72257
516.5623, 17.48965
517.0444, 17.33359
517.5266, 17.40419
518.0087, 17.49017
518.4908, 17.52228
518.9729, 17.50805
519.4550, 17.48663
519.9371, 17.50676
520.4193, 17.48081
520.9014, 17.35242
521.3835, 17.07018
521.8656, 16.90872
522.3477, 16.91431
522.8298, 16.98953
523.3120, 17.05028
523.7941, 17.09959
524.2762, 17.11338
524.7583, 17.07909
525.2404, 17.01766
525.7225, 16.97962
526.2047, 16.96464
526.6868, 16.94533
527.1689, 16.88067
527.6510, 16.80680
528.1331, 16.57960
528.6152, 16.86925
529.0974, 17.02736
529.5795, 17.06106
530.0616, 16.59348
530.5437, 16.77649
531.0258, 16.70077
531.5079, 16.61582
531.9901, 16.89450
532.4722, 16.50719
532.9543, 16.78298
533.4364, 16.79608
533.9185, 16.93150
534.4006, 16.80659
534.8828, 16.76396
535.3649, 16.98461
535.8470, 17.06170
536.3291, 16.91238
536.8112, 17.06408
537.2933, 16.68195
537.7755, 16.77095
538.2576, 17.06403
538.7397, 16.93504
539.2218, 17.09868
539.7039, 17.15285
540.1860, 16.70442
540.6682, 17.13398
541.1503, 17.18589
541.6324, 16.85000
542.1145, 17.25382
542.5966, 16.97446
543.0787, 16.94089
543.5609, 17.09267
544.0430, 17.05416
544.5251, 17.31933
545.0072, 17.29475
545.4893, 17.24560
545.9714, 17.31140
546.4536, 17.05693
546.9357, 17.40074
547.4178, 17.33827
547.8999, 17.47991
548.3820, 17.66890
548.8641, 17.50760
549.3463, 17.72012
549.8284, 17.35660
550.3105, 17.47768
550.7926, 17.54818
551.2747, 17.92894
551.7568, 17.57396
552.2390, 17.68736
552.7211, 18.00101
553.2032, 18.03789
553.6853, 18.19252
554.1674, 18.00425
554.6495, 17.98429
555.1317, 17.97964
555.6138, 18.08612
556.0959, 18.23382
556.5780, 18.44196
557.0601, 18.60815
557.5422, 18.48761
558.0244, 18.19505
558.5065, 18.06440
558.9886, 18.45687
559.4707, 18.92946
559.9528, 19.08994
560.4349, 18.97714
560.9171, 18.84085
561.3992, 18.69003
561.8813, 18.62709
562.3634, 18.75573
562.8455, 19.18579
563.3276, 19.48518
563.8098, 19.53653
564.2919, 19.47079
564.7740, 19.39636
565.2561, 19.29916
565.7382, 19.21839
566.2203, 19.15022
566.7025, 19.10433
567.1846, 19.13381
567.6667, 19.25995
568.1488, 19.30467
568.6309, 19.12123
569.1130, 18.81461
569.5952, 18.81719
570.0773, 19.12530
570.5594, 19.44261
571.0415, 19.56997
571.5236, 19.55934
572.0057, 19.45193
572.4879, 19.22697
572.9700, 19.08021
573.4521, 19.22966
573.9342, 19.50978
574.4163, 19.71952
574.8984, 19.80142
575.3806, 19.80062
575.8627, 19.59864
576.3448, 19.31554
576.8269, 19.28720
577.3090, 19.86213
577.7911, 20.31544
578.2733, 20.41025
578.7554, 20.15481
579.2375, 20.07764
579.7196, 20.25338
580.2017, 20.42853
580.6838, 20.39300
581.1660, 20.15148
581.6481, 20.03552
582.1302, 20.07998
582.6123, 20.17392
583.0944, 20.17976
583.5765, 20.12764
584.0587, 20.10495
584.5408, 20.14554
585.0229, 20.20892
585.5050, 20.24781
585.9871, 20.27801
586.4692, 20.33677
586.9513, 20.44829
