##NAMES=Vonsenite
##RRUFFID=R050477
##IDEAL CHEMISTRY=Fe^2+^_2_Fe^3+^O_2_(BO_3_)
##LOCALITY=North Hill, Riverside, California, USA
##OWNER=RRUFF
##SOURCE=California Institute of Technology
##DESCRIPTION=Aggregate of black granules
##STATUS=The identification of this mineral has been confirmed by X-ray diffraction and chemical analysis
##URL=rruff.info/R050477
##MEASURED CHEMISTRY=(Fe^2+^_0.63_Mg_0.37_)_2_Fe^3+^_1.00_BO_5_
91.00781, 11.13960
91.48993, 11.40435
91.97205, 11.51056
92.45416, 11.30704
92.93628, 10.95159
93.41840, 10.84032
93.90051, 11.13938
94.38263, 11.52698
94.86475, 11.36713
95.34686, 10.66586
95.82898, 9.999710
96.31110, 9.902017
96.79321, 10.31897
97.27533, 10.70142
97.75745, 10.94178
98.23956, 11.05115
98.72168, 11.03932
99.20380, 10.88538
99.68591, 10.67647
100.1680, 10.47149
100.6501, 10.24809
101.1323, 10.15194
101.6144, 10.27640
102.0965, 10.65076
102.5786, 10.87777
103.0607, 10.90770
103.5428, 10.83610
104.0250, 10.82232
104.5071, 10.89686
104.9892, 10.97786
105.4713, 11.02182
105.9534, 10.95519
106.4355, 11.00999
106.9177, 11.18254
107.3998, 11.47525
107.8819, 11.90901
108.3640, 12.60995
108.8461, 13.34570
109.3282, 14.01851
109.8104, 14.60737
110.2925, 15.14318
110.7746, 15.55235
111.2567, 15.86298
111.7388, 16.31399
112.2209, 16.98755
112.7031, 17.77314
113.1852, 18.60289
113.6673, 19.59331
114.1494, 20.49690
114.6315, 21.24419
115.1136, 21.83718
115.5958, 22.35448
116.0779, 22.62285
116.5600, 22.88832
117.0421, 23.42421
117.5242, 24.76628
118.0063, 26.08097
118.4885, 26.82590
118.9706, 26.83309
119.4527, 26.93871
119.9348, 27.63741
120.4169, 28.74895
120.8990, 29.95776
121.3812, 30.93741
121.8633, 32.01848
122.3454, 33.62465
122.8275, 36.06962
123.3096, 38.43499
123.7917, 39.85801
124.2739, 40.49562
124.7560, 40.92408
125.2381, 41.38597
125.7202, 41.90435
126.2023, 42.51777
126.6844, 43.26575
127.1666, 44.07896
127.6487, 44.85587
128.1308, 45.60351
128.6129, 46.37226
129.0950, 47.31627
129.5771, 48.35089
130.0593, 49.17948
130.5414, 49.72392
131.0235, 49.99690
131.5056, 49.87661
131.9877, 49.15423
132.4698, 48.16425
132.9520, 47.47500
133.4341, 47.07547
133.9162, 46.86137
134.3983, 46.77731
134.8804, 46.83329
135.3625, 47.15791
135.8447, 47.77129
136.3268, 48.58929
136.8089, 49.50540
137.2910, 50.51385
137.7731, 51.66706
138.2552, 53.11274
138.7374, 54.92922
139.2195, 56.34978
139.7016, 57.38927
140.1837, 58.05573
140.6658, 58.29377
141.1479, 57.97408
141.6301, 57.53907
142.1122, 57.09431
142.5943, 56.39482
143.0764, 56.38588
143.5585, 57.39183
144.0406, 59.06156
144.5228, 60.16879
145.0049, 60.37938
145.4870, 60.44097
145.9691, 60.79907
146.4512, 62.00243
146.9333, 62.60823
147.4155, 62.35089
147.8976, 61.32526
148.3797, 60.43340
148.8618, 59.82487
149.3439, 59.23337
149.8260, 58.48830
150.3082, 57.19704
150.7903, 56.17941
151.2724, 55.60275
151.7545, 55.48260
152.2366, 55.22277
152.7188, 54.58971
153.2009, 53.91019
153.6830, 53.45353
154.1651, 53.61757
154.6472, 53.63802
155.1293, 53.27983
155.6115, 52.48397
156.0936, 51.75668
156.5757, 51.20700
157.0578, 50.75806
157.5399, 50.33411
158.0220, 49.83063
158.5042, 49.42264
158.9863, 49.19693
159.4684, 49.18483
159.9505, 49.22248
160.4326, 49.30055
160.9147, 49.39250
161.3969, 49.45842
161.8790, 49.44549
162.3611, 49.43183
162.8432, 49.48358
163.3253, 49.65524
163.8074, 49.74603
164.2896, 49.61068
164.7717, 49.32839
165.2538, 49.05759
165.7359, 48.86863
166.2180, 48.71676
166.7001, 48.54769
167.1823, 48.30056
167.6644, 48.15255
168.1465, 48.22594
168.6286, 48.48889
169.1107, 48.85364
169.5928, 49.39198
170.0750, 49.95678
170.5571, 50.42039
171.0392, 50.79206
171.5213, 50.98651
172.0034, 50.76336
172.4855, 50.22763
172.9677, 49.84773
173.4498, 50.05985
173.9319, 50.57664
174.4140, 50.98980
174.8961, 51.16679
175.3782, 51.22845
175.8604, 51.33167
176.3425, 51.46315
176.8246, 51.50937
177.3067, 51.26923
177.7888, 50.88681
178.2709, 50.66361
178.7531, 50.73748
179.2352, 50.97331
179.7173, 51.24843
180.1994, 51.55831
180.6815, 51.73493
181.1636, 51.49461
181.6458, 50.97600
182.1279, 50.60423
182.6100, 50.58178
183.0921, 50.76195
183.5742, 50.88194
184.0563, 50.94176
184.5385, 50.90462
185.0206, 50.58494
185.5027, 50.07251
185.9848, 49.82954
186.4669, 50.23866
186.9490, 51.01046
187.4312, 51.22930
187.9133, 50.83863
188.3954, 50.25018
188.8775, 49.91722
189.3596, 49.81931
189.8417, 49.75484
190.3239, 49.66839
190.8060, 49.55735
191.2881, 49.38520
191.7702, 49.13247
192.2523, 48.90272
192.7344, 48.90413
193.2166, 49.13646
193.6987, 49.23271
194.1808, 48.98730
194.6629, 48.43362
195.1450, 47.93383
195.6271, 47.47332
196.1093, 47.10259
196.5914, 46.89360
197.0735, 46.84813
197.5556, 46.93524
198.0377, 47.26985
198.5198, 47.85882
199.0020, 48.00372
199.4841, 47.59560
199.9662, 46.93439
200.4483, 46.44349
200.9304, 46.11441
201.4125, 46.00182
201.8947, 46.28461
202.3768, 47.03031
202.8589, 47.24659
203.3410, 46.76272
203.8231, 45.96625
204.3052, 45.58624
204.7874, 45.68212
205.2695, 45.92799
205.7516, 46.21240
206.2337, 46.54868
206.7158, 46.84085
207.1979, 47.10197
207.6801, 47.30630
208.1622, 47.36800
208.6443, 47.23385
209.1264, 47.12332
209.6085, 47.15377
210.0906, 47.36607
210.5728, 47.54441
211.0549, 47.71404
211.5370, 47.82690
212.0191, 47.71362
212.5012, 47.23738
212.9833, 46.87028
213.4655, 46.90629
213.9476, 47.52431
214.4297, 47.84286
214.9118, 47.67193
215.3939, 47.28220
215.8760, 47.40944
216.3581, 48.30715
216.8403, 49.19719
217.3224, 49.66965
217.8045, 49.56518
218.2866, 49.53996
218.7687, 49.60899
219.2508, 49.76276
219.7330, 49.98068
220.2151, 50.27865
220.6972, 50.60722
221.1793, 50.95253
221.6614, 51.35544
222.1435, 51.65349
222.6257, 51.76430
223.1078, 51.79287
223.5899, 52.06635
224.0720, 52.75942
224.5541, 53.41981
225.0362, 53.80629
225.5184, 53.69461
226.0005, 53.88113
226.4826, 54.53256
226.9647, 55.45201
227.4468, 56.10787
227.9289, 56.42717
228.4111, 56.59011
228.8932, 56.64632
229.3753, 56.48199
229.8574, 56.48297
230.3395, 56.67275
230.8216, 57.02607
231.3038, 57.52796
231.7859, 58.40538
232.2680, 59.09078
232.7501, 59.27277
233.2322, 58.60455
233.7143, 58.22044
234.1965, 58.21683
234.6786, 58.47925
235.1607, 58.72200
235.6428, 59.08235
236.1249, 59.22146
236.6070, 58.94963
237.0892, 58.01750
237.5713, 57.22298
238.0534, 56.60148
238.5355, 56.10772
239.0176, 55.64378
239.4997, 55.27733
239.9819, 54.83267
240.4640, 54.23126
240.9461, 53.40945
241.4282, 52.56023
241.9103, 51.59694
242.3924, 50.63412
242.8746, 49.97867
243.3567, 49.85000
243.8388, 49.69640
244.3209, 49.28319
244.8030, 48.50608
245.2851, 47.75746
245.7673, 47.02769
246.2494, 46.33089
246.7315, 45.68473
247.2136, 45.03076
247.6957, 44.52041
248.1778, 44.22550
248.6600, 44.20521
249.1421, 44.26100
249.6242, 44.56223
250.1063, 44.85123
250.5884, 44.55375
251.0705, 43.24925
251.5527, 42.07143
252.0348, 41.47460
252.5169, 41.62647
252.9990, 41.74279
253.4811, 41.84918
253.9632, 41.90398
254.4454, 41.81622
254.9275, 41.50341
255.4096, 41.20414
255.8917, 41.00085
256.3738, 40.91541
256.8560, 40.83818
257.3381, 40.79243
257.8202, 40.73515
258.3023, 40.57167
258.7844, 40.20700
259.2665, 39.95226
259.7487, 39.96626
260.2308, 40.32489
260.7129, 40.39027
261.1950, 40.02080
261.6771, 39.51307
262.1592, 39.28782
262.6414, 39.45349
263.1235, 39.63550
263.6056, 39.75048
264.0877, 39.80257
264.5698, 39.70150
265.0519, 39.33822
265.5341, 38.97105
266.0162, 38.94204
266.4983, 39.37622
266.9804, 39.76763
267.4625, 40.00535
267.9446, 40.08868
268.4268, 40.05321
268.9089, 39.85175
269.3910, 39.61641
269.8731, 39.48137
270.3552, 39.46394
270.8373, 39.48047
271.3195, 39.51180
271.8016, 39.55994
272.2837, 39.68403
272.7658, 39.95184
273.2479, 40.14473
273.7300, 39.97998
274.2122, 39.36822
274.6943, 38.97083
275.1764, 38.97412
275.6585, 39.29753
276.1406, 39.51671
276.6227, 39.61056
277.1049, 39.67141
277.5870, 39.78868
278.0691, 39.97287
278.5512, 40.09401
279.0333, 40.12822
279.5154, 40.08718
279.9976, 39.98017
280.4797, 39.78614
280.9618, 39.63314
281.4439, 39.65169
281.9260, 39.84404
282.4081, 39.93343
282.8903, 39.85418
283.3724, 39.68563
283.8545, 39.64464
284.3366, 39.74702
284.8187, 39.80848
285.3008, 39.63551
285.7830, 39.25957
286.2651, 39.10015
286.7472, 39.24855
287.2293, 39.52179
287.7114, 39.57308
288.1935, 39.40399
288.6757, 39.21380
289.1578, 39.06331
289.6399, 38.97101
290.1220, 39.07452
290.6041, 39.41906
291.0862, 39.83546
291.5684, 40.11860
292.0505, 40.26984
292.5326, 40.29753
293.0147, 40.13643
293.4968, 39.85368
293.9789, 39.66048
294.4611, 39.57661
294.9432, 39.50736
295.4253, 39.29667
295.9074, 38.98824
296.3895, 38.77472
296.8716, 38.81115
297.3538, 38.97885
297.8359, 39.02543
298.3180, 38.94699
298.8001, 38.84663
299.2822, 38.89320
299.7643, 39.00050
300.2465, 38.93391
300.7286, 38.45075
301.2107, 37.85708
301.6928, 37.60516
302.1749, 37.67849
302.6570, 37.79015
303.1392, 37.68351
303.6213, 37.46546
304.1034, 37.32826
304.5855, 37.37692
305.0676, 37.46732
305.5497, 37.45639
306.0319, 37.35624
306.5140, 37.22890
306.9961, 37.03987
307.4782, 36.87502
307.9603, 36.85717
308.4424, 37.09127
308.9246, 37.33333
309.4067, 37.37403
309.8888, 37.26522
310.3709, 37.15549
310.8530, 37.21125
311.3351, 37.25330
311.8173, 37.08288
312.2994, 36.57515
312.7815, 36.13980
313.2636, 36.14737
313.7457, 36.38917
314.2278, 36.49014
314.7100, 36.04851
315.1921, 35.59321
315.6742, 35.50380
316.1563, 35.88625
316.6384, 36.20313
317.1205, 36.17106
317.6027, 35.95252
318.0848, 35.75259
318.5669, 35.63161
319.0490, 35.54441
319.5311, 35.51648
320.0132, 35.55364
320.4954, 35.47409
320.9775, 35.01051
321.4596, 34.51203
321.9417, 34.28288
322.4238, 34.69745
322.9059, 35.06159
323.3881, 35.19810
323.8702, 35.12035
324.3523, 35.04216
324.8344, 35.05039
325.3165, 35.03010
325.7986, 34.91377
326.2808, 34.47061
326.7629, 34.19756
327.2450, 34.24421
327.7271, 34.51592
328.2092, 34.63745
328.6913, 34.43567
329.1735, 34.23375
329.6556, 34.17074
330.1377, 34.40846
330.6198, 34.46893
331.1019, 34.19939
331.5840, 33.79790
332.0662, 33.64888
332.5483, 33.93743
333.0304, 34.21185
333.5125, 34.30373
333.9946, 34.15787
334.4767, 34.14429
334.9589, 34.36864
335.4410, 34.62194
335.9231, 34.60455
336.4052, 34.18264
336.8873, 33.84436
337.3694, 33.72377
337.8516, 33.80918
338.3336, 33.90781
338.8158, 34.04284
339.2979, 34.14366
339.7800, 34.13286
340.2621, 33.99436
340.7442, 33.86031
341.2263, 33.75740
341.7085, 33.67479
342.1906, 33.55842
342.6727, 33.39165
343.1548, 33.28935
343.6369, 33.36771
344.1190, 33.61260
344.6012, 33.79975
345.0833, 33.88903
345.5654, 33.93948
346.0475, 34.07219
346.5296, 34.27974
347.0117, 34.45810
347.4939, 34.54272
347.9760, 34.55174
348.4581, 34.51249
348.9402, 34.40828
349.4223, 34.35727
349.9044, 34.58384
350.3866, 34.99645
350.8687, 35.28325
351.3508, 35.21719
351.8329, 34.99556
352.3150, 34.96645
352.7971, 35.12233
353.2793, 35.21591
353.7614, 34.93893
354.2435, 34.49347
354.7256, 34.21144
355.2077, 34.25288
355.6898, 34.41053
356.1720, 34.53580
356.6541, 34.63105
357.1362, 34.70691
357.6183, 34.74675
358.1004, 34.78300
358.5826, 34.84915
359.0647, 34.96433
359.5468, 35.07629
360.0289, 35.15253
360.5110, 35.20601
360.9931, 35.26167
361.4753, 35.35527
361.9574, 35.43210
362.4395, 35.44571
362.9216, 35.37555
363.4037, 35.35054
363.8858, 35.43303
364.3680, 35.57085
364.8501, 35.70973
365.3322, 35.74491
365.8143, 35.87450
366.2964, 36.25483
366.7785, 36.87608
367.2607, 37.23898
367.7428, 37.09969
368.2249, 36.82423
368.7070, 36.63189
369.1891, 36.60476
369.6712, 36.55476
370.1534, 36.40034
370.6355, 36.21566
371.1176, 36.24719
371.5997, 36.66327
372.0818, 37.07829
372.5639, 37.34465
373.0461, 37.43442
373.5282, 37.44869
374.0103, 37.32713
374.4924, 37.18502
374.9745, 37.20188
375.4566, 37.40639
375.9388, 37.68780
376.4209, 38.06567
376.9030, 38.52666
377.3851, 38.75144
377.8672, 38.70042
378.3493, 38.55427
378.8315, 38.50179
379.3136, 38.54639
379.7957, 38.46714
380.2778, 38.12290
380.7599, 37.73027
381.2420, 37.91387
381.7242, 38.67000
382.2063, 39.43237
382.6884, 39.79802
383.1705, 39.86069
383.6526, 39.92223
384.1347, 40.00864
384.6169, 40.10210
385.0990, 40.14142
385.5811, 40.15850
386.0632, 40.25744
386.5453, 40.58195
387.0274, 40.97326
387.5096, 41.19352
387.9917, 41.24092
388.4738, 41.27728
388.9559, 41.42204
389.4380, 41.63130
389.9201, 41.84150
390.4023, 41.94163
390.8844, 42.14193
391.3665, 42.75896
391.8486, 43.64841
392.3307, 44.25643
392.8128, 44.00740
393.2950, 43.59000
393.7771, 43.50002
394.2592, 43.95832
394.7413, 44.35910
395.2234, 44.41584
395.7055, 44.30977
396.1877, 44.32140
396.6698, 44.66555
397.1519, 44.98980
397.6340, 45.17267
398.1161, 45.19160
398.5982, 45.23777
399.0804, 45.38966
399.5625, 45.53420
400.0446, 45.58221
400.5267, 45.35762
401.0088, 45.30315
401.4909, 45.54636
401.9731, 45.99648
402.4552, 46.27460
402.9373, 46.30765
403.4194, 46.28939
403.9015, 46.33569
404.3836, 46.51057
404.8658, 46.45335
405.3479, 46.04632
405.8300, 45.56630
406.3121, 45.50354
406.7942, 45.93976
407.2763, 46.20975
407.7585, 46.04761
408.2406, 45.53352
408.7227, 45.13504
409.2048, 44.86758
409.6869, 44.59610
410.1690, 44.14856
410.6512, 43.57749
411.1333, 43.15049
411.6154, 42.98735
412.0975, 42.86075
412.5796, 42.35835
413.0617, 41.55011
413.5439, 40.77697
414.0260, 40.15386
414.5081, 39.70635
414.9902, 39.57269
415.4723, 39.79636
415.9544, 39.94710
416.4366, 39.59457
416.9187, 38.96099
417.4008, 38.38131
417.8829, 38.04005
418.3650, 37.73418
418.8471, 37.33265
419.3293, 36.85396
419.8114, 36.38897
420.2935, 35.83538
420.7756, 35.40203
421.2577, 35.28937
421.7398, 35.81575
422.2220, 36.09661
422.7041, 35.75438
423.1862, 35.07337
423.6683, 34.56597
424.1504, 34.42971
424.6325, 34.33123
425.1147, 34.17841
425.5968, 33.95644
426.0789, 33.79182
426.5610, 33.69458
427.0431, 33.64532
427.5252, 33.64120
428.0074, 33.72898
428.4895, 33.74577
428.9716, 33.63984
429.4537, 33.46225
429.9358, 33.38491
430.4179, 33.43158
430.9001, 33.49348
431.3822, 33.52666
431.8643, 33.53133
432.3464, 33.48454
432.8285, 33.37651
433.3106, 33.24902
433.7928, 33.13785
434.2749, 33.04642
434.7570, 33.00578
435.2391, 33.03716
435.7212, 33.11598
436.2033, 33.24784
436.6855, 33.41721
437.1676, 33.47705
437.6497, 33.15031
438.1318, 32.69719
438.6139, 32.56902
439.0960, 32.91943
439.5782, 33.29627
440.0603, 33.30229
440.5424, 33.07186
441.0245, 32.85744
441.5066, 32.74144
441.9887, 32.69197
442.4709, 32.71869
442.9530, 32.81675
443.4351, 32.89016
443.9172, 32.88308
444.3993, 32.84800
444.8814, 32.82085
445.3636, 32.76674
445.8457, 32.77510
446.3278, 32.94459
446.8099, 33.18517
447.2920, 33.27443
447.7741, 33.03532
448.2563, 32.83997
448.7384, 32.83654
449.2205, 33.07097
449.7026, 33.12004
450.1847, 32.89367
450.6668, 32.59606
451.1490, 32.41594
451.6311, 32.37874
452.1132, 32.36668
452.5953, 32.37979
453.0774, 32.39482
453.5595, 32.32936
454.0417, 32.17214
454.5238, 32.03620
455.0059, 32.00956
455.4880, 32.06470
455.9701, 32.03974
456.4522, 31.91803
456.9344, 31.79551
457.4165, 31.76819
457.8986, 31.82226
458.3807, 31.93218
458.8628, 32.16902
459.3449, 32.36917
459.8271, 32.22446
460.3092, 31.83512
460.7913, 31.62784
461.2734, 32.06623
461.7555, 32.66503
462.2376, 33.01797
462.7198, 33.03742
463.2019, 32.94278
463.6840, 32.74940
464.1661, 32.52631
464.6482, 32.35705
465.1303, 32.26101
465.6125, 32.22272
466.0946, 32.24575
466.5767, 32.32705
467.0588, 32.44260
467.5409, 32.71861
468.0230, 32.91566
468.5052, 32.90859
468.9873, 32.57067
469.4694, 32.33916
469.9515, 32.20800
470.4336, 32.18838
470.9157, 32.35723
471.3979, 32.82920
471.8800, 33.07931
472.3621, 32.90057
472.8442, 32.40178
473.3263, 32.06362
473.8084, 31.88414
474.2906, 31.87854
474.7727, 32.21059
475.2548, 32.77055
475.7369, 32.98455
476.2190, 32.74343
476.7011, 32.35624
477.1833, 32.16999
477.6654, 32.13588
478.1475, 32.11974
478.6296, 32.02859
479.1117, 31.95447
479.5938, 32.02190
480.0760, 32.21045
480.5581, 32.37976
481.0402, 32.50505
481.5223, 32.54642
482.0044, 32.43766
482.4865, 32.07867
482.9687, 31.81404
483.4508, 31.92991
483.9329, 32.16577
484.4150, 32.14962
484.8971, 31.39736
485.3792, 30.82792
485.8614, 30.74927
486.3435, 31.11846
486.8256, 31.32317
487.3077, 31.28249
487.7898, 31.17060
488.2719, 31.06428
488.7541, 30.94359
489.2362, 30.91567
489.7183, 31.03433
490.2004, 31.17518
490.6825, 31.12064
491.1646, 30.84611
491.6468, 30.62695
492.1289, 30.57220
492.6110, 30.61396
493.0931, 30.50633
493.5752, 30.25193
494.0573, 30.07284
494.5395, 30.26927
495.0216, 30.63136
495.5037, 30.68070
495.9858, 30.31769
496.4679, 29.88769
496.9500, 29.66835
497.4322, 29.60272
497.9143, 29.60070
498.3964, 29.63197
498.8785, 29.71182
499.3606, 29.93203
499.8427, 30.24050
500.3249, 30.38150
500.8070, 30.06243
501.2891, 29.71579
501.7712, 29.58287
502.2533, 29.77434
502.7354, 29.93205
503.2176, 30.07440
503.6997, 30.14591
504.1818, 30.07488
504.6639, 29.74630
505.1460, 29.48555
505.6281, 29.33493
506.1103, 29.28551
506.5924, 29.33696
507.0745, 29.52940
507.5566, 29.67981
508.0387, 29.65352
508.5208, 29.46401
509.0030, 29.41140
509.4851, 29.51813
509.9672, 29.63638
510.4493, 29.58432
510.9314, 29.40916
511.4135, 29.28590
511.8957, 29.31290
512.3778, 29.31836
512.8599, 29.01372
513.3420, 28.50799
513.8242, 28.12080
514.3063, 28.06889
514.7884, 28.15970
515.2705, 28.27180
515.7526, 28.39630
516.2347, 28.50060
516.7169, 28.57928
517.1990, 28.62762
517.6811, 28.64323
518.1632, 28.66249
518.6453, 28.59781
519.1274, 28.35538
519.6096, 28.03760
520.0917, 27.83571
520.5738, 27.79540
521.0559, 27.79957
521.5380, 27.85150
522.0201, 27.94210
522.5023, 27.88526
522.9844, 27.63063
523.4665, 27.37108
523.9486, 27.23175
524.4307, 27.21012
524.9128, 27.32305
525.3950, 27.61936
525.8771, 27.87773
526.3592, 27.71030
526.8413, 27.23231
527.3234, 26.86391
527.8055, 26.85144
528.2877, 26.93823
528.7698, 26.74425
529.2519, 26.35828
529.7340, 26.15081
530.2161, 26.59264
530.6982, 27.11593
531.1804, 27.26500
531.6625, 26.92314
532.1446, 26.57269
532.6267, 26.30428
533.1088, 26.13437
533.5909, 26.08214
534.0731, 26.27416
534.5552, 26.43232
535.0373, 26.57016
535.5194, 26.65707
536.0015, 26.60550
536.4836, 26.34777
536.9658, 26.08704
537.4479, 25.87595
537.9300, 25.71662
538.4121, 25.67900
538.8942, 25.78891
539.3763, 25.91195
539.8585, 25.94550
540.3406, 25.89536
540.8227, 25.77871
541.3048, 25.57870
541.7869, 25.37809
542.2690, 25.24698
542.7512, 25.19404
543.2333, 25.24254
543.7154, 25.49495
544.1975, 25.77514
544.6796, 25.98179
545.1617, 26.10666
545.6439, 26.10333
546.1260, 25.87917
546.6081, 25.57608
547.0902, 25.23123
547.5723, 24.79700
548.0544, 24.55991
548.5366, 24.69320
549.0187, 24.96505
549.5008, 25.17978
549.9829, 25.36868
550.4650, 25.43600
550.9471, 25.32584
551.4293, 25.11562
551.9114, 24.98406
552.3935, 24.94232
552.8756, 24.92733
553.3577, 24.92810
553.8398, 24.93624
554.3220, 24.88711
554.8041, 24.77715
555.2862, 24.71540
555.7683, 24.81019
556.2504, 25.00901
556.7325, 25.22396
557.2147, 25.45308
557.6968, 25.64358
558.1789, 25.74613
558.6610, 25.78278
559.1431, 25.78530
559.6252, 25.65674
560.1074, 25.60690
560.5895, 25.82736
561.0716, 26.21306
561.5537, 26.40960
562.0358, 26.01817
562.5179, 25.74883
563.0001, 25.95090
563.4822, 26.70170
563.9643, 27.04991
564.4464, 26.77669
564.9285, 26.40899
565.4106, 26.34868
565.8928, 26.64432
566.3749, 26.93871
566.8570, 27.21527
567.3391, 27.46688
567.8212, 27.69809
568.3033, 27.90469
568.7855, 28.03127
569.2676, 28.00561
569.7497, 27.94616
570.2318, 28.02883
570.7139, 28.23489
571.1960, 28.48956
571.6782, 28.80689
572.1603, 29.11339
572.6424, 29.33882
573.1245, 29.47587
573.6066, 29.59044
574.0887, 29.76306
574.5709, 29.89180
575.0530, 29.89557
575.5351, 29.58268
576.0172, 29.40907
576.4993, 29.44989
576.9814, 29.60489
577.4636, 29.70427
577.9457, 29.70173
578.4278, 29.77780
578.9099, 30.02523
579.3920, 30.36551
579.8741, 30.45107
580.3563, 30.26029
580.8384, 30.10049
581.3205, 30.25924
581.8026, 30.58597
582.2847, 30.58441
582.7668, 30.23462
583.2490, 29.87963
583.7311, 29.78946
584.2132, 29.87237
584.6953, 30.03552
585.1774, 30.32331
585.6595, 30.52883
586.1416, 30.44417
586.6237, 30.23372
587.1058, 30.14519
