##NAMES=Vonsenite
##RRUFFID=R050221
##IDEAL CHEMISTRY=Fe^2+^_2_Fe^3+^O_2_(BO_3_)
##LOCALITY=Monchi mine, Burguillos del Cerro, Badajoz, Extremadura, Spain
##OWNER=RRUFF
##SOURCE=Marcus Origlieri
##DESCRIPTION=Mass of thin bladed black crystals
##STATUS=The identification of this mineral has been confirmed by X-ray diffraction and chemical analysis
##URL=rruff.info/R050221
##MEASURED CHEMISTRY=(Fe^2+^_1.96_Mg_0.03_Mn_0.01_)_Σ=2_(Fe^3+^_0.98_Al_0.02_)_Σ=1_BO_5_
92.35352, 211.9039
92.83563, 213.4122
93.31775, 214.1193
93.79987, 215.5768
94.28198, 214.5292
94.76410, 212.1146
95.24622, 208.7771
95.72833, 205.3363
96.21045, 202.5672
96.69257, 200.6945
97.17468, 198.4729
97.65680, 195.7218
98.13892, 192.6802
98.62103, 189.3768
99.10315, 185.5390
99.58527, 181.3013
100.0674, 177.9503
100.5495, 176.4812
101.0316, 174.7077
101.5137, 171.7675
101.9958, 168.3102
102.4780, 165.3873
102.9601, 163.8043
103.4422, 163.6182
103.9243, 163.0479
104.4064, 161.8584
104.8885, 160.5857
105.3707, 159.4096
105.8528, 158.3543
106.3349, 157.4217
106.8170, 156.6552
107.2991, 156.0862
107.7813, 155.1986
108.2634, 153.6514
108.7455, 151.8668
109.2276, 150.2998
109.7097, 148.9778
110.1918, 148.0571
110.6740, 147.8649
111.1561, 148.3125
111.6382, 148.7489
112.1203, 148.8586
112.6024, 148.6609
113.0845, 148.2947
113.5666, 147.6236
114.0488, 146.9171
114.5309, 146.3484
115.0130, 145.9348
115.4951, 145.6112
115.9772, 145.2958
116.4593, 144.9701
116.9415, 144.7090
117.4236, 144.7667
117.9057, 144.7511
118.3878, 144.2829
118.8699, 143.2318
119.3520, 141.8610
119.8342, 140.8870
120.3163, 140.5969
120.7984, 140.4246
121.2805, 140.3771
121.7626, 140.4090
122.2447, 140.4962
122.7269, 140.6377
123.2090, 140.8067
123.6911, 140.7545
124.1732, 140.6144
124.6553, 140.1950
125.1374, 139.2043
125.6196, 137.7807
126.1017, 136.4756
126.5838, 135.6852
127.0659, 135.4184
127.5480, 135.2661
128.0302, 135.3414
128.5123, 135.4646
128.9944, 135.5704
129.4765, 135.7165
129.9586, 135.5188
130.4407, 134.3245
130.9229, 132.5479
131.4050, 130.9593
131.8871, 129.9975
132.3692, 129.4729
132.8513, 128.7489
133.3334, 127.5385
133.8155, 126.5189
134.2977, 126.1054
134.7798, 126.1540
135.2619, 126.2806
135.7440, 126.2105
136.2261, 125.9333
136.7082, 125.5566
137.1904, 124.8581
137.6725, 124.2378
138.1546, 123.9898
138.6367, 124.0466
139.1188, 124.0570
139.6009, 123.5402
140.0831, 122.1211
140.5652, 121.0893
141.0473, 120.6107
141.5294, 120.3327
142.0115, 120.0632
142.4936, 119.7394
142.9758, 119.3611
143.4579, 118.9227
143.9400, 118.3262
144.4221, 117.8460
144.9042, 117.5947
145.3863, 117.4423
145.8685, 117.2050
146.3506, 116.8007
146.8327, 116.3324
147.3148, 116.0316
147.7969, 115.9048
148.2790, 115.8580
148.7612, 115.9734
149.2433, 116.1722
149.7254, 116.1385
150.2075, 115.5743
150.6896, 114.8468
151.1717, 114.5836
151.6539, 114.9531
152.1360, 115.3903
152.6181, 115.3698
153.1002, 114.8498
153.5823, 114.3281
154.0644, 114.0894
154.5466, 113.9028
155.0287, 113.5610
155.5108, 112.9812
155.9929, 112.3047
156.4750, 111.7561
156.9571, 111.3183
157.4393, 111.0712
157.9214, 111.1938
158.4035, 111.4189
158.8856, 111.4322
159.3677, 111.0544
159.8498, 110.4549
160.3320, 110.2800
160.8141, 111.1567
161.2962, 111.7247
161.7783, 111.7389
162.2604, 111.3272
162.7425, 110.6154
163.2247, 109.6455
163.7068, 108.4662
164.1889, 107.7735
164.6710, 107.9588
165.1531, 108.1801
165.6352, 108.2000
166.1174, 108.0704
166.5995, 107.9645
167.0816, 108.0184
167.5637, 108.2294
168.0458, 108.3465
168.5279, 108.4246
169.0101, 108.3826
169.4922, 108.0957
169.9743, 107.5944
170.4564, 107.1112
170.9385, 106.8157
171.4206, 106.7223
171.9028, 106.7409
172.3849, 107.0712
172.8670, 107.4008
173.3491, 107.4020
173.8312, 107.0304
174.3133, 106.5196
174.7955, 105.9234
175.2776, 105.3163
175.7597, 104.9085
176.2418, 104.8019
176.7239, 104.9308
177.2060, 105.2388
177.6882, 105.8787
178.1703, 106.3631
178.6524, 106.3083
179.1345, 105.8879
179.6166, 105.4429
180.0987, 105.1791
180.5809, 105.0564
181.0630, 104.8141
181.5451, 104.1762
182.0272, 103.7717
182.5093, 104.0815
182.9914, 104.8348
183.4736, 105.4166
183.9557, 105.2584
184.4378, 104.3261
184.9199, 103.6992
185.4020, 103.7269
185.8841, 103.7776
186.3663, 103.6005
186.8484, 103.2610
187.3305, 103.0052
187.8126, 103.0941
188.2947, 103.6246
188.7768, 103.9226
189.2590, 103.9074
189.7411, 103.7702
190.2232, 103.5183
190.7053, 103.1991
191.1874, 102.9244
191.6695, 102.8262
192.1517, 102.9790
192.6338, 103.0012
193.1159, 102.7610
193.5980, 102.5094
194.0801, 102.3449
194.5622, 102.3025
195.0444, 102.4642
195.5265, 102.9943
196.0086, 104.0826
196.4907, 104.6684
196.9728, 104.3531
197.4549, 103.7625
197.9371, 103.4500
198.4192, 103.5145
198.9013, 103.7406
199.3834, 103.9206
199.8655, 104.0568
200.3476, 104.1399
200.8298, 103.9806
201.3119, 103.8319
201.7940, 104.0947
202.2761, 104.8953
202.7582, 105.8588
203.2403, 106.7146
203.7225, 107.4588
204.2046, 107.8612
204.6867, 107.6991
205.1688, 107.1477
205.6509, 106.5458
206.1330, 105.7909
206.6152, 105.2725
207.0973, 105.4850
207.5794, 106.2173
208.0615, 106.7626
208.5436, 106.5665
209.0257, 105.8032
209.5079, 105.3413
209.9900, 105.4711
210.4721, 105.5893
210.9542, 105.2387
211.4363, 104.5717
211.9184, 104.0351
212.4006, 104.0909
212.8827, 104.6974
213.3648, 104.9224
213.8469, 104.3869
214.3290, 103.8289
214.8111, 103.5605
215.2933, 103.5212
215.7754, 103.5124
216.2575, 103.3926
216.7396, 103.1616
217.2217, 102.8199
217.7038, 102.2144
218.1859, 101.6286
218.6681, 101.1595
219.1502, 100.7861
219.6323, 100.4207
220.1144, 99.97649
220.5965, 99.43716
221.0786, 99.00809
221.5608, 98.75269
222.0429, 98.53664
222.5250, 98.34378
223.0071, 98.15314
223.4892, 97.94113
223.9713, 97.69713
224.4535, 97.43334
224.9356, 96.99243
225.4177, 96.07491
225.8998, 95.28855
226.3819, 94.93193
226.8640, 94.95683
227.3462, 95.15194
227.8283, 95.36819
228.3104, 95.61723
228.7925, 95.65363
229.2746, 95.27077
229.7567, 94.90151
230.2389, 94.87910
230.7210, 95.12024
231.2031, 95.20105
231.6852, 94.73363
232.1673, 93.72057
232.6494, 93.01145
233.1316, 92.68543
233.6137, 92.56571
234.0958, 92.66730
234.5779, 92.93771
235.0600, 93.12667
235.5421, 93.04233
236.0243, 92.69473
236.5064, 92.35755
236.9885, 91.88689
237.4706, 91.54302
237.9527, 91.67049
238.4348, 92.21369
238.9170, 92.51389
239.3991, 91.97053
239.8812, 90.87401
240.3633, 90.31420
240.8454, 90.72092
241.3275, 91.31719
241.8097, 91.46069
242.2918, 91.16688
242.7739, 90.87807
243.2560, 90.84051
243.7381, 90.96569
244.2202, 91.09089
244.7024, 91.28480
245.1845, 91.35986
245.6666, 91.04243
246.1487, 90.32167
246.6308, 89.71519
247.1129, 89.49194
247.5951, 89.50832
248.0772, 89.60993
248.5593, 89.81026
249.0414, 90.00893
249.5235, 90.12254
250.0056, 90.15236
250.4878, 90.07648
250.9699, 89.70860
251.4520, 89.33916
251.9341, 89.29990
252.4162, 89.68601
252.8983, 90.08419
253.3805, 89.93172
253.8626, 89.13562
254.3447, 88.63866
254.8268, 89.00208
255.3089, 89.55363
255.7910, 89.86671
256.2732, 89.87702
256.7553, 89.76452
257.2374, 89.70600
257.7195, 89.70916
258.2016, 89.71113
258.6837, 89.75342
259.1659, 89.75225
259.6480, 89.59229
260.1301, 89.29375
260.6122, 89.05633
261.0943, 89.17955
261.5764, 89.75959
262.0586, 90.04733
262.5407, 89.61488
263.0228, 89.17316
263.5049, 89.07902
263.9870, 89.29823
264.4691, 89.54055
264.9513, 89.50277
265.4334, 89.13340
265.9155, 88.88673
266.3976, 88.79831
266.8797, 88.81310
267.3618, 89.02326
267.8440, 89.34364
268.3261, 89.56490
268.8082, 89.48267
269.2903, 89.08303
269.7724, 88.75851
270.2545, 88.57454
270.7367, 88.40908
271.2188, 88.23985
271.7009, 88.06325
272.1830, 87.86739
272.6651, 87.62447
273.1472, 87.34720
273.6294, 87.25911
274.1115, 87.78358
274.5936, 88.06824
275.0757, 87.72430
275.5578, 87.04507
276.0399, 86.53235
276.5221, 86.51128
277.0042, 86.87724
277.4863, 87.00588
277.9684, 86.70165
278.4505, 86.34513
278.9326, 85.90405
279.4148, 85.45457
279.8969, 85.10208
280.3790, 84.90005
280.8611, 84.79423
281.3432, 84.60746
281.8253, 84.28164
282.3075, 83.93290
282.7896, 83.42160
283.2717, 82.95066
283.7538, 82.83408
284.2359, 83.17714
284.7180, 83.67818
285.2002, 83.68255
285.6823, 82.51502
286.1644, 81.77488
286.6465, 81.74802
287.1286, 81.97066
287.6107, 82.09358
288.0929, 82.00533
288.5750, 81.71812
289.0571, 81.21064
289.5392, 80.20397
290.0213, 79.64951
290.5034, 79.98348
290.9856, 80.43657
291.4677, 80.39632
291.9498, 79.81248
292.4319, 79.08974
292.9140, 78.70012
293.3961, 78.75688
293.8783, 78.66794
294.3604, 78.34446
294.8425, 77.97084
295.3246, 77.62639
295.8067, 77.32822
296.2888, 77.09023
296.7710, 76.93871
297.2531, 76.88261
297.7352, 76.71939
298.2173, 76.29784
298.6994, 75.93798
299.1815, 75.81976
299.6637, 75.88467
300.1458, 75.96821
300.6279, 75.97472
301.1100, 75.90158
301.5921, 75.71455
302.0742, 75.29575
302.5564, 74.91871
303.0385, 74.64925
303.5206, 74.47475
304.0027, 74.37170
304.4848, 74.33295
304.9669, 74.34621
305.4491, 74.37902
305.9312, 74.55395
306.4133, 74.58430
306.8954, 74.36043
307.3775, 73.99495
307.8596, 73.58741
308.3418, 73.17036
308.8239, 72.82031
309.3060, 72.69485
309.7881, 72.97246
310.2702, 73.10216
310.7523, 72.97851
311.2345, 72.74490
311.7166, 72.52119
312.1987, 72.33509
312.6808, 72.16103
313.1629, 71.95898
313.6451, 71.70265
314.1272, 71.56187
314.6093, 71.64362
315.0914, 71.75389
315.5735, 71.75434
316.0556, 71.64574
316.5378, 71.52926
317.0199, 71.50526
317.5020, 71.57541
317.9841, 71.46316
318.4662, 70.96906
318.9483, 70.51878
319.4305, 70.27864
319.9126, 70.23597
320.3947, 70.36401
320.8768, 70.68958
321.3589, 71.13008
321.8410, 71.22926
322.3232, 70.68230
322.8053, 70.21876
323.2874, 70.05145
323.7695, 70.06777
324.2516, 70.09826
324.7337, 70.07453
325.2159, 70.02276
325.6980, 70.00803
326.1801, 70.14134
326.6622, 70.11254
327.1443, 69.76588
327.6264, 69.31273
328.1086, 68.95329
328.5907, 68.74001
329.0728, 68.63116
329.5549, 68.59074
330.0370, 68.67410
330.5191, 68.62840
331.0013, 68.32756
331.4834, 68.00012
331.9655, 67.79373
332.4476, 67.71769
332.9297, 67.70580
333.4118, 67.69886
333.8940, 67.69449
334.3761, 67.77888
334.8582, 68.14680
335.3403, 68.38979
335.8224, 68.26153
336.3045, 67.87643
336.7867, 67.49065
337.2688, 67.24593
337.7509, 67.14027
338.2330, 67.17785
338.7151, 67.63755
339.1972, 67.89637
339.6793, 67.74801
340.1614, 67.38682
340.6436, 67.03149
341.1257, 66.76260
341.6078, 66.58804
342.0899, 66.52876
342.5720, 66.72929
343.0541, 66.79479
343.5363, 66.68221
344.0184, 66.47064
344.5005, 66.15099
344.9826, 65.75839
345.4647, 65.44894
345.9468, 65.42405
346.4290, 65.78846
346.9111, 65.92878
347.3932, 65.67054
347.8753, 65.40002
348.3574, 65.33433
348.8395, 65.41573
349.3217, 65.42690
349.8038, 65.18639
350.2859, 64.40189
350.7680, 64.75462
351.2501, 64.92547
351.7322, 64.92418
352.2144, 64.23521
352.6965, 64.43423
353.1786, 64.27740
353.6607, 64.10597
354.1428, 64.42998
354.6249, 63.84104
355.1071, 64.15717
355.5892, 64.11203
356.0713, 64.23224
356.5534, 63.99439
357.0355, 63.86713
357.5176, 64.09805
357.9998, 64.13063
358.4819, 63.85156
358.9640, 63.98228
359.4461, 63.38084
359.9282, 63.42188
360.4103, 63.74012
360.8925, 63.47905
361.3746, 63.61631
361.8567, 63.60188
362.3388, 62.89799
362.8209, 63.39312
363.3030, 63.36971
363.7852, 62.81388
364.2673, 63.26792
364.7494, 62.78550
365.2315, 62.63733
365.7136, 62.74072
366.1957, 62.58187
366.6779, 62.83647
367.1600, 62.69276
367.6421, 62.51348
368.1242, 62.48949
368.6063, 62.02543
369.0884, 62.37779
369.5706, 62.17246
370.0527, 62.24435
370.5348, 62.37907
371.0169, 62.03268
371.4990, 62.19564
371.9811, 61.56871
372.4633, 61.60270
372.9454, 61.56552
373.4275, 61.95080
373.9096, 61.32772
374.3917, 61.34336
374.8738, 61.63095
375.3560, 61.53800
375.8381, 61.60416
376.3202, 61.19932
376.8023, 61.23695
377.2844, 61.15262
377.7665, 61.48973
378.2487, 61.49413
378.7308, 61.09728
379.2129, 60.70213
379.6950, 61.06958
380.1771, 60.71423
380.6592, 60.74882
381.1414, 61.13798
381.6235, 61.57955
382.1056, 61.69809
382.5877, 61.49688
383.0698, 61.26713
383.5519, 61.21415
384.0341, 61.27027
384.5162, 61.20424
384.9983, 60.94421
385.4804, 60.69529
385.9625, 60.34964
386.4446, 60.70552
386.9268, 60.87949
387.4089, 60.88135
387.8910, 60.19555
388.3731, 60.39771
388.8552, 60.24402
389.3373, 60.07574
389.8195, 60.40287
390.3016, 59.81708
390.7837, 60.13638
391.2658, 60.09438
391.7479, 60.21773
392.2300, 59.98302
392.7122, 59.85890
393.1943, 60.09296
393.6764, 60.12870
394.1585, 59.85278
394.6406, 59.98664
395.1227, 59.38835
395.6049, 59.43252
396.0870, 59.75391
396.5691, 59.49599
397.0512, 59.63640
397.5333, 59.62511
398.0154, 58.92437
398.4976, 59.42263
398.9797, 59.40237
399.4618, 58.84969
399.9439, 59.30687
400.4260, 58.82759
400.9081, 58.68258
401.3903, 58.78910
401.8724, 58.63340
402.3545, 58.89115
402.8366, 58.75059
403.3187, 58.57445
403.8008, 58.55360
404.2830, 58.09268
404.7651, 58.44819
405.2472, 58.24601
405.7293, 58.32104
406.2114, 58.45892
406.6935, 58.11567
407.1757, 58.28176
407.6578, 57.65797
408.1399, 57.69512
408.6220, 57.66109
409.1041, 58.04951
409.5862, 57.42958
410.0684, 57.44835
410.5505, 57.73908
411.0326, 57.64929
411.5147, 57.71860
411.9968, 57.31690
412.4789, 57.35768
412.9611, 57.27648
413.4432, 57.61674
413.9253, 57.62429
414.4074, 57.23058
414.8895, 56.83858
415.3716, 57.20917
415.8538, 56.85696
416.3359, 56.89469
416.8180, 56.52970
417.3001, 56.51244
417.7822, 56.48965
418.2643, 56.64513
418.7465, 56.26008
419.2286, 56.57617
419.7107, 56.48703
420.1928, 56.51725
420.6749, 56.53419
421.1570, 56.00736
421.6392, 55.92628
422.1213, 56.48307
422.6034, 56.06710
423.0855, 55.84747
423.5676, 55.76740
424.0497, 55.91636
424.5319, 55.83483
425.0140, 55.77747
425.4961, 55.68452
425.9782, 55.53752
426.4603, 55.40596
426.9424, 55.35446
427.4246, 55.35266
427.9067, 55.34556
428.3888, 55.34226
428.8709, 55.30751
429.3530, 55.15271
429.8351, 54.92097
430.3173, 54.84722
430.7994, 55.08080
431.2815, 55.39885
431.7636, 55.36965
432.2457, 54.94516
432.7278, 54.62979
433.2100, 54.56739
433.6921, 54.65261
434.1742, 54.82843
434.6563, 55.07091
435.1384, 55.26607
435.6205, 55.32125
436.1027, 55.24131
436.5848, 55.12103
437.0669, 54.93608
437.5490, 54.74686
438.0311, 54.57050
438.5132, 54.40276
438.9954, 54.20463
439.4775, 53.96393
439.9596, 53.77654
440.4417, 53.83821
440.9238, 54.38655
441.4059, 54.62077
441.8881, 54.37697
442.3702, 54.01099
442.8523, 53.62127
443.3344, 53.28164
443.8165, 53.12208
444.2986, 53.27148
444.7808, 53.66002
445.2629, 53.84538
445.7450, 53.68044
446.2271, 53.52308
446.7092, 53.48102
447.1913, 53.45708
447.6735, 53.33552
448.1556, 53.09092
448.6377, 52.83618
449.1198, 52.73008
449.6019, 52.78600
450.0840, 52.75513
450.5662, 52.54551
451.0483, 52.33396
451.5304, 52.21302
452.0125, 52.16521
452.4946, 52.14841
452.9767, 52.17498
453.4589, 52.19352
453.9410, 52.07218
454.4231, 51.79247
454.9052, 51.64899
455.3873, 51.85968
455.8694, 52.18858
456.3516, 52.31325
456.8337, 52.21204
457.3158, 52.02399
457.7979, 51.73764
458.2800, 51.42981
458.7621, 51.23498
459.2443, 51.17495
459.7264, 51.20456
460.2085, 51.34033
460.6906, 51.55180
461.1727, 51.57185
461.6548, 51.12023
462.1370, 50.77265
462.6191, 50.96650
463.1012, 51.42756
463.5833, 51.55966
464.0654, 51.12909
464.5475, 50.48805
465.0297, 50.23963
465.5118, 50.61610
465.9939, 50.81925
466.4760, 50.73615
466.9581, 50.59160
467.4402, 50.50674
467.9224, 50.47926
468.4045, 50.46141
468.8866, 50.42383
469.3687, 50.36379
469.8508, 50.26133
470.3329, 50.04493
470.8151, 49.90503
471.2972, 49.93513
471.7793, 49.99840
472.2614, 49.95967
472.7435, 49.80707
473.2256, 49.66064
473.7078, 49.69900
474.1899, 49.91347
474.6720, 49.89234
475.1541, 49.43391
475.6362, 49.05611
476.1183, 49.08794
476.6005, 49.32771
477.0826, 49.46396
477.5647, 49.37378
478.0468, 49.20765
478.5289, 49.10781
479.0110, 49.07245
479.4932, 49.10719
479.9753, 49.28605
480.4574, 49.41980
480.9395, 49.19962
481.4216, 48.66773
481.9037, 48.29733
482.3859, 48.27400
482.8680, 48.42427
483.3501, 48.67356
483.8322, 48.97917
484.3143, 49.14978
484.7964, 49.08001
485.2786, 48.80526
485.7607, 48.40250
486.2428, 47.62097
486.7249, 47.15561
487.2070, 47.32678
487.6891, 47.70465
488.1713, 47.88969
488.6534, 47.83572
489.1355, 47.72365
489.6176, 47.72013
490.0997, 47.82078
490.5818, 47.85406
491.0640, 47.82880
491.5461, 47.71491
492.0282, 47.42300
492.5103, 47.07770
492.9924, 46.78848
493.4745, 46.59589
493.9567, 46.53299
494.4388, 46.72789
494.9209, 47.22634
495.4030, 47.44751
495.8851, 47.20412
496.3672, 46.87032
496.8494, 46.58285
497.3315, 46.35386
497.8136, 46.19802
498.2957, 46.11882
498.7778, 46.12147
499.2599, 46.29581
499.7421, 46.62398
500.2242, 46.73648
500.7063, 46.44578
501.1884, 46.01035
501.6705, 45.72554
502.1526, 45.58006
502.6348, 45.52059
503.1169, 45.60274
503.5990, 45.71444
504.0811, 45.76723
504.5632, 45.75382
505.0453, 45.66791
505.5274, 45.49535
506.0096, 45.26449
506.4917, 45.05545
506.9738, 44.77758
507.4559, 44.67176
507.9380, 44.86265
508.4201, 45.15400
508.9023, 45.47091
509.3844, 45.74762
509.8665, 45.81670
510.3486, 45.49409
510.8307, 44.85418
511.3128, 44.57887
511.7950, 45.03234
512.2771, 45.31765
512.7592, 45.20846
513.2413, 44.92266
513.7234, 44.61686
514.2056, 44.33768
514.6877, 44.12999
515.1698, 44.05995
515.6519, 44.11285
516.1340, 44.16264
516.6161, 44.22266
517.0983, 44.24426
517.5804, 44.16518
518.0625, 44.04036
518.5446, 43.94776
519.0267, 43.91138
519.5089, 43.88871
519.9910, 43.84211
520.4731, 43.78504
520.9552, 43.76496
521.4373, 43.79969
521.9194, 43.82526
522.4016, 43.75911
522.8837, 43.59850
523.3658, 43.53444
523.8479, 43.68098
524.3300, 43.80256
524.8121, 43.77224
525.2943, 43.64766
525.7764, 43.52773
526.2585, 43.44985
526.7406, 43.39825
527.2227, 43.34764
527.7048, 43.28650
528.1870, 43.26869
528.6691, 43.44344
529.1512, 43.50623
529.6333, 43.18190
530.1154, 42.68959
530.5975, 42.44738
531.0797, 42.67174
531.5618, 43.10287
532.0439, 43.30637
532.5260, 43.25692
533.0081, 43.17023
533.4902, 43.05689
533.9724, 42.94060
534.4545, 42.83206
534.9366, 42.73337
535.4187, 42.65176
535.9008, 42.58556
536.3829, 42.54073
536.8651, 42.56353
537.3472, 42.63323
537.8293, 42.56916
538.3114, 42.23677
538.7935, 41.88985
539.2756, 42.00711
539.7578, 42.73529
540.2399, 43.15440
540.7220, 42.95400
541.2041, 42.61530
541.6862, 42.43705
542.1683, 42.40013
542.6505, 42.37650
543.1326, 42.29660
543.6147, 42.19506
544.0968, 42.17253
544.5789, 42.35728
545.0610, 42.35331
545.5432, 41.98118
546.0253, 41.59263
546.5074, 41.33493
546.9895, 41.22848
547.4716, 41.28712
547.9537, 41.56996
548.4359, 41.94098
548.9180, 42.09503
549.4001, 42.00793
549.8822, 41.86960
550.3643, 41.68410
550.8464, 41.51207
551.3286, 41.39125
551.8107, 41.32479
552.2928, 41.34768
552.7749, 41.57209
553.2570, 41.82634
553.7391, 41.93353
554.2213, 41.89775
554.7034, 41.75252
555.1855, 41.47805
555.6676, 41.18586
556.1497, 41.11155
556.6318, 41.39607
557.1140, 41.57705
557.5961, 41.60032
558.0782, 41.55972
558.5603, 41.49727
559.0424, 41.42315
559.5245, 41.33764
560.0067, 41.23824
560.4888, 41.14279
560.9709, 41.11872
561.4530, 41.24177
561.9351, 41.22223
562.4172, 40.84221
562.8994, 40.46802
563.3815, 40.29201
563.8636, 40.28656
564.3457, 40.33399
564.8278, 40.40466
565.3099, 40.46392
565.7921, 40.40934
566.2742, 40.25145
566.7563, 40.25887
567.2384, 40.60057
567.7205, 41.00367
568.2026, 41.06593
568.6848, 40.79708
569.1669, 40.59766
569.6490, 40.59710
570.1311, 40.62127
570.6132, 40.55743
571.0953, 40.42273
571.5775, 40.24728
572.0596, 40.04177
572.5417, 39.87841
573.0238, 39.89847
573.5059, 40.18592
573.9880, 40.40042
574.4702, 40.57442
574.9523, 40.64659
575.4344, 40.46089
575.9165, 40.18441
576.3986, 40.14779
576.8807, 40.52096
577.3629, 40.96701
577.8450, 40.97505
578.3271, 40.55046
578.8092, 40.13717
579.2913, 39.75169
579.7734, 39.46511
580.2556, 39.35779
580.7377, 39.39052
581.2198, 39.48750
581.7019, 39.70560
582.1840, 39.89288
582.6661, 39.97437
583.1483, 39.95427
583.6304, 39.79523
584.1125, 39.48990
584.5946, 39.20662
585.0767, 39.12105
585.5588, 39.23927
586.0409, 39.39454
586.5230, 39.72856
587.0051, 39.92765
587.4872, 39.86247
