##NAMES=Vuagnatite
##RRUFFID=R050397
##IDEAL CHEMISTRY=CaAlSiO_4_(OH)
##LOCALITY=Red Mountain, Mendocino County, California, USA
##OWNER=RRUFF
##SOURCE=Marcus Origlieri
##DESCRIPTION=Colorless prismatic crystals
##STATUS=The identification of this mineral has been confirmed by X-ray diffraction and chemical analysis
##URL=rruff.info/R050397
##MEASURED CHEMISTRY=Ca_1.00_Al_1.00_(Si_1.00_O_4_)(OH)
92.52344, 92.14717
93.00555, 93.53996
93.48767, 93.49323
93.96979, 92.58908
94.45190, 91.87071
94.93402, 91.09468
95.41614, 89.24234
95.89825, 86.89722
96.38037, 84.86288
96.86249, 83.03468
97.34460, 81.14661
97.82672, 79.15093
98.30884, 77.31869
98.79095, 75.74882
99.27307, 74.27175
99.75519, 72.71509
100.2373, 71.22706
100.7194, 69.84021
101.2015, 68.44948
101.6837, 66.96341
102.1658, 65.50114
102.6479, 64.04410
103.1300, 62.54795
103.6121, 61.36010
104.0942, 60.97129
104.5764, 61.04191
105.0585, 61.12035
105.5406, 61.15121
106.0227, 61.07752
106.5048, 60.68550
106.9869, 59.73452
107.4691, 58.74992
107.9512, 58.02032
108.4333, 57.46821
108.9154, 56.89347
109.3975, 56.03114
109.8796, 54.76422
110.3618, 53.96506
110.8439, 54.13208
111.3260, 54.34183
111.8081, 54.15635
112.2902, 53.54653
112.7723, 52.79000
113.2544, 52.26825
113.7366, 52.05791
114.2187, 51.99165
114.7008, 52.14570
115.1829, 52.39024
115.6650, 52.61280
116.1471, 52.77378
116.6293, 52.90138
117.1114, 53.08135
117.5935, 53.47164
118.0756, 53.63083
118.5577, 53.17070
119.0398, 52.37440
119.5220, 51.96349
120.0041, 52.40569
120.4862, 53.32713
120.9683, 53.84151
121.4504, 53.80651
121.9325, 53.61763
122.4147, 53.57557
122.8968, 53.69201
123.3789, 53.80936
123.8610, 53.85036
124.3431, 53.84925
124.8252, 53.83099
125.3074, 53.79973
125.7895, 53.75927
126.2716, 53.71999
126.7537, 53.69330
127.2358, 53.64494
127.7179, 53.48661
128.2001, 53.31893
128.6822, 53.29186
129.1643, 53.52847
129.6464, 53.99730
130.1285, 54.28050
130.6107, 54.09406
131.0928, 53.98403
131.5749, 54.13062
132.0570, 54.46826
132.5391, 54.81714
133.0212, 55.00445
133.5034, 54.98192
133.9855, 55.15897
134.4676, 55.63987
134.9497, 56.19080
135.4318, 56.63741
135.9139, 56.98021
136.3960, 57.39309
136.8782, 58.06525
137.3603, 59.03627
137.8424, 60.18629
138.3245, 61.99870
138.8066, 63.79800
139.2887, 64.78799
139.7709, 64.77364
140.2530, 64.01173
140.7351, 62.51865
141.2172, 60.37892
141.6993, 58.37743
142.1814, 56.82946
142.6636, 55.69415
143.1457, 54.82903
143.6278, 54.30605
144.1099, 53.97345
144.5920, 53.65298
145.0741, 53.34636
145.5563, 53.14746
146.0384, 53.18456
146.5205, 53.48975
147.0026, 53.75481
147.4847, 53.87205
147.9668, 53.96938
148.4490, 54.10024
148.9311, 54.27945
149.4132, 54.51289
149.8953, 54.83638
150.3774, 55.37778
150.8595, 55.73672
151.3417, 55.69677
151.8238, 55.59797
152.3059, 55.72161
152.7880, 56.16914
153.2701, 56.83287
153.7522, 57.43690
154.2344, 57.94726
154.7165, 58.42123
155.1986, 58.79425
155.6807, 59.14993
156.1628, 59.60103
156.6449, 60.20705
157.1271, 60.93056
157.6092, 61.62140
158.0913, 62.28542
158.5734, 62.92420
159.0555, 63.41610
159.5376, 63.86202
160.0198, 64.55756
160.5019, 65.74049
160.9840, 67.26495
161.4661, 68.52925
161.9482, 69.31288
162.4303, 70.08044
162.9125, 71.15017
163.3946, 72.51142
163.8767, 73.94334
164.3588, 75.41575
164.8409, 76.83352
165.3230, 78.07707
165.8052, 79.22959
166.2873, 80.09699
166.7694, 80.39015
167.2515, 80.05257
167.7336, 79.31249
168.2157, 78.02502
168.6979, 76.49385
169.1800, 75.00570
169.6621, 73.56994
170.1442, 72.33750
170.6263, 71.79362
171.1084, 72.40739
171.5906, 73.00224
172.0727, 73.05797
172.5548, 72.88306
173.0369, 72.91580
173.5190, 73.43920
174.0011, 74.40118
174.4833, 75.35795
174.9654, 75.95065
175.4475, 76.93497
175.9296, 78.50298
176.4117, 80.57972
176.8938, 83.05793
177.3760, 85.89892
177.8581, 89.11742
178.3402, 92.12386
178.8223, 96.06864
179.3044, 98.74804
179.7865, 99.17995
180.2687, 97.59036
180.7508, 94.68464
181.2329, 90.88892
181.7150, 86.06175
182.1971, 82.13098
182.6792, 79.22063
183.1614, 76.94381
183.6435, 75.27316
184.1256, 74.13743
184.6077, 73.17844
185.0898, 72.09975
185.5719, 70.89152
186.0541, 69.71416
186.5362, 68.51408
187.0183, 67.37979
187.5004, 66.37788
187.9825, 65.50967
188.4646, 64.81260
188.9468, 64.39908
189.4289, 64.21195
189.9110, 64.02992
190.3931, 63.61281
190.8752, 63.23035
191.3573, 63.36060
191.8395, 64.16302
192.3216, 65.13442
192.8037, 66.11167
193.2858, 66.98727
193.7679, 67.43561
194.2500, 67.05563
194.7322, 66.10805
195.2143, 65.39414
195.6964, 64.87032
196.1785, 64.72741
196.6606, 65.05456
197.1427, 65.76610
197.6249, 66.69294
198.1070, 67.92018
198.5891, 69.36837
199.0712, 70.23228
199.5533, 70.37413
200.0354, 69.98147
200.5176, 68.97791
200.9997, 67.51517
201.4818, 65.88294
201.9639, 64.29064
202.4460, 62.73838
202.9281, 61.20522
203.4103, 59.26398
203.8924, 57.76283
204.3745, 57.13058
204.8566, 57.19653
205.3387, 57.52085
205.8208, 57.72409
206.3030, 57.78008
206.7851, 57.97597
207.2672, 58.46085
207.7493, 58.93131
208.2314, 59.19875
208.7135, 59.32094
209.1957, 59.51189
209.6778, 59.97655
210.1599, 60.75840
210.6420, 61.48456
211.1241, 62.17945
211.6062, 62.80835
212.0884, 63.19515
212.5705, 63.42770
213.0526, 63.91048
213.5347, 65.08903
214.0168, 67.07895
214.4989, 68.55893
214.9811, 69.04868
215.4632, 69.45100
215.9453, 70.26511
216.4274, 71.54715
216.9095, 73.24671
217.3916, 75.46265
217.8737, 78.20264
218.3559, 80.51640
218.8380, 82.79223
219.3201, 84.39895
219.8022, 84.77458
220.2843, 83.87846
220.7664, 82.05803
221.2486, 79.22176
221.7307, 75.57342
222.2128, 72.14014
222.6949, 68.91236
223.1770, 66.03730
223.6591, 63.68604
224.1413, 61.86282
224.6234, 60.53328
225.1055, 59.95750
225.5876, 59.86108
226.0697, 59.79330
226.5518, 59.64872
227.0340, 59.46498
227.5161, 59.31810
227.9982, 59.23906
228.4803, 59.08522
228.9624, 58.75869
229.4445, 58.31438
229.9267, 57.78517
230.4088, 57.11674
230.8909, 56.42884
231.3730, 55.97490
231.8551, 55.82821
232.3372, 55.73872
232.8194, 55.61074
233.3015, 55.47110
233.7836, 55.35506
234.2657, 55.28559
234.7478, 55.23493
235.2299, 55.11394
235.7121, 54.81362
236.1942, 54.67439
236.6763, 54.95604
237.1584, 55.36031
237.6405, 55.54531
238.1227, 55.34187
238.6048, 54.92506
239.0869, 54.73779
239.5690, 54.85925
240.0511, 55.09631
240.5332, 55.49841
241.0154, 55.93814
241.4975, 56.27551
241.9796, 56.44965
242.4617, 56.52716
242.9438, 56.67014
243.4259, 56.90893
243.9081, 57.17473
244.3902, 57.41085
244.8723, 57.68769
245.3544, 58.07096
245.8365, 58.58794
246.3186, 59.21443
246.8008, 59.90885
247.2829, 60.74989
247.7650, 61.54236
248.2471, 62.45057
248.7292, 63.22582
249.2113, 63.69416
249.6935, 63.78419
250.1756, 63.45620
250.6577, 62.60339
251.1398, 60.62019
251.6219, 58.97579
252.1040, 57.74244
252.5862, 56.80091
253.0683, 56.10086
253.5504, 55.61714
254.0325, 55.25918
254.5146, 54.87709
254.9967, 54.38816
255.4789, 54.05211
255.9610, 53.95184
256.4431, 53.95559
256.9252, 53.98800
257.4073, 54.02229
257.8894, 53.99523
258.3716, 53.78669
258.8537, 53.20526
259.3358, 53.00875
259.8179, 53.53462
260.3000, 54.24251
260.7821, 54.68323
261.2643, 54.77686
261.7464, 54.67620
262.2285, 54.48738
262.7106, 54.14709
263.1927, 54.15873
263.6748, 54.81997
264.1570, 55.65163
264.6391, 56.20888
265.1212, 56.45594
265.6033, 56.72060
266.0854, 57.33480
266.5675, 58.31914
267.0497, 59.16427
267.5318, 59.67999
268.0139, 60.17334
268.4960, 60.90821
268.9781, 61.89049
269.4602, 62.94804
269.9424, 64.04223
270.4245, 65.10239
270.9066, 65.81904
271.3887, 66.10692
271.8708, 66.10844
272.3529, 65.85684
272.8351, 65.37085
273.3172, 64.81994
273.7993, 64.25651
274.2814, 63.71841
274.7635, 63.27335
275.2456, 62.76703
275.7278, 62.53047
276.2099, 62.89113
276.6920, 63.79517
277.1741, 64.81697
277.6562, 65.81116
278.1383, 66.76530
278.6205, 67.63673
279.1026, 68.36438
279.5847, 69.15874
280.0668, 70.20511
280.5489, 71.46763
281.0310, 72.73490
281.5132, 74.03450
281.9953, 75.18240
282.4774, 75.93684
282.9595, 76.25252
283.4416, 76.45846
283.9237, 76.77808
284.4059, 77.15984
284.8880, 77.42113
285.3701, 77.61718
285.8522, 77.50893
286.3343, 76.91615
286.8164, 75.85865
287.2986, 74.43725
287.7807, 72.55379
288.2628, 70.32494
288.7449, 68.10623
289.2270, 65.83501
289.7091, 63.78393
290.1913, 62.16376
290.6734, 60.91534
291.1555, 59.83123
291.6376, 58.78373
292.1197, 57.84297
292.6018, 57.18998
293.0840, 56.90459
293.5661, 56.75651
294.0482, 56.60822
294.5303, 56.48010
295.0124, 56.41084
295.4945, 56.36286
295.9767, 56.41201
296.4588, 56.73228
296.9409, 57.39024
297.4230, 58.09363
297.9051, 58.68258
298.3872, 59.23708
298.8694, 59.89716
299.3515, 60.81365
299.8336, 61.65829
300.3157, 61.98311
300.7978, 61.73827
301.2799, 61.27415
301.7621, 60.50838
302.2442, 59.68684
302.7263, 59.03704
303.2084, 58.61486
303.6905, 58.26960
304.1726, 57.78368
304.6548, 57.14291
305.1369, 56.73623
305.6190, 56.71650
306.1011, 56.94089
306.5832, 57.33523
307.0653, 57.88800
307.5475, 58.49929
308.0296, 59.15845
308.5117, 59.84718
308.9938, 60.34975
309.4759, 60.59282
309.9580, 60.67468
310.4402, 60.62236
310.9223, 60.46983
311.4044, 60.33583
311.8865, 60.40102
312.3686, 60.57225
312.8507, 60.39193
313.3329, 59.63042
313.8150, 58.90028
314.2971, 58.55907
314.7792, 58.46881
315.2613, 58.36163
315.7434, 58.01277
316.2256, 57.63871
316.7077, 57.77380
317.1898, 58.61028
317.6719, 59.42800
318.1540, 59.75379
318.6361, 59.95092
319.1183, 60.41907
319.6004, 61.30221
320.0825, 62.42730
320.5646, 63.55755
321.0467, 64.67059
321.5288, 65.93309
322.0110, 67.50805
322.4931, 69.19590
322.9752, 70.83664
323.4573, 72.39830
323.9394, 73.97262
324.4215, 75.66673
324.9037, 77.46772
325.3858, 79.27233
325.8679, 81.40568
326.3500, 83.13306
326.8321, 84.09005
327.3142, 84.26669
327.7964, 83.68417
328.2785, 82.11281
328.7606, 79.72054
329.2427, 77.29807
329.7248, 74.88611
330.2069, 72.44705
330.6891, 69.82375
331.1712, 67.15863
331.6533, 64.74776
332.1354, 62.70921
332.6175, 61.01540
333.0996, 59.62373
333.5818, 58.54073
334.0639, 57.72277
334.5460, 57.18023
335.0281, 56.88305
335.5102, 56.86986
335.9923, 57.21387
336.4745, 57.69751
336.9566, 58.05488
337.4387, 58.27223
337.9208, 58.56866
338.4029, 58.99760
338.8850, 59.56336
339.3671, 60.31423
339.8492, 61.27324
340.3314, 62.19030
340.8135, 62.89217
341.2956, 63.39707
341.7777, 63.81556
342.2598, 64.30145
342.7419, 64.48244
343.2241, 63.91392
343.7062, 62.73476
344.1883, 61.64178
344.6704, 61.10638
345.1525, 60.86439
345.6346, 60.29278
346.1168, 59.26042
346.5989, 58.22336
347.0810, 57.43296
347.5631, 56.87498
348.0452, 56.58503
348.5273, 56.65158
349.0095, 56.91899
349.4916, 57.25420
349.9737, 57.65767
350.4558, 58.04837
350.9379, 58.35982
351.4200, 58.65315
351.9022, 59.00982
352.3843, 59.41929
352.8664, 59.92890
353.3485, 60.56974
353.8306, 61.33565
354.3127, 62.18710
354.7949, 63.08490
355.2770, 64.12560
355.7591, 65.43501
356.2412, 66.99150
356.7233, 68.73927
357.2054, 71.11990
357.6876, 73.53451
358.1697, 75.06045
358.6518, 75.56813
359.1339, 75.27785
359.6160, 74.26888
360.0981, 72.55972
360.5803, 70.32752
361.0624, 67.08514
361.5445, 63.71003
362.0266, 60.80726
362.5087, 58.39001
362.9908, 56.50293
363.4730, 55.26548
363.9551, 54.54818
364.4372, 53.85370
364.9193, 53.05962
365.4014, 52.48259
365.8835, 52.32909
366.3657, 52.47929
366.8478, 52.72654
367.3299, 53.02371
367.8120, 53.30689
368.2941, 53.44250
368.7762, 53.36679
369.2584, 53.43146
369.7405, 53.75720
370.2226, 54.20160
370.7047, 54.61516
371.1868, 54.98549
371.6689, 55.41158
372.1511, 56.00154
372.6332, 56.76618
373.1153, 57.45699
373.5974, 57.91313
374.0795, 58.46508
374.5616, 59.37580
375.0438, 60.51854
375.5259, 61.54210
376.0080, 62.22215
376.4901, 62.70837
376.9722, 63.53510
377.4543, 65.07635
377.9365, 66.46633
378.4186, 67.43935
378.9007, 68.29926
379.3828, 69.39747
379.8649, 70.82378
380.3470, 72.37793
380.8292, 73.76550
381.3113, 74.86977
381.7934, 76.18505
382.2755, 77.91858
382.7576, 79.65639
383.2397, 81.02537
383.7219, 82.15089
384.2040, 83.47314
384.6861, 85.35275
385.1682, 87.75529
385.6503, 90.08031
386.1324, 92.32138
386.6146, 94.47734
387.0967, 96.77389
387.5788, 98.88988
388.0609, 100.4235
388.5430, 101.1975
389.0251, 101.3886
389.5073, 101.3732
389.9894, 101.3186
390.4715, 100.6491
390.9536, 98.80850
391.4357, 96.84506
391.9178, 95.32430
392.4000, 94.34713
392.8821, 93.77882
393.3642, 93.56224
393.8463, 93.70896
394.3284, 93.81077
394.8105, 93.96811
395.2927, 93.94675
395.7748, 93.72915
396.2569, 93.27917
396.7390, 92.52586
397.2211, 91.40685
397.7032, 90.02111
398.1854, 88.57462
398.6675, 87.03590
399.1496, 85.51738
399.6317, 84.01988
400.1138, 82.56403
400.5959, 81.17440
401.0781, 79.85715
401.5602, 78.59508
402.0423, 77.45069
402.5244, 76.40147
403.0065, 75.13764
403.4886, 73.49742
403.9708, 71.82493
404.4529, 70.41482
404.9350, 69.17558
405.4171, 67.83422
405.8992, 66.29780
406.3813, 64.58760
406.8635, 62.57631
407.3456, 60.19145
407.8277, 58.16521
408.3098, 57.03563
408.7919, 56.40357
409.2740, 55.55504
409.7562, 54.34136
410.2383, 53.19073
410.7204, 52.34049
411.2025, 51.75132
411.6846, 51.31921
412.1667, 51.04255
412.6489, 50.84143
413.1310, 50.63630
413.6131, 50.42704
414.0952, 50.19514
414.5773, 49.72167
415.0594, 49.36922
415.5416, 49.62062
416.0237, 50.41996
416.5058, 51.14335
416.9879, 51.36934
417.4700, 51.18470
417.9521, 51.07502
418.4343, 51.00344
418.9164, 51.03374
419.3985, 51.16947
419.8806, 51.42199
420.3627, 51.85084
420.8448, 52.47333
421.3270, 53.14494
421.8091, 53.63552
422.2912, 53.80996
422.7733, 54.19646
423.2554, 54.91687
423.7375, 55.72221
424.2197, 56.49806
424.7018, 57.22564
425.1839, 57.89029
425.6660, 58.46189
426.1481, 58.97711
426.6302, 59.72148
427.1124, 61.08410
427.5945, 62.18864
428.0766, 62.82225
428.5587, 63.20516
429.0408, 63.51680
429.5229, 63.82600
430.0051, 64.19221
430.4872, 64.74417
430.9693, 65.56490
431.4514, 66.21391
431.9335, 66.49036
432.4156, 66.76048
432.8978, 67.22968
433.3799, 67.81645
433.8620, 68.31315
434.3441, 68.61239
434.8262, 68.71278
435.3083, 68.58459
435.7905, 68.17791
436.2726, 67.67950
436.7547, 67.10857
437.2368, 66.49712
437.7189, 65.84859
438.2010, 65.15733
438.6832, 64.51419
439.1653, 64.05820
439.6474, 63.74104
440.1295, 63.28226
440.6116, 62.60199
441.0938, 61.84636
441.5759, 61.16089
442.0580, 60.51167
442.5401, 59.77765
443.0222, 58.82944
443.5043, 57.85125
443.9865, 57.05737
444.4686, 56.42787
444.9507, 55.75381
445.4328, 54.94898
445.9149, 54.02610
446.3970, 52.99965
446.8792, 51.82542
447.3613, 50.70028
447.8434, 49.42832
448.3255, 48.34986
448.8076, 47.88956
449.2897, 47.82564
449.7719, 47.65265
450.2540, 47.37658
450.7361, 46.68839
451.2182, 46.53236
451.7003, 46.16307
452.1824, 45.78502
452.6646, 45.70380
453.1467, 45.07557
453.6288, 44.98970
454.1109, 44.68734
454.5930, 44.48407
455.0751, 44.38601
455.5573, 44.61290
456.0394, 44.71484
456.5215, 44.63422
457.0036, 44.49950
457.4857, 44.35740
457.9678, 44.22738
458.4500, 44.12976
458.9321, 44.08376
459.4142, 44.08223
459.8963, 44.08249
460.3784, 44.08062
460.8605, 44.08816
461.3427, 44.10634
461.8248, 44.13505
462.3069, 44.16441
462.7890, 44.19225
463.2711, 44.25603
463.7532, 44.40741
464.2354, 44.64126
464.7175, 44.88807
465.1996, 45.20310
465.6817, 45.42509
466.1638, 45.38949
466.6459, 45.17856
467.1281, 44.99206
467.6102, 44.88676
468.0923, 44.84236
468.5744, 44.84476
469.0565, 44.89236
469.5386, 44.98779
470.0208, 45.17802
470.5029, 45.35724
470.9850, 45.31352
471.4671, 45.01973
471.9492, 44.72682
472.4313, 44.42162
472.9135, 44.19146
473.3956, 44.16674
473.8777, 44.34066
474.3598, 44.56566
474.8419, 44.74687
475.3240, 44.87939
475.8062, 44.90467
476.2883, 44.68452
476.7704, 44.54287
477.2525, 44.57573
477.7346, 44.70902
478.2167, 44.89954
478.6989, 45.11843
479.1810, 45.26146
479.6631, 45.15124
480.1452, 44.68088
480.6273, 44.51360
481.1094, 44.98297
481.5916, 45.41604
482.0737, 45.50940
482.5558, 45.43055
483.0379, 45.52031
483.5200, 45.96666
484.0021, 46.53718
484.4843, 46.72862
484.9664, 46.41596
485.4485, 46.30594
485.9306, 46.67036
486.4127, 47.17100
486.8948, 47.63188
487.3770, 48.03821
487.8591, 48.37725
488.3412, 48.55952
488.8233, 48.69385
489.3054, 49.00240
489.7875, 49.49614
490.2697, 50.05806
490.7518, 50.67225
491.2339, 51.29132
491.7160, 51.80644
492.1981, 52.13621
492.6802, 52.59187
493.1624, 53.38477
493.6445, 54.35110
494.1266, 55.25994
494.6087, 56.07431
495.0908, 56.83051
495.5729, 57.55804
496.0551, 58.25554
496.5372, 58.96227
497.0193, 59.56282
497.5014, 60.30054
497.9835, 61.28725
498.4656, 62.44604
498.9478, 63.64318
499.4299, 64.84166
499.9120, 66.16161
500.3941, 67.78870
500.8762, 69.82403
501.3583, 71.81042
501.8405, 73.82676
502.3226, 75.70749
502.8047, 77.53515
503.2868, 79.15695
503.7689, 80.34563
504.2510, 81.03710
504.7331, 81.08584
505.2152, 80.17384
505.6974, 78.22594
506.1795, 75.75834
506.6616, 72.58830
507.1437, 69.18059
507.6258, 65.69010
508.1079, 62.19106
508.5901, 59.15992
509.0722, 56.94529
509.5543, 55.26834
510.0364, 53.73850
510.5185, 52.35470
511.0006, 51.15583
511.4828, 50.19904
511.9649, 49.41439
512.4470, 48.63684
512.9291, 47.80294
513.4113, 47.16601
513.8934, 46.92709
514.3755, 46.83924
514.8576, 46.66438
515.3397, 46.37748
515.8218, 46.04175
516.3040, 45.68201
516.7861, 45.32276
517.2682, 45.14668
517.7503, 45.46788
518.2324, 45.57866
518.7145, 45.14865
519.1967, 44.63991
519.6788, 44.55769
520.1609, 44.94057
520.6430, 45.36238
521.1251, 45.30544
521.6072, 44.79856
522.0894, 44.55544
522.5715, 44.81721
523.0536, 44.97000
523.5357, 45.01964
524.0178, 44.65723
524.4999, 44.82690
524.9821, 44.78335
525.4642, 45.20834
525.9463, 45.39467
526.4284, 45.54629
526.9105, 45.48055
527.3926, 45.02563
527.8748, 44.79849
528.3569, 45.08297
528.8390, 45.25846
529.3211, 45.33081
529.8032, 44.99112
530.2853, 45.18349
530.7675, 45.16265
531.2496, 45.13305
531.7317, 45.40032
532.2138, 45.12056
532.6959, 45.38313
533.1780, 45.34573
533.6602, 45.59863
534.1423, 45.83352
534.6244, 45.94587
535.1065, 46.15679
535.5886, 46.55619
536.0707, 47.10505
536.5529, 47.76202
537.0350, 48.50299
537.5171, 49.27807
537.9992, 49.92370
538.4813, 50.33085
538.9634, 51.18629
539.4456, 53.06839
539.9277, 54.79325
540.4098, 55.61408
540.8919, 55.90551
541.3740, 56.45164
541.8561, 57.62763
542.3383, 59.02851
542.8204, 60.15069
543.3025, 61.02556
543.7846, 61.91875
544.2667, 62.81612
544.7488, 63.90388
545.2310, 65.50497
545.7131, 67.55709
546.1952, 69.56211
546.6773, 71.39531
547.1594, 73.19277
547.6415, 74.86459
548.1237, 76.57642
548.6058, 78.77351
549.0879, 81.62980
549.5700, 84.92545
550.0521, 88.31725
550.5342, 91.81276
551.0164, 95.34684
551.4985, 98.77093
551.9806, 102.3489
552.4627, 106.3579
552.9448, 110.6017
553.4269, 114.8308
553.9091, 118.9526
554.3912, 122.7403
554.8733, 125.8988
555.3554, 128.5014
555.8375, 130.0571
556.3196, 130.5856
556.8018, 129.8436
557.2839, 127.6686
557.7660, 124.2374
558.2481, 120.0132
558.7302, 114.8253
559.2123, 109.3297
559.6945, 104.1278
560.1766, 99.19849
560.6587, 94.43923
561.1408, 89.75157
561.6229, 85.43230
562.1050, 81.80341
562.5872, 78.94693
563.0693, 76.64297
563.5514, 75.03410
564.0335, 73.84388
564.5156, 72.94599
564.9977, 72.37194
565.4799, 72.23344
565.9620, 72.57160
566.4441, 73.22427
566.9262, 73.91788
567.4083, 74.58120
567.8904, 75.57527
568.3726, 77.10901
568.8547, 78.77865
569.3368, 80.51529
569.8189, 82.28220
570.3010, 83.99800
570.7831, 85.62965
571.2653, 87.30753
571.7474, 89.17920
572.2295, 91.23656
572.7116, 93.50852
573.1937, 96.04967
573.6758, 98.65544
574.1580, 101.2084
574.6401, 103.6896
575.1222, 106.0309
575.6043, 108.2306
576.0864, 110.2836
576.5685, 112.1879
577.0507, 113.9253
577.5328, 115.3939
578.0149, 116.5867
578.4970, 117.7565
578.9791, 119.1816
579.4612, 120.8739
579.9434, 122.5288
580.4255, 123.7909
580.9076, 125.4457
581.3897, 127.8900
581.8718, 130.6870
582.3539, 133.4750
582.8361, 136.1342
583.3182, 138.4857
583.8003, 140.6452
584.2824, 142.4698
584.7645, 142.9432
585.2466, 142.1168
585.7288, 139.7606
586.2108, 135.3571
586.6929, 129.4580
587.1750, 122.7860
587.6572, 115.2380
588.1393, 107.5753
588.6214, 99.82218
589.1035, 92.30947
