##NAMES=Vuagnatite
##RRUFFID=R050397
##IDEAL CHEMISTRY=CaAlSiO_4_(OH)
##LOCALITY=Red Mountain, Mendocino County, California, USA
##OWNER=RRUFF
##SOURCE=Marcus Origlieri
##DESCRIPTION=Colorless prismatic crystals
##STATUS=The identification of this mineral has been confirmed by X-ray diffraction and chemical analysis
##URL=rruff.info/R050397
##MEASURED CHEMISTRY=Ca_1.00_Al_1.00_(Si_1.00_O_4_)(OH)
91.87140, 0.0000000E+00
92.35352, 5.449059
92.83563, 5.350699
93.31775, 5.308945
93.79987, 5.346837
94.28198, 5.444403
94.76410, 5.540991
95.24622, 5.613062
95.72833, 5.689476
96.21045, 5.829420
96.69257, 6.034675
97.17468, 6.282113
97.65680, 6.548238
98.13892, 6.834294
98.62103, 7.155355
99.10315, 7.502931
99.58527, 7.883430
100.0674, 8.328203
100.5495, 8.838208
101.0316, 9.402198
101.5137, 10.00695
101.9958, 10.66833
102.4780, 11.32386
102.9601, 11.89831
103.4422, 12.33549
103.9243, 13.08369
104.4064, 14.27619
104.8885, 15.69836
105.3707, 16.97680
105.8528, 17.94921
106.3349, 18.99079
106.8170, 20.25449
107.2991, 21.94327
107.7813, 23.46570
108.2634, 24.69897
108.7455, 25.75486
109.2276, 26.96190
109.7097, 28.53065
110.1918, 30.10966
110.6740, 31.55569
111.1561, 32.71291
111.6382, 33.90808
112.1203, 35.12583
112.6024, 36.39000
113.0845, 37.77742
113.5667, 39.25243
114.0488, 40.87440
114.5309, 42.70186
115.0130, 44.72583
115.4951, 46.96218
115.9772, 49.39520
116.4594, 52.04773
116.9415, 54.98457
117.4236, 58.36532
117.9057, 62.00210
118.3878, 65.67780
118.8699, 69.53220
119.3521, 73.28507
119.8342, 76.84635
120.3163, 80.21241
120.7984, 83.35017
121.2805, 86.15628
121.7626, 88.72556
122.2448, 91.22005
122.7269, 93.79815
123.2090, 96.29831
123.6911, 98.50288
124.1732, 100.3271
124.6553, 102.1147
125.1375, 104.3307
125.6196, 106.8142
126.1017, 109.0562
126.5838, 110.5260
127.0659, 111.5873
127.5480, 112.8853
128.0302, 114.5213
128.5123, 116.4216
128.9944, 118.4821
129.4765, 120.7088
129.9586, 123.1552
130.4407, 125.8754
130.9229, 128.8523
131.4050, 132.0008
131.8871, 135.1233
132.3692, 138.4865
132.8513, 142.5618
133.3334, 147.1081
133.8156, 151.7716
134.2977, 156.5391
134.7798, 161.9325
135.2619, 168.5570
135.7440, 176.4937
136.2261, 185.6513
136.7083, 197.2296
137.1904, 212.1734
137.6725, 226.7183
138.1546, 238.9576
138.6367, 250.2790
139.1188, 252.3798
139.6010, 240.8843
140.0831, 215.8549
140.5652, 194.5032
141.0473, 176.4841
141.5294, 162.0244
142.0115, 151.9147
142.4937, 146.9188
142.9758, 144.0649
143.4579, 142.6755
143.9400, 142.9627
144.4221, 143.6552
144.9042, 144.8214
145.3864, 146.3365
145.8685, 147.9759
146.3506, 149.8172
146.8327, 151.6878
147.3148, 153.5620
147.7969, 155.4608
148.2791, 157.2859
148.7612, 158.9402
149.2433, 160.5238
149.7254, 162.3004
150.2075, 164.3125
150.6896, 166.4705
151.1718, 168.7292
151.6539, 171.1450
152.1360, 173.5860
152.6181, 176.0287
153.1002, 178.4933
153.5823, 181.0276
154.0645, 183.8928
154.5466, 186.6693
155.0287, 189.1470
155.5108, 190.8121
155.9929, 192.8142
156.4750, 195.0427
156.9572, 197.6375
157.4393, 201.1602
157.9214, 206.1598
158.4035, 211.8862
158.8856, 217.8813
159.3677, 223.8654
159.8499, 230.3105
160.3320, 237.0858
160.8141, 244.2617
161.2962, 252.4048
161.7783, 261.6425
162.2604, 271.8983
162.7426, 283.1085
163.2247, 297.0995
163.7068, 310.4323
164.1889, 323.1134
164.6710, 334.7449
165.1531, 341.4809
165.6353, 341.0984
166.1174, 334.9646
166.5995, 324.5473
167.0816, 307.6081
167.5637, 288.6198
168.0458, 269.2931
168.5280, 249.8617
169.0101, 232.4044
169.4922, 218.5665
169.9743, 207.6248
170.4564, 198.6813
170.9385, 192.0129
171.4207, 186.7875
171.9028, 182.2421
172.3849, 178.3584
172.8670, 175.5016
173.3491, 174.0490
173.8312, 173.7907
174.3134, 174.3318
174.7955, 175.6498
175.2776, 177.5908
175.7597, 179.9596
176.2418, 182.7615
176.7239, 186.0565
177.2061, 190.8647
177.6882, 196.4394
178.1703, 200.6656
178.6524, 203.0537
179.1345, 203.3686
179.6166, 200.6585
180.0988, 194.4885
180.5809, 187.2352
181.0630, 181.0401
181.5451, 175.8497
182.0272, 171.7214
182.5093, 169.0783
182.9915, 167.4486
183.4736, 165.8218
183.9557, 164.1559
184.4378, 162.3287
184.9199, 160.0961
185.4020, 157.5232
185.8842, 154.7734
186.3663, 151.7261
186.8484, 148.5394
187.3305, 145.9232
187.8126, 143.9422
188.2947, 142.4354
188.7769, 141.1553
189.2590, 140.1039
189.7411, 139.3320
190.2232, 138.8701
190.7053, 138.7133
191.1874, 138.8579
191.6696, 139.3765
192.1517, 140.0613
192.6338, 140.6033
193.1159, 141.0075
193.5980, 141.1660
194.0801, 140.7936
194.5623, 139.9560
195.0444, 139.6018
195.5265, 139.8491
196.0086, 140.5723
196.4907, 141.4845
196.9728, 142.5618
197.4550, 144.0106
197.9371, 146.3197
198.4192, 149.5178
198.9013, 151.7201
199.3834, 152.6332
199.8655, 152.5988
200.3477, 152.3720
200.8298, 151.9358
201.3119, 151.3814
201.7940, 150.6237
202.2761, 149.6041
202.7582, 149.0808
203.2404, 149.2191
203.7225, 149.8213
204.2046, 150.3261
204.6867, 150.6787
205.1688, 151.1284
205.6509, 151.8220
206.1331, 152.7761
206.6152, 153.9081
207.0973, 155.2864
207.5794, 156.8003
208.0615, 157.9885
208.5436, 158.6149
209.0258, 159.5433
209.5079, 161.4029
209.9900, 164.3905
210.4721, 167.3194
210.9542, 170.0418
211.4363, 172.6573
211.9185, 175.4248
212.4006, 178.1922
212.8827, 181.4680
213.3648, 185.4355
213.8469, 190.0840
214.3290, 195.5683
214.8112, 201.9068
215.2933, 209.0633
215.7754, 217.3195
216.2575, 227.1876
216.7396, 237.2207
217.2217, 247.0216
217.7039, 257.6722
218.1860, 264.9208
218.6681, 269.0949
219.1502, 269.5683
219.6323, 263.1677
220.1144, 247.4736
220.5966, 229.1660
221.0787, 211.6846
221.5608, 194.5181
222.0429, 179.6418
222.5250, 167.2678
223.0071, 157.2845
223.4893, 149.9275
223.9714, 145.9187
224.4535, 143.2847
224.9356, 140.9745
225.4177, 138.9447
225.8998, 137.4095
226.3820, 136.5336
226.8641, 136.1356
227.3462, 135.6366
227.8283, 135.0464
228.3104, 134.3404
228.7925, 133.4733
229.2747, 132.2454
229.7568, 131.2779
230.2389, 130.5978
230.7210, 130.1801
231.2031, 130.0017
231.6852, 130.2243
232.1674, 130.4454
232.6495, 130.4395
233.1316, 130.0130
233.6137, 129.7986
234.0958, 129.8736
234.5779, 130.1586
235.0601, 130.4507
235.5422, 130.8347
236.0243, 131.1091
236.5064, 131.1327
236.9885, 130.6183
237.4706, 130.5086
237.9528, 130.9663
238.4349, 131.7871
238.9170, 132.4721
239.3991, 133.0144
239.8812, 133.4309
240.3633, 133.7173
240.8455, 133.8306
241.3276, 133.8956
241.8097, 133.7614
242.2918, 133.6342
242.7739, 134.0118
243.2560, 135.1986
243.7382, 136.4192
244.2203, 137.3518
244.7024, 137.8182
245.1845, 138.5189
245.6666, 139.6063
246.1487, 140.8538
246.6309, 141.8332
247.1130, 142.4035
247.5951, 142.9427
248.0772, 143.6453
248.5593, 144.6981
249.0414, 145.2160
249.5236, 144.9678
250.0057, 144.3284
250.4878, 143.8539
250.9699, 143.3880
251.4520, 143.3749
251.9341, 144.0826
252.4163, 145.7355
252.8984, 147.0121
253.3805, 147.8610
253.8626, 148.3759
254.3447, 148.6502
254.8268, 148.5870
255.3090, 148.4892
255.7911, 148.4341
256.2732, 148.4234
256.7553, 148.4224
257.2374, 148.3569
257.7195, 148.3758
258.2017, 148.6385
258.6838, 149.1107
259.1659, 149.9210
259.6480, 151.2009
260.1301, 152.9622
260.6122, 154.5653
261.0944, 155.9504
261.5765, 157.2599
262.0586, 158.5957
262.5407, 159.8370
263.0228, 161.4331
263.5049, 163.5042
263.9871, 166.0555
264.4692, 168.6303
264.9513, 170.9842
265.4334, 173.7862
265.9155, 177.7527
266.3976, 182.9674
266.8798, 188.8357
267.3619, 195.2961
267.8440, 202.3498
268.3261, 209.6693
268.8082, 217.5017
269.2903, 225.0515
269.7725, 232.6054
270.2546, 241.2837
270.7367, 244.2736
271.2188, 239.5797
271.7009, 228.6590
272.1830, 216.6956
272.6652, 202.9533
273.1473, 190.4328
273.6294, 181.1821
274.1115, 175.5554
274.5936, 171.3242
275.0757, 168.3686
275.5579, 166.5399
276.0400, 165.5908
276.5221, 165.6001
277.0042, 166.1632
277.4863, 167.1338
277.9684, 168.5336
278.4506, 170.0135
278.9327, 171.5133
279.4148, 173.1277
279.8969, 175.2734
280.3790, 178.0905
280.8611, 180.4650
281.3433, 181.8112
281.8254, 182.1357
282.3075, 181.8305
282.7896, 180.7487
283.2717, 179.4030
283.7538, 178.7276
284.2360, 178.7566
284.7181, 178.5930
285.2002, 177.9316
285.6823, 176.7686
286.1644, 174.9626
286.6465, 172.4480
287.1287, 169.5915
287.6108, 166.7153
288.0929, 163.8346
288.5750, 161.2560
289.0571, 159.0885
289.5392, 157.3051
290.0214, 155.8524
290.5035, 154.7378
290.9856, 153.9212
291.4677, 153.3468
291.9498, 153.0283
292.4319, 153.0718
292.9141, 153.6047
293.3962, 154.4660
293.8783, 155.2536
294.3604, 155.9627
294.8425, 156.8101
295.3246, 157.9440
295.8068, 159.3743
296.2889, 161.1335
296.7710, 163.3588
297.2531, 165.7931
297.7352, 168.0396
298.2173, 170.0926
298.6995, 171.9893
299.1816, 174.3217
299.6637, 176.4578
300.1458, 176.8215
300.6279, 174.7266
301.1100, 171.6791
301.5922, 169.2352
302.0743, 167.3723
302.5564, 166.0101
303.0385, 164.9213
303.5206, 164.3472
304.0027, 164.6708
304.4849, 166.0002
304.9670, 167.9698
305.4491, 170.2942
305.9312, 172.9840
306.4133, 176.0664
306.8954, 179.8704
307.3776, 183.9133
307.8597, 187.8399
308.3418, 191.7109
308.8239, 194.9085
309.3060, 196.6734
309.7881, 197.5420
310.2703, 198.3055
310.7524, 199.1630
311.2345, 200.1421
311.7166, 201.3427
312.1987, 202.7520
312.6808, 204.0450
313.1630, 204.5369
313.6451, 205.0133
314.1272, 206.3295
314.6093, 209.4057
315.0914, 212.7555
315.5735, 215.4187
316.0557, 217.5972
316.5378, 220.3716
317.0199, 224.2977
317.5020, 228.9198
317.9841, 233.9320
318.4662, 238.7665
318.9484, 244.5927
319.4305, 251.7611
319.9126, 260.2036
320.3947, 269.7416
320.8768, 280.2756
321.3589, 291.9279
321.8411, 304.9103
322.3232, 319.4481
322.8053, 334.4853
323.2874, 350.8051
323.7695, 367.3183
324.2516, 382.3004
324.7338, 398.2664
325.2159, 410.1085
325.6980, 417.1308
326.1801, 420.1623
326.6622, 414.3458
327.1443, 394.7197
327.6265, 368.1481
328.1086, 341.3631
328.5907, 311.8577
329.0728, 285.4483
329.5549, 262.9456
330.0370, 244.2864
330.5192, 229.0329
331.0013, 218.0364
331.4834, 209.5954
331.9655, 202.4852
332.4476, 196.7675
332.9297, 192.2753
333.4119, 189.1900
333.8940, 187.3511
334.3761, 186.1597
334.8582, 185.6923
335.3403, 185.7770
335.8224, 186.2820
336.3046, 187.0540
336.7867, 188.7504
337.2688, 191.5652
337.7509, 195.1755
338.2330, 199.0609
338.7151, 203.2434
339.1973, 207.5593
339.6794, 212.1761
340.1615, 217.1069
340.6436, 221.3231
341.1257, 224.8775
341.6078, 227.5315
342.0900, 228.8879
342.5721, 228.8950
343.0542, 228.0502
343.5363, 226.2100
344.0184, 223.6656
344.5005, 221.5103
344.9827, 219.7370
345.4648, 218.5390
345.9469, 218.0748
346.4290, 218.3441
346.9111, 219.3784
347.3932, 221.2187
347.8754, 223.7646
348.3575, 226.9017
348.8396, 230.5880
349.3217, 234.5854
349.8038, 238.3565
350.2859, 242.2986
350.7681, 247.3596
351.2502, 253.6500
351.7323, 261.0520
352.2144, 269.3102
352.6965, 278.5816
353.1786, 289.1049
353.6608, 301.3453
354.1429, 314.7598
354.6250, 328.9288
355.1071, 343.8565
355.5892, 358.8368
356.0714, 374.8993
356.5535, 390.3428
357.0356, 402.7208
357.5177, 414.9820
357.9998, 420.6872
358.4819, 413.9636
358.9641, 395.8702
359.4462, 372.1624
359.9283, 340.2259
360.4104, 306.9721
360.8925, 278.0314
361.3746, 254.7366
361.8568, 235.7648
362.3389, 221.3630
362.8210, 210.9772
363.3031, 202.9902
363.7852, 197.7949
364.2673, 194.1814
364.7495, 191.7442
365.2316, 190.6191
365.7137, 189.9960
366.1958, 189.6796
366.6779, 189.8043
367.1600, 190.5259
367.6422, 192.0177
368.1243, 193.9463
368.6064, 196.2462
369.0885, 198.9306
369.5706, 202.0390
370.0527, 205.9068
370.5349, 209.9574
371.0170, 213.8471
371.4991, 217.1994
371.9812, 220.9724
372.4633, 225.3647
372.9454, 230.2380
373.4276, 234.9909
373.9097, 239.5537
374.3918, 244.2150
374.8739, 248.9225
375.3560, 253.5853
375.8381, 258.9496
376.3203, 265.0535
376.8024, 271.7239
377.2845, 278.6901
377.7666, 285.8683
378.2487, 293.4927
378.7308, 301.3941
379.2130, 309.7262
379.6951, 318.8628
380.1772, 328.9315
380.6593, 339.5296
381.1414, 350.1766
381.6235, 360.9087
382.1057, 373.0723
382.5878, 387.0382
383.0699, 402.2972
383.5520, 418.0450
384.0341, 434.3848
384.5162, 450.8780
384.9984, 468.2867
385.4805, 485.6718
385.9626, 501.8859
386.4447, 517.2713
386.9268, 529.0222
387.4089, 534.6057
387.8911, 534.4124
388.3732, 529.1699
388.8553, 516.7841
389.3374, 501.0357
389.8195, 484.5977
390.3016, 467.8490
390.7838, 452.2523
391.2659, 438.3329
391.7480, 426.4249
392.2301, 416.9223
392.7122, 410.4455
393.1943, 405.6909
393.6765, 402.6878
394.1586, 401.0563
394.6407, 399.7594
395.1228, 398.6162
395.6049, 397.5680
396.0870, 396.7701
396.5692, 396.6235
397.0513, 395.4748
397.5334, 392.1735
398.0155, 387.9569
398.4976, 384.4185
398.9797, 382.4083
399.4619, 380.3101
399.9440, 378.0453
400.4261, 375.6086
400.9082, 372.2140
401.3903, 367.8275
401.8724, 362.5049
402.3546, 356.3128
402.8367, 349.6349
403.3188, 341.3699
403.8009, 331.2809
404.2830, 319.6503
404.7651, 306.9725
405.2473, 293.0851
405.7294, 278.9589
406.2115, 264.5753
406.6936, 249.9997
407.1757, 237.1927
407.6578, 226.2133
408.1400, 216.7741
408.6221, 208.4631
409.1042, 201.2784
409.5863, 195.1917
410.0684, 190.2778
410.5505, 186.4065
411.0327, 183.1144
411.5148, 180.3870
411.9969, 178.1402
412.4790, 176.3990
412.9611, 175.0569
413.4432, 173.8278
413.9254, 172.5968
414.4075, 171.7286
414.8896, 171.8225
415.3717, 172.5874
415.8538, 173.3425
416.3359, 173.5884
416.8181, 173.7869
417.3002, 174.3524
417.7823, 175.2953
418.2644, 176.3830
418.7465, 177.6305
419.2286, 178.9084
419.7108, 180.0537
420.1929, 180.7372
420.6750, 181.6879
421.1571, 183.2833
421.6392, 185.3687
422.1213, 187.5055
422.6035, 189.5733
423.0856, 191.6639
423.5677, 193.7617
424.0498, 195.7281
424.5319, 198.1585
425.0140, 201.4648
425.4962, 205.1107
425.9783, 208.5453
426.4604, 211.3255
426.9425, 214.5564
427.4246, 218.4742
427.9067, 223.0271
428.3889, 227.5468
428.8710, 231.8106
429.3531, 236.4154
429.8352, 241.8959
430.3173, 248.3976
430.7994, 254.7009
431.2816, 260.8488
431.7637, 266.6473
432.2458, 271.9916
432.7279, 276.9521
433.2100, 280.2338
433.6921, 281.4205
434.1743, 280.5599
434.6564, 277.5824
435.1385, 272.4226
435.6206, 266.1577
436.1027, 259.0432
436.5848, 251.5169
437.0670, 244.7738
437.5491, 239.0569
438.0312, 234.1139
438.5133, 229.9058
438.9954, 226.2174
439.4775, 222.4456
439.9597, 218.2695
440.4418, 213.8840
440.9239, 209.3262
441.4060, 204.5998
441.8881, 200.1529
442.3702, 196.2944
442.8524, 192.8684
443.3345, 189.7017
443.8166, 187.0072
444.2987, 184.2621
444.7808, 181.1693
445.2629, 177.8823
445.7451, 174.8301
446.2272, 172.0454
446.7093, 169.6287
447.1914, 167.6851
447.6735, 166.3517
448.1556, 165.0322
448.6378, 163.6662
449.1199, 162.3664
449.6020, 161.2455
450.0841, 160.3546
450.5662, 159.5822
451.0483, 158.9067
451.5305, 158.3375
452.0126, 157.9521
452.4947, 157.7924
452.9768, 157.6770
453.4589, 157.5060
453.9410, 157.2758
454.4232, 157.0057
454.9053, 156.6459
455.3874, 156.3933
455.8695, 156.6392
456.3516, 157.2987
456.8337, 157.7323
457.3159, 157.6334
457.7980, 157.2771
458.2801, 157.1411
458.7622, 157.2057
459.2443, 157.3312
459.7264, 157.2328
460.2086, 157.2144
460.6907, 157.7696
461.1728, 159.0756
461.6549, 160.4487
462.1370, 161.4726
462.6191, 162.2207
463.1013, 162.7722
463.5834, 162.8979
464.0655, 163.0770
464.5476, 163.6829
465.0297, 164.6307
465.5118, 165.2162
465.9940, 165.0356
466.4761, 164.5822
466.9582, 164.0945
467.4403, 163.4009
467.9224, 163.0190
468.4045, 163.3399
468.8867, 163.8133
469.3688, 163.5860
469.8509, 162.1065
470.3330, 160.9411
470.8151, 160.5000
471.2972, 160.7180
471.7794, 160.9770
472.2615, 161.3791
472.7436, 161.5547
473.2257, 161.0711
473.7078, 159.9094
474.1899, 159.2422
474.6721, 159.2402
475.1542, 159.5092
475.6363, 159.4172
476.1184, 159.0359
476.6005, 158.8333
477.0826, 159.0938
477.5648, 159.5865
478.0469, 159.8331
478.5290, 159.8829
479.0111, 160.1861
479.4932, 161.3735
479.9753, 162.8578
480.4575, 163.9088
480.9396, 164.2909
481.4217, 164.5907
481.9038, 165.0146
482.3859, 165.6107
482.8680, 166.4484
483.3502, 167.5982
483.8323, 168.9447
484.3144, 170.4364
484.7965, 172.0655
485.2786, 173.9350
485.7607, 176.0461
486.2429, 178.3909
486.7250, 180.9933
487.2071, 183.9890
487.6892, 186.8858
488.1713, 189.6553
488.6534, 192.3444
489.1356, 195.0301
489.6177, 197.6643
490.0998, 200.5121
490.5819, 203.7466
491.0640, 207.2913
491.5461, 210.6437
492.0283, 213.8049
492.5104, 216.9312
492.9925, 219.9772
493.4746, 223.0526
493.9567, 226.4999
494.4388, 230.4235
494.9210, 234.5440
495.4031, 238.4430
495.8852, 242.3039
496.3673, 246.7014
496.8494, 251.7566
497.3315, 257.4707
497.8137, 263.8272
498.2958, 270.8667
498.7779, 278.4983
499.2600, 287.2292
499.7421, 296.2520
500.2242, 305.1073
500.7064, 313.9067
501.1885, 322.1829
501.6706, 330.5244
502.1527, 337.9198
502.6348, 343.1891
503.1169, 347.3951
503.5991, 347.9886
504.0812, 344.7549
504.5633, 337.8033
505.0454, 326.8896
505.5275, 310.3808
506.0096, 293.0009
506.4918, 276.2780
506.9739, 259.9582
507.4560, 245.6694
507.9381, 233.5153
508.4202, 223.0996
508.9023, 214.1091
509.3845, 206.5335
509.8666, 200.2765
510.3487, 195.4349
510.8308, 191.6903
511.3129, 188.7991
511.7950, 186.6392
512.2772, 184.6381
512.7593, 182.2846
513.2414, 180.0403
513.7235, 178.5184
514.2056, 177.7063
514.6877, 177.0652
515.1699, 176.1902
515.6520, 175.3577
516.1341, 174.8540
516.6162, 174.9223
517.0983, 174.9611
517.5804, 174.6083
518.0626, 174.1288
518.5447, 173.9583
519.0268, 174.5496
519.5089, 175.0409
519.9910, 175.0865
520.4731, 174.7417
520.9553, 174.9521
521.4374, 176.1002
521.9195, 177.2304
522.4016, 177.7554
522.8837, 177.5250
523.3658, 177.4615
523.8480, 177.5816
524.3301, 177.8575
524.8122, 178.3334
525.2943, 178.9899
525.7764, 179.4792
526.2585, 179.5849
526.7407, 179.6150
527.2228, 180.3365
527.7049, 181.6079
528.1870, 182.5798
528.6691, 182.4595
529.1512, 181.9125
529.6334, 181.5930
530.1155, 181.5365
530.5976, 181.9427
531.0797, 183.0326
531.5618, 184.5959
532.0439, 186.4233
532.5261, 188.6647
533.0082, 190.8976
533.4903, 192.7368
533.9724, 194.5297
534.4545, 197.0767
534.9366, 200.9164
535.4188, 204.9484
535.9009, 208.7293
536.3830, 212.2880
536.8651, 216.9274
537.3472, 222.8587
537.8293, 229.4342
538.3115, 236.2040
538.7936, 243.1307
539.2757, 250.4483
539.7578, 258.1636
540.2399, 266.1421
540.7220, 274.4536
541.2042, 282.9483
541.6863, 291.3174
542.1684, 299.3752
542.6505, 307.4843
543.1326, 316.1250
543.6147, 325.2465
544.0969, 334.9229
544.5790, 345.0126
545.0611, 355.5653
545.5432, 366.4690
546.0253, 377.6421
546.5074, 389.7379
546.9896, 402.4995
547.4717, 416.4893
547.9538, 432.1651
548.4359, 449.9565
548.9180, 468.9985
549.4001, 489.3716
549.8823, 511.0036
550.3644, 533.8782
550.8465, 559.0681
551.3286, 584.0110
551.8107, 608.4523
552.2928, 632.3126
552.7750, 654.5186
553.2571, 675.4973
553.7392, 693.3846
554.2213, 708.1064
554.7034, 718.9875
555.1855, 723.1522
555.6677, 720.5742
556.1498, 710.3734
556.6319, 689.8930
557.1140, 661.3862
557.5961, 629.1426
558.0782, 592.7240
558.5604, 555.6297
559.0425, 519.6934
559.5246, 485.4630
560.0067, 454.4062
560.4888, 427.0721
560.9709, 403.4073
561.4531, 384.2822
561.9352, 369.5781
562.4173, 356.6086
562.8994, 345.0078
563.3815, 335.1224
563.8636, 327.0598
564.3458, 321.0724
564.8279, 316.3822
565.3100, 312.9062
565.7921, 310.7685
566.2742, 310.2129
566.7563, 311.2747
567.2385, 313.5625
567.7206, 317.1625
568.2027, 321.7279
568.6848, 326.4370
569.1669, 331.3501
569.6490, 336.4514
570.1312, 341.6252
570.6133, 347.1055
571.0954, 353.3803
571.5775, 360.4743
572.0596, 367.3775
572.5417, 373.8011
573.0239, 379.6464
573.5060, 384.7741
573.9881, 389.3083
574.4702, 392.8673
574.9523, 395.8197
575.4344, 397.6049
575.9166, 397.4910
576.3987, 394.8920
576.8808, 391.1248
577.3629, 385.8235
577.8450, 379.4799
578.3271, 373.5416
578.8093, 367.9223
579.2914, 362.9925
579.7735, 358.9781
580.2556, 355.8678
580.7377, 353.3027
581.2198, 351.3177
581.7020, 349.5929
582.1841, 348.2588
582.6662, 346.9523
583.1483, 344.9126
583.6304, 342.1560
584.1125, 338.1518
584.5947, 332.8658
585.0768, 325.9313
585.5589, 316.7784
586.0410, 303.7634
586.5231, 290.1544
587.0052, 276.9717
587.4874, 264.2385
587.9695, 252.2527
588.4516, 240.2431
