##NAMES=Vuonnemite
##RRUFFID=R070690
##IDEAL CHEMISTRY=Na_6_Na_2_Nb^5+^_2_Na_3_Ti^4+^(Si_2_O_7_)_2_(PO_4_)_2_O_2_(OF)
##LOCALITY=Yubileinaya (Yubileinoye; Jubilejnaja) pegmatite,  Karnasurt Mt, Lovozero Massif, Kola Peninsula,  Murmanskaja Oblast', Northern Region, Russia
##OWNER=RRUFF
##SOURCE=Michael Scott
##DESCRIPTION=Cream colored platy massive associated with pinkish ussingite, light yellow-green sphalerite, and brown elongated tabular serandite
##STATUS=The identification of this mineral has been confirmed only by single crystal X-ray diffraction.
##URL=rruff.info/R070690
171.6417, 10079.95
172.1238, 10111.05
172.6059, 10137.69
173.0880, 10155.53
173.5701, 10177.93
174.0522, 10208.44
174.5344, 10247.14
175.0165, 10295.94
175.4986, 10361.85
175.9807, 10435.00
176.4628, 10486.94
176.9449, 10505.86
177.4271, 10524.59
177.9092, 10556.07
178.3913, 10594.93
178.8734, 10633.41
179.3555, 10666.79
179.8376, 10698.74
180.3197, 10742.43
180.8019, 10809.06
181.2840, 10867.22
181.7661, 10904.01
182.2482, 10929.18
182.7303, 10954.68
183.2124, 10986.96
183.6946, 11022.23
184.1767, 11048.51
184.6588, 11057.88
185.1409, 11071.86
185.6230, 11098.85
186.1051, 11131.72
186.5873, 11162.00
187.0694, 11185.27
187.5515, 11205.08
188.0336, 11232.50
188.5157, 11275.35
188.9978, 11311.76
189.4800, 11330.45
189.9621, 11343.84
190.4442, 11366.72
190.9263, 11406.23
191.4084, 11453.69
191.8905, 11486.78
192.3727, 11493.90
192.8548, 11507.31
193.3369, 11533.51
193.8190, 11567.00
194.3011, 11605.12
194.7832, 11646.99
195.2654, 11687.54
195.7475, 11713.46
196.2296, 11710.54
196.7117, 11720.33
197.1938, 11755.09
197.6759, 11798.78
198.1581, 11838.76
198.6402, 11870.70
199.1223, 11896.29
199.6044, 11918.76
200.0865, 11939.36
200.5686, 11953.63
201.0508, 11958.32
201.5329, 11959.67
202.0150, 11958.98
202.4971, 11957.65
202.9792, 11961.90
203.4613, 11983.63
203.9435, 12033.26
204.4256, 12077.15
204.9077, 12118.63
205.3898, 12151.79
205.8719, 12168.58
206.3540, 12169.21
206.8362, 12165.05
207.3183, 12171.63
207.8004, 12192.46
208.2825, 12215.62
208.7646, 12242.88
209.2467, 12270.72
209.7289, 12292.58
210.2110, 12310.17
210.6931, 12335.40
211.1752, 12389.97
211.6573, 12494.74
212.1395, 12549.28
212.6216, 12512.44
213.1037, 12464.19
213.5858, 12434.81
214.0679, 12429.47
214.5500, 12443.51
215.0322, 12476.20
215.5143, 12531.98
215.9964, 12576.08
216.4785, 12595.58
216.9606, 12615.74
217.4427, 12646.82
217.9249, 12687.23
218.4070, 12729.94
218.8891, 12769.31
219.3712, 12805.25
219.8533, 12840.85
220.3354, 12882.02
220.8176, 12916.86
221.2997, 12934.12
221.7818, 12942.49
222.2639, 12959.91
222.7460, 13000.51
223.2281, 13061.60
223.7103, 13110.44
224.1924, 13134.66
224.6745, 13159.37
225.1566, 13195.84
225.6387, 13235.02
226.1208, 13259.66
226.6030, 13257.12
227.0851, 13238.63
227.5672, 13253.16
228.0493, 13336.22
228.5314, 13405.82
229.0135, 13437.83
229.4957, 13453.43
229.9778, 13480.59
230.4599, 13532.59
230.9420, 13593.34
231.4241, 13619.13
231.9062, 13572.11
232.3884, 13555.90
232.8705, 13603.65
233.3526, 13672.06
233.8347, 13725.68
234.3168, 13752.41
234.7989, 13761.72
235.2811, 13766.86
235.7632, 13760.62
236.2453, 13768.10
236.7274, 13802.59
237.2095, 13841.95
237.6916, 13871.85
238.1738, 13889.49
238.6559, 13901.57
239.1380, 13916.85
239.6201, 13937.41
240.1022, 13953.35
240.5843, 13956.40
241.0665, 13961.24
241.5486, 13975.37
242.0307, 13998.75
242.5128, 14026.49
242.9949, 14056.12
243.4770, 14088.47
243.9592, 14112.69
244.4413, 14117.50
244.9234, 14124.77
245.4055, 14148.67
245.8876, 14182.54
246.3697, 14208.23
246.8519, 14210.06
247.3340, 14191.20
247.8161, 14179.78
248.2982, 14176.09
248.7803, 14180.61
249.2624, 14194.29
249.7446, 14215.17
250.2267, 14240.24
250.7088, 14268.37
251.1909, 14299.35
251.6730, 14333.65
252.1551, 14374.93
252.6373, 14412.12
253.1194, 14431.36
253.6015, 14449.13
254.0836, 14486.60
254.5657, 14554.46
255.0478, 14632.74
255.5300, 14688.71
256.0121, 14716.57
256.4942, 14743.47
256.9763, 14771.39
257.4584, 14804.59
257.9406, 14848.44
258.4227, 14904.29
258.9048, 14965.05
259.3869, 15024.04
259.8690, 15081.25
260.3511, 15139.35
260.8333, 15198.78
261.3154, 15260.11
261.7975, 15332.52
262.2796, 15413.67
262.7617, 15476.21
263.2438, 15484.39
263.7260, 15450.58
264.2081, 15449.59
264.6902, 15503.47
265.1723, 15569.79
265.6544, 15615.44
266.1365, 15646.55
266.6187, 15682.91
267.1008, 15748.27
267.5829, 15822.63
268.0650, 15859.63
268.5471, 15849.88
269.0292, 15829.93
269.5114, 15817.90
269.9935, 15813.30
270.4756, 15816.69
270.9577, 15821.17
271.4398, 15839.45
271.9219, 15901.15
272.4041, 16008.34
272.8862, 16089.28
273.3683, 16093.87
273.8504, 16054.99
274.3325, 16038.27
274.8146, 16051.05
275.2968, 16078.16
275.7789, 16112.73
276.2610, 16153.95
276.7431, 16200.21
277.2252, 16254.28
277.7073, 16308.63
278.1895, 16349.66
278.6716, 16375.05
279.1537, 16401.29
279.6358, 16430.70
280.1179, 16465.57
280.6000, 16512.34
281.0822, 16574.10
281.5643, 16638.42
282.0464, 16690.64
282.5285, 16729.61
283.0106, 16767.74
283.4927, 16811.49
283.9749, 16851.66
284.4570, 16879.17
284.9391, 16893.70
285.4212, 16901.91
285.9033, 16907.79
286.3854, 16911.48
286.8676, 16918.30
287.3497, 16926.31
287.8318, 16938.95
288.3139, 16964.33
288.7960, 16996.42
289.2781, 17018.18
289.7603, 17018.85
290.2424, 17004.32
290.7245, 16999.42
291.2066, 17017.63
291.6887, 17028.17
292.1708, 17025.38
292.6530, 17012.77
293.1351, 16992.13
293.6172, 16964.36
294.0993, 16935.09
294.5814, 16914.34
295.0635, 16904.31
295.5457, 16899.87
296.0278, 16904.73
296.5099, 16912.06
296.9920, 16917.63
297.4741, 16920.69
297.9562, 16922.18
298.4384, 16922.56
298.9205, 16921.11
299.4026, 16923.81
299.8847, 16930.45
300.3668, 16941.31
300.8489, 16959.26
301.3311, 16981.60
301.8131, 17001.50
302.2953, 17012.71
302.7774, 17019.74
303.2595, 17047.51
303.7416, 17118.17
304.2237, 17177.00
304.7058, 17208.54
305.1880, 17225.70
305.6701, 17242.53
306.1522, 17264.29
306.6343, 17285.68
307.1164, 17295.67
307.5985, 17289.25
308.0807, 17290.03
308.5628, 17310.03
309.0449, 17333.15
309.5270, 17348.45
310.0091, 17355.62
310.4912, 17364.23
310.9734, 17384.20
311.4555, 17414.37
311.9376, 17443.76
312.4197, 17481.56
312.9018, 17502.55
313.3839, 17482.06
313.8661, 17433.82
314.3482, 17393.63
314.8303, 17378.24
315.3124, 17380.45
315.7945, 17389.83
316.2766, 17407.32
316.7588, 17426.77
317.2409, 17449.58
317.7230, 17470.36
318.2051, 17479.69
318.6872, 17472.86
319.1693, 17460.67
319.6515, 17438.77
320.1336, 17414.34
320.6157, 17424.85
321.0978, 17494.94
321.5799, 17586.58
322.0620, 17632.91
322.5442, 17624.75
323.0263, 17636.50
323.5084, 17711.30
323.9905, 17808.41
324.4726, 17870.63
324.9547, 17888.77
325.4369, 17899.78
325.9190, 17941.16
326.4011, 18016.84
326.8832, 18074.04
327.3653, 18085.57
327.8474, 18104.42
328.3296, 18167.29
328.8117, 18263.89
329.2938, 18359.52
329.7759, 18433.94
330.2580, 18492.47
330.7401, 18556.87
331.2223, 18626.60
331.7044, 18703.37
332.1865, 18793.34
332.6686, 18887.99
333.1507, 18977.20
333.6328, 19058.07
334.1150, 19137.35
334.5971, 19227.47
335.0792, 19337.78
335.5613, 19431.99
336.0434, 19493.70
336.5255, 19555.59
337.0077, 19639.26
337.4898, 19739.07
337.9719, 19833.66
338.4540, 19905.38
338.9361, 19956.30
339.4182, 20005.67
339.9004, 20058.22
340.3825, 20100.84
340.8646, 20120.95
341.3467, 20133.49
341.8288, 20159.26
342.3109, 20208.04
342.7931, 20263.41
343.2752, 20302.96
343.7573, 20326.37
344.2394, 20335.73
344.7215, 20322.78
345.2036, 20302.13
345.6858, 20288.61
346.1679, 20282.35
346.6500, 20265.90
347.1321, 20216.17
347.6142, 20148.05
348.0963, 20107.89
348.5785, 20109.34
349.0606, 20110.11
349.5427, 20077.49
350.0248, 20017.45
350.5069, 19944.33
350.9890, 19848.37
351.4712, 19749.50
351.9533, 19661.26
352.4354, 19583.32
352.9175, 19517.34
353.3996, 19471.57
353.8817, 19429.70
354.3639, 19339.69
354.8460, 19163.33
355.3281, 19028.99
355.8102, 19009.17
356.2923, 19026.68
356.7744, 18987.27
357.2566, 18872.02
357.7387, 18728.37
358.2208, 18607.08
358.7029, 18510.36
359.1850, 18425.23
359.6671, 18357.59
360.1493, 18294.11
360.6314, 18233.85
361.1135, 18172.90
361.5956, 18102.89
362.0777, 18017.32
362.5598, 17923.04
363.0420, 17844.77
363.5241, 17791.36
364.0062, 17740.89
364.4883, 17693.51
364.9704, 17645.89
365.4525, 17593.61
365.9347, 17536.59
366.4168, 17480.50
366.8989, 17431.58
367.3810, 17389.53
367.8631, 17353.19
368.3452, 17321.46
368.8274, 17297.40
369.3095, 17286.08
369.7916, 17282.85
370.2737, 17276.95
370.7558, 17263.66
371.2379, 17244.58
371.7201, 17219.15
372.2022, 17185.92
372.6843, 17160.67
373.1664, 17152.44
373.6485, 17155.31
374.1306, 17160.97
374.6128, 17171.46
375.0949, 17176.56
375.5770, 17164.18
376.0591, 17143.77
376.5412, 17137.61
377.0233, 17152.05
377.5055, 17166.46
377.9876, 17157.23
378.4697, 17121.14
378.9518, 17097.40
379.4339, 17099.16
379.9160, 17101.98
380.3982, 17080.34
380.8803, 17046.70
381.3624, 17040.52
381.8445, 17086.01
382.3266, 17163.26
382.8087, 17212.74
383.2909, 17214.28
383.7730, 17211.34
384.2551, 17204.67
384.7372, 17194.19
385.2193, 17174.44
385.7014, 17147.69
386.1836, 17127.76
386.6657, 17130.62
387.1478, 17157.45
387.6299, 17184.78
388.1120, 17223.34
388.5941, 17249.13
389.0763, 17246.61
389.5584, 17228.55
390.0405, 17215.50
390.5226, 17217.26
391.0047, 17224.32
391.4868, 17221.88
391.9690, 17209.28
392.4511, 17192.92
392.9332, 17171.29
393.4153, 17149.33
393.8974, 17133.35
394.3795, 17123.20
394.8617, 17109.96
395.3438, 17089.30
395.8259, 17062.82
396.3080, 17034.02
396.7901, 17003.53
397.2722, 16965.03
397.7544, 16909.66
398.2365, 16842.38
398.7186, 16788.70
399.2007, 16760.80
399.6828, 16733.05
400.1649, 16699.50
400.6471, 16658.78
401.1292, 16602.51
401.6113, 16527.46
402.0934, 16454.25
402.5755, 16414.38
403.0576, 16423.00
403.5398, 16420.37
404.0219, 16403.36
404.5040, 16379.70
404.9861, 16347.26
405.4682, 16311.33
405.9503, 16283.36
406.4325, 16271.27
406.9146, 16270.82
407.3967, 16267.92
407.8788, 16263.92
408.3609, 16254.46
408.8430, 16227.35
409.3252, 16202.24
409.8073, 16194.40
410.2894, 16206.17
410.7715, 16230.18
411.2536, 16269.21
411.7357, 16317.85
412.2179, 16346.85
412.7000, 16352.67
413.1821, 16342.50
413.6642, 16304.39
414.1463, 16254.74
414.6284, 16229.05
415.1106, 16245.33
415.5927, 16273.11
416.0748, 16298.63
416.5569, 16318.55
417.0390, 16321.66
417.5211, 16303.56
418.0033, 16268.88
418.4854, 16220.75
418.9675, 16150.22
419.4496, 16098.56
419.9317, 16094.01
420.4138, 16087.05
420.8960, 16039.88
421.3781, 15959.21
421.8602, 15873.98
422.3423, 15801.74
422.8244, 15740.84
423.3065, 15683.55
423.7887, 15621.18
424.2708, 15577.18
424.7529, 15564.02
425.2350, 15561.43
425.7171, 15556.16
426.1992, 15544.79
426.6814, 15527.28
427.1635, 15497.49
427.6456, 15457.54
428.1277, 15439.48
428.6098, 15458.12
429.0919, 15470.15
429.5741, 15445.79
430.0562, 15402.78
430.5383, 15366.74
431.0204, 15345.00
431.5025, 15328.47
431.9846, 15311.60
432.4668, 15294.00
432.9489, 15274.95
433.4310, 15255.00
433.9131, 15230.46
434.3952, 15190.96
434.8773, 15133.27
435.3595, 15102.80
435.8416, 15133.91
436.3237, 15164.31
436.8058, 15149.54
437.2879, 15102.38
437.7701, 15061.40
438.2522, 15047.01
438.7343, 15046.27
439.2164, 15024.26
439.6985, 14950.88
440.1806, 14911.10
440.6628, 14932.55
441.1449, 14962.08
441.6270, 14961.56
442.1091, 14935.01
442.5912, 14913.89
443.0733, 14926.76
443.5555, 14961.58
444.0376, 14967.38
444.5197, 14930.35
445.0018, 14903.11
445.4839, 14929.28
445.9660, 14962.59
446.4482, 14948.55
446.9303, 14873.56
447.4124, 14807.37
447.8945, 14806.38
448.3766, 14841.74
448.8587, 14851.53
449.3409, 14826.33
449.8230, 14795.12
450.3051, 14783.76
450.7872, 14787.83
451.2693, 14766.25
451.7514, 14687.86
452.2336, 14622.11
452.7157, 14603.68
453.1978, 14607.38
453.6799, 14600.08
454.1620, 14571.65
454.6441, 14529.24
455.1263, 14479.80
455.6084, 14420.34
456.0905, 14371.20
456.5726, 14348.19
457.0547, 14319.94
457.5368, 14275.02
458.0190, 14219.02
458.5011, 14160.18
458.9832, 14100.94
459.4653, 14044.78
459.9474, 13994.94
460.4295, 13951.57
460.9117, 13919.34
461.3938, 13905.61
461.8759, 13894.64
462.3580, 13866.75
462.8401, 13826.68
463.3222, 13800.84
463.8044, 13810.18
464.2865, 13825.76
464.7686, 13818.41
465.2507, 13793.77
465.7328, 13777.62
466.2149, 13782.74
466.6971, 13796.33
467.1792, 13792.65
467.6613, 13756.85
468.1434, 13735.07
468.6255, 13734.21
469.1076, 13741.03
469.5898, 13754.22
470.0719, 13768.27
470.5540, 13769.53
471.0361, 13746.72
471.5182, 13712.58
472.0003, 13706.72
472.4825, 13740.95
472.9646, 13771.36
473.4467, 13796.87
473.9288, 13809.14
474.4109, 13793.49
474.8930, 13753.36
475.3752, 13719.78
475.8573, 13717.79
476.3394, 13730.82
476.8215, 13727.87
477.3036, 13708.10
477.7857, 13694.25
478.2679, 13700.12
478.7500, 13717.08
479.2321, 13723.41
479.7142, 13713.51
480.1963, 13708.63
480.6784, 13715.33
481.1606, 13727.08
481.6427, 13739.17
482.1248, 13750.63
482.6069, 13760.66
483.0890, 13768.13
483.5711, 13774.38
484.0533, 13788.17
484.5354, 13821.90
485.0175, 13842.25
485.4996, 13832.72
485.9817, 13817.95
486.4638, 13818.88
486.9460, 13836.78
487.4281, 13856.63
487.9102, 13861.81
488.3923, 13860.13
488.8744, 13882.98
489.3565, 13937.88
489.8387, 13973.02
490.3208, 13947.40
490.8029, 13892.77
491.2850, 13878.13
491.7671, 13918.84
492.2492, 13954.22
492.7314, 13961.42
493.2135, 13953.86
493.6956, 13942.43
494.1777, 13930.30
494.6598, 13923.64
495.1419, 13928.43
495.6241, 13941.84
496.1062, 13945.15
496.5883, 13927.11
497.0704, 13914.53
497.5525, 13908.62
498.0346, 13909.81
498.5168, 13924.47
498.9989, 13949.60
499.4810, 13967.16
499.9631, 13954.33
500.4452, 13922.32
500.9273, 13916.98
501.4095, 13944.78
501.8916, 13972.49
502.3737, 13990.02
502.8558, 13996.14
503.3379, 13988.94
503.8200, 13965.60
504.3022, 13940.80
504.7843, 13913.51
505.2664, 13891.41
505.7485, 13892.63
506.2306, 13913.13
506.7127, 13917.62
507.1949, 13877.69
507.6770, 13809.74
508.1591, 13786.91
508.6412, 13860.63
509.1233, 13904.70
509.6054, 13894.90
510.0876, 13868.16
510.5697, 13850.79
511.0518, 13843.51
511.5339, 13831.01
512.0161, 13796.22
512.4982, 13752.21
512.9803, 13732.83
513.4624, 13738.62
513.9445, 13771.00
514.4266, 13860.80
514.9088, 13950.90
515.3909, 13960.01
515.8730, 13881.54
516.3551, 13812.94
516.8372, 13796.53
517.3193, 13793.27
517.8015, 13763.70
518.2836, 13712.49
518.7657, 13664.80
519.2478, 13633.01
519.7299, 13617.99
520.2120, 13623.45
520.6942, 13665.00
521.1763, 13697.50
521.6584, 13735.98
522.1405, 13752.84
522.6226, 13717.86
523.1047, 13648.97
523.5869, 13592.13
524.0690, 13573.49
524.5511, 13573.69
525.0332, 13566.03
525.5153, 13550.47
525.9974, 13515.35
526.4796, 13441.72
526.9617, 13374.00
527.4438, 13374.24
527.9259, 13432.82
528.4080, 13467.47
528.8901, 13459.03
529.3723, 13431.24
529.8544, 13382.47
530.3365, 13327.43
530.8186, 13297.78
531.3007, 13303.47
531.7828, 13319.31
532.2650, 13309.11
532.7471, 13267.02
533.2292, 13235.02
533.7113, 13221.81
534.1934, 13208.89
534.6755, 13188.24
535.1577, 13165.48
535.6398, 13152.06
536.1219, 13152.95
536.6040, 13146.19
537.0861, 13102.67
537.5682, 13034.82
538.0504, 12982.70
538.5325, 12951.75
539.0146, 12932.96
539.4967, 12924.65
539.9788, 12923.38
540.4609, 12912.24
540.9431, 12877.87
541.4252, 12852.89
541.9073, 12851.66
542.3894, 12857.72
542.8715, 12860.23
543.3536, 12854.91
543.8358, 12834.58
544.3179, 12789.75
544.8000, 12728.97
545.2821, 12691.38
545.7642, 12685.11
546.2463, 12679.77
546.7285, 12662.72
547.2106, 12647.96
547.6927, 12650.79
548.1748, 12669.50
548.6569, 12681.06
549.1390, 12678.81
549.6211, 12661.96
550.1032, 12617.06
550.5853, 12553.32
551.0674, 12513.70
551.5496, 12517.71
552.0317, 12539.39
552.5138, 12536.81
552.9959, 12503.00
553.4780, 12467.67
553.9601, 12421.67
554.4423, 12383.91
554.9244, 12363.86
555.4065, 12356.43
555.8886, 12352.30
556.3707, 12347.88
556.8528, 12349.98
557.3350, 12375.21
557.8171, 12418.61
558.2992, 12435.54
558.7813, 12414.01
559.2634, 12391.04
559.7455, 12390.32
560.2277, 12407.27
560.7098, 12425.27
561.1919, 12449.18
561.6740, 12465.44
562.1561, 12457.04
562.6382, 12446.66
563.1204, 12462.20
563.6025, 12502.85
564.0846, 12544.69
564.5667, 12569.00
565.0488, 12583.96
565.5309, 12626.43
566.0131, 12716.09
566.4952, 12783.37
566.9773, 12794.70
567.4594, 12797.26
567.9415, 12816.48
568.4236, 12852.63
568.9058, 12898.69
569.3879, 12946.88
569.8700, 13008.32
570.3521, 13108.12
570.8342, 13232.64
571.3163, 13330.11
571.7985, 13382.35
572.2806, 13427.12
572.7627, 13509.86
573.2448, 13635.06
573.7269, 13759.09
574.2090, 13904.22
574.6912, 14023.40
575.1733, 14094.89
575.6554, 14139.48
576.1375, 14175.68
576.6196, 14209.55
577.1017, 14247.67
577.5839, 14317.87
578.0660, 14396.96
578.5481, 14400.42
579.0302, 14321.64
579.5123, 14213.18
579.9944, 14086.31
580.4766, 13954.73
580.9587, 13849.83
581.4408, 13779.37
581.9229, 13696.86
582.4050, 13587.95
582.8871, 13473.24
583.3693, 13363.30
583.8514, 13259.33
584.3335, 13158.92
584.8156, 13061.73
585.2977, 12968.50
585.7798, 12877.73
586.2620, 12788.57
586.7441, 12716.32
587.2262, 12670.99
587.7083, 12626.24
588.1904, 12562.41
588.6725, 12490.37
589.1547, 12427.61
589.6368, 12376.76
590.1189, 12333.74
590.6010, 12310.01
591.0831, 12285.62
591.5652, 12224.45
592.0474, 12131.72
592.5295, 12051.67
593.0116, 12013.61
593.4937, 12009.79
593.9758, 12020.90
594.4579, 12067.43
594.9401, 12079.92
595.4222, 12015.95
595.9043, 11949.73
596.3864, 11919.88
596.8685, 11917.38
597.3506, 11914.77
597.8328, 11899.61
598.3149, 11885.90
598.7970, 11895.02
599.2791, 11914.74
599.7612, 11909.62
600.2433, 11872.73
600.7255, 11829.36
601.2076, 11798.06
601.6897, 11779.53
602.1718, 11779.69
602.6539, 11823.46
603.1360, 11851.99
603.6182, 11863.98
604.1003, 11857.10
604.5824, 11812.98
605.0645, 11744.99
605.5466, 11701.79
606.0287, 11720.97
606.5109, 11766.55
606.9930, 11781.63
607.4751, 11770.93
607.9572, 11775.51
608.4393, 11810.11
608.9214, 11843.75
609.4036, 11840.73
609.8857, 11800.87
610.3678, 11787.33
610.8499, 11822.68
611.3320, 11853.12
611.8141, 11863.76
612.2963, 11865.16
612.7784, 11868.84
613.2605, 11875.46
613.7426, 11877.22
614.2247, 11868.40
614.7068, 11850.42
615.1890, 11826.49
615.6711, 11796.63
616.1532, 11761.11
616.6353, 11720.93
617.1174, 11673.58
617.5995, 11610.27
618.0817, 11530.46
618.5638, 11471.81
619.0459, 11453.73
619.5280, 11436.33
620.0101, 11393.86
620.4922, 11348.58
620.9744, 11339.19
621.4565, 11366.25
621.9386, 11381.89
622.4207, 11334.65
622.9028, 11245.13
623.3849, 11200.21
623.8671, 11209.16
624.3492, 11207.35
624.8313, 11167.04
625.3134, 11117.27
625.7955, 11094.72
626.2776, 11097.57
626.7598, 11098.61
627.2419, 11095.05
627.7240, 11087.90
628.2061, 11074.64
628.6882, 11059.36
629.1703, 11050.07
629.6525, 11047.43
630.1346, 11041.71
630.6167, 11022.34
631.0988, 10991.87
631.5809, 10963.87
632.0630, 10938.05
632.5452, 10914.89
633.0273, 10890.17
633.5094, 10872.49
633.9915, 10879.13
634.4736, 10908.14
634.9557, 10916.47
635.4379, 10878.62
635.9200, 10835.83
636.4021, 10804.10
636.8842, 10785.27
637.3663, 10789.15
637.8484, 10813.80
638.3306, 10830.25
638.8127, 10804.04
639.2948, 10745.45
639.7769, 10723.19
640.2590, 10751.58
640.7411, 10764.41
641.2233, 10731.88
641.7054, 10686.57
642.1875, 10664.61
642.6696, 10663.64
643.1517, 10654.62
643.6339, 10620.28
644.1160, 10588.46
644.5981, 10575.32
645.0802, 10574.19
645.5623, 10579.23
646.0444, 10586.71
646.5266, 10584.84
647.0087, 10557.88
647.4908, 10515.28
647.9729, 10505.19
648.4550, 10535.93
648.9371, 10568.13
649.4193, 10606.43
649.9014, 10626.57
650.3835, 10590.89
650.8656, 10509.47
651.3477, 10453.65
651.8298, 10453.90
652.3120, 10460.90
652.7941, 10454.14
653.2762, 10438.98
653.7583, 10417.78
654.2404, 10394.33
654.7225, 10382.75
655.2047, 10398.13
655.6868, 10429.14
656.1689, 10434.73
656.6510, 10409.37
657.1331, 10393.30
657.6152, 10399.17
658.0974, 10410.45
658.5795, 10414.43
659.0616, 10411.65
659.5437, 10403.50
660.0258, 10383.38
660.5079, 10366.24
660.9901, 10361.85
661.4722, 10359.98
661.9543, 10348.71
662.4364, 10328.39
662.9185, 10306.09
663.4006, 10284.69
