##NAMES=Vuonnemite
##RRUFFID=R070690
##IDEAL CHEMISTRY=Na_6_Na_2_Nb^5+^_2_Na_3_Ti^4+^(Si_2_O_7_)_2_(PO_4_)_2_O_2_(OF)
##LOCALITY=Yubileinaya (Yubileinoye; Jubilejnaja) pegmatite,  Karnasurt Mt, Lovozero Massif, Kola Peninsula,  Murmanskaja Oblast', Northern Region, Russia
##OWNER=RRUFF
##SOURCE=Michael Scott
##DESCRIPTION=Cream colored platy massive associated with pinkish ussingite, light yellow-green sphalerite, and brown elongated tabular serandite
##STATUS=The identification of this mineral has been confirmed only by single crystal X-ray diffraction.
##URL=rruff.info/R070690
164.1253, 11429.24
164.6075, 11485.42
165.0896, 11547.56
165.5717, 11613.40
166.0538, 11684.55
166.5359, 11758.17
167.0180, 11830.35
167.5002, 11901.12
167.9823, 11969.43
168.4644, 12033.33
168.9465, 12092.00
169.4286, 12150.99
169.9107, 12217.60
170.3929, 12287.41
170.8750, 12352.81
171.3571, 12412.76
171.8392, 12464.35
172.3213, 12501.74
172.8034, 12520.56
173.2856, 12535.84
173.7677, 12562.02
174.2498, 12596.61
174.7319, 12630.47
175.2140, 12669.09
175.6961, 12701.14
176.1783, 12703.33
176.6604, 12658.11
177.1425, 12605.85
177.6246, 12603.92
178.1067, 12645.36
178.5888, 12684.81
179.0710, 12679.54
179.5531, 12647.79
180.0352, 12631.53
180.5173, 12648.80
180.9994, 12678.09
181.4815, 12676.32
181.9637, 12644.69
182.4458, 12621.33
182.9279, 12648.87
183.4100, 12714.62
183.8921, 12770.72
184.3742, 12799.67
184.8564, 12812.01
185.3385, 12833.65
185.8206, 12865.86
186.3027, 12894.05
186.7848, 12892.54
187.2669, 12867.19
187.7491, 12863.08
188.2312, 12907.92
188.7133, 12986.50
189.1954, 13043.42
189.6775, 13076.25
190.1596, 13096.56
190.6418, 13114.33
191.1239, 13129.69
191.6060, 13150.75
192.0881, 13182.06
192.5702, 13222.72
193.0524, 13264.11
193.5345, 13304.96
194.0166, 13349.53
194.4987, 13409.71
194.9808, 13487.26
195.4629, 13554.00
195.9451, 13592.80
196.4272, 13604.70
196.9093, 13614.32
197.3914, 13620.70
197.8735, 13627.55
198.3556, 13642.76
198.8378, 13667.22
199.3199, 13693.88
199.8020, 13722.09
200.2841, 13752.51
200.7662, 13769.47
201.2483, 13768.02
201.7305, 13756.33
202.2126, 13751.03
202.6947, 13749.73
203.1768, 13763.80
203.6589, 13808.95
204.1410, 13892.08
204.6232, 13952.63
205.1053, 13978.73
205.5874, 13981.68
206.0695, 13998.67
206.5516, 14032.16
207.0337, 14073.29
207.5159, 14115.79
207.9980, 14157.40
208.4801, 14209.75
208.9622, 14283.18
209.4443, 14368.24
209.9264, 14413.36
210.4086, 14403.54
210.8907, 14383.89
211.3728, 14390.31
211.8549, 14430.70
212.3370, 14472.05
212.8191, 14517.37
213.3013, 14562.29
213.7834, 14567.13
214.2655, 14513.78
214.7476, 14449.32
215.2297, 14416.60
215.7118, 14427.31
216.1940, 14435.97
216.6761, 14430.67
217.1582, 14412.76
217.6403, 14415.38
218.1224, 14445.52
218.6045, 14486.76
219.0867, 14526.28
219.5688, 14569.25
220.0509, 14596.39
220.5330, 14595.73
221.0151, 14566.17
221.4972, 14563.18
221.9794, 14598.47
222.4615, 14647.19
222.9436, 14683.38
223.4257, 14702.53
223.9078, 14717.83
224.3899, 14726.16
224.8721, 14724.86
225.3542, 14756.51
225.8363, 14843.63
226.3184, 14942.58
226.8005, 15001.33
227.2827, 15002.55
227.7648, 14995.32
228.2469, 14989.95
228.7290, 14986.34
229.2111, 14983.95
229.6932, 14975.43
230.1754, 14974.07
230.6575, 15003.08
231.1396, 15092.22
231.6217, 15157.99
232.1038, 15170.02
232.5859, 15114.06
233.0681, 15080.75
233.5502, 15074.09
234.0323, 15087.14
234.5144, 15112.62
234.9965, 15160.98
235.4786, 15203.69
235.9608, 15230.29
236.4429, 15235.57
236.9250, 15247.36
237.4071, 15266.15
237.8892, 15291.08
238.3713, 15322.28
238.8535, 15366.98
239.3356, 15405.58
239.8177, 15428.01
240.2998, 15425.07
240.7819, 15443.58
241.2640, 15497.44
241.7462, 15564.95
242.2283, 15607.39
242.7104, 15609.43
243.1925, 15611.52
243.6746, 15625.60
244.1567, 15651.80
244.6389, 15691.46
245.1210, 15751.10
245.6031, 15820.17
246.0852, 15878.92
246.5673, 15920.89
247.0494, 15963.46
247.5316, 16011.38
248.0137, 16062.84
248.4958, 16128.10
248.9779, 16217.35
249.4600, 16314.34
249.9421, 16383.65
250.4243, 16406.62
250.9064, 16436.31
251.3885, 16496.74
251.8706, 16604.43
252.3527, 16686.36
252.8348, 16729.04
253.3170, 16754.20
253.7991, 16805.20
254.2812, 16895.94
254.7633, 16984.60
255.2454, 17050.84
255.7275, 17080.29
256.2097, 17141.39
256.6918, 17248.71
257.1739, 17376.95
257.6560, 17481.40
258.1381, 17558.56
258.6202, 17619.09
259.1024, 17661.38
259.5845, 17674.43
260.0666, 17715.90
260.5487, 17799.46
261.0308, 17900.99
261.5129, 17980.05
261.9951, 18031.74
262.4772, 18070.90
262.9593, 18099.40
263.4414, 18113.42
263.9235, 18138.77
264.4056, 18184.89
264.8878, 18233.81
265.3699, 18253.10
265.8520, 18235.50
266.3341, 18209.43
266.8162, 18185.81
267.2983, 18166.39
267.7805, 18137.88
268.2626, 18095.93
268.7447, 18049.99
269.2268, 18018.42
269.7089, 18005.88
270.1910, 17991.05
270.6732, 17961.20
271.1553, 17913.11
271.6374, 17884.00
272.1195, 17876.50
272.6016, 17884.15
273.0837, 17898.43
273.5659, 17920.26
274.0480, 17944.11
274.5301, 17967.38
275.0122, 17989.80
275.4943, 18016.85
275.9764, 18048.07
276.4586, 18084.76
276.9407, 18129.20
277.4228, 18180.97
277.9049, 18239.29
278.3870, 18310.23
278.8691, 18392.30
279.3513, 18445.53
279.8334, 18461.28
280.3155, 18470.35
280.7976, 18521.05
281.2798, 18615.04
281.7619, 18701.78
282.2440, 18762.33
282.7261, 18798.86
283.2082, 18823.02
283.6903, 18830.94
284.1725, 18840.74
284.6546, 18884.86
285.1367, 18961.04
285.6188, 19019.00
286.1009, 19027.07
286.5830, 19001.14
287.0652, 19016.23
287.5473, 19077.82
288.0294, 19146.98
288.5115, 19177.70
288.9936, 19174.29
289.4757, 19171.67
289.9579, 19182.20
290.4400, 19201.71
290.9221, 19222.89
291.4042, 19246.55
291.8863, 19261.47
292.3684, 19250.02
292.8506, 19217.92
293.3327, 19189.46
293.8148, 19170.17
294.2969, 19160.26
294.7790, 19160.38
295.2611, 19170.58
295.7433, 19188.61
296.2254, 19217.54
296.7075, 19253.63
297.1896, 19284.94
297.6717, 19305.88
298.1538, 19322.96
298.6360, 19342.82
299.1181, 19365.99
299.6002, 19396.88
300.0823, 19445.27
300.5644, 19503.35
301.0465, 19555.67
301.5287, 19592.26
302.0108, 19628.83
302.4929, 19694.87
302.9750, 19783.36
303.4571, 19850.29
303.9392, 19846.82
304.4214, 19810.27
304.9035, 19791.92
305.3856, 19811.46
305.8677, 19840.83
306.3498, 19863.30
306.8319, 19877.13
307.3141, 19876.34
307.7962, 19853.19
308.2783, 19815.60
308.7604, 19770.93
309.2425, 19722.44
309.7246, 19665.00
310.2068, 19590.78
310.6889, 19504.22
311.1710, 19416.21
311.6531, 19317.38
312.1352, 19227.86
312.6173, 19169.67
313.0995, 19160.92
313.5816, 19142.48
314.0637, 19070.14
314.5458, 18969.65
315.0279, 18888.95
315.5100, 18875.32
315.9922, 18864.52
316.4743, 18818.14
316.9564, 18722.40
317.4385, 18629.99
317.9206, 18549.26
318.4027, 18484.30
318.8849, 18440.80
319.3670, 18446.23
319.8491, 18450.58
320.3312, 18433.20
320.8133, 18388.64
321.2954, 18345.87
321.7776, 18309.67
322.2597, 18278.01
322.7418, 18248.70
323.2239, 18217.98
323.7060, 18193.04
324.1881, 18177.70
324.6703, 18172.93
325.1524, 18166.01
325.6345, 18157.73
326.1166, 18146.17
326.5987, 18129.61
327.0808, 18097.66
327.5630, 18072.85
328.0451, 18055.35
328.5272, 18045.50
329.0093, 18052.81
329.4914, 18098.83
329.9735, 18142.31
330.4557, 18154.95
330.9378, 18116.32
331.4199, 18081.56
331.9020, 18050.02
332.3841, 18024.69
332.8662, 18022.47
333.3484, 18055.30
333.8305, 18093.18
334.3126, 18121.78
334.7947, 18141.99
335.2768, 18146.50
335.7589, 18123.74
336.2411, 18091.28
336.7232, 18100.85
337.2053, 18170.02
337.6874, 18229.58
338.1695, 18238.49
338.6516, 18188.04
339.1338, 18163.91
339.6159, 18172.53
340.0980, 18200.21
340.5801, 18223.41
341.0622, 18241.24
341.5443, 18265.96
342.0265, 18312.10
342.5086, 18374.64
342.9907, 18404.75
343.4728, 18396.46
343.9549, 18378.04
344.4370, 18384.71
344.9192, 18414.19
345.4013, 18445.32
345.8834, 18469.12
346.3655, 18489.39
346.8476, 18513.63
347.3297, 18541.56
347.8119, 18576.74
348.2940, 18634.07
348.7761, 18702.81
349.2582, 18747.87
349.7403, 18748.39
350.2225, 18733.16
350.7046, 18747.81
351.1867, 18788.42
351.6688, 18823.72
352.1509, 18822.31
352.6331, 18803.55
353.1152, 18798.86
353.5973, 18823.86
354.0794, 18848.23
354.5615, 18838.13
355.0436, 18803.68
355.5258, 18775.65
356.0079, 18788.35
356.4900, 18805.21
356.9721, 18789.22
357.4542, 18724.03
357.9363, 18662.15
358.4185, 18639.41
358.9006, 18639.24
359.3827, 18632.97
359.8648, 18608.25
360.3469, 18575.51
360.8290, 18536.75
361.3112, 18490.27
361.7933, 18451.31
362.2754, 18427.78
362.7575, 18412.74
363.2396, 18398.56
363.7217, 18385.51
364.2039, 18371.39
364.6860, 18355.02
365.1681, 18336.30
365.6502, 18318.58
366.1323, 18302.53
366.6144, 18287.24
367.0966, 18271.91
367.5787, 18238.67
368.0608, 18227.89
368.5429, 18256.28
369.0250, 18313.75
369.5071, 18346.98
369.9893, 18337.68
370.4714, 18325.35
370.9535, 18327.95
371.4356, 18345.94
371.9177, 18379.56
372.3998, 18438.85
372.8820, 18508.88
373.3641, 18551.59
373.8462, 18553.11
374.3283, 18563.23
374.8104, 18606.97
375.2925, 18689.17
375.7747, 18749.02
376.2568, 18779.28
376.7389, 18802.58
377.2210, 18851.00
377.7031, 18926.26
378.1852, 19001.20
378.6674, 19063.14
379.1495, 19118.41
379.6316, 19200.69
380.1137, 19311.35
380.5958, 19430.21
381.0779, 19543.40
381.5601, 19650.51
382.0422, 19738.05
382.5243, 19794.40
383.0064, 19843.79
383.4885, 19933.69
383.9706, 20059.57
384.4528, 20181.81
384.9349, 20269.16
385.4170, 20337.24
385.8991, 20414.73
386.3812, 20508.99
386.8633, 20605.37
387.3455, 20694.54
387.8276, 20775.52
388.3097, 20847.50
388.7918, 20903.44
389.2739, 20953.51
389.7560, 21006.95
390.2382, 21065.12
390.7203, 21118.74
391.2024, 21169.48
391.6845, 21210.55
392.1666, 21234.65
392.6487, 21234.65
393.1309, 21221.08
393.6130, 21189.99
394.0951, 21143.78
394.5772, 21108.53
395.0593, 21111.58
395.5414, 21114.54
396.0236, 21093.37
396.5057, 21035.17
396.9878, 20963.83
397.4699, 20863.86
397.9520, 20750.09
398.4341, 20670.26
398.9163, 20652.83
399.3984, 20639.97
399.8805, 20610.15
400.3626, 20554.95
400.8447, 20506.33
401.3268, 20456.81
401.8090, 20419.47
402.2911, 20417.31
402.7732, 20466.83
403.2553, 20507.41
403.7374, 20515.60
404.2195, 20494.71
404.7017, 20507.75
405.1838, 20561.17
405.6659, 20631.73
406.1480, 20702.82
406.6301, 20774.88
407.1122, 20836.39
407.5944, 20879.36
408.0765, 20916.92
408.5586, 20983.12
409.0407, 21077.70
409.5228, 21175.44
410.0049, 21256.93
410.4871, 21327.73
410.9692, 21407.83
411.4513, 21502.69
411.9334, 21593.63
412.4155, 21659.25
412.8976, 21704.85
413.3798, 21743.51
413.8619, 21772.61
414.3440, 21803.74
414.8261, 21861.82
415.3082, 21946.98
415.7903, 22007.48
416.2725, 21999.28
416.7546, 21952.17
417.2367, 21899.04
417.7188, 21850.02
418.2009, 21798.44
418.6830, 21746.20
419.1652, 21690.27
419.6473, 21621.56
420.1294, 21522.13
420.6115, 21419.58
421.0937, 21327.36
421.5758, 21252.04
422.0579, 21180.70
422.5400, 21097.52
423.0221, 21019.99
423.5042, 20975.49
423.9864, 20985.22
424.4685, 21005.93
424.9506, 21039.61
425.4327, 21090.21
425.9148, 21091.84
426.3969, 21010.88
426.8791, 20919.29
427.3612, 20882.84
427.8433, 20918.99
428.3254, 20956.62
428.8075, 20989.64
429.2896, 21016.07
429.7718, 21026.51
430.2539, 21018.77
430.7360, 21007.00
431.2181, 20997.16
431.7002, 20989.54
432.1823, 20991.78
432.6645, 21007.80
433.1466, 21021.88
433.6287, 20997.98
434.1108, 20946.89
434.5929, 20923.92
435.0750, 20976.52
435.5572, 21061.09
436.0393, 21101.26
436.5214, 21098.31
437.0035, 21079.30
437.4856, 21037.03
437.9677, 21000.22
438.4499, 21015.64
438.9320, 21125.52
439.4141, 21238.51
439.8962, 21274.82
440.3783, 21261.88
440.8604, 21271.51
441.3426, 21365.79
441.8247, 21468.41
442.3068, 21532.94
442.7889, 21546.09
443.2710, 21560.90
443.7531, 21594.95
444.2353, 21636.43
444.7174, 21672.89
445.1995, 21697.33
445.6816, 21721.91
446.1637, 21753.85
446.6458, 21790.90
447.1280, 21809.73
447.6101, 21796.00
448.0922, 21779.85
448.5743, 21781.46
449.0564, 21818.50
449.5385, 21825.16
450.0207, 21793.99
450.5028, 21737.19
450.9849, 21675.39
451.4670, 21608.61
451.9491, 21540.10
452.4312, 21477.44
452.9134, 21416.56
453.3955, 21319.24
453.8776, 21182.66
454.3597, 21032.71
454.8418, 20891.30
455.3239, 20757.49
455.8061, 20633.02
456.2882, 20516.15
456.7703, 20409.54
457.2524, 20318.25
457.7345, 20240.96
458.2166, 20170.19
458.6988, 20112.47
459.1809, 20054.19
459.6630, 19977.77
460.1451, 19877.84
460.6272, 19780.86
461.1093, 19697.41
461.5915, 19628.86
462.0736, 19578.79
462.5557, 19570.91
463.0378, 19559.50
463.5199, 19520.28
464.0020, 19458.33
464.4842, 19411.74
464.9663, 19399.91
465.4484, 19397.45
465.9305, 19391.85
466.4126, 19387.74
466.8947, 19370.77
467.3769, 19332.41
467.8590, 19285.06
468.3411, 19248.59
468.8232, 19227.07
469.3053, 19208.68
469.7874, 19189.51
470.2696, 19169.93
470.7517, 19159.79
471.2338, 19163.48
471.7159, 19163.28
472.1980, 19132.36
472.6801, 19072.14
473.1623, 19051.03
473.6444, 19087.65
474.1265, 19149.34
474.6086, 19185.76
475.0907, 19198.41
475.5728, 19196.99
476.0550, 19176.07
476.5371, 19147.95
477.0192, 19131.90
477.5013, 19128.48
477.9834, 19134.26
478.4655, 19154.09
478.9477, 19179.28
479.4298, 19198.58
479.9119, 19211.53
480.3940, 19214.50
480.8761, 19191.56
481.3582, 19155.15
481.8404, 19141.47
482.3225, 19184.16
482.8046, 19234.28
483.2867, 19270.47
483.7688, 19288.42
484.2509, 19300.98
484.7331, 19309.10
485.2152, 19312.23
485.6973, 19309.11
486.1794, 19293.01
486.6615, 19282.36
487.1436, 19281.12
487.6258, 19287.31
488.1079, 19290.98
488.5900, 19290.33
489.0721, 19292.06
489.5542, 19307.41
490.0363, 19336.85
490.5185, 19328.10
491.0006, 19269.80
491.4827, 19207.00
491.9648, 19201.11
492.4470, 19244.64
492.9291, 19299.97
493.4112, 19366.80
493.8933, 19426.60
494.3754, 19439.73
494.8575, 19412.82
495.3397, 19386.81
495.8218, 19380.77
496.3039, 19393.40
496.7860, 19429.76
497.2681, 19500.08
497.7502, 19557.84
498.2324, 19565.49
498.7145, 19549.67
499.1966, 19546.78
499.6787, 19589.44
500.1608, 19624.49
500.6429, 19624.79
501.1251, 19593.74
501.6072, 19589.55
502.0893, 19631.45
502.5714, 19687.58
503.0535, 19748.63
503.5356, 19837.29
504.0178, 19870.89
504.4999, 19818.85
504.9820, 19739.28
505.4641, 19725.46
505.9462, 19790.38
506.4283, 19853.30
506.9105, 19890.32
507.3926, 19907.60
507.8747, 19930.89
508.3568, 19960.87
508.8389, 19985.28
509.3210, 19984.02
509.8032, 19970.50
510.2853, 19986.19
510.7674, 20041.50
511.2495, 20103.46
511.7316, 20136.07
512.2137, 20150.56
512.6959, 20169.33
513.1780, 20203.59
513.6601, 20243.95
514.1422, 20287.24
514.6243, 20332.52
515.1064, 20374.03
515.5886, 20412.27
516.0707, 20444.21
516.5528, 20465.22
517.0349, 20461.53
517.5170, 20474.94
517.9991, 20518.80
518.4813, 20578.17
518.9634, 20635.40
519.4455, 20693.67
519.9276, 20744.56
520.4097, 20787.89
520.8918, 20822.35
521.3740, 20839.88
521.8561, 20834.18
522.3382, 20832.42
522.8203, 20862.04
523.3024, 20919.46
523.7845, 20940.63
524.2667, 20914.60
524.7488, 20880.99
525.2309, 20898.20
525.7130, 20950.69
526.1951, 20982.77
526.6772, 20958.00
527.1594, 20920.15
527.6415, 20934.24
528.1236, 20985.79
528.6057, 21011.16
529.0878, 20925.94
529.5699, 20832.04
530.0521, 20823.53
530.5342, 20940.30
531.0163, 21014.23
531.4984, 20955.86
531.9805, 20843.30
532.4626, 20759.52
532.9448, 20713.65
533.4269, 20700.71
533.9090, 20738.03
534.3911, 20809.85
534.8732, 20854.21
535.3553, 20868.04
535.8375, 20860.36
536.3196, 20828.51
536.8017, 20770.15
537.2838, 20729.60
537.7659, 20708.61
538.2480, 20698.40
538.7302, 20690.88
539.2123, 20686.01
539.6944, 20685.29
540.1765, 20691.79
540.6586, 20697.51
541.1407, 20680.82
541.6229, 20651.04
542.1050, 20641.12
542.5871, 20693.18
543.0692, 20757.04
543.5513, 20783.10
544.0334, 20768.84
544.5156, 20756.01
544.9977, 20765.10
545.4798, 20783.13
545.9619, 20799.27
546.4440, 20801.00
546.9261, 20816.46
547.4083, 20867.50
547.8904, 20931.22
548.3725, 20964.51
548.8546, 20947.32
549.3367, 20932.49
549.8188, 20929.76
550.3010, 20939.47
550.7831, 20969.48
551.2652, 21025.21
551.7473, 21083.35
552.2294, 21125.26
552.7115, 21152.92
553.1937, 21183.17
553.6758, 21216.68
554.1579, 21255.56
554.6400, 21310.45
555.1221, 21373.88
555.6042, 21422.02
556.0864, 21425.02
556.5685, 21431.48
557.0506, 21492.29
557.5327, 21597.43
558.0148, 21709.08
558.4969, 21820.40
558.9791, 21924.23
559.4612, 22006.46
559.9433, 22054.96
560.4254, 22136.66
560.9075, 22279.04
561.3896, 22451.57
561.8718, 22628.66
562.3539, 22811.86
562.8360, 22995.84
563.3181, 23169.32
563.8002, 23346.54
564.2823, 23563.49
564.7645, 23818.29
565.2466, 24115.26
565.7287, 24471.36
566.2108, 24870.53
566.6929, 25224.04
567.1750, 25527.53
567.6572, 25820.18
568.1393, 26119.78
568.6214, 26429.71
569.1035, 26745.18
569.5856, 27066.54
570.0677, 27401.32
570.5499, 27777.52
571.0320, 28170.68
571.5141, 28544.56
571.9962, 28866.33
572.4783, 29185.79
572.9604, 29531.87
573.4426, 29893.58
573.9247, 30223.27
574.4068, 30515.37
574.8889, 30767.98
575.3710, 30985.22
575.8531, 31173.19
576.3353, 31285.62
576.8174, 31327.83
577.2995, 31284.92
577.7816, 31129.84
578.2637, 30856.04
578.7458, 30541.40
579.2280, 30193.47
579.7101, 29816.24
580.1922, 29408.84
580.6743, 28975.03
581.1564, 28536.11
581.6385, 28081.48
582.1207, 27637.40
582.6028, 27242.82
583.0849, 26899.09
583.5670, 26589.31
584.0491, 26321.16
584.5313, 26072.74
585.0134, 25822.64
585.4955, 25557.45
585.9776, 25326.27
586.4597, 25165.68
586.9418, 25036.86
587.4240, 24898.08
587.9061, 24743.77
588.3882, 24583.15
588.8703, 24408.07
589.3524, 24229.79
589.8345, 24086.21
590.3167, 23986.46
590.7988, 23885.06
591.2809, 23760.17
591.7630, 23617.90
592.2451, 23494.90
592.7272, 23391.49
593.2094, 23299.86
593.6915, 23207.03
594.1736, 23122.65
594.6557, 23071.02
595.1378, 23064.59
595.6199, 23058.59
596.1021, 23017.66
596.5842, 22956.72
597.0663, 22896.79
597.5485, 22823.10
598.0306, 22775.42
598.5127, 22781.29
598.9948, 22827.90
599.4769, 22859.56
599.9590, 22871.53
600.4412, 22869.93
600.9233, 22850.26
601.4054, 22809.75
601.8875, 22799.23
602.3696, 22831.95
602.8517, 22862.28
603.3339, 22828.34
603.8160, 22739.22
604.2981, 22733.08
604.7802, 22839.47
605.2623, 22981.31
605.7444, 23069.39
606.2266, 23113.45
606.7087, 23134.46
607.1908, 23115.29
607.6729, 23103.21
608.1550, 23146.10
608.6371, 23228.95
609.1193, 23304.41
609.6014, 23349.95
610.0835, 23386.25
610.5656, 23420.71
611.0477, 23453.67
611.5298, 23488.34
612.0120, 23546.93
612.4941, 23585.21
612.9762, 23567.34
613.4583, 23473.44
613.9404, 23400.90
614.4225, 23366.97
614.9047, 23331.88
615.3868, 23224.63
615.8689, 23050.69
616.3510, 22894.53
616.8331, 22782.69
617.3152, 22698.85
617.7974, 22619.51
618.2795, 22546.56
618.7616, 22482.99
619.2437, 22444.05
619.7258, 22405.42
620.2079, 22339.05
620.6901, 22244.52
621.1722, 22172.21
621.6543, 22158.36
622.1364, 22159.18
622.6185, 22145.69
623.1006, 22103.80
623.5828, 22075.21
624.0649, 22065.21
624.5470, 22063.68
625.0291, 22056.72
625.5112, 22041.10
625.9933, 22039.95
626.4755, 22064.06
626.9576, 22095.86
627.4397, 22096.12
627.9218, 22068.08
628.4039, 22036.44
628.8860, 22000.87
629.3682, 21975.21
629.8503, 21991.19
630.3324, 22042.24
630.8145, 22079.05
631.2966, 22046.63
631.7787, 22007.65
632.2609, 22012.79
632.7430, 22084.12
633.2251, 22137.74
633.7072, 22140.59
634.1893, 22129.09
634.6714, 22135.01
635.1536, 22175.22
635.6357, 22193.60
636.1178, 22177.22
636.5999, 22146.42
637.0820, 22138.78
637.5641, 22155.15
638.0463, 22175.91
638.5284, 22192.45
639.0105, 22211.59
639.4926, 22263.23
639.9747, 22338.15
640.4568, 22382.00
640.9390, 22330.97
641.4211, 22254.36
641.9032, 22219.04
642.3853, 22229.81
642.8674, 22240.42
643.3495, 22220.52
643.8317, 22202.02
644.3138, 22208.04
644.7959, 22257.48
645.2780, 22301.25
645.7601, 22342.44
646.2422, 22375.18
646.7244, 22390.07
647.2065, 22382.91
647.6886, 22379.71
648.1707, 22386.91
648.6528, 22397.57
649.1349, 22392.38
649.6171, 22374.79
650.0992, 22368.85
650.5813, 22393.33
651.0634, 22430.89
651.5455, 22466.46
652.0276, 22498.60
652.5098, 22517.66
652.9919, 22510.39
653.4740, 22494.86
653.9561, 22474.65
654.4382, 22444.05
654.9203, 22448.02
655.4025, 22536.19
655.8846, 22624.60
