##NAMES=Vuonnemite
##RRUFFID=R050250
##IDEAL CHEMISTRY=Na_6_Na_2_Nb^5+^_2_Na_3_Ti^4+^(Si_2_O_7_)_2_(PO_4_)_2_O_2_(OF)
##LOCALITY=Mont Saint-Hilaire, Rouville County, Quebec, Canada
##OWNER=RRUFF
##SOURCE=Marcus Origlieri
##DESCRIPTION=Light yellow platy crystal, embedded in microcline.
##STATUS=The identification of this mineral has been confirmed only by single crystal X-ray diffraction.
##URL=rruff.info/R050250
92.35352, 243.0946
92.83563, 242.4229
93.31775, 242.3658
93.79987, 245.1588
94.28198, 246.5771
94.76410, 247.2448
95.24622, 247.8014
95.72833, 248.1186
96.21045, 247.9984
96.69257, 247.6111
97.17468, 246.2573
97.65680, 243.2219
98.13892, 239.8369
98.62103, 237.1261
99.10315, 235.2400
99.58527, 233.7717
100.0674, 232.3811
100.5495, 230.8198
101.0316, 229.7432
101.5137, 229.6351
101.9958, 229.9568
102.4780, 229.8918
102.9601, 228.8028
103.4422, 226.6184
103.9243, 224.8859
104.4064, 223.2384
104.8885, 222.1270
105.3707, 221.8767
105.8528, 222.4319
106.3349, 223.3692
106.8170, 224.3288
107.2991, 225.3181
107.7813, 225.9430
108.2634, 225.8320
108.7455, 225.4534
109.2276, 225.4059
109.7097, 225.8413
110.1918, 226.5002
110.6740, 227.1078
111.1561, 227.6685
111.6382, 228.2347
112.1203, 228.6941
112.6024, 229.0984
113.0845, 229.9527
113.5666, 232.1830
114.0488, 234.1879
114.5309, 234.6438
115.0130, 233.4450
115.4951, 231.8583
115.9772, 231.4419
116.4593, 232.6044
116.9415, 233.8258
117.4236, 235.2556
117.9057, 236.4574
118.3878, 237.0126
118.8699, 236.7708
119.3520, 236.0264
119.8342, 235.5545
120.3163, 235.1546
120.7984, 235.3498
121.2805, 236.4920
121.7626, 238.1749
122.2447, 239.9281
122.7269, 241.5089
123.2090, 242.8957
123.6911, 243.8509
124.1732, 243.9896
124.6553, 244.1960
125.1374, 244.8792
125.6196, 245.9565
126.1017, 247.0274
126.5838, 247.7566
127.0659, 248.2020
127.5480, 248.8844
128.0302, 250.0247
128.5123, 251.2840
128.9944, 252.3694
129.4765, 253.2785
129.9586, 253.9805
130.4407, 254.2793
130.9229, 254.3505
131.4050, 254.5238
131.8871, 254.9260
132.3692, 255.5314
132.8513, 256.2768
133.3334, 257.2993
133.8155, 258.2811
134.2977, 259.1019
134.7798, 259.7651
135.2619, 260.2825
135.7440, 260.5064
136.2261, 260.3509
136.7082, 260.7790
137.1904, 262.4641
137.6725, 264.2128
138.1546, 265.6241
138.6367, 266.6523
139.1188, 267.4121
139.6009, 268.0085
140.0831, 268.3061
140.5652, 268.7829
141.0473, 269.4817
141.5294, 270.2913
142.0115, 271.1534
142.4936, 272.0443
142.9758, 272.9496
143.4579, 273.8414
143.9400, 274.7668
144.4221, 275.5824
144.9042, 276.1835
145.3863, 276.6929
145.8685, 277.2614
146.3506, 277.9428
146.8327, 278.7102
147.3148, 279.4599
147.7969, 280.0347
148.2790, 280.9358
148.7612, 282.6284
149.2433, 284.8803
149.7254, 286.8292
150.2075, 287.9672
150.6896, 288.7477
151.1717, 289.9560
151.6539, 291.7375
152.1360, 293.6229
152.6181, 295.1704
153.1002, 296.3566
153.5823, 297.5659
154.0644, 299.0581
154.5466, 300.5885
155.0287, 301.9529
155.5108, 303.0781
155.9929, 304.0678
156.4750, 304.9979
156.9571, 305.5991
157.4393, 306.7863
157.9214, 309.1860
158.4035, 312.0341
158.8856, 314.5985
159.3677, 316.5310
159.8498, 317.9402
160.3320, 319.1874
160.8141, 319.6361
161.2962, 320.7417
161.7783, 323.3322
162.2604, 326.5962
162.7425, 329.3378
163.2247, 330.7773
163.7068, 331.0569
164.1889, 331.9200
164.6710, 333.7636
165.1531, 335.7184
165.6352, 337.4897
166.1174, 339.1790
166.5995, 341.0753
167.0816, 343.4781
167.5637, 346.3537
168.0458, 348.6255
168.5279, 350.0562
169.0101, 351.1885
169.4922, 352.0678
169.9743, 352.7843
170.4564, 353.8722
170.9385, 356.0085
171.4206, 359.0512
171.9028, 361.2888
172.3849, 361.8691
172.8670, 362.0431
173.3491, 363.1262
173.8312, 365.3007
174.3133, 367.6182
174.7955, 369.3829
175.2776, 370.7115
175.7597, 371.7545
176.2418, 372.5204
176.7239, 373.0318
177.2060, 373.2306
177.6882, 372.8856
178.1703, 372.7108
178.6524, 373.2243
179.1345, 374.2139
179.6166, 375.2674
180.0987, 376.1386
180.5809, 376.8711
181.0630, 377.7502
181.5451, 379.0130
182.0272, 380.1193
182.5093, 380.7273
182.9914, 380.9977
183.4736, 381.3005
183.9557, 381.9536
184.4378, 382.9724
184.9199, 383.8568
185.4020, 384.2171
185.8841, 384.7909
186.3663, 386.0038
186.8484, 387.6895
187.3305, 389.3171
187.8126, 390.3385
188.2947, 390.5642
188.7768, 391.3424
189.2590, 392.9557
189.7411, 394.7848
190.2232, 396.5482
190.7053, 398.2462
191.1874, 400.0974
191.6695, 402.3833
192.1517, 405.3399
192.6338, 407.7211
193.1159, 409.3231
193.5980, 410.5987
194.0801, 411.6517
194.5622, 412.5602
195.0444, 413.6201
195.5265, 415.1807
196.0086, 417.4139
196.4907, 419.5544
196.9728, 421.3919
197.4549, 423.2603
197.9371, 425.6367
198.4192, 428.6118
198.9013, 431.5045
199.3834, 433.3748
199.8655, 434.2243
200.3476, 435.3086
200.8298, 436.7500
201.3119, 438.5753
201.7940, 441.0338
202.2761, 444.3603
202.7582, 447.5776
203.2403, 449.0391
203.7225, 449.1999
204.2046, 450.2086
204.6867, 453.5980
205.1688, 458.3365
205.6509, 462.0088
206.1330, 464.0561
206.6152, 465.5467
207.0973, 467.1885
207.5794, 468.9929
208.0615, 470.9944
208.5436, 473.2943
209.0257, 475.8354
209.5079, 478.3590
209.9900, 480.9110
210.4721, 483.3467
210.9542, 485.7867
211.4363, 488.0975
211.9184, 489.9110
212.4006, 490.7536
212.8827, 490.6783
213.3648, 490.8313
213.8469, 491.3451
214.3290, 491.9787
214.8111, 492.7942
215.2933, 493.6706
215.7754, 494.3368
216.2575, 494.5306
216.7396, 494.2282
217.2217, 493.9417
217.7038, 493.6234
218.1859, 493.3702
218.6681, 493.2207
219.1502, 493.1669
219.6323, 493.1668
220.1144, 493.1646
220.5965, 493.1395
221.0786, 493.3724
221.5608, 494.1370
222.0429, 494.8952
222.5250, 495.4846
223.0071, 495.9008
223.4892, 496.1767
223.9713, 496.3052
224.4535, 496.2332
224.9356, 496.5496
225.4177, 497.2416
225.8998, 498.2410
226.3819, 499.8708
226.8640, 501.8741
227.3462, 503.4732
227.8283, 503.9135
228.3104, 503.0545
228.7925, 502.9143
229.2746, 503.7774
229.7567, 504.9483
230.2389, 506.2829
230.7210, 507.6748
231.2031, 508.7897
231.6852, 509.2420
232.1673, 509.0544
232.6494, 509.6777
233.1316, 511.5354
233.6137, 513.7491
234.0958, 516.0599
234.5779, 518.3679
235.0600, 520.2098
235.5421, 520.9183
236.0243, 520.8000
236.5064, 522.2619
236.9885, 526.2736
237.4706, 531.0081
237.9527, 535.5955
238.4348, 539.9734
238.9170, 543.7806
239.3991, 546.4276
239.8812, 548.3904
240.3633, 551.3088
240.8454, 555.9193
241.3275, 560.9235
241.8097, 565.3301
242.2918, 569.1711
242.7739, 572.8505
243.2560, 576.3100
243.7381, 579.9055
244.2202, 584.3133
244.7024, 590.1061
245.1845, 596.0085
245.6666, 600.6125
246.1487, 603.8571
246.6308, 607.6429
247.1129, 613.4473
247.5951, 619.9412
248.0772, 625.3631
248.5593, 629.1343
249.0414, 632.6967
249.5235, 637.7606
250.0056, 644.4739
250.4878, 650.6862
250.9699, 655.0787
251.4520, 658.9436
251.9341, 663.4139
252.4162, 668.7531
252.8983, 674.1779
253.3805, 678.6871
253.8626, 682.1608
254.3447, 685.9127
254.8268, 690.6262
255.3089, 695.4954
255.7910, 699.9493
256.2732, 703.8983
256.7553, 707.6656
257.2374, 711.5919
257.7195, 715.6969
258.2016, 719.7439
258.6837, 724.0945
259.1659, 728.0539
259.6480, 730.8644
260.1301, 732.6210
260.6122, 734.5106
261.0943, 738.2156
261.5764, 744.2128
262.0586, 748.6984
262.5407, 750.3474
263.0228, 751.2341
263.5049, 751.8927
263.9870, 752.5087
264.4691, 753.2715
264.9513, 754.5084
265.4334, 756.3652
265.9155, 757.6116
266.3976, 757.9475
266.8797, 757.8881
267.3618, 757.4444
267.8440, 756.7202
268.3261, 755.8892
268.8082, 755.0385
269.2903, 754.1523
269.7724, 753.6700
270.2545, 754.0333
270.7367, 754.4056
271.2188, 754.5231
271.7009, 754.4671
272.1830, 754.5045
272.6651, 754.8974
273.1472, 755.5886
273.6294, 755.5792
274.1115, 753.3932
274.5936, 751.9930
275.0757, 752.3235
275.5578, 753.8245
276.0399, 755.5274
276.5221, 756.8240
277.0042, 757.8614
277.4863, 759.4893
277.9684, 763.0659
278.4505, 765.7626
278.9326, 766.4561
279.4148, 766.2917
279.8969, 766.9003
280.3790, 769.1175
280.8611, 772.3621
281.3432, 774.7421
281.8253, 774.7819
282.3075, 775.7331
282.7896, 778.3052
283.2717, 781.6465
283.7538, 784.7815
284.2359, 787.3414
284.7180, 789.7614
285.2002, 792.9700
285.6823, 798.3327
286.1644, 802.5684
286.6465, 804.7451
287.1286, 806.3610
287.6107, 808.6399
288.0929, 811.9434
288.5750, 815.9749
289.0571, 820.3945
289.5392, 825.5994
290.0213, 830.2080
290.5034, 833.5974
290.9856, 836.8392
291.4677, 840.7701
291.9498, 845.4426
292.4319, 850.3242
292.9140, 854.7495
293.3961, 858.5726
293.8783, 862.5294
294.3604, 866.5828
294.8425, 870.7754
295.3246, 875.2933
295.8067, 880.0159
296.2888, 884.4406
296.7710, 888.0629
297.2531, 890.7977
297.7352, 894.1247
298.2173, 898.2897
298.6994, 902.6600
299.1815, 907.0431
299.6637, 911.4021
300.1458, 915.7563
300.6279, 920.1467
301.1100, 924.5404
301.5921, 928.8906
302.0742, 933.4445
302.5564, 937.6727
303.0385, 941.1180
303.5206, 944.1617
304.0027, 947.6738
304.4848, 952.1503
304.9669, 957.0380
305.4491, 960.6505
305.9312, 962.9565
306.4133, 964.1615
306.8954, 963.2565
307.3775, 961.6109
307.8596, 961.0048
308.3418, 962.0507
308.8239, 964.0834
309.3060, 965.9921
309.7881, 967.8926
310.2702, 969.3854
310.7523, 970.5203
311.2345, 971.2105
311.7166, 971.0544
312.1987, 970.0594
312.6808, 969.1653
313.1629, 969.6339
313.6451, 972.0736
314.1272, 973.0889
314.6093, 971.4840
315.0914, 969.4149
315.5735, 968.3274
316.0556, 968.2519
316.5378, 968.4012
317.0199, 968.1754
317.5020, 967.5563
317.9841, 966.6356
318.4662, 964.6525
318.9483, 963.1602
319.4305, 963.4882
319.9126, 964.9595
320.3947, 965.4594
320.8768, 963.4465
321.3589, 959.7521
321.8410, 958.8686
322.3232, 963.0294
322.8053, 966.8373
323.2874, 968.8172
323.7695, 969.6864
324.2516, 970.4157
324.7337, 971.3580
325.2159, 972.6743
325.6980, 974.7878
326.1801, 978.5024
326.6622, 981.5848
327.1443, 983.1029
327.6264, 984.3046
328.1086, 986.3703
328.5907, 989.6019
329.0728, 993.7753
329.5549, 998.6858
330.0370, 1004.677
330.5191, 1010.390
331.0013, 1015.567
331.4834, 1020.653
331.9655, 1025.842
332.4476, 1031.202
332.9297, 1036.859
333.4118, 1043.003
333.8940, 1049.668
334.3761, 1056.091
334.8582, 1062.310
335.3403, 1068.316
335.8224, 1073.446
336.3045, 1078.344
336.7867, 1084.740
337.2688, 1093.801
337.7509, 1104.776
338.2330, 1113.963
338.7151, 1120.353
339.1972, 1126.295
339.6793, 1131.602
340.1614, 1136.853
340.6436, 1142.894
341.1257, 1150.091
341.6078, 1157.805
342.0899, 1164.820
342.5720, 1170.213
343.0541, 1176.514
343.5363, 1184.904
344.0184, 1193.412
344.5005, 1200.301
344.9826, 1205.421
345.4647, 1210.040
345.9468, 1215.634
346.4290, 1222.646
346.9111, 1228.557
347.3932, 1232.896
347.8753, 1236.782
348.3574, 1240.360
348.8395, 1243.882
349.3217, 1247.989
349.8038, 1253.302
350.2859, 1259.563
350.7680, 1263.700
351.2501, 1264.011
351.7322, 1264.061
352.2144, 1263.892
352.6965, 1263.970
353.1786, 1265.107
353.6607, 1267.668
354.1428, 1270.797
354.6249, 1272.464
355.1071, 1271.779
355.5892, 1270.950
356.0713, 1269.874
356.5534, 1268.846
357.0355, 1268.053
357.5176, 1267.554
357.9998, 1267.403
358.4819, 1268.027
358.9640, 1270.289
359.4461, 1269.668
359.9282, 1263.384
360.4103, 1256.971
360.8925, 1252.666
361.3746, 1250.225
361.8567, 1248.419
362.3388, 1246.353
362.8209, 1244.089
363.3030, 1242.306
363.7852, 1242.333
364.2673, 1241.053
364.7494, 1236.929
365.2315, 1231.473
365.7136, 1226.479
366.1957, 1222.714
366.6779, 1219.824
367.1600, 1217.214
367.6421, 1215.014
368.1242, 1212.754
368.6063, 1209.995
369.0884, 1207.410
369.5706, 1205.698
370.0527, 1204.845
370.5348, 1204.019
371.0169, 1202.003
371.4990, 1198.639
371.9811, 1196.623
372.4633, 1197.400
372.9454, 1198.128
373.4275, 1196.808
373.9096, 1194.405
374.3917, 1193.371
374.8738, 1195.830
375.3560, 1200.421
375.8381, 1202.658
376.3202, 1201.416
376.8023, 1200.457
377.2844, 1201.355
377.7665, 1203.273
378.2487, 1205.507
378.7308, 1207.957
379.2129, 1210.292
379.6950, 1211.646
380.1771, 1211.914
380.6592, 1213.706
381.1414, 1218.382
381.6235, 1224.273
382.1056, 1230.325
382.5877, 1236.442
383.0698, 1241.751
383.5519, 1245.261
384.0341, 1247.568
384.5162, 1250.389
384.9983, 1253.770
385.4804, 1257.967
385.9625, 1264.045
386.4446, 1271.102
386.9268, 1277.033
387.4089, 1280.026
387.8910, 1282.646
388.3731, 1288.134
388.8552, 1296.365
389.3373, 1303.955
389.8195, 1308.711
390.3016, 1312.337
390.7837, 1318.270
391.2658, 1327.190
391.7479, 1336.315
392.2300, 1344.625
392.7122, 1352.114
393.1943, 1358.510
393.6764, 1363.542
394.1585, 1368.332
394.6406, 1374.074
395.1227, 1380.732
395.6049, 1388.648
396.0870, 1398.666
396.5691, 1409.362
397.0512, 1419.838
397.5333, 1429.958
398.0154, 1439.211
398.4976, 1447.014
398.9797, 1453.736
399.4618, 1461.944
399.9439, 1472.069
400.4260, 1482.900
400.9081, 1494.301
401.3903, 1506.145
401.8724, 1518.134
402.3545, 1530.144
402.8366, 1542.357
403.3187, 1554.976
403.8008, 1568.073
404.2830, 1581.525
404.7651, 1594.859
405.2472, 1608.894
405.7293, 1624.716
406.2114, 1641.923
406.6935, 1658.880
407.1757, 1674.118
407.6578, 1687.610
408.1399, 1702.006
408.6220, 1718.462
409.1041, 1734.470
409.5862, 1748.994
410.0684, 1762.922
410.5505, 1778.016
411.0326, 1794.909
411.5147, 1812.195
411.9968, 1826.893
412.4789, 1836.948
412.9611, 1848.869
413.4432, 1865.666
413.9253, 1882.096
414.4074, 1894.635
414.8895, 1903.515
415.3716, 1911.426
415.8538, 1920.968
416.3359, 1931.939
416.8180, 1940.831
417.3001, 1946.666
417.7822, 1951.667
418.2643, 1957.508
418.7465, 1962.848
419.2286, 1965.684
419.7107, 1965.040
420.1928, 1962.377
420.6749, 1959.607
421.1570, 1956.673
421.6392, 1954.217
422.1213, 1954.744
422.6034, 1953.708
423.0855, 1947.134
423.5676, 1935.119
424.0497, 1921.773
424.5319, 1909.225
425.0140, 1897.301
425.4961, 1885.655
425.9782, 1874.464
426.4603, 1862.962
426.9424, 1850.613
427.4246, 1837.644
427.9067, 1824.511
428.3888, 1811.816
428.8709, 1798.402
429.3530, 1782.160
429.8351, 1764.029
430.3173, 1748.803
430.7994, 1739.121
431.2815, 1731.707
431.7636, 1720.940
432.2457, 1706.775
432.7278, 1691.929
433.2100, 1676.513
433.6921, 1661.045
434.1742, 1646.012
434.6563, 1631.495
435.1384, 1617.736
435.6205, 1604.962
436.1027, 1593.223
436.5848, 1582.547
437.0669, 1573.350
437.5490, 1564.549
438.0311, 1556.286
438.5132, 1548.077
438.9954, 1538.914
439.4775, 1528.459
439.9596, 1517.753
440.4417, 1508.656
440.9238, 1501.407
441.4059, 1495.398
441.8881, 1491.562
442.3702, 1487.929
442.8523, 1483.229
443.3344, 1477.687
443.8165, 1472.390
444.2986, 1468.305
444.7808, 1465.064
445.2629, 1460.295
445.7450, 1452.003
446.2271, 1445.197
446.7092, 1441.648
447.1913, 1439.403
447.6735, 1436.717
448.1556, 1433.109
448.6377, 1429.033
449.1198, 1425.050
449.6019, 1421.206
450.0840, 1416.855
450.5662, 1411.714
451.0483, 1406.297
451.5304, 1400.574
452.0125, 1394.835
452.4946, 1389.785
452.9767, 1386.303
453.4589, 1383.130
453.9410, 1377.965
454.4231, 1370.675
454.9052, 1363.542
455.3873, 1357.517
455.8694, 1352.072
456.3516, 1346.304
456.8337, 1340.102
457.3158, 1334.395
457.7979, 1330.267
458.2800, 1326.758
458.7621, 1322.183
459.2443, 1316.277
459.7264, 1309.788
460.2085, 1303.214
460.6906, 1296.581
461.1727, 1289.905
461.6548, 1282.778
462.1370, 1276.075
462.6191, 1270.633
463.1012, 1265.819
463.5833, 1260.423
464.0654, 1253.937
464.5475, 1246.817
465.0297, 1239.728
465.5118, 1232.315
465.9939, 1225.942
466.4760, 1221.736
466.9581, 1217.505
467.4402, 1212.037
467.9224, 1205.390
468.4045, 1198.184
468.8866, 1190.709
469.3687, 1183.070
469.8508, 1175.583
470.3329, 1167.903
470.8151, 1160.970
471.2972, 1156.072
471.7793, 1151.128
472.2614, 1143.784
472.7435, 1133.953
473.2256, 1124.215
473.7078, 1117.531
474.1899, 1113.791
474.6720, 1109.269
475.1541, 1103.589
475.6362, 1097.664
476.1183, 1091.742
476.6005, 1085.888
477.0826, 1080.242
477.5647, 1074.813
478.0468, 1069.646
478.5289, 1065.079
479.0110, 1061.003
479.4932, 1055.973
479.9753, 1049.216
480.4574, 1042.066
480.9395, 1036.056
481.4216, 1031.068
481.9037, 1026.492
482.3859, 1022.831
482.8680, 1019.091
483.3501, 1013.819
483.8322, 1007.311
484.3143, 1001.597
484.7964, 997.8724
485.2786, 995.5620
485.7607, 992.9562
486.2428, 990.2878
486.7249, 986.9803
487.2070, 982.4372
487.6891, 977.5226
488.1713, 972.9435
488.6534, 968.8356
489.1355, 965.1284
489.6176, 961.7967
490.0997, 958.8134
490.5818, 956.0562
491.0640, 953.9744
491.5461, 951.5956
492.0282, 948.7990
492.5103, 945.6039
492.9924, 941.8881
493.4745, 937.6648
493.9567, 933.5045
494.4388, 930.2902
494.9209, 928.1695
495.4030, 925.4431
495.8851, 921.3807
496.3672, 917.5631
496.8494, 914.9877
497.3315, 913.1743
497.8136, 911.1898
498.2957, 908.7560
498.7778, 905.8887
499.2599, 902.3282
499.7421, 898.1282
500.2242, 894.4845
500.7063, 891.8642
501.1884, 889.7097
501.6705, 887.2091
502.1526, 884.3666
502.6348, 882.1213
503.1169, 881.1655
503.5990, 880.5632
504.0811, 879.7458
504.5632, 878.5447
505.0453, 876.2512
505.5274, 872.2444
506.0096, 867.2526
506.4917, 863.4572
506.9738, 861.1302
507.4559, 859.5598
507.9380, 859.8640
508.4201, 860.0881
508.9023, 858.2423
509.3844, 854.4912
509.8665, 850.6583
510.3486, 848.3014
510.8307, 847.1845
511.3128, 845.2607
511.7950, 841.6507
512.2771, 838.5398
512.7592, 836.8261
513.2413, 835.4111
513.7234, 833.0904
514.2056, 829.7090
514.6877, 826.4643
515.1698, 824.8587
515.6519, 824.6353
516.1340, 823.4096
516.6161, 820.9104
517.0983, 817.8253
517.5804, 813.9026
518.0625, 809.8310
518.5446, 806.7694
519.0267, 805.4760
519.5089, 803.9697
519.9910, 800.1678
520.4731, 795.0260
520.9552, 791.3362
521.4373, 789.8481
521.9194, 788.9548
522.4016, 787.0809
522.8837, 784.1705
523.3658, 781.4373
523.8479, 778.9265
524.3300, 776.5436
524.8121, 774.2656
525.2943, 772.0841
525.7764, 770.0057
526.2585, 768.0423
526.7406, 766.0665
527.2227, 763.9260
527.7048, 761.6381
528.1870, 759.1189
528.6691, 756.2966
529.1512, 753.3323
529.6333, 750.2977
530.1154, 747.1631
530.5975, 743.8983
531.0797, 740.4881
531.5618, 736.9330
532.0439, 733.1218
532.5260, 728.9906
533.0081, 725.0784
533.4902, 721.0574
533.9724, 717.7958
534.4545, 716.3353
534.9366, 716.1703
535.4187, 715.3940
535.9008, 712.9234
536.3829, 709.7695
536.8651, 706.8177
537.3472, 704.0970
537.8293, 701.9722
538.3114, 700.6056
538.7935, 699.8311
539.2756, 699.5035
539.7578, 699.7142
540.2399, 699.8599
540.7220, 700.2000
541.2041, 700.1876
541.6862, 699.3499
542.1683, 697.8351
542.6505, 696.0186
543.1326, 694.0729
543.6147, 692.1707
544.0968, 690.7426
544.5789, 689.9543
545.0610, 689.3329
545.5432, 688.2715
546.0253, 687.8831
546.5074, 689.2278
546.9895, 691.8054
547.4716, 694.2848
547.9537, 695.9350
548.4359, 696.8585
548.9180, 696.9774
549.4001, 696.0824
549.8822, 695.8436
550.3643, 696.8672
550.8464, 698.6110
551.3286, 700.4890
551.8107, 702.5006
552.2928, 704.7919
552.7749, 707.5006
553.2570, 710.4380
553.7391, 713.4743
554.2213, 716.5746
554.7034, 719.6237
555.1855, 722.6151
555.6676, 725.4330
556.1497, 727.7360
556.6318, 728.6673
557.1140, 731.1588
557.5961, 736.2863
558.0782, 742.1136
558.5603, 747.3421
559.0424, 752.1905
559.5245, 757.5842
560.0067, 764.1240
560.4888, 771.2081
560.9709, 777.2897
561.4530, 781.9698
561.9351, 786.7121
562.4172, 791.9366
562.8994, 797.0238
563.3815, 801.0821
563.8636, 804.6495
564.3457, 809.4186
564.8278, 817.0098
565.3099, 825.4021
565.7921, 831.2498
566.2742, 834.6718
566.7563, 838.2531
567.2384, 842.6028
567.7205, 847.7373
568.2026, 853.9922
568.6848, 861.3397
569.1669, 868.4513
569.6490, 875.4091
570.1311, 881.7992
570.6132, 886.9785
571.0953, 891.4117
571.5775, 896.3777
572.0596, 902.4053
572.5417, 908.9367
573.0238, 915.0167
573.5059, 920.7924
573.9880, 925.6798
574.4702, 929.8370
574.9523, 932.9928
575.4344, 934.9798
575.9165, 935.9026
576.3986, 935.9537
576.8807, 935.2442
577.3629, 933.5272
577.8450, 930.5870
578.3271, 926.4208
578.8092, 920.4373
579.2913, 912.0418
579.7734, 902.6956
580.2556, 892.7512
580.7377, 882.7442
581.2198, 873.9915
581.7019, 867.4958
582.1840, 861.3682
582.6661, 854.3586
583.1483, 846.8688
583.6304, 839.3998
584.1125, 832.0782
584.5946, 825.5255
585.0767, 820.3746
585.5588, 816.6670
586.0409, 813.5521
586.5230, 812.0784
587.0051, 809.8472
587.4872, 805.7836
587.9694, 800.9891
588.4515, 796.4713
