##NAMES=Vuonnemite
##RRUFFID=R050250
##IDEAL CHEMISTRY=Na_6_Na_2_Nb^5+^_2_Na_3_Ti^4+^(Si_2_O_7_)_2_(PO_4_)_2_O_2_(OF)
##LOCALITY=Mont Saint-Hilaire, Rouville County, Quebec, Canada
##OWNER=RRUFF
##SOURCE=Marcus Origlieri
##DESCRIPTION=Light yellow platy crystal, embedded in microcline.
##STATUS=The identification of this mineral has been confirmed only by single crystal X-ray diffraction.
##URL=rruff.info/R050250
93.74609, 23.51708
94.22821, 22.58541
94.71033, 23.02544
95.19244, 24.61502
95.67456, 26.45687
96.15668, 28.00090
96.63879, 29.45206
97.12091, 31.65187
97.60303, 34.73711
98.08514, 38.26550
98.56726, 41.40287
99.04938, 44.13246
99.53149, 47.19167
100.0136, 51.02673
100.4957, 55.63195
100.9778, 60.38231
101.4600, 65.10448
101.9421, 70.00758
102.4242, 75.54736
102.9063, 81.82497
103.3884, 88.58703
103.8705, 95.68509
104.3527, 103.4021
104.8348, 110.8363
105.3169, 117.8634
105.7990, 124.4932
106.2811, 131.6213
106.7632, 139.5230
107.2454, 147.5959
107.7275, 155.2343
108.2096, 162.6177
108.6917, 169.4375
109.1738, 175.4770
109.6559, 180.6156
110.1381, 186.1043
110.6202, 192.1867
111.1023, 198.5719
111.5844, 204.9626
112.0665, 210.2265
112.5486, 216.6181
113.0308, 225.0565
113.5129, 236.4878
113.9950, 247.2450
114.4771, 256.0739
114.9592, 264.0191
115.4413, 272.8072
115.9235, 283.4064
116.4056, 294.4840
116.8877, 305.3627
117.3698, 316.3101
117.8519, 326.7096
118.3340, 336.2075
118.8162, 344.9918
119.2983, 353.4878
119.7804, 362.2116
120.2625, 370.6646
120.7446, 378.3622
121.2267, 385.0227
121.7089, 391.2618
122.1910, 397.2932
122.6731, 403.1631
123.1552, 409.0777
123.6373, 415.8410
124.1194, 422.5095
124.6016, 427.9149
125.0837, 430.2706
125.5658, 432.2387
126.0479, 436.6401
126.5300, 443.3846
127.0121, 450.9528
127.4943, 458.2408
127.9764, 465.3824
128.4585, 472.8949
128.9406, 481.0688
129.4227, 489.6336
129.9048, 498.0652
130.3869, 506.3564
130.8691, 514.5866
131.3512, 523.0108
131.8333, 531.5402
132.3154, 539.6807
132.7975, 546.9286
133.2796, 553.5332
133.7618, 560.3082
134.2439, 566.1371
134.7260, 569.2040
135.2081, 570.3959
135.6902, 571.0470
136.1723, 571.9446
136.6545, 573.7243
137.1366, 576.3710
137.6187, 578.2887
138.1008, 579.1969
138.5829, 579.7010
139.0650, 581.4365
139.5472, 584.9193
140.0293, 587.6486
140.5114, 587.7195
140.9935, 584.2292
141.4756, 582.7783
141.9577, 584.4324
142.4399, 588.1017
142.9220, 589.6534
143.4041, 588.2442
143.8862, 586.3159
144.3683, 585.3359
144.8504, 585.5820
145.3326, 586.0843
145.8147, 586.6960
146.2968, 587.4500
146.7789, 588.6876
147.2610, 591.0335
147.7431, 593.2396
148.2253, 594.3503
148.7074, 592.9189
149.1895, 592.4744
149.6716, 593.7823
150.1537, 596.8757
150.6358, 599.5057
151.1180, 601.3860
151.6001, 602.9528
152.0822, 604.5449
152.5643, 606.5215
153.0464, 608.1600
153.5285, 609.5623
154.0107, 610.8353
154.4928, 610.9490
154.9749, 608.6893
155.4570, 605.7294
155.9391, 603.7285
156.4212, 603.6332
156.9034, 603.7825
157.3855, 603.8194
157.8676, 603.7538
158.3497, 603.3746
158.8318, 601.9141
159.3139, 600.2990
159.7961, 599.6968
160.2782, 601.6835
160.7603, 603.6736
161.2424, 604.3582
161.7245, 603.1266
162.2066, 602.4276
162.6888, 603.3734
163.1709, 605.3347
163.6530, 607.2961
164.1351, 608.9150
164.6172, 610.3969
165.0993, 611.7969
165.5815, 613.0294
166.0636, 614.4707
166.5457, 616.2577
167.0278, 618.3934
167.5099, 620.8859
167.9921, 624.1445
168.4742, 627.5432
168.9563, 630.5181
169.4384, 632.7799
169.9205, 635.1112
170.4026, 638.3472
170.8848, 642.1461
171.3669, 645.5278
171.8490, 647.9838
172.3311, 649.7468
172.8132, 651.0988
173.2953, 652.2321
173.7775, 652.7317
174.2596, 652.3820
174.7417, 651.1459
175.2238, 648.8476
175.7059, 644.9242
176.1880, 639.9961
176.6702, 634.8952
177.1523, 629.6233
177.6344, 624.4689
178.1165, 619.8406
178.5986, 615.6300
179.0807, 611.4952
179.5629, 607.0677
180.0450, 602.4882
180.5271, 598.0833
181.0092, 593.7889
181.4913, 589.7914
181.9734, 586.3372
182.4556, 583.4351
182.9377, 581.1928
183.4198, 580.3318
183.9019, 580.2766
184.3840, 579.1824
184.8661, 575.7881
185.3483, 571.7368
185.8304, 570.5381
186.3125, 572.2151
186.7946, 574.2021
187.2767, 574.0577
187.7588, 572.2071
188.2409, 570.5522
188.7231, 569.3503
189.2052, 568.7799
189.6873, 569.6269
190.1694, 571.9955
190.6515, 574.5109
191.1336, 575.6124
191.6158, 575.4824
192.0979, 575.8212
192.5800, 577.3609
193.0621, 579.6628
193.5442, 581.1089
194.0263, 581.6202
194.5085, 581.8499
194.9906, 582.4965
195.4727, 583.5461
195.9548, 584.4941
196.4369, 585.0947
196.9190, 585.4734
197.4012, 586.3154
197.8833, 587.7010
198.3654, 589.2352
198.8475, 590.5585
199.3296, 591.6918
199.8117, 592.3949
200.2939, 592.4486
200.7760, 591.9658
201.2581, 591.7834
201.7402, 591.9229
202.2223, 592.3066
202.7044, 592.9757
203.1866, 593.9952
203.6687, 594.7123
204.1508, 594.6863
204.6329, 594.0233
205.1150, 594.4791
205.5971, 596.3076
206.0793, 598.6993
206.5614, 600.6702
207.0435, 602.0555
207.5256, 603.7286
208.0077, 605.9353
208.4898, 608.6649
208.9720, 611.5314
209.4541, 614.4092
209.9362, 617.6258
210.4183, 621.8972
210.9004, 627.7269
211.3825, 632.6662
211.8647, 635.9932
212.3468, 637.6882
212.8289, 639.1339
213.3110, 640.3881
213.7931, 641.3215
214.2752, 641.7750
214.7574, 641.7438
215.2395, 641.2917
215.7216, 640.4767
216.2037, 639.3229
216.6858, 637.3828
217.1679, 634.1591
217.6501, 630.7746
218.1322, 628.6490
218.6143, 628.1453
219.0964, 627.9352
219.5785, 627.7794
220.0606, 627.6846
220.5428, 627.3183
221.0249, 626.4146
221.5070, 625.5336
221.9891, 625.3314
222.4712, 625.9201
222.9533, 626.9285
223.4355, 628.3123
223.9176, 630.1071
224.3997, 631.9597
224.8818, 633.9329
225.3639, 635.9191
225.8460, 637.8049
226.3282, 639.4421
226.8103, 641.3137
227.2924, 643.7052
227.7745, 646.7248
228.2566, 648.7335
228.7387, 649.2928
229.2209, 649.3078
229.7030, 649.7362
230.1851, 650.8365
230.6672, 651.8569
231.1493, 652.7390
231.6314, 653.4958
232.1136, 653.5770
232.5957, 652.4146
233.0778, 651.1681
233.5599, 651.0995
234.0420, 652.9785
234.5241, 654.5121
235.0063, 655.1874
235.4884, 654.9968
235.9705, 654.8027
236.4526, 654.3817
236.9347, 654.1874
237.4168, 654.5768
237.8990, 655.3661
238.3811, 657.1464
238.8632, 660.5516
239.3453, 665.5566
239.8274, 668.7720
240.3095, 669.2136
240.7917, 668.9913
241.2738, 669.9729
241.7559, 673.0446
242.2380, 675.4750
242.7201, 676.3060
243.2022, 675.7361
243.6844, 677.2247
244.1665, 681.9552
244.6486, 687.3800
245.1307, 691.4807
245.6128, 693.4965
246.0949, 695.7725
246.5771, 698.6512
247.0592, 702.0812
247.5413, 705.4437
248.0234, 708.1835
248.5055, 711.5234
248.9876, 716.5165
249.4697, 724.4921
249.9519, 731.1452
250.4340, 735.4277
250.9161, 737.8592
251.3982, 741.6503
251.8803, 747.0643
252.3624, 753.3996
252.8446, 760.3420
253.3267, 768.5972
253.8088, 775.7659
254.2909, 781.1686
254.7730, 785.3650
255.2551, 790.6546
255.7373, 797.5533
256.2194, 804.7018
256.7015, 811.1502
257.1836, 816.3775
257.6657, 822.4670
258.1479, 829.8116
258.6300, 838.0004
259.1121, 846.0329
259.5942, 854.0266
260.0763, 861.7213
260.5584, 869.1248
261.0406, 876.0858
261.5227, 883.0685
262.0048, 890.3524
262.4869, 897.5093
262.9690, 903.6036
263.4511, 908.2020
263.9333, 912.5757
264.4154, 917.4229
264.8975, 923.2120
265.3796, 927.8297
265.8617, 931.4498
266.3438, 933.7892
266.8260, 934.0905
267.3081, 931.6832
267.7902, 929.0331
268.2723, 927.4391
268.7544, 927.2682
269.2365, 925.1029
269.7187, 920.2535
270.2008, 914.3076
270.6829, 909.7728
271.1650, 906.9388
271.6471, 904.5059
272.1292, 902.0545
272.6114, 899.5695
273.0935, 897.6234
273.5756, 896.2546
274.0577, 895.3867
274.5398, 894.9385
275.0219, 894.9265
275.5041, 895.2562
275.9862, 895.9515
276.4683, 896.9904
276.9504, 898.0967
277.4325, 899.2538
277.9146, 900.5156
278.3968, 901.7725
278.8788, 902.9342
279.3610, 904.8912
279.8431, 908.0387
280.3252, 912.1392
280.8073, 916.1639
281.2894, 920.1208
281.7715, 923.9788
282.2537, 927.6459
282.7358, 931.1166
283.2179, 934.7770
283.7000, 938.9113
284.1821, 943.1715
284.6642, 946.3458
285.1464, 948.3890
285.6285, 949.8940
286.1106, 950.8459
286.5927, 951.3500
287.0748, 953.1461
287.5569, 956.9482
288.0391, 961.5695
288.5212, 964.3094
289.0033, 965.1720
289.4854, 965.4474
289.9675, 966.0988
290.4496, 966.9550
290.9318, 966.8734
291.4139, 965.5826
291.8960, 963.7502
292.3781, 962.4883
292.8602, 961.7350
293.3423, 960.9330
293.8245, 959.6821
294.3066, 958.1308
294.7887, 956.7991
295.2708, 955.7698
295.7529, 954.7528
296.2350, 953.2471
296.7172, 951.3763
297.1993, 949.7155
297.6814, 948.5315
298.1635, 947.7197
298.6456, 947.1787
299.1277, 946.9279
299.6099, 946.6361
300.0920, 945.5492
300.5741, 944.1105
301.0562, 943.5535
301.5383, 944.8925
302.0204, 947.0609
302.5026, 948.2067
302.9847, 948.4024
303.4668, 949.1078
303.9489, 952.1516
304.4310, 956.4211
304.9131, 960.0666
305.3953, 962.3466
305.8774, 963.9266
306.3595, 965.3240
306.8416, 966.5511
307.3237, 967.7109
307.8058, 969.1519
308.2880, 970.4572
308.7701, 971.1442
309.2522, 971.1622
309.7343, 970.4750
310.2164, 968.8273
310.6985, 966.4160
311.1807, 963.8281
311.6628, 961.8731
312.1449, 959.5964
312.6270, 956.1524
313.1091, 951.2451
313.5912, 945.7167
314.0734, 939.5920
314.5555, 933.1652
315.0376, 926.9313
315.5197, 921.1829
316.0018, 915.5672
316.4839, 910.1579
316.9661, 905.0051
317.4482, 899.3146
317.9303, 892.2774
318.4124, 884.6915
318.8945, 877.3990
319.3766, 870.2650
319.8588, 863.9125
320.3409, 859.1043
320.8230, 855.7986
321.3051, 852.0488
321.7872, 846.9145
322.2693, 841.3378
322.7515, 836.0612
323.2336, 831.4929
323.7157, 826.9760
324.1978, 821.8677
324.6799, 816.4938
325.1620, 812.4749
325.6442, 811.5109
326.1263, 810.9033
326.6084, 809.2308
327.0905, 804.8691
327.5726, 801.4836
328.0547, 799.9655
328.5369, 799.6179
329.0190, 798.5554
329.5011, 796.0167
329.9832, 793.4785
330.4653, 791.4176
330.9474, 789.9429
331.4296, 788.6808
331.9117, 787.4280
332.3938, 786.4990
332.8759, 786.4766
333.3580, 788.7083
333.8401, 789.7888
334.3223, 788.3533
334.8044, 784.0303
335.2865, 781.4885
335.7686, 781.4492
336.2507, 782.3967
336.7328, 782.8298
337.2150, 782.3978
337.6971, 782.3940
338.1792, 783.1404
338.6613, 784.5036
339.1434, 785.7505
339.6255, 786.9079
340.1077, 787.8753
340.5898, 788.6017
341.0719, 789.0713
341.5540, 789.2819
342.0361, 789.1816
342.5182, 788.8646
343.0004, 788.4042
343.4825, 787.7260
343.9646, 787.4451
344.4467, 788.2097
344.9288, 789.8906
345.4109, 790.8846
345.8931, 791.0811
346.3752, 790.7441
346.8573, 789.9029
347.3394, 788.6337
347.8215, 787.9564
348.3036, 788.2755
348.7858, 789.4982
349.2679, 791.7117
349.7500, 794.9683
350.2321, 798.0692
350.7142, 799.4675
351.1964, 799.7094
351.6785, 800.4174
352.1606, 802.2225
352.6427, 804.5347
353.1248, 806.7499
353.6069, 808.8510
354.0891, 810.5950
354.5712, 811.5546
355.0533, 812.1371
355.5354, 812.9035
356.0175, 813.9343
356.4996, 815.2408
356.9818, 817.1344
357.4639, 819.3495
357.9460, 821.2451
358.4281, 822.9064
358.9102, 823.8679
359.3923, 823.3011
359.8745, 820.9288
360.3566, 818.9982
360.8387, 819.3532
361.3208, 820.7199
361.8029, 821.5236
362.2850, 821.0498
362.7672, 820.0260
363.2493, 818.6234
363.7314, 816.8658
364.2135, 815.0098
364.6956, 812.6806
365.1777, 810.5651
365.6599, 809.1674
366.1420, 809.4688
366.6241, 809.4069
367.1062, 808.5861
367.5883, 807.1400
368.0704, 805.4485
368.5526, 802.4981
369.0347, 800.2277
369.5168, 799.4905
369.9989, 801.1028
370.4810, 802.4249
370.9631, 803.5362
371.4453, 804.3433
371.9274, 804.6243
372.4095, 803.3976
372.8916, 803.1077
373.3737, 804.5800
373.8558, 807.8948
374.3380, 810.4592
374.8201, 811.5623
375.3022, 812.9066
375.7843, 815.9991
376.2664, 821.3427
376.7485, 826.8776
377.2307, 832.3488
377.7128, 837.8209
378.1949, 843.5155
378.6770, 849.4577
379.1591, 855.3174
379.6412, 860.3827
380.1234, 864.6744
380.6055, 870.9421
381.0876, 879.7532
381.5697, 889.3421
382.0518, 896.9127
382.5339, 902.5427
383.0161, 908.7696
383.4982, 916.9967
383.9803, 926.4874
384.4624, 934.7920
384.9445, 941.8873
385.4266, 948.5783
385.9088, 955.4906
386.3909, 962.6127
386.8730, 970.0484
387.3551, 978.2471
387.8372, 986.2980
388.3193, 992.5118
388.8015, 997.4183
389.2836, 1003.169
389.7657, 1012.252
390.2478, 1022.330
390.7299, 1030.613
391.2120, 1036.451
391.6942, 1041.721
392.1763, 1047.828
392.6584, 1054.101
393.1405, 1059.587
393.6226, 1063.321
394.1047, 1066.647
394.5869, 1071.027
395.0690, 1076.364
395.5511, 1079.142
396.0332, 1076.436
396.5153, 1071.586
396.9974, 1067.137
397.4796, 1064.409
397.9617, 1061.181
398.4438, 1057.391
398.9259, 1052.871
399.4080, 1047.085
399.8901, 1038.443
400.3723, 1029.862
400.8544, 1022.424
401.3365, 1016.254
401.8186, 1010.709
402.3007, 1005.431
402.7828, 1000.984
403.2649, 998.1270
403.7470, 997.3854
404.2292, 997.2589
404.7113, 997.6293
405.1934, 998.4371
405.6755, 998.6995
406.1576, 997.7739
406.6397, 997.7380
407.1219, 1000.262
407.6040, 1005.576
408.0861, 1011.661
408.5682, 1018.565
409.0503, 1025.890
409.5324, 1033.035
410.0146, 1039.993
410.4967, 1047.393
410.9788, 1055.506
411.4609, 1064.265
411.9430, 1073.886
412.4251, 1084.514
412.9073, 1095.290
413.3894, 1105.966
413.8715, 1116.376
414.3536, 1125.781
414.8357, 1133.552
415.3178, 1140.820
415.8000, 1149.399
416.2821, 1158.929
416.7642, 1167.391
417.2463, 1173.839
417.7284, 1178.449
418.2105, 1181.203
418.6927, 1182.019
419.1748, 1181.534
419.6569, 1179.957
420.1390, 1177.395
420.6211, 1174.072
421.1032, 1170.155
421.5854, 1165.396
422.0675, 1159.966
422.5496, 1153.790
423.0317, 1146.030
423.5138, 1133.347
423.9959, 1120.964
424.4781, 1112.146
424.9602, 1111.416
425.4423, 1109.191
425.9244, 1103.235
426.4065, 1095.448
426.8886, 1090.100
427.3708, 1088.891
427.8529, 1087.918
428.3350, 1085.681
428.8171, 1081.722
429.2992, 1079.936
429.7813, 1081.338
430.2635, 1083.574
430.7456, 1084.057
431.2277, 1082.094
431.7098, 1081.443
432.1919, 1083.344
432.6740, 1086.626
433.1562, 1087.534
433.6383, 1085.900
434.1204, 1083.217
434.6025, 1079.498
435.0846, 1075.169
435.5667, 1073.381
436.0489, 1074.673
436.5310, 1076.469
437.0131, 1075.078
437.4952, 1071.424
437.9773, 1068.735
438.4594, 1069.127
438.9416, 1070.396
439.4237, 1068.930
439.9058, 1065.208
440.3879, 1062.515
440.8700, 1063.983
441.3521, 1067.134
441.8343, 1069.318
442.3164, 1069.835
442.7985, 1070.055
443.2806, 1070.425
443.7627, 1071.075
444.2448, 1072.223
444.7270, 1074.785
445.2091, 1077.049
445.6912, 1078.291
446.1733, 1078.473
446.6554, 1078.287
447.1375, 1077.450
447.6197, 1076.544
448.1018, 1075.937
448.5839, 1076.351
449.0660, 1076.163
449.5481, 1075.876
450.0302, 1074.882
450.5124, 1071.830
450.9945, 1066.462
451.4766, 1059.571
451.9587, 1051.171
452.4408, 1041.123
452.9229, 1031.047
453.4051, 1020.893
453.8872, 1010.501
454.3693, 999.7361
454.8514, 988.5753
455.3335, 976.4086
455.8156, 962.7425
456.2978, 948.3672
456.7799, 934.8771
457.2620, 922.0974
457.7441, 909.3426
458.2262, 895.3743
458.7083, 881.2531
459.1905, 869.3032
459.6726, 859.7289
460.1547, 850.5594
460.6368, 839.5104
461.1189, 827.7987
461.6010, 817.6512
462.0832, 810.3887
462.5653, 803.9348
463.0474, 797.1471
463.5295, 790.0329
464.0116, 782.7664
464.4937, 774.7995
464.9759, 767.2578
465.4580, 760.8920
465.9401, 755.8823
466.4222, 751.5164
466.9043, 748.4047
467.3864, 745.5274
467.8686, 741.9237
468.3507, 736.3989
468.8328, 731.4465
469.3149, 727.3900
469.7970, 724.1083
470.2791, 721.0354
470.7613, 717.9388
471.2434, 715.4514
471.7255, 713.9462
472.2076, 713.5829
472.6897, 713.2332
473.1718, 712.9786
473.6540, 712.5587
474.1361, 711.4689
474.6182, 709.6559
475.1003, 708.3817
475.5824, 708.1563
476.0645, 708.3855
476.5467, 707.6666
477.0288, 706.0447
477.5109, 704.1670
477.9930, 702.1306
478.4751, 700.1769
478.9572, 698.8925
479.4394, 698.3584
479.9215, 697.9514
480.4036, 696.8284
480.8857, 695.5593
481.3678, 695.0568
481.8499, 696.5187
482.3321, 697.8199
482.8142, 697.2858
483.2963, 695.4818
483.7784, 694.1533
484.2605, 694.3654
484.7426, 694.9202
485.2248, 695.2375
485.7069, 695.1946
486.1890, 695.2294
486.6711, 695.2606
487.1532, 695.4827
487.6353, 696.0850
488.1175, 697.3109
488.5996, 698.5109
489.0817, 699.6133
489.5638, 700.6338
490.0459, 701.6343
490.5280, 702.5344
491.0102, 703.5927
491.4923, 705.0302
491.9744, 706.8586
492.4565, 708.1258
492.9386, 708.6673
493.4207, 709.3075
493.9029, 711.2786
494.3850, 714.3063
494.8671, 716.4173
495.3492, 716.8359
495.8313, 716.8027
496.3134, 718.5448
496.7956, 721.5815
497.2777, 724.1264
497.7598, 725.0462
498.2419, 725.0607
498.7240, 724.4412
499.2061, 723.2268
499.6883, 722.9320
500.1704, 725.0058
500.6525, 728.1570
501.1346, 731.1969
501.6167, 733.9772
502.0988, 736.4801
502.5810, 738.6759
503.0631, 740.5938
503.5452, 742.2554
504.0273, 743.1367
504.5094, 744.2507
504.9915, 745.9374
505.4737, 748.2043
505.9558, 750.1225
506.4379, 751.4217
506.9200, 752.6902
507.4021, 754.5635
507.8842, 757.4730
508.3664, 758.9156
508.8485, 758.3323
509.3306, 756.9650
509.8127, 756.8109
510.2948, 757.8641
510.7769, 759.4861
511.2591, 761.7672
511.7412, 764.3190
512.2233, 766.0555
512.7054, 767.0570
513.1875, 768.0179
513.6696, 769.2455
514.1517, 770.8096
514.6339, 772.9256
515.1160, 775.7438
515.5981, 778.5057
516.0802, 780.3661
516.5623, 781.9559
517.0444, 784.1221
517.5266, 787.5254
518.0087, 791.1395
518.4908, 794.9240
518.9729, 798.7044
519.4550, 801.7646
519.9371, 802.7470
520.4193, 804.0626
520.9014, 806.7482
521.3835, 811.2430
521.8656, 815.2589
522.3477, 818.6878
522.8298, 821.7596
523.3120, 824.7487
523.7941, 827.6769
524.2762, 830.2186
524.7583, 832.3538
525.2404, 834.0644
525.7225, 835.1418
526.2047, 835.6017
526.6868, 836.0233
527.1689, 837.0383
527.6510, 838.1697
528.1331, 838.0464
528.6152, 836.6974
529.0974, 835.0118
529.5795, 833.4047
530.0616, 831.9803
530.5437, 831.0328
531.0258, 830.8714
531.5079, 830.4117
531.9901, 828.8451
532.4722, 826.5563
532.9543, 824.1688
533.4364, 821.7360
533.9185, 819.3487
534.4006, 816.9862
534.8828, 814.6710
535.3649, 812.4283
535.8470, 810.0693
536.3291, 808.0101
536.8112, 806.6481
537.2933, 806.4890
537.7755, 804.8230
538.2576, 800.7789
538.7397, 796.4512
539.2218, 794.4768
539.7039, 795.1349
540.1860, 795.3848
540.6682, 794.4805
541.1503, 793.1400
541.6324, 793.0625
542.1145, 794.1082
542.5966, 794.8584
543.0787, 794.0074
543.5609, 792.6201
544.0430, 792.6553
544.5251, 794.0569
545.0072, 795.4422
545.4893, 795.8548
545.9714, 795.7364
546.4536, 795.3884
546.9357, 794.5150
547.4178, 794.3774
547.8999, 795.9487
548.3820, 798.4301
548.8641, 800.7189
549.3463, 802.0679
549.8284, 803.7935
550.3105, 806.0502
550.7926, 808.8640
551.2747, 812.3969
551.7568, 817.1388
552.2390, 821.8831
552.7211, 825.9822
553.2032, 829.3258
553.6853, 833.3484
554.1674, 838.1281
554.6495, 843.3430
555.1317, 848.6223
555.6138, 853.9571
556.0959, 859.9064
556.5780, 866.5364
557.0601, 873.9082
557.5422, 881.9384
558.0244, 890.7639
558.5065, 900.8096
558.9886, 912.3693
559.4707, 925.1032
559.9528, 938.2817
560.4349, 952.1182
560.9171, 967.6324
561.3992, 986.2717
561.8813, 1006.078
562.3634, 1025.409
562.8455, 1043.561
563.3276, 1063.416
563.8098, 1086.879
564.2919, 1111.378
564.7740, 1134.781
565.2561, 1155.951
565.7382, 1178.244
566.2203, 1201.848
566.7025, 1227.204
567.1846, 1254.488
567.6667, 1283.949
568.1488, 1315.376
568.6309, 1348.533
569.1130, 1383.562
569.5952, 1419.095
570.0773, 1455.639
570.5594, 1494.814
571.0415, 1539.653
571.5236, 1588.407
572.0057, 1637.623
572.4879, 1687.308
572.9700, 1737.832
573.4521, 1790.037
573.9342, 1843.301
574.4163, 1896.162
574.8984, 1951.037
575.3806, 2002.029
575.8627, 2048.753
576.3448, 2090.647
576.8269, 2126.648
577.3090, 2161.636
577.7911, 2185.548
578.2733, 2196.053
578.7554, 2193.042
579.2375, 2178.276
579.7196, 2150.866
580.2017, 2114.036
580.6838, 2068.116
581.1660, 2013.446
581.6481, 1958.323
582.1302, 1903.117
582.6123, 1848.747
583.0944, 1796.721
583.5765, 1747.027
584.0587, 1699.337
584.5408, 1654.078
585.0229, 1610.727
585.5050, 1568.654
585.9871, 1527.926
586.4692, 1489.432
586.9514, 1453.496
587.4335, 1419.452
587.9156, 1386.843
588.3977, 1355.770
588.8798, 1328.058
589.3619, 1306.925
589.8441, 1286.863
