##NAMES=Vuonnemite
##RRUFFID=R080015
##IDEAL CHEMISTRY=Na_6_Na_2_Nb^5+^_2_Na_3_Ti^4+^(Si_2_O_7_)_2_(PO_4_)_2_O_2_(OF)
##LOCALITY=Kedykevrpahkh Mt., Lovozero Massif, Kola Peninsula, Russia
##OWNER=RRUFF
##SOURCE=Michael Scott
##DESCRIPTION=Yellow scale of platy crystals associated with microcline, pale pink elogated serandite, natrolite, and light brown platy manaksite.
##STATUS=The identification of this mineral has been confirmed only by single crystal X-ray diffraction.
##URL=rruff.info/R080015
89.78320, 1480.626
90.26532, 1471.698
90.74744, 1471.925
91.22955, 1484.951
91.71167, 1503.692
92.19379, 1519.847
92.67590, 1534.212
93.15802, 1545.193
93.64014, 1549.054
94.12225, 1548.525
94.60437, 1550.782
95.08649, 1558.979
95.56860, 1569.768
96.05072, 1576.866
96.53284, 1581.425
97.01495, 1585.272
97.49707, 1589.072
97.97919, 1592.764
98.46130, 1598.443
98.94342, 1607.421
99.42554, 1619.388
99.90765, 1629.960
100.3898, 1639.094
100.8719, 1647.295
101.3540, 1654.922
101.8361, 1661.575
102.3182, 1669.229
102.8004, 1679.475
103.2825, 1693.693
103.7646, 1704.262
104.2467, 1709.258
104.7288, 1711.760
105.2109, 1718.811
105.6931, 1730.965
106.1752, 1746.620
106.6573, 1765.366
107.1394, 1788.015
107.6215, 1812.146
108.1036, 1838.474
108.5858, 1866.544
109.0679, 1893.542
109.5500, 1918.317
110.0321, 1943.109
110.5142, 1968.932
110.9963, 1994.790
111.4785, 2022.826
111.9606, 2054.135
112.4427, 2088.590
112.9248, 2122.098
113.4069, 2155.294
113.8890, 2186.765
114.3712, 2215.764
114.8533, 2242.722
115.3354, 2266.536
115.8175, 2286.872
116.2996, 2304.039
116.7817, 2317.888
117.2639, 2327.071
117.7460, 2333.477
118.2281, 2339.488
118.7102, 2347.996
119.1923, 2354.986
119.6744, 2357.677
120.1566, 2355.313
120.6387, 2350.746
121.1208, 2343.465
121.6029, 2335.129
122.0850, 2329.220
122.5671, 2328.757
123.0493, 2330.937
123.5314, 2332.709
124.0135, 2333.025
124.4956, 2334.051
124.9777, 2338.384
125.4598, 2345.339
125.9420, 2352.429
126.4241, 2356.590
126.9062, 2359.887
127.3883, 2366.778
127.8704, 2380.115
128.3525, 2394.821
128.8347, 2403.307
129.3168, 2405.752
129.7989, 2405.236
130.2810, 2405.877
130.7631, 2406.195
131.2452, 2399.749
131.7274, 2383.110
132.2095, 2359.553
132.6916, 2337.587
133.1737, 2317.235
133.6558, 2297.402
134.1379, 2275.184
134.6201, 2250.687
135.1022, 2229.823
135.5843, 2214.939
136.0664, 2205.458
136.5485, 2197.837
137.0306, 2192.208
137.5128, 2188.077
137.9949, 2184.747
138.4770, 2182.208
138.9591, 2180.462
139.4412, 2179.734
139.9233, 2180.126
140.4055, 2179.671
140.8876, 2177.575
141.3697, 2175.371
141.8518, 2175.939
142.3339, 2180.562
142.8160, 2184.978
143.2982, 2187.567
143.7803, 2187.690
144.2624, 2187.949
144.7445, 2188.508
145.2266, 2189.160
145.7087, 2189.399
146.1909, 2189.044
146.6730, 2188.559
147.1551, 2188.025
147.6372, 2186.517
148.1193, 2186.620
148.6014, 2189.033
149.0836, 2193.177
149.5657, 2197.142
150.0478, 2201.049
150.5299, 2204.608
151.0120, 2207.705
151.4941, 2207.928
151.9763, 2210.436
152.4584, 2216.379
152.9405, 2225.084
153.4226, 2233.293
153.9047, 2242.554
154.3868, 2250.070
154.8690, 2254.319
155.3511, 2250.487
155.8332, 2248.305
156.3153, 2250.705
156.7974, 2256.974
157.2795, 2261.222
157.7617, 2258.136
158.2438, 2254.745
158.7259, 2256.129
159.2080, 2268.458
159.6901, 2280.969
160.1722, 2291.106
160.6544, 2298.822
161.1365, 2304.261
161.6186, 2305.667
162.1007, 2305.541
162.5828, 2306.216
163.0649, 2307.740
163.5471, 2310.756
164.0292, 2316.692
164.5113, 2325.570
164.9934, 2332.862
165.4755, 2334.476
165.9576, 2333.654
166.4398, 2334.387
166.9219, 2338.658
167.4040, 2344.654
167.8861, 2351.151
168.3682, 2358.090
168.8503, 2365.965
169.3325, 2375.992
169.8146, 2387.129
170.2967, 2397.535
170.7788, 2404.965
171.2609, 2412.297
171.7430, 2422.840
172.2252, 2437.278
172.7073, 2451.162
173.1894, 2461.762
173.6715, 2469.249
174.1536, 2473.740
174.6357, 2473.705
175.1179, 2471.524
175.6000, 2469.933
176.0821, 2469.183
176.5642, 2468.914
177.0463, 2469.513
177.5284, 2470.484
178.0106, 2470.302
178.4927, 2467.065
178.9748, 2462.395
179.4569, 2458.979
179.9390, 2457.044
180.4211, 2456.417
180.9033, 2456.655
181.3854, 2457.923
181.8675, 2460.883
182.3496, 2466.301
182.8317, 2473.665
183.3138, 2482.337
183.7960, 2492.480
184.2781, 2503.030
184.7602, 2512.366
185.2423, 2520.620
185.7244, 2528.214
186.2065, 2535.778
186.6887, 2542.991
187.1708, 2548.293
187.6529, 2550.701
188.1350, 2552.776
188.6171, 2558.915
189.0992, 2569.101
189.5814, 2580.962
190.0635, 2593.143
190.5456, 2605.865
191.0277, 2619.427
191.5098, 2634.005
191.9919, 2649.382
192.4741, 2664.929
192.9562, 2680.594
193.4383, 2696.296
193.9204, 2711.878
194.4025, 2727.327
194.8846, 2742.669
195.3668, 2758.208
195.8489, 2773.291
196.3310, 2786.653
196.8131, 2798.363
197.2952, 2807.727
197.7773, 2814.907
198.2595, 2819.908
198.7416, 2820.222
199.2237, 2814.881
199.7058, 2805.252
200.1879, 2794.269
200.6700, 2781.303
201.1522, 2769.464
201.6343, 2761.082
202.1164, 2756.425
202.5985, 2752.546
203.0806, 2748.944
203.5627, 2746.005
204.0449, 2744.897
204.5270, 2745.521
205.0091, 2748.242
205.4912, 2752.937
205.9733, 2759.284
206.4554, 2769.621
206.9376, 2784.836
207.4197, 2804.014
207.9018, 2824.311
208.3839, 2845.616
208.8660, 2868.465
209.3481, 2893.272
209.8303, 2920.615
210.3124, 2948.011
210.7945, 2975.196
211.2766, 3002.195
211.7587, 3031.673
212.2408, 3067.387
212.7230, 3097.799
213.2051, 3115.185
213.6872, 3117.421
214.1693, 3113.612
214.6514, 3104.284
215.1335, 3089.502
215.6157, 3069.762
216.0978, 3043.358
216.5799, 3014.655
217.0620, 2985.947
217.5441, 2956.888
218.0262, 2928.223
218.5084, 2898.649
218.9905, 2869.092
219.4726, 2845.942
219.9547, 2830.638
220.4368, 2818.689
220.9189, 2807.187
221.4011, 2794.848
221.8832, 2786.492
222.3653, 2783.852
222.8474, 2785.565
223.3295, 2784.586
223.8116, 2777.793
224.2938, 2773.279
224.7759, 2776.885
225.2580, 2793.217
225.7401, 2806.224
226.2222, 2813.470
226.7043, 2816.506
227.1865, 2822.635
227.6686, 2834.104
228.1507, 2845.092
228.6328, 2851.395
229.1149, 2849.009
229.5970, 2851.668
230.0792, 2862.800
230.5613, 2879.604
231.0434, 2890.336
231.5255, 2891.850
232.0076, 2891.865
232.4897, 2894.651
232.9719, 2902.139
233.4540, 2908.064
233.9361, 2911.409
234.4182, 2913.147
234.9003, 2916.745
235.3824, 2922.989
235.8646, 2929.972
236.3467, 2936.645
236.8288, 2942.217
237.3109, 2949.232
237.7930, 2958.301
238.2751, 2968.731
238.7573, 2978.300
239.2394, 2987.139
239.7215, 2994.798
240.2036, 3000.693
240.6857, 3002.750
241.1678, 3007.673
241.6500, 3016.141
242.1321, 3027.206
242.6142, 3039.020
243.0963, 3052.931
243.5784, 3065.477
244.0605, 3074.386
244.5427, 3076.553
245.0248, 3083.305
245.5069, 3095.696
245.9890, 3112.356
246.4711, 3130.451
246.9532, 3151.834
247.4354, 3171.936
247.9175, 3188.106
248.3996, 3197.994
248.8817, 3212.320
249.3638, 3233.301
249.8459, 3257.543
250.3281, 3278.629
250.8102, 3295.025
251.2923, 3311.098
251.7744, 3328.610
252.2565, 3347.861
252.7386, 3366.759
253.2208, 3385.526
253.7029, 3403.774
254.1850, 3420.870
254.6671, 3435.426
255.1492, 3451.576
255.6313, 3470.901
256.1135, 3493.898
256.5956, 3515.769
257.0777, 3535.629
257.5598, 3554.811
258.0419, 3575.600
258.5240, 3599.682
259.0062, 3620.847
259.4883, 3636.766
259.9704, 3646.756
260.4525, 3658.379
260.9346, 3674.197
261.4167, 3688.334
261.8989, 3693.401
262.3810, 3686.853
262.8631, 3678.110
263.3452, 3669.821
263.8273, 3661.885
264.3094, 3649.951
264.7916, 3633.836
265.2737, 3613.963
265.7558, 3589.101
266.2379, 3556.882
266.7200, 3528.452
267.2021, 3507.450
267.6843, 3492.758
268.1664, 3471.814
268.6485, 3442.567
269.1306, 3411.347
269.6127, 3383.861
270.0948, 3360.950
270.5770, 3337.927
271.0591, 3313.382
271.5412, 3288.322
272.0233, 3267.683
272.5054, 3252.990
272.9875, 3239.313
273.4697, 3223.482
273.9518, 3205.226
274.4339, 3185.209
274.9160, 3162.609
275.3981, 3138.929
275.8802, 3117.826
276.3624, 3099.475
276.8445, 3084.414
277.3266, 3074.425
277.8087, 3070.021
278.2908, 3063.182
278.7729, 3052.816
279.2551, 3040.261
279.7372, 3028.184
280.2193, 3016.362
280.7014, 3006.372
281.1835, 2999.181
281.6656, 2994.769
282.1478, 2991.222
282.6299, 2988.046
283.1120, 2986.558
283.5941, 2990.378
284.0762, 2999.848
284.5583, 3007.976
285.0405, 3010.079
285.5226, 3007.098
286.0047, 3007.975
286.4868, 3013.177
286.9689, 3020.833
287.4510, 3029.637
287.9332, 3039.431
288.4153, 3047.094
288.8974, 3049.504
289.3795, 3048.610
289.8616, 3052.568
290.3438, 3061.964
290.8259, 3072.080
291.3080, 3077.710
291.7901, 3079.335
292.2722, 3080.080
292.7543, 3080.350
293.2365, 3080.656
293.7186, 3083.163
294.2007, 3087.911
294.6828, 3091.323
295.1649, 3088.796
295.6470, 3082.065
296.1292, 3076.830
296.6113, 3075.091
297.0934, 3075.080
297.5755, 3074.631
298.0576, 3073.661
298.5397, 3071.318
299.0219, 3066.484
299.5040, 3059.845
299.9861, 3052.420
300.4682, 3043.427
300.9503, 3035.820
301.4324, 3034.082
301.9146, 3037.216
302.3967, 3040.891
302.8788, 3041.857
303.3609, 3041.899
303.8430, 3043.636
304.3251, 3047.607
304.8073, 3052.559
305.2894, 3057.542
305.7715, 3062.594
306.2536, 3067.975
306.7357, 3075.251
307.2178, 3082.057
307.7000, 3085.124
308.1821, 3083.789
308.6642, 3082.347
309.1463, 3085.110
309.6284, 3089.605
310.1105, 3092.039
310.5927, 3089.011
311.0748, 3084.581
311.5569, 3081.248
312.0390, 3079.111
312.5211, 3077.903
313.0032, 3078.026
313.4854, 3078.813
313.9675, 3079.554
314.4496, 3080.487
314.9317, 3080.978
315.4138, 3079.838
315.8959, 3077.587
316.3781, 3077.188
316.8602, 3082.684
317.3423, 3088.991
317.8244, 3092.197
318.3065, 3088.799
318.7886, 3086.011
319.2708, 3086.104
319.7529, 3088.594
320.2350, 3092.146
320.7171, 3096.311
321.1992, 3101.393
321.6813, 3107.897
322.1635, 3117.243
322.6456, 3124.770
323.1277, 3127.387
323.6098, 3127.920
324.0919, 3131.134
324.5740, 3139.245
325.0562, 3148.713
325.5383, 3159.334
326.0204, 3172.204
326.5025, 3181.613
326.9846, 3183.395
327.4667, 3183.125
327.9489, 3186.784
328.4310, 3199.971
328.9131, 3210.966
329.3952, 3216.893
329.8773, 3217.591
330.3594, 3221.244
330.8416, 3229.461
331.3237, 3239.249
331.8058, 3248.502
332.2879, 3256.874
332.7700, 3265.302
333.2521, 3273.785
333.7343, 3282.411
334.2164, 3291.613
334.6985, 3300.968
335.1806, 3311.316
335.6627, 3323.173
336.1448, 3336.637
336.6270, 3351.083
337.1091, 3367.015
337.5912, 3383.347
338.0733, 3398.141
338.5554, 3411.154
339.0375, 3423.049
339.5197, 3434.387
340.0018, 3445.186
340.4839, 3453.397
340.9660, 3458.434
341.4481, 3461.829
341.9302, 3465.245
342.4124, 3468.709
342.8945, 3471.945
343.3766, 3474.637
343.8587, 3477.026
344.3408, 3481.024
344.8229, 3486.966
345.3051, 3491.981
345.7872, 3493.063
346.2693, 3490.664
346.7514, 3487.744
347.2335, 3484.960
347.7156, 3481.972
348.1978, 3477.277
348.6799, 3471.151
349.1620, 3466.742
349.6441, 3468.018
350.1262, 3472.510
350.6083, 3473.848
351.0905, 3470.640
351.5726, 3466.645
352.0547, 3467.229
352.5368, 3470.830
353.0189, 3472.720
353.5010, 3468.115
353.9832, 3461.598
354.4653, 3459.876
354.9474, 3463.417
355.4295, 3465.733
355.9116, 3459.407
356.3937, 3449.002
356.8759, 3441.475
357.3580, 3442.306
357.8401, 3444.318
358.3222, 3442.982
358.8043, 3438.559
359.2864, 3432.641
359.7686, 3426.589
360.2507, 3419.098
360.7328, 3408.952
361.2149, 3394.512
361.6970, 3379.552
362.1791, 3364.384
362.6613, 3349.716
363.1434, 3337.219
363.6255, 3330.323
364.1076, 3323.339
364.5897, 3313.321
365.0718, 3299.317
365.5540, 3285.119
366.0361, 3270.095
366.5182, 3255.682
367.0003, 3243.613
367.4824, 3237.813
367.9645, 3230.603
368.4467, 3219.369
368.9288, 3204.057
369.4109, 3190.980
369.8930, 3181.736
370.3751, 3173.592
370.8572, 3164.469
371.3394, 3151.617
371.8215, 3142.820
372.3036, 3140.373
372.7857, 3142.343
373.2678, 3141.761
373.7499, 3137.709
374.2321, 3132.629
374.7142, 3127.388
375.1963, 3121.600
375.6784, 3116.819
376.1605, 3112.626
376.6426, 3109.975
377.1248, 3111.657
377.6069, 3118.828
378.0890, 3123.220
378.5711, 3120.564
379.0532, 3112.294
379.5353, 3109.602
380.0175, 3113.214
380.4996, 3118.698
380.9817, 3121.881
381.4638, 3123.047
381.9459, 3124.713
382.4280, 3127.562
382.9102, 3130.887
383.3923, 3132.964
383.8744, 3133.937
384.3565, 3135.342
384.8386, 3137.069
385.3207, 3140.060
385.8029, 3148.373
386.2850, 3164.040
386.7671, 3176.540
387.2492, 3170.376
387.7313, 3152.641
388.2134, 3139.605
388.6956, 3142.666
389.1777, 3151.260
389.6598, 3156.282
390.1419, 3157.749
390.6240, 3158.783
391.1061, 3162.474
391.5883, 3166.303
392.0704, 3167.527
392.5525, 3163.869
393.0346, 3159.677
393.5167, 3155.070
393.9988, 3151.233
394.4810, 3151.363
394.9631, 3160.364
395.4452, 3170.667
395.9273, 3178.737
396.4094, 3184.088
396.8915, 3187.423
397.3737, 3186.626
397.8558, 3184.569
398.3379, 3184.781
398.8200, 3189.190
399.3021, 3194.147
399.7842, 3200.201
400.2664, 3207.296
400.7485, 3209.761
401.2306, 3203.135
401.7127, 3196.121
402.1948, 3194.473
402.6769, 3201.074
403.1591, 3206.841
403.6412, 3211.576
404.1233, 3215.012
404.6054, 3216.107
405.0875, 3213.825
405.5696, 3212.243
406.0518, 3212.953
406.5339, 3216.007
407.0160, 3221.028
407.4981, 3228.642
407.9802, 3236.490
408.4623, 3241.204
408.9445, 3242.919
409.4266, 3246.001
409.9087, 3252.388
410.3908, 3260.285
410.8729, 3264.206
411.3550, 3264.376
411.8372, 3266.247
412.3193, 3275.520
412.8014, 3289.294
413.2835, 3300.750
413.7656, 3308.840
414.2477, 3315.395
414.7299, 3321.199
415.2120, 3326.838
415.6941, 3333.597
416.1762, 3345.360
416.6583, 3356.340
417.1404, 3359.319
417.6226, 3354.546
418.1047, 3351.807
418.5868, 3359.259
419.0689, 3370.218
419.5510, 3378.419
420.0331, 3381.019
420.5153, 3382.063
420.9974, 3382.436
421.4795, 3382.361
421.9616, 3382.365
422.4437, 3384.630
422.9258, 3385.370
423.4080, 3382.528
423.8901, 3374.763
424.3722, 3368.053
424.8543, 3362.474
425.3364, 3358.466
425.8185, 3356.498
426.3007, 3357.042
426.7828, 3358.997
427.2649, 3362.409
427.7470, 3367.143
428.2291, 3372.675
428.7112, 3379.530
429.1934, 3386.127
429.6755, 3392.063
430.1576, 3397.646
430.6397, 3399.917
431.1218, 3397.305
431.6039, 3393.697
432.0861, 3395.870
432.5682, 3404.214
433.0503, 3412.618
433.5324, 3418.531
434.0145, 3423.039
434.4966, 3429.995
434.9788, 3439.470
435.4609, 3450.119
435.9430, 3461.299
436.4251, 3472.936
436.9072, 3484.850
437.3893, 3497.399
437.8715, 3509.503
438.3536, 3519.234
438.8357, 3527.406
439.3178, 3536.281
439.7999, 3546.835
440.2820, 3558.725
440.7642, 3571.666
441.2463, 3585.706
441.7284, 3600.164
442.2105, 3615.747
442.6926, 3631.122
443.1747, 3645.032
443.6569, 3657.553
444.1390, 3668.016
444.6211, 3674.871
445.1032, 3679.311
445.5853, 3684.590
446.0674, 3693.275
446.5496, 3701.308
447.0317, 3707.093
447.5138, 3710.046
447.9959, 3712.844
448.4780, 3716.409
448.9601, 3719.369
449.4423, 3720.229
449.9244, 3717.795
450.4065, 3715.962
450.8886, 3715.614
451.3707, 3716.307
451.8528, 3716.428
452.3350, 3716.346
452.8171, 3714.370
453.2992, 3708.604
453.7813, 3698.899
454.2634, 3690.859
454.7455, 3684.498
455.2277, 3679.638
455.7098, 3677.213
456.1919, 3676.616
456.6740, 3673.633
457.1561, 3666.177
457.6382, 3656.207
458.1204, 3647.129
458.6025, 3638.772
459.0846, 3630.395
459.5667, 3619.631
460.0488, 3609.242
460.5309, 3603.447
461.0131, 3603.712
461.4952, 3604.663
461.9773, 3602.423
462.4594, 3598.533
462.9415, 3595.200
463.4236, 3593.024
463.9058, 3591.818
464.3879, 3592.588
464.8700, 3594.878
465.3521, 3594.905
465.8342, 3587.196
466.3163, 3580.252
466.7985, 3579.068
467.2806, 3588.091
467.7627, 3595.406
468.2448, 3600.365
468.7269, 3603.612
469.2090, 3605.855
469.6912, 3605.617
470.1733, 3607.189
470.6554, 3612.259
471.1375, 3620.308
471.6196, 3626.390
472.1017, 3630.349
472.5839, 3632.750
473.0660, 3633.000
473.5481, 3631.063
474.0302, 3632.540
474.5123, 3638.639
474.9944, 3646.244
475.4766, 3650.407
475.9587, 3651.713
476.4408, 3653.794
476.9229, 3659.546
477.4050, 3666.137
477.8871, 3668.361
478.3693, 3666.618
478.8514, 3664.245
479.3335, 3662.190
479.8156, 3661.443
480.2977, 3663.876
480.7798, 3670.940
481.2620, 3677.148
481.7441, 3677.944
482.2262, 3676.082
482.7083, 3675.631
483.1904, 3676.244
483.6725, 3680.034
484.1547, 3690.869
484.6368, 3707.727
485.1189, 3718.080
485.6010, 3713.644
486.0831, 3707.311
486.5652, 3705.593
487.0474, 3710.627
487.5295, 3715.638
488.0116, 3720.285
488.4937, 3725.092
488.9758, 3731.239
489.4579, 3739.749
489.9401, 3746.523
490.4222, 3750.553
490.9043, 3752.123
491.3864, 3751.939
491.8685, 3749.584
492.3506, 3748.403
492.8328, 3753.015
493.3149, 3761.350
493.7970, 3762.978
494.2791, 3756.260
494.7612, 3747.307
495.2433, 3741.762
495.7255, 3739.396
496.2076, 3739.702
496.6897, 3745.296
497.1718, 3750.804
497.6539, 3749.716
498.1360, 3743.669
498.6182, 3738.925
499.1003, 3740.267
499.5824, 3743.088
500.0645, 3744.144
500.5466, 3742.705
501.0287, 3741.087
501.5109, 3739.346
501.9930, 3737.976
502.4751, 3737.495
502.9572, 3737.115
503.4393, 3738.669
503.9214, 3743.865
504.4036, 3751.188
504.8857, 3755.221
505.3678, 3753.818
505.8499, 3752.916
506.3320, 3755.175
506.8141, 3760.864
507.2963, 3765.840
507.7784, 3769.947
508.2605, 3773.967
508.7426, 3779.854
509.2247, 3787.277
509.7068, 3790.442
510.1890, 3786.711
510.6711, 3781.167
511.1532, 3782.988
511.6353, 3790.948
512.1174, 3799.122
512.5995, 3804.011
513.0817, 3807.680
513.5638, 3812.595
514.0459, 3818.775
514.5280, 3825.248
515.0101, 3832.445
515.4922, 3839.164
515.9744, 3843.987
516.4565, 3845.407
516.9386, 3847.509
517.4207, 3853.044
517.9028, 3859.872
518.3849, 3864.462
518.8671, 3863.100
519.3492, 3862.843
519.8313, 3865.342
520.3134, 3870.420
520.7955, 3876.063
521.2776, 3882.507
521.7598, 3889.115
522.2419, 3895.771
522.7240, 3902.861
523.2061, 3907.661
523.6882, 3909.506
524.1703, 3910.376
524.6525, 3913.226
525.1346, 3917.911
525.6167, 3921.587
526.0988, 3923.044
526.5809, 3923.620
527.0630, 3926.039
527.5452, 3929.977
528.0273, 3933.462
528.5094, 3935.405
528.9915, 3936.261
529.4736, 3935.857
529.9557, 3934.084
530.4379, 3933.768
530.9200, 3938.484
531.4021, 3944.522
531.8842, 3948.225
532.3663, 3947.705
532.8484, 3946.094
533.3306, 3943.727
533.8127, 3940.756
534.2948, 3937.548
534.7769, 3930.236
535.2590, 3927.231
535.7411, 3931.821
536.2233, 3943.724
536.7054, 3954.012
537.1875, 3964.024
537.6696, 3969.821
538.1517, 3965.825
538.6339, 3950.652
539.1160, 3946.782
539.5981, 3957.833
540.0802, 3973.636
540.5623, 3981.234
541.0444, 3981.695
541.5266, 3981.099
542.0087, 3980.277
542.4908, 3980.527
542.9729, 3985.204
543.4550, 3993.024
543.9371, 3999.082
544.4193, 3997.007
544.9014, 3994.390
545.3835, 3998.738
545.8656, 4011.043
546.3477, 4022.035
546.8298, 4027.303
547.3120, 4030.073
547.7941, 4032.909
548.2762, 4034.749
548.7583, 4038.741
549.2404, 4048.013
549.7225, 4058.680
550.2047, 4063.544
550.6868, 4058.247
551.1689, 4055.610
551.6510, 4059.312
552.1331, 4068.458
552.6152, 4077.976
553.0974, 4088.470
553.5795, 4096.598
554.0616, 4097.603
554.5437, 4093.493
555.0258, 4096.762
555.5079, 4108.921
555.9901, 4123.002
556.4722, 4131.042
556.9543, 4135.802
557.4364, 4142.905
557.9185, 4154.025
558.4006, 4167.924
558.8828, 4184.815
559.3649, 4203.697
559.8470, 4222.676
560.3291, 4240.925
560.8112, 4258.942
561.2933, 4276.479
561.7755, 4293.465
562.2576, 4312.257
562.7397, 4330.396
563.2218, 4352.450
563.7039, 4381.505
564.1860, 4421.534
564.6682, 4458.354
565.1503, 4491.132
565.6324, 4522.343
566.1145, 4554.762
566.5966, 4588.890
567.0787, 4622.701
567.5609, 4655.247
568.0430, 4688.105
568.5251, 4722.922
569.0072, 4760.217
569.4893, 4801.187
569.9714, 4847.364
570.4536, 4897.737
570.9357, 4951.144
571.4178, 5007.323
571.8999, 5066.971
572.3820, 5132.750
572.8641, 5200.319
573.3463, 5264.624
573.8284, 5324.250
574.3105, 5383.785
574.7926, 5443.667
575.2747, 5504.540
575.7568, 5567.152
576.2390, 5643.198
576.7211, 5706.469
577.2032, 5752.842
577.6853, 5784.627
578.1674, 5809.880
578.6495, 5832.369
579.1317, 5837.333
579.6138, 5818.296
580.0959, 5776.165
580.5780, 5715.760
581.0601, 5635.714
581.5422, 5546.981
582.0244, 5455.182
582.5065, 5361.491
582.9886, 5268.404
583.4707, 5173.141
583.9528, 5087.790
