##NAMES=Vuoriyarvite-K
##RRUFFID=R070703
##IDEAL CHEMISTRY=(K,Na,[box])_12_Nb^5+^_8_(Si_4_O_12_)_4_O_8_&#183;12-16H_2_O
##LOCALITY=Vein No. 46,  Kirovskii apatite mine (Kirovsky Mine; Kirov Mine),  Kukisvumchorr Mt,  Khibiny Massif,  Kola Peninsula,  Murmanskaja Oblast',  Northern Region,  Russia
##OWNER=RRUFF
##SOURCE=Michael Scott
##DESCRIPTION=Light tan, compact mass of micro-crystals associated with calcite and greenish sodalite
##STATUS=The identification of this mineral is not yet confirmed.
##URL=rruff.info/R070703
137.3994, 24667.63
137.8815, 24734.38
138.3636, 24763.68
138.8457, 24739.52
139.3279, 24706.62
139.8100, 24740.75
140.2921, 24868.29
140.7742, 24977.98
141.2563, 25018.60
141.7384, 24962.11
142.2206, 24938.92
142.7027, 24950.61
143.1848, 24993.92
143.6669, 25066.46
144.1490, 25185.17
144.6311, 25306.13
145.1133, 25401.77
145.5954, 25458.82
146.0775, 25517.32
146.5596, 25584.34
147.0417, 25659.13
147.5238, 25722.64
148.0060, 25767.99
148.4881, 25807.38
148.9702, 25849.94
149.4523, 25873.18
149.9344, 25925.71
150.4165, 26030.17
150.8987, 26220.77
151.3808, 26354.86
151.8629, 26390.63
152.3450, 26380.19
152.8271, 26399.94
153.3092, 26481.69
153.7914, 26569.02
154.2735, 26640.93
154.7556, 26672.10
155.2377, 26726.00
155.7198, 26834.13
156.2019, 26974.75
156.6841, 27081.40
157.1662, 27114.05
157.6483, 27127.77
158.1304, 27153.60
158.6125, 27192.69
159.0946, 27250.38
159.5768, 27344.04
160.0589, 27469.95
160.5410, 27570.39
161.0231, 27603.08
161.5052, 27612.28
161.9873, 27641.38
162.4695, 27707.06
162.9516, 27792.88
163.4337, 27896.29
163.9158, 28019.87
164.3979, 28139.60
164.8800, 28242.44
165.3622, 28334.16
165.8443, 28424.26
166.3264, 28520.82
166.8085, 28614.72
167.2906, 28696.79
167.7727, 28757.75
168.2549, 28824.96
168.7370, 28921.49
169.2191, 29039.53
169.7012, 29156.36
170.1833, 29257.87
170.6654, 29351.51
171.1476, 29445.57
171.6297, 29546.60
172.1118, 29642.34
172.5939, 29718.58
173.0760, 29776.65
173.5581, 29833.10
174.0403, 29901.99
174.5224, 29976.39
175.0045, 30045.36
175.4866, 30083.32
175.9687, 30122.61
176.4508, 30207.36
176.9330, 30339.93
177.4151, 30484.37
177.8972, 30623.33
178.3793, 30752.23
178.8614, 30856.36
179.3435, 30896.01
179.8257, 30914.30
180.3078, 30991.56
180.7899, 31140.59
181.2720, 31319.22
181.7541, 31491.90
182.2362, 31657.65
182.7184, 31806.56
183.2005, 31930.83
183.6826, 32034.32
184.1647, 32130.23
184.6468, 32216.22
185.1289, 32299.66
185.6111, 32385.08
186.0932, 32473.97
186.5753, 32576.76
187.0574, 32718.64
187.5395, 32887.93
188.0216, 33033.62
188.5037, 33136.14
188.9859, 33209.63
189.4680, 33280.79
189.9501, 33347.17
190.4322, 33426.88
190.9143, 33541.31
191.3964, 33687.27
191.8786, 33840.82
192.3607, 34002.61
192.8428, 34164.78
193.3249, 34282.88
193.8070, 34346.78
194.2891, 34398.83
194.7713, 34501.93
195.2534, 34659.52
195.7355, 34807.59
196.2176, 34908.86
196.6997, 34966.25
197.1818, 35058.21
197.6640, 35192.63
198.1461, 35350.61
198.6282, 35506.93
199.1103, 35664.73
199.5924, 35799.18
200.0745, 35876.40
200.5567, 35888.24
201.0388, 35961.64
201.5209, 36117.15
202.0030, 36327.89
202.4851, 36537.71
202.9672, 36756.92
203.4494, 36932.07
203.9315, 36993.71
204.4136, 36912.97
204.8957, 36921.78
205.3778, 37081.49
205.8599, 37353.20
206.3421, 37540.85
206.8242, 37626.95
207.3063, 37674.27
207.7884, 37732.61
208.2705, 37803.43
208.7526, 37885.70
209.2348, 37981.12
209.7169, 38089.95
210.1990, 38212.27
210.6811, 38361.42
211.1632, 38503.62
211.6453, 38591.46
212.1275, 38597.52
212.6096, 38632.98
213.0917, 38747.07
213.5738, 38951.31
214.0559, 39071.32
214.5380, 39063.80
215.0202, 39015.98
215.5023, 39076.24
215.9844, 39296.51
216.4665, 39501.35
216.9486, 39620.14
217.4307, 39628.13
217.9129, 39657.95
218.3950, 39718.56
218.8771, 39796.71
219.3592, 39868.45
219.8413, 39940.90
220.3234, 39995.01
220.8056, 40012.91
221.2877, 39963.77
221.7698, 39967.52
222.2519, 40055.41
222.7340, 40191.61
223.2161, 40257.64
223.6983, 40221.82
224.1804, 40162.04
224.6625, 40122.19
225.1446, 40112.87
225.6267, 40096.04
226.1088, 40067.21
226.5910, 40027.70
227.0731, 39986.79
227.5552, 39952.58
228.0373, 39906.86
228.5194, 39832.77
229.0015, 39711.62
229.4836, 39608.39
229.9658, 39548.79
230.4479, 39527.72
230.9300, 39444.41
231.4121, 39267.18
231.8942, 39063.56
232.3763, 38894.52
232.8585, 38778.83
233.3406, 38665.77
233.8227, 38548.74
234.3048, 38427.98
234.7869, 38304.25
235.2690, 38178.88
235.7512, 38048.46
236.2333, 37908.75
236.7154, 37758.90
237.1975, 37601.71
237.6796, 37434.37
238.1617, 37256.57
238.6439, 37075.54
239.1260, 36884.66
239.6081, 36695.61
240.0902, 36528.19
240.5723, 36401.70
241.0544, 36261.69
241.5366, 36081.63
242.0187, 35837.89
242.5008, 35648.06
242.9829, 35537.27
243.4650, 35466.45
243.9471, 35367.50
244.4293, 35232.21
244.9114, 35079.44
245.3935, 34912.29
245.8756, 34716.37
246.3577, 34543.04
246.8398, 34398.19
247.3220, 34272.81
247.8041, 34139.18
248.2862, 33952.29
248.7683, 33823.37
249.2504, 33834.84
249.7325, 34142.48
250.2147, 34203.75
250.6968, 33907.64
251.1789, 33385.28
251.6610, 33021.71
252.1431, 32886.11
252.6252, 32806.02
253.1074, 32693.88
253.5895, 32515.61
254.0716, 32391.80
254.5537, 32352.44
255.0358, 32371.16
255.5179, 32348.66
256.0001, 32271.37
256.4822, 32174.89
256.9643, 32075.12
257.4464, 31965.69
257.9285, 31872.62
258.4106, 31803.68
258.8928, 31752.55
259.3749, 31686.48
259.8570, 31593.27
260.3391, 31502.14
260.8212, 31435.67
261.3033, 31403.38
261.7855, 31367.50
262.2676, 31323.74
262.7497, 31272.32
263.2318, 31215.20
263.7139, 31155.52
264.1960, 31083.82
264.6782, 30984.17
265.1603, 30838.30
265.6424, 30723.38
266.1245, 30659.59
266.6066, 30639.49
267.0887, 30595.28
267.5709, 30523.71
268.0530, 30435.35
268.5351, 30336.78
269.0172, 30223.88
269.4993, 30116.44
269.9814, 30015.60
270.4636, 29921.90
270.9457, 29852.57
271.4278, 29815.95
271.9099, 29787.29
272.3920, 29741.95
272.8741, 29676.03
273.3563, 29611.64
273.8384, 29553.08
274.3205, 29500.00
274.8026, 29451.44
275.2847, 29409.82
275.7668, 29366.54
276.2490, 29310.74
276.7311, 29239.80
277.2132, 29171.53
277.6953, 29109.01
278.1774, 29052.07
278.6595, 29012.07
279.1417, 28994.10
279.6238, 28978.57
280.1059, 28935.39
280.5880, 28860.39
281.0701, 28809.63
281.5522, 28810.80
282.0344, 28854.24
282.5165, 28872.25
282.9986, 28862.45
283.4807, 28837.13
283.9628, 28807.35
284.4449, 28773.17
284.9271, 28738.88
285.4092, 28705.78
285.8913, 28673.79
286.3734, 28635.65
286.8555, 28587.14
287.3376, 28549.89
287.8198, 28554.71
288.3019, 28599.38
288.7840, 28649.53
289.2661, 28699.02
289.7482, 28744.01
290.2303, 28770.44
290.7124, 28776.66
291.1945, 28770.64
291.6767, 28756.47
292.1588, 28735.44
292.6409, 28718.05
293.1230, 28724.15
293.6051, 28736.03
294.0872, 28690.13
294.5694, 28579.62
295.0515, 28463.24
295.5336, 28409.56
296.0157, 28406.27
296.4978, 28400.78
296.9799, 28367.44
297.4621, 28318.50
297.9442, 28287.31
298.4263, 28276.15
298.9084, 28257.18
299.3905, 28192.20
299.8727, 28095.48
300.3548, 28007.32
300.8369, 27947.25
301.3190, 27906.29
301.8011, 27879.31
302.2832, 27867.42
302.7654, 27843.64
303.2475, 27780.09
303.7296, 27685.97
304.2117, 27579.68
304.6938, 27446.71
305.1759, 27315.49
305.6581, 27232.87
306.1402, 27199.25
306.6223, 27164.00
307.1044, 27086.00
307.5865, 26978.48
308.0686, 26865.98
308.5508, 26758.86
309.0329, 26649.14
309.5150, 26526.76
309.9971, 26390.05
310.4792, 26261.15
310.9613, 26168.46
311.4435, 26089.45
311.9256, 25994.82
312.4077, 25876.85
312.8898, 25737.51
313.3719, 25565.13
313.8540, 25361.01
314.3362, 25175.38
314.8183, 25045.74
315.3004, 24943.21
315.7825, 24834.01
316.2646, 24695.22
316.7467, 24556.23
317.2289, 24436.07
317.7110, 24334.76
318.1931, 24221.11
318.6752, 24065.05
319.1573, 23898.34
319.6394, 23751.25
320.1216, 23656.66
320.6037, 23559.51
321.0858, 23438.58
321.5679, 23295.10
322.0500, 23155.35
322.5321, 23036.99
323.0143, 22919.51
323.4964, 22786.53
323.9785, 22604.44
324.4606, 22438.91
324.9427, 22309.93
325.4248, 22215.92
325.9070, 22117.01
326.3891, 22014.99
326.8712, 21901.90
327.3533, 21772.22
327.8354, 21580.32
328.3175, 21421.98
328.7997, 21319.82
329.2818, 21269.56
329.7639, 21206.36
330.2460, 21122.10
330.7281, 21031.10
331.2102, 20941.52
331.6924, 20851.64
332.1745, 20768.30
332.6566, 20694.60
333.1387, 20629.24
333.6208, 20560.02
334.1029, 20476.75
334.5851, 20405.31
335.0672, 20365.51
335.5493, 20374.99
336.0314, 20375.30
336.5135, 20368.41
336.9956, 20348.58
337.4778, 20281.82
337.9599, 20139.01
338.4420, 20013.44
338.9241, 19969.41
339.4062, 20026.75
339.8883, 20059.61
340.3705, 20049.99
340.8526, 20017.39
341.3347, 20013.87
341.8168, 20045.17
342.2989, 20079.43
342.7810, 20097.47
343.2632, 20099.51
343.7453, 20103.26
344.2274, 20108.85
344.7095, 20118.53
345.1916, 20142.27
345.6737, 20180.46
346.1559, 20208.85
346.6380, 20203.80
347.1201, 20174.77
347.6022, 20173.98
348.0843, 20212.53
348.5664, 20252.28
349.0486, 20222.42
349.5307, 20136.35
350.0128, 20078.17
350.4949, 20117.23
350.9770, 20207.29
351.4591, 20246.96
351.9413, 20226.27
352.4234, 20195.82
352.9055, 20215.96
353.3876, 20268.88
353.8697, 20307.56
354.3518, 20304.47
354.8340, 20281.01
355.3161, 20255.69
355.7982, 20228.86
356.2803, 20214.51
356.7624, 20224.63
357.2445, 20254.08
357.7267, 20294.40
358.2088, 20358.23
358.6909, 20419.92
359.1730, 20461.76
359.6551, 20483.52
360.1372, 20495.64
360.6194, 20479.18
361.1015, 20464.89
361.5836, 20484.10
362.0657, 20591.78
362.5478, 20690.74
363.0299, 20748.89
363.5121, 20766.78
363.9942, 20755.05
364.4763, 20687.53
364.9584, 20608.42
365.4405, 20548.28
365.9226, 20516.60
366.4048, 20501.12
366.8869, 20516.29
367.3690, 20552.74
367.8511, 20563.20
368.3332, 20518.02
368.8153, 20465.55
369.2975, 20429.35
369.7796, 20438.28
370.2617, 20424.78
370.7438, 20366.74
371.2259, 20287.49
371.7080, 20254.90
372.1902, 20310.04
372.6722, 20359.24
373.1544, 20359.86
373.6365, 20281.10
374.1186, 20238.23
374.6007, 20239.97
375.0828, 20269.90
375.5649, 20303.05
376.0471, 20347.98
376.5292, 20371.19
377.0113, 20351.56
377.4934, 20284.63
377.9755, 20238.40
378.4576, 20215.03
378.9398, 20205.13
379.4219, 20201.66
379.9040, 20205.54
380.3861, 20196.19
380.8682, 20161.88
381.3503, 20108.10
381.8325, 20057.17
382.3146, 20009.47
382.7967, 19967.74
383.2788, 19941.63
383.7609, 19926.80
384.2430, 19901.76
384.7252, 19851.40
385.2073, 19794.21
385.6894, 19776.99
386.1715, 19795.83
386.6536, 19799.54
387.1357, 19736.80
387.6179, 19634.84
388.1000, 19538.26
388.5821, 19450.29
389.0642, 19383.54
389.5463, 19365.21
390.0284, 19384.04
390.5106, 19399.75
390.9927, 19388.83
391.4748, 19365.24
391.9569, 19337.55
392.4390, 19299.33
392.9211, 19277.12
393.4033, 19301.41
393.8854, 19350.61
394.3675, 19382.07
394.8496, 19341.48
395.3317, 19309.73
395.8138, 19338.13
396.2960, 19456.10
396.7781, 19537.26
397.2602, 19515.36
397.7423, 19452.27
398.2244, 19426.82
398.7065, 19504.97
399.1887, 19565.39
399.6708, 19568.06
400.1529, 19503.79
400.6350, 19473.18
401.1171, 19500.37
401.5992, 19544.28
402.0814, 19569.40
402.5635, 19561.71
403.0456, 19562.42
403.5277, 19583.46
404.0098, 19619.69
404.4919, 19631.51
404.9741, 19607.38
405.4562, 19581.07
405.9383, 19579.04
406.4204, 19606.32
406.9025, 19623.76
407.3846, 19622.39
407.8668, 19614.91
408.3489, 19632.52
408.8310, 19676.61
409.3131, 19730.26
409.7952, 19793.66
410.2773, 19862.29
410.7595, 19901.37
411.2416, 19905.31
411.7237, 19894.19
412.2058, 19887.91
412.6879, 19887.21
413.1700, 19896.15
413.6522, 19913.88
414.1343, 19942.65
414.6164, 19990.90
415.0985, 20059.34
415.5806, 20129.63
416.0627, 20202.48
416.5449, 20264.92
417.0270, 20297.11
417.5091, 20242.01
417.9912, 20197.44
418.4733, 20257.65
418.9554, 20403.66
419.4376, 20519.33
419.9197, 20512.30
420.4018, 20470.66
420.8839, 20464.30
421.3660, 20535.65
421.8481, 20603.62
422.3303, 20639.19
422.8124, 20653.41
423.2945, 20677.64
423.7766, 20721.89
424.2587, 20773.09
424.7408, 20828.22
425.2230, 20893.45
425.7051, 20945.27
426.1872, 20978.57
426.6693, 21000.41
427.1514, 21019.32
427.6335, 21024.85
428.1157, 21045.07
428.5978, 21094.05
429.0799, 21173.38
429.5620, 21228.21
430.0441, 21249.18
430.5262, 21261.35
431.0084, 21291.77
431.4905, 21346.38
431.9726, 21384.42
432.4547, 21395.70
432.9368, 21387.34
433.4189, 21377.83
433.9011, 21366.77
434.3832, 21361.51
434.8653, 21362.18
435.3474, 21371.54
435.8295, 21408.05
436.3116, 21482.44
436.7938, 21560.65
437.2759, 21596.05
437.7580, 21595.19
438.2401, 21581.12
438.7222, 21539.48
439.2043, 21503.71
439.6865, 21526.20
440.1686, 21614.32
440.6507, 21701.09
441.1328, 21735.26
441.6149, 21739.47
442.0970, 21744.96
442.5792, 21751.14
443.0613, 21771.50
443.5434, 21826.40
444.0255, 21909.67
444.5076, 21970.23
444.9897, 21966.88
445.4719, 21950.53
445.9540, 21955.46
446.4361, 22030.87
446.9182, 22068.69
447.4003, 22017.00
447.8824, 21918.79
448.3646, 21892.28
448.8467, 22012.63
449.3288, 22118.01
449.8109, 22144.10
450.2930, 22061.99
450.7751, 22025.49
451.2573, 22052.90
451.7394, 22105.69
452.2215, 22127.13
452.7036, 22103.57
453.1857, 22109.88
453.6678, 22172.81
454.1500, 22281.57
454.6321, 22383.02
455.1142, 22478.86
455.5963, 22558.06
456.0784, 22594.06
456.5605, 22598.54
457.0426, 22633.00
457.5247, 22712.26
458.0069, 22816.71
458.4890, 22927.79
458.9711, 23042.53
459.4532, 23152.84
459.9353, 23254.92
460.4174, 23348.63
460.8996, 23431.43
461.3817, 23502.57
461.8638, 23566.47
462.3459, 23610.72
462.8280, 23653.24
463.3102, 23718.40
463.7923, 23846.95
464.2744, 23970.58
464.7565, 24046.25
465.2386, 24077.30
465.7207, 24132.98
466.2029, 24245.15
466.6850, 24377.59
467.1671, 24509.17
467.6492, 24632.02
468.1313, 24761.02
468.6134, 24902.61
469.0956, 25051.69
469.5777, 25188.58
470.0598, 25310.66
470.5419, 25426.77
471.0240, 25540.40
471.5061, 25651.66
471.9883, 25754.48
472.4704, 25846.17
472.9525, 25931.96
473.4346, 26021.17
473.9167, 26115.01
474.3988, 26187.70
474.8810, 26224.37
475.3631, 26239.97
475.8452, 26276.26
476.3273, 26333.23
476.8094, 26397.63
477.2915, 26476.42
477.7737, 26553.77
478.2558, 26591.84
478.7379, 26580.37
479.2200, 26544.27
479.7021, 26497.95
480.1842, 26445.59
480.6664, 26396.22
481.1485, 26360.09
481.6306, 26324.48
482.1127, 26280.32
482.5948, 26226.80
483.0769, 26168.90
483.5591, 26114.78
484.0412, 26052.87
484.5233, 25972.50
485.0054, 25838.10
485.4875, 25722.39
485.9696, 25660.94
486.4518, 25634.85
486.9339, 25550.92
487.4160, 25351.10
487.8981, 25161.20
488.3802, 25039.01
488.8623, 25013.11
489.3445, 24957.04
489.8266, 24859.31
490.3087, 24745.42
490.7908, 24652.28
491.2729, 24581.29
491.7550, 24520.08
492.2372, 24473.59
492.7193, 24431.72
493.2014, 24347.36
493.6835, 24217.52
494.1656, 24090.64
494.6477, 24013.07
495.1299, 23967.76
495.6120, 23904.01
496.0941, 23804.30
496.5762, 23704.80
497.0583, 23637.85
497.5404, 23599.71
498.0226, 23582.83
498.5047, 23628.82
498.9868, 23661.92
499.4689, 23610.85
499.9510, 23466.27
500.4331, 23336.73
500.9153, 23265.55
501.3974, 23230.67
501.8795, 23212.04
502.3616, 23216.36
502.8437, 23225.35
503.3258, 23241.85
503.8080, 23262.40
504.2901, 23273.94
504.7722, 23280.76
505.2543, 23273.04
505.7364, 23234.59
506.2185, 23143.27
506.7007, 23132.99
507.1828, 23235.22
507.6649, 23370.69
508.1470, 23427.23
508.6291, 23395.53
509.1112, 23395.76
509.5934, 23469.62
510.0755, 23589.34
510.5576, 23674.23
511.0397, 23724.95
511.5218, 23780.85
512.0039, 23876.18
512.4860, 23994.57
512.9681, 24107.28
513.4503, 24209.29
513.9324, 24308.67
514.4145, 24423.60
514.8966, 24539.77
515.3787, 24631.41
515.8608, 24645.80
516.3430, 24670.10
516.8251, 24761.08
517.3072, 24917.25
517.7893, 25064.76
518.2714, 25195.20
518.7535, 25303.27
519.2357, 25384.82
519.7178, 25385.95
520.1999, 25438.45
520.6820, 25592.52
521.1641, 25780.57
521.6462, 25863.04
522.1284, 25795.45
522.6105, 25718.44
523.0926, 25677.48
523.5747, 25670.93
524.0568, 25650.75
524.5389, 25619.72
525.0211, 25564.01
525.5032, 25454.91
525.9853, 25301.93
526.4674, 25173.45
526.9495, 25087.34
527.4316, 25022.23
527.9138, 24956.12
528.3959, 24887.70
528.8780, 24807.99
529.3601, 24722.02
529.8422, 24616.49
530.3243, 24459.82
530.8065, 24246.40
531.2886, 24061.22
531.7707, 23977.80
532.2528, 23929.51
532.7349, 23851.27
533.2170, 23681.43
533.6992, 23533.80
534.1813, 23451.11
534.6634, 23410.93
535.1455, 23340.11
535.6276, 23207.17
536.1097, 23078.51
536.5919, 22977.54
537.0740, 22908.28
537.5561, 22839.35
538.0382, 22767.10
538.5203, 22701.26
539.0024, 22658.36
539.4846, 22641.02
539.9667, 22599.44
540.4488, 22512.28
540.9309, 22410.34
541.4130, 22366.67
541.8951, 22374.13
542.3773, 22375.26
542.8594, 22316.11
543.3415, 22236.61
543.8236, 22203.71
544.3057, 22224.65
544.7878, 22243.38
545.2700, 22220.46
545.7521, 22172.86
546.2342, 22119.79
546.7163, 22053.67
547.1984, 21997.82
547.6805, 21965.72
548.1627, 21951.27
548.6448, 21932.44
549.1269, 21893.19
549.6090, 21759.52
550.0911, 21848.63
550.5732, 21885.99
551.0554, 21874.36
551.5375, 21667.09
552.0196, 21712.46
552.5017, 21656.58
552.9838, 21596.55
553.4659, 21677.49
553.9481, 21498.66
554.4302, 21577.36
554.9123, 21553.26
555.3944, 21576.21
555.8765, 21497.28
556.3586, 21449.82
556.8408, 21504.26
557.3229, 21502.28
557.8050, 21411.03
558.2871, 21424.82
558.7692, 21429.02
559.2513, 21425.99
559.7335, 21417.86
560.2156, 21391.52
560.6977, 21378.18
561.1798, 21301.79
561.6619, 21410.21
562.1440, 21467.21
562.6262, 21475.56
563.1083, 21288.58
563.5904, 21354.60
564.0725, 21319.69
564.5546, 21280.96
565.0367, 21383.53
565.5189, 21226.67
566.0010, 21327.66
566.4831, 21326.20
566.9652, 21372.10
567.4473, 21316.47
567.9294, 21292.63
568.4116, 21371.03
568.8937, 21393.34
569.3758, 21327.30
569.8579, 21378.20
570.3400, 21221.10
570.8221, 21247.13
571.3043, 21352.38
571.7864, 21293.12
572.2685, 21347.53
572.7506, 21359.11
573.2327, 21174.86
573.7148, 21332.09
574.1970, 21342.11
574.6791, 21200.97
575.1612, 21347.51
575.6433, 21227.92
576.1254, 21203.78
576.6075, 21251.54
577.0897, 21225.02
577.5718, 21316.46
578.0539, 21294.91
578.5360, 21263.57
579.0181, 21276.75
579.5002, 21165.04
579.9824, 21285.96
580.4645, 21248.54
580.9466, 21290.32
581.4287, 21350.31
581.9108, 21273.75
582.3929, 21294.89
582.8751, 21308.10
583.3572, 21328.82
583.8393, 21350.29
584.3214, 21362.32
584.8035, 21366.67
585.2856, 21372.06
585.7678, 21387.94
586.2499, 21403.24
586.7320, 21409.68
587.2141, 21404.98
587.6962, 21396.01
588.1783, 21369.76
588.6605, 21347.19
589.1426, 21351.49
589.6247, 21414.19
590.1068, 21455.89
590.5889, 21459.06
591.0710, 21438.98
591.5532, 21446.50
592.0353, 21492.19
592.5174, 21526.34
592.9995, 21516.68
593.4816, 21472.24
593.9637, 21460.90
594.4459, 21484.42
594.9280, 21522.16
595.4101, 21563.48
595.8922, 21603.99
596.3743, 21633.54
596.8564, 21647.38
597.3386, 21656.72
597.8207, 21662.97
598.3028, 21672.18
598.7849, 21695.21
599.2670, 21767.41
599.7491, 21824.51
600.2313, 21818.24
600.7134, 21752.38
601.1955, 21751.12
601.6776, 21875.99
602.1597, 22014.12
602.6418, 22114.04
603.1240, 22169.14
603.6061, 22194.42
604.0882, 22171.84
604.5703, 22148.92
605.0524, 22205.85
605.5345, 22339.71
606.0167, 22427.52
606.4988, 22421.36
606.9809, 22374.07
607.4630, 22370.93
607.9451, 22407.89
608.4272, 22465.18
608.9094, 22545.34
609.3915, 22632.21
609.8736, 22709.14
610.3557, 22775.00
610.8378, 22840.60
611.3199, 22912.21
611.8021, 22985.18
612.2842, 23055.26
612.7663, 23105.08
613.2484, 23176.41
613.7305, 23288.08
614.2126, 23414.58
614.6948, 23509.58
615.1769, 23563.12
615.6590, 23613.47
616.1411, 23668.59
616.6232, 23728.38
617.1053, 23794.46
617.5875, 23867.36
618.0696, 23934.07
618.5517, 23973.12
619.0338, 24001.94
619.5159, 24065.98
619.9980, 24172.72
620.4802, 24279.08
620.9623, 24350.93
621.4444, 24403.44
621.9265, 24455.92
622.4086, 24500.23
622.8907, 24563.77
623.3729, 24678.80
623.8550, 24820.63
624.3371, 24925.13
624.8192, 24957.85
625.3013, 24987.15
625.7834, 25024.65
626.2656, 25070.17
626.7477, 25139.97
627.2298, 25235.60
627.7119, 25349.42
628.1940, 25482.79
628.6761, 25632.91
629.1583, 25772.26
629.6404, 25898.88
630.1225, 26015.63
630.6046, 26125.31
