##NAMES=Vuoriyarvite-K
##RRUFFID=R070703
##IDEAL CHEMISTRY=(K,Na,[box])_12_Nb^5+^_8_(Si_4_O_12_)_4_O_8_&#183;12-16H_2_O
##LOCALITY=Vein No. 46,  Kirovskii apatite mine (Kirovsky Mine; Kirov Mine),  Kukisvumchorr Mt,  Khibiny Massif,  Kola Peninsula,  Murmanskaja Oblast',  Northern Region,  Russia
##OWNER=RRUFF
##SOURCE=Michael Scott
##DESCRIPTION=Light tan, compact mass of micro-crystals associated with calcite and greenish sodalite
##STATUS=The identification of this mineral is not yet confirmed.
##URL=rruff.info/R070703
131.5389, 16127.40
132.0210, 16098.64
132.5031, 16074.37
132.9852, 16060.75
133.4674, 16061.32
133.9495, 16067.63
134.4316, 16070.60
134.9137, 16069.97
135.3958, 16077.62
135.8779, 16113.22
136.3601, 16200.26
136.8422, 16263.58
137.3243, 16281.59
137.8064, 16278.49
138.2885, 16280.93
138.7706, 16295.44
139.2528, 16326.90
139.7349, 16394.09
140.2170, 16520.50
140.6991, 16622.35
141.1812, 16639.27
141.6633, 16592.53
142.1455, 16575.41
142.6276, 16644.53
143.1097, 16763.92
143.5918, 16854.01
144.0739, 16883.56
144.5561, 16918.65
145.0382, 17046.04
145.5203, 17286.60
146.0024, 17498.13
146.4845, 17589.54
146.9666, 17610.77
147.4488, 17607.21
147.9309, 17582.39
148.4130, 17549.00
148.8951, 17537.64
149.3772, 17549.12
149.8593, 17585.65
150.3415, 17650.48
150.8236, 17736.23
151.3057, 17829.98
151.7878, 17929.91
152.2699, 18035.83
152.7520, 18115.76
153.2342, 18125.02
153.7163, 18145.00
154.1984, 18207.58
154.6805, 18307.91
155.1626, 18418.56
155.6447, 18503.44
156.1269, 18535.80
156.6090, 18635.04
157.0911, 18893.28
157.5732, 19139.09
158.0553, 19260.09
158.5374, 19240.88
159.0196, 19158.43
159.5017, 19133.97
159.9838, 19213.65
160.4659, 19286.76
160.9480, 19338.53
161.4301, 19391.21
161.9123, 19473.78
162.3944, 19598.30
162.8765, 19741.75
163.3586, 19844.25
163.8407, 19854.79
164.3228, 19894.40
164.8050, 20001.49
165.2871, 20150.25
165.7692, 20297.56
166.2513, 20426.57
166.7334, 20532.91
167.2155, 20600.85
167.6977, 20584.88
168.1798, 20582.61
168.6619, 20650.20
169.1440, 20777.06
169.6261, 20911.36
170.1082, 21026.09
170.5904, 21121.08
171.0725, 21204.81
171.5546, 21266.38
172.0367, 21323.78
172.5188, 21394.47
173.0009, 21479.96
173.4831, 21568.38
173.9652, 21653.91
174.4473, 21736.46
174.9294, 21816.17
175.4115, 21886.76
175.8936, 21955.65
176.3758, 22041.16
176.8579, 22156.10
177.3400, 22261.44
177.8221, 22319.90
178.3042, 22350.03
178.7864, 22396.33
179.2685, 22489.12
179.7506, 22622.50
180.2327, 22756.78
180.7148, 22894.28
181.1969, 23029.49
181.6791, 23164.08
182.1612, 23295.23
182.6433, 23414.43
183.1254, 23504.07
183.6075, 23558.47
184.0896, 23641.39
184.5718, 23790.57
185.0539, 23943.06
185.5360, 24065.80
186.0181, 24160.88
186.5002, 24257.48
186.9823, 24396.19
187.4645, 24598.77
187.9466, 24779.23
188.4287, 24930.77
188.9108, 25067.11
189.3929, 25192.11
189.8750, 25308.29
190.3572, 25417.27
190.8393, 25519.86
191.3214, 25593.71
191.8035, 25701.15
192.2856, 25869.03
192.7677, 26051.91
193.2499, 26214.39
193.7320, 26342.90
194.2141, 26446.62
194.6962, 26546.73
195.1783, 26602.81
195.6604, 26704.90
196.1426, 26897.26
196.6247, 27123.49
197.1068, 27317.46
197.5889, 27448.65
198.0710, 27532.41
198.5531, 27619.44
199.0353, 27704.13
199.5174, 27798.25
199.9995, 27906.38
200.4816, 28024.99
200.9637, 28152.02
201.4458, 28289.63
201.9280, 28431.02
202.4101, 28546.27
202.8922, 28613.72
203.3743, 28683.19
203.8564, 28768.22
204.3385, 28869.26
204.8207, 28986.41
205.3028, 29123.32
205.7849, 29277.49
206.2670, 29428.57
206.7491, 29589.60
207.2312, 29736.70
207.7134, 29845.36
208.1955, 29919.97
208.6776, 30002.23
209.1597, 30125.64
209.6418, 30279.27
210.1239, 30411.07
210.6061, 30508.59
211.0882, 30590.93
211.5703, 30659.47
212.0524, 30712.15
212.5345, 30797.65
213.0166, 30978.23
213.4988, 31219.91
213.9809, 31425.38
214.4630, 31565.64
214.9451, 31666.91
215.4272, 31755.47
215.9094, 31828.99
216.3915, 31902.69
216.8736, 31996.57
217.3557, 32099.08
217.8378, 32185.68
218.3199, 32236.74
218.8021, 32269.18
219.2842, 32319.19
219.7663, 32399.04
220.2484, 32467.48
220.7305, 32489.65
221.2126, 32481.70
221.6948, 32475.15
222.1769, 32491.87
222.6590, 32521.90
223.1411, 32531.37
223.6232, 32507.24
224.1053, 32484.05
224.5875, 32491.83
225.0696, 32516.86
225.5517, 32526.60
226.0338, 32499.53
226.5159, 32439.79
226.9980, 32369.40
227.4802, 32278.97
227.9623, 32189.42
228.4444, 32109.26
228.9265, 32038.15
229.4086, 31974.21
229.8907, 31925.37
230.3729, 31889.29
230.8550, 31825.60
231.3371, 31710.70
231.8192, 31590.56
232.3013, 31491.79
232.7834, 31406.18
233.2656, 31308.97
233.7477, 31169.41
234.2298, 30985.10
234.7119, 30835.55
235.1940, 30779.97
235.6761, 30706.32
236.1583, 30567.72
236.6404, 30371.26
237.1225, 30152.30
237.6046, 29930.21
238.0867, 29700.36
238.5688, 29512.86
239.0510, 29425.41
239.5331, 29333.44
240.0152, 29196.38
240.4973, 29017.43
240.9794, 28826.22
241.4615, 28653.80
241.9437, 28508.21
242.4258, 28329.46
242.9079, 28080.33
243.3900, 27829.58
243.8721, 27604.80
244.3542, 27406.68
244.8364, 27222.45
245.3185, 27042.34
245.8006, 26870.20
246.2827, 26683.43
246.7648, 26451.43
247.2469, 26232.04
247.7291, 26060.49
248.2112, 25931.43
248.6933, 25810.55
249.1754, 25658.57
249.6575, 25460.57
250.1397, 25296.92
250.6218, 25206.53
251.1039, 25114.05
251.5860, 24969.16
252.0681, 24779.99
252.5502, 24597.08
253.0324, 24480.88
253.5145, 24457.68
253.9966, 24391.37
254.4787, 24235.65
254.9608, 24083.48
255.4429, 23987.37
255.9251, 23945.16
256.4072, 23917.06
256.8893, 23862.42
257.3714, 23775.76
257.8535, 23681.80
258.3356, 23570.43
258.8177, 23461.55
259.2999, 23366.67
259.7820, 23285.05
260.2641, 23208.96
260.7462, 23130.25
261.2283, 23047.56
261.7104, 22968.46
262.1926, 22897.90
262.6747, 22825.87
263.1568, 22745.70
263.6389, 22658.56
264.1210, 22572.46
264.6031, 22497.21
265.0853, 22437.63
265.5674, 22363.19
266.0495, 22262.82
266.5316, 22160.64
267.0138, 22067.01
267.4959, 21983.50
267.9780, 21909.99
268.4601, 21850.47
268.9422, 21813.41
269.4243, 21733.88
269.9065, 21578.13
270.3886, 21419.00
270.8707, 21289.87
271.3528, 21190.96
271.8349, 21105.56
272.3170, 21019.98
272.7992, 20934.26
273.2813, 20846.16
273.7634, 20752.09
274.2455, 20658.67
274.7276, 20565.94
275.2097, 20476.12
275.6919, 20394.27
276.1740, 20327.03
276.6561, 20275.93
277.1382, 20212.06
277.6203, 20120.71
278.1024, 20033.82
278.5846, 19967.41
279.0667, 19917.73
279.5488, 19869.07
280.0309, 19806.96
280.5130, 19730.43
280.9951, 19689.54
281.4773, 19727.12
281.9594, 19750.47
282.4415, 19707.19
282.9236, 19619.11
283.4057, 19544.36
283.8878, 19524.35
284.3700, 19556.27
284.8521, 19584.09
285.3342, 19617.45
285.8163, 19636.95
286.2984, 19630.66
286.7805, 19605.54
287.2627, 19574.87
287.7448, 19545.63
288.2269, 19518.79
288.7090, 19502.88
289.1911, 19515.73
289.6732, 19518.98
290.1554, 19503.42
290.6375, 19472.03
291.1196, 19425.38
291.6017, 19361.14
292.0838, 19288.82
292.5659, 19256.86
293.0481, 19323.09
293.5302, 19362.63
294.0123, 19331.88
294.4944, 19268.12
294.9765, 19230.53
295.4586, 19249.18
295.9408, 19299.77
296.4229, 19303.15
296.9050, 19213.82
297.3871, 19127.41
297.8692, 19039.08
298.3513, 18961.06
298.8335, 18914.98
299.3156, 18909.69
299.7977, 18922.12
300.2798, 18898.12
300.7619, 18786.45
301.2440, 18702.06
301.7262, 18673.48
302.2083, 18659.68
302.6904, 18617.95
303.1725, 18535.85
303.6546, 18435.41
304.1367, 18360.70
304.6189, 18360.63
305.1010, 18304.19
305.5831, 18147.65
306.0652, 17968.03
306.5473, 17832.04
307.0294, 17752.14
307.5116, 17684.67
307.9937, 17564.96
308.4758, 17357.10
308.9579, 17182.01
309.4400, 17053.02
309.9221, 16941.16
310.4043, 16840.14
310.8864, 16742.81
311.3685, 16630.16
311.8506, 16474.91
312.3327, 16260.32
312.8148, 16072.46
313.2970, 15898.54
313.7791, 15758.35
314.2612, 15697.77
314.7433, 15691.09
315.2254, 15653.33
315.7076, 15496.89
316.1897, 15207.28
316.6718, 14965.47
317.1539, 14812.25
317.6360, 14664.95
318.1181, 14494.36
318.6003, 14307.50
319.0824, 14127.30
319.5645, 13973.42
320.0466, 13842.66
320.5287, 13693.72
321.0108, 13506.85
321.4930, 13322.02
321.9751, 13148.78
322.4572, 12982.87
322.9393, 12817.96
323.4214, 12651.09
323.9035, 12482.64
324.3857, 12314.98
324.8678, 12148.90
325.3499, 11983.75
325.8320, 11818.31
326.3141, 11655.38
326.7962, 11497.78
327.2784, 11347.62
327.7605, 11202.50
328.2426, 11053.70
328.7247, 10895.95
329.2068, 10748.49
329.6889, 10617.40
330.1711, 10495.11
330.6532, 10375.16
331.1353, 10255.52
331.6174, 10142.07
332.0995, 10045.56
332.5816, 9970.511
333.0638, 9893.572
333.5459, 9811.735
334.0280, 9726.048
334.5101, 9634.090
334.9922, 9536.446
335.4743, 9441.869
335.9565, 9362.502
336.4386, 9298.794
336.9207, 9230.695
337.4028, 9140.118
337.8849, 9062.190
338.3671, 9022.980
338.8492, 9018.239
339.3313, 9017.568
339.8134, 8996.679
340.2955, 8960.599
340.7776, 8937.112
341.2598, 8932.098
341.7419, 8933.007
342.2240, 8931.203
342.7061, 8928.193
343.1882, 8928.214
343.6703, 8937.933
344.1525, 8951.025
344.6346, 8950.751
345.1167, 8931.483
345.5988, 8917.064
346.0809, 8937.313
346.5630, 8970.902
347.0452, 8981.769
347.5273, 8948.827
348.0094, 8900.112
348.4915, 8863.402
348.9736, 8838.621
349.4557, 8826.228
349.9379, 8836.096
350.4200, 8854.566
350.9021, 8854.278
351.3842, 8823.345
351.8663, 8792.012
352.3484, 8780.567
352.8306, 8785.959
353.3127, 8795.600
353.7948, 8805.417
354.2769, 8816.730
354.7590, 8833.011
355.2411, 8856.428
355.7233, 8876.513
356.2054, 8886.973
356.6875, 8892.119
357.1696, 8899.041
357.6517, 8909.488
358.1339, 8922.441
358.6160, 8937.750
359.0981, 8956.584
359.5802, 8971.157
360.0623, 8971.980
360.5444, 8973.322
361.0266, 8992.151
361.5087, 9029.489
361.9908, 9069.715
362.4729, 9100.413
362.9550, 9121.374
363.4371, 9126.142
363.9193, 9105.664
364.4014, 9079.103
364.8835, 9050.237
365.3656, 9023.154
365.8477, 9009.421
366.3298, 9020.407
366.8120, 9050.688
367.2941, 9049.352
367.7762, 8983.452
368.2583, 8926.286
368.7404, 8894.932
369.2225, 8881.737
369.7047, 8880.297
370.1868, 8888.232
370.6689, 8894.111
371.1510, 8865.855
371.6331, 8751.633
372.1152, 8681.169
372.5974, 8700.054
373.0795, 8737.876
373.5616, 8725.576
374.0437, 8651.205
374.5258, 8566.876
375.0079, 8551.820
375.4901, 8643.347
375.9722, 8688.365
376.4543, 8651.965
376.9364, 8600.366
377.4185, 8565.084
377.9006, 8544.755
378.3828, 8519.515
378.8649, 8470.273
379.3470, 8398.376
379.8291, 8333.384
380.3112, 8278.865
380.7933, 8227.368
381.2755, 8171.748
381.7576, 8117.467
382.2397, 8076.202
382.7218, 8060.521
383.2039, 8053.834
383.6860, 8014.797
384.1682, 7930.350
384.6503, 7853.515
385.1324, 7806.812
385.6145, 7777.557
386.0966, 7758.211
386.5787, 7750.748
387.0609, 7740.120
387.5430, 7707.381
388.0251, 7654.065
388.5072, 7605.901
388.9893, 7571.811
389.4714, 7543.725
389.9536, 7508.727
390.4357, 7465.525
390.9178, 7433.533
391.3999, 7435.147
391.8820, 7451.882
392.3641, 7444.640
392.8463, 7404.144
393.3284, 7353.584
393.8105, 7311.697
394.2926, 7278.597
394.7747, 7254.485
395.2568, 7246.917
395.7390, 7243.123
396.2211, 7227.813
396.7032, 7203.373
397.1853, 7189.692
397.6674, 7201.708
398.1495, 7235.523
398.6317, 7263.089
399.1138, 7287.458
399.5959, 7303.433
400.0780, 7305.198
400.5601, 7298.223
401.0422, 7291.273
401.5244, 7287.906
402.0065, 7286.604
402.4886, 7284.124
402.9707, 7277.729
403.4528, 7274.552
403.9349, 7278.690
404.4171, 7283.292
404.8992, 7281.612
405.3813, 7273.547
405.8634, 7265.034
406.3455, 7262.235
406.8276, 7265.148
407.3098, 7274.033
407.7919, 7288.611
408.2740, 7309.523
408.7561, 7345.651
409.2383, 7388.247
409.7204, 7419.018
410.2025, 7424.685
410.6846, 7411.742
411.1667, 7403.582
411.6488, 7397.570
412.1310, 7402.105
412.6131, 7423.211
413.0952, 7452.792
413.5773, 7483.456
414.0594, 7513.160
414.5415, 7542.195
415.0237, 7572.067
415.5058, 7602.926
415.9879, 7628.174
416.4700, 7638.797
416.9521, 7650.865
417.4342, 7682.002
417.9164, 7731.172
418.3985, 7774.741
418.8806, 7793.659
419.3627, 7798.890
419.8448, 7813.470
420.3269, 7840.128
420.8091, 7873.452
421.2912, 7912.838
421.7733, 7956.164
422.2554, 7994.474
422.7375, 8026.545
423.2196, 8053.285
423.7018, 8069.101
424.1839, 8078.272
424.6660, 8101.761
425.1481, 8154.909
425.6302, 8222.634
426.1123, 8257.849
426.5945, 8237.245
427.0766, 8226.229
427.5587, 8240.542
428.0408, 8267.982
428.5229, 8294.382
429.0050, 8316.283
429.4872, 8340.849
429.9693, 8378.924
430.4514, 8439.397
430.9335, 8480.521
431.4156, 8498.856
431.8977, 8505.360
432.3799, 8498.824
432.8620, 8484.464
433.3441, 8470.535
433.8262, 8460.447
434.3083, 8457.529
434.7904, 8483.416
435.2726, 8567.838
435.7547, 8634.639
436.2368, 8668.758
436.7189, 8678.907
437.2010, 8669.225
437.6831, 8640.313
438.1653, 8606.853
438.6474, 8585.279
439.1295, 8575.415
439.6116, 8579.721
440.0937, 8609.487
440.5758, 8643.058
441.0580, 8666.456
441.5401, 8679.611
442.0222, 8685.394
442.5043, 8680.986
442.9864, 8671.295
443.4685, 8661.992
443.9507, 8651.511
444.4328, 8655.656
444.9149, 8694.802
445.3970, 8756.712
445.8791, 8798.273
446.3612, 8802.994
446.8434, 8802.720
447.3255, 8818.395
447.8076, 8842.617
448.2897, 8855.157
448.7718, 8846.761
449.2539, 8829.801
449.7361, 8826.787
450.2182, 8845.516
450.7003, 8862.166
451.1824, 8863.750
451.6645, 8871.458
452.1466, 8908.798
452.6288, 8972.645
453.1109, 9038.271
453.5930, 9085.929
454.0751, 9115.488
454.5572, 9126.722
455.0393, 9074.367
455.5215, 9052.981
456.0036, 9099.953
456.4857, 9184.018
456.9678, 9263.714
457.4499, 9322.047
457.9320, 9367.808
458.4142, 9414.007
458.8963, 9457.935
459.3784, 9513.787
459.8605, 9599.144
460.3426, 9685.541
460.8247, 9756.080
461.3069, 9810.314
461.7890, 9857.941
462.2711, 9895.155
462.7532, 9930.964
463.2353, 9992.427
463.7174, 10085.23
464.1996, 10188.50
464.6817, 10296.45
465.1638, 10404.66
465.6459, 10501.38
466.1280, 10573.31
466.6101, 10647.78
467.0923, 10747.01
467.5744, 10862.96
468.0565, 10970.92
468.5386, 11061.53
469.0207, 11144.63
469.5028, 11235.05
469.9850, 11332.39
470.4671, 11440.95
470.9492, 11578.47
471.4313, 11714.38
471.9134, 11820.09
472.3955, 11899.11
472.8777, 11977.81
473.3598, 12077.89
473.8419, 12196.71
474.3240, 12304.93
474.8061, 12399.39
475.2882, 12485.43
475.7704, 12562.01
476.2525, 12631.47
476.7346, 12696.38
477.2167, 12757.48
477.6988, 12815.84
478.1809, 12881.35
478.6631, 12958.17
479.1452, 12996.36
479.6273, 12974.87
480.1094, 12927.10
480.5916, 12871.11
481.0737, 12808.33
481.5558, 12741.75
482.0379, 12671.69
482.5200, 12599.04
483.0021, 12527.73
483.4843, 12458.21
483.9664, 12377.31
484.4485, 12274.11
484.9306, 12157.55
485.4127, 12051.67
485.8948, 11963.32
486.3770, 11872.21
486.8591, 11769.15
487.3412, 11660.08
487.8233, 11551.71
488.3054, 11446.28
488.7875, 11346.82
489.2697, 11257.71
489.7518, 11181.46
490.2339, 11101.19
490.7160, 11014.64
491.1981, 10927.58
491.6802, 10836.78
492.1624, 10748.58
492.6445, 10674.34
493.1266, 10621.20
493.6087, 10577.75
494.0908, 10517.25
494.5729, 10430.64
495.0551, 10352.50
495.5372, 10288.05
496.0193, 10233.80
496.5014, 10196.48
496.9835, 10171.93
497.4656, 10137.05
497.9478, 10062.83
498.4299, 9967.839
498.9120, 9907.988
499.3941, 9892.813
499.8762, 9872.438
500.3583, 9811.769
500.8405, 9727.598
501.3226, 9659.934
501.8047, 9617.878
502.2868, 9580.048
502.7689, 9540.325
503.2510, 9496.307
503.7332, 9435.472
504.2153, 9353.732
504.6974, 9280.400
505.1795, 9254.632
505.6616, 9292.063
506.1437, 9301.264
506.6259, 9257.563
507.1080, 9213.604
507.5901, 9186.149
508.0722, 9177.382
508.5543, 9188.685
509.0364, 9221.361
509.5186, 9270.306
510.0007, 9326.379
510.4828, 9397.925
510.9649, 9454.008
511.4470, 9464.267
511.9291, 9477.884
512.4113, 9524.903
512.8934, 9606.089
513.3755, 9704.720
513.8576, 9813.646
514.3397, 9930.880
514.8218, 10052.14
515.3040, 10176.39
515.7861, 10308.44
516.2682, 10457.29
516.7503, 10614.49
517.2324, 10760.04
517.7145, 10893.36
518.1967, 11014.90
518.6788, 11121.74
519.1609, 11218.37
519.6430, 11316.00
520.1251, 11416.73
520.6072, 11505.32
521.0894, 11565.29
521.5715, 11595.16
522.0536, 11609.39
522.5357, 11598.27
523.0178, 11584.94
523.4999, 11586.94
523.9821, 11589.41
524.4642, 11568.05
524.9463, 11512.27
525.4284, 11433.87
525.9105, 11352.29
526.3926, 11267.33
526.8748, 11179.14
527.3569, 11096.07
527.8390, 11001.05
528.3211, 10880.21
528.8032, 10738.22
529.2853, 10591.49
529.7675, 10439.88
530.2496, 10293.22
530.7317, 10166.80
531.2138, 10060.20
531.6959, 9964.054
532.1780, 9877.489
532.6602, 9795.301
533.1423, 9705.374
533.6244, 9606.454
534.1065, 9507.436
534.5886, 9401.625
535.0707, 9301.799
535.5529, 9225.322
536.0350, 9169.126
536.5171, 9110.790
536.9992, 9031.466
537.4813, 8934.209
537.9634, 8842.151
538.4456, 8750.252
538.9277, 8671.141
539.4098, 8614.827
539.8919, 8565.996
540.3740, 8510.160
540.8561, 8444.433
541.3383, 8377.146
541.8204, 8314.604
542.3025, 8256.743
542.7846, 8205.637
543.2667, 8162.063
543.7488, 8123.423
544.2310, 8092.040
544.7131, 8063.913
545.1952, 8030.749
545.6773, 7987.724
546.1594, 7944.998
546.6415, 7906.999
547.1237, 7873.557
547.6058, 7845.476
548.0879, 7822.896
548.5700, 7804.189
549.0521, 7788.292
549.5342, 7776.910
550.0164, 7758.200
550.4985, 7725.519
550.9806, 7693.904
551.4627, 7667.755
551.9448, 7646.715
552.4269, 7631.093
552.9091, 7621.244
553.3912, 7611.519
553.8733, 7592.582
554.3554, 7563.539
554.8375, 7530.347
555.3196, 7481.498
555.8018, 7442.896
556.2839, 7437.417
556.7660, 7455.817
557.2481, 7467.199
557.7302, 7455.593
558.2123, 7436.128
558.6945, 7425.258
559.1766, 7420.800
559.6587, 7411.009
560.1408, 7390.527
560.6229, 7365.822
561.1050, 7347.008
561.5872, 7334.115
562.0693, 7328.411
562.5514, 7336.461
563.0335, 7345.874
563.5156, 7353.146
563.9977, 7355.422
564.4799, 7345.844
564.9620, 7318.994
565.4441, 7284.852
565.9262, 7268.696
566.4083, 7276.110
566.8904, 7284.887
567.3726, 7299.704
567.8547, 7308.022
568.3368, 7299.352
568.8189, 7275.693
569.3010, 7249.872
569.7831, 7221.140
570.2653, 7197.988
570.7474, 7199.690
571.2295, 7224.129
571.7116, 7238.852
572.1937, 7227.800
572.6758, 7201.706
573.1580, 7181.207
573.6401, 7166.278
574.1222, 7156.098
574.6043, 7158.431
575.0864, 7159.297
575.5685, 7140.720
576.0507, 7110.003
576.5328, 7095.399
577.0149, 7118.367
577.4970, 7161.867
577.9791, 7165.956
578.4612, 7105.116
578.9434, 7067.680
579.4255, 7099.208
579.9076, 7137.081
580.3897, 7134.979
580.8718, 7095.814
581.3539, 7063.739
581.8361, 7070.888
582.3182, 7096.321
582.8003, 7110.356
583.2824, 7112.678
583.7645, 7104.164
584.2467, 7080.713
584.7288, 7052.712
585.2109, 7044.924
585.6931, 7070.665
586.1752, 7083.260
586.6573, 7068.342
587.1394, 7047.378
587.6215, 7033.916
588.1036, 7028.630
588.5858, 7027.823
589.0679, 7029.516
589.5500, 7033.027
590.0321, 7035.604
590.5142, 7035.263
590.9963, 7039.961
591.4785, 7056.196
591.9606, 7074.271
592.4427, 7084.917
592.9248, 7089.797
593.4069, 7101.839
593.8890, 7131.660
594.3712, 7169.339
594.8533, 7205.045
595.3354, 7238.177
595.8175, 7265.465
596.2996, 7285.947
596.7817, 7298.550
597.2639, 7299.135
597.7460, 7274.333
598.2281, 7268.957
598.7102, 7296.728
599.1923, 7331.184
599.6744, 7353.734
600.1566, 7370.135
600.6387, 7400.060
601.1208, 7456.399
601.6029, 7520.593
602.0850, 7549.676
602.5671, 7535.275
603.0493, 7538.379
603.5314, 7578.192
604.0135, 7628.294
604.4956, 7668.004
604.9777, 7699.654
605.4598, 7733.482
605.9420, 7776.091
606.4241, 7819.015
606.9062, 7859.452
607.3883, 7894.767
607.8704, 7910.666
608.3525, 7900.263
608.8347, 7894.246
609.3168, 7941.455
609.7989, 8064.319
610.2810, 8147.363
610.7631, 8149.344
611.2452, 8159.585
611.7274, 8221.144
612.2095, 8307.979
612.6916, 8374.363
613.1737, 8402.326
613.6558, 8422.296
614.1379, 8475.259
614.6201, 8556.537
615.1022, 8625.003
615.5843, 8672.095
616.0664, 8714.245
616.5485, 8762.492
617.0306, 8815.618
617.5128, 8867.664
617.9949, 8915.858
618.4770, 8965.591
618.9591, 9019.755
619.4412, 9076.468
619.9233, 9130.191
620.4055, 9181.329
620.8876, 9239.843
621.3697, 9316.199
621.8518, 9409.337
622.3339, 9505.618
622.8160, 9615.400
623.2982, 9710.053
623.7803, 9778.527
624.2624, 9832.173
624.7445, 9875.932
