##NAMES=Wagnerite
##RRUFFID=R060456
##IDEAL CHEMISTRY=Mg_2_PO_4_F
##LOCALITY=Kara-Su, Kirgizstan
##OWNER=RRUFF
##SOURCE=Michael Scott
##DESCRIPTION=Reddish-brown granular aggregate, variety magniotriplite, polytype wagnerite-Ma5bc
##STATUS=The identification of this mineral is confirmed by single-crystal X-ray diffraction and chemical analysis.
##URL=rruff.info/R060456
##MEASURED CHEMISTRY=(Mg_0.74_Fe^2+^_0.71_Mn_0.53_Ca_0.02_)_Σ=2_(P_1.00_O_4_)(F_0.60_(OH)_0.40_)_Σ=1_
115.6390, 77.20900
116.1212, 75.13850
116.6033, 73.63042
117.0854, 72.64300
117.5675, 72.25753
118.0496, 72.58493
118.5317, 73.43155
119.0139, 73.85927
119.4960, 73.22231
119.9781, 72.82809
120.4602, 73.27116
120.9423, 74.11787
121.4244, 74.57096
121.9066, 73.96386
122.3887, 72.18720
122.8708, 70.86230
123.3529, 69.83949
123.8350, 69.25272
124.3171, 69.46963
124.7993, 70.36234
125.2814, 71.21132
125.7635, 71.26139
126.2456, 70.29118
126.7277, 69.46500
127.2098, 68.66764
127.6920, 68.08004
128.1741, 68.08791
128.6562, 68.89395
129.1383, 69.68250
129.6204, 69.17050
130.1025, 67.51529
130.5847, 66.03434
131.0668, 65.24705
131.5489, 65.05013
132.0310, 65.11406
132.5131, 65.50976
132.9952, 66.01987
133.4774, 66.57339
133.9595, 67.15894
134.4416, 67.46645
134.9237, 67.11379
135.4058, 65.99802
135.8879, 64.92878
136.3701, 63.81431
136.8522, 62.95253
137.3343, 62.66700
137.8164, 63.01468
138.2985, 63.60891
138.7806, 63.81790
139.2628, 63.58607
139.7449, 62.99384
140.2270, 61.60943
140.7091, 60.13525
141.1912, 59.22430
141.6733, 59.17372
142.1555, 59.76912
142.6376, 60.28460
143.1197, 61.06118
143.6018, 61.35475
144.0839, 60.84556
144.5660, 59.82171
145.0482, 58.66073
145.5303, 57.52966
146.0124, 56.49469
146.4945, 56.04177
146.9766, 56.70226
147.4587, 57.28658
147.9409, 57.22889
148.4230, 56.62243
148.9051, 55.91351
149.3872, 55.26651
149.8693, 54.80444
150.3514, 54.85469
150.8336, 56.05976
151.3157, 57.38979
151.7978, 57.77179
152.2799, 57.06016
152.7620, 56.31574
153.2441, 56.71928
153.7263, 57.63932
154.2084, 57.96139
154.6905, 56.94566
155.1726, 55.13476
155.6547, 53.62422
156.1368, 52.26738
156.6190, 51.57459
157.1011, 51.94506
157.5832, 53.05990
158.0653, 54.35323
158.5474, 55.76503
159.0295, 57.21141
159.5117, 57.51792
159.9938, 55.26844
160.4759, 53.20674
160.9580, 52.42807
161.4401, 52.69600
161.9222, 53.22771
162.4044, 53.31255
162.8865, 52.84114
163.3686, 52.56521
163.8507, 52.52563
164.3328, 52.62425
164.8149, 53.03181
165.2971, 53.63379
165.7792, 53.98974
166.2613, 53.47342
166.7434, 51.38287
167.2255, 50.57382
167.7076, 52.35499
168.1898, 54.33927
168.6719, 54.59013
169.1540, 52.80530
169.6361, 50.41003
170.1182, 49.46439
170.6003, 50.83922
171.0825, 51.50587
171.5646, 50.64543
172.0467, 49.27863
172.5288, 48.56852
173.0109, 48.86431
173.4930, 49.73645
173.9752, 50.64398
174.4573, 51.64913
174.9394, 52.40514
175.4215, 52.93266
175.9036, 53.14039
176.3857, 52.69557
176.8679, 51.20026
177.3500, 49.47760
177.8321, 48.59854
178.3142, 48.57279
178.7963, 48.88363
179.2784, 49.46305
179.7606, 50.24313
180.2427, 50.59060
180.7248, 49.96281
181.2069, 49.15367
181.6890, 48.95803
182.1711, 49.45613
182.6533, 49.97866
183.1354, 49.87868
183.6175, 49.09859
184.0996, 48.15321
184.5817, 46.52162
185.0638, 45.15640
185.5460, 44.68695
186.0281, 45.24182
186.5102, 46.46061
186.9923, 48.02629
187.4744, 50.32902
187.9565, 51.89182
188.4387, 52.46673
188.9208, 52.39933
189.4029, 51.68709
189.8850, 50.38020
190.3671, 48.91162
190.8492, 48.17800
191.3314, 49.17479
191.8135, 49.25502
192.2956, 47.38401
192.7777, 45.07655
193.2598, 43.69234
193.7419, 43.76264
194.2241, 44.81274
194.7062, 45.69814
195.1883, 46.14669
195.6704, 46.74458
196.1525, 47.91854
196.6346, 49.11240
197.1168, 49.54839
197.5989, 48.86126
198.0810, 47.51326
198.5631, 46.85600
199.0452, 47.55068
199.5273, 48.01168
200.0095, 47.82932
200.4916, 47.27477
200.9737, 46.75074
201.4558, 46.40459
201.9379, 46.25839
202.4200, 46.42677
202.9022, 47.16236
203.3843, 47.71552
203.8664, 47.77608
204.3485, 47.44436
204.8306, 47.00545
205.3127, 46.60680
205.7949, 46.12724
206.2770, 45.26484
206.7591, 43.71700
207.2412, 42.44332
207.7233, 42.10729
208.2054, 42.59217
208.6876, 43.19819
209.1697, 43.68671
209.6518, 44.12957
210.1339, 44.75673
210.6160, 45.77547
211.0981, 46.39441
211.5803, 45.50761
212.0624, 43.10978
212.5445, 41.50368
213.0266, 42.16647
213.5087, 43.63678
213.9908, 44.58245
214.4730, 44.77139
214.9551, 44.64876
215.4372, 44.71892
215.9193, 45.04665
216.4014, 45.16494
216.8835, 44.75281
217.3657, 44.17932
217.8478, 43.55724
218.3299, 42.90776
218.8120, 42.50074
219.2941, 42.93471
219.7762, 44.68899
220.2584, 45.67296
220.7405, 44.97465
221.2226, 43.76329
221.7047, 42.65022
222.1868, 41.83081
222.6689, 41.41290
223.1511, 41.74205
223.6332, 43.50719
224.1153, 44.41050
224.5974, 43.77773
225.0795, 42.64672
225.5616, 41.62178
226.0438, 40.91410
226.5259, 40.53173
227.0080, 40.53735
227.4901, 41.25825
227.9722, 41.77914
228.4543, 42.04020
228.9365, 42.14080
229.4186, 42.15501
229.9007, 42.10405
230.3828, 41.95464
230.8649, 41.63169
231.3470, 40.87617
231.8292, 40.37103
232.3113, 40.18465
232.7934, 40.18235
233.2755, 40.30474
233.7576, 40.52012
234.2397, 40.75278
234.7219, 40.86709
235.2040, 40.70716
235.6861, 40.71609
236.1682, 41.12069
236.6503, 41.56882
237.1324, 41.67633
237.6146, 41.35485
238.0967, 40.89752
238.5788, 40.72805
239.0609, 40.91279
239.5430, 41.30261
240.0252, 42.09119
240.5073, 42.98729
240.9894, 43.74267
241.4715, 44.30053
241.9536, 44.64540
242.4357, 44.74378
242.9179, 44.57557
243.4000, 44.21352
243.8821, 43.39228
244.3642, 42.50480
244.8463, 41.96837
245.3284, 41.86621
245.8106, 42.07763
246.2927, 42.72684
246.7748, 43.87349
247.2569, 44.12326
247.7390, 42.31931
248.2211, 39.91819
248.7033, 38.78669
249.1854, 39.29923
249.6675, 40.29798
250.1496, 40.68082
250.6317, 40.53659
251.1138, 40.37214
251.5960, 40.27275
252.0781, 40.21565
252.5602, 40.13083
253.0423, 39.98603
253.5244, 39.96753
254.0065, 40.50742
254.4887, 41.34883
254.9708, 41.71667
255.4529, 40.95176
255.9350, 39.79102
256.4171, 39.43056
256.8992, 40.11371
257.3813, 40.63515
257.8635, 39.53072
258.3456, 37.70935
258.8277, 36.76107
259.3098, 37.62056
259.7919, 39.31194
260.2740, 40.60228
260.7562, 41.53911
261.2383, 41.86581
261.7204, 40.84899
262.2025, 39.26537
262.6846, 38.03325
263.1667, 37.46513
263.6489, 37.29812
264.1310, 37.16531
264.6131, 37.04085
265.0952, 37.06449
265.5773, 37.42372
266.0594, 37.91615
266.5416, 38.39769
267.0237, 38.86939
267.5058, 39.21364
267.9879, 39.20777
268.4700, 38.76300
268.9521, 38.38055
269.4343, 38.28227
269.9164, 38.28984
270.3985, 38.26317
270.8806, 38.16175
271.3627, 38.09261
271.8448, 38.34563
272.3270, 39.09294
272.8091, 39.26373
273.2912, 37.85159
273.7733, 36.24065
274.2554, 35.26992
274.7375, 35.07776
275.2197, 35.26569
275.7018, 35.45025
276.1839, 35.64039
276.6660, 35.76342
277.1481, 35.78651
277.6302, 35.74928
278.1124, 35.59511
278.5945, 35.35471
279.0766, 35.19851
279.5587, 35.38398
280.0408, 35.97862
280.5229, 36.30835
281.0051, 36.13357
281.4872, 35.84967
281.9693, 35.30499
282.4514, 34.71462
282.9335, 34.70122
283.4156, 36.26876
283.8978, 39.48922
284.3799, 40.86514
284.8620, 38.59698
285.3441, 36.15424
285.8262, 34.40111
286.3083, 33.40013
286.7905, 33.12185
287.2726, 33.73054
287.7547, 35.08540
288.2368, 35.80040
288.7189, 35.37665
289.2010, 34.84914
289.6832, 34.47231
290.1653, 34.18700
290.6474, 33.81233
291.1295, 33.18568
291.6116, 32.49588
292.0938, 32.59985
292.5759, 34.45602
293.0580, 35.72686
293.5401, 35.69566
294.0222, 34.99805
294.5043, 34.29198
294.9865, 33.86461
295.4686, 33.66046
295.9507, 33.56788
296.4328, 33.70360
296.9149, 33.74019
297.3970, 33.64200
297.8792, 33.44302
298.3613, 33.04294
298.8434, 32.44503
299.3255, 31.96773
299.8076, 32.30207
300.2897, 34.24982
300.7719, 35.14774
301.2540, 34.18003
301.7361, 32.80595
302.2182, 31.77745
302.7003, 31.29977
303.1824, 31.30450
303.6646, 31.87018
304.1467, 33.35351
304.6288, 34.06990
305.1109, 33.22707
305.5930, 32.36036
306.0751, 32.33388
306.5573, 33.00919
307.0394, 33.60216
307.5215, 33.29942
308.0036, 31.99126
308.4857, 31.39067
308.9678, 32.47300
309.4500, 33.32848
309.9321, 33.23191
310.4142, 32.48470
310.8963, 31.78839
311.3784, 31.63504
311.8605, 31.93498
312.3427, 31.97161
312.8248, 31.20841
313.3069, 30.81867
313.7890, 31.39368
314.2711, 32.34557
314.7532, 32.91221
315.2354, 32.70901
315.7175, 31.94703
316.1996, 31.17785
316.6817, 30.01651
317.1638, 29.51748
317.6459, 30.08589
318.1281, 31.12249
318.6102, 32.19022
319.0923, 33.12546
319.5744, 33.88502
320.0565, 34.45370
320.5386, 35.04995
321.0208, 34.88793
321.5029, 33.12807
321.9850, 31.32952
322.4671, 30.51303
322.9492, 30.75251
323.4313, 31.40899
323.9135, 31.87180
324.3956, 32.18560
324.8777, 32.04829
325.3598, 30.88506
325.8419, 29.80170
326.3240, 29.16557
326.8062, 28.97095
327.2883, 29.07170
327.7704, 29.40214
328.2525, 29.94395
328.7346, 30.38363
329.2167, 30.79650
329.6989, 30.99898
330.1810, 30.83584
330.6631, 30.46475
331.1452, 30.13208
331.6273, 29.98355
332.1094, 29.91434
332.5916, 29.53466
333.0737, 28.36042
333.5558, 27.73831
334.0379, 28.34733
334.5200, 29.29170
335.0021, 29.65647
335.4843, 29.15943
335.9664, 28.34938
336.4485, 28.19337
336.9306, 29.05413
337.4127, 29.47781
337.8948, 28.76074
338.3770, 28.01536
338.8591, 28.01214
339.3412, 28.74647
339.8233, 29.56744
340.3054, 29.75603
340.7875, 29.22674
341.2697, 28.93433
341.7518, 29.35152
342.2339, 29.53741
342.7160, 28.76602
343.1981, 27.44899
343.6802, 26.61341
344.1624, 27.14128
344.6445, 28.67890
345.1266, 29.39150
345.6087, 28.71688
346.0908, 28.10679
346.5729, 28.09348
347.0551, 28.39364
347.5372, 28.62589
348.0193, 28.60715
348.5014, 28.55645
348.9835, 29.05858
349.4656, 30.49300
349.9478, 31.18714
350.4299, 29.90005
350.9120, 28.19785
351.3941, 27.27274
351.8762, 27.33794
352.3583, 27.61011
352.8405, 27.23520
353.3226, 26.18918
353.8047, 25.29051
354.2868, 24.41951
354.7689, 23.99891
355.2510, 24.50907
355.7332, 25.75191
356.2153, 26.89578
356.6974, 27.33584
357.1795, 27.23304
357.6616, 27.22642
358.1437, 27.39605
358.6259, 27.50503
359.1080, 27.46088
359.5901, 27.26826
360.0722, 26.85871
360.5543, 25.94897
361.0364, 25.11295
361.5186, 25.40322
362.0007, 27.00694
362.4828, 28.23924
362.9649, 28.14677
363.4471, 27.46190
363.9292, 26.91931
364.4113, 26.53671
364.8934, 26.55132
365.3755, 27.51238
365.8576, 29.17763
366.3398, 30.16943
366.8219, 30.00804
367.3040, 29.30636
367.7861, 28.68190
368.2682, 28.12533
368.7503, 27.52440
369.2325, 26.77424
369.7146, 25.96539
370.1967, 25.12879
370.6788, 24.19195
371.1609, 23.71002
371.6430, 24.53798
372.1252, 26.20928
372.6073, 27.13544
373.0894, 26.29491
373.5715, 25.28963
374.0536, 25.60780
374.5357, 27.01765
375.0179, 28.13078
375.5000, 28.22589
375.9821, 27.63353
376.4642, 27.12158
376.9463, 26.60211
377.4284, 26.33849
377.9106, 26.73031
378.3927, 27.37848
378.8748, 27.45235
379.3569, 26.66735
379.8390, 25.79490
380.3211, 25.96569
380.8033, 27.46555
381.2854, 28.29859
381.7675, 27.98984
382.2496, 27.20321
382.7317, 26.21096
383.2138, 25.14238
383.6960, 24.43335
384.1781, 24.46707
384.6602, 25.18655
385.1423, 25.71566
385.6244, 26.16580
386.1065, 26.34736
386.5887, 26.06287
387.0708, 25.49095
387.5529, 24.83844
388.0350, 24.17804
388.5171, 23.68583
388.9992, 23.76246
389.4814, 25.03992
389.9635, 25.93341
390.4456, 26.21397
390.9277, 26.27019
391.4098, 26.47430
391.8919, 26.84060
392.3741, 27.04309
392.8562, 26.67547
393.3383, 25.59702
393.8204, 25.03115
394.3025, 25.37642
394.7846, 25.78115
395.2668, 26.00673
395.7489, 26.07518
396.2310, 26.07426
396.7131, 26.05233
397.1952, 26.00640
397.6773, 25.94145
398.1595, 25.98085
398.6416, 25.77514
399.1237, 24.90937
399.6058, 24.03343
400.0879, 23.74865
400.5700, 24.17244
401.0522, 24.90640
401.5343, 25.40394
402.0164, 25.54361
402.4985, 26.17986
402.9806, 28.02212
403.4627, 29.72980
403.9449, 30.83295
404.4270, 31.33741
404.9091, 31.33603
405.3912, 30.72886
405.8733, 29.73422
406.3554, 28.98236
406.8376, 28.38833
407.3197, 28.25073
407.8018, 29.12253
408.2839, 30.30153
408.7660, 31.03326
409.2481, 31.09148
409.7303, 30.99465
410.2124, 31.36850
410.6945, 32.16410
411.1766, 32.55507
411.6587, 32.00193
412.1408, 31.47609
412.6230, 32.19191
413.1051, 33.93446
413.5872, 35.05796
414.0693, 34.39203
414.5514, 32.86146
415.0335, 31.73297
415.5157, 31.03962
415.9978, 31.20107
416.4799, 32.99683
416.9620, 35.80567
417.4441, 37.64552
417.9262, 37.92741
418.4084, 37.92175
418.8905, 38.08606
419.3726, 38.50661
419.8547, 39.62178
420.3368, 41.77241
420.8189, 44.02541
421.3011, 44.66740
421.7832, 43.18774
422.2653, 42.37199
422.7474, 42.79320
423.2295, 43.80932
423.7116, 45.12569
424.1938, 46.59234
424.6759, 47.75200
425.1580, 48.18116
425.6401, 47.93795
426.1222, 48.12878
426.6043, 49.08458
427.0865, 50.01678
427.5686, 50.80318
428.0507, 51.42847
428.5328, 51.80238
429.0149, 51.90198
429.4970, 51.97384
429.9792, 52.48100
430.4613, 53.72212
430.9434, 54.76087
431.4255, 55.50176
431.9076, 56.16544
432.3897, 57.02655
432.8719, 57.95778
433.3540, 58.49987
433.8361, 58.18257
434.3182, 57.18377
434.8003, 56.82942
435.2824, 57.59497
435.7646, 58.30149
436.2467, 58.76799
436.7288, 58.98240
437.2109, 58.82733
437.6930, 58.26030
438.1751, 57.66773
438.6573, 57.62144
439.1394, 58.17554
439.6215, 58.55056
440.1036, 58.90542
440.5857, 58.72035
441.0678, 57.45280
441.5500, 55.34828
442.0321, 53.33705
442.5142, 51.92767
442.9963, 50.88630
443.4784, 49.70307
443.9605, 48.31887
444.4427, 47.27355
444.9248, 47.07885
445.4069, 47.28395
445.8890, 47.02498
446.3711, 46.01842
446.8532, 45.24142
447.3354, 45.67702
447.8175, 46.68211
448.2996, 46.77687
448.7817, 45.57112
449.2638, 43.81722
449.7459, 42.13251
450.2281, 40.51926
450.7102, 39.59125
451.1923, 39.63441
451.6744, 40.13497
452.1565, 41.10947
452.6386, 42.31258
453.1208, 43.06408
453.6029, 42.97589
454.0850, 42.33614
454.5671, 41.94157
455.0492, 41.98584
455.5313, 42.02790
456.0135, 42.07239
456.4956, 42.10616
456.9777, 42.12049
457.4598, 42.11344
457.9419, 42.08754
458.4240, 42.04662
458.9062, 41.99110
459.3883, 41.90267
459.8704, 41.81753
460.3525, 41.65054
460.8346, 41.18161
461.3167, 40.69468
461.7989, 40.59188
462.2810, 41.03114
462.7631, 41.70458
463.2452, 42.35123
463.7273, 43.14210
464.2094, 42.83445
464.6916, 40.07234
465.1737, 37.28820
465.6558, 35.95605
466.1379, 35.84972
466.6200, 35.91665
467.1021, 35.62323
467.5843, 35.11609
468.0664, 34.63654
468.5485, 34.16117
469.0306, 33.90339
469.5127, 34.26838
469.9948, 34.71471
470.4770, 34.41167
470.9591, 33.21371
471.4412, 31.71184
471.9233, 29.74670
472.4054, 27.78488
472.8875, 26.85486
473.3697, 27.18266
473.8518, 27.83656
474.3339, 28.00674
474.8160, 27.68669
475.2981, 27.45683
475.7802, 27.66308
476.2624, 27.59713
476.7445, 26.68693
477.2266, 25.31666
477.7087, 24.17478
478.1908, 23.52365
478.6729, 23.29527
479.1551, 23.40728
479.6372, 24.14629
480.1193, 24.54666
480.6014, 24.44119
481.0835, 24.19740
481.5656, 23.91349
482.0478, 23.66358
482.5299, 23.60990
483.0120, 23.91620
483.4941, 24.38897
483.9762, 24.22515
484.4583, 23.00736
484.9405, 22.00370
485.4226, 21.59037
485.9047, 21.37766
486.3868, 21.06129
486.8689, 20.60810
487.3510, 20.21827
487.8332, 20.05654
488.3153, 20.10146
488.7974, 20.25065
489.2795, 20.50748
489.7616, 20.85327
490.2437, 21.49115
490.7259, 22.16135
491.2080, 22.42942
491.6901, 22.11628
492.1722, 21.58610
492.6543, 20.87370
493.1364, 20.14104
493.6186, 20.02212
494.1007, 20.82182
494.5828, 21.62186
495.0649, 21.19424
495.5470, 19.37140
496.0291, 18.33500
496.5113, 18.64643
496.9934, 19.29969
497.4755, 19.81648
497.9576, 20.19925
498.4397, 20.58900
498.9218, 21.06240
499.4040, 21.47258
499.8861, 21.44526
500.3682, 20.45435
500.8503, 20.00851
501.3324, 20.75029
501.8145, 21.42357
502.2967, 21.14058
502.7788, 20.06353
503.2609, 18.90868
503.7430, 18.11434
504.2251, 17.68852
504.7072, 17.79191
505.1894, 18.88807
505.6715, 19.44127
506.1536, 18.62731
506.6357, 17.41580
507.1178, 16.45203
507.5999, 15.83910
508.0821, 15.51845
508.5642, 15.41656
509.0463, 15.57313
509.5284, 16.31579
510.0105, 17.88669
510.4926, 19.01123
510.9748, 18.44458
511.4569, 16.98326
511.9390, 16.56857
512.4211, 17.87751
512.9032, 19.18420
513.3853, 19.58379
513.8674, 19.43308
514.3495, 19.34194
514.8317, 19.44635
515.3138, 19.51962
515.7959, 19.31853
516.2780, 18.81951
516.7601, 18.37107
517.2422, 17.67317
517.7244, 17.34771
518.2065, 18.02349
518.6886, 19.06255
519.1707, 19.45871
519.6528, 18.88122
520.1349, 17.96556
520.6171, 17.78942
521.0992, 18.70934
521.5813, 18.90725
522.0634, 17.25456
522.5455, 15.99312
523.0276, 16.25945
523.5098, 17.45650
523.9919, 18.42089
524.4740, 18.62720
524.9561, 18.43500
525.4382, 18.31351
525.9203, 18.26377
526.4025, 18.29000
526.8846, 18.49540
527.3667, 18.63840
527.8488, 18.35736
528.3309, 17.74217
528.8130, 17.39751
529.2952, 17.76243
529.7773, 18.27164
530.2594, 18.25626
530.7415, 17.86833
531.2236, 17.95824
531.7057, 19.03240
532.1879, 20.39275
532.6700, 20.61650
533.1521, 18.81397
533.6342, 17.91179
534.1163, 18.65839
534.5984, 19.72728
535.0806, 20.32631
535.5627, 20.48492
536.0448, 20.62497
536.5269, 21.04351
537.0090, 21.46447
537.4911, 20.90076
537.9733, 18.49933
538.4554, 16.99643
538.9375, 17.10464
539.4196, 17.83137
539.9017, 18.93881
540.3839, 20.19866
540.8660, 21.00315
541.3481, 20.69936
541.8302, 19.82550
542.3123, 19.76365
542.7944, 20.66246
543.2766, 21.01055
543.7587, 19.75324
544.2408, 18.02518
544.7229, 17.58935
545.2050, 18.60627
545.6871, 19.39175
546.1693, 19.17247
546.6514, 18.55877
547.1335, 18.14865
547.6156, 17.98823
548.0977, 17.93488
548.5798, 17.87211
549.0620, 17.90381
549.5441, 18.37924
550.0262, 20.43422
550.5083, 21.38150
550.9904, 20.28326
551.4725, 18.77450
551.9547, 17.92143
552.4368, 17.83631
552.9189, 18.28493
553.4010, 19.22688
553.8831, 20.41616
554.3652, 20.80920
554.8474, 20.17246
555.3295, 19.32420
555.8116, 17.70432
556.2937, 16.48558
556.7758, 16.95011
557.2579, 19.00281
557.7401, 20.74838
558.2222, 20.98745
558.7043, 20.24294
559.1864, 19.12805
559.6685, 17.66440
560.1506, 16.80919
560.6328, 17.21513
561.1149, 18.34004
561.5970, 19.00538
562.0791, 19.08265
562.5612, 19.20977
563.0433, 19.49757
563.5255, 19.88311
564.0076, 20.29899
564.4897, 20.75950
564.9718, 21.41046
565.4539, 22.39141
565.9360, 23.47986
566.4182, 23.90092
566.9003, 23.35277
567.3824, 22.68675
567.8645, 21.47385
568.3466, 20.58300
568.8287, 20.81184
569.3109, 21.91755
569.7930, 22.92954
570.2751, 23.22051
570.7572, 23.07247
571.2393, 23.04569
571.7214, 23.14555
572.2036, 23.30882
572.6857, 23.58075
573.1678, 23.83467
573.6499, 23.94357
574.1320, 23.91232
574.6141, 23.74367
575.0963, 22.87063
575.5784, 22.31225
576.0605, 23.54478
576.5426, 25.94966
577.0247, 27.25974
577.5068, 26.35013
577.9890, 24.42263
578.4711, 23.79012
578.9532, 25.32695
579.4353, 25.93088
579.9174, 24.97727
580.3995, 23.84047
580.8817, 22.82757
581.3638, 22.18579
581.8459, 22.38896
582.3280, 23.73116
582.8101, 25.43759
583.2922, 26.20761
583.7744, 25.97305
584.2565, 25.79244
584.7386, 25.98245
585.2207, 25.98199
585.7028, 24.90953
586.1849, 23.34193
586.6671, 22.84563
587.1492, 24.39591
587.6313, 26.30786
588.1134, 27.31320
588.5955, 27.75259
589.0776, 28.58367
589.5598, 30.06700
590.0419, 31.26447
590.5240, 30.99211
591.0061, 29.13663
591.4882, 28.49093
591.9703, 29.98404
592.4525, 31.40500
592.9346, 32.15636
593.4167, 32.57573
593.8988, 33.15856
594.3809, 33.97233
594.8630, 34.57635
595.3452, 34.26180
595.8273, 33.18161
596.3094, 33.23822
596.7915, 34.99744
597.2736, 36.60295
597.7557, 37.10442
598.2379, 37.12079
598.7200, 37.27912
599.2021, 37.66663
599.6842, 37.98018
600.1663, 37.73248
600.6484, 37.48309
601.1306, 38.17373
601.6127, 39.77983
602.0948, 41.51007
602.5769, 42.98885
603.0590, 44.14244
603.5411, 44.75391
604.0233, 44.38645
604.5054, 44.16609
604.9875, 44.12131
605.4696, 44.19501
605.9517, 44.42292
606.4338, 44.73756
606.9160, 45.03357
607.3981, 45.27826
607.8802, 45.35495
608.3623, 44.98260
608.8444, 44.11253
609.3265, 43.13489
609.8087, 41.79237
610.2908, 40.78223
