##NAMES=Wagnerite
##RRUFFID=R070559
##IDEAL CHEMISTRY=Mg_2_PO_4_F
##LOCALITY=Panasqueira mine, near Fundão, Portugal
##OWNER=RRUFF
##SOURCE=Royal Ontario Museum
##DESCRIPTION=Pale orange fragments, intimately associated with panasqueiraite
##STATUS=The identification of this mineral is confirmed by single-crystal X-ray diffraction and chemical analysis.
##URL=rruff.info/R070559
##MEASURED CHEMISTRY=(Mg_0.88_Fe^2+^_0.63_Mn^2+^_0.47_Ca_0.02_)_Σ=2_(P_1.00_O_4_)(F_0.93_(OH)_0.07_)_Σ=1_; = light phase and the dark phase is panasqueiraite: (Ca_0.99_Mn_0.01_)_Σ=1_(Mg_0.99_Fe_0.01_)_Σ=1_P_1.00_O_4_(OH); OH estimated by charge balance
94.74744, 36.55611
95.22955, 36.43209
95.71167, 36.20568
96.19379, 35.92449
96.67590, 35.65011
97.15803, 35.39430
97.64014, 35.20992
98.12226, 35.03746
98.60438, 34.76444
99.08649, 34.34051
99.56861, 33.84747
100.0507, 33.40157
100.5328, 32.94234
101.0150, 32.51458
101.4971, 32.16494
101.9792, 31.89350
102.4613, 31.65545
102.9434, 31.43249
103.4255, 31.22773
103.9077, 31.04973
104.3898, 30.90321
104.8719, 30.77363
105.3540, 30.62319
105.8361, 30.39677
106.3182, 30.24420
106.8004, 30.29645
107.2825, 30.40148
107.7646, 30.36991
108.2467, 30.07641
108.7288, 29.54183
109.2109, 29.05107
109.6931, 28.46856
110.1752, 28.05468
110.6573, 27.97857
111.1394, 28.15280
111.6215, 28.35465
112.1037, 28.39666
112.5858, 28.25545
113.0679, 28.04040
113.5500, 27.62316
114.0321, 27.22602
114.5142, 27.04674
114.9964, 27.11585
115.4785, 27.24347
115.9606, 27.20171
116.4427, 27.00173
116.9248, 26.80209
117.4069, 26.63553
117.8891, 26.49413
118.3712, 26.35868
118.8533, 26.22186
119.3354, 26.09881
119.8175, 25.96299
120.2996, 25.82065
120.7818, 25.77570
121.2639, 25.98733
121.7460, 26.47062
122.2281, 26.79044
122.7102, 26.73271
123.1923, 26.56888
123.6745, 26.40033
124.1566, 26.25263
124.6387, 26.13803
125.1208, 26.08335
125.6029, 26.13560
126.0850, 26.14794
126.5672, 26.06885
127.0493, 25.97396
127.5314, 25.95016
128.0135, 26.02839
128.4956, 26.14172
128.9778, 26.10018
129.4599, 25.72498
129.9420, 25.38181
130.4241, 25.05023
130.9062, 24.77286
131.3883, 24.62642
131.8705, 24.66802
132.3526, 24.85529
132.8347, 24.94414
133.3168, 24.85515
133.7989, 24.77163
134.2810, 24.80301
134.7632, 24.92430
135.2453, 25.00028
135.7274, 24.93194
136.2095, 24.74448
136.6916, 24.56355
137.1737, 24.33351
137.6559, 24.14882
138.1380, 24.15615
138.6201, 24.40610
139.1022, 24.60779
139.5843, 24.50823
140.0664, 24.24639
140.5486, 24.00594
141.0307, 23.85641
141.5128, 23.78144
141.9949, 23.74764
142.4770, 23.81266
142.9591, 23.82827
143.4413, 23.69109
143.9234, 23.46741
144.4055, 23.27616
144.8876, 23.20301
145.3697, 23.24832
145.8518, 23.32943
146.3340, 23.50220
146.8161, 23.66318
147.2982, 23.78005
147.7803, 23.85597
148.2624, 23.91340
148.7445, 23.97965
149.2267, 24.07282
149.7088, 24.08834
150.1909, 23.94016
150.6730, 23.79966
151.1551, 23.79128
151.6372, 23.91784
152.1194, 24.06411
152.6015, 24.08337
153.0836, 23.90287
153.5657, 23.78069
154.0478, 23.72063
154.5300, 23.71619
155.0121, 23.78627
155.4942, 23.94141
155.9763, 24.10818
156.4584, 24.17084
156.9405, 24.13255
157.4227, 24.05105
157.9048, 23.86236
158.3869, 23.64381
158.8690, 23.58300
159.3511, 23.79104
159.8332, 24.07598
160.3154, 24.21340
160.7975, 24.20605
161.2796, 24.12805
161.7617, 23.98195
162.2438, 23.77649
162.7259, 23.63869
163.2081, 23.63378
163.6902, 23.68390
164.1723, 23.74186
164.6544, 23.80285
165.1365, 23.85375
165.6186, 23.88946
166.1008, 23.91815
166.5829, 23.89211
167.0650, 23.70687
167.5471, 23.52771
168.0292, 23.47824
168.5113, 23.58466
168.9935, 23.75607
169.4756, 23.84061
169.9577, 23.79169
170.4398, 23.73870
170.9219, 23.69052
171.4040, 23.64437
171.8862, 23.59009
172.3683, 23.52534
172.8504, 23.46668
173.3325, 23.45414
173.8146, 23.55456
174.2967, 23.62398
174.7789, 23.67738
175.2610, 23.69228
175.7431, 23.62164
176.2252, 23.43891
176.7073, 23.19550
177.1894, 23.06578
177.6716, 23.12835
178.1537, 23.19230
178.6358, 23.23829
179.1179, 23.26089
179.6000, 23.24805
180.0822, 23.19049
180.5643, 23.09643
181.0464, 22.99350
181.5285, 22.87643
182.0106, 22.75865
182.4927, 22.62507
182.9749, 22.48751
183.4570, 22.39945
183.9391, 22.38857
184.4212, 22.45084
184.9033, 22.56385
185.3854, 22.77301
185.8676, 22.95781
186.3497, 23.00879
186.8318, 22.92299
187.3139, 22.80678
187.7960, 22.67665
188.2781, 22.55465
188.7603, 22.45940
189.2424, 22.38550
189.7245, 22.35869
190.2066, 22.45150
190.6887, 22.72301
191.1708, 22.89533
191.6530, 22.78050
192.1351, 22.56718
192.6172, 22.41278
193.0993, 22.37739
193.5814, 22.40813
194.0635, 22.39746
194.5457, 22.31406
195.0278, 22.25187
195.5099, 22.24922
195.9920, 22.26593
196.4741, 22.26591
196.9562, 22.23342
197.4384, 22.17233
197.9205, 22.08735
198.4026, 21.90967
198.8847, 21.80911
199.3668, 21.86090
199.8489, 21.97703
200.3311, 22.06193
200.8132, 22.06730
201.2953, 22.00843
201.7774, 21.94572
202.2595, 21.88126
202.7417, 21.80976
203.2238, 21.76278
203.7059, 21.70141
204.1880, 21.53682
204.6701, 21.20878
205.1522, 20.79248
205.6344, 20.63812
206.1165, 21.01595
206.5986, 21.31440
207.0807, 21.37340
207.5628, 21.26529
208.0449, 21.11523
208.5271, 20.97663
209.0092, 20.86020
209.4913, 20.81516
209.9734, 20.88270
210.4555, 20.95484
210.9376, 20.99512
211.4198, 21.01058
211.9019, 21.02430
212.3840, 21.05504
212.8661, 21.08290
213.3482, 21.06079
213.8303, 20.99170
214.3125, 20.87669
214.7946, 20.68257
215.2767, 20.42690
215.7588, 20.21192
216.2409, 20.09357
216.7230, 20.03839
217.2052, 19.96093
217.6873, 19.83144
218.1694, 19.74340
218.6515, 19.80090
219.1336, 19.99778
219.6157, 20.16138
220.0979, 20.19254
220.5800, 20.17990
221.0621, 20.23701
221.5442, 20.39617
222.0263, 20.54138
222.5084, 20.54952
222.9906, 20.40998
223.4727, 20.24806
223.9548, 20.05595
224.4369, 19.88517
224.9190, 19.79232
225.4011, 19.79068
225.8833, 19.80572
226.3654, 19.70874
226.8475, 19.44539
227.3296, 19.33698
227.8117, 19.67292
228.2939, 20.04385
228.7760, 20.17357
229.2581, 20.01116
229.7402, 19.73527
230.2223, 19.57565
230.7044, 19.55834
231.1866, 19.57746
231.6687, 19.66000
232.1508, 19.74630
232.6329, 19.82651
233.1150, 19.88798
233.5971, 19.88585
234.0793, 19.71962
234.5614, 19.23976
235.0435, 18.97609
235.5256, 19.10334
236.0077, 19.29583
236.4898, 19.33425
236.9720, 19.19165
237.4541, 19.01077
237.9362, 18.99579
238.4183, 19.24933
238.9004, 19.42193
239.3825, 19.49491
239.8647, 19.51717
240.3468, 19.50825
240.8289, 19.47637
241.3110, 19.42923
241.7931, 19.37333
242.2752, 19.29930
242.7574, 19.24676
243.2395, 19.21858
243.7216, 19.20585
244.2037, 19.19550
244.6858, 19.18985
245.1679, 19.21425
245.6501, 19.30887
246.1322, 19.51523
246.6143, 19.60494
247.0964, 19.52537
247.5785, 19.38319
248.0606, 19.21163
248.5428, 19.03074
249.0249, 18.90102
249.5070, 18.90034
249.9891, 19.05973
250.4712, 19.09779
250.9533, 18.90160
251.4355, 18.67984
251.9176, 18.58232
252.3997, 18.60977
252.8818, 18.65695
253.3639, 18.63870
253.8461, 18.55112
254.3282, 18.46785
254.8103, 18.38913
255.2924, 18.31430
255.7745, 18.21444
256.2566, 18.09967
256.7387, 18.06251
257.2209, 18.20201
257.7030, 18.48569
258.1851, 18.66848
258.6672, 18.72772
259.1493, 18.70428
259.6314, 18.59478
260.1136, 18.40866
260.5957, 18.22454
261.0778, 18.08387
261.5599, 17.98241
262.0420, 17.88581
262.5241, 17.75610
263.0063, 17.67571
263.4884, 17.73455
263.9705, 17.91652
264.4526, 18.07942
264.9348, 18.14551
265.4169, 18.15783
265.8990, 18.21351
266.3811, 18.34963
266.8632, 18.45267
267.3453, 18.42769
267.8275, 18.28781
268.3096, 18.12673
268.7917, 17.94453
269.2738, 17.79014
269.7559, 17.73082
270.2380, 17.78345
270.7202, 17.84471
271.2023, 17.82877
271.6844, 17.75024
272.1665, 17.71436
272.6486, 17.78129
273.1307, 17.86355
273.6129, 17.85569
274.0950, 17.75887
274.5771, 17.69141
275.0592, 17.77674
275.5413, 17.97823
276.0234, 18.07509
276.5056, 17.98829
276.9877, 17.84551
277.4698, 17.72541
277.9519, 17.63285
278.4340, 17.59078
278.9161, 17.65756
279.3983, 17.79827
279.8804, 17.84529
280.3625, 17.72898
280.8446, 17.61097
281.3267, 17.60432
281.8088, 17.67144
282.2910, 17.72319
282.7731, 17.68551
283.2552, 17.59675
283.7373, 17.60708
284.2194, 17.81039
284.7015, 17.93139
285.1837, 17.76028
285.6658, 17.45073
286.1479, 17.23017
286.6300, 17.20980
287.1121, 17.33347
287.5942, 17.50490
288.0764, 17.78750
288.5585, 17.96217
289.0406, 17.85785
289.5227, 17.65168
290.0048, 17.53082
290.4869, 17.56888
290.9691, 17.68688
291.4512, 17.76444
291.9333, 17.81129
292.4154, 17.78401
292.8975, 17.56176
293.3796, 17.32670
293.8618, 17.24301
294.3439, 17.35198
294.8260, 17.51480
295.3081, 17.53655
295.7902, 17.37689
296.2723, 17.26812
296.7545, 17.31226
297.2366, 17.37306
297.7187, 17.36843
298.2008, 17.29392
298.6829, 17.20691
299.1650, 17.15483
299.6472, 17.13506
300.1293, 17.17448
300.6114, 17.39451
301.0935, 17.56619
301.5756, 17.54526
302.0577, 17.37367
302.5399, 17.21079
303.0220, 17.21612
303.5041, 17.37705
303.9862, 17.39153
304.4683, 17.06559
304.9504, 16.81710
305.4326, 16.82727
305.9147, 17.01640
306.3968, 17.24371
306.8789, 17.45145
307.3610, 17.61606
307.8431, 17.61372
308.3253, 17.30632
308.8074, 17.04570
309.2895, 16.95230
309.7716, 16.94520
310.2537, 16.92695
310.7358, 16.85238
311.2180, 16.75512
311.7001, 16.71704
312.1822, 16.77665
312.6643, 16.80905
313.1465, 16.74907
313.6286, 16.67931
314.1107, 16.66666
314.5928, 16.72910
315.0749, 16.83629
315.5570, 16.95365
316.0392, 17.09055
316.5213, 17.20215
317.0034, 17.32999
317.4855, 17.39686
317.9676, 17.29703
318.4497, 17.05591
318.9319, 16.84470
319.4140, 16.88266
319.8961, 17.21020
320.3782, 17.38513
320.8603, 17.25609
321.3424, 17.10519
321.8246, 17.02684
322.3067, 17.01412
322.7888, 17.03297
323.2709, 17.07864
323.7530, 17.13769
324.2351, 17.09863
324.7173, 16.85337
325.1994, 16.66100
325.6815, 16.60050
326.1636, 16.63524
326.6457, 16.72831
327.1278, 16.87713
327.6100, 17.03339
328.0921, 17.06416
328.5742, 16.89042
329.0563, 16.76098
329.5384, 16.79796
330.0205, 16.86399
330.5027, 16.81164
330.9848, 16.59962
331.4669, 16.37071
331.9490, 16.35722
332.4311, 16.63035
332.9132, 16.80552
333.3954, 16.75686
333.8775, 16.64386
334.3596, 16.52885
334.8417, 16.42478
335.3238, 16.33571
335.8059, 16.26362
336.2881, 16.20821
336.7702, 16.18117
337.2523, 16.22688
337.7344, 16.25059
338.2165, 16.16805
338.6986, 16.02957
339.1808, 15.95781
339.6629, 16.06597
340.1450, 16.28849
340.6271, 16.36661
341.1092, 16.22098
341.5913, 16.08115
342.0735, 16.02173
342.5556, 16.02143
343.0377, 16.06940
343.5198, 16.17528
344.0019, 16.28649
344.4840, 16.30835
344.9662, 16.21974
345.4483, 16.13581
345.9304, 16.09280
346.4125, 16.06658
346.8946, 16.04383
347.3767, 16.02209
347.8589, 16.00225
348.3410, 15.97526
348.8231, 15.94208
349.3052, 15.95090
349.7873, 16.04659
350.2694, 16.14307
350.7516, 16.17598
351.2337, 16.15647
351.7158, 16.13494
352.1979, 16.15018
352.6800, 16.18722
353.1621, 16.19519
353.6443, 16.16578
354.1264, 16.12393
354.6085, 16.09081
355.0906, 16.05463
355.5727, 15.99301
356.0548, 15.88769
356.5370, 15.76702
357.0191, 15.66087
357.5012, 15.56830
357.9833, 15.50701
358.4654, 15.49587
358.9475, 15.51625
359.4297, 15.54541
359.9118, 15.58109
360.3939, 15.62761
360.8760, 15.71079
361.3581, 15.81568
361.8402, 15.85373
362.3224, 15.76133
362.8045, 15.66472
363.2866, 15.74409
363.7687, 15.97551
364.2509, 16.10582
364.7330, 15.92827
365.2151, 15.62002
365.6972, 15.50917
366.1793, 15.65394
366.6614, 15.80260
367.1436, 15.72593
367.6257, 15.50061
368.1078, 15.36616
368.5899, 15.39659
369.0720, 15.49173
369.5541, 15.61278
370.0363, 15.74665
370.5184, 15.78698
371.0005, 15.63666
371.4826, 15.40542
371.9647, 15.34870
372.4468, 15.52708
372.9290, 15.70317
373.4111, 15.78934
373.8932, 15.81060
374.3753, 15.81003
374.8574, 15.79917
375.3395, 15.76642
375.8217, 15.69358
376.3038, 15.57756
376.7859, 15.44684
377.2680, 15.21248
377.7501, 15.02656
378.2322, 15.07258
378.7144, 15.33269
379.1965, 15.58122
379.6786, 15.64574
380.1607, 15.54280
380.6428, 15.48983
381.1249, 15.53953
381.6071, 15.57384
382.0892, 15.54967
382.5713, 15.48084
383.0534, 15.38333
383.5355, 15.25952
384.0176, 15.14017
384.4998, 15.09215
384.9819, 15.16496
385.4640, 15.23410
385.9461, 15.31139
386.4282, 15.37516
386.9103, 15.41953
387.3925, 15.43713
387.8746, 15.39668
388.3567, 15.24877
388.8388, 14.96162
389.3209, 14.80273
389.8030, 14.85064
390.2852, 14.92311
390.7673, 14.94676
391.2494, 14.94211
391.7315, 14.97002
392.2136, 15.07025
392.6957, 15.21264
393.1779, 15.27966
393.6600, 15.23679
394.1421, 15.15846
394.6242, 14.97355
395.1063, 14.80241
395.5884, 14.77720
396.0706, 14.92008
396.5527, 15.12048
397.0348, 15.23133
397.5169, 15.22620
397.9990, 15.23433
398.4811, 15.26833
398.9633, 15.30434
399.4454, 15.33677
399.9275, 15.36357
400.4096, 15.37954
400.8917, 15.37206
401.3738, 15.35553
401.8560, 15.40424
402.3381, 15.58200
402.8202, 15.70153
403.3023, 15.66162
403.7844, 15.56429
404.2665, 15.49881
404.7487, 15.48852
405.2308, 15.54790
405.7129, 15.74852
406.1950, 16.10682
406.6771, 16.31397
407.1592, 16.18239
407.6414, 16.01802
408.1235, 16.07143
408.6056, 16.30726
409.0877, 16.50876
409.5698, 16.47499
410.0519, 16.32958
410.5341, 16.38701
411.0162, 16.69746
411.4983, 17.04499
411.9804, 17.33404
412.4626, 17.56396
412.9447, 17.71497
413.4268, 17.73728
413.9089, 17.75863
414.3910, 17.87388
414.8731, 18.07436
415.3553, 18.33016
415.8374, 18.65571
416.3195, 18.99269
416.8016, 19.23427
417.2837, 19.37288
417.7658, 19.56162
418.2480, 19.91195
418.7301, 20.29580
419.2122, 20.52519
419.6943, 20.59036
420.1764, 20.71024
420.6585, 21.08852
421.1407, 21.69182
421.6228, 22.11115
422.1049, 22.22055
422.5870, 22.30883
423.0691, 22.48884
423.5512, 22.72650
424.0334, 22.96895
424.5155, 23.19613
424.9976, 23.38830
425.4797, 23.49559
425.9618, 23.39147
426.4439, 23.46903
426.9261, 23.97704
427.4082, 24.46949
427.8903, 24.61503
428.3724, 24.42300
428.8545, 24.10241
429.3366, 23.80647
429.8188, 23.53798
430.3009, 23.38829
430.7830, 23.47779
431.2651, 23.56049
431.7472, 23.63808
432.2293, 23.67279
432.7115, 23.59354
433.1936, 23.37877
433.6757, 23.13084
434.1578, 23.04784
434.6399, 23.21440
435.1220, 23.24547
435.6042, 22.98575
436.0863, 22.68915
436.5684, 22.46286
437.0505, 22.30497
437.5326, 22.16937
438.0147, 22.03318
438.4969, 21.89362
438.9790, 21.73851
439.4611, 21.56050
439.9432, 21.38590
440.4253, 21.28747
440.9074, 21.16915
441.3896, 20.88977
441.8717, 20.38882
442.3538, 19.90348
442.8359, 19.69016
443.3180, 19.69840
443.8001, 19.63244
444.2823, 19.41421
444.7644, 19.14807
445.2465, 18.93523
445.7286, 18.76211
446.2107, 18.57772
446.6928, 18.38153
447.1750, 18.15852
447.6571, 17.86082
448.1392, 17.50241
448.6213, 17.20664
449.1034, 17.05485
449.5855, 16.99677
450.0677, 16.88563
450.5498, 16.67351
451.0319, 16.51724
451.5140, 16.50127
451.9961, 16.54251
452.4782, 16.54087
452.9604, 16.47746
453.4425, 16.39386
453.9246, 16.33723
454.4067, 16.31576
454.8888, 16.22933
455.3709, 15.97647
455.8531, 15.78047
456.3352, 15.77065
456.8173, 15.86298
457.2994, 15.91459
457.7815, 15.85929
458.2636, 15.73481
458.7458, 15.61342
459.2279, 15.47275
459.7100, 15.38506
460.1921, 15.38019
460.6742, 15.39775
461.1564, 15.41295
461.6385, 15.41949
462.1206, 15.41497
462.6027, 15.39873
463.0848, 15.36959
463.5670, 15.31687
464.0491, 15.22097
464.5312, 15.14202
465.0133, 15.12354
465.4954, 15.11926
465.9775, 15.08401
466.4597, 15.00686
466.9418, 14.90388
467.4239, 14.75962
467.9060, 14.58941
468.3881, 14.51026
468.8702, 14.58440
469.3524, 14.66304
469.8345, 14.60463
470.3166, 14.44833
470.7987, 14.29965
471.2808, 14.18786
471.7629, 14.09227
472.2451, 13.99337
472.7272, 13.89417
473.2093, 13.81593
473.6914, 13.77748
474.1735, 13.74682
474.6556, 13.65204
475.1378, 13.46981
475.6199, 13.31345
476.1020, 13.20300
476.5841, 13.12257
477.0662, 13.05651
477.5483, 13.00515
478.0305, 12.98496
478.5126, 13.01688
478.9947, 13.08884
479.4768, 13.09359
479.9589, 13.00677
480.4410, 12.87961
480.9232, 12.64324
481.4053, 12.40825
481.8874, 12.31265
482.3695, 12.37729
482.8516, 12.48323
483.3337, 12.48498
483.8159, 12.36978
484.2980, 12.25739
484.7801, 12.12473
485.2622, 12.02359
485.7443, 11.96802
486.2264, 11.95588
486.7086, 11.99720
487.1907, 12.11139
487.6728, 12.22498
488.1549, 12.21051
488.6370, 12.05788
489.1191, 11.94499
489.6013, 11.93499
490.0834, 11.95028
490.5655, 11.92830
491.0476, 11.87089
491.5297, 11.78997
492.0118, 11.63552
492.4940, 11.49072
492.9761, 11.48206
493.4582, 11.60557
493.9403, 11.74788
494.4224, 11.87397
494.9045, 11.96150
495.3867, 11.93845
495.8688, 11.75781
496.3509, 11.60610
496.8330, 11.54518
497.3151, 11.52325
497.7972, 11.48434
498.2794, 11.42328
498.7615, 11.36899
499.2436, 11.34595
499.7257, 11.35323
500.2078, 11.37417
500.6899, 11.42846
501.1721, 11.47251
501.6542, 11.50503
502.1363, 11.52100
502.6184, 11.51242
503.1005, 11.47868
503.5826, 11.43125
504.0648, 11.37508
504.5469, 11.30487
505.0290, 11.28423
505.5111, 11.38308
505.9932, 11.44353
506.4753, 11.36171
506.9575, 11.21478
507.4396, 11.13167
507.9217, 11.17082
508.4038, 11.24983
508.8859, 11.26554
509.3680, 11.22178
509.8502, 11.18845
510.3323, 11.18278
510.8144, 11.18815
511.2965, 11.19734
511.7787, 11.20713
512.2607, 11.19386
512.7429, 11.13423
513.2250, 11.06312
513.7071, 11.00725
514.1892, 10.96556
514.6713, 10.92890
515.1534, 10.89263
515.6356, 10.86068
516.1177, 10.84269
516.5998, 10.85408
517.0819, 10.84352
517.5640, 10.79280
518.0461, 10.73369
518.5283, 10.68810
519.0104, 10.65417
519.4925, 10.61392
519.9746, 10.55175
520.4567, 10.48462
520.9388, 10.48411
521.4210, 10.61975
521.9031, 10.69032
522.3852, 10.59138
522.8673, 10.48893
523.3494, 10.52385
523.8315, 10.68561
524.3137, 10.84377
524.7958, 10.90404
525.2779, 10.88064
525.7600, 10.80975
526.2421, 10.67548
526.7242, 10.55315
527.2064, 10.46737
527.6885, 10.41825
528.1706, 10.41135
528.6527, 10.45414
529.1348, 10.50054
529.6169, 10.54072
530.0991, 10.56477
530.5812, 10.55067
531.0633, 10.49632
531.5454, 10.42624
532.0275, 10.34573
532.5096, 10.26498
532.9918, 10.25828
533.4739, 10.39763
533.9560, 10.50621
534.4381, 10.51398
534.9202, 10.49113
535.4024, 10.53683
535.8845, 10.65602
536.3666, 10.74718
536.8488, 10.69865
537.3309, 10.51093
537.8130, 10.35837
538.2951, 10.19238
538.7772, 10.13439
539.2593, 10.29462
539.7415, 10.52712
540.2236, 10.68561
540.7057, 10.73096
541.1878, 10.70715
541.6699, 10.64202
542.1520, 10.54079
542.6342, 10.42929
543.1163, 10.28938
543.5984, 10.18831
544.0805, 10.17161
544.5626, 10.22501
545.0447, 10.34271
545.5269, 10.58936
546.0090, 10.77483
546.4911, 10.73697
546.9732, 10.57295
547.4553, 10.47085
547.9374, 10.47074
548.4196, 10.50402
548.9017, 10.50195
549.3838, 10.46286
549.8659, 10.47159
550.3480, 10.61685
550.8301, 10.69612
551.3123, 10.57746
551.7944, 10.39600
552.2765, 10.34175
552.7586, 10.45378
553.2407, 10.58606
553.7228, 10.52964
554.2050, 10.26396
554.6871, 10.19942
555.1692, 10.48802
555.6513, 10.76723
556.1334, 10.91961
556.6155, 10.98201
557.0977, 10.98636
557.5798, 10.93214
558.0619, 10.88866
558.5440, 10.96977
559.0261, 11.12027
559.5082, 11.09203
559.9904, 10.80309
560.4725, 10.55845
560.9546, 10.64809
561.4367, 10.99050
561.9188, 11.14382
562.4009, 10.88548
562.8831, 10.71226
563.3652, 10.92566
563.8473, 11.28627
564.3294, 11.44140
564.8115, 11.32788
565.2936, 11.15073
565.7758, 11.11465
566.2579, 11.22008
566.7400, 11.30231
567.2221, 11.35038
567.7042, 11.38657
568.1863, 11.38752
568.6685, 11.39314
569.1506, 11.44455
569.6327, 11.54952
570.1148, 11.68467
570.5969, 11.86218
571.0790, 12.06221
571.5612, 12.12580
572.0433, 11.98244
572.5254, 11.90352
573.0075, 12.09018
573.4896, 12.39974
573.9717, 12.63418
574.4539, 12.78350
574.9360, 12.83658
575.4181, 12.70836
575.9002, 12.51745
576.3823, 12.42740
576.8644, 12.45466
577.3466, 12.54693
577.8287, 12.68346
578.3108, 12.84220
578.7929, 12.91383
579.2750, 12.75965
579.7571, 12.70069
580.2393, 12.84268
580.7214, 13.01938
581.2035, 13.11012
581.6856, 13.10484
582.1677, 13.04781
582.6498, 12.95607
583.1320, 12.85417
583.6141, 12.83849
584.0962, 12.93594
584.5783, 13.02641
585.0604, 13.05700
585.5425, 13.08469
