##NAMES=Wagnerite
##RRUFFID=R070559
##IDEAL CHEMISTRY=Mg_2_PO_4_F
##LOCALITY=Panasqueira mine, near Fundão, Portugal
##OWNER=RRUFF
##SOURCE=Royal Ontario Museum
##DESCRIPTION=Pale orange fragments, intimately associated with panasqueiraite
##STATUS=The identification of this mineral is confirmed by single-crystal X-ray diffraction and chemical analysis.
##URL=rruff.info/R070559
##MEASURED CHEMISTRY=(Mg_0.88_Fe^2+^_0.63_Mn^2+^_0.47_Ca_0.02_)_Σ=2_(P_1.00_O_4_)(F_0.93_(OH)_0.07_)_Σ=1_; = light phase and the dark phase is panasqueiraite: (Ca_0.99_Mn_0.01_)_Σ=1_(Mg_0.99_Fe_0.01_)_Σ=1_P_1.00_O_4_(OH); OH estimated by charge balance
91.00781, 5.861761
91.48993, 6.348141
91.97205, 6.542807
92.45416, 6.197704
92.93628, 5.572047
93.41840, 5.269683
93.90051, 5.472521
94.38263, 5.883576
94.86475, 6.019710
95.34686, 5.883072
95.82898, 5.680396
96.31110, 5.470725
96.79321, 5.276713
97.27533, 5.397903
97.75745, 6.035079
98.23956, 7.019881
98.72168, 7.559900
99.20380, 7.544425
99.68591, 7.414552
100.1680, 7.650056
100.6501, 8.301012
101.1323, 9.068468
101.6144, 9.910097
102.0965, 10.84405
102.5786, 11.59899
103.0607, 12.07577
103.5428, 12.46642
104.0250, 13.10498
104.5071, 14.05715
104.9892, 15.13770
105.4713, 16.25538
105.9534, 17.30685
106.4355, 18.62902
106.9177, 20.42497
107.3998, 22.49964
107.8819, 24.29732
108.3640, 25.56056
108.8461, 26.73268
109.3282, 28.03522
109.8104, 29.60122
110.2925, 31.11490
110.7746, 32.60920
111.2567, 34.05755
111.7388, 35.31115
112.2209, 36.10551
112.7031, 36.81880
113.1852, 37.72192
113.6673, 38.77448
114.1494, 40.09969
114.6315, 41.84687
115.1136, 44.04779
115.5958, 46.17461
116.0779, 47.80682
116.5600, 49.35535
117.0421, 51.27235
117.5242, 54.16371
118.0063, 57.15002
118.4885, 59.75981
118.9706, 61.88955
119.4527, 63.97803
119.9348, 66.16319
120.4169, 68.46609
120.8990, 70.96434
121.3812, 73.98008
121.8633, 77.06402
122.3454, 79.81850
122.8275, 82.27711
123.3096, 84.21630
123.7917, 85.22776
124.2739, 85.47822
124.7560, 85.57968
125.2381, 85.73991
125.7202, 86.04014
126.2023, 86.60873
126.6844, 87.47249
127.1666, 88.62077
127.6487, 90.30393
128.1308, 92.48003
128.6129, 94.35932
129.0950, 94.97073
129.5771, 94.67768
130.0593, 94.80952
130.5414, 95.92765
131.0235, 97.64970
131.5056, 98.95292
131.9877, 99.45579
132.4698, 99.27138
132.9520, 98.80761
133.4341, 98.09773
133.9162, 97.86639
134.3983, 98.56186
134.8804, 100.0267
135.3625, 101.0596
135.8447, 101.5740
136.3268, 101.9118
136.8089, 102.5948
137.2910, 103.6927
137.7731, 104.7354
138.2552, 105.6380
138.7374, 106.4444
139.2195, 106.7027
139.7016, 106.2735
140.1837, 105.4417
140.6658, 104.7721
141.1479, 104.2473
141.6301, 103.8891
142.1122, 103.7109
142.5943, 103.7425
143.0764, 103.8488
143.5585, 103.9814
144.0406, 104.1831
144.5228, 104.6741
145.0049, 105.7804
145.4870, 106.7648
145.9691, 107.1818
146.4512, 106.5491
146.9333, 106.1527
147.4155, 106.1108
147.8976, 106.3942
148.3797, 106.7316
148.8618, 107.1065
149.3439, 107.5509
149.8260, 108.0841
150.3082, 108.9304
150.7903, 109.6203
151.2724, 110.0381
151.7545, 110.1708
152.2366, 110.4487
152.7188, 110.8302
153.2009, 111.3841
153.6830, 112.1622
154.1651, 113.7617
154.6472, 115.0071
155.1293, 115.4842
155.6115, 115.0894
156.0936, 114.7781
156.5757, 114.6716
157.0578, 114.7405
157.5399, 114.9558
158.0220, 115.4427
158.5042, 115.9667
158.9863, 116.4666
159.4684, 116.9588
159.9505, 117.3441
160.4326, 117.4299
160.9147, 117.4170
161.3969, 117.6032
161.8790, 118.1406
162.3611, 118.8674
162.8432, 119.8372
163.3253, 121.2696
163.8074, 122.2414
164.2896, 121.8905
164.7717, 120.7748
165.2538, 120.0091
165.7359, 120.5475
166.2180, 121.3616
166.7001, 121.5981
167.1823, 120.8227
167.6644, 120.0803
168.1465, 120.0373
168.6286, 120.5518
169.1107, 121.2283
169.5928, 122.1309
170.0750, 122.9673
170.5571, 123.4152
171.0392, 123.2550
171.5213, 122.9293
172.0034, 122.8041
172.4855, 122.8365
172.9677, 122.8371
173.4498, 122.7168
173.9319, 122.4838
174.4140, 122.1273
174.8961, 121.5323
175.3782, 120.9423
175.8604, 120.6513
176.3425, 120.6300
176.8246, 120.6434
177.3067, 120.4916
177.7888, 120.2467
178.2709, 120.0848
178.7531, 120.2472
179.2352, 120.3683
179.7173, 119.7815
180.1994, 118.5099
180.6815, 117.1477
181.1636, 116.1645
181.6458, 115.5046
182.1279, 115.0353
182.6100, 114.6998
183.0921, 114.5269
183.5742, 114.6143
184.0563, 114.9676
184.5385, 115.4239
185.0206, 116.0233
185.5027, 116.6669
185.9848, 116.8402
186.4669, 116.1558
186.9490, 114.8941
187.4312, 113.7831
187.9133, 112.8245
188.3954, 112.1269
188.8775, 111.9616
189.3596, 112.2761
189.8417, 112.5777
190.3239, 112.7320
190.8060, 112.7315
191.2881, 112.4686
191.7702, 111.8988
192.2523, 111.2575
192.7344, 110.8343
193.2166, 110.6323
193.6987, 110.5058
194.1808, 110.4566
194.6629, 110.4676
195.1450, 110.2803
195.6271, 109.8325
196.1093, 109.3452
196.5914, 109.2074
197.0735, 109.4532
197.5556, 109.6179
198.0377, 109.4149
198.5198, 108.8375
199.0020, 108.5859
199.4841, 108.7896
199.9662, 109.0869
200.4483, 108.7484
200.9304, 107.6320
201.4125, 106.7405
201.8947, 106.6496
202.3768, 107.4444
202.8589, 107.9553
203.3410, 108.1556
203.8231, 108.1002
204.3052, 107.7913
204.7874, 107.1259
205.2695, 106.6335
205.7516, 106.6885
206.2337, 107.4379
206.7158, 107.6870
207.1979, 107.2624
207.6801, 106.4914
208.1622, 106.0879
208.6443, 106.1669
209.1264, 106.2487
209.6085, 106.0958
210.0906, 105.6463
210.5728, 105.2148
211.0549, 104.7263
211.5370, 104.3183
212.0191, 104.3807
212.5012, 105.0982
212.9833, 105.8336
213.4655, 106.3048
213.9476, 106.4994
214.4297, 106.4617
214.9118, 106.0670
215.3939, 105.5066
215.8760, 105.2825
216.3581, 105.5500
216.8403, 105.8370
217.3224, 105.8944
217.8045, 105.6165
218.2866, 105.4454
218.7687, 105.4559
219.2508, 105.5509
219.7330, 105.4310
220.2151, 104.9300
220.6972, 104.5149
221.1793, 104.4277
221.6614, 104.7762
222.1435, 105.1676
222.6257, 105.6582
223.1078, 106.1677
223.5899, 106.5157
224.0720, 106.7963
224.5541, 106.7641
225.0362, 106.2121
225.5184, 104.7547
226.0005, 103.7400
226.4826, 103.1939
226.9647, 103.1011
227.4468, 103.4961
227.9289, 104.7815
228.4111, 105.9373
228.8932, 106.4422
229.3753, 105.9262
229.8574, 105.6473
230.3395, 105.6890
230.8216, 105.9651
231.3038, 106.2691
231.7859, 106.6993
232.2680, 107.0074
232.7501, 107.0536
233.2322, 106.6713
233.7143, 106.3963
234.1965, 106.2241
234.6786, 106.1594
235.1607, 106.2215
235.6428, 106.4554
236.1249, 106.7471
236.6070, 107.0840
237.0892, 107.6345
237.5713, 107.8180
238.0534, 107.3834
238.5355, 106.6454
239.0176, 106.4469
239.4997, 107.1104
239.9819, 107.8493
240.4640, 108.3490
240.9461, 108.6189
241.4282, 108.6056
241.9103, 108.0892
242.3924, 107.3601
242.8746, 107.1751
243.3567, 107.9779
243.8388, 108.6517
244.3209, 108.6773
244.8030, 107.6656
245.2851, 107.0463
245.7673, 106.8777
246.2494, 107.0784
246.7315, 107.5355
247.2136, 108.5380
247.6957, 109.3383
248.1778, 109.5885
248.6600, 109.0337
249.1421, 108.6971
249.6242, 108.6303
250.1063, 108.7504
250.5884, 108.9130
251.0705, 109.1642
251.5527, 109.3802
252.0348, 109.5450
252.5169, 109.7186
252.9990, 109.5927
253.4811, 108.9972
253.9632, 108.2095
254.4454, 107.7391
254.9275, 107.7078
255.4096, 107.7541
255.8917, 107.7819
256.3738, 107.8087
256.8560, 107.7135
257.3381, 107.3979
257.8202, 107.0425
258.3023, 106.9453
258.7844, 107.2357
259.2665, 107.5042
259.7487, 107.6073
260.2308, 107.5094
260.7129, 107.4999
261.1950, 107.6234
261.6771, 107.7860
262.1592, 107.8905
262.6414, 107.9947
263.1235, 107.8770
263.6056, 107.3584
264.0877, 106.3787
264.5698, 105.9088
265.0519, 106.1716
265.5341, 106.6396
266.0162, 106.6298
266.4983, 105.9241
266.9804, 105.4233
267.4625, 105.4182
267.9446, 105.8989
268.4268, 106.2167
268.9089, 106.3703
269.3910, 106.3538
269.8731, 106.1034
270.3552, 105.5412
270.8373, 105.0572
271.3195, 104.7027
271.8016, 104.4871
272.2837, 104.5244
272.7658, 104.8821
273.2479, 105.3427
273.7300, 105.7373
274.2122, 106.0700
274.6943, 106.3272
275.1764, 106.5733
275.6585, 106.7414
276.1406, 106.3201
276.6227, 105.1048
277.1049, 103.9789
277.5870, 103.8294
278.0691, 104.7688
278.5512, 105.3593
279.0333, 105.2749
279.5154, 104.7359
279.9976, 104.4450
280.4797, 104.4138
280.9618, 104.5707
281.4439, 104.9947
281.9260, 105.6883
282.4081, 106.0572
282.8903, 105.9490
283.3724, 105.5574
283.8545, 105.3334
284.3366, 105.2875
284.8187, 105.2953
285.3008, 105.2409
285.7830, 105.1411
286.2651, 105.2058
286.7472, 105.4670
287.2293, 105.8732
287.7114, 106.4662
288.1935, 107.2419
288.6757, 107.7517
289.1578, 107.5013
289.6399, 106.6838
290.1220, 106.3617
290.6041, 106.6798
291.0862, 107.2090
291.5684, 107.3314
292.0505, 107.0823
292.5326, 106.7973
293.0147, 106.6935
293.4968, 106.6823
293.9789, 106.3887
294.4611, 105.7432
294.9432, 105.2001
295.4253, 105.4867
295.9074, 106.4104
296.3895, 107.1279
296.8716, 107.1238
297.3538, 106.7167
297.8359, 106.5159
298.3180, 106.5211
298.8001, 106.6994
299.2822, 107.1966
299.7643, 107.8609
300.2465, 108.2730
300.7286, 108.0255
301.2107, 107.6198
301.6928, 107.8921
302.1749, 108.7921
302.6570, 109.5826
303.1392, 109.5164
303.6213, 108.9630
304.1034, 108.5731
304.5855, 108.6621
305.0676, 108.8318
305.5497, 108.6617
306.0319, 108.1989
306.5140, 107.6775
306.9961, 107.0245
307.4782, 106.4868
307.9603, 106.4012
308.4424, 107.0163
308.9246, 107.7783
309.4067, 108.2503
309.8888, 108.5164
310.3709, 108.8269
310.8530, 109.5335
311.3351, 110.2182
311.8173, 110.4527
312.2994, 110.0198
312.7815, 109.6089
313.2636, 109.6756
313.7457, 110.0469
314.2278, 110.4158
314.7100, 110.8477
315.1921, 111.0938
315.6742, 110.8688
316.1563, 110.0364
316.6384, 109.4380
317.1205, 109.7033
317.6027, 110.3459
318.0848, 110.7488
318.5669, 110.4793
319.0490, 110.1473
319.5311, 110.0209
320.0132, 110.1226
320.4954, 110.1519
320.9775, 109.7672
321.4596, 109.3955
321.9417, 109.4068
322.4238, 110.4014
322.9059, 111.2394
323.3881, 111.6321
323.8702, 111.5995
324.3523, 111.4870
324.8344, 111.2846
325.3165, 111.0562
325.7986, 110.8382
326.2808, 110.3330
326.7629, 110.1939
327.2450, 110.7903
327.7271, 111.8709
328.2092, 112.4448
328.6913, 112.2963
329.1735, 111.8218
329.6556, 111.0915
330.1377, 109.5311
330.6198, 108.8292
331.1019, 109.4777
331.5840, 110.8361
332.0662, 111.7143
332.5483, 111.9419
333.0304, 111.9266
333.5125, 111.7646
333.9946, 111.4303
334.4767, 111.0635
334.9589, 110.6269
335.4410, 110.1981
335.9231, 109.8337
336.4052, 109.4380
336.8873, 109.3988
337.3694, 110.0026
337.8516, 111.1802
338.3336, 111.6289
338.8158, 111.1244
339.2979, 110.3723
339.7800, 109.9851
340.2621, 110.0033
340.7442, 110.1689
341.2263, 110.5371
341.7085, 110.9740
342.1906, 110.9110
342.6727, 110.2634
343.1548, 109.6442
343.6369, 109.5747
344.1190, 110.0095
344.6012, 110.1717
345.0833, 109.9223
345.5654, 109.4718
346.0475, 109.1096
346.5296, 108.8422
347.0117, 108.7769
347.4939, 109.1889
347.9760, 109.8640
348.4581, 110.0545
348.9402, 109.6640
349.4223, 109.1332
349.9044, 108.8670
350.3866, 108.8528
350.8687, 109.0424
351.3508, 109.6330
351.8329, 110.3217
352.3150, 110.6591
352.7971, 110.6484
353.2793, 110.4001
353.7614, 109.8384
354.2435, 109.1270
354.7256, 108.5126
355.2077, 107.9931
355.6898, 107.6889
356.1720, 107.8376
356.6541, 108.3431
357.1362, 108.7881
357.6183, 108.8459
358.1004, 108.7849
358.5826, 108.8788
359.0647, 109.2766
359.5468, 109.5783
360.0289, 109.5150
360.5110, 109.2071
360.9931, 108.8830
361.4753, 108.5566
361.9574, 108.2998
362.4395, 108.1352
362.9216, 108.0572
363.4037, 108.1238
363.8858, 108.6359
364.3680, 109.1917
364.8501, 109.3688
365.3322, 107.9170
365.8143, 108.6358
366.2964, 109.0775
366.7785, 109.2569
367.2607, 108.3886
367.7428, 108.8732
368.2249, 108.8156
368.7070, 108.7358
369.1891, 109.4108
369.6712, 108.6949
370.1534, 109.3580
370.6355, 109.4706
371.1176, 109.8351
371.5997, 109.6541
372.0818, 109.6415
372.5639, 110.1747
373.0461, 110.4058
373.5282, 110.1620
374.0103, 110.5425
374.4924, 109.8075
374.9745, 110.0514
375.4566, 110.7177
375.9388, 110.5013
376.4209, 110.8918
376.9030, 111.0512
377.3851, 110.1601
377.8672, 111.0958
378.3493, 111.2416
378.8315, 110.5761
379.3136, 111.4492
379.7957, 110.8956
380.2778, 110.8512
380.7599, 111.1901
381.2420, 111.1295
381.7242, 111.6988
382.2063, 110.5710
382.6884, 110.7965
383.1705, 111.7204
383.6526, 112.2851
384.1347, 112.3475
384.6169, 112.2076
385.0990, 112.1543
385.5811, 112.1904
386.0632, 112.3335
386.5453, 112.7324
387.0274, 113.1787
387.5096, 113.3433
387.9917, 113.2256
388.4738, 113.0977
388.9559, 113.1752
389.4380, 113.3708
389.9201, 113.5731
390.4023, 113.7585
390.8844, 113.9283
391.3665, 114.0396
391.8486, 114.1247
392.3307, 114.2977
392.8128, 114.7718
393.2950, 115.2464
393.7771, 115.5026
394.2592, 115.4277
394.7413, 115.3379
395.2234, 115.2890
395.7055, 115.2944
396.1877, 115.3761
396.6698, 115.5365
397.1519, 115.7748
397.6340, 116.0906
398.1161, 116.4833
398.5982, 116.9603
399.0804, 117.7982
399.5625, 118.5552
400.0446, 118.8915
400.5267, 118.2917
401.0088, 118.0251
401.4909, 118.1868
401.9731, 118.7605
402.4552, 119.7590
402.9373, 121.5396
403.4194, 123.1648
403.9015, 124.0784
404.3836, 123.9794
404.8658, 124.4028
405.3479, 125.4887
405.8300, 126.8981
406.3121, 128.2093
406.7942, 129.4392
407.2763, 130.4083
407.7585, 130.8537
408.2406, 130.9665
408.7227, 131.8590
409.2048, 133.5731
409.6869, 135.6480
410.1690, 137.7804
410.6512, 139.9372
411.1333, 142.0795
411.6154, 144.2556
412.0975, 146.3147
412.5796, 147.8654
413.0617, 149.0374
413.5439, 150.4949
414.0260, 152.7869
414.5081, 155.5509
414.9902, 158.2989
415.4723, 161.0170
415.9544, 163.6451
416.4366, 165.9018
416.9187, 168.0651
417.4008, 170.5401
417.8829, 173.6879
418.3650, 177.0320
418.8471, 180.4350
419.3293, 183.8414
419.8114, 187.1330
420.2935, 190.0378
420.7756, 192.9348
421.2577, 195.9869
421.7398, 199.2256
422.2220, 202.7121
422.7041, 207.0961
423.1862, 211.6709
423.6683, 215.1875
424.1504, 216.5017
424.6325, 217.7824
425.1147, 219.6325
425.5968, 222.1668
426.0789, 224.4973
426.5610, 226.9026
427.0431, 228.8559
427.5252, 229.8154
428.0074, 229.2908
428.4895, 228.9234
428.9716, 228.9771
429.4537, 229.2742
429.9358, 229.2627
430.4179, 228.9113
430.9001, 228.3602
431.3822, 227.8327
431.8643, 227.3414
432.3464, 225.8525
432.8285, 223.1679
433.3106, 220.1260
433.7928, 217.5994
434.2749, 215.5927
434.7570, 214.2019
435.2391, 213.7458
435.7212, 213.6953
436.2033, 213.1252
436.6855, 212.0469
437.1676, 210.5075
437.6497, 208.1796
438.1318, 205.5217
438.6139, 203.2811
439.0960, 201.6620
439.5782, 200.1523
440.0603, 198.3204
440.5424, 196.2905
441.0245, 194.3255
441.5066, 192.8969
441.9887, 191.2479
442.4709, 188.7196
442.9530, 185.3393
443.4351, 182.2024
443.9172, 180.0885
444.3993, 178.1774
444.8814, 175.8845
445.3636, 172.3858
445.8457, 169.4482
446.3278, 167.9389
446.8099, 167.1724
447.2920, 165.3801
447.7741, 161.2463
448.2563, 157.5016
448.7384, 155.1120
449.2205, 154.2502
449.7026, 153.1662
450.1847, 151.8322
450.6668, 150.3325
451.1490, 148.6328
451.6311, 146.5361
452.1132, 145.0572
452.5953, 144.5422
453.0774, 144.5789
453.5595, 143.9099
454.0417, 142.4434
454.5238, 141.0956
455.0059, 140.5277
455.4880, 140.5551
455.9701, 140.0764
456.4522, 138.9851
456.9344, 137.8982
457.4165, 137.5950
457.8986, 137.8395
458.3807, 137.9883
458.8628, 137.8382
459.3449, 137.4986
459.8271, 136.9441
460.3092, 136.2566
460.7913, 135.7737
461.2734, 135.9102
461.7555, 136.2068
462.2376, 136.2932
462.7198, 136.1090
463.2019, 135.7513
463.6840, 135.2026
464.1661, 134.5259
464.6482, 133.7975
465.1303, 132.8230
465.6125, 132.0190
466.0946, 131.6732
466.5767, 131.7028
467.0588, 131.3638
467.5409, 130.1821
468.0230, 128.9922
468.5052, 128.1840
468.9873, 127.9923
469.4694, 127.5960
469.9515, 126.9189
470.4336, 126.1089
470.9157, 125.3493
471.3979, 124.6400
471.8800, 124.0123
472.3621, 123.5211
472.8442, 123.1170
473.3263, 122.4359
473.8084, 121.4180
474.2906, 120.5841
474.7727, 120.5704
475.2548, 121.1412
475.7369, 121.0888
476.2190, 120.1998
476.7011, 119.0343
477.1833, 118.1898
477.6654, 117.6009
478.1475, 117.0886
478.6296, 116.5498
479.1117, 116.0719
479.5938, 115.8334
480.0760, 115.7859
480.5581, 115.6159
481.0402, 115.0464
481.5223, 114.3369
482.0044, 113.7314
482.4865, 113.3951
482.9687, 112.8503
483.4508, 111.4165
483.9329, 109.8099
484.4150, 109.0671
484.8971, 110.5406
485.3792, 111.6506
485.8614, 111.6144
486.3435, 110.5272
486.8256, 109.7575
487.3077, 109.5239
487.7898, 109.3600
488.2719, 109.0131
488.7541, 108.4313
489.2362, 107.8186
489.7183, 107.0709
490.2004, 106.4317
490.6825, 106.3971
491.1646, 107.0518
491.6468, 107.4361
492.1289, 107.1985
492.6110, 106.5307
493.0931, 105.8269
493.5752, 105.0908
494.0573, 104.7089
494.5395, 105.3563
495.0216, 106.4869
495.5037, 106.8885
495.9858, 106.3211
496.4679, 105.5470
496.9500, 105.1508
497.4322, 105.0367
497.9143, 105.0535
498.3964, 105.3023
498.8785, 105.5214
499.3606, 105.5237
499.8427, 105.3534
500.3249, 105.2157
500.8070, 105.2592
501.2891, 105.2933
501.7712, 105.2115
502.2533, 104.9632
502.7354, 104.7143
503.2176, 104.4625
503.6997, 104.2240
504.1818, 104.0168
504.6639, 103.8565
505.1460, 103.6769
505.6281, 103.3677
506.1103, 103.0428
506.5924, 103.2831
507.0745, 104.2998
507.5566, 105.1312
508.0387, 105.1952
508.5208, 104.5328
509.0030, 103.9705
509.4851, 103.5211
509.9672, 103.1061
510.4493, 102.6293
510.9314, 102.1164
511.4135, 101.5976
511.8957, 100.9255
512.3778, 100.5347
512.8599, 101.2617
513.3420, 102.7472
513.8242, 103.9328
514.3063, 104.2249
514.7884, 104.0513
515.2705, 103.6416
515.7526, 103.0137
516.2347, 102.4139
516.7169, 101.8134
517.1990, 101.3531
517.6811, 101.1472
518.1632, 101.4709
518.6453, 101.6961
519.1274, 101.6569
519.6096, 101.4974
520.0917, 101.4822
520.5738, 101.6689
521.0559, 101.9118
521.5380, 102.2513
522.0201, 102.6640
522.5023, 102.6865
522.9844, 102.2160
523.4665, 101.6470
523.9486, 101.1954
524.4307, 100.8646
524.9128, 100.8301
525.3950, 101.1562
525.8771, 101.6006
526.3592, 101.8014
526.8413, 101.8350
527.3234, 102.0052
527.8055, 102.6014
528.2877, 103.2115
528.7698, 103.2636
529.2519, 102.8757
529.7340, 102.5555
530.2161, 102.6287
530.6982, 102.8522
531.1804, 103.1068
531.6625, 103.4127
532.1446, 103.5096
532.6267, 103.0772
533.1088, 102.5123
533.5909, 102.1877
534.0731, 102.1718
534.5552, 102.3832
535.0373, 102.9934
535.5194, 103.7968
536.0015, 104.2800
536.4836, 104.2863
536.9658, 104.2852
537.4479, 104.4682
537.9300, 104.8189
538.4121, 104.9733
538.8942, 104.9003
539.3763, 104.7499
539.8585, 104.5527
540.3406, 104.3537
540.8227, 104.4944
541.3048, 105.1087
541.7869, 105.7404
542.2690, 105.7027
542.7512, 105.2311
543.2333, 104.9190
543.7154, 105.2197
544.1975, 105.6069
544.6796, 105.6337
545.1617, 105.3656
545.6439, 105.0877
546.1260, 104.6204
546.6081, 104.4200
547.0902, 104.9043
547.5723, 106.3692
548.0544, 107.4253
548.5366, 107.7829
549.0187, 107.7063
549.5008, 107.3888
549.9829, 106.4275
550.4650, 105.9904
550.9471, 106.3864
551.4293, 107.2484
551.9114, 107.7155
552.3935, 107.7242
552.8756, 107.6466
553.3577, 107.6261
553.8398, 107.6345
554.3220, 107.4358
554.8041, 107.0160
555.2862, 106.8108
555.7683, 107.4010
556.2504, 108.4020
556.7325, 108.9841
557.2147, 108.9657
557.6968, 108.9274
558.1789, 109.4090
558.6610, 110.1736
559.1431, 110.8671
559.6252, 111.2532
560.1074, 111.6530
560.5895, 112.3426
561.0716, 113.1751
561.5537, 113.6485
562.0358, 112.9817
562.5179, 112.6083
563.0001, 113.1607
563.4822, 114.7513
563.9643, 115.9915
564.4464, 116.7461
564.9285, 117.3427
565.4106, 118.0824
565.8928, 119.0386
566.3749, 119.5942
566.8570, 119.5762
567.3391, 119.4360
567.8212, 119.9364
568.3033, 120.9978
568.7855, 121.9780
569.2676, 122.5296
569.7497, 123.0229
570.2318, 124.1669
570.7139, 125.7971
571.1960, 127.2892
571.6782, 128.1347
572.1603, 128.7673
572.6424, 129.5506
573.1245, 130.5396
573.6066, 131.4002
574.0887, 131.9698
574.5709, 132.3895
575.0530, 132.7820
575.5351, 133.3627
576.0172, 133.6116
576.4993, 133.1852
576.9814, 132.5806
577.4636, 132.7078
577.9457, 133.9950
578.4278, 134.8455
578.9099, 134.7116
579.3920, 133.9033
579.8741, 133.6842
580.3563, 134.1075
580.8384, 134.4056
581.3205, 133.8713
581.8026, 132.8666
