##NAMES=Waimirite-(Y)
##RRUFFID=R130714
##IDEAL CHEMISTRY=Y^3+^F_3_
##LOCALITY=Pitinga mine, Amazon, Brazil
##OWNER=RRUFF
##SOURCE=Marcelo B Andrade
##DESCRIPTION=Pale pink massive, portion of the original find
##STATUS=The identification of this mineral has been confirmed by X-ray diffraction and chemical analysis
##URL=rruff.info/R130714
##MEASURED CHEMISTRY=(Y_0.69_Dy_0.08_Er_0.06_Yb_0.05_Ca_0.03_Gd_0.02_Ho_0.02_Nd_0.01_Sm_0.01_Tb_0.01_Tm_0.01_Lu_0.01_)_Ʃ1.00_(F_2.54_[box]_0.25_O_0.21_)_Ʃ3.00_
98.46130, 52139.04
98.94342, 52043.70
99.42554, 51949.70
99.90765, 51855.38
100.3898, 51767.37
100.8719, 51666.68
101.3540, 51523.51
101.8361, 51331.73
102.3182, 51122.27
102.8004, 50904.54
103.2825, 50681.58
103.7646, 50460.82
104.2467, 50250.87
104.7288, 50045.44
105.2109, 49827.64
105.6931, 49595.55
106.1752, 49359.98
106.6573, 49126.15
107.1394, 48921.67
107.6215, 48684.40
108.1036, 48401.40
108.5858, 48084.52
109.0679, 47789.93
109.5500, 47561.79
110.0321, 47326.43
110.5142, 47047.12
110.9963, 46686.10
111.4785, 46326.16
111.9606, 45980.71
112.4427, 45649.07
112.9248, 45311.61
113.4069, 44963.76
113.8890, 44611.00
114.3712, 44253.38
114.8533, 43899.80
115.3354, 43535.95
115.8175, 43149.46
116.2996, 42731.16
116.7817, 42331.63
117.2639, 41968.17
117.7460, 41628.82
118.2281, 41298.55
118.7102, 40968.07
119.1923, 40645.47
119.6744, 40336.47
120.1566, 40039.48
120.6387, 39758.66
121.1208, 39494.63
121.6029, 39248.50
122.0850, 39026.25
122.5671, 38832.91
123.0493, 38661.97
123.5314, 38507.57
124.0135, 38368.73
124.4956, 38241.67
124.9777, 38123.85
125.4598, 38014.40
125.9420, 37914.96
126.4241, 37828.14
126.9062, 37750.93
127.3883, 37676.79
127.8704, 37599.39
128.3525, 37530.17
128.8347, 37489.34
129.3168, 37475.81
129.7989, 37473.75
130.2810, 37466.38
130.7631, 37458.35
131.2452, 37470.46
131.7274, 37516.99
132.2095, 37583.25
132.6916, 37622.13
133.1737, 37629.56
133.6558, 37643.17
134.1379, 37702.84
134.6201, 37808.36
135.1022, 37929.32
135.5843, 38062.74
136.0664, 38206.05
136.5485, 38329.14
137.0306, 38424.95
137.5128, 38518.89
137.9949, 38648.40
138.4770, 38820.43
138.9591, 38995.55
139.4412, 39162.54
139.9233, 39318.77
140.4055, 39477.57
140.8876, 39640.91
141.3697, 39804.01
141.8518, 39958.74
142.3339, 40098.38
142.8160, 40241.95
143.2982, 40398.11
143.7803, 40570.70
144.2624, 40739.75
144.7445, 40907.34
145.2266, 41070.96
145.7087, 41217.91
146.1909, 41350.77
146.6730, 41467.71
147.1551, 41568.25
147.6372, 41639.51
148.1193, 41715.91
148.6014, 41803.79
149.0836, 41898.18
149.5657, 41984.96
150.0478, 42071.55
150.5299, 42142.98
151.0120, 42192.83
151.4941, 42189.41
151.9763, 42200.41
152.4584, 42243.09
152.9405, 42307.09
153.4226, 42342.48
153.9047, 42326.43
154.3868, 42292.66
154.8690, 42259.50
155.3511, 42211.70
155.8332, 42182.71
156.3153, 42188.85
156.7974, 42225.26
157.2795, 42252.35
157.7617, 42252.81
158.2438, 42246.21
158.7259, 42246.82
159.2080, 42254.83
159.6901, 42274.37
160.1722, 42311.47
160.6544, 42365.55
161.1365, 42419.84
161.6186, 42464.07
162.1007, 42507.18
162.5828, 42558.41
163.0649, 42631.39
163.5471, 42702.95
164.0292, 42757.94
164.5113, 42795.51
164.9934, 42837.98
165.4755, 42897.15
165.9576, 42966.98
166.4398, 43039.22
166.9219, 43119.23
167.4040, 43194.95
167.8861, 43251.75
168.3682, 43287.83
168.8503, 43330.99
169.3325, 43406.38
169.8146, 43500.54
170.2967, 43590.38
170.7788, 43669.85
171.2609, 43740.18
171.7430, 43796.05
172.2252, 43835.43
172.7073, 43881.34
173.1894, 43950.73
173.6715, 44041.24
174.1536, 44144.36
174.6357, 44270.34
175.1179, 44402.48
175.6000, 44517.00
176.0821, 44607.58
176.5642, 44698.93
177.0463, 44817.88
177.5284, 44958.37
178.0106, 45099.73
178.4927, 45222.59
178.9748, 45341.82
179.4569, 45481.05
179.9390, 45646.10
180.4211, 45823.57
180.9033, 46000.31
181.3854, 46178.75
181.8675, 46364.11
182.3496, 46556.10
182.8317, 46757.45
183.3138, 46987.49
183.7960, 47249.48
184.2781, 47530.50
184.7602, 47810.99
185.2423, 48092.94
185.7244, 48371.75
186.2065, 48635.49
186.6887, 48893.01
187.1708, 49183.98
187.6529, 49514.08
188.1350, 49873.16
188.6171, 50239.89
189.0992, 50617.20
189.5814, 51001.56
190.0635, 51395.41
190.5456, 51801.30
191.0277, 52193.51
191.5098, 52564.23
191.9919, 52932.59
192.4741, 53333.02
192.9562, 53765.00
193.4383, 54205.02
193.9204, 54621.70
194.4025, 55018.32
194.8846, 55457.13
195.3668, 55953.48
195.8489, 56486.48
196.3310, 57009.86
196.8131, 57522.99
197.2952, 58027.55
197.7773, 58523.10
198.2595, 59006.62
198.7416, 59515.17
199.2237, 60053.27
199.7058, 60613.22
200.1879, 61163.76
200.6700, 61707.23
201.1522, 62256.66
201.6343, 62828.65
202.1164, 63427.18
202.5985, 64012.40
203.0806, 64570.18
203.5627, 65111.26
204.0449, 65664.30
204.5270, 66233.39
205.0091, 66799.54
205.4912, 67348.55
205.9733, 67877.86
206.4554, 68403.41
206.9376, 68929.37
207.4197, 69450.42
207.9018, 69970.02
208.3839, 70495.73
208.8660, 71003.70
209.3481, 71467.73
209.8303, 71882.11
210.3124, 72293.08
210.7945, 72706.67
211.2766, 73120.31
211.7587, 73541.91
212.2408, 73984.27
212.7230, 74410.72
213.2051, 74800.81
213.6872, 75149.68
214.1693, 75476.73
214.6514, 75777.24
215.1335, 76055.18
215.6157, 76322.14
216.0978, 76588.90
216.5799, 76824.43
217.0620, 77007.07
217.5441, 77123.38
218.0262, 77224.13
218.5084, 77320.10
218.9905, 77405.21
219.4726, 77447.38
219.9547, 77445.53
220.4368, 77405.99
220.9189, 77330.77
221.4011, 77211.52
221.8832, 77081.99
222.3653, 76948.80
222.8474, 76809.23
223.3295, 76638.52
223.8116, 76429.92
224.2938, 76208.27
224.7759, 75987.80
225.2580, 75771.59
225.7401, 75553.11
226.2222, 75335.52
226.7043, 75114.48
227.1865, 74856.82
227.6686, 74542.44
228.1507, 74227.66
228.6328, 73949.61
229.1149, 73725.09
229.5970, 73500.05
230.0792, 73277.41
230.5613, 73052.71
231.0434, 72809.70
231.5255, 72527.23
232.0076, 72264.42
232.4897, 72060.98
232.9719, 71948.08
233.4540, 71826.80
233.9361, 71681.55
234.4182, 71526.52
234.9003, 71408.63
235.3824, 71339.39
235.8646, 71290.86
236.3467, 71247.45
236.8288, 71197.09
237.3109, 71177.63
237.7930, 71198.23
238.2751, 71247.36
238.7573, 71288.88
239.2394, 71306.66
239.7215, 71337.04
240.2036, 71398.55
240.6857, 71507.76
241.1678, 71608.05
241.6500, 71698.34
242.1321, 71778.66
242.6142, 71847.93
243.0963, 71888.30
243.5784, 71943.72
244.0605, 72036.28
244.5427, 72188.42
245.0248, 72322.88
245.5069, 72439.70
245.9890, 72540.29
246.4711, 72624.22
246.9532, 72685.51
247.4354, 72743.45
247.9175, 72804.67
248.3996, 72870.45
248.8817, 72941.47
249.3638, 73025.07
249.8459, 73111.63
250.3281, 73181.81
250.8102, 73229.13
251.2923, 73274.30
251.7744, 73331.82
252.2565, 73415.17
252.7386, 73452.00
253.2208, 73425.99
253.7029, 73365.61
254.1850, 73313.65
254.6671, 73272.64
255.1492, 73232.81
255.6313, 73189.59
256.1135, 73140.63
256.5956, 73096.48
257.0777, 73054.96
257.5598, 73018.09
258.0419, 72992.05
258.5240, 72986.20
259.0062, 72966.71
259.4883, 72915.33
259.9704, 72828.55
260.4525, 72771.27
260.9346, 72742.85
261.4167, 72745.73
261.8989, 72789.17
262.3810, 72888.20
262.8631, 72989.77
263.3452, 73080.70
263.8273, 73163.32
264.3094, 73256.05
264.7916, 73362.86
265.2737, 73479.20
265.7558, 73594.66
266.2379, 73693.91
266.7200, 73847.41
267.2021, 74091.09
267.6843, 74410.92
268.1664, 74667.34
268.6485, 74829.30
269.1306, 74989.81
269.6127, 75230.80
270.0948, 75567.51
270.5770, 75905.63
271.0591, 76222.41
271.5412, 76524.15
272.0233, 76859.82
272.5054, 77232.89
272.9875, 77612.34
273.4697, 77975.99
273.9518, 78326.66
274.4339, 78659.05
274.9160, 78965.02
275.3981, 79255.88
275.8802, 79577.73
276.3624, 79933.66
276.8445, 80292.60
277.3266, 80638.85
277.8087, 80973.38
278.2908, 81285.50
278.7729, 81569.13
279.2551, 81837.18
279.7372, 82111.77
280.2193, 82395.64
280.7014, 82677.23
281.1835, 82957.43
281.6656, 83236.11
282.1478, 83485.95
282.6299, 83691.72
283.1120, 83896.80
283.5941, 84180.83
284.0762, 84548.23
284.5583, 84932.45
285.0405, 85315.82
285.5226, 85696.42
286.0047, 86054.80
286.4868, 86388.24
286.9689, 86707.58
287.4510, 87031.66
287.9332, 87359.02
288.4153, 87668.30
288.8974, 87945.09
289.3795, 88193.31
289.8616, 88417.45
290.3438, 88616.80
290.8259, 88795.17
291.3080, 88965.54
291.7901, 89121.69
292.2722, 89236.88
292.7543, 89300.46
293.2365, 89317.00
293.7186, 89285.09
294.2007, 89204.45
294.6828, 89108.61
295.1649, 89028.34
295.6470, 88957.96
296.1292, 88876.76
296.6113, 88783.47
297.0934, 88673.95
297.5755, 88535.73
298.0576, 88370.01
298.5397, 88195.53
299.0219, 88014.48
299.5040, 87833.98
299.9861, 87672.30
300.4682, 87536.23
300.9503, 87415.96
301.4324, 87303.70
301.9146, 87199.05
302.3967, 87093.30
302.8788, 86975.38
303.3609, 86856.15
303.8430, 86756.80
304.3251, 86685.01
304.8073, 86614.46
305.2894, 86508.15
305.7715, 86381.86
306.2536, 86271.76
306.7357, 86218.59
307.2178, 86178.22
307.7000, 86104.01
308.1821, 85988.97
308.6642, 85860.12
309.1463, 85733.80
309.6284, 85606.52
310.1105, 85471.48
310.5927, 85318.89
311.0748, 85163.84
311.5569, 85016.36
312.0390, 84876.83
312.5211, 84738.21
313.0032, 84586.64
313.4854, 84437.16
313.9675, 84307.80
314.4496, 84211.64
314.9317, 84133.05
315.4138, 84071.48
315.8959, 84025.33
316.3781, 83978.52
316.8602, 83917.86
317.3423, 83859.45
317.8244, 83815.70
318.3065, 83796.26
318.7886, 83782.61
319.2708, 83742.69
319.7529, 83700.17
320.2350, 83722.23
320.7171, 83873.31
321.1992, 84058.70
321.6813, 84231.17
322.1635, 84373.98
322.6456, 84524.84
323.1277, 84678.61
323.6098, 84845.37
324.0919, 85043.36
324.5740, 85286.55
325.0562, 85547.62
325.5383, 85823.63
326.0204, 86121.31
326.5025, 86405.55
326.9846, 86644.07
327.4667, 86880.96
327.9489, 87166.55
328.4310, 87553.38
328.9131, 87933.98
329.3952, 88298.33
329.8773, 88647.17
330.3594, 88980.07
330.8416, 89262.11
331.3237, 89554.79
331.8058, 89903.70
332.2879, 90354.34
332.7700, 90783.92
333.2521, 91170.55
333.7343, 91528.81
334.2164, 91937.21
334.6985, 92418.91
335.1806, 92905.45
335.6627, 93357.87
336.1448, 93754.72
336.6270, 94171.30
337.1091, 94617.82
337.5912, 95073.51
338.0733, 95500.24
338.5554, 95886.03
339.0375, 96269.98
339.5197, 96673.12
340.0018, 97094.36
340.4839, 97495.20
340.9660, 97861.14
341.4481, 98221.76
341.9302, 98610.42
342.4124, 99032.80
342.8945, 99443.59
343.3766, 99829.77
343.8587, 100193.9
344.3408, 100563.9
344.8229, 100937.3
345.3051, 101320.3
345.7872, 101741.5
346.2693, 102186.9
346.7514, 102570.3
347.2335, 102849.6
347.7156, 103085.4
348.1978, 103402.9
348.6799, 103795.6
349.1620, 104175.2
349.6441, 104480.0
350.1262, 104729.1
350.6083, 104962.0
351.0905, 105183.7
351.5726, 105399.3
352.0547, 105616.3
352.5368, 105832.8
353.0189, 106042.7
353.5010, 106256.8
353.9832, 106455.6
354.4653, 106627.3
354.9474, 106773.7
355.4295, 106855.0
355.9116, 106790.6
356.3937, 106650.4
356.8759, 106541.2
357.3580, 106568.8
357.8401, 106583.3
358.3222, 106469.5
358.8043, 106242.5
359.2864, 105997.7
359.7686, 105774.8
360.2507, 105560.8
360.7328, 105350.0
361.2149, 105152.6
361.6970, 104934.7
362.1791, 104681.9
362.6613, 104397.3
363.1434, 104088.8
363.6255, 103751.2
364.1076, 103394.4
364.5897, 103015.1
365.0718, 102612.0
365.5540, 102215.2
366.0361, 101833.8
366.5182, 101461.1
367.0003, 101089.5
367.4824, 100732.3
367.9645, 100363.5
368.4467, 99966.98
368.9288, 99548.10
369.4109, 99153.32
369.8930, 98773.02
370.3751, 98427.28
370.8572, 98133.39
371.3394, 97946.61
371.8215, 97724.17
372.3036, 97431.66
372.7857, 97096.75
373.2678, 96812.27
373.7499, 96573.99
374.2321, 96386.39
374.7142, 96259.52
375.1963, 96204.27
375.6784, 96155.41
376.1605, 96110.68
376.6426, 96073.58
377.1248, 96049.72
377.6069, 96037.64
378.0890, 96043.67
378.5711, 96077.20
379.0532, 96133.11
379.5353, 96161.48
380.0175, 96154.36
380.4996, 96163.01
380.9817, 96254.22
381.4638, 96416.36
381.9459, 96551.42
382.4280, 96627.41
382.9102, 96679.80
383.3923, 96778.64
383.8744, 96920.02
384.3565, 97061.83
384.8386, 97169.79
385.3207, 97259.03
385.8029, 97363.58
386.2850, 97492.64
386.7671, 97609.30
387.2492, 97672.53
387.7313, 97695.06
388.2134, 97704.51
388.6956, 97710.63
389.1777, 97712.35
389.6598, 97707.86
390.1419, 97698.26
390.6240, 97688.91
391.1061, 97692.55
391.5883, 97696.02
392.0704, 97683.66
392.5525, 97632.01
393.0346, 97592.93
393.5167, 97581.64
393.9988, 97600.58
394.4810, 97655.01
394.9631, 97764.17
395.4452, 97895.83
395.9273, 98034.24
396.4094, 98175.82
396.8915, 98329.14
397.3737, 98472.91
397.8558, 98635.40
398.3379, 98851.38
398.8200, 99160.77
399.3021, 99482.33
399.7842, 99792.67
400.2664, 100090.8
400.7485, 100428.4
401.2306, 100805.5
401.7127, 101215.1
402.1948, 101651.7
402.6769, 102114.1
403.1591, 102605.4
403.6412, 103137.6
404.1233, 103691.6
404.6054, 104237.9
405.0875, 104773.7
405.5696, 105295.3
406.0518, 105791.6
406.5339, 106262.0
407.0160, 106770.5
407.4981, 107319.5
407.9802, 107891.8
408.4623, 108466.5
408.9445, 109047.4
409.4266, 109644.0
409.9087, 110267.9
410.3908, 110903.7
410.8729, 111506.2
411.3550, 112079.7
411.8372, 112637.5
412.3193, 113202.9
412.8014, 113764.4
413.2835, 114293.0
413.7656, 114781.9
414.2477, 115261.4
414.7299, 115766.2
415.2120, 116284.0
415.6941, 116772.4
416.1762, 117238.0
416.6583, 117650.0
417.1404, 117968.4
417.6226, 118195.6
418.1047, 118384.3
418.5868, 118556.6
419.0689, 118708.6
419.5510, 118842.4
420.0331, 118987.9
420.5153, 119072.2
420.9974, 119062.1
421.4795, 118969.8
421.9616, 118824.1
422.4437, 118632.5
422.9258, 118391.1
423.4080, 118098.5
423.8901, 117750.1
424.3722, 117367.2
424.8543, 116944.1
425.3364, 116494.2
425.8185, 116034.0
426.3007, 115582.7
426.7828, 115085.7
427.2649, 114517.7
427.7470, 113893.8
428.2291, 113296.8
428.7112, 112743.5
429.1934, 112192.2
429.6755, 111614.9
430.1576, 111018.1
430.6397, 110356.6
431.1218, 109600.3
431.6039, 108826.6
432.0861, 108153.0
432.5682, 107585.1
433.0503, 107044.8
433.5324, 106498.3
434.0145, 105956.1
434.4966, 105455.7
434.9788, 104998.6
435.4609, 104569.2
435.9430, 104149.4
436.4251, 103743.3
436.9072, 103363.0
437.3893, 103008.1
437.8715, 102679.8
438.3536, 102377.9
438.8357, 102103.3
439.3178, 101858.3
439.7999, 101632.4
440.2820, 101441.4
440.7642, 101319.2
441.2463, 101265.2
441.7284, 101200.8
442.2105, 101063.0
442.6926, 100899.7
443.1747, 100757.1
443.6569, 100651.3
444.1390, 100560.4
444.6211, 100488.1
445.1032, 100426.6
445.5853, 100355.9
446.0674, 100262.9
446.5496, 100170.0
447.0317, 100088.5
447.5138, 100026.7
447.9959, 99958.03
448.4780, 99897.30
448.9601, 99823.59
449.4423, 99709.09
449.9244, 99521.80
450.4065, 99370.52
450.8886, 99288.02
451.3707, 99253.55
451.8528, 99171.88
452.3350, 99030.63
452.8171, 98873.73
453.2992, 98711.08
453.7813, 98540.25
454.2634, 98405.36
454.7455, 98310.34
455.2277, 98229.95
455.7098, 98139.05
456.1919, 98035.61
456.6740, 97904.68
457.1561, 97739.91
457.6382, 97548.89
458.1204, 97346.91
458.6025, 97133.18
459.0846, 96912.56
459.5667, 96677.02
460.0488, 96439.98
460.5309, 96221.74
461.0131, 96031.70
461.4952, 95837.42
461.9773, 95603.10
462.4594, 95356.20
462.9415, 95133.45
463.4236, 94973.23
463.9058, 94820.14
464.3879, 94652.00
464.8700, 94469.98
465.3521, 94275.85
465.8342, 94046.55
466.3163, 93819.42
466.7985, 93615.84
467.2806, 93455.60
467.7627, 93284.82
468.2448, 93083.40
468.7269, 92880.30
469.2090, 92719.34
469.6912, 92640.20
470.1733, 92526.88
470.6554, 92347.92
471.1375, 92108.88
471.6196, 91858.34
472.1017, 91585.38
472.5839, 91329.84
473.0660, 91132.92
473.5481, 90996.60
474.0302, 90795.48
474.5123, 90507.20
474.9944, 90189.83
475.4766, 89927.36
475.9587, 89714.66
476.4408, 89513.88
476.9229, 89325.16
477.4050, 89134.55
477.8871, 88902.66
478.3693, 88637.06
478.8514, 88400.30
479.3335, 88271.58
479.8156, 88181.21
480.2977, 88036.49
480.7798, 87799.20
481.2620, 87582.26
481.7441, 87468.68
482.2262, 87412.02
482.7083, 87344.05
483.1904, 87217.54
483.6725, 87096.70
484.1547, 87013.62
484.6368, 86964.60
485.1189, 86896.89
485.6010, 86770.24
486.0831, 86647.64
486.5652, 86562.19
487.0474, 86530.84
487.5295, 86498.97
488.0116, 86470.75
488.4937, 86439.17
488.9758, 86391.67
489.4579, 86321.31
489.9401, 86256.28
490.4222, 86203.32
490.9043, 86160.83
491.3864, 86122.64
491.8685, 86090.27
492.3506, 86050.40
492.8328, 85989.28
493.3149, 85912.27
493.7970, 85846.18
494.2791, 85796.67
494.7612, 85741.20
495.2433, 85648.86
495.7255, 85530.11
496.2076, 85409.55
496.6897, 85292.41
497.1718, 85182.38
497.6539, 85094.70
498.1360, 85022.42
498.6182, 84934.95
499.1003, 84807.70
499.5824, 84665.95
500.0645, 84530.22
500.5466, 84402.39
501.0287, 84271.42
501.5109, 84138.14
501.9930, 83996.80
502.4751, 83843.20
502.9572, 83664.58
503.4393, 83487.38
503.9214, 83330.47
504.4036, 83179.45
504.8857, 82977.27
505.3678, 82701.84
505.8499, 82409.05
506.3320, 82113.60
506.8141, 81813.64
507.2963, 81550.83
507.7784, 81332.30
508.2605, 81124.45
508.7426, 80889.08
509.2247, 80627.55
509.7068, 80362.13
510.1890, 80098.83
510.6711, 79829.92
511.1532, 79540.50
511.6353, 79233.95
512.1174, 78936.39
512.5995, 78657.69
513.0817, 78393.41
513.5638, 78153.98
514.0459, 77936.52
514.5280, 77687.84
515.0101, 77330.33
515.4922, 76947.84
515.9744, 76625.77
516.4565, 76405.27
516.9386, 76196.51
517.4207, 75963.74
517.9028, 75726.38
518.3849, 75515.77
518.8671, 75356.19
519.3492, 75203.44
519.8313, 75036.93
520.3134, 74861.05
520.7955, 74725.39
521.2776, 74644.86
521.7598, 74580.67
522.2419, 74513.29
522.7240, 74441.46
523.2061, 74364.12
523.6882, 74273.21
524.1703, 74192.66
524.6525, 74155.24
525.1346, 74159.51
525.6167, 74185.33
526.0988, 74235.90
526.5809, 74296.08
527.0630, 74334.35
527.5452, 74355.11
528.0273, 74381.24
528.5094, 74412.05
528.9915, 74463.77
529.4736, 74561.29
529.9557, 74707.77
530.4379, 74866.77
530.9200, 75016.53
531.4021, 75168.58
531.8842, 75336.20
532.3663, 75542.13
532.8484, 75733.09
533.3306, 75862.46
533.8127, 75968.71
534.2948, 76131.17
534.7769, 76426.67
535.2590, 76699.70
535.7411, 76908.34
536.2233, 77054.64
536.7054, 77220.67
537.1875, 77414.96
537.6696, 77612.85
538.1517, 77793.12
538.6339, 77950.93
539.1160, 78152.52
539.5981, 78409.95
540.0802, 78686.95
540.5623, 78947.52
541.0444, 79191.80
541.5266, 79425.06
542.0087, 79638.23
542.4908, 79852.52
542.9729, 80099.80
543.4550, 80371.57
543.9371, 80643.05
544.4193, 80891.16
544.9014, 81140.76
545.3835, 81424.56
545.8656, 81747.71
546.3477, 82043.05
546.8298, 82247.66
547.3120, 82435.95
547.7941, 82667.55
548.2762, 82985.98
548.7583, 83303.00
549.2404, 83620.93
549.7225, 83930.47
550.2047, 84216.60
550.6868, 84479.63
551.1689, 84717.46
551.6510, 84917.72
552.1331, 85089.91
552.6152, 85297.36
553.0974, 85550.58
553.5795, 85792.48
554.0616, 85981.88
554.5437, 86127.32
555.0258, 86266.73
555.5079, 86401.47
555.9901, 86547.94
556.4722, 86746.84
556.9543, 86970.31
557.4364, 87157.05
557.9185, 87275.54
558.4006, 87374.20
558.8828, 87488.74
559.3649, 87612.05
559.8470, 87731.23
560.3291, 87842.62
560.8112, 87943.16
561.2933, 88040.10
561.7755, 88132.16
562.2576, 88178.96
562.7397, 88140.80
563.2218, 88080.06
563.7039, 88025.02
564.1860, 87976.14
564.6682, 87934.52
565.1503, 87908.77
565.6324, 87881.63
566.1145, 87828.91
566.5966, 87748.85
567.0787, 87672.20
567.5609, 87611.75
568.0430, 87554.88
568.5251, 87469.41
569.0072, 87359.06
569.4893, 87253.97
569.9714, 87179.69
570.4536, 87115.16
570.9357, 87027.26
571.4178, 86916.55
571.8999, 86801.85
572.3820, 86712.89
572.8641, 86614.97
573.3463, 86472.43
573.8284, 86256.05
574.3105, 86050.61
574.7926, 85893.41
575.2747, 85755.36
575.7568, 85601.08
576.2390, 85430.91
576.7211, 85234.64
577.2032, 84998.41
577.6853, 84735.30
578.1674, 84500.86
578.6495, 84306.72
579.1317, 84108.70
579.6138, 83890.34
580.0959, 83652.95
580.5780, 83399.55
581.0601, 83126.47
581.5422, 82859.59
582.0244, 82623.51
582.5065, 82408.96
582.9886, 82194.90
583.4707, 81973.11
583.9528, 81764.45
584.4349, 81569.37
584.9171, 81403.27
585.3992, 81289.90
585.8813, 81308.13
586.3634, 81302.93
586.8455, 81170.02
587.3276, 80960.11
587.8098, 80818.17
588.2919, 80820.03
588.7740, 80844.11
589.2561, 80858.66
589.7382, 80863.25
590.2203, 80859.18
590.7025, 80833.66
591.1846, 80821.88
591.6667, 80850.34
592.1488, 80922.05
592.6309, 80997.07
