##NAMES=Waimirite-(Y)
##RRUFFID=R130714
##IDEAL CHEMISTRY=Y^3+^F_3_
##LOCALITY=Pitinga mine, Amazon, Brazil
##OWNER=RRUFF
##SOURCE=Marcelo B Andrade
##DESCRIPTION=Pale pink massive, portion of the original find
##STATUS=The identification of this mineral has been confirmed by X-ray diffraction and chemical analysis
##URL=rruff.info/R130714
##MEASURED CHEMISTRY=(Y_0.69_Dy_0.08_Er_0.06_Yb_0.05_Ca_0.03_Gd_0.02_Ho_0.02_Nd_0.01_Sm_0.01_Tb_0.01_Tm_0.01_Lu_0.01_)_Ʃ1.00_(F_2.54_[box]_0.25_O_0.21_)_Ʃ3.00_
104.5771, 3061.839
105.0592, 3061.254
105.5413, 3058.972
106.0234, 3057.604
106.5055, 3058.087
106.9877, 3060.173
107.4698, 3063.347
107.9519, 3068.743
108.4340, 3073.463
108.9161, 3075.684
109.3982, 3076.104
109.8804, 3076.490
110.3625, 3078.362
110.8446, 3081.832
111.3267, 3085.964
111.8088, 3092.188
112.2909, 3097.856
112.7731, 3101.430
113.2552, 3102.815
113.7373, 3103.172
114.2194, 3104.127
114.7015, 3106.032
115.1836, 3107.977
115.6658, 3110.218
116.1479, 3112.384
116.6300, 3114.130
117.1121, 3115.338
117.5942, 3116.071
118.0763, 3116.186
118.5584, 3114.563
119.0406, 3114.547
119.5227, 3118.536
120.0048, 3125.099
120.4869, 3130.122
120.9690, 3130.961
121.4511, 3129.702
121.9333, 3130.849
122.4154, 3135.318
122.8975, 3140.548
123.3796, 3144.271
123.8617, 3146.322
124.3438, 3148.190
124.8260, 3150.319
125.3081, 3152.675
125.7902, 3155.376
126.2723, 3158.593
126.7544, 3161.966
127.2365, 3164.589
127.7187, 3165.978
128.2008, 3167.413
128.6829, 3169.279
129.1650, 3171.444
129.6471, 3173.694
130.1292, 3175.866
130.6114, 3178.008
131.0935, 3180.663
131.5756, 3184.960
132.0577, 3188.773
132.5398, 3191.010
133.0219, 3192.239
133.5041, 3193.883
133.9862, 3197.287
134.4683, 3202.882
134.9504, 3207.554
135.4325, 3210.578
135.9146, 3213.453
136.3968, 3217.137
136.8789, 3221.672
137.3610, 3226.304
137.8431, 3230.025
138.3252, 3232.558
138.8073, 3235.695
139.2895, 3239.994
139.7716, 3244.763
140.2537, 3249.237
140.7358, 3253.226
141.2179, 3256.917
141.7000, 3260.336
142.1821, 3263.485
142.6643, 3266.949
143.1464, 3271.403
143.6285, 3276.468
144.1106, 3280.658
144.5927, 3282.910
145.0748, 3285.051
145.5570, 3289.000
146.0391, 3294.750
146.5212, 3300.410
147.0033, 3304.289
147.4854, 3306.234
147.9675, 3307.921
148.4497, 3308.373
148.9318, 3309.515
149.4139, 3313.001
149.8960, 3319.042
150.3781, 3325.853
150.8602, 3330.645
151.3424, 3332.426
151.8245, 3334.336
152.3066, 3336.720
152.7887, 3339.329
153.2708, 3342.154
153.7529, 3345.153
154.2351, 3348.057
154.7172, 3350.153
155.1993, 3350.150
155.6814, 3350.859
156.1635, 3352.187
156.6456, 3354.346
157.1278, 3357.916
157.6099, 3363.284
158.0920, 3369.765
158.5741, 3374.368
159.0562, 3376.230
159.5383, 3377.491
160.0205, 3378.054
160.5026, 3378.316
160.9847, 3379.202
161.4668, 3381.302
161.9489, 3384.420
162.4310, 3387.433
162.9131, 3390.727
163.3953, 3393.572
163.8774, 3395.235
164.3595, 3395.841
164.8416, 3396.555
165.3237, 3398.244
165.8058, 3400.530
166.2880, 3402.503
166.7701, 3404.047
167.2522, 3405.275
167.7343, 3406.129
168.2164, 3406.459
168.6985, 3407.122
169.1807, 3409.823
169.6628, 3412.889
170.1449, 3414.001
170.6270, 3411.545
171.1091, 3407.029
171.5912, 3404.021
172.0734, 3403.383
172.5555, 3402.731
173.0376, 3401.004
173.5197, 3398.695
174.0018, 3396.449
174.4839, 3394.596
174.9661, 3393.145
175.4482, 3392.190
175.9303, 3392.954
176.4124, 3392.818
176.8945, 3390.519
177.3766, 3386.891
177.8588, 3383.489
178.3409, 3381.531
178.8230, 3381.033
179.3051, 3379.492
179.7872, 3375.408
180.2693, 3371.737
180.7515, 3369.800
181.2336, 3369.095
181.7157, 3368.190
182.1978, 3365.759
182.6799, 3361.534
183.1620, 3358.347
183.6441, 3357.319
184.1263, 3356.070
184.6084, 3353.192
185.0905, 3348.822
185.5726, 3344.193
186.0547, 3340.463
186.5368, 3337.794
187.0190, 3334.923
187.5011, 3331.886
187.9832, 3328.678
188.4653, 3325.481
188.9474, 3322.304
189.4296, 3318.575
189.9117, 3313.468
190.3938, 3307.045
190.8759, 3301.041
191.3580, 3295.207
191.8401, 3290.117
192.3223, 3287.261
192.8044, 3287.375
193.2865, 3286.683
193.7686, 3279.676
194.2507, 3268.354
194.7328, 3258.875
195.2150, 3253.972
195.6971, 3251.995
196.1792, 3250.021
196.6613, 3248.316
197.1434, 3245.418
197.6255, 3239.595
198.1077, 3231.722
198.5898, 3224.089
199.0719, 3217.974
199.5540, 3213.055
200.0361, 3207.946
200.5182, 3202.112
201.0004, 3196.837
201.4825, 3193.442
201.9646, 3191.182
202.4467, 3188.235
202.9288, 3182.868
203.4109, 3175.283
203.8930, 3168.997
204.3752, 3164.841
204.8573, 3161.344
205.3394, 3158.851
205.8215, 3156.688
206.3036, 3153.335
206.7857, 3147.042
207.2679, 3137.547
207.7500, 3130.302
208.2321, 3127.780
208.7142, 3125.373
209.1963, 3121.586
209.6784, 3116.644
210.1606, 3111.599
210.6427, 3107.427
211.1248, 3104.310
211.6069, 3100.592
212.0890, 3095.211
212.5711, 3090.260
213.0533, 3086.796
213.5354, 3084.592
214.0175, 3082.658
214.4996, 3080.103
214.9817, 3076.824
215.4638, 3073.582
215.9460, 3070.543
216.4281, 3067.390
216.9102, 3063.880
217.3923, 3060.076
217.8744, 3056.203
218.3565, 3052.465
218.8387, 3048.875
219.3208, 3045.463
219.8029, 3041.781
220.2850, 3038.583
220.7671, 3036.792
221.2492, 3036.218
221.7314, 3035.354
222.2135, 3032.764
222.6956, 3028.300
223.1777, 3024.557
223.6598, 3021.741
224.1419, 3019.470
224.6240, 3017.453
225.1062, 3015.677
225.5883, 3014.427
226.0704, 3014.341
226.5525, 3015.146
227.0346, 3014.767
227.5167, 3012.214
227.9989, 3008.970
228.4810, 3006.219
228.9631, 3004.020
229.4452, 3002.427
229.9273, 3001.940
230.4094, 3002.123
230.8916, 3001.740
231.3737, 2999.618
231.8558, 2997.378
232.3379, 2997.308
232.8200, 2999.761
233.3021, 3001.860
233.7843, 3001.125
234.2664, 2998.943
234.7485, 2997.367
235.2306, 2997.029
235.7127, 2997.410
236.1948, 2998.084
236.6770, 2999.285
237.1591, 2999.801
237.6412, 2997.930
238.1233, 2995.362
238.6054, 2994.130
239.0875, 2995.353
239.5697, 2997.462
240.0518, 2997.587
240.5339, 2994.812
241.0160, 2993.028
241.4981, 2994.826
241.9802, 2997.848
242.4624, 2999.920
242.9445, 3000.230
243.4266, 2999.489
243.9087, 2998.599
244.3908, 2997.028
244.8729, 2996.814
245.3550, 2999.935
245.8372, 3003.793
246.3193, 3006.040
246.8014, 3005.824
247.2835, 3004.406
247.7656, 3004.082
248.2477, 3005.630
248.7299, 3006.362
249.2120, 3005.148
249.6941, 3003.431
250.1762, 3002.264
250.6583, 3001.973
251.1404, 3002.248
251.6226, 3002.605
252.1047, 3003.087
252.5868, 3003.582
253.0689, 3004.703
253.5510, 3005.468
254.0331, 3004.829
254.5153, 3002.664
254.9974, 3000.118
255.4795, 2999.011
255.9616, 3000.214
256.4437, 3001.063
256.9258, 3001.668
257.4080, 3001.886
257.8901, 3001.215
258.3722, 2999.772
258.8543, 2998.559
259.3364, 2999.223
259.8185, 3003.531
260.3007, 3005.092
260.7828, 3002.147
261.2649, 2998.425
261.7470, 2995.882
262.2291, 2994.886
262.7112, 2995.010
263.1934, 2995.919
263.6755, 2998.103
264.1576, 2999.185
264.6397, 2998.242
265.1218, 2997.181
265.6039, 2997.140
266.0861, 2998.078
266.5682, 2999.134
267.0503, 2999.345
267.5324, 2998.353
268.0145, 2998.973
268.4966, 3003.027
268.9788, 3006.704
269.4609, 3008.206
269.9430, 3007.607
270.4251, 3005.705
270.9072, 3002.887
271.3893, 2999.084
271.8715, 2997.169
272.3536, 2997.971
272.8357, 2999.394
273.3178, 3000.782
273.7999, 3002.079
274.2820, 3003.344
274.7642, 3004.604
275.2463, 3005.865
275.7284, 3007.230
276.2105, 3009.247
276.6926, 3010.758
277.1747, 3011.192
277.6568, 3010.819
278.1389, 3010.251
278.6211, 3009.827
279.1032, 3009.458
279.5853, 3008.738
280.0674, 3006.603
280.5495, 3005.416
281.0316, 3006.688
281.5138, 3009.209
281.9959, 3010.835
282.4780, 3010.628
282.9601, 3009.100
283.4422, 3007.447
283.9243, 3005.451
284.4065, 3003.760
284.8886, 3002.414
285.3707, 3001.483
285.8528, 3001.119
286.3349, 3001.399
286.8170, 3002.124
287.2992, 3003.039
287.7813, 3004.216
288.2634, 3005.304
288.7455, 3006.550
289.2276, 3007.547
289.7097, 3007.613
290.1919, 3006.564
290.6740, 3005.192
291.1561, 3004.524
291.6382, 3004.697
292.1203, 3004.452
292.6024, 3002.782
293.0846, 3001.134
293.5667, 3001.000
294.0488, 3002.558
294.5309, 3004.939
295.0130, 3007.656
295.4951, 3010.662
295.9773, 3012.780
296.4594, 3013.812
296.9415, 3014.034
297.4236, 3013.490
297.9057, 3012.226
298.3878, 3010.530
298.8700, 3008.347
299.3521, 3005.881
299.8342, 3004.260
300.3163, 3004.164
300.7984, 3004.270
301.2805, 3003.655
301.7627, 3002.505
302.2448, 3001.775
302.7269, 3002.156
303.2090, 3003.162
303.6911, 3003.329
304.1732, 3002.421
304.6554, 3001.214
305.1375, 2999.891
305.6196, 2998.539
306.1017, 2997.355
306.5838, 2996.408
307.0659, 2995.713
307.5481, 2995.436
308.0302, 2995.800
308.5123, 2995.752
308.9944, 2994.706
309.4765, 2993.083
309.9586, 2991.567
310.4408, 2990.317
310.9229, 2989.257
311.4050, 2988.236
311.8871, 2987.198
312.3692, 2986.629
312.8513, 2986.593
313.3335, 2987.070
313.8156, 2988.352
314.2977, 2990.512
314.7798, 2992.395
315.2619, 2992.736
315.7440, 2991.616
316.2262, 2990.843
316.7083, 2989.896
317.1904, 2989.808
317.6725, 2992.517
318.1546, 2997.738
318.6367, 3001.456
319.1188, 3000.449
319.6010, 2995.693
320.0831, 2992.675
320.5652, 2992.220
321.0473, 2992.601
321.5294, 2993.404
322.0115, 2994.396
322.4937, 2994.664
322.9758, 2993.616
323.4579, 2991.781
323.9400, 2990.450
324.4221, 2989.431
324.9042, 2989.161
325.3864, 2989.768
325.8685, 2991.239
326.3506, 2993.851
326.8327, 2997.933
327.3148, 3002.329
327.7969, 3005.325
328.2791, 3007.013
328.7612, 3007.481
329.2433, 3004.944
329.7254, 3002.021
330.2075, 3002.200
330.6896, 3006.086
331.1718, 3010.908
331.6539, 3013.996
332.1360, 3015.171
332.6181, 3016.465
333.1002, 3017.583
333.5823, 3019.094
334.0645, 3021.398
334.5466, 3024.489
335.0287, 3028.348
335.5108, 3033.243
335.9929, 3038.874
336.4750, 3043.069
336.9572, 3044.600
337.4393, 3046.178
337.9214, 3048.917
338.4035, 3052.567
338.8856, 3056.621
339.3677, 3060.949
339.8499, 3065.261
340.3320, 3068.642
340.8141, 3070.347
341.2962, 3072.574
341.7783, 3076.107
342.2604, 3080.257
342.7426, 3084.228
343.2247, 3087.780
343.7068, 3090.943
344.1889, 3093.737
344.6710, 3096.088
345.1531, 3098.203
345.6353, 3099.355
346.1174, 3100.778
346.5995, 3103.965
347.0816, 3108.725
347.5637, 3113.118
348.0458, 3115.191
348.5280, 3114.786
349.0101, 3115.741
349.4922, 3118.895
349.9743, 3122.327
350.4564, 3125.581
350.9385, 3128.467
351.4207, 3130.608
351.9028, 3131.687
352.3849, 3132.039
352.8670, 3133.116
353.3491, 3134.939
353.8312, 3137.460
354.3134, 3140.764
354.7955, 3144.733
355.2776, 3149.805
355.7597, 3156.039
356.2418, 3161.970
356.7239, 3165.001
357.2061, 3162.916
357.6882, 3162.334
358.1703, 3163.579
358.6524, 3165.902
359.1345, 3169.517
359.6166, 3173.986
360.0987, 3177.716
360.5808, 3178.952
361.0630, 3177.271
361.5451, 3177.096
362.0272, 3180.595
362.5093, 3183.237
362.9914, 3182.797
363.4735, 3180.431
363.9557, 3178.484
364.4378, 3178.405
364.9199, 3179.753
365.4020, 3180.703
365.8841, 3181.787
366.3662, 3181.625
366.8484, 3177.856
367.3305, 3173.957
367.8126, 3174.251
368.2947, 3179.840
368.7768, 3186.856
369.2589, 3188.912
369.7411, 3183.651
370.2232, 3179.787
370.7053, 3178.271
371.1874, 3177.548
371.6695, 3177.038
372.1516, 3176.589
372.6338, 3176.109
373.1159, 3175.403
373.5980, 3174.490
374.0801, 3174.167
374.5622, 3174.012
375.0443, 3175.102
375.5265, 3178.918
376.0086, 3183.872
376.4907, 3187.359
376.9728, 3187.874
377.4549, 3186.848
377.9370, 3187.486
378.4192, 3190.217
378.9013, 3193.428
379.3834, 3197.789
379.8655, 3201.795
380.3476, 3203.844
380.8297, 3203.656
381.3119, 3203.209
381.7940, 3204.612
382.2761, 3207.834
382.7582, 3210.849
383.2403, 3212.854
383.7224, 3215.331
384.2046, 3219.708
384.6867, 3225.447
385.1688, 3230.688
385.6509, 3233.789
386.1330, 3235.761
386.6151, 3239.097
387.0973, 3244.140
387.5794, 3249.213
388.0615, 3253.080
388.5436, 3256.444
389.0257, 3260.301
389.5078, 3264.858
389.9900, 3269.865
390.4721, 3275.496
390.9542, 3281.597
391.4363, 3286.792
391.9184, 3290.289
392.4005, 3293.079
392.8827, 3296.809
393.3648, 3301.633
393.8469, 3305.624
394.3290, 3306.626
394.8111, 3306.798
395.2932, 3309.994
395.7754, 3317.024
396.2575, 3324.737
396.7396, 3330.570
397.2217, 3334.590
397.7038, 3338.412
398.1859, 3341.970
398.6681, 3345.526
399.1501, 3349.243
399.6323, 3353.106
400.1144, 3357.067
400.5965, 3361.109
401.0786, 3365.190
401.5607, 3369.133
402.0428, 3372.909
402.5250, 3376.592
403.0071, 3380.104
403.4892, 3383.549
403.9713, 3387.271
404.4534, 3391.263
404.9355, 3394.732
405.4177, 3396.536
405.8998, 3396.031
406.3819, 3397.128
406.8640, 3401.761
407.3461, 3405.956
407.8282, 3407.226
408.3104, 3406.417
408.7925, 3405.950
409.2746, 3407.367
409.7567, 3410.254
410.2388, 3412.696
410.7209, 3413.702
411.2031, 3415.578
411.6852, 3418.973
412.1673, 3423.047
412.6494, 3427.335
413.1315, 3431.579
413.6136, 3435.230
414.0958, 3437.385
414.5779, 3437.594
415.0600, 3438.151
415.5421, 3438.816
416.0242, 3440.085
416.5063, 3442.790
416.9885, 3446.312
417.4706, 3449.062
417.9527, 3449.687
418.4348, 3449.148
418.9169, 3451.083
419.3990, 3457.001
419.8812, 3462.034
420.3633, 3464.198
420.8454, 3465.097
421.3275, 3465.961
421.8096, 3467.058
422.2917, 3468.425
422.7739, 3470.519
423.2560, 3473.233
423.7381, 3474.568
424.2202, 3473.405
424.7023, 3471.853
425.1844, 3471.454
425.6666, 3472.003
426.1487, 3472.821
426.6308, 3473.928
427.1129, 3474.996
427.5950, 3475.394
428.0771, 3475.080
428.5593, 3474.901
429.0414, 3475.448
429.5235, 3476.375
430.0056, 3477.005
430.4877, 3477.597
430.9698, 3477.351
431.4520, 3475.646
431.9341, 3472.882
432.4162, 3469.572
432.8983, 3465.757
433.3804, 3462.213
433.8625, 3460.078
434.3447, 3459.630
434.8268, 3458.204
435.3089, 3454.993
435.7910, 3451.372
436.2731, 3448.181
436.7552, 3445.370
437.2374, 3442.722
437.7195, 3440.246
438.2016, 3437.575
438.6837, 3433.351
439.1658, 3425.848
439.6479, 3418.964
440.1301, 3413.011
440.6122, 3407.793
441.0943, 3403.894
441.5764, 3401.078
442.0585, 3397.442
442.5406, 3390.656
443.0227, 3380.220
443.5049, 3370.267
443.9870, 3360.313
444.4691, 3351.419
444.9512, 3344.315
445.4333, 3338.495
445.9154, 3333.255
446.3976, 3328.392
446.8797, 3323.370
447.3618, 3316.860
447.8439, 3308.352
448.3260, 3299.848
448.8081, 3291.911
449.2903, 3283.875
449.7724, 3274.916
450.2545, 3265.176
450.7366, 3256.004
451.2187, 3249.271
451.7008, 3244.118
452.1830, 3236.793
452.6651, 3226.435
453.1472, 3215.945
453.6293, 3207.102
454.1114, 3199.184
454.5935, 3191.143
455.0757, 3182.421
455.5578, 3174.250
456.0399, 3168.505
456.5220, 3164.431
457.0041, 3158.327
457.4862, 3148.560
457.9684, 3137.653
458.4505, 3129.054
458.9326, 3122.737
459.4147, 3116.024
459.8968, 3107.920
460.3789, 3099.664
460.8611, 3092.693
461.3432, 3086.781
461.8253, 3080.173
462.3074, 3071.477
462.7895, 3061.547
463.2716, 3053.753
463.7538, 3050.052
464.2359, 3045.778
464.7180, 3040.108
465.2001, 3033.726
465.6822, 3027.217
466.1643, 3020.723
466.6465, 3014.213
467.1286, 3007.445
467.6107, 3000.100
468.0928, 2994.997
468.5749, 2995.426
469.0570, 2994.548
469.5392, 2989.959
470.0213, 2983.034
470.5034, 2975.713
470.9855, 2968.799
471.4676, 2962.461
471.9497, 2957.096
472.4319, 2952.897
472.9140, 2948.908
473.3961, 2945.488
473.8782, 2941.865
474.3603, 2937.725
474.8424, 2933.051
475.3246, 2927.737
475.8067, 2920.763
476.2888, 2913.493
476.7709, 2909.674
477.2530, 2910.108
477.7351, 2908.925
478.2173, 2901.602
478.6994, 2892.005
479.1815, 2886.531
479.6636, 2886.489
480.1457, 2886.681
480.6278, 2884.543
481.1100, 2880.867
481.5920, 2876.688
482.0742, 2872.119
482.5563, 2868.414
483.0384, 2867.305
483.5205, 2868.635
484.0026, 2866.823
484.4847, 2858.724
484.9669, 2851.085
485.4490, 2846.883
485.9311, 2844.919
486.4132, 2843.086
486.8953, 2840.581
487.3774, 2837.788
487.8596, 2835.465
488.3417, 2834.262
488.8238, 2831.628
489.3059, 2826.118
489.7880, 2820.819
490.2701, 2817.748
490.7523, 2816.114
491.2344, 2813.851
491.7165, 2809.637
492.1986, 2804.249
492.6807, 2799.883
493.1628, 2797.061
493.6450, 2793.879
494.1271, 2789.108
494.6092, 2784.485
495.0913, 2781.386
495.5734, 2779.776
496.0555, 2778.333
496.5377, 2776.569
497.0198, 2774.261
497.5019, 2770.444
497.9840, 2764.696
498.4661, 2759.325
498.9482, 2755.846
499.4304, 2753.425
499.9125, 2750.327
500.3946, 2745.964
500.8767, 2742.140
501.3588, 2740.319
501.8409, 2739.476
502.3231, 2737.704
502.8052, 2734.617
503.2873, 2731.095
503.7694, 2728.005
504.2515, 2725.345
504.7336, 2722.212
505.2158, 2718.109
505.6979, 2714.147
506.1800, 2710.770
506.6621, 2707.766
507.1442, 2705.046
507.6263, 2702.527
508.1085, 2699.606
508.5906, 2695.082
509.0727, 2687.930
509.5548, 2682.828
510.0369, 2681.265
510.5190, 2680.263
511.0012, 2679.468
511.4833, 2678.289
511.9654, 2675.679
512.4475, 2670.892
512.9296, 2665.154
513.4117, 2660.702
513.8939, 2657.684
514.3760, 2654.742
514.8581, 2651.739
515.3402, 2648.551
515.8223, 2644.882
516.3044, 2640.865
516.7866, 2637.330
517.2687, 2635.333
517.7508, 2633.594
518.2329, 2630.050
518.7150, 2624.851
519.1971, 2620.427
519.6793, 2618.251
520.1614, 2617.136
520.6435, 2614.213
521.1256, 2608.585
521.6077, 2604.083
522.0898, 2602.548
522.5720, 2601.565
523.0541, 2598.554
523.5362, 2593.802
524.0183, 2589.729
524.5004, 2588.152
524.9825, 2588.628
525.4647, 2588.910
525.9468, 2590.040
526.4289, 2589.356
526.9110, 2585.314
527.3931, 2580.397
527.8752, 2576.385
528.3574, 2573.614
528.8395, 2571.721
529.3216, 2570.809
529.8037, 2570.573
530.2858, 2568.994
530.7679, 2565.601
531.2501, 2561.963
531.7322, 2558.054
532.2143, 2554.589
532.6964, 2552.565
533.1785, 2552.322
533.6606, 2552.173
534.1428, 2550.906
534.6249, 2548.957
535.1070, 2547.375
535.5891, 2546.339
536.0712, 2544.972
536.5533, 2542.505
537.0355, 2539.115
537.5176, 2536.085
537.9997, 2533.122
538.4818, 2530.823
538.9639, 2529.770
539.4460, 2529.273
539.9282, 2528.525
540.4103, 2527.342
540.8924, 2525.914
541.3745, 2524.427
541.8566, 2522.880
542.3387, 2521.355
542.8209, 2519.742
543.3029, 2518.307
543.7850, 2517.701
544.2672, 2517.017
544.7493, 2514.968
545.2314, 2511.285
545.7135, 2507.406
546.1956, 2505.043
546.6777, 2504.055
547.1599, 2502.814
547.6420, 2501.036
548.1241, 2499.434
548.6062, 2498.765
549.0883, 2498.506
549.5704, 2497.785
550.0526, 2496.337
550.5347, 2494.692
551.0168, 2492.939
551.4989, 2491.265
551.9810, 2490.325
552.4631, 2490.281
552.9453, 2489.909
553.4274, 2487.978
553.9095, 2484.463
554.3916, 2481.204
554.8737, 2477.536
555.3558, 2474.849
555.8380, 2474.682
556.3201, 2475.160
556.8022, 2473.705
557.2843, 2469.802
557.7664, 2465.397
558.2485, 2462.899
558.7307, 2462.429
559.2128, 2460.718
559.6949, 2456.847
560.1770, 2453.045
560.6591, 2450.157
561.1412, 2447.710
561.6234, 2445.081
562.1055, 2442.104
562.5876, 2439.173
563.0697, 2436.421
563.5518, 2433.979
564.0339, 2432.464
564.5161, 2432.109
564.9982, 2431.834
565.4803, 2430.909
565.9624, 2429.409
566.4445, 2427.812
566.9266, 2426.052
567.4088, 2424.289
567.8909, 2422.655
568.3730, 2421.011
568.8551, 2418.927
569.3372, 2416.463
569.8193, 2414.456
570.3015, 2413.826
570.7836, 2414.465
571.2657, 2414.354
571.7478, 2413.198
572.2299, 2411.616
572.7120, 2408.669
573.1942, 2405.987
573.6763, 2405.469
574.1584, 2407.187
574.6405, 2409.088
575.1226, 2409.313
575.6047, 2408.219
576.0869, 2407.474
576.5690, 2407.361
577.0511, 2406.339
577.5332, 2402.961
578.0153, 2398.647
578.4974, 2395.620
578.9796, 2394.007
579.4617, 2393.270
579.9438, 2394.181
580.4259, 2395.296
580.9080, 2394.570
581.3901, 2392.170
581.8723, 2390.176
582.3544, 2390.013
582.8365, 2391.022
583.3186, 2390.898
583.8007, 2387.871
584.2828, 2386.470
584.7650, 2388.550
585.2471, 2390.702
585.7292, 2390.070
586.2113, 2387.396
586.6934, 2385.728
587.1755, 2387.320
587.6577, 2390.438
588.1398, 2390.741
588.6219, 2387.685
589.1040, 2385.567
589.5861, 2386.010
590.0682, 2387.059
590.5504, 2386.663
591.0325, 2385.091
591.5146, 2384.140
591.9967, 2385.222
592.4788, 2386.400
592.9609, 2385.595
593.4431, 2383.485
593.9252, 2382.246
594.4073, 2382.713
594.8894, 2383.814
595.3715, 2383.952
595.8536, 2382.640
596.3358, 2382.632
596.8179, 2385.575
597.3000, 2387.807
597.7821, 2387.706
598.2642, 2386.212
598.7463, 2384.497
