##NAMES=Wairakite
##RRUFFID=R061075
##IDEAL CHEMISTRY=Ca(Si_4_Al_2_)O_12_&#183;2H_2_O
##LOCALITY=Katashina Village, Gunma Prefecture, Japan
##OWNER=RRUFF
##SOURCE=Michael Scott
##DESCRIPTION=White massive, associated with prehnite and dmisteinbergite, R130087
##STATUS=The identification of this mineral has been confirmed only by single crystal X-ray diffraction.
##URL=rruff.info/R061075
118.1981, 208.1461
118.6802, 207.8531
119.1623, 208.5836
119.6444, 210.1320
120.1266, 211.9999
120.6087, 214.1166
121.0908, 216.3020
121.5729, 218.2588
122.0550, 220.0230
122.5371, 221.4976
123.0193, 222.5937
123.5014, 223.3138
123.9835, 223.6591
124.4656, 223.6541
124.9477, 223.2489
125.4298, 222.3294
125.9120, 220.8829
126.3941, 218.8753
126.8762, 216.1969
127.3583, 212.5600
127.8404, 208.6448
128.3225, 204.3904
128.8047, 200.0743
129.2868, 196.1162
129.7689, 192.8385
130.2510, 190.1755
130.7331, 187.1633
131.2152, 183.1471
131.6974, 179.3736
132.1795, 176.1233
132.6616, 173.3775
133.1437, 171.0453
133.6258, 169.0763
134.1079, 167.5447
134.5901, 165.8463
135.0722, 163.6404
135.5543, 161.5625
136.0364, 159.9784
136.5185, 158.9210
137.0006, 158.2187
137.4828, 157.7673
137.9649, 157.6480
138.4470, 157.3234
138.9291, 156.5708
139.4112, 155.6731
139.8933, 154.9573
140.3755, 154.5077
140.8576, 154.2047
141.3397, 154.0361
141.8218, 154.0031
142.3039, 153.6654
142.7860, 152.5343
143.2681, 150.8789
143.7503, 149.6963
144.2324, 149.4025
144.7145, 149.4565
145.1966, 149.3754
145.6787, 149.1500
146.1608, 148.8444
146.6430, 148.5548
147.1251, 148.3031
147.6072, 147.8381
148.0893, 146.8486
148.5714, 145.7824
149.0535, 144.7951
149.5357, 143.9416
150.0178, 143.3088
150.4999, 143.1310
150.9820, 143.8240
151.4641, 144.0404
151.9462, 143.5135
152.4284, 142.6466
152.9105, 141.6317
153.3926, 140.5651
153.8747, 139.5833
154.3568, 139.0380
154.8389, 139.3282
155.3211, 139.6353
155.8032, 139.8721
156.2853, 140.1162
156.7674, 140.4861
157.2495, 141.0481
157.7316, 141.7414
158.2138, 142.3028
158.6959, 142.5403
159.1780, 142.8789
159.6601, 143.6551
160.1422, 144.6296
160.6243, 145.2253
161.1065, 145.0505
161.5886, 144.2555
162.0707, 143.6302
162.5528, 143.3134
163.0349, 143.0208
163.5170, 142.5816
163.9991, 142.0083
164.4813, 141.4302
164.9634, 140.9171
165.4455, 140.4593
165.9276, 140.0347
166.4097, 139.7376
166.8918, 139.3941
167.3740, 138.6638
167.8561, 137.4041
168.3382, 136.4435
168.8203, 136.7456
169.3024, 137.5325
169.7845, 137.8079
170.2667, 136.9418
170.7488, 135.4874
171.2309, 134.7630
171.7130, 135.1389
172.1951, 135.6047
172.6772, 135.9026
173.1594, 136.0017
173.6415, 135.8393
174.1236, 135.3440
174.6057, 134.5628
175.0878, 133.7861
175.5699, 133.1372
176.0521, 132.3380
176.5342, 131.0794
177.0163, 129.6332
177.4984, 128.5072
177.9805, 128.1258
178.4626, 128.4973
178.9448, 128.4661
179.4269, 127.6181
179.9090, 126.7778
180.3911, 126.1013
180.8732, 125.6283
181.3553, 125.4014
181.8375, 125.4912
182.3196, 125.9538
182.8017, 126.1642
183.2838, 125.9219
183.7659, 125.6636
184.2480, 125.6414
184.7301, 125.8327
185.2123, 126.0008
185.6944, 125.8737
186.1765, 125.3825
186.6586, 125.3724
187.1407, 126.3552
187.6228, 127.4373
188.1050, 127.8364
188.5871, 127.4929
189.0692, 127.1311
189.5513, 127.5982
190.0334, 128.8548
190.5155, 129.5847
190.9977, 129.3561
191.4798, 128.6651
191.9619, 128.0355
192.4440, 127.5298
192.9261, 127.0629
193.4082, 126.7618
193.8904, 126.5061
194.3725, 125.7489
194.8546, 123.9899
195.3367, 121.6674
195.8188, 119.6540
196.3009, 118.1131
196.7831, 116.6780
197.2652, 115.0568
197.7473, 113.3077
198.2294, 111.6124
198.7115, 110.0343
199.1936, 108.5705
199.6758, 107.2355
200.1579, 106.0791
200.6400, 104.9880
201.1221, 103.8805
201.6042, 102.7807
202.0863, 101.7620
202.5685, 100.8678
203.0506, 100.0951
203.5327, 99.43289
204.0148, 98.88382
204.4969, 98.46706
204.9790, 98.17065
205.4612, 98.00654
205.9433, 98.02247
206.4254, 98.36404
206.9075, 99.07453
207.3896, 99.25723
207.8717, 98.11932
208.3539, 97.15095
208.8360, 96.81570
209.3181, 97.06679
209.8002, 97.65630
210.2823, 98.41983
210.7644, 99.40202
211.2466, 100.1135
211.7287, 100.5608
212.2108, 100.7672
212.6929, 100.6164
213.1750, 100.1993
213.6571, 99.77907
214.1393, 99.63628
214.6214, 99.87855
215.1035, 99.58230
215.5856, 98.30163
216.0677, 97.00501
216.5498, 96.15430
217.0320, 95.74989
217.5141, 95.52464
217.9962, 95.23077
218.4783, 94.84402
218.9604, 94.72523
219.4425, 95.10537
219.9247, 95.53092
220.4068, 95.70284
220.8889, 95.62554
221.3710, 95.51212
221.8531, 95.52694
222.3352, 95.68764
222.8174, 95.94277
223.2995, 96.26761
223.7816, 96.70121
224.2637, 97.30155
224.7458, 98.06534
225.2279, 98.88802
225.7100, 99.71564
226.1922, 100.5340
226.6743, 101.2860
227.1564, 101.7012
227.6385, 102.2137
228.1206, 103.4060
228.6027, 105.3284
229.0849, 107.0893
229.5670, 107.8267
230.0491, 107.8855
230.5312, 108.2410
231.0133, 109.2119
231.4954, 110.4577
231.9776, 111.7027
232.4597, 112.9842
232.9418, 113.9993
233.4239, 114.3044
233.9060, 114.2566
234.3881, 114.3955
234.8703, 114.9401
235.3524, 115.6576
235.8345, 116.2389
236.3166, 116.6629
236.7987, 117.0498
237.2808, 117.7010
237.7630, 118.2771
238.2451, 118.2848
238.7272, 117.3508
239.2093, 116.1047
239.6914, 115.6700
240.1735, 116.3662
240.6557, 116.8399
241.1378, 116.4519
241.6199, 115.6472
242.1020, 114.8110
242.5841, 114.0844
243.0662, 113.3517
243.5484, 112.4110
244.0305, 111.2251
244.5126, 109.9273
244.9947, 108.5446
245.4768, 107.0872
245.9589, 105.5342
246.4410, 103.8700
246.9232, 102.1788
247.4053, 100.6560
247.8874, 99.56611
248.3695, 97.98339
248.8516, 95.24244
249.3337, 92.31153
249.8159, 89.91462
250.2980, 88.27113
250.7801, 87.14250
251.2622, 86.19067
251.7443, 85.62502
252.2264, 84.75455
252.7086, 83.25821
253.1907, 81.65540
253.6728, 80.27431
254.1549, 79.21171
254.6370, 78.38213
255.1191, 77.68673
255.6013, 77.26788
256.0834, 76.67258
256.5655, 75.62338
257.0476, 74.61974
257.5297, 74.04260
258.0118, 73.93229
258.4940, 73.99465
258.9761, 73.80724
259.4582, 73.14492
259.9403, 72.81920
260.4224, 73.27774
260.9045, 73.65816
261.3867, 73.31988
261.8688, 72.26395
262.3509, 71.02131
262.8330, 70.18666
263.3151, 69.84911
263.7972, 69.63903
264.2794, 69.58297
264.7615, 69.60395
265.2436, 69.71249
265.7257, 69.87617
266.2078, 70.00742
266.6899, 70.02305
267.1721, 69.91573
267.6542, 69.71508
268.1363, 69.28989
268.6184, 68.90889
269.1005, 68.79520
269.5826, 68.87481
270.0648, 68.85069
270.5469, 68.44819
271.0290, 67.64814
271.5111, 67.12001
271.9932, 66.96587
272.4753, 66.91827
272.9575, 66.87661
273.4396, 66.84876
273.9217, 66.88709
274.4038, 67.03363
274.8859, 67.27927
275.3680, 67.51026
275.8501, 67.77914
276.3322, 67.98394
276.8144, 68.06859
277.2965, 68.06354
277.7786, 68.02839
278.2607, 67.98856
278.7428, 67.95303
279.2249, 67.96481
279.7071, 68.15028
280.1892, 68.22848
280.6713, 68.02769
281.1534, 67.68427
281.6355, 67.44697
282.1176, 67.43018
282.5998, 67.55430
283.0819, 67.60864
283.5640, 67.47664
284.0461, 67.49767
284.5282, 67.88625
285.0103, 68.43208
285.4925, 68.84238
285.9746, 69.02488
286.4567, 69.02478
286.9388, 68.86227
287.4209, 68.43748
287.9030, 68.20053
288.3852, 68.45480
288.8673, 68.84185
289.3494, 68.85096
289.8315, 68.35277
290.3136, 67.76793
290.7957, 67.63985
291.2779, 68.03973
291.7600, 68.35410
292.2421, 68.47304
292.7242, 68.50874
293.2063, 68.53418
293.6884, 68.56216
294.1706, 68.65774
294.6527, 68.88564
295.1348, 69.25598
295.6169, 69.68118
296.0990, 70.20411
296.5811, 70.74820
297.0633, 71.29983
297.5454, 71.84267
298.0275, 72.25651
298.5096, 72.38299
298.9917, 72.29940
299.4738, 72.48730
299.9560, 73.21110
300.4381, 73.95774
300.9202, 74.38017
301.4023, 74.54586
301.8844, 74.80101
302.3665, 75.38032
302.8487, 76.13302
303.3308, 76.61150
303.8129, 76.72813
304.2950, 76.75367
304.7771, 76.80728
305.2592, 76.86175
305.7414, 76.85332
306.2235, 76.76651
306.7056, 76.58866
307.1877, 76.26708
307.6698, 75.76865
308.1519, 75.29583
308.6341, 74.94139
309.1162, 74.65002
309.5983, 74.33920
310.0804, 73.99353
310.5625, 73.60744
311.0446, 73.16638
311.5268, 72.67025
312.0089, 72.15762
312.4910, 71.53863
312.9731, 70.95218
313.4552, 70.61416
313.9373, 70.56558
314.4195, 70.53392
314.9016, 70.22935
315.3837, 69.67476
315.8658, 69.26494
316.3479, 69.14116
316.8300, 69.09581
317.3121, 68.93344
317.7943, 68.65907
318.2764, 68.44953
318.7585, 68.45535
319.2406, 68.62239
319.7227, 68.67022
320.2048, 68.68789
320.6870, 68.50700
321.1691, 67.94925
321.6512, 67.09545
322.1333, 66.18671
322.6154, 65.28127
323.0975, 64.46298
323.5797, 63.99492
324.0618, 64.05624
324.5439, 64.01273
325.0260, 63.49925
325.5081, 62.74794
325.9902, 62.23029
326.4724, 62.12886
326.9545, 62.16730
327.4366, 61.85524
327.9187, 61.10005
328.4008, 60.58380
328.8829, 60.65771
329.3651, 60.93242
329.8472, 60.93280
330.3293, 60.57669
330.8114, 60.12383
331.2935, 59.79111
331.7756, 59.59255
332.2578, 59.57113
332.7399, 59.97310
333.2220, 60.36694
333.7041, 60.39073
334.1862, 60.06867
334.6683, 59.68211
335.1505, 59.36531
335.6326, 59.16195
336.1147, 59.29793
336.5968, 60.24481
337.0789, 61.00022
337.5610, 61.03085
338.0432, 60.54636
338.5253, 59.99981
339.0074, 59.55975
339.4895, 59.27987
339.9716, 59.36379
340.4537, 60.05822
340.9359, 60.61026
341.4180, 60.88799
341.9001, 60.94300
342.3822, 60.74943
342.8643, 60.29970
343.3464, 59.84101
343.8286, 59.70967
344.3107, 59.99306
344.7928, 60.44472
345.2749, 61.34263
345.7570, 62.21235
346.2391, 62.65127
346.7213, 62.65112
347.2034, 62.48270
347.6855, 62.34689
348.1676, 62.23931
348.6497, 62.38439
349.1318, 63.06821
349.6140, 63.67369
350.0961, 63.83949
350.5782, 63.71303
351.0603, 63.67606
351.5424, 63.96380
352.0245, 64.48044
352.5067, 64.81495
352.9888, 64.71888
353.4709, 64.74842
353.9530, 65.04635
354.4351, 65.47407
354.9172, 65.93549
355.3994, 66.38616
355.8815, 66.69904
356.3636, 66.61356
356.8457, 65.62370
357.3278, 65.30514
357.8099, 66.10049
358.2920, 67.16801
358.7741, 67.93834
359.2563, 68.37143
359.7384, 68.76709
360.2205, 69.44836
360.7026, 70.47367
361.1847, 71.21087
361.6668, 71.26151
362.1490, 71.45425
362.6311, 72.09998
363.1132, 73.09254
363.5953, 74.21113
364.0774, 75.33711
364.5595, 76.44601
365.0417, 77.42702
365.5238, 78.14310
366.0059, 78.91385
366.4880, 79.79263
366.9701, 80.72897
367.4522, 81.70474
367.9344, 82.70140
368.4165, 83.65699
368.8986, 84.51937
369.3807, 85.39645
369.8628, 85.85593
370.3449, 85.56638
370.8271, 85.15433
371.3092, 84.93795
371.7913, 84.91959
372.2734, 84.91978
372.7555, 84.78876
373.2376, 84.53011
373.7198, 84.24084
374.2019, 84.01137
374.6840, 83.62283
375.1661, 82.96687
375.6482, 82.12566
376.1303, 81.19773
376.6125, 80.18846
377.0946, 79.20631
377.5767, 78.55085
378.0588, 78.39796
378.5409, 78.06954
379.0230, 77.29601
379.5052, 76.32667
379.9873, 75.28792
380.4694, 74.20873
380.9515, 73.18913
381.4336, 72.32140
381.9157, 71.60310
382.3979, 71.05638
382.8800, 70.92271
383.3621, 70.66678
383.8442, 69.84109
384.3263, 68.58394
384.8084, 67.38007
385.2906, 66.56055
385.7727, 65.97192
386.2548, 65.23351
386.7369, 64.29017
387.2190, 63.40457
387.7011, 62.76815
388.1833, 62.27175
388.6654, 61.76688
389.1475, 61.20879
389.6296, 60.66870
390.1117, 60.24429
390.5938, 59.91419
391.0760, 59.50509
391.5581, 58.89743
392.0402, 58.26770
392.5223, 57.90722
393.0044, 57.84299
393.4865, 57.66945
393.9687, 57.08784
394.4508, 56.34444
394.9329, 55.80481
395.4150, 55.51363
395.8971, 55.46672
396.3792, 55.78654
396.8614, 56.41841
397.3435, 56.73943
397.8256, 56.44660
398.3077, 56.07969
398.7898, 56.03806
399.2719, 56.23717
399.7540, 56.34042
400.2361, 56.17019
400.7183, 55.81023
401.2004, 55.49083
401.6825, 55.15022
402.1646, 54.94506
402.6467, 55.06337
403.1288, 55.25805
403.6110, 55.18907
404.0931, 54.79585
404.5752, 54.36573
405.0573, 54.25807
405.5394, 54.57993
406.0215, 54.68959
406.5037, 54.43192
406.9858, 54.13924
407.4679, 53.92652
407.9500, 53.81288
408.4321, 53.81657
408.9142, 53.96118
409.3964, 54.20266
409.8785, 54.33845
410.3606, 54.24537
410.8427, 54.20110
411.3248, 54.21643
411.8069, 54.29540
412.2891, 54.47343
412.7712, 54.74570
413.2533, 55.02151
413.7354, 55.15096
414.2175, 55.05801
414.6996, 55.12792
415.1818, 55.55297
415.6639, 55.96546
416.1460, 56.23777
416.6281, 56.38230
417.1102, 56.45262
417.5923, 56.47573
418.0745, 56.45848
418.5566, 56.41968
419.0387, 56.34669
419.5208, 56.28106
420.0029, 56.37463
420.4850, 56.40883
420.9672, 56.08778
421.4493, 55.32897
421.9314, 54.57544
422.4135, 54.35249
422.8956, 54.63049
423.3777, 54.78038
423.8599, 54.68409
424.3420, 54.46948
424.8241, 54.21091
425.3062, 53.92126
425.7883, 53.64509
426.2704, 53.41762
426.7526, 53.20660
427.2347, 52.94948
427.7168, 52.63966
428.1989, 52.37373
428.6810, 52.22734
429.1631, 52.14864
429.6453, 52.02319
430.1274, 51.85242
430.6095, 51.63019
431.0916, 51.24992
431.5737, 50.83198
432.0558, 50.65852
432.5380, 50.82262
433.0201, 51.07679
433.5022, 51.13501
433.9843, 50.96577
434.4664, 50.81577
434.9485, 50.58937
435.4307, 50.47185
435.9128, 50.70065
436.3949, 51.16940
436.8770, 51.51086
437.3591, 51.49820
437.8412, 51.22551
438.3234, 51.05069
438.8055, 50.96830
439.2876, 50.99579
439.7697, 51.18909
440.2518, 51.46257
440.7339, 51.80563
441.2160, 52.17964
441.6982, 52.42623
442.1803, 52.31738
442.6624, 51.76789
443.1445, 51.48684
443.6266, 51.56808
444.1087, 51.82814
444.5909, 52.40458
445.0730, 53.08632
445.5551, 53.53233
446.0372, 53.54613
446.5193, 53.32190
447.0014, 53.29658
447.4836, 53.54338
447.9657, 53.77108
448.4478, 53.78386
448.9299, 53.86790
449.4120, 54.33500
449.8941, 55.13789
450.3763, 55.80040
450.8584, 55.88295
451.3405, 55.50834
451.8226, 55.14627
452.3047, 54.72926
452.7868, 54.51947
453.2690, 54.76500
453.7511, 55.29570
454.2332, 55.92186
454.7153, 56.65792
455.1974, 57.37120
455.6795, 57.92362
456.1617, 58.35068
456.6438, 58.82626
457.1259, 59.41702
457.6080, 60.03585
458.0901, 60.52992
458.5722, 60.89415
459.0544, 61.40026
459.5365, 62.18484
460.0186, 63.06610
460.5007, 63.85210
460.9828, 64.56719
461.4649, 65.40336
461.9471, 66.50293
462.4292, 67.79631
462.9113, 69.02212
463.3934, 70.07807
463.8755, 71.20508
464.3576, 72.42488
464.8398, 73.74220
465.3219, 75.08598
465.8040, 76.48343
466.2861, 78.13184
466.7682, 80.27302
467.2503, 82.97842
467.7325, 85.65374
468.2146, 88.50222
468.6967, 91.09799
469.1788, 92.98612
469.6609, 94.63308
470.1430, 96.69952
470.6252, 99.48045
471.1073, 102.7403
471.5894, 106.1007
472.0715, 109.5633
472.5536, 113.1026
473.0357, 116.9286
473.5179, 120.6274
474.0000, 123.9883
474.4821, 126.9984
474.9642, 129.7610
475.4463, 132.2258
475.9284, 134.5017
476.4106, 136.9960
476.8927, 139.8178
477.3748, 142.1056
477.8569, 143.3529
478.3390, 143.8342
478.8211, 144.0398
479.3033, 143.9925
479.7854, 143.6519
480.2675, 143.1677
480.7496, 142.3304
481.2317, 140.5989
481.7138, 137.8488
482.1959, 134.8578
482.6780, 132.2915
483.1602, 130.1534
483.6423, 127.8771
484.1244, 125.2448
484.6065, 122.7247
485.0886, 120.4050
485.5707, 118.3369
486.0529, 116.6280
486.5350, 115.3098
487.0171, 114.2644
487.4992, 113.2974
487.9813, 112.3151
488.4634, 111.6733
488.9456, 111.4006
489.4277, 111.3784
489.9098, 111.5111
490.3919, 111.8497
490.8740, 112.4791
491.3561, 113.4182
491.8383, 114.7687
492.3204, 116.8951
492.8025, 120.0526
493.2846, 123.2649
493.7667, 126.2338
494.2488, 129.2404
494.7310, 132.4898
495.2131, 135.9773
495.6952, 139.5674
496.1773, 143.0343
496.6594, 146.5172
497.1415, 150.5020
497.6237, 155.1456
498.1058, 159.6142
498.5879, 163.4910
499.0700, 166.9098
499.5521, 170.1927
500.0342, 173.5101
500.5164, 176.3398
500.9985, 178.4495
501.4806, 179.9104
501.9627, 181.0455
502.4448, 181.9252
502.9269, 181.8503
503.4091, 180.0928
503.8912, 176.5640
504.3733, 172.5407
504.8554, 168.2335
505.3375, 163.2706
505.8196, 157.2108
506.3018, 150.4966
506.7839, 143.7997
507.2660, 137.3624
507.7481, 131.0095
508.2302, 124.4348
508.7123, 117.3696
509.1945, 111.0361
509.6766, 105.7127
510.1587, 100.8641
510.6408, 96.36626
511.1229, 92.17337
511.6050, 88.22488
512.0872, 84.46854
512.5693, 80.99512
513.0514, 78.00675
513.5335, 75.53584
514.0156, 73.21693
514.4977, 70.97124
514.9799, 68.85310
515.4620, 66.82364
515.9441, 64.91751
516.4262, 63.35593
516.9083, 62.49452
517.3904, 61.86984
517.8726, 60.84247
518.3547, 59.43479
518.8368, 58.07244
519.3189, 56.94576
519.8010, 55.99445
520.2831, 55.12077
520.7653, 54.32802
521.2474, 53.57068
521.7295, 52.87848
522.2116, 52.19593
522.6937, 51.45170
523.1758, 50.66505
523.6580, 49.92170
524.1401, 49.28263
524.6222, 48.74839
525.1043, 48.31541
525.5864, 48.11202
526.0685, 47.83201
526.5507, 47.38993
527.0328, 46.90472
527.5149, 46.42452
527.9970, 45.98550
528.4791, 45.67657
528.9612, 45.61786
529.4434, 45.76396
529.9255, 45.87399
530.4076, 46.03710
530.8897, 45.95379
531.3718, 45.16453
531.8539, 44.22038
532.3361, 43.76713
532.8182, 43.97931
533.3003, 44.12512
533.7824, 43.53288
534.2645, 42.57018
534.7466, 42.07309
535.2288, 42.17400
535.7109, 42.38580
536.1930, 42.35777
536.6751, 42.12664
537.1572, 41.94810
537.6393, 41.91381
538.1215, 41.81483
538.6036, 41.51947
539.0857, 41.15945
539.5678, 40.88230
540.0499, 40.72512
540.5320, 40.67293
541.0142, 40.73614
541.4963, 40.92260
541.9784, 40.94757
542.4604, 40.63336
542.9426, 40.36309
543.4247, 40.22144
543.9068, 40.15935
544.3889, 40.13750
544.8710, 40.14070
545.3531, 40.12965
545.8353, 40.05862
546.3174, 39.93095
546.7995, 39.77588
547.2816, 39.55479
547.7637, 39.39198
548.2458, 39.51008
548.7280, 39.70729
549.2101, 39.60289
549.6922, 38.95534
550.1743, 38.38390
550.6564, 38.41151
551.1385, 38.77000
551.6207, 38.86982
552.1028, 38.58364
552.5849, 38.22106
553.0670, 38.06425
553.5491, 38.11455
554.0313, 38.17806
554.5134, 38.28937
554.9955, 38.37119
555.4776, 38.37848
555.9597, 38.35600
556.4418, 38.40457
556.9240, 38.52893
557.4061, 38.55720
557.8882, 38.20352
558.3703, 37.43953
558.8524, 37.15918
559.3345, 37.74384
559.8167, 38.27870
560.2988, 38.43163
560.7809, 38.37990
561.2630, 38.34314
561.7451, 38.38065
562.2272, 38.38094
562.7094, 38.19738
563.1915, 37.89479
563.6736, 37.71463
564.1557, 37.71007
564.6378, 37.68968
565.1199, 37.48621
565.6021, 37.15382
566.0842, 36.93377
566.5663, 36.79119
567.0484, 36.80789
567.5305, 37.17615
568.0126, 37.64140
568.4948, 37.87543
568.9769, 37.82885
569.4590, 37.67458
569.9411, 37.57505
570.4232, 37.52205
570.9053, 37.35899
571.3875, 36.90395
571.8696, 36.58567
572.3517, 36.60957
572.8338, 36.70487
573.3159, 36.57879
573.7980, 36.20837
574.2802, 35.85525
574.7623, 35.74466
575.2444, 35.83996
575.7265, 36.04413
576.2086, 36.42145
576.6907, 36.62236
577.1729, 36.29940
577.6550, 35.80579
578.1371, 35.73018
578.6192, 36.16809
579.1013, 36.63465
579.5834, 37.02380
580.0656, 37.30069
580.5477, 37.35954
581.0298, 37.23542
581.5119, 37.18235
581.9940, 37.39141
582.4761, 37.72995
582.9583, 37.73945
583.4404, 37.07734
583.9225, 36.59888
584.4046, 36.39203
584.8867, 36.29771
585.3688, 36.19826
585.8510, 36.11291
586.3331, 36.13839
586.8152, 36.34170
587.2973, 36.68052
587.7794, 37.10698
588.2615, 37.65809
588.7437, 38.03682
589.2258, 38.09764
589.7079, 38.04075
590.1900, 37.97881
590.6721, 37.93667
591.1542, 38.09419
591.6364, 38.72382
592.1185, 39.39032
592.6006, 39.73804
593.0827, 39.81335
593.5648, 39.70052
594.0469, 39.40760
594.5291, 39.17873
595.0112, 39.41121
595.4933, 40.30914
595.9754, 40.73082
596.4575, 40.25576
596.9396, 39.84660
597.4218, 39.95479
597.9039, 40.29898
598.3860, 40.47191
598.8681, 40.33276
599.3502, 40.00129
599.8323, 39.52696
600.3145, 38.92176
600.7966, 38.62256
601.2787, 38.81252
601.7608, 38.95869
602.2429, 38.63853
602.7250, 38.11554
603.2072, 37.81338
603.6893, 37.86268
604.1714, 37.88713
604.6535, 37.64824
605.1356, 37.28796
605.6177, 36.98775
606.0999, 36.77763
606.5820, 36.65435
607.0641, 36.61235
607.5462, 36.66042
608.0283, 36.84584
608.5104, 37.40353
608.9926, 37.75807
609.4747, 37.82132
609.9568, 37.73692
610.4389, 37.47101
610.9210, 37.13478
611.4031, 37.03047
611.8853, 37.41469
612.3674, 38.03845
612.8495, 38.37072
613.3316, 38.38958
613.8137, 38.38043
614.2958, 38.35219
614.7780, 38.39901
615.2601, 38.62449
