##NAMES=Wairakite
##RRUFFID=R061075
##IDEAL CHEMISTRY=Ca(Si_4_Al_2_)O_12_&#183;2H_2_O
##LOCALITY=Katashina Village, Gunma Prefecture, Japan
##OWNER=RRUFF
##SOURCE=Michael Scott
##DESCRIPTION=White massive, associated with prehnite and dmisteinbergite, R130087
##STATUS=The identification of this mineral has been confirmed only by single crystal X-ray diffraction.
##URL=rruff.info/R061075
170.3572, 84.77370
170.8394, 84.81271
171.3215, 84.92164
171.8036, 85.43983
172.2857, 87.12161
172.7678, 88.97314
173.2499, 89.81550
173.7321, 89.45068
174.2142, 89.07264
174.6963, 89.86263
175.1784, 91.43575
175.6605, 92.88627
176.1426, 93.46082
176.6248, 93.72642
177.1069, 94.44618
177.5890, 95.72079
178.0711, 97.33125
178.5532, 99.16997
179.0353, 101.1968
179.5175, 103.1957
179.9996, 105.0238
180.4817, 106.7535
180.9638, 108.5927
181.4459, 110.6149
181.9280, 112.6278
182.4102, 114.4285
182.8923, 116.0018
183.3744, 117.4661
183.8565, 118.7144
184.3386, 119.8852
184.8207, 121.3701
185.3029, 123.3085
185.7850, 125.4460
186.2671, 127.4734
186.7492, 129.3790
187.2313, 131.1273
187.7134, 132.4735
188.1956, 133.5715
188.6777, 135.1407
189.1598, 137.4521
189.6419, 140.1360
190.1240, 142.4151
190.6061, 144.3053
191.0883, 146.0546
191.5704, 147.7685
192.0525, 149.4857
192.5346, 151.4942
193.0167, 153.9995
193.4988, 156.6070
193.9810, 157.8763
194.4631, 157.6025
194.9452, 157.1071
195.4273, 156.8398
195.9094, 156.7911
196.3915, 156.6148
196.8737, 156.3081
197.3558, 155.8196
197.8379, 154.8075
198.3200, 153.1759
198.8021, 151.5126
199.2842, 150.5882
199.7664, 150.4764
200.2485, 149.6352
200.7306, 147.4936
201.2127, 144.3706
201.6948, 141.9949
202.1769, 140.4598
202.6591, 139.3282
203.1412, 138.2105
203.6233, 137.0750
204.1054, 136.1298
204.5875, 135.4380
205.0696, 134.9784
205.5518, 134.5606
206.0339, 134.1281
206.5160, 133.8483
206.9981, 133.9303
207.4802, 134.4277
207.9623, 135.0031
208.4445, 135.5767
208.9266, 136.1526
209.4087, 136.7837
209.8908, 137.4413
210.3729, 138.2034
210.8550, 139.2437
211.3372, 140.7049
211.8193, 141.9261
212.3014, 142.8388
212.7835, 143.4429
213.2656, 143.2917
213.7477, 142.1965
214.2299, 140.6195
214.7120, 139.1166
215.1941, 137.7449
215.6762, 136.2443
216.1583, 134.5003
216.6404, 132.5134
217.1226, 130.5168
217.6047, 128.3581
218.0868, 126.3630
218.5689, 124.9634
219.0510, 124.4129
219.5331, 123.8429
220.0153, 122.9971
220.4974, 121.8346
220.9795, 120.7965
221.4616, 119.7689
221.9437, 118.9716
222.4258, 118.7543
222.9080, 119.4739
223.3901, 120.0099
223.8722, 120.0120
224.3543, 119.4094
224.8364, 118.9138
225.3185, 118.5643
225.8007, 118.2863
226.2828, 117.9133
226.7649, 117.1542
227.2470, 116.8860
227.7291, 117.5068
228.2112, 119.2043
228.6934, 120.3517
229.1755, 120.6994
229.6576, 120.7177
230.1397, 121.0293
230.6218, 121.8610
231.1039, 122.5804
231.5861, 123.0161
232.0682, 123.1491
232.5503, 123.1843
233.0324, 123.0403
233.5145, 122.8729
233.9966, 122.8784
234.4788, 123.1032
234.9609, 123.4282
235.4430, 123.8697
235.9251, 124.4700
236.4072, 124.8751
236.8893, 124.9402
237.3715, 124.9279
237.8536, 125.1770
238.3357, 125.8328
238.8178, 126.4984
239.2999, 127.1020
239.7820, 127.6486
240.2642, 128.0281
240.7463, 128.1422
241.2284, 128.1668
241.7105, 128.3260
242.1926, 128.7114
242.6747, 129.0653
243.1569, 129.3839
243.6390, 129.7087
244.1211, 129.6283
244.6032, 129.0029
245.0853, 128.0998
245.5674, 127.2075
246.0496, 126.2854
246.5317, 125.4598
247.0138, 124.8406
247.4959, 124.4776
247.9780, 123.6970
248.4601, 122.2468
248.9423, 120.6283
249.4244, 119.4229
249.9065, 118.8862
250.3886, 118.2671
250.8707, 117.4235
251.3528, 116.3634
251.8350, 115.0563
252.3171, 113.3077
252.7992, 111.5393
253.2813, 110.2102
253.7634, 109.5211
254.2455, 108.8557
254.7277, 108.0656
255.2098, 107.1415
255.6919, 106.3920
256.1740, 105.8876
256.6561, 105.4658
257.1382, 104.9878
257.6204, 104.4426
258.1025, 103.8491
258.5846, 103.1735
259.0667, 102.4236
259.5488, 101.8592
260.0309, 101.5763
260.5131, 101.3563
260.9952, 101.0158
261.4773, 100.5225
261.9594, 99.98656
262.4415, 99.37639
262.9236, 98.71517
263.4058, 98.32504
263.8879, 98.32166
264.3700, 98.38858
264.8521, 98.24607
265.3342, 97.80099
265.8163, 97.47449
266.2985, 97.37416
266.7806, 97.44835
267.2627, 97.40687
267.7448, 97.24625
268.2269, 96.97478
268.7090, 96.53574
269.1912, 95.83219
269.6733, 95.37444
270.1554, 95.30177
270.6375, 95.49898
271.1196, 95.47604
271.6017, 95.14449
272.0839, 94.83533
272.5660, 94.88037
273.0481, 95.39448
273.5302, 95.46165
274.0123, 94.82878
274.4944, 93.80111
274.9766, 93.27731
275.4587, 93.33427
275.9408, 93.59713
276.4229, 93.90236
276.9050, 94.26669
277.3871, 94.48952
277.8693, 94.54213
278.3514, 94.46477
278.8335, 94.29347
279.3156, 93.99452
279.7977, 93.79337
280.2798, 93.94157
280.7620, 94.44185
281.2441, 94.52328
281.7262, 94.06673
282.2083, 93.32572
282.6904, 92.64013
283.1725, 91.99198
283.6547, 91.64110
284.1368, 91.87522
284.6189, 92.62795
285.1010, 93.11942
285.5831, 93.30403
286.0652, 93.30725
286.5474, 93.30014
287.0295, 93.28166
287.5116, 93.19878
287.9937, 92.95959
288.4758, 92.61020
288.9579, 92.43861
289.4401, 92.45528
289.9222, 92.58006
290.4043, 92.73518
290.8864, 92.91978
291.3685, 93.13151
291.8506, 93.44666
292.3328, 93.77921
292.8149, 93.83443
293.2970, 93.59966
293.7791, 93.25449
294.2612, 92.87472
294.7433, 92.50937
295.2255, 92.37782
295.7076, 92.66812
296.1897, 93.17329
296.6718, 93.48777
297.1539, 93.61409
297.6360, 93.67738
298.1182, 93.72949
298.6003, 93.79691
299.0824, 93.97456
299.5645, 94.41164
300.0466, 94.83518
300.5287, 94.73076
301.0109, 94.17444
301.4930, 93.70130
301.9751, 93.78805
302.4572, 94.20513
302.9393, 94.56548
303.4214, 94.78069
303.9036, 94.93387
304.3857, 95.11233
304.8678, 95.30574
305.3499, 95.47864
305.8320, 95.64934
306.3141, 95.77122
306.7963, 95.77120
307.2784, 95.61173
307.7605, 95.40585
308.2426, 95.23575
308.7247, 95.08958
309.2068, 94.93969
309.6890, 94.69796
310.1711, 94.48563
310.6532, 94.44698
311.1353, 94.63323
311.6174, 94.79272
312.0995, 94.78455
312.5817, 94.63784
313.0638, 94.40208
313.5459, 93.96557
314.0280, 93.54221
314.5101, 93.26785
314.9922, 93.15822
315.4744, 93.10957
315.9565, 93.18192
316.4386, 93.25665
316.9207, 93.19857
317.4028, 92.75938
317.8849, 92.37196
318.3671, 92.22824
318.8492, 92.32268
319.3313, 92.47301
319.8134, 92.86269
320.2955, 93.15764
320.7776, 93.08900
321.2598, 92.10786
321.7419, 91.27872
322.2240, 90.85704
322.7061, 90.79908
323.1882, 90.87209
323.6703, 91.29850
324.1525, 91.65881
324.6346, 91.71236
325.1167, 91.15944
325.5988, 90.67764
326.0809, 90.39189
326.5630, 90.22622
327.0452, 89.97018
327.5273, 89.36204
328.0094, 88.88276
328.4915, 88.74417
328.9736, 89.22170
329.4557, 89.42684
329.9379, 89.14710
330.4200, 88.66138
330.9021, 88.42428
331.3842, 88.60808
331.8663, 88.80920
332.3484, 88.94704
332.8306, 89.03124
333.3127, 88.95490
333.7948, 88.60268
334.2769, 88.19112
334.7590, 87.94348
335.2411, 87.83330
335.7233, 87.96523
336.2054, 88.49760
336.6875, 89.38536
337.1696, 89.76669
337.6517, 89.49965
338.1339, 89.00459
338.6160, 88.53737
339.0981, 88.02415
339.5802, 87.94687
340.0623, 88.55399
340.5444, 89.56358
341.0266, 89.94521
341.5087, 89.60645
341.9908, 89.10979
342.4729, 88.72485
342.9550, 88.45393
343.4371, 88.43892
343.9193, 88.72872
344.4014, 89.20633
344.8835, 89.71935
345.3656, 90.26684
345.8477, 90.71348
346.3298, 90.95524
346.8120, 91.03438
347.2941, 91.12117
347.7762, 91.22527
348.2583, 91.31844
348.7404, 91.38600
349.2225, 91.42097
349.7047, 91.38517
350.1868, 91.16265
350.6689, 90.90611
351.1510, 90.93626
351.6331, 91.24760
352.1152, 91.57571
352.5974, 91.65918
353.0795, 91.60789
353.5616, 91.64236
354.0437, 91.91813
354.5258, 92.18029
355.0079, 92.16703
355.4901, 91.91001
355.9722, 91.55411
356.4543, 90.94736
356.9364, 90.40244
357.4185, 90.29104
357.9006, 90.82232
358.3828, 91.40285
358.8649, 91.70010
359.3470, 91.77961
359.8291, 91.77811
360.3112, 91.64609
360.7933, 91.53238
361.2755, 91.52070
361.7576, 91.62231
362.2397, 91.79587
362.7218, 92.02192
363.2039, 92.31177
363.6860, 92.67824
364.1682, 93.34313
364.6503, 93.87490
365.1324, 94.00019
365.6145, 93.74422
366.0966, 93.73560
366.5787, 94.33466
367.0609, 95.05281
367.5430, 95.57703
368.0251, 95.60828
368.5072, 95.77258
368.9893, 96.29868
369.4714, 97.01662
369.9536, 97.33575
370.4357, 96.89605
370.9178, 96.43692
371.3999, 96.25655
371.8820, 96.45792
372.3641, 96.67266
372.8463, 96.90768
373.3284, 97.14855
373.8105, 97.39413
374.2926, 97.70352
374.7747, 97.87987
375.2568, 97.83827
375.7390, 97.57496
376.2211, 97.32424
376.7032, 97.05374
377.1853, 96.85574
377.6674, 96.86214
378.1495, 97.10598
378.6317, 97.25774
379.1138, 97.25698
379.5959, 97.12298
380.0780, 96.87673
380.5601, 96.50866
381.0422, 96.15456
381.5244, 95.92220
382.0065, 95.79077
382.4886, 95.67980
382.9707, 95.60946
383.4528, 95.47592
383.9349, 95.01900
384.4171, 94.31206
384.8992, 93.75408
385.3813, 93.75957
385.8634, 93.96525
386.3455, 93.61662
386.8276, 92.66741
387.3098, 91.79057
387.7919, 91.78751
388.2740, 92.22391
388.7561, 92.30739
389.2382, 91.41312
389.7203, 90.41727
390.2025, 90.13643
390.6846, 90.44051
391.1667, 90.71391
391.6488, 90.55054
392.1309, 90.24002
392.6130, 90.02611
393.0952, 89.99152
393.5773, 89.98633
394.0594, 90.01952
394.5415, 90.03415
395.0236, 89.92418
395.5057, 89.41085
395.9879, 88.98487
396.4700, 88.89571
396.9521, 89.22315
397.4342, 89.47978
397.9163, 89.52451
398.3984, 89.49792
398.8806, 89.52819
399.3627, 89.74207
399.8448, 89.87637
400.3269, 89.86556
400.8090, 89.73197
401.2911, 89.65047
401.7733, 89.66382
402.2554, 89.67715
402.7375, 89.62603
403.2196, 89.43406
403.7017, 89.37544
404.1838, 89.48711
404.6660, 89.70872
405.1481, 89.94093
405.6302, 90.20238
406.1123, 90.40944
406.5944, 90.50227
407.0765, 90.49056
407.5587, 90.54225
408.0408, 90.63149
408.5229, 90.87727
409.0050, 91.55048
409.4871, 92.60265
409.9692, 93.36244
410.4514, 93.60995
410.9335, 93.57024
411.4156, 93.61449
411.8977, 93.75137
412.3798, 94.09511
412.8619, 94.89909
413.3441, 95.92638
413.8262, 96.72039
414.3083, 97.21555
414.7904, 97.56391
415.2725, 97.78075
415.7546, 97.96883
416.2368, 98.34700
416.7189, 99.25551
417.2010, 100.2159
417.6831, 100.8754
418.1652, 101.2282
418.6473, 101.4143
419.1295, 101.4326
419.6116, 101.3528
420.0937, 101.2486
420.5758, 101.2659
421.0579, 101.0726
421.5400, 100.3804
422.0222, 99.39305
422.5043, 98.59261
422.9864, 98.30225
423.4685, 98.04385
423.9506, 97.63782
424.4327, 97.04932
424.9149, 96.39967
425.3970, 95.57260
425.8791, 94.75565
426.3612, 94.13200
426.8433, 93.82092
427.3254, 93.52260
427.8076, 93.21658
428.2897, 92.89088
428.7718, 92.48477
429.2539, 92.00008
429.7360, 91.43887
430.2181, 90.78128
430.7003, 90.00232
431.1824, 89.25385
431.6645, 88.48434
432.1466, 87.84684
432.6287, 87.74934
433.1108, 88.20683
433.5930, 88.49381
434.0751, 88.22741
434.5572, 87.59473
435.0393, 87.18337
435.5214, 86.99584
436.0035, 86.98455
436.4857, 87.30759
436.9678, 87.77338
437.4499, 87.85594
437.9320, 87.25640
438.4141, 86.60561
438.8962, 86.65919
439.3784, 87.24258
439.8605, 87.84453
440.3426, 88.12849
440.8247, 88.35086
441.3068, 88.80303
441.7889, 89.53535
442.2711, 90.10011
442.7532, 90.06835
443.2353, 89.83394
443.7174, 89.80606
444.1995, 90.31634
444.6816, 90.81881
445.1638, 91.15117
445.6459, 91.34355
446.1280, 91.55542
446.6101, 91.69389
447.0922, 91.95220
447.5743, 92.45631
448.0565, 93.37747
448.5386, 94.10535
449.0207, 94.65311
449.5028, 94.99489
449.9849, 95.00430
450.4670, 94.33568
450.9492, 94.14532
451.4313, 94.87987
451.9134, 96.35928
452.3955, 97.12305
452.8776, 96.92930
453.3597, 96.81322
453.8419, 97.67684
454.3240, 99.48017
454.8061, 100.7796
455.2882, 101.3318
455.7703, 101.6439
456.2524, 102.5896
456.7346, 104.0641
457.2167, 105.2732
457.6988, 105.5495
458.1809, 105.5114
458.6630, 106.3230
459.1451, 107.9359
459.6273, 109.7071
460.1094, 111.1476
460.5915, 112.4381
461.0736, 113.7953
461.5557, 115.2616
462.0378, 116.8482
462.5200, 118.5725
463.0021, 120.4319
463.4842, 122.3866
463.9663, 124.3188
464.4484, 126.4460
464.9305, 128.8776
465.4127, 131.6320
465.8948, 134.4473
466.3769, 137.2976
466.8590, 140.1538
467.3411, 142.9771
467.8232, 145.2172
468.3054, 148.2293
468.7875, 152.3626
469.2696, 157.2040
469.7517, 161.7707
470.2338, 165.8762
470.7159, 169.9965
471.1981, 174.3141
471.6802, 178.8385
472.1623, 183.2473
472.6444, 187.3659
473.1265, 191.6898
473.6086, 196.8973
474.0908, 202.9642
474.5729, 208.4141
475.0550, 212.8898
475.5371, 216.7575
476.0192, 220.7039
476.5013, 224.7035
476.9835, 228.4212
477.4656, 231.9151
477.9477, 234.9622
478.4298, 237.2361
478.9119, 238.7222
479.3940, 239.4089
479.8762, 239.1989
480.3583, 238.2071
480.8404, 236.5937
481.3225, 234.3758
481.8046, 231.5872
482.2867, 228.0134
482.7689, 223.8712
483.2510, 219.7124
483.7331, 215.8510
484.2152, 211.8904
484.6973, 207.4632
485.1794, 202.2690
485.6616, 197.9322
486.1437, 195.1129
486.6258, 192.8969
487.1079, 190.5549
487.5900, 187.7626
488.0721, 185.3896
488.5543, 183.5136
489.0364, 182.0993
489.5185, 181.1007
490.0006, 180.5621
490.4827, 180.3081
490.9648, 180.1960
491.4470, 180.2427
491.9291, 180.9490
492.4112, 182.3694
492.8933, 184.1788
493.3754, 185.8723
493.8575, 187.6177
494.3397, 190.1938
494.8218, 193.8778
495.3039, 198.2215
495.7860, 202.6143
496.2681, 207.1105
496.7502, 211.8703
497.2324, 217.3240
497.7145, 222.9226
498.1966, 228.1276
498.6787, 232.9526
499.1608, 237.7031
499.6429, 242.7859
500.1251, 247.7667
500.6072, 252.4121
501.0893, 256.8301
501.5714, 260.5865
502.0535, 263.9051
502.5356, 266.5014
503.0178, 267.7637
503.4999, 267.4854
503.9820, 266.0545
504.4641, 263.5850
504.9462, 260.0980
505.4283, 255.4199
505.9105, 249.3891
506.3926, 242.4708
506.8747, 234.9464
507.3568, 226.8210
507.8389, 218.1785
508.3210, 209.0307
508.8032, 199.6316
509.2853, 190.1922
509.7674, 180.7622
510.2495, 172.2589
510.7316, 165.2493
511.2137, 159.2529
511.6959, 153.0876
512.1780, 146.8448
512.6601, 141.0501
513.1422, 136.1558
513.6243, 131.9284
514.1064, 128.1237
514.5886, 124.7601
515.0707, 121.5950
515.5528, 118.4910
516.0349, 115.4998
516.5170, 112.6451
516.9991, 109.6865
517.4813, 107.1247
517.9634, 105.2801
518.4455, 104.0712
518.9276, 102.8057
519.4097, 101.2648
519.8918, 99.78848
520.3740, 98.55241
520.8561, 97.65107
521.3382, 96.64436
521.8203, 95.46201
522.3024, 94.25125
522.7845, 93.15859
523.2667, 92.18819
523.7488, 91.30049
524.2309, 90.49294
524.7130, 89.76865
525.1951, 89.13190
525.6772, 88.58018
526.1594, 88.09534
526.6415, 87.78230
527.1236, 87.50212
527.6057, 86.88675
528.0878, 85.92480
528.5699, 84.93848
529.0521, 84.10057
529.5342, 83.44231
530.0163, 83.03563
530.4984, 83.02522
530.9805, 83.04572
531.4626, 82.89743
531.9448, 82.63840
532.4269, 82.38213
532.9090, 82.21606
533.3911, 82.00089
533.8732, 81.64377
534.3553, 81.13747
534.8375, 80.74072
535.3196, 80.58578
535.8017, 80.41580
536.2838, 80.06513
536.7659, 79.40000
537.2480, 78.91318
537.7302, 78.61712
538.2123, 78.48676
538.6944, 78.55199
539.1765, 78.83398
539.6586, 79.02232
540.1407, 79.02812
540.6229, 78.89315
541.1050, 78.71219
541.5871, 78.48335
542.0692, 78.17651
542.5513, 77.68161
543.0334, 77.12892
543.5156, 76.72348
543.9977, 76.48157
544.4798, 76.30924
544.9619, 76.08475
545.4440, 75.92117
545.9261, 75.96326
546.4083, 76.52177
546.8904, 76.89580
547.3725, 76.70285
547.8546, 76.16479
548.3367, 75.75436
548.8188, 75.60809
549.3010, 75.52558
549.7831, 75.49635
550.2652, 75.51762
550.7473, 75.40795
551.2294, 75.08768
551.7115, 74.77100
552.1937, 74.57648
552.6758, 74.50627
553.1579, 74.57614
553.6400, 74.82706
554.1221, 75.11124
554.6042, 75.24573
555.0864, 75.24004
555.5685, 75.14551
556.0506, 74.96365
556.5327, 74.71983
557.0148, 74.40018
557.4969, 74.03493
557.9791, 73.73887
558.4612, 73.67323
558.9433, 73.63892
559.4254, 73.42371
559.9075, 73.00791
560.3896, 72.71298
560.8718, 72.68420
561.3539, 72.82034
561.8360, 73.06200
562.3181, 73.64347
562.8002, 73.95615
563.2823, 73.80929
563.7645, 73.45351
564.2466, 73.28551
564.7287, 73.44093
565.2108, 73.47164
565.6929, 73.20100
566.1750, 72.73743
566.6572, 72.62273
567.1393, 72.91057
567.6214, 73.16053
568.1035, 72.99035
568.5856, 72.55135
569.0677, 72.48763
569.5499, 72.84155
570.0320, 73.23161
570.5141, 73.27843
570.9962, 73.12514
571.4783, 73.01614
571.9604, 73.06226
572.4426, 73.05671
572.9247, 72.72807
573.4068, 72.27602
573.8889, 72.05089
574.3710, 72.54251
574.8531, 72.90691
575.3353, 72.71169
575.8174, 72.01238
576.2995, 71.68545
576.7816, 72.01334
577.2637, 72.40905
577.7458, 72.62742
578.2280, 72.64123
578.7101, 72.58920
579.1922, 72.42619
579.6743, 72.29592
580.1564, 72.39439
580.6385, 72.70542
581.1207, 72.92517
581.6028, 72.95885
582.0849, 72.97146
582.5670, 73.34963
583.0491, 73.94093
583.5313, 74.26806
584.0134, 73.78700
584.4955, 73.16296
584.9776, 73.07048
585.4597, 73.42003
585.9418, 73.68911
586.4240, 73.50036
586.9061, 73.25916
587.3882, 73.19185
587.8703, 73.34110
588.3524, 73.59859
588.8345, 74.07571
589.3167, 74.57504
589.7988, 74.93633
590.2809, 75.08498
590.7630, 75.28225
591.2451, 75.60585
591.7272, 75.92968
592.2094, 75.94716
592.6915, 75.63165
593.1736, 75.43849
593.6557, 75.55364
594.1378, 75.87060
594.6199, 76.15818
595.1021, 76.41679
595.5842, 76.66847
596.0663, 76.94174
596.5484, 77.20731
597.0305, 77.47469
597.5126, 77.74929
597.9948, 77.86832
598.4769, 77.58474
598.9590, 77.19221
599.4411, 76.95735
599.9232, 77.15662
600.4053, 77.14277
600.8875, 76.58679
601.3696, 75.84780
601.8517, 75.43991
602.3338, 75.55016
602.8159, 75.63639
603.2980, 75.62252
603.7802, 75.50708
604.2623, 75.21650
604.7444, 74.71753
605.2265, 74.34464
605.7086, 74.34599
606.1907, 74.61214
606.6729, 74.78084
607.1550, 74.85178
607.6371, 74.85601
608.1192, 74.73422
608.6013, 74.59323
609.0834, 74.58948
609.5656, 74.77544
610.0477, 74.98408
610.5298, 75.07614
611.0119, 75.16141
611.4940, 75.36529
611.9761, 75.89502
612.4583, 76.33212
612.9404, 76.53196
613.4225, 76.61457
613.9046, 76.83388
614.3867, 77.15001
614.8688, 77.70406
615.3510, 78.68813
615.8331, 79.96518
616.3152, 80.53901
616.7973, 80.32090
617.2794, 80.24377
617.7615, 81.13433
618.2437, 82.63425
618.7258, 83.74112
619.2079, 84.40139
619.6900, 84.94075
620.1721, 85.48521
620.6542, 86.13227
621.1364, 87.02855
621.6185, 88.32630
622.1006, 89.63235
622.5827, 90.64651
623.0648, 91.61596
623.5469, 92.88600
624.0291, 94.67369
624.5112, 96.58032
624.9933, 98.44995
625.4754, 100.4113
625.9575, 102.9091
626.4396, 106.1354
626.9218, 109.3725
627.4039, 112.2717
627.8860, 114.9375
628.3681, 118.1548
628.8502, 121.9516
629.3323, 125.5643
629.8145, 128.3786
630.2966, 130.6077
630.7787, 132.8896
631.2608, 135.3421
631.7429, 137.0270
632.2250, 137.2290
632.7072, 136.2956
633.1893, 134.5917
633.6714, 132.1883
634.1535, 129.0776
634.6356, 124.8555
635.1177, 120.0403
635.5999, 115.3653
636.0820, 110.6555
636.5641, 106.4123
637.0462, 102.7692
637.5283, 99.63307
638.0104, 96.64851
638.4926, 93.77467
638.9747, 91.15867
639.4568, 88.80627
639.9389, 86.74200
640.4210, 85.21195
640.9031, 84.17725
641.3853, 83.17760
641.8674, 81.66374
642.3495, 80.09634
642.8316, 79.13967
643.3137, 78.91328
643.7958, 78.68719
644.2780, 77.92590
644.7601, 77.08564
645.2422, 76.58730
645.7243, 76.94380
646.2064, 76.94412
646.6885, 76.31091
647.1707, 75.42718
647.6528, 74.80177
648.1349, 74.47119
648.6170, 74.27930
649.0991, 74.24535
649.5812, 74.28130
650.0634, 74.16256
650.5455, 73.89825
651.0276, 73.63639
651.5097, 73.46580
651.9918, 73.32403
652.4739, 73.07330
652.9561, 72.74624
653.4382, 72.49523
653.9203, 72.57575
654.4024, 72.64217
654.8845, 72.36147
655.3666, 71.65472
655.8488, 71.21471
656.3309, 71.38467
656.8130, 71.72953
657.2951, 71.99358
657.7772, 72.16152
658.2593, 72.31257
658.7415, 72.51583
659.2236, 72.59111
659.7057, 72.16479
660.1878, 71.25694
660.6699, 70.85036
661.1520, 71.26728
661.6342, 71.89216
662.1163, 71.78188
662.5984, 71.17380
663.0805, 70.69101
663.5626, 70.56065
664.0447, 70.66818
664.5269, 71.12959
665.0090, 71.78381
665.4911, 72.17282
665.9732, 72.09422
666.4553, 71.78701
666.9374, 71.15016
667.4196, 70.23269
