##NAMES=Wakabayashilite
##RRUFFID=R060747
##IDEAL CHEMISTRY=(As,Sb)_6_As_4_S_14_
##LOCALITY=White Caps mine, Manhattan, Nye County, Nevada, USA
##OWNER=RRUFF
##SOURCE=Bob Jenkins
##DESCRIPTION=Yellow fibrous aggregates
##STATUS=The identification of this mineral has been confirmed by X-ray diffraction and chemical analysis
##URL=rruff.info/R060747
##MEASURED CHEMISTRY=(As_4.49_Sb_1.51_)_Î£=6_As_4.00_S_14.00_
83.436, 0.000
83.918, 120.947
84.400, 75.040
84.882, 92.437
85.364, 130.816
85.846, 153.673
86.329, 119.274
86.811, 87.832
87.293, 109.391
87.775, 187.252
88.257, 248.275
88.739, 210.441
89.221, 119.635
89.703, 62.689
90.185, 123.141
90.668, 228.607
91.150, 287.052
91.632, 281.965
92.114, 242.102
92.596, 181.096
93.078, 104.388
93.560, 50.005
94.042, 65.208
94.525, 130.841
95.007, 174.814
95.489, 171.821
95.971, 140.459
96.453, 137.239
96.935, 166.666
97.417, 197.866
97.899, 189.075
98.381, 137.931
98.864, 94.376
99.346, 75.308
99.828, 80.821
100.310, 103.715
100.792, 153.303
101.274, 210.240
101.756, 227.737
102.238, 186.154
102.720, 152.820
103.203, 166.219
103.685, 247.981
104.167, 314.482
104.649, 347.655
105.131, 356.098
105.613, 405.481
106.095, 530.825
106.577, 666.596
107.060, 759.414
107.542, 751.536
108.024, 774.857
108.506, 852.975
108.988, 993.660
109.470, 1147.614
109.952, 1327.750
110.434, 1517.657
110.916, 1692.408
111.399, 1830.400
111.881, 1972.000
112.363, 2127.065
112.845, 2294.796
113.327, 2478.756
113.809, 2683.020
114.291, 2905.101
114.773, 3141.554
115.256, 3412.785
115.738, 3683.529
116.220, 3928.472
116.702, 4085.552
117.184, 4273.077
117.666, 4547.007
118.148, 4899.582
118.630, 5271.424
119.112, 5651.075
119.595, 6026.167
120.077, 6381.320
120.559, 6680.525
121.041, 6976.033
121.523, 7311.667
122.005, 7690.926
122.487, 8081.416
122.969, 8457.897
123.451, 8825.048
123.934, 9189.442
124.416, 9545.128
124.898, 9902.995
125.380, 10276.990
125.862, 10669.280
126.344, 11077.690
126.826, 11528.680
127.308, 12006.700
127.790, 12445.680
128.273, 12770.050
128.755, 13014.170
129.237, 13268.650
129.719, 13576.620
130.201, 13888.710
130.683, 14104.260
131.165, 14221.440
131.648, 14272.970
132.130, 14271.940
132.612, 14222.820
133.094, 14169.170
133.576, 14115.970
134.058, 14066.910
134.540, 14063.410
135.022, 14123.700
135.504, 14180.100
135.986, 14138.440
136.469, 13995.730
136.951, 13785.220
137.433, 13500.400
137.915, 13134.660
138.397, 12784.570
138.879, 12441.220
139.361, 12122.120
139.843, 11861.190
140.326, 11648.180
140.808, 11512.700
141.290, 11492.110
141.772, 11639.750
142.254, 11740.990
142.736, 11767.620
143.218, 11727.850
143.700, 11686.240
144.182, 11650.820
144.665, 11603.890
145.147, 11525.390
145.629, 11365.360
146.111, 11253.910
146.593, 11233.900
147.075, 11323.820
147.557, 11344.580
148.039, 11254.320
148.521, 11115.330
149.004, 10998.800
149.486, 10947.180
149.968, 10876.060
150.450, 10761.190
150.932, 10583.930
151.414, 10412.800
151.896, 10237.300
152.378, 10070.050
152.861, 9934.229
153.343, 9836.349
153.825, 9765.316
154.307, 9715.508
154.789, 9667.552
155.271, 9668.871
155.753, 9728.007
156.235, 9841.949
156.717, 10000.480
157.200, 10228.360
157.682, 10485.830
158.164, 10749.600
158.646, 10996.280
159.128, 11266.580
159.610, 11562.000
160.092, 11884.390
160.574, 12254.510
161.057, 12724.820
161.539, 13226.720
162.021, 13697.310
162.503, 14122.080
162.985, 14505.140
163.467, 14835.710
163.949, 15107.630
164.431, 15376.890
164.913, 15707.760
165.396, 16044.150
165.878, 16309.550
166.360, 16520.461
166.842, 16619.631
167.324, 16555.820
167.806, 16309.800
168.288, 15969.660
168.770, 15556.490
169.253, 15088.570
169.735, 14602.020
170.217, 14078.670
170.699, 13567.810
171.181, 13113.440
171.663, 12712.870
172.145, 12390.530
172.627, 12190.150
173.109, 12091.820
173.592, 12016.450
174.074, 11913.590
174.556, 11803.570
175.038, 11722.170
175.520, 11698.870
176.002, 11678.650
176.484, 11582.900
176.966, 11420.920
177.449, 11263.750
177.931, 11134.740
178.413, 11050.930
178.895, 11046.060
179.377, 11137.900
179.859, 11311.480
180.341, 11551.570
180.823, 11860.620
181.305, 12212.040
181.788, 12598.160
182.270, 13010.680
182.752, 13436.360
183.234, 13885.140
183.716, 14340.360
184.198, 14748.490
184.680, 15106.700
185.162, 15433.130
185.645, 15777.080
186.127, 16122.990
186.609, 16391.260
187.091, 16431.010
187.573, 16336.030
188.055, 16497.730
188.537, 16966.811
189.019, 17594.039
189.501, 18255.750
189.984, 18951.131
190.466, 19472.750
190.948, 19697.930
191.430, 19644.410
191.912, 19402.789
192.394, 18933.811
192.876, 18355.461
193.358, 17848.211
193.840, 17406.721
194.323, 17130.619
194.805, 17080.369
195.287, 17255.289
195.769, 17649.000
196.251, 18289.680
196.733, 19136.000
197.215, 20069.240
197.697, 21096.150
198.180, 22197.820
198.662, 23361.580
199.144, 24599.301
199.626, 25908.369
200.108, 27371.830
200.590, 28902.400
201.072, 30084.270
201.554, 30922.551
202.036, 31423.949
202.519, 31537.881
203.001, 31223.449
203.483, 30791.990
203.965, 30315.211
204.447, 29779.539
204.929, 29118.850
205.411, 28379.000
205.893, 27406.180
206.376, 25971.410
206.858, 23978.350
207.340, 21925.730
207.822, 19881.961
208.304, 17844.301
208.786, 16063.230
209.268, 14561.230
209.750, 13312.680
210.232, 12310.950
210.714, 11596.950
211.197, 11030.760
211.679, 10573.480
212.161, 10222.960
212.643, 10011.200
213.125, 9977.087
213.607, 10043.930
214.089, 10094.260
214.572, 10115.780
215.054, 10150.500
215.536, 10206.520
216.018, 10276.140
216.500, 10402.110
216.982, 10588.210
217.464, 10825.870
217.946, 11105.760
218.428, 11431.760
218.911, 11784.710
219.393, 12157.050
219.875, 12541.210
220.357, 12951.350
220.839, 13376.120
221.321, 13829.030
221.803, 14375.420
222.285, 15041.770
222.767, 15748.230
223.250, 16459.180
223.732, 17205.051
224.214, 17900.971
224.696, 18578.990
225.178, 19200.320
225.660, 19686.711
226.142, 20044.650
226.624, 20251.811
227.107, 20304.859
227.589, 20247.561
228.071, 19934.580
228.553, 19329.520
229.035, 18452.660
229.517, 17412.600
229.999, 16146.420
230.481, 14774.490
230.963, 13343.530
231.445, 11726.200
231.928, 10283.940
232.410, 9051.504
232.892, 8009.639
233.374, 7139.792
233.856, 6457.283
234.338, 5919.664
234.820, 5505.430
235.303, 5268.798
235.785, 5054.455
236.267, 4843.699
236.749, 4638.098
237.231, 4472.979
237.713, 4359.055
238.195, 4275.322
238.677, 4210.656
239.159, 4179.847
239.641, 4137.049
240.124, 4056.009
240.606, 3942.339
241.088, 3915.906
241.570, 4034.954
242.052, 4178.320
242.534, 4242.626
243.016, 4176.969
243.498, 4129.694
243.981, 4130.186
244.463, 4177.343
244.945, 4205.172
245.427, 4203.474
245.909, 4192.513
246.391, 4191.342
246.873, 4210.436
247.355, 4217.568
247.837, 4197.667
248.320, 4150.376
248.802, 4139.117
249.284, 4175.909
249.766, 4236.086
250.248, 4304.328
250.730, 4406.135
251.212, 4463.311
251.694, 4444.429
252.176, 4347.427
252.659, 4295.622
253.141, 4309.965
253.623, 4347.519
254.105, 4366.180
254.587, 4359.663
255.069, 4347.158
255.551, 4326.815
256.033, 4297.885
256.516, 4290.454
256.998, 4299.527
257.480, 4335.995
257.962, 4422.908
258.444, 4602.848
258.926, 4735.491
259.408, 4782.223
259.890, 4739.885
260.372, 4696.828
260.855, 4644.000
261.337, 4600.597
261.819, 4588.822
262.301, 4616.314
262.783, 4657.438
263.265, 4720.021
263.747, 4804.654
264.229, 4824.845
264.711, 4752.620
265.194, 4653.436
265.676, 4601.874
266.158, 4609.832
266.640, 4629.150
267.122, 4645.395
267.604, 4658.923
268.086, 4703.606
268.569, 4791.812
269.051, 4892.507
269.533, 4978.984
270.015, 5058.103
270.497, 5093.928
270.979, 5052.974
271.461, 4939.906
271.943, 4928.913
272.425, 5053.539
272.908, 5214.481
273.390, 5285.604
273.872, 5241.821
274.354, 5235.606
274.836, 5317.728
275.318, 5480.469
275.800, 5618.905
276.282, 5728.545
276.764, 5824.351
277.247, 5921.944
277.729, 6021.442
278.211, 6118.981
278.693, 6205.219
279.175, 6286.513
279.657, 6414.408
280.139, 6595.555
280.621, 6801.368
281.103, 7002.510
281.586, 7198.133
282.068, 7401.581
282.550, 7604.253
283.032, 7817.198
283.514, 8096.015
283.996, 8443.478
284.478, 8843.784
284.960, 9298.497
285.443, 9808.525
285.925, 10306.000
286.407, 10747.700
286.889, 11171.400
287.371, 11711.220
287.853, 12376.180
288.335, 13084.120
288.817, 13737.180
289.299, 14348.880
289.782, 15050.580
290.264, 15892.420
290.746, 16819.980
291.228, 17687.721
291.710, 18494.150
292.192, 19275.369
292.674, 20054.730
293.156, 20830.740
293.638, 21585.539
294.121, 22309.070
294.603, 23004.061
295.085, 23692.500
295.567, 24373.850
296.049, 25021.070
296.531, 25619.650
297.013, 26165.160
297.496, 26631.850
297.978, 26979.779
298.460, 27276.600
298.942, 27635.490
299.424, 28045.670
299.906, 28402.090
300.388, 28593.770
300.870, 28677.260
301.352, 28759.240
301.835, 28866.189
302.317, 28971.391
302.799, 29047.600
303.281, 29094.641
303.763, 29119.730
304.245, 29098.119
304.727, 29063.580
305.209, 29065.750
305.691, 29119.820
306.174, 29200.230
306.656, 29258.279
307.138, 29316.730
307.620, 29452.000
308.102, 29727.449
308.584, 30096.070
309.066, 30512.820
309.548, 30983.199
310.030, 31483.900
310.513, 32017.811
310.995, 32578.461
311.477, 33136.789
311.959, 33687.730
312.441, 34227.289
312.923, 34758.430
313.405, 35301.781
313.887, 35772.020
314.370, 36091.449
314.852, 36316.289
315.334, 36553.469
315.816, 36868.359
316.298, 37190.551
316.780, 37470.391
317.262, 37681.531
317.744, 37937.879
318.226, 38302.539
318.709, 38733.660
319.191, 39171.441
319.673, 39604.961
320.155, 40036.891
320.637, 40474.500
321.119, 40923.031
321.601, 41347.891
322.083, 41727.121
322.565, 42079.000
323.048, 42421.328
323.530, 42785.762
324.012, 43111.500
324.494, 43401.180
324.976, 43660.969
325.458, 43806.961
325.940, 43755.371
326.422, 43621.641
326.905, 43505.430
327.387, 43456.129
327.869, 43376.238
328.351, 43266.910
328.833, 43129.039
329.315, 42904.789
329.797, 42513.199
330.279, 42096.262
330.762, 41745.660
331.244, 41485.520
331.726, 41259.820
332.208, 41099.410
332.690, 40983.289
333.172, 40755.859
333.654, 40366.699
334.136, 39934.160
334.618, 39542.219
335.100, 39276.102
335.583, 38844.750
336.065, 38198.691
336.547, 37383.910
337.029, 36528.672
337.511, 35641.602
337.993, 34683.191
338.475, 33615.738
338.957, 32424.340
339.440, 31215.449
339.922, 29949.641
340.404, 28713.990
340.886, 27658.381
341.368, 26804.100
341.850, 26058.779
342.332, 25392.859
342.814, 24798.699
343.297, 24339.811
343.779, 24025.350
344.261, 23815.650
344.743, 23641.039
345.225, 23504.400
345.707, 23464.311
346.189, 23581.170
346.671, 23816.631
347.153, 24017.609
347.635, 24173.760
348.118, 24361.010
348.600, 24689.289
349.082, 25128.910
349.564, 25560.039
350.046, 25960.100
350.528, 26318.061
351.010, 26635.189
351.492, 26908.711
351.975, 27113.650
352.457, 27255.070
352.939, 27307.051
353.421, 27225.051
353.903, 27018.061
354.385, 26647.010
354.867, 26088.131
355.349, 25337.301
355.832, 24370.600
356.314, 23077.119
356.796, 21599.240
357.278, 20080.020
357.760, 18465.430
358.242, 16973.039
358.724, 15729.380
359.206, 14703.940
359.688, 13819.100
360.171, 13033.710
360.653, 12379.700
361.135, 11881.420
361.617, 11549.050
362.099, 11346.740
362.581, 11298.380
363.063, 11361.410
363.545, 11470.440
364.027, 11562.740
364.510, 11736.390
364.992, 12035.520
365.474, 12473.520
365.956, 12977.430
366.438, 13527.430
366.920, 14135.430
367.402, 14818.240
367.884, 15586.620
368.366, 16420.520
368.849, 17329.631
369.331, 18319.420
369.813, 19329.539
370.295, 20346.760
370.777, 21391.869
371.259, 22482.289
371.741, 23622.600
372.224, 24783.020
372.706, 25984.199
373.188, 27211.010
373.670, 28358.109
374.152, 29391.680
374.634, 30399.971
375.116, 31418.631
375.598, 32460.490
376.080, 33492.020
376.562, 34528.441
377.045, 35527.391
377.527, 36371.180
378.009, 37055.121
378.491, 37648.480
378.973, 38202.500
379.455, 38718.270
379.937, 39057.461
380.419, 39211.289
380.902, 39231.961
381.384, 39175.512
381.866, 39043.391
382.348, 38840.770
382.830, 38526.551
383.312, 38156.270
383.794, 37854.680
384.276, 37621.730
384.759, 37495.461
385.241, 37515.738
385.723, 37671.180
386.205, 37930.160
386.687, 38277.000
387.169, 38730.750
387.651, 39327.309
388.133, 40050.551
388.615, 40846.898
389.098, 41694.309
389.580, 42585.230
390.062, 43532.699
390.544, 44625.891
391.026, 45584.262
391.508, 46307.391
391.990, 46763.500
392.472, 46895.531
392.954, 46867.328
393.437, 46362.641
393.919, 45198.430
394.401, 43361.840
394.883, 40950.398
395.365, 37701.129
395.847, 34012.480
396.329, 30334.250
396.811, 26460.199
397.293, 22908.920
397.776, 19792.910
398.258, 17143.270
398.740, 14837.850
399.222, 12929.820
399.704, 11326.070
400.186, 9979.312
400.668, 8989.659
401.151, 8109.942
401.633, 7326.415
402.115, 6646.967
402.597, 6076.909
403.079, 5631.213
403.561, 5270.681
404.043, 4989.304
404.525, 4807.118
405.007, 4624.621
405.490, 4435.097
405.972, 4252.620
406.454, 4100.364
406.936, 3979.699
407.418, 3874.794
407.900, 3784.304
408.382, 3706.470
408.864, 3623.653
409.346, 3535.236
409.828, 3444.754
410.311, 3359.821
410.793, 3278.476
411.275, 3182.323
411.757, 3045.794
412.239, 2914.981
412.721, 2888.168
413.203, 2953.801
413.685, 3014.664
414.168, 2996.315
414.650, 2932.119
415.132, 2871.540
415.614, 2820.671
416.096, 2777.991
416.578, 2759.751
417.060, 2748.329
417.542, 2706.010
418.025, 2564.796
418.507, 2423.523
418.989, 2361.919
419.471, 2392.417
419.953, 2406.921
420.435, 2322.353
420.917, 2213.584
421.399, 2156.572
421.881, 2236.934
422.364, 2301.655
422.846, 2296.242
423.328, 2232.270
423.810, 2196.415
424.292, 2231.005
424.774, 2271.923
425.256, 2287.081
425.738, 2263.064
426.220, 2233.638
426.703, 2189.499
427.185, 2142.772
427.667, 2120.307
428.149, 2133.769
428.631, 2149.466
429.113, 2155.530
429.595, 2150.716
430.077, 2156.584
430.560, 2180.949
431.042, 2199.781
431.524, 2180.017
432.006, 2118.301
432.488, 2062.415
432.970, 2017.406
433.452, 1988.948
433.934, 2005.484
434.417, 2067.912
434.899, 2124.554
435.381, 2132.093
435.863, 2104.407
436.345, 2086.836
436.827, 2091.122
437.309, 2085.110
437.791, 2002.167
438.273, 1874.827
438.755, 1791.964
439.238, 1841.179
439.720, 1928.875
440.202, 1962.800
440.684, 1939.196
441.166, 1907.874
441.648, 1895.664
442.130, 1893.053
442.612, 1890.351
443.095, 1881.164
443.577, 1875.229
444.059, 1882.618
444.541, 1897.722
445.023, 1899.766
445.505, 1852.310
445.987, 1815.484
446.469, 1826.928
446.952, 1943.829
447.434, 1987.120
447.916, 1889.143
448.398, 1741.714
448.880, 1674.519
449.362, 1736.511
449.844, 1798.266
450.326, 1833.626
450.808, 1843.384
451.290, 1836.917
451.773, 1806.080
452.255, 1776.314
452.737, 1770.752
453.219, 1792.015
453.701, 1809.984
454.183, 1823.008
454.665, 1827.767
455.147, 1809.237
455.630, 1768.592
456.112, 1739.115
456.594, 1754.566
457.076, 1794.136
457.558, 1798.389
458.040, 1763.611
458.522, 1715.685
459.004, 1658.852
459.487, 1608.305
459.969, 1594.243
460.451, 1658.519
460.933, 1732.157
461.415, 1747.532
461.897, 1717.586
462.379, 1694.976
462.861, 1721.709
463.343, 1756.190
463.826, 1768.339
464.308, 1749.021
464.790, 1718.771
465.272, 1678.050
465.754, 1631.569
466.236, 1585.810
466.718, 1525.689
467.200, 1482.432
467.682, 1467.300
468.165, 1480.352
468.647, 1494.682
469.129, 1502.797
469.611, 1519.880
470.093, 1564.834
470.575, 1665.627
471.057, 1711.152
471.539, 1682.136
472.022, 1601.345
472.504, 1502.944
472.986, 1375.748
473.468, 1299.461
473.950, 1334.470
474.432, 1460.079
474.914, 1549.882
475.396, 1603.909
475.878, 1622.446
476.361, 1575.853
476.843, 1489.875
477.325, 1450.125
477.807, 1498.540
478.289, 1573.098
478.771, 1606.673
479.253, 1604.616
479.735, 1586.680
480.217, 1544.705
480.700, 1503.435
481.182, 1487.736
481.664, 1503.918
482.146, 1523.159
482.628, 1536.650
483.110, 1543.953
483.592, 1544.451
484.074, 1509.879
484.556, 1497.812
485.039, 1544.631
485.521, 1640.108
486.003, 1689.450
486.485, 1637.969
486.967, 1589.468
487.449, 1598.059
487.931, 1710.142
488.414, 1755.483
488.896, 1704.116
489.378, 1614.848
489.860, 1576.612
490.342, 1600.670
490.824, 1622.452
491.306, 1621.472
491.788, 1604.274
492.270, 1608.359
492.753, 1636.735
493.235, 1647.902
493.717, 1583.833
494.199, 1474.254
494.681, 1415.669
495.163, 1428.966
495.645, 1471.275
496.127, 1513.677
496.609, 1548.593
497.092, 1555.717
497.574, 1501.419
498.056, 1433.996
498.538, 1383.978
499.020, 1352.430
499.502, 1345.923
499.984, 1394.270
500.466, 1453.148
500.948, 1489.186
501.431, 1504.150
501.913, 1485.142
502.395, 1397.221
502.877, 1277.358
503.359, 1200.633
503.841, 1185.452
504.323, 1192.650
504.805, 1219.570
505.288, 1266.738
505.770, 1302.126
506.252, 1324.392
506.734, 1337.700
507.216, 1348.632
507.698, 1359.188
508.180, 1342.472
508.662, 1285.457
509.145, 1216.963
509.627, 1200.396
510.109, 1230.554
510.591, 1246.206
511.073, 1194.064
511.555, 1114.155
512.037, 1095.687
512.519, 1137.897
513.001, 1177.981
513.484, 1146.007
513.966, 1091.853
514.448, 1081.847
514.930, 1151.407
515.412, 1230.313
515.894, 1282.372
516.376, 1316.369
516.858, 1349.269
517.341, 1394.981
517.823, 1432.811
518.305, 1457.345
518.787, 1468.736
519.269, 1460.167
519.751, 1411.212
520.233, 1358.646
520.715, 1326.196
521.197, 1314.312
521.680, 1323.804
522.162, 1369.470
522.644, 1425.328
523.126, 1431.079
523.608, 1379.286
524.090, 1323.460
524.572, 1275.823
525.054, 1241.059
525.536, 1246.428
526.019, 1293.822
526.501, 1340.348
526.983, 1332.149
527.465, 1296.964
527.947, 1300.607
528.429, 1364.980
528.911, 1442.386
529.393, 1498.302
529.875, 1534.287
530.358, 1552.766
530.840, 1557.860
531.322, 1542.816
531.804, 1492.938
532.286, 1409.727
532.768, 1340.463
533.250, 1300.537
533.732, 1275.195
534.214, 1254.316
534.697, 1224.863
535.179, 1222.885
535.661, 1264.500
536.143, 1325.239
536.625, 1368.855
537.107, 1399.684
537.589, 1401.484
538.071, 1359.468
538.554, 1284.943
539.036, 1238.046
539.518, 1219.292
540.000, 1224.185
540.482, 1271.658
540.964, 1343.198
541.446, 1365.899
541.928, 1327.451
542.411, 1268.590
542.893, 1223.023
543.375, 1189.608
543.857, 1167.150
544.339, 1162.803
544.821, 1162.275
545.303, 1158.132
545.785, 1150.139
546.268, 1137.422
546.750, 1115.325
547.232, 1091.834
547.714, 1069.830
548.196, 1048.113
548.678, 1034.262
549.160, 1033.157
549.642, 1037.722
550.124, 1040.707
550.606, 1035.040
551.089, 1044.602
551.571, 1081.302
552.053, 1130.834
552.535, 1152.113
553.017, 1143.938
553.499, 1116.350
553.981, 1056.633
554.463, 977.870
554.945, 953.693
555.428, 986.919
555.910, 1029.348
556.392, 1031.852
556.874, 1014.052
557.356, 1013.664
557.838, 1044.567
558.320, 1080.875
558.802, 1101.207
559.284, 1112.357
559.767, 1127.835
560.249, 1178.515
560.731, 1210.418
561.213, 1184.987
561.695, 1103.948
562.177, 1052.126
562.659, 1043.104
563.141, 1065.308
563.624, 1122.054
564.106, 1251.337
564.588, 1311.784
565.070, 1279.980
565.552, 1205.799
566.034, 1148.938
566.516, 1108.734
566.998, 1097.519
567.481, 1125.693
567.963, 1178.354
568.445, 1232.352
568.927, 1284.825
569.409, 1309.239
569.891, 1258.378
570.373, 1180.569
570.855, 1155.011
571.338, 1187.904
571.820, 1229.925
572.302, 1246.417
572.784, 1255.388
573.266, 1277.564
573.748, 1340.437
574.230, 1384.131
574.712, 1372.173
575.194, 1330.042
575.677, 1311.786
576.159, 1347.700
576.641, 1377.341
577.123, 1384.933
577.605, 1371.802
578.087, 1366.356
578.569, 1369.245
579.051, 1378.337
579.533, 1394.050
580.016, 1416.387
580.498, 1435.667
580.980, 1450.240
581.462, 1466.127
581.944, 1501.735
582.426, 1546.870
582.908, 1563.297
583.390, 1515.556
583.872, 1463.585
584.355, 1487.639
584.837, 1561.560
585.319, 1606.214
585.801, 1560.788
586.283, 1491.589
586.765, 1423.738
587.247, 1357.095
587.729, 1333.916
588.211, 1410.931
588.694, 1500.867
589.176, 1544.100
589.658, 1505.998
590.140, 1487.173
590.622, 1489.559
591.104, 1511.915
591.586, 1562.060
592.068, 1647.401
592.551, 1705.308
593.033, 1711.079
593.515, 1681.846
593.997, 1656.258
594.479, 1635.270
594.961, 1629.386
595.443, 1651.167
595.925, 1689.541
596.407, 1734.754
596.890, 1787.230
597.372, 1827.149
597.854, 1839.255
