##NAMES=Wakefieldite-(Ce)
##RRUFFID=R060176
##IDEAL CHEMISTRY=Ce^3+^V^5+^O_4_
##LOCALITY=North Keremeous, British Columbia, Canada
##OWNER=RRUFF
##SOURCE=Ty Balacko
##DESCRIPTION=Blue-gray to rust-brown colored prismatic crystals
##STATUS=The identification of this mineral is confirmed by single-crystal X-ray diffraction and chemical analysis.
##URL=rruff.info/R060176
##MEASURED CHEMISTRY=(Ce_0.49_La_0.40_Nd_0.11_)_Î£=1_V_1.00_O_4_; trace amounts of Si; no Pb detected
90.26367, 19.34217
90.74579, 19.11079
91.22791, 19.27843
91.71002, 19.78812
92.19214, 20.13123
92.67426, 19.75144
93.15637, 18.86213
93.63850, 18.03157
94.12061, 17.38022
94.60273, 16.92294
95.08485, 16.79905
95.56696, 17.05736
96.04908, 17.32707
96.53120, 17.04898
97.01331, 16.26011
97.49543, 15.61033
97.97755, 15.53908
98.45966, 15.99825
98.94178, 15.98187
99.42390, 15.31165
99.90602, 14.41405
100.3881, 14.16409
100.8703, 14.72755
101.3524, 15.35126
101.8345, 15.62058
102.3166, 15.42212
102.7987, 15.36952
103.2808, 15.60896
103.7630, 16.02104
104.2451, 16.02410
104.7272, 15.34015
105.2093, 14.61455
105.6914, 14.30767
106.1735, 14.84862
106.6557, 15.06780
107.1378, 14.68156
107.6199, 13.65956
108.1020, 12.95592
108.5841, 12.79457
109.0662, 12.83021
109.5484, 12.75115
110.0305, 12.32160
110.5126, 12.01033
110.9947, 11.97290
111.4768, 12.31378
111.9590, 12.44580
112.4411, 12.17648
112.9232, 11.70301
113.4053, 11.28717
113.8874, 10.73343
114.3695, 10.43497
114.8517, 10.66063
115.3338, 11.75971
115.8159, 12.56142
116.2980, 12.42525
116.7801, 11.74008
117.2622, 11.35641
117.7444, 11.89056
118.2265, 12.65265
118.7086, 13.17360
119.1907, 13.23060
119.6728, 13.22685
120.1549, 13.42226
120.6371, 13.76187
121.1192, 14.02391
121.6013, 14.00468
122.0834, 13.86255
122.5655, 13.74862
123.0477, 13.42671
123.5298, 13.39791
124.0119, 14.38895
124.4940, 16.32710
124.9761, 18.19242
125.4582, 19.10072
125.9404, 19.34729
126.4225, 19.49868
126.9046, 19.68813
127.3867, 19.94339
127.8688, 20.38173
128.3509, 21.02779
128.8331, 21.61664
129.3152, 21.72357
129.7973, 21.45617
130.2794, 21.34959
130.7615, 21.68284
131.2436, 22.37585
131.7258, 23.25566
132.2079, 24.40562
132.6900, 25.47879
133.1721, 25.67966
133.6542, 24.99269
134.1364, 24.63010
134.6185, 25.46585
135.1006, 27.45009
135.5827, 29.07244
136.0648, 30.13719
136.5469, 30.89654
137.0291, 32.03460
137.5112, 33.65825
137.9933, 35.18557
138.4754, 36.27213
138.9575, 36.87927
139.4396, 37.19881
139.9218, 37.15040
140.4039, 36.83124
140.8860, 36.71251
141.3681, 36.82632
141.8502, 37.08721
142.3323, 37.41548
142.8145, 37.77993
143.2966, 38.32744
143.7787, 39.24123
144.2608, 40.51240
144.7429, 41.08165
145.2251, 40.43991
145.7072, 39.55906
146.1893, 39.37648
146.6714, 40.31010
147.1535, 41.31963
147.6356, 42.23700
148.1178, 43.05815
148.5999, 43.79265
149.0820, 44.33578
149.5641, 44.83353
150.0462, 45.45449
150.5283, 46.47959
151.0105, 47.34013
151.4926, 47.41442
151.9747, 46.89301
152.4568, 46.60598
152.9389, 46.79799
153.4210, 47.17845
153.9032, 47.34263
154.3853, 46.95657
154.8674, 47.14512
155.3495, 47.11605
155.8316, 46.88107
156.3138, 45.82335
156.7959, 45.82800
157.2780, 45.40692
157.7601, 44.96838
158.2422, 45.12255
158.7243, 44.18454
159.2065, 44.32925
159.6886, 44.04179
160.1707, 43.95215
160.6528, 43.87792
161.1349, 43.66881
161.6170, 43.44224
162.0992, 43.80835
162.5813, 43.08230
163.0634, 43.43903
163.5455, 43.36354
164.0276, 43.48586
164.5097, 43.17983
164.9919, 43.00609
165.4740, 43.26086
165.9561, 43.27836
166.4382, 42.92302
166.9203, 43.05792
167.4025, 42.31689
167.8846, 42.34451
168.3667, 42.70375
168.8488, 41.99179
169.3309, 42.48349
169.8130, 42.75757
170.2952, 42.82573
170.7773, 42.07121
171.2594, 42.37901
171.7415, 42.26108
172.2236, 42.12569
172.7057, 42.58301
173.1879, 41.94815
173.6700, 42.39606
174.1521, 42.41175
174.6342, 42.62526
175.1163, 42.41042
175.5984, 42.32788
176.0806, 42.67383
176.5627, 42.78252
177.0448, 42.51836
177.5269, 42.74445
178.0090, 42.09463
178.4911, 42.21342
178.9733, 42.66385
179.4554, 42.42123
179.9375, 42.65514
180.4196, 42.70757
180.9017, 41.93519
181.3839, 42.59723
181.8660, 41.94879
182.3481, 41.78381
182.8302, 41.63470
183.3123, 42.21504
183.7944, 42.57811
184.2766, 42.73561
184.7587, 42.07175
185.2408, 42.46849
185.7229, 42.44019
186.2050, 42.39446
186.6871, 42.94048
187.1693, 42.39610
187.6514, 42.93272
188.1335, 43.03783
188.6156, 43.34043
189.0977, 43.21537
189.5798, 43.22240
190.0620, 43.65724
190.5441, 43.85520
191.0262, 43.68090
191.5083, 43.99606
191.9904, 43.43673
192.4725, 43.64477
192.9547, 44.18392
193.4368, 44.03113
193.9189, 44.35410
194.4010, 44.49588
194.8831, 43.81419
195.3652, 44.56460
195.8474, 44.56742
196.3295, 45.30969
196.8116, 45.83470
197.2937, 46.15412
197.7758, 45.65220
198.2579, 46.21087
198.7401, 46.34455
199.2222, 46.46076
199.7043, 47.16870
200.1864, 46.78624
200.6685, 47.48481
201.1507, 47.75189
201.6328, 48.21643
202.1149, 48.25330
202.5970, 48.42226
203.0791, 49.01903
203.5612, 49.37892
204.0434, 49.86440
204.5255, 50.60406
205.0076, 51.13814
205.4897, 50.85088
205.9718, 51.62420
206.4539, 51.97249
206.9361, 52.30344
207.4182, 53.22604
207.9003, 53.05824
208.3824, 53.97146
208.8645, 54.45316
209.3466, 55.13235
209.8288, 55.38397
210.3109, 55.76759
210.7930, 56.57901
211.2751, 57.15356
211.7572, 57.35586
212.2393, 58.04760
212.7215, 57.60394
213.2036, 57.54902
213.6857, 58.01471
214.1678, 59.26081
214.6499, 60.11356
215.1321, 60.30485
215.6142, 60.04448
216.0963, 60.29638
216.5784, 61.29553
217.0605, 62.35481
217.5426, 62.96009
218.0248, 62.82769
218.5069, 63.09035
218.9890, 64.01450
219.4711, 65.41886
219.9532, 66.44102
220.4353, 66.95683
220.9175, 67.31192
221.3996, 67.67171
221.8817, 67.90067
222.3638, 68.52751
222.8459, 69.84802
223.3280, 71.63937
223.8102, 72.60222
224.2923, 72.32027
224.7744, 71.87611
225.2565, 72.02364
225.7386, 73.19304
226.2208, 73.88461
226.7029, 73.79017
227.1850, 73.08613
227.6671, 72.68762
228.1492, 72.67258
228.6313, 72.85078
229.1135, 73.18241
229.5956, 73.96640
230.0777, 74.22374
230.5598, 73.73503
231.0419, 72.64396
231.5240, 71.64146
232.0062, 70.76151
232.4883, 69.92536
232.9704, 69.07761
233.4525, 68.17104
233.9346, 67.37344
234.4167, 66.78541
234.8989, 66.33060
235.3810, 65.63381
235.8631, 64.53301
236.3452, 63.38944
236.8273, 62.42062
237.3095, 61.79260
237.7916, 60.95087
238.2737, 59.63277
238.7558, 58.05922
239.2379, 56.79044
239.7200, 56.69158
240.2022, 56.43534
240.6843, 56.03361
241.1664, 54.86954
241.6485, 54.82811
242.1306, 54.42128
242.6127, 54.05733
243.0949, 54.34637
243.5770, 53.60361
244.0591, 54.00396
244.5412, 54.03240
245.0233, 54.31900
245.5054, 54.23756
245.9876, 53.28123
246.4697, 53.48597
246.9518, 53.26499
247.4339, 53.02654
247.9160, 53.38080
248.3981, 52.64288
248.8803, 52.98772
249.3624, 52.90035
249.8445, 53.01080
250.3266, 52.69289
250.8087, 52.50729
251.2909, 52.35079
251.7730, 52.73417
252.2551, 52.95147
252.7372, 53.01436
253.2193, 52.30708
253.7014, 52.71157
254.1836, 52.74223
254.6657, 52.80661
255.1478, 53.51392
255.6299, 53.18199
256.1120, 53.98226
256.5941, 54.44897
257.0763, 54.89869
257.5584, 55.18247
258.0405, 55.45481
258.5226, 56.04866
259.0047, 57.11676
259.4868, 58.20898
259.9690, 59.26896
260.4511, 60.46312
260.9332, 60.80743
261.4153, 60.03827
261.8974, 58.65459
262.3795, 57.51870
262.8617, 56.74985
263.3438, 55.91107
263.8259, 54.75572
264.3080, 53.18545
264.7901, 52.06343
265.2722, 51.48238
265.7544, 51.23713
266.2365, 51.10389
266.7186, 51.16487
267.2007, 51.07813
267.6829, 50.64885
268.1650, 49.83294
268.6471, 49.41560
269.1292, 49.10388
269.6113, 49.40087
270.0934, 49.48440
270.5756, 49.36617
271.0577, 48.42947
271.5398, 48.55928
272.0219, 48.26752
272.5040, 47.96251
272.9861, 48.25435
273.4683, 47.45819
273.9504, 47.74899
274.4325, 47.61177
274.9146, 47.67653
275.3967, 47.31712
275.8788, 47.09419
276.3610, 47.30392
276.8431, 47.28057
277.3252, 46.88858
277.8073, 46.99099
278.2894, 46.22168
278.7715, 46.22517
279.2537, 46.56444
279.7358, 46.21487
280.2179, 46.34602
280.7000, 46.29985
281.1821, 45.43306
281.6642, 46.00486
282.1464, 45.96049
282.6285, 45.28336
283.1106, 45.81856
283.5927, 45.23760
284.0748, 45.06071
284.5569, 45.18895
285.0391, 44.60951
285.5212, 44.94595
286.0033, 45.06758
286.4854, 44.98608
286.9675, 44.08471
287.4496, 44.24846
287.9318, 43.98923
288.4139, 43.71538
288.8960, 44.03704
289.3781, 43.26931
289.8602, 43.58715
290.3424, 43.47554
290.8245, 43.56458
291.3066, 43.22805
291.7887, 43.02663
292.2708, 43.25650
292.7530, 43.25189
293.2351, 42.87724
293.7172, 42.99564
294.1993, 42.24092
294.6814, 42.25763
295.1635, 42.60875
295.6457, 42.26962
296.1278, 42.40983
296.6099, 42.37135
297.0920, 41.51087
297.5741, 42.08760
298.0562, 42.04678
298.5384, 41.37181
299.0205, 41.90778
299.5026, 41.32622
299.9847, 41.14735
300.4668, 41.27221
300.9489, 41.08615
301.4311, 41.39750
301.9132, 41.23516
302.3953, 41.03304
302.8774, 41.01951
303.3595, 40.48230
303.8416, 40.92461
304.3238, 40.70252
304.8059, 40.81488
305.2880, 41.00521
305.7701, 40.62276
306.2522, 40.85246
306.7343, 40.69575
307.2165, 41.04322
307.6986, 41.44124
308.1807, 41.63918
308.6628, 41.49827
309.1449, 41.27151
309.6270, 41.15877
310.1092, 40.72248
310.5913, 41.18440
311.0734, 41.43121
311.5555, 41.47459
312.0376, 40.69779
312.5197, 40.98580
313.0019, 40.85057
313.4840, 40.70038
313.9661, 41.14539
314.4482, 40.50072
314.9304, 40.94131
315.4125, 40.95218
315.8946, 41.16336
316.3767, 40.94867
316.8588, 40.86879
317.3409, 41.21989
317.8231, 41.33623
318.3052, 41.08221
318.7873, 41.32093
319.2694, 40.68624
319.7515, 40.82265
320.2336, 41.29319
320.7158, 41.07319
321.1979, 41.33221
321.6800, 41.41223
322.1621, 40.66995
322.6442, 41.36457
323.1263, 41.44135
323.6085, 40.88368
324.0906, 41.53664
324.5727, 41.07176
325.0548, 41.00927
325.5369, 41.25021
326.0190, 41.17992
326.5012, 41.60676
326.9833, 41.55958
327.4654, 41.31079
327.9475, 40.81459
328.4296, 41.43437
328.9117, 41.83655
329.3939, 42.03283
329.8760, 41.40641
330.3581, 41.84230
330.8402, 41.85248
331.3223, 41.84518
331.8044, 42.43060
332.2866, 41.92386
332.7687, 42.49988
333.2508, 42.64367
333.7329, 42.98528
334.2150, 42.89853
334.6971, 42.54951
335.1793, 43.34741
335.6614, 43.92766
336.1435, 44.30197
336.6256, 43.85363
337.1077, 44.46758
337.5899, 44.65588
338.0720, 44.82664
338.5541, 45.59013
339.0362, 45.26143
339.5183, 46.01551
340.0005, 46.33742
340.4826, 46.85710
340.9647, 46.94841
341.4468, 47.17204
341.9289, 47.82415
342.4110, 48.23901
342.8932, 48.28107
343.3753, 48.81333
343.8574, 48.46967
344.3395, 48.89464
344.8216, 49.65122
345.3037, 49.71478
345.7859, 49.94275
346.2680, 50.50849
346.7501, 51.24648
347.2322, 51.88633
347.7143, 52.20037
348.1964, 52.30048
348.6786, 52.57074
349.1607, 53.04796
349.6428, 53.58260
350.1249, 53.92944
350.6070, 54.18170
351.0891, 54.64510
351.5713, 55.51733
352.0534, 56.63041
352.5355, 57.78286
353.0176, 58.96053
353.4997, 60.16407
353.9818, 61.46132
354.4640, 62.76233
354.9461, 63.91939
355.4282, 64.71124
355.9103, 65.56174
356.3924, 66.87003
356.8745, 68.57504
357.3567, 70.39638
357.8388, 72.48921
358.3209, 74.46854
358.8030, 75.95644
359.2851, 76.70891
359.7672, 77.41954
360.2494, 78.38033
360.7315, 79.56894
361.2136, 80.92556
361.6957, 82.58050
362.1779, 84.28561
362.6600, 85.92598
363.1421, 87.48804
363.6242, 89.01071
364.1063, 90.36240
364.5884, 91.74349
365.0706, 93.34722
365.5527, 95.51902
366.0348, 97.58837
366.5169, 99.38271
366.9990, 100.9106
367.4811, 102.3844
367.9633, 103.6066
368.4454, 104.9331
368.9275, 106.5721
369.4096, 109.0947
369.8917, 111.1317
370.3738, 112.5120
370.8560, 113.4015
371.3381, 114.2146
371.8202, 114.7990
372.3023, 115.5286
372.7844, 116.6161
373.2665, 118.2359
373.7487, 119.4809
374.2308, 120.2831
374.7129, 120.7798
375.1950, 121.1739
375.6771, 121.5007
376.1592, 121.6265
376.6414, 121.5734
377.1235, 121.3133
377.6056, 120.4875
378.0877, 118.9709
378.5698, 117.2811
379.0519, 115.8904
379.5341, 114.8137
380.0162, 113.5715
380.4983, 112.1130
380.9804, 110.4182
381.4625, 108.3771
381.9446, 105.9742
382.4268, 103.7275
382.9089, 102.1507
383.3910, 100.9926
383.8731, 99.27212
384.3553, 96.82647
384.8374, 94.28578
385.3195, 92.46745
385.8016, 91.17995
386.2837, 89.82288
386.7658, 88.07378
387.2480, 86.15848
387.7301, 84.31296
388.2122, 82.54551
388.6943, 80.83041
389.1764, 79.22014
389.6585, 77.63969
390.1407, 76.00083
390.6228, 74.11197
391.1049, 72.39860
391.5870, 71.28834
392.0691, 70.62056
392.5512, 69.91160
393.0334, 68.87345
393.5155, 67.76929
393.9976, 66.75353
394.4797, 65.84483
394.9618, 65.03536
395.4439, 64.41319
395.9261, 63.86369
396.4082, 63.23716
396.8903, 62.20877
397.3724, 61.38282
397.8545, 61.05250
398.3366, 61.24902
398.8188, 61.18357
399.3009, 60.47743
399.7830, 59.70893
400.2651, 59.26867
400.7472, 59.77892
401.2293, 59.65521
401.7115, 58.47719
402.1936, 56.64446
402.6757, 55.39577
403.1578, 55.00900
403.6399, 54.72604
404.1220, 54.21509
404.6042, 53.40570
405.0863, 52.75714
405.5684, 52.27891
406.0505, 51.95610
406.5326, 51.83454
407.0147, 51.95346
407.4969, 51.97219
407.9790, 51.79651
408.4611, 51.45219
408.9432, 50.99400
409.4254, 50.41006
409.9075, 49.86414
410.3896, 49.53960
410.8717, 49.37630
411.3538, 49.07182
411.8359, 48.53313
412.3181, 47.97173
412.8002, 47.69271
413.2823, 47.65830
413.7644, 47.69564
414.2465, 47.94389
414.7286, 48.11225
415.2108, 47.62027
415.6929, 46.42274
416.1750, 45.41560
416.6571, 45.47614
417.1392, 46.09037
417.6213, 46.56946
418.1035, 46.68287
418.5856, 46.59711
419.0677, 46.25634
419.5498, 45.75093
420.0319, 45.43270
420.5140, 45.73485
420.9962, 46.05840
421.4783, 46.00772
421.9604, 45.37954
422.4425, 44.78205
422.9246, 44.30312
423.4067, 43.94599
423.8889, 43.70971
424.3710, 43.75196
424.8531, 43.75373
425.3352, 43.62683
425.8173, 43.37088
426.2994, 43.17450
426.7816, 43.17687
427.2637, 43.09892
427.7458, 42.71252
428.2279, 41.76299
428.7100, 41.12209
429.1921, 40.91079
429.6743, 40.99822
430.1564, 41.14718
430.6385, 41.41541
431.1206, 41.51809
431.6028, 41.24807
432.0849, 40.62809
432.5670, 40.25779
433.0491, 40.15597
433.5312, 40.22532
434.0133, 40.45298
434.4955, 40.80101
434.9776, 41.01170
435.4597, 41.01550
435.9418, 40.85833
436.4239, 40.54419
436.9060, 40.10460
437.3882, 39.72333
437.8703, 39.48930
438.3524, 39.39580
438.8345, 39.08889
439.3166, 39.64584
439.7987, 39.98518
440.2809, 40.11861
440.7630, 39.42936
441.2451, 39.80241
441.7272, 39.74975
442.2093, 39.67962
442.6914, 40.20220
443.1736, 39.63261
443.6557, 40.14579
444.1378, 40.22674
444.6199, 40.50551
445.1020, 40.35592
445.5841, 40.33865
446.0663, 40.74987
446.5484, 40.92382
447.0305, 40.72493
447.5126, 41.01627
447.9947, 41.18842
448.4768, 41.60322
448.9590, 41.64312
449.4411, 41.29308
449.9232, 41.36058
450.4053, 42.06798
450.8874, 42.87243
451.3695, 43.31543
451.8517, 43.26245
452.3338, 43.48430
452.8159, 44.14354
453.2980, 44.99719
453.7801, 45.54377
454.2622, 45.76081
454.7444, 45.93472
455.2265, 46.24280
455.7086, 46.61875
456.1907, 46.67703
456.6729, 46.38888
457.1550, 46.17072
457.6371, 46.36435
458.1192, 46.92167
458.6013, 47.76226
459.0834, 48.93585
459.5656, 50.24377
460.0477, 51.52746
460.5298, 52.77981
461.0119, 53.91348
461.4940, 54.79295
461.9761, 55.62813
462.4583, 56.62527
462.9404, 57.82722
463.4225, 58.93217
463.9046, 59.71340
464.3867, 60.38082
464.8688, 61.11404
465.3510, 62.65990
465.8331, 63.49653
466.3152, 63.21279
466.7973, 61.95516
467.2794, 60.25230
467.7615, 57.66305
468.2437, 55.07954
468.7258, 52.79985
469.2079, 50.92912
469.6900, 48.96997
470.1721, 46.74597
470.6542, 44.64402
471.1364, 43.10883
471.6185, 42.25484
472.1006, 41.51943
472.5827, 40.81940
473.0648, 40.16518
473.5469, 39.62476
474.0291, 39.21172
474.5112, 38.75397
474.9933, 37.99027
475.4754, 37.06487
475.9575, 36.71057
476.4396, 37.01416
476.9218, 37.41376
477.4039, 37.27797
477.8860, 36.77900
478.3681, 36.31608
478.8503, 36.03439
479.3324, 35.81702
479.8145, 35.52447
480.2966, 35.18859
480.7787, 34.93884
481.2608, 34.91025
481.7430, 34.93650
482.2251, 34.90882
482.7072, 34.81187
483.1893, 34.67632
483.6714, 34.42354
484.1535, 34.17673
484.6357, 34.05938
485.1178, 34.40872
485.5999, 34.52528
486.0820, 34.07847
486.5641, 33.27551
487.0462, 32.90036
487.5284, 33.32910
488.0105, 33.67933
488.4926, 33.52942
488.9747, 32.74308
489.4568, 32.39443
489.9389, 32.65136
490.4211, 33.04908
490.9032, 33.00487
491.3853, 32.48195
491.8674, 32.15196
492.3495, 32.20674
492.8316, 32.46615
493.3138, 32.58214
493.7959, 32.55647
494.2780, 32.39693
494.7601, 31.92563
495.2422, 31.36976
495.7243, 31.26693
496.2065, 31.65816
496.6886, 32.01481
497.1707, 31.84252
497.6528, 31.39829
498.1349, 31.03009
498.6170, 30.83488
499.0992, 30.73547
499.5813, 30.69833
500.0634, 30.72401
500.5455, 30.81251
501.0276, 31.14934
501.5097, 31.38272
501.9919, 31.34039
502.4740, 30.97250
502.9561, 30.60162
503.4382, 30.16673
503.9203, 29.79404
504.4025, 29.57300
504.8846, 29.56199
505.3667, 29.60052
505.8488, 29.74390
506.3309, 29.89211
506.8130, 29.78482
507.2952, 29.35420
507.7773, 28.97640
508.2594, 28.81641
508.7415, 28.83297
509.2236, 28.77730
509.7057, 28.64435
510.1879, 28.50494
510.6700, 28.41417
511.1521, 28.36298
511.6342, 28.31528
512.1163, 28.25661
512.5984, 28.23480
513.0806, 28.36780
513.5627, 28.57311
514.0448, 28.67826
514.5269, 28.43822
515.0090, 28.21165
515.4911, 28.32242
515.9733, 28.71085
516.4554, 28.96221
516.9375, 28.92454
517.4196, 28.69723
517.9017, 28.27457
518.3839, 27.43751
518.8660, 26.94651
519.3481, 27.22264
519.8302, 27.72989
520.3123, 27.88748
520.7944, 27.46866
521.2766, 27.11829
521.7587, 26.95247
522.2408, 26.92496
522.7229, 26.83985
523.2050, 26.67434
523.6871, 26.53757
524.1693, 26.53638
524.6514, 26.64966
525.1335, 26.56301
525.6156, 26.25000
526.0977, 25.90698
526.5798, 25.66871
527.0620, 25.55324
527.5441, 25.66071
528.0262, 26.12875
528.5083, 26.58924
528.9904, 26.52767
529.4725, 26.13816
529.9547, 25.89386
530.4368, 26.30120
530.9189, 26.71308
531.4010, 26.56847
531.8831, 25.86660
532.3652, 25.46312
532.8474, 26.04230
533.3295, 26.29701
533.8116, 26.73016
534.2937, 26.94568
534.7758, 26.95528
535.2579, 26.14222
535.7401, 26.39145
536.2222, 26.21496
536.7043, 26.02102
537.1865, 26.41977
537.6686, 25.72636
538.1507, 26.11572
538.6328, 26.07285
539.1149, 26.22780
539.5970, 25.95441
540.0792, 25.81329
540.5613, 26.10069
541.0434, 26.15083
541.5255, 25.82811
542.0076, 25.99564
542.4897, 25.28727
542.9719, 25.34749
543.4540, 25.65784
543.9361, 26.11873
544.4182, 26.36201
544.9003, 26.39936
545.3824, 25.61405
545.8646, 25.89104
546.3467, 25.74231
546.8288, 25.57612
547.3109, 26.00263
547.7930, 25.33697
548.2751, 25.75408
548.7573, 25.73896
549.2394, 25.92167
549.7215, 25.67603
550.2036, 25.56268
550.6857, 25.87783
551.1678, 25.95573
551.6500, 25.66076
552.1321, 25.85605
552.6142, 25.17542
553.0963, 25.87592
553.5784, 25.83686
554.0605, 25.46444
554.5427, 25.45564
555.0248, 25.78497
555.5069, 25.98856
555.9890, 25.57233
556.4711, 24.91576
556.9532, 24.78091
557.4354, 25.19422
557.9175, 25.59081
558.3996, 25.45078
558.8817, 25.10582
559.3638, 24.90953
559.8459, 24.95299
560.3281, 24.66428
560.8102, 25.13976
561.2923, 25.39762
561.7744, 25.44956
562.2565, 24.67883
562.7386, 24.97041
563.2208, 24.83625
563.7029, 24.68465
564.1850, 25.30927
564.6671, 25.07039
565.1492, 24.79536
565.6313, 24.76723
566.1135, 25.01509
566.5956, 25.13204
567.0777, 25.12271
567.5598, 24.56320
568.0419, 25.00063
568.5240, 25.22043
569.0062, 25.23431
569.4883, 24.42553
569.9704, 24.67905
570.4525, 24.50686
570.9346, 24.31721
571.4167, 24.72025
571.8989, 24.03111
572.3810, 23.90775
572.8631, 23.90782
573.3452, 24.34787
573.8273, 24.67109
574.3094, 24.54464
574.7916, 24.34096
575.2737, 24.27635
575.7558, 24.44878
576.2379, 24.50201
576.7200, 24.32842
577.2021, 24.11539
577.6843, 24.05267
578.1664, 24.24430
578.6485, 24.24763
579.1306, 23.92471
579.6127, 23.49341
580.0948, 23.42950
580.5770, 23.73319
581.0591, 24.02530
581.5412, 24.16961
582.0233, 24.19473
582.5054, 24.11422
582.9875, 23.94608
583.4697, 23.81973
583.9518, 24.02039
584.4340, 24.20507
584.9161, 23.45255
