##NAMES=Wakefieldite-(Ce)
##RRUFFID=R060542
##IDEAL CHEMISTRY=Ce^3+^V^5+^O_4_
##LOCALITY=Yellow Lake, British Columbia, Canada
##OWNER=RRUFF
##SOURCE=Michael Scott
##DESCRIPTION=Black rectangular prisms
##STATUS=The identification of this mineral is confirmed by single-crystal X-ray diffraction and chemical analysis.
##URL=rruff.info/R060542
##MEASURED CHEMISTRY=(Ce_0.60_La_0.26_Nd_0.12_REE^5+^_0.02_)_Σ=1_(V_0.96_Si_0.04_)_Σ=1_O_4_; no Pb detected; REE^5+^ assumed by charge balance
9.330109e+001, 0.000000e+000
9.378320e+001, 2.806450e+002
9.426532e+001, 2.781557e+002
9.474744e+001, 2.794447e+002
9.522955e+001, 2.838378e+002
9.571167e+001, 2.895742e+002
9.619379e+001, 2.920584e+002
9.667590e+001, 2.907322e+002
9.715802e+001, 2.904629e+002
9.764014e+001, 2.921872e+002
9.812225e+001, 2.952924e+002
9.860437e+001, 2.987658e+002
9.908649e+001, 3.022085e+002
9.956860e+001, 3.062232e+002
1.000507e+002, 3.114066e+002
1.005328e+002, 3.171857e+002
1.010150e+002, 3.237582e+002
1.014971e+002, 3.312557e+002
1.019792e+002, 3.397296e+002
1.024613e+002, 3.491194e+002
1.029434e+002, 3.602838e+002
1.034255e+002, 3.719636e+002
1.039077e+002, 3.836410e+002
1.043898e+002, 3.954323e+002
1.048719e+002, 4.065249e+002
1.053540e+002, 4.151444e+002
1.058361e+002, 4.202058e+002
1.063182e+002, 4.244922e+002
1.068004e+002, 4.282535e+002
1.072825e+002, 4.318715e+002
1.077646e+002, 4.356123e+002
1.082467e+002, 4.395418e+002
1.087288e+002, 4.437310e+002
1.092109e+002, 4.493966e+002
1.096931e+002, 4.573632e+002
1.101752e+002, 4.659627e+002
1.106573e+002, 4.750633e+002
1.111394e+002, 4.844876e+002
1.116215e+002, 4.939574e+002
1.121036e+002, 5.031136e+002
1.125858e+002, 5.119252e+002
1.130679e+002, 5.213160e+002
1.135500e+002, 5.313143e+002
1.140321e+002, 5.417421e+002
1.145142e+002, 5.523664e+002
1.149964e+002, 5.631508e+002
1.154785e+002, 5.744661e+002
1.159606e+002, 5.869229e+002
1.164427e+002, 6.004262e+002
1.169248e+002, 6.140275e+002
1.174069e+002, 6.272678e+002
1.178891e+002, 6.404447e+002
1.183712e+002, 6.542841e+002
1.188533e+002, 6.687803e+002
1.193354e+002, 6.842242e+002
1.198175e+002, 7.012178e+002
1.202996e+002, 7.196527e+002
1.207818e+002, 7.376472e+002
1.212639e+002, 7.556629e+002
1.217460e+002, 7.739424e+002
1.222281e+002, 7.855648e+002
1.227102e+002, 7.919371e+002
1.231923e+002, 7.884318e+002
1.236745e+002, 7.702868e+002
1.241566e+002, 7.370161e+002
1.246387e+002, 6.938752e+002
1.251208e+002, 6.464965e+002
1.256029e+002, 5.898510e+002
1.260850e+002, 5.401049e+002
1.265672e+002, 4.978287e+002
1.270493e+002, 4.616196e+002
1.275314e+002, 4.309642e+002
1.280135e+002, 4.054181e+002
1.284956e+002, 3.846480e+002
1.289777e+002, 3.672754e+002
1.294599e+002, 3.552924e+002
1.299420e+002, 3.450864e+002
1.304241e+002, 3.369601e+002
1.309062e+002, 3.303595e+002
1.313883e+002, 3.245251e+002
1.318704e+002, 3.190206e+002
1.323526e+002, 3.139471e+002
1.328347e+002, 3.097918e+002
1.333168e+002, 3.067213e+002
1.337989e+002, 3.041366e+002
1.342810e+002, 3.019090e+002
1.347632e+002, 2.999968e+002
1.352453e+002, 2.981955e+002
1.357274e+002, 2.962835e+002
1.362095e+002, 2.944165e+002
1.366916e+002, 2.930190e+002
1.371737e+002, 2.920864e+002
1.376559e+002, 2.916427e+002
1.381380e+002, 2.919645e+002
1.386201e+002, 2.932684e+002
1.391022e+002, 2.943074e+002
1.395843e+002, 2.937646e+002
1.400664e+002, 2.924921e+002
1.405486e+002, 2.917109e+002
1.410307e+002, 2.920985e+002
1.415128e+002, 2.933041e+002
1.419949e+002, 2.943315e+002
1.424770e+002, 2.952552e+002
1.429591e+002, 2.958429e+002
1.434413e+002, 2.957973e+002
1.439234e+002, 2.953994e+002
1.444055e+002, 2.951744e+002
1.448876e+002, 2.955945e+002
1.453697e+002, 2.966653e+002
1.458518e+002, 2.973226e+002
1.463340e+002, 2.973835e+002
1.468161e+002, 2.971478e+002
1.472982e+002, 2.967038e+002
1.477803e+002, 2.960348e+002
1.482624e+002, 2.950641e+002
1.487445e+002, 2.936892e+002
1.492267e+002, 2.918486e+002
1.497088e+002, 2.898486e+002
1.501909e+002, 2.874044e+002
1.506730e+002, 2.850562e+002
1.511551e+002, 2.833117e+002
1.516372e+002, 2.821382e+002
1.521194e+002, 2.809274e+002
1.526015e+002, 2.789056e+002
1.530836e+002, 2.757422e+002
1.535657e+002, 2.724882e+002
1.540478e+002, 2.688485e+002
1.545299e+002, 2.652513e+002
1.550121e+002, 2.621683e+002
1.554942e+002, 2.597338e+002
1.559763e+002, 2.576743e+002
1.564584e+002, 2.556265e+002
1.569405e+002, 2.535655e+002
1.574226e+002, 2.516565e+002
1.579048e+002, 2.499523e+002
1.583869e+002, 2.484305e+002
1.588690e+002, 2.470742e+002
1.593511e+002, 2.459332e+002
1.598332e+002, 2.448635e+002
1.603153e+002, 2.436394e+002
1.607975e+002, 2.422510e+002
1.612796e+002, 2.409559e+002
1.617617e+002, 2.399141e+002
1.622438e+002, 2.391116e+002
1.627259e+002, 2.384481e+002
1.632081e+002, 2.379703e+002
1.636902e+002, 2.375788e+002
1.641723e+002, 2.372555e+002
1.646544e+002, 2.369929e+002
1.651365e+002, 2.366578e+002
1.656186e+002, 2.360266e+002
1.661008e+002, 2.349895e+002
1.665829e+002, 2.341731e+002
1.670650e+002, 2.337825e+002
1.675471e+002, 2.335755e+002
1.680292e+002, 2.335219e+002
1.685113e+002, 2.335889e+002
1.689935e+002, 2.335964e+002
1.694756e+002, 2.332032e+002
1.699577e+002, 2.320976e+002
1.704398e+002, 2.311763e+002
1.709219e+002, 2.304186e+002
1.714040e+002, 2.298844e+002
1.718862e+002, 2.297130e+002
1.723683e+002, 2.299386e+002
1.728504e+002, 2.303569e+002
1.733325e+002, 2.304818e+002
1.738146e+002, 2.299585e+002
1.742967e+002, 2.295362e+002
1.747789e+002, 2.293535e+002
1.752610e+002, 2.292428e+002
1.757431e+002, 2.289797e+002
1.762252e+002, 2.284525e+002
1.767073e+002, 2.277707e+002
1.771894e+002, 2.273020e+002
1.776716e+002, 2.269733e+002
1.781537e+002, 2.269040e+002
1.786358e+002, 2.274148e+002
1.791179e+002, 2.281920e+002
1.796000e+002, 2.285556e+002
1.800821e+002, 2.280534e+002
1.805643e+002, 2.270762e+002
1.810464e+002, 2.268698e+002
1.815285e+002, 2.279389e+002
1.820106e+002, 2.288978e+002
1.824927e+002, 2.289321e+002
1.829748e+002, 2.282312e+002
1.834570e+002, 2.276238e+002
1.839391e+002, 2.274146e+002
1.844212e+002, 2.276521e+002
1.849033e+002, 2.283462e+002
1.853854e+002, 2.298534e+002
1.858675e+002, 2.312311e+002
1.863497e+002, 2.314786e+002
1.868318e+002, 2.305570e+002
1.873139e+002, 2.298833e+002
1.877960e+002, 2.302512e+002
1.882781e+002, 2.311582e+002
1.887602e+002, 2.321341e+002
1.892424e+002, 2.331660e+002
1.897245e+002, 2.340820e+002
1.902066e+002, 2.345453e+002
1.906887e+002, 2.343676e+002
1.911708e+002, 2.344321e+002
1.916530e+002, 2.351909e+002
1.921351e+002, 2.362569e+002
1.926172e+002, 2.373521e+002
1.930993e+002, 2.383863e+002
1.935814e+002, 2.393593e+002
1.940635e+002, 2.401952e+002
1.945457e+002, 2.406250e+002
1.950278e+002, 2.414886e+002
1.955099e+002, 2.431512e+002
1.959920e+002, 2.451614e+002
1.964741e+002, 2.470727e+002
1.969562e+002, 2.486804e+002
1.974384e+002, 2.501220e+002
1.979205e+002, 2.518326e+002
1.984026e+002, 2.541920e+002
1.988847e+002, 2.562893e+002
1.993668e+002, 2.575691e+002
1.998489e+002, 2.586887e+002
2.003311e+002, 2.604168e+002
2.008132e+002, 2.631508e+002
2.012953e+002, 2.666750e+002
2.017774e+002, 2.701012e+002
2.022595e+002, 2.734217e+002
2.027416e+002, 2.766547e+002
2.032238e+002, 2.794730e+002
2.037059e+002, 2.822863e+002
2.041880e+002, 2.856900e+002
2.046701e+002, 2.899951e+002
2.051522e+002, 2.950881e+002
2.056343e+002, 3.004932e+002
2.061165e+002, 3.065072e+002
2.065986e+002, 3.125283e+002
2.070807e+002, 3.182468e+002
2.075628e+002, 3.238977e+002
2.080449e+002, 3.298891e+002
2.085270e+002, 3.363993e+002
2.090092e+002, 3.434513e+002
2.094913e+002, 3.510708e+002
2.099734e+002, 3.597071e+002
2.104555e+002, 3.682371e+002
2.109376e+002, 3.761090e+002
2.114197e+002, 3.835245e+002
2.119019e+002, 3.910823e+002
2.123840e+002, 3.989227e+002
2.128661e+002, 4.071671e+002
2.133482e+002, 4.160668e+002
2.138303e+002, 4.259645e+002
2.143124e+002, 4.358434e+002
2.147946e+002, 4.449745e+002
2.152767e+002, 4.535044e+002
2.157588e+002, 4.619633e+002
2.162409e+002, 4.704916e+002
2.167230e+002, 4.792061e+002
2.172052e+002, 4.883242e+002
2.176873e+002, 4.977975e+002
2.181694e+002, 5.076822e+002
2.186515e+002, 5.183385e+002
2.191336e+002, 5.297609e+002
2.196157e+002, 5.406162e+002
2.200979e+002, 5.501858e+002
2.205800e+002, 5.590929e+002
2.210621e+002, 5.680818e+002
2.215442e+002, 5.772858e+002
2.220263e+002, 5.863437e+002
2.225084e+002, 5.948535e+002
2.229906e+002, 6.028145e+002
2.234727e+002, 6.106345e+002
2.239548e+002, 6.185629e+002
2.244369e+002, 6.262604e+002
2.249190e+002, 6.334852e+002
2.254011e+002, 6.402405e+002
2.258833e+002, 6.464210e+002
2.263654e+002, 6.520517e+002
2.268475e+002, 6.571844e+002
2.273296e+002, 6.613740e+002
2.278117e+002, 6.646896e+002
2.282938e+002, 6.668923e+002
2.287760e+002, 6.676775e+002
2.292581e+002, 6.669949e+002
2.297402e+002, 6.650211e+002
2.302223e+002, 6.619189e+002
2.307044e+002, 6.575525e+002
2.311865e+002, 6.523907e+002
2.316687e+002, 6.466131e+002
2.321508e+002, 6.400621e+002
2.326329e+002, 6.323821e+002
2.331150e+002, 6.235750e+002
2.335971e+002, 6.142711e+002
2.340792e+002, 6.054080e+002
2.345614e+002, 5.974774e+002
2.350435e+002, 5.887355e+002
2.355256e+002, 5.787345e+002
2.360077e+002, 5.683395e+002
2.364898e+002, 5.579420e+002
2.369719e+002, 5.477255e+002
2.374541e+002, 5.377322e+002
2.379362e+002, 5.279588e+002
2.384183e+002, 5.181445e+002
2.389004e+002, 5.094437e+002
2.393825e+002, 5.020685e+002
2.398646e+002, 4.954560e+002
2.403468e+002, 4.891915e+002
2.408289e+002, 4.832450e+002
2.413110e+002, 4.780774e+002
2.417931e+002, 4.742732e+002
2.422752e+002, 4.724444e+002
2.427573e+002, 4.703857e+002
2.432395e+002, 4.677226e+002
2.437216e+002, 4.651420e+002
2.442037e+002, 4.634687e+002
2.446858e+002, 4.626023e+002
2.451679e+002, 4.613374e+002
2.456501e+002, 4.581640e+002
2.461322e+002, 4.522686e+002
2.466143e+002, 4.478281e+002
2.470964e+002, 4.451957e+002
2.475785e+002, 4.435543e+002
2.480606e+002, 4.425606e+002
2.485428e+002, 4.421007e+002
2.490249e+002, 4.419427e+002
2.495070e+002, 4.418126e+002
2.499891e+002, 4.416714e+002
2.504712e+002, 4.423137e+002
2.509533e+002, 4.440327e+002
2.514355e+002, 4.462510e+002
2.519176e+002, 4.486125e+002
2.523997e+002, 4.510963e+002
2.528818e+002, 4.539023e+002
2.533639e+002, 4.573179e+002
2.538460e+002, 4.613488e+002
2.543282e+002, 4.647704e+002
2.548103e+002, 4.668831e+002
2.552924e+002, 4.689546e+002
2.557745e+002, 4.715680e+002
2.562566e+002, 4.748076e+002
2.567387e+002, 4.789183e+002
2.572209e+002, 4.840011e+002
2.577030e+002, 4.902458e+002
2.581851e+002, 4.977226e+002
2.586672e+002, 5.069849e+002
2.591493e+002, 5.169880e+002
2.596314e+002, 5.281296e+002
2.601136e+002, 5.400569e+002
2.605957e+002, 5.500870e+002
2.610778e+002, 5.580858e+002
2.615599e+002, 5.619055e+002
2.620420e+002, 5.582187e+002
2.625241e+002, 5.447814e+002
2.630063e+002, 5.264429e+002
2.634884e+002, 5.046365e+002
2.639705e+002, 4.798238e+002
2.644526e+002, 4.557848e+002
2.649347e+002, 4.334206e+002
2.654168e+002, 4.138890e+002
2.658990e+002, 3.985882e+002
2.663811e+002, 3.881398e+002
2.668632e+002, 3.802729e+002
2.673453e+002, 3.737951e+002
2.678274e+002, 3.686571e+002
2.683095e+002, 3.644059e+002
2.687917e+002, 3.610536e+002
2.692738e+002, 3.585074e+002
2.697559e+002, 3.565182e+002
2.702380e+002, 3.551163e+002
2.707201e+002, 3.540982e+002
2.712022e+002, 3.531500e+002
2.716844e+002, 3.523714e+002
2.721665e+002, 3.525831e+002
2.726486e+002, 3.547520e+002
2.731307e+002, 3.571725e+002
2.736128e+002, 3.581565e+002
2.740949e+002, 3.577151e+002
2.745771e+002, 3.568857e+002
2.750592e+002, 3.561495e+002
2.755413e+002, 3.555341e+002
2.760234e+002, 3.551870e+002
2.765055e+002, 3.550532e+002
2.769876e+002, 3.553453e+002
2.774698e+002, 3.561898e+002
2.779519e+002, 3.575338e+002
2.784340e+002, 3.591165e+002
2.789161e+002, 3.610862e+002
2.793982e+002, 3.632455e+002
2.798803e+002, 3.646565e+002
2.803625e+002, 3.648149e+002
2.808446e+002, 3.648959e+002
2.813267e+002, 3.655435e+002
2.818088e+002, 3.666503e+002
2.822909e+002, 3.679899e+002
2.827730e+002, 3.694845e+002
2.832552e+002, 3.711127e+002
2.837373e+002, 3.728629e+002
2.842194e+002, 3.749292e+002
2.847015e+002, 3.767285e+002
2.851836e+002, 3.779149e+002
2.856658e+002, 3.787233e+002
2.861479e+002, 3.794510e+002
2.866300e+002, 3.801024e+002
2.871121e+002, 3.808747e+002
2.875942e+002, 3.823434e+002
2.880764e+002, 3.849161e+002
2.885585e+002, 3.872228e+002
2.890406e+002, 3.883000e+002
2.895227e+002, 3.890595e+002
2.900048e+002, 3.905161e+002
2.904869e+002, 3.931314e+002
2.909691e+002, 3.962745e+002
2.914512e+002, 3.989175e+002
2.919333e+002, 4.009828e+002
2.924154e+002, 4.027813e+002
2.928975e+002, 4.040534e+002
2.933796e+002, 4.052974e+002
2.938618e+002, 4.069918e+002
2.943439e+002, 4.092579e+002
2.948260e+002, 4.115978e+002
2.953081e+002, 4.132731e+002
2.957902e+002, 4.140908e+002
2.962723e+002, 4.151524e+002
2.967545e+002, 4.165240e+002
2.972366e+002, 4.182812e+002
2.977187e+002, 4.205909e+002
2.982008e+002, 4.234187e+002
2.986829e+002, 4.264714e+002
2.991650e+002, 4.293060e+002
2.996472e+002, 4.318389e+002
3.001293e+002, 4.349979e+002
3.006114e+002, 4.400453e+002
3.010935e+002, 4.446162e+002
3.015756e+002, 4.473554e+002
3.020577e+002, 4.485844e+002
3.025399e+002, 4.496440e+002
3.030220e+002, 4.517009e+002
3.035041e+002, 4.546850e+002
3.039862e+002, 4.570179e+002
3.044683e+002, 4.576270e+002
3.049504e+002, 4.588636e+002
3.054326e+002, 4.619741e+002
3.059147e+002, 4.662573e+002
3.063968e+002, 4.704150e+002
3.068789e+002, 4.736753e+002
3.073610e+002, 4.762053e+002
3.078431e+002, 4.786054e+002
3.083253e+002, 4.806454e+002
3.088074e+002, 4.829442e+002
3.092895e+002, 4.856293e+002
3.097716e+002, 4.886469e+002
3.102537e+002, 4.920352e+002
3.107358e+002, 4.958955e+002
3.112180e+002, 4.998036e+002
3.117001e+002, 5.026259e+002
3.121822e+002, 5.036030e+002
3.126643e+002, 5.052332e+002
3.131464e+002, 5.084015e+002
3.136285e+002, 5.120895e+002
3.141107e+002, 5.154835e+002
3.145928e+002, 5.183635e+002
3.150749e+002, 5.211360e+002
3.155570e+002, 5.244822e+002
3.160391e+002, 5.286935e+002
3.165212e+002, 5.323876e+002
3.170034e+002, 5.352172e+002
3.174855e+002, 5.376755e+002
3.179676e+002, 5.398962e+002
3.184497e+002, 5.419468e+002
3.189318e+002, 5.439500e+002
3.194139e+002, 5.459525e+002
3.198961e+002, 5.479172e+002
3.203782e+002, 5.502330e+002
3.208603e+002, 5.533215e+002
3.213424e+002, 5.563802e+002
3.218245e+002, 5.591121e+002
3.223066e+002, 5.615663e+002
3.227888e+002, 5.639572e+002
3.232709e+002, 5.664589e+002
3.237530e+002, 5.690248e+002
3.242351e+002, 5.711991e+002
3.247172e+002, 5.726796e+002
3.251993e+002, 5.741794e+002
3.256815e+002, 5.758821e+002
3.261636e+002, 5.777536e+002
3.266457e+002, 5.797602e+002
3.271278e+002, 5.818805e+002
3.276099e+002, 5.841080e+002
3.280920e+002, 5.864523e+002
3.285742e+002, 5.889465e+002
3.290563e+002, 5.914971e+002
3.295384e+002, 5.941578e+002
3.300205e+002, 5.968184e+002
3.305026e+002, 5.993545e+002
3.309847e+002, 6.017426e+002
3.314669e+002, 6.040992e+002
3.319490e+002, 6.065470e+002
3.324311e+002, 6.090463e+002
3.329132e+002, 6.118200e+002
3.333953e+002, 6.152820e+002
3.338774e+002, 6.187682e+002
3.343596e+002, 6.217856e+002
3.348417e+002, 6.243722e+002
3.353238e+002, 6.270182e+002
3.358059e+002, 6.300746e+002
3.362880e+002, 6.335461e+002
3.367701e+002, 6.375063e+002
3.372523e+002, 6.420004e+002
3.377344e+002, 6.470139e+002
3.382165e+002, 6.529123e+002
3.386986e+002, 6.593029e+002
3.391807e+002, 6.653307e+002
3.396628e+002, 6.702246e+002
3.401450e+002, 6.744133e+002
3.406271e+002, 6.796205e+002
3.411092e+002, 6.863067e+002
3.415913e+002, 6.931260e+002
3.420735e+002, 6.996073e+002
3.425556e+002, 7.058964e+002
3.430377e+002, 7.120353e+002
3.435198e+002, 7.178832e+002
3.440019e+002, 7.240751e+002
3.444840e+002, 7.318314e+002
3.449662e+002, 7.416283e+002
3.454483e+002, 7.511145e+002
3.459304e+002, 7.586015e+002
3.464125e+002, 7.661381e+002
3.468946e+002, 7.752894e+002
3.473767e+002, 7.863541e+002
3.478589e+002, 7.980683e+002
3.483410e+002, 8.090472e+002
3.488231e+002, 8.193700e+002
3.493052e+002, 8.304930e+002
3.497873e+002, 8.428835e+002
3.502694e+002, 8.559715e+002
3.507516e+002, 8.693805e+002
3.512337e+002, 8.830915e+002
3.517158e+002, 8.968179e+002
3.521979e+002, 9.102469e+002
3.526800e+002, 9.236188e+002
3.531621e+002, 9.375318e+002
3.536443e+002, 9.518481e+002
3.541264e+002, 9.670732e+002
3.546085e+002, 9.838525e+002
3.550906e+002, 1.001657e+003
3.555727e+002, 1.019624e+003
3.560548e+002, 1.037466e+003
3.565370e+002, 1.055384e+003
3.570191e+002, 1.073569e+003
3.575012e+002, 1.091885e+003
3.579833e+002, 1.110859e+003
3.584654e+002, 1.130853e+003
3.589475e+002, 1.151533e+003
3.594297e+002, 1.172440e+003
3.599118e+002, 1.193678e+003
3.603939e+002, 1.214754e+003
3.608760e+002, 1.235290e+003
3.613581e+002, 1.255290e+003
3.618402e+002, 1.275238e+003
3.623224e+002, 1.295130e+003
3.628045e+002, 1.314966e+003
3.632866e+002, 1.334640e+003
3.637687e+002, 1.354139e+003
3.642508e+002, 1.373912e+003
3.647329e+002, 1.394765e+003
3.652151e+002, 1.415879e+003
3.656972e+002, 1.435932e+003
3.661793e+002, 1.454852e+003
3.666614e+002, 1.472945e+003
3.671435e+002, 1.489971e+003
3.676256e+002, 1.506345e+003
3.681078e+002, 1.523274e+003
3.685899e+002, 1.541536e+003
3.690720e+002, 1.560025e+003
3.695541e+002, 1.578108e+003
3.700362e+002, 1.595744e+003
3.705183e+002, 1.612345e+003
3.710005e+002, 1.627521e+003
3.714826e+002, 1.641547e+003
3.719647e+002, 1.655483e+003
3.724468e+002, 1.670216e+003
3.729289e+002, 1.682674e+003
3.734110e+002, 1.690718e+003
3.738932e+002, 1.695836e+003
3.743753e+002, 1.700502e+003
3.748574e+002, 1.705344e+003
3.753395e+002, 1.709902e+003
3.758216e+002, 1.713621e+003
3.763037e+002, 1.716496e+003
3.767859e+002, 1.718337e+003
3.772680e+002, 1.719391e+003
3.777501e+002, 1.719194e+003
3.782322e+002, 1.717331e+003
3.787143e+002, 1.713794e+003
3.791964e+002, 1.708756e+003
3.796786e+002, 1.702057e+003
3.801607e+002, 1.693859e+003
3.806428e+002, 1.686051e+003
3.811249e+002, 1.679084e+003
3.816070e+002, 1.672024e+003
3.820891e+002, 1.664483e+003
3.825713e+002, 1.656596e+003
3.830534e+002, 1.648629e+003
3.835355e+002, 1.640645e+003
3.840176e+002, 1.632705e+003
3.844997e+002, 1.624844e+003
3.849818e+002, 1.616851e+003
3.854640e+002, 1.609318e+003
3.859461e+002, 1.601735e+003
3.864282e+002, 1.594969e+003
3.869103e+002, 1.590216e+003
3.873924e+002, 1.587438e+003
3.878745e+002, 1.585124e+003
3.883567e+002, 1.581547e+003
3.888388e+002, 1.576253e+003
3.893209e+002, 1.573097e+003
3.898030e+002, 1.572909e+003
3.902851e+002, 1.573606e+003
3.907672e+002, 1.574884e+003
3.912494e+002, 1.576409e+003
3.917315e+002, 1.577513e+003
3.922136e+002, 1.577702e+003
3.926957e+002, 1.577578e+003
3.931778e+002, 1.579502e+003
3.936599e+002, 1.584858e+003
3.941421e+002, 1.590467e+003
3.946242e+002, 1.595913e+003
3.951063e+002, 1.601551e+003
3.955884e+002, 1.607471e+003
3.960706e+002, 1.613798e+003
3.965527e+002, 1.620830e+003
3.970348e+002, 1.629234e+003
3.975169e+002, 1.639403e+003
3.979990e+002, 1.649162e+003
3.984811e+002, 1.657591e+003
3.989633e+002, 1.666355e+003
3.994454e+002, 1.676105e+003
3.999275e+002, 1.686759e+003
4.004096e+002, 1.698127e+003
4.008917e+002, 1.710224e+003
4.013738e+002, 1.722805e+003
4.018560e+002, 1.734768e+003
4.023381e+002, 1.745801e+003
4.028202e+002, 1.756785e+003
4.033023e+002, 1.768851e+003
4.037844e+002, 1.780685e+003
4.042665e+002, 1.790543e+003
4.047487e+002, 1.797788e+003
4.052308e+002, 1.804620e+003
4.057129e+002, 1.813834e+003
4.061950e+002, 1.825627e+003
4.066771e+002, 1.837244e+003
4.071592e+002, 1.847744e+003
4.076414e+002, 1.858388e+003
4.081235e+002, 1.870606e+003
4.086056e+002, 1.883997e+003
4.090877e+002, 1.896387e+003
4.095698e+002, 1.906176e+003
4.100519e+002, 1.914072e+003
4.105341e+002, 1.921764e+003
4.110162e+002, 1.929276e+003
4.114983e+002, 1.936489e+003
4.119804e+002, 1.943380e+003
4.124625e+002, 1.949853e+003
4.129446e+002, 1.955528e+003
4.134268e+002, 1.959849e+003
4.139089e+002, 1.964179e+003
4.143910e+002, 1.970376e+003
4.148731e+002, 1.977788e+003
4.153552e+002, 1.983120e+003
4.158373e+002, 1.984927e+003
4.163195e+002, 1.984863e+003
4.168016e+002, 1.985307e+003
