##NAMES=Wakefieldite-(Ce)
##RRUFFID=R060176
##IDEAL CHEMISTRY=Ce^3+^V^5+^O_4_
##LOCALITY=North Keremeous, British Columbia, Canada
##OWNER=RRUFF
##SOURCE=Ty Balacko
##DESCRIPTION=Blue-gray to rust-brown colored prismatic crystals
##STATUS=The identification of this mineral is confirmed by single-crystal X-ray diffraction and chemical analysis.
##URL=rruff.info/R060176
##MEASURED CHEMISTRY=(Ce_0.49_La_0.40_Nd_0.11_)_Î£=1_V_1.00_O_4_; trace amounts of Si; no Pb detected
92.02539, 200.2857
92.50751, 209.2871
92.98962, 214.9953
93.47174, 211.5487
93.95386, 204.0871
94.43597, 195.7110
94.91809, 187.8140
95.40021, 180.4823
95.88232, 173.2727
96.36444, 165.9001
96.84656, 159.0812
97.32867, 153.1113
97.81078, 147.8454
98.29290, 143.0310
98.77502, 138.3494
99.25713, 133.5062
99.73925, 129.3984
100.2214, 125.7621
100.7035, 122.8407
101.1856, 120.9188
101.6677, 119.8923
102.1498, 119.3030
102.6320, 118.5899
103.1141, 117.5176
103.5962, 116.9658
104.0783, 117.2666
104.5604, 117.9275
105.0425, 118.4216
105.5247, 118.5899
106.0068, 118.5534
106.4889, 118.4204
106.9710, 118.1245
107.4531, 117.9935
107.9352, 118.1717
108.4173, 118.6353
108.8995, 119.2673
109.3816, 120.0043
109.8637, 120.9345
110.3458, 122.2087
110.8279, 123.9331
111.3100, 125.6825
111.7922, 126.8167
112.2743, 127.0180
112.7564, 127.6249
113.2385, 129.1879
113.7206, 131.2067
114.2027, 133.2824
114.6849, 135.2211
115.1670, 137.1168
115.6491, 139.2554
116.1312, 141.6821
116.6133, 144.3807
117.0954, 147.1418
117.5776, 150.1874
118.0597, 153.8057
118.5418, 158.1921
119.0239, 163.3569
119.5060, 169.4854
119.9881, 177.8436
120.4703, 185.8006
120.9524, 193.1586
121.4345, 199.4529
121.9166, 203.5094
122.3987, 204.3121
122.8808, 201.2229
123.3630, 195.0004
123.8451, 183.6822
124.3272, 170.2194
124.8093, 157.0500
125.2914, 144.3431
125.7735, 132.8917
126.2557, 124.0381
126.7378, 117.3094
127.2199, 111.8502
127.7020, 107.6946
128.1841, 104.6431
128.6662, 102.1802
129.1483, 100.4348
129.6305, 99.05975
130.1126, 97.73737
130.5947, 96.46667
131.0768, 95.30882
131.5589, 94.31351
132.0410, 93.48524
132.5232, 92.78966
133.0053, 92.05212
133.4874, 91.56876
133.9695, 91.68870
134.4516, 92.41817
134.9337, 93.28863
135.4159, 93.55590
135.8980, 92.81458
136.3801, 92.19735
136.8622, 91.62870
137.3443, 91.24998
137.8264, 91.24345
138.3086, 91.66714
138.7907, 92.36437
139.2728, 92.89687
139.7549, 93.24379
140.2370, 93.43752
140.7191, 93.25459
141.2013, 92.95451
141.6834, 92.94085
142.1655, 93.44735
142.6476, 94.36315
143.1297, 95.18105
143.6118, 95.99088
144.0939, 96.64211
144.5761, 96.95037
145.0582, 96.99264
145.5403, 97.15727
146.0224, 97.81876
146.5045, 98.71839
146.9866, 99.12884
147.4688, 98.84700
147.9509, 98.20910
148.4330, 97.49586
148.9151, 96.70483
149.3972, 95.84535
149.8793, 94.95993
150.3615, 93.99328
150.8436, 92.82130
151.3257, 91.28069
151.8078, 89.56783
152.2899, 88.17307
152.7720, 87.24299
153.2542, 86.37045
153.7363, 85.42436
154.2184, 84.40772
154.7005, 83.29685
155.1826, 82.03647
155.6647, 80.65655
156.1469, 79.49515
156.6290, 78.61965
157.1111, 77.94097
157.5932, 77.53435
158.0753, 77.31260
158.5574, 77.12156
159.0396, 76.83358
159.5217, 76.43919
160.0038, 76.02937
160.4859, 75.53217
160.9680, 75.08369
161.4501, 74.73716
161.9323, 74.49628
162.4144, 74.35052
162.8965, 74.31100
163.3786, 74.43603
163.8607, 74.37633
164.3428, 73.95155
164.8250, 73.48347
165.3071, 73.21801
165.7892, 73.18962
166.2713, 73.25352
166.7534, 73.25864
167.2355, 73.20444
167.7177, 73.07645
168.1998, 72.78357
168.6819, 72.44617
169.1640, 72.24186
169.6461, 72.23059
170.1282, 72.26553
170.6104, 72.13361
171.0925, 71.85621
171.5746, 71.64151
172.0567, 71.65879
172.5388, 71.81164
173.0209, 71.79816
173.5031, 71.47706
173.9852, 71.09328
174.4673, 70.83329
174.9494, 70.69430
175.4315, 70.65626
175.9136, 70.73361
176.3958, 70.92282
176.8779, 71.12322
177.3600, 71.38269
177.8421, 71.59325
178.3242, 71.68858
178.8063, 71.66923
179.2885, 71.58262
179.7706, 71.46171
180.2527, 71.29214
180.7348, 71.15115
181.2169, 70.99722
181.6990, 70.90585
182.1812, 70.94224
182.6633, 71.10661
183.1454, 71.33192
183.6275, 71.52288
184.1096, 71.64647
184.5917, 71.80694
185.0738, 72.05954
185.5560, 72.30671
186.0381, 72.46473
186.5202, 72.51823
187.0023, 72.52836
187.4844, 72.59669
187.9665, 72.74232
188.4487, 72.92848
188.9308, 73.17219
189.4129, 73.44433
189.8950, 73.73347
190.3771, 74.03334
190.8592, 74.31784
191.3414, 74.53143
191.8235, 74.64673
192.3056, 74.74089
192.7877, 74.67647
193.2698, 74.63439
193.7519, 74.90451
194.2341, 75.62389
194.7162, 76.56897
195.1983, 77.27501
195.6804, 77.69077
196.1625, 78.12935
196.6446, 78.71572
197.1268, 79.39472
197.6089, 80.01198
198.0910, 80.45037
198.5731, 80.91748
199.0552, 81.78550
199.5373, 83.13163
200.0195, 84.42088
200.5016, 85.27908
200.9837, 85.80079
201.4658, 86.45078
201.9479, 87.34885
202.4300, 88.47686
202.9122, 89.76048
203.3943, 91.20675
203.8764, 92.77744
204.3585, 94.46317
204.8406, 96.26672
205.3227, 98.11346
205.8048, 99.86790
206.2870, 101.7608
206.7691, 104.0568
207.2512, 106.7712
207.7333, 109.4794
208.2154, 111.6186
208.6975, 113.0513
209.1797, 114.7331
209.6618, 116.9250
210.1439, 119.3552
210.6260, 121.8786
211.1081, 124.4740
211.5902, 127.2262
212.0724, 130.3278
212.5545, 133.9576
213.0366, 137.3278
213.5187, 139.9998
214.0008, 142.6767
214.4829, 145.8313
214.9651, 149.5296
215.4472, 153.5168
215.9293, 157.4476
216.4114, 161.3980
216.8935, 165.1122
217.3756, 168.2797
217.8578, 171.4722
218.3399, 175.1772
218.8220, 179.4505
219.3041, 183.9600
219.7862, 188.1404
220.2683, 191.5962
220.7505, 195.5072
221.2326, 200.1455
221.7147, 205.0287
222.1968, 209.8488
222.6789, 214.5148
223.1610, 219.0550
223.6432, 223.5290
224.1253, 228.0738
224.6074, 232.1763
225.0895, 235.8116
225.5716, 239.0365
226.0537, 241.8677
226.5358, 244.3215
227.0180, 246.4349
227.5001, 248.3258
227.9822, 250.1895
228.4643, 250.9854
228.9464, 250.2549
229.4285, 248.6013
229.9107, 246.5778
230.3928, 244.3055
230.8749, 241.7915
231.3570, 239.0781
231.8391, 236.2001
232.3212, 232.8887
232.8034, 228.8835
233.2855, 224.5130
233.7676, 220.1817
234.2497, 215.9685
234.7318, 211.7646
235.2139, 207.4317
235.6961, 202.9883
236.1782, 198.4480
236.6603, 193.5111
237.1424, 188.5746
237.6245, 184.1724
238.1066, 180.3325
238.5888, 177.0857
239.0709, 174.6272
239.5530, 172.7909
240.0351, 171.1838
240.5172, 169.5662
240.9993, 168.1110
241.4815, 167.1911
241.9636, 166.9090
242.4457, 166.9571
242.9278, 167.4024
243.4099, 168.0096
243.8920, 168.2376
244.3742, 167.4261
244.8563, 166.1458
245.3384, 165.8759
245.8205, 167.1507
246.3026, 168.2303
246.7847, 167.9426
247.2668, 166.8613
247.7490, 165.8574
248.2311, 165.2871
248.7132, 165.0680
249.1953, 165.0000
249.6774, 165.0953
250.1595, 165.3357
250.6417, 165.6089
251.1238, 166.0226
251.6059, 166.7563
252.0880, 167.9529
252.5701, 169.4421
253.0522, 170.7434
253.5344, 171.5186
254.0165, 172.7972
254.4986, 174.9578
254.9807, 177.6620
255.4628, 180.4820
255.9449, 183.1625
256.4271, 186.0785
256.9092, 190.1937
257.3913, 195.9412
257.8734, 202.1484
258.3555, 208.4071
258.8376, 214.9733
259.3198, 222.5986
259.8019, 231.5797
260.2840, 240.5743
260.7661, 247.0565
261.2482, 251.8530
261.7303, 251.9458
262.2125, 246.4946
262.6946, 237.5130
263.1767, 225.7883
263.6588, 211.7442
264.1409, 197.0454
264.6230, 184.4099
265.1052, 173.9885
265.5873, 165.6719
266.0694, 159.6820
266.5515, 155.2210
267.0336, 151.9975
267.5157, 149.8357
267.9979, 148.3995
268.4800, 147.2502
268.9621, 146.5462
269.4442, 145.8111
269.9263, 144.7935
270.4084, 143.9312
270.8906, 143.6286
271.3727, 143.8731
271.8548, 144.2415
272.3369, 144.1781
272.8190, 143.4133
273.3011, 143.1406
273.7833, 143.6249
274.2654, 144.2763
274.7475, 144.8397
275.2296, 145.2633
275.7117, 145.5536
276.1938, 145.6887
276.6760, 145.6080
277.1581, 145.7657
277.6402, 146.3325
278.1223, 146.9219
278.6044, 147.2711
279.0865, 147.4603
279.5686, 147.8024
280.0508, 148.5811
280.5329, 149.8083
281.0150, 150.7889
281.4971, 151.4663
281.9792, 152.0130
282.4613, 152.3919
282.9435, 152.6839
283.4256, 153.0420
283.9077, 153.5562
284.3898, 154.2285
284.8719, 155.0600
285.3540, 156.4351
285.8362, 157.5209
286.3183, 157.9052
286.8004, 157.8666
287.2825, 157.8957
287.7646, 158.2414
288.2467, 158.8376
288.7289, 159.4700
289.2110, 159.9823
289.6931, 160.7128
290.1752, 161.8342
290.6573, 163.1730
291.1394, 164.5263
291.6216, 165.8271
292.1037, 167.0089
292.5858, 167.9232
293.0679, 168.3850
293.5500, 168.9309
294.0321, 169.5084
294.5143, 170.2412
294.9964, 171.3226
295.4785, 172.8078
295.9606, 174.4798
296.4427, 176.0686
296.9248, 177.6086
297.4070, 178.9090
297.8891, 179.7858
298.3712, 180.5255
298.8533, 181.3689
299.3354, 182.3511
299.8175, 183.3849
300.2997, 184.3451
300.7818, 185.1971
301.2639, 186.3845
301.7460, 188.3297
302.2281, 190.2627
302.7102, 191.4883
303.1924, 192.0843
303.6745, 192.8914
304.1566, 194.6647
304.6387, 197.3275
305.1208, 199.3285
305.6029, 200.1126
306.0851, 200.8506
306.5672, 202.1747
307.0493, 203.9560
307.5314, 205.7346
308.0135, 207.2625
308.4956, 208.5792
308.9778, 209.8314
309.4599, 210.8323
309.9420, 212.0054
310.4241, 213.5197
310.9062, 215.2960
311.3883, 217.2561
311.8705, 219.4248
312.3526, 221.5608
312.8347, 223.0161
313.3168, 223.5139
313.7989, 224.1296
314.2810, 225.0159
314.7632, 226.1556
315.2453, 227.6327
315.7274, 229.4843
316.2095, 231.3970
316.6916, 232.9547
317.1737, 234.1065
317.6559, 235.1100
318.1380, 235.6552
318.6201, 236.2560
319.1022, 237.5322
319.5843, 239.5290
320.0664, 241.5702
320.5485, 243.0026
321.0306, 243.7546
321.5128, 244.7157
321.9949, 246.0408
322.4770, 247.4407
322.9591, 248.7426
323.4412, 249.9480
323.9233, 251.1648
324.4055, 252.4815
324.8876, 253.8630
325.3697, 255.0074
325.8518, 255.5905
326.3339, 256.3255
326.8160, 257.5653
327.2982, 259.1522
327.7803, 260.7580
328.2624, 262.2358
328.7445, 263.6347
329.2266, 265.0884
329.7087, 266.5758
330.1909, 268.1433
330.6730, 270.0326
331.1551, 271.9213
331.6372, 273.2992
332.1193, 274.0116
332.6014, 274.4748
333.0836, 275.2335
333.5657, 276.2459
334.0478, 277.8228
334.5299, 280.4587
335.0120, 283.3370
335.4941, 285.7321
335.9763, 287.5794
336.4584, 289.4105
336.9405, 291.7144
337.4226, 294.5508
337.9047, 297.3206
338.3868, 300.1425
338.8690, 302.8249
339.3511, 305.1872
339.8332, 307.3211
340.3153, 309.4259
340.7974, 311.5825
341.2795, 313.8493
341.7617, 316.6248
342.2438, 319.8241
342.7259, 323.5309
343.2080, 328.2749
343.6901, 333.4260
344.1722, 337.9082
344.6544, 341.2454
345.1365, 344.0552
345.6186, 347.6045
346.1007, 352.5349
346.5828, 357.3028
347.0649, 361.3791
347.5471, 365.5630
348.0292, 370.7275
348.5113, 376.9277
348.9934, 383.4518
349.4755, 389.3377
349.9576, 394.3679
350.4398, 399.7498
350.9219, 405.1483
351.4040, 411.1205
351.8861, 418.1265
352.3682, 425.9520
352.8503, 434.0263
353.3325, 441.9018
353.8146, 449.5723
354.2967, 457.2166
354.7788, 464.8359
355.2609, 472.4007
355.7430, 479.4141
356.2252, 486.4804
356.7073, 494.6404
357.1894, 504.3918
357.6715, 515.0443
358.1536, 524.9496
358.6357, 533.3231
359.1179, 542.1245
359.5999, 551.5832
360.0821, 561.3748
360.5642, 571.2516
361.0463, 581.1789
361.5284, 591.0853
362.0105, 600.9422
362.4926, 610.7302
362.9748, 620.5740
363.4569, 630.6019
363.9390, 640.5463
364.4211, 650.2548
364.9032, 659.8183
365.3853, 669.2434
365.8675, 678.5145
366.3496, 687.6786
366.8317, 697.1531
367.3138, 706.4163
367.7959, 716.7579
368.2780, 729.8300
368.7602, 743.5576
369.2423, 755.3111
369.7244, 763.8650
370.2065, 770.4792
370.6886, 777.5406
371.1707, 785.0984
371.6529, 792.9754
372.1350, 801.9320
372.6171, 810.6347
373.0992, 818.0721
373.5813, 824.1621
374.0634, 829.9738
374.5456, 836.8915
375.0277, 845.0195
375.5098, 851.6936
375.9919, 856.0452
376.4740, 859.7040
376.9561, 863.7343
377.4383, 867.7220
377.9204, 870.5632
378.4025, 871.2829
378.8846, 870.6382
379.3667, 870.8905
379.8488, 872.5842
380.3310, 873.7521
380.8131, 873.3826
381.2952, 872.1957
381.7773, 870.7863
382.2594, 869.2604
382.7415, 867.7357
383.2237, 866.2189
383.7058, 864.7084
384.1879, 863.7249
384.6700, 863.6317
385.1521, 863.8972
385.6342, 863.9722
386.1164, 863.8773
386.5985, 863.9678
387.0806, 864.2116
387.5627, 864.8027
388.0448, 866.3580
388.5269, 869.1315
389.0091, 872.1657
389.4912, 874.6374
389.9733, 876.8568
390.4554, 879.5572
390.9375, 883.1586
391.4196, 887.0475
391.9018, 890.4420
392.3839, 893.4699
392.8660, 897.1880
393.3481, 902.1301
393.8302, 908.0062
394.3123, 914.2689
394.7945, 921.0779
395.2766, 927.7239
395.7587, 933.4131
396.2408, 938.8735
396.7229, 945.4319
397.2050, 953.5156
397.6872, 962.0215
398.1693, 969.9057
398.6514, 977.1006
399.1335, 983.8754
399.6156, 989.8420
400.0977, 995.7755
400.5798, 1002.382
401.0620, 1009.528
401.5441, 1016.440
402.0262, 1022.519
402.5083, 1028.083
402.9904, 1034.652
403.4725, 1043.244
403.9547, 1051.433
404.4368, 1058.809
404.9189, 1065.528
405.4010, 1071.583
405.8831, 1076.982
406.3652, 1082.152
406.8474, 1087.712
407.3295, 1093.772
407.8116, 1099.837
408.2937, 1106.535
408.7758, 1112.673
409.2579, 1117.572
409.7401, 1121.312
410.2222, 1124.280
410.7043, 1126.693
411.1864, 1128.658
411.6685, 1131.219
412.1506, 1135.331
412.6328, 1138.860
413.1149, 1141.673
413.5970, 1143.681
414.0791, 1144.650
414.5612, 1144.535
415.0433, 1143.859
415.5255, 1143.461
416.0076, 1143.522
416.4897, 1143.224
416.9718, 1142.810
417.4539, 1141.756
417.9360, 1139.428
418.4182, 1136.120
418.9003, 1132.879
419.3824, 1130.602
419.8645, 1128.970
420.3466, 1126.529
420.8287, 1123.174
421.3109, 1119.199
421.7930, 1114.326
422.2751, 1109.123
422.7572, 1104.488
423.2393, 1100.896
423.7214, 1096.851
424.2036, 1090.324
424.6857, 1081.434
425.1678, 1072.987
425.6499, 1065.738
426.1320, 1058.984
426.6141, 1052.021
427.0963, 1044.896
427.5784, 1037.844
428.0605, 1031.198
428.5426, 1024.584
429.0247, 1017.196
429.5068, 1008.874
429.9890, 1001.117
430.4711, 995.2637
430.9532, 990.6376
431.4353, 984.9914
431.9174, 977.8323
432.3995, 970.3611
432.8817, 963.4004
433.3638, 956.5681
433.8459, 948.7203
434.3280, 939.3956
434.8101, 929.8892
435.2922, 922.0338
435.7744, 916.2207
436.2565, 910.7399
436.7386, 906.2656
437.2207, 901.5131
437.7028, 895.1118
438.1849, 887.4704
438.6671, 880.4073
439.1492, 875.2484
439.6313, 871.5754
440.1134, 867.0589
440.5955, 860.8421
441.0776, 854.8199
441.5598, 849.0751
442.0418, 843.7074
442.5240, 839.0342
443.0061, 835.0755
443.4882, 831.2469
443.9703, 826.7535
444.4524, 821.3401
444.9345, 816.4307
445.4167, 811.8135
445.8988, 807.9426
446.3809, 805.3289
446.8630, 803.5863
447.3451, 801.9417
447.8272, 799.9465
448.3094, 797.8606
448.7915, 796.5310
449.2736, 796.4908
449.7557, 795.6588
450.2378, 792.5632
450.7199, 789.1119
451.2021, 786.6144
451.6842, 785.2184
452.1663, 784.2925
452.6484, 783.5858
453.1305, 782.9881
453.6126, 781.9060
454.0948, 780.0172
454.5769, 778.3539
455.0590, 778.0182
455.5411, 778.3510
456.0232, 778.1251
456.5053, 776.4812
456.9875, 775.0338
457.4696, 775.4000
457.9517, 777.2302
458.4338, 778.9111
458.9159, 779.8778
459.3980, 780.5416
459.8802, 781.3468
460.3623, 782.1747
460.8444, 783.8457
461.3265, 787.0945
461.8086, 790.8375
462.2907, 794.1181
462.7729, 796.9134
463.2550, 799.6847
463.7371, 802.7897
464.2192, 806.1159
464.7013, 809.1180
465.1834, 813.1893
465.6656, 815.2078
466.1477, 813.9836
466.6298, 810.8747
467.1119, 807.0793
467.5940, 802.9854
468.0761, 798.7705
468.5583, 794.7559
469.0404, 791.1020
469.5225, 786.3823
470.0046, 778.9473
470.4867, 772.1476
470.9688, 766.9742
471.4510, 763.1450
471.9331, 760.1758
472.4152, 757.8518
472.8973, 756.1398
473.3794, 755.2092
473.8615, 755.3939
474.3437, 754.9221
474.8258, 752.7918
475.3079, 750.4402
475.7900, 748.5836
476.2721, 747.2920
476.7542, 746.5042
477.2364, 746.6178
477.7185, 747.1342
478.2006, 746.8693
478.6827, 745.7354
479.1648, 744.3186
479.6469, 742.6375
480.1291, 740.9995
480.6112, 740.0057
481.0933, 739.9466
481.5754, 739.8024
482.0575, 738.9044
482.5396, 737.6094
483.0217, 736.6277
483.5038, 736.1136
483.9860, 735.6476
484.4681, 734.9009
484.9502, 733.8487
485.4323, 732.2682
485.9144, 729.6912
486.3965, 727.1179
486.8787, 724.9407
487.3608, 723.0563
487.8429, 721.2928
488.3250, 719.5734
488.8071, 717.8409
489.2892, 716.0686
489.7714, 714.5632
490.2535, 712.1656
490.7356, 707.7623
491.2177, 703.6563
491.6998, 701.3339
492.1819, 700.3075
492.6641, 699.2009
493.1462, 697.1487
493.6283, 694.4459
494.1104, 691.9396
494.5925, 689.7020
495.0746, 687.4848
495.5568, 685.1336
496.0389, 682.8690
496.5210, 680.8007
497.0031, 678.9591
497.4852, 677.4059
497.9673, 676.4688
498.4495, 675.8467
498.9316, 674.7034
499.4137, 672.9628
499.8958, 670.8805
500.3779, 668.1202
500.8600, 665.2659
501.3422, 663.5549
501.8243, 663.4947
502.3064, 663.5914
502.7885, 663.1356
503.2706, 662.3239
503.7527, 661.4282
504.2349, 660.5067
504.7170, 659.7288
505.1991, 659.3023
505.6812, 659.2515
506.1633, 659.0486
506.6454, 658.4073
507.1276, 657.9500
507.6097, 658.0728
508.0918, 658.4805
508.5739, 658.6139
509.0560, 658.2845
509.5381, 657.9573
510.0203, 658.4828
510.5024, 660.3174
510.9845, 661.4432
511.4666, 661.0332
511.9487, 660.7298
512.4308, 661.4593
512.9130, 662.7361
513.3951, 663.4747
513.8772, 663.0189
514.3593, 662.0789
514.8414, 662.0430
515.3235, 663.0560
515.8057, 663.8635
516.2878, 664.1520
516.7699, 664.1595
517.2520, 664.0683
517.7341, 663.8854
518.2162, 663.6481
518.6984, 663.5883
519.1805, 663.3547
519.6626, 662.2064
520.1447, 660.2327
520.6268, 658.7631
521.1089, 658.5802
521.5911, 659.1055
522.0732, 659.0370
522.5553, 658.3052
523.0374, 657.3500
523.5195, 656.2149
524.0016, 654.9121
524.4838, 653.5012
524.9659, 651.9594
525.4480, 650.1093
525.9301, 647.7853
526.4122, 645.1264
526.8943, 642.8148
527.3765, 641.5868
527.8586, 639.6503
528.3407, 635.8948
528.8228, 632.0665
529.3049, 629.8419
529.7870, 629.2205
530.2692, 628.7458
530.7513, 627.1676
531.2334, 624.6434
531.7155, 621.9830
532.1976, 618.9869
532.6797, 616.3447
533.1619, 614.6604
533.6440, 613.3368
534.1261, 611.7431
534.6082, 609.7578
535.0903, 607.7753
535.5724, 606.3192
536.0546, 604.9908
536.5367, 602.6427
537.0188, 599.0405
537.5009, 595.7380
537.9830, 593.9888
538.4651, 593.5254
538.9473, 592.7405
539.4294, 591.1023
539.9115, 589.8309
540.3936, 589.7545
540.8757, 589.9945
541.3578, 589.3645
541.8400, 587.6901
542.3221, 585.7260
542.8042, 584.2020
543.2863, 583.1183
543.7684, 582.4509
544.2505, 582.4772
544.7326, 582.6227
545.2147, 582.9049
545.6968, 583.1937
546.1790, 583.4573
546.6611, 583.6606
547.1432, 583.2044
547.6253, 583.7812
548.1074, 583.9730
548.5895, 583.8082
549.0717, 581.7852
549.5538, 582.4933
550.0359, 582.3096
550.5180, 582.2282
551.0001, 583.7345
551.4822, 582.7264
551.9644, 584.4995
552.4465, 585.3647
552.9286, 586.8564
553.4107, 586.9078
553.8928, 587.8082
554.3749, 588.5690
554.8571, 589.4775
555.3392, 590.5430
555.8213, 591.9600
556.3034, 594.5838
556.7855, 596.4680
557.2676, 596.5174
557.7498, 595.8504
558.2319, 595.6945
558.7140, 596.3766
559.1961, 597.6091
559.6782, 599.2005
560.1603, 601.1520
560.6425, 602.6964
561.1246, 603.7536
561.6067, 604.4704
562.0888, 604.3060
562.5709, 604.1581
563.0530, 605.3351
563.5352, 608.1981
564.0173, 610.9667
564.4994, 611.8485
564.9815, 611.4050
565.4636, 611.4174
565.9457, 612.0526
566.4279, 613.2141
566.9100, 615.2579
567.3921, 617.7090
567.8742, 618.9323
568.3563, 618.0553
568.8384, 617.4145
569.3206, 618.0718
569.8027, 619.2587
570.2848, 620.1407
570.7669, 620.5485
571.2490, 620.5776
571.7311, 620.2511
572.2133, 619.6193
572.6954, 619.2618
573.1775, 619.4525
573.6596, 619.5463
574.1417, 619.3637
574.6238, 619.1205
575.1060, 619.1172
575.5881, 619.3214
576.0702, 619.2922
576.5523, 618.4508
577.0344, 617.1020
577.5165, 616.4900
577.9987, 616.8181
578.4808, 617.0021
578.9629, 616.5818
579.4450, 615.7600
579.9271, 614.8704
580.4092, 613.9388
580.8914, 612.7874
581.3735, 611.2214
581.8556, 609.4809
582.3377, 607.7859
582.8198, 606.1619
583.3019, 604.5556
583.7841, 602.9089
584.2662, 601.3235
584.7483, 600.1088
585.2304, 600.0195
585.7125, 599.0090
586.1946, 596.4218
586.6768, 593.5466
