##NAMES=Wakefieldite-(Ce)
##RRUFFID=R060542
##IDEAL CHEMISTRY=Ce^3+^V^5+^O_4_
##LOCALITY=Yellow Lake, British Columbia, Canada
##OWNER=RRUFF
##SOURCE=Michael Scott
##DESCRIPTION=Black rectangular prisms
##STATUS=The identification of this mineral is confirmed by single-crystal X-ray diffraction and chemical analysis.
##URL=rruff.info/R060542
##MEASURED CHEMISTRY=(Ce_0.60_La_0.26_Nd_0.12_REE^5+^_0.02_)_Σ=1_(V_0.96_Si_0.04_)_Σ=1_O_4_; no Pb detected; REE^5+^ assumed by charge balance
169.251, 2402.843
169.733, 2404.427
170.216, 2414.775
170.698, 2422.365
171.180, 2414.222
171.662, 2390.505
172.144, 2368.926
172.626, 2366.417
173.108, 2374.560
173.590, 2378.518
174.072, 2366.016
174.555, 2348.721
175.037, 2339.190
175.519, 2338.289
176.001, 2343.029
176.483, 2353.883
176.965, 2368.796
177.447, 2381.648
177.929, 2391.045
178.412, 2395.916
178.894, 2392.752
179.376, 2379.164
179.858, 2363.483
180.340, 2354.743
180.822, 2352.594
181.304, 2354.666
181.786, 2361.409
182.268, 2371.262
182.751, 2380.641
183.233, 2389.169
183.715, 2396.454
184.197, 2400.428
184.679, 2401.288
185.161, 2403.153
185.643, 2413.281
186.125, 2428.325
186.607, 2434.894
187.090, 2427.752
187.572, 2411.298
188.054, 2390.977
188.536, 2366.010
189.018, 2348.776
189.500, 2358.299
189.982, 2390.947
190.464, 2417.767
190.947, 2427.152
191.429, 2423.508
191.911, 2424.399
192.393, 2430.500
192.875, 2438.264
193.357, 2444.240
193.839, 2448.365
194.321, 2450.332
194.803, 2446.363
195.286, 2437.853
195.768, 2443.343
196.250, 2466.623
196.732, 2495.058
197.214, 2508.480
197.696, 2505.351
198.178, 2500.884
198.661, 2503.821
199.143, 2514.383
199.625, 2516.291
200.107, 2505.182
200.589, 2490.274
201.071, 2492.366
201.553, 2514.485
202.035, 2539.740
202.517, 2561.313
202.999, 2579.707
203.482, 2586.890
203.964, 2576.714
204.446, 2558.359
204.928, 2561.022
205.410, 2590.292
205.892, 2623.274
206.374, 2643.441
206.857, 2648.088
207.339, 2655.474
207.821, 2668.660
208.303, 2686.167
208.785, 2700.548
209.267, 2710.564
209.749, 2720.280
210.231, 2733.432
210.713, 2751.390
211.195, 2767.784
211.678, 2780.662
212.160, 2790.794
212.642, 2804.732
213.124, 2822.945
213.606, 2844.661
214.088, 2868.646
214.570, 2894.572
215.052, 2924.781
215.535, 2961.299
216.017, 3004.404
216.499, 3043.787
216.981, 3077.301
217.463, 3109.985
217.945, 3149.362
218.427, 3199.391
218.909, 3243.847
219.391, 3274.921
219.874, 3290.182
220.356, 3318.654
220.838, 3367.120
221.320, 3422.219
221.802, 3463.125
222.284, 3481.933
222.766, 3503.104
223.248, 3534.823
223.731, 3580.372
224.213, 3622.913
224.695, 3664.504
225.177, 3702.186
225.659, 3731.393
226.141, 3749.823
226.623, 3763.661
227.105, 3775.055
227.587, 3784.468
228.070, 3789.564
228.552, 3788.729
229.034, 3784.151
229.516, 3781.331
229.998, 3784.594
230.480, 3782.420
230.962, 3769.475
231.444, 3741.823
231.926, 3712.682
232.409, 3680.084
232.891, 3646.757
233.373, 3621.093
233.855, 3613.202
234.337, 3598.523
234.819, 3562.919
235.301, 3487.525
235.783, 3432.882
236.266, 3407.850
236.748, 3403.859
237.230, 3393.183
237.712, 3377.610
238.194, 3352.659
238.676, 3313.392
239.158, 3245.147
239.640, 3194.454
240.122, 3168.635
240.605, 3162.577
241.087, 3154.580
241.569, 3146.367
242.051, 3133.830
242.533, 3113.201
243.015, 3076.554
243.497, 3048.218
243.980, 3030.345
244.462, 3022.339
244.944, 3021.528
245.426, 3031.249
245.908, 3043.807
246.390, 3053.658
246.872, 3056.760
247.354, 3065.500
247.836, 3083.314
248.318, 3108.551
248.801, 3127.399
249.283, 3132.206
249.765, 3140.144
250.247, 3164.021
250.729, 3208.250
251.211, 3258.377
251.693, 3312.378
252.176, 3370.653
252.658, 3433.941
253.140, 3500.125
253.622, 3574.442
254.104, 3662.274
254.586, 3764.397
255.068, 3876.580
255.550, 3995.110
256.032, 4121.422
256.514, 4267.357
256.997, 4433.510
257.479, 4619.085
257.961, 4830.485
258.443, 5086.283
258.925, 5330.175
259.407, 5580.504
259.889, 5826.976
260.371, 5951.111
260.854, 5945.665
261.336, 5826.354
261.818, 5585.432
262.300, 5175.774
262.782, 4773.676
263.264, 4399.750
263.746, 4053.237
264.228, 3778.354
264.711, 3587.518
265.193, 3444.690
265.675, 3316.258
266.157, 3202.516
266.639, 3105.765
267.121, 3028.931
267.603, 2971.373
268.085, 2929.087
268.567, 2907.457
269.050, 2891.949
269.532, 2867.640
270.014, 2831.285
270.496, 2800.404
270.978, 2781.198
271.460, 2772.115
271.942, 2757.783
272.424, 2736.884
272.906, 2713.999
273.389, 2691.643
273.871, 2668.725
274.353, 2653.428
274.835, 2649.859
275.317, 2656.114
275.799, 2658.204
276.281, 2654.667
276.763, 2650.776
277.246, 2654.497
277.728, 2667.507
278.210, 2671.136
278.692, 2656.018
279.174, 2627.228
279.656, 2615.310
280.138, 2623.366
280.620, 2636.806
281.103, 2642.374
281.585, 2639.875
282.067, 2633.538
282.549, 2622.828
283.031, 2609.274
283.513, 2597.734
283.995, 2587.722
284.477, 2582.383
284.959, 2589.838
285.441, 2609.173
285.924, 2617.882
286.406, 2608.228
286.888, 2584.829
287.370, 2559.323
287.852, 2530.635
288.334, 2509.071
288.816, 2509.546
289.298, 2528.849
289.781, 2542.744
290.263, 2544.919
290.745, 2538.025
291.227, 2526.719
291.709, 2510.725
292.191, 2495.345
292.673, 2485.974
293.155, 2481.232
293.638, 2475.038
294.120, 2464.593
294.602, 2453.104
295.084, 2448.079
295.566, 2449.357
296.048, 2450.385
296.530, 2445.109
297.012, 2435.459
297.494, 2426.675
297.977, 2419.393
298.459, 2414.298
298.941, 2412.962
299.423, 2415.172
299.905, 2418.705
300.387, 2423.746
300.869, 2428.773
301.351, 2430.417
301.833, 2425.865
302.316, 2420.376
302.798, 2422.633
303.280, 2430.708
303.762, 2435.027
304.244, 2423.167
304.726, 2404.938
305.208, 2394.710
305.690, 2397.223
306.172, 2405.416
306.655, 2416.376
307.137, 2428.528
307.619, 2436.190
308.101, 2432.677
308.583, 2424.433
309.065, 2417.250
309.547, 2410.081
310.030, 2408.933
310.512, 2426.487
310.994, 2454.814
311.476, 2472.442
311.958, 2460.872
312.440, 2438.784
312.922, 2419.022
313.404, 2401.993
313.886, 2392.543
314.369, 2398.396
314.851, 2413.782
315.333, 2426.296
315.815, 2431.185
316.297, 2431.556
316.779, 2428.341
317.261, 2420.287
317.743, 2413.178
318.225, 2407.702
318.708, 2404.817
319.190, 2406.184
319.672, 2418.758
320.154, 2430.395
320.636, 2434.322
321.118, 2426.882
321.600, 2423.850
322.082, 2434.684
322.565, 2450.456
323.047, 2458.992
323.529, 2447.280
324.011, 2438.167
324.493, 2438.784
324.975, 2451.028
325.457, 2465.131
325.939, 2486.466
326.422, 2506.788
326.904, 2517.235
327.386, 2507.865
327.868, 2498.074
328.350, 2490.483
328.832, 2485.028
329.314, 2482.241
329.796, 2481.263
330.278, 2483.531
330.760, 2490.600
331.243, 2506.165
331.725, 2521.042
332.207, 2534.854
332.689, 2547.574
333.171, 2554.776
333.653, 2550.543
334.135, 2547.693
334.617, 2558.220
335.100, 2592.453
335.582, 2614.915
336.064, 2616.656
336.546, 2602.788
337.028, 2601.026
337.510, 2615.055
337.992, 2633.371
338.474, 2647.836
338.957, 2656.802
339.439, 2670.321
339.921, 2691.156
340.403, 2715.753
340.885, 2733.554
341.367, 2743.919
341.849, 2751.158
342.331, 2755.127
342.813, 2755.881
343.296, 2765.199
343.778, 2784.547
344.260, 2811.543
344.742, 2843.463
345.224, 2880.636
345.706, 2917.114
346.188, 2948.556
346.670, 2976.601
347.152, 3010.545
347.635, 3052.195
348.117, 3094.472
348.599, 3125.977
349.081, 3149.169
349.563, 3174.743
350.045, 3208.817
350.527, 3248.515
351.009, 3285.551
351.491, 3319.399
351.974, 3356.600
352.456, 3405.076
352.938, 3461.760
353.420, 3520.340
353.902, 3577.490
354.384, 3635.799
354.866, 3697.824
355.349, 3762.962
355.831, 3829.805
356.313, 3898.484
356.795, 3967.946
357.277, 4036.363
357.759, 4100.339
358.241, 4167.321
358.723, 4243.107
359.205, 4326.354
359.688, 4413.355
360.170, 4509.950
360.652, 4605.246
361.134, 4689.268
361.616, 4748.060
362.098, 4813.463
362.580, 4899.834
363.062, 5001.576
363.544, 5105.780
364.027, 5214.935
364.509, 5320.697
364.991, 5419.689
365.473, 5514.009
365.955, 5596.284
366.437, 5655.448
366.919, 5704.061
367.401, 5763.231
367.884, 5840.568
368.366, 5923.905
368.848, 6014.350
369.330, 6117.526
369.812, 6202.848
370.294, 6259.465
370.776, 6304.680
371.258, 6358.060
371.741, 6433.234
372.223, 6495.578
372.705, 6536.531
373.187, 6555.657
373.669, 6569.927
374.151, 6577.409
374.633, 6582.409
375.115, 6590.519
375.597, 6605.408
376.079, 6609.009
376.562, 6598.592
377.044, 6574.644
377.526, 6536.961
378.008, 6481.869
378.490, 6426.492
378.972, 6390.583
379.454, 6374.143
379.936, 6324.563
380.419, 6230.338
380.901, 6112.501
381.383, 6009.722
381.865, 5920.962
382.347, 5839.022
382.829, 5764.081
383.311, 5692.707
383.793, 5612.308
384.276, 5522.102
384.758, 5425.320
385.240, 5321.801
385.722, 5215.188
386.204, 5114.536
386.686, 5024.705
387.168, 4944.110
387.650, 4870.500
388.132, 4803.984
388.615, 4738.210
389.097, 4672.146
389.579, 4602.153
390.061, 4522.307
390.543, 4417.141
391.025, 4314.679
391.507, 4231.696
391.989, 4166.963
392.471, 4114.349
392.954, 4079.976
393.436, 4050.942
393.918, 4017.821
394.400, 3978.972
394.882, 3935.632
395.364, 3889.239
395.846, 3839.219
396.328, 3783.660
396.810, 3708.947
397.293, 3640.287
397.775, 3589.233
398.257, 3563.407
398.739, 3535.396
399.221, 3499.370
399.703, 3461.872
400.185, 3431.277
400.668, 3415.250
401.150, 3395.782
401.632, 3367.394
402.114, 3329.514
402.596, 3297.642
403.078, 3274.515
403.560, 3254.095
404.042, 3230.961
404.524, 3204.542
405.007, 3177.888
405.489, 3150.095
405.971, 3122.863
406.453, 3103.795
406.935, 3094.709
407.417, 3085.883
407.899, 3070.487
408.381, 3048.804
408.863, 3028.988
409.346, 3012.344
409.828, 2996.003
410.310, 2970.016
410.792, 2936.241
411.274, 2914.146
411.756, 2931.168
412.238, 2963.800
412.720, 2947.562
413.203, 2877.696
413.685, 2812.749
414.167, 2823.295
414.649, 2878.357
415.131, 2914.230
415.613, 2893.640
416.095, 2858.349
416.577, 2848.639
417.060, 2860.293
417.542, 2866.835
418.024, 2845.231
418.506, 2815.101
418.988, 2795.139
419.470, 2793.674
419.952, 2793.662
420.434, 2786.750
420.916, 2776.277
421.398, 2769.267
421.881, 2778.848
422.363, 2783.099
422.845, 2768.813
423.327, 2726.803
423.809, 2698.218
424.291, 2694.931
424.773, 2704.107
425.255, 2712.322
425.738, 2727.885
426.220, 2731.208
426.702, 2713.189
427.184, 2676.131
427.666, 2652.058
428.148, 2645.117
428.630, 2645.524
429.112, 2648.655
429.595, 2657.190
430.077, 2657.543
430.559, 2646.490
431.041, 2628.444
431.523, 2612.444
432.005, 2598.612
432.487, 2586.407
432.969, 2573.983
433.451, 2562.163
433.934, 2559.641
434.416, 2568.208
434.898, 2577.971
435.380, 2574.914
435.862, 2562.321
436.344, 2553.554
436.826, 2555.478
437.308, 2562.435
437.790, 2568.678
438.273, 2573.724
438.755, 2572.649
439.237, 2554.032
439.719, 2530.344
440.201, 2517.205
440.683, 2520.758
441.165, 2529.790
441.647, 2544.839
442.129, 2560.176
442.612, 2562.847
443.094, 2526.359
443.576, 2493.160
444.058, 2489.885
444.540, 2526.060
445.022, 2550.939
445.504, 2540.970
445.987, 2519.570
446.469, 2510.104
446.951, 2530.392
447.433, 2545.466
447.915, 2549.062
448.397, 2542.751
448.879, 2538.617
449.361, 2539.398
449.843, 2538.980
450.326, 2532.119
450.808, 2512.954
451.290, 2506.718
451.772, 2516.373
452.254, 2536.587
452.736, 2561.287
453.218, 2592.821
453.700, 2613.251
454.182, 2610.221
454.665, 2588.563
455.147, 2577.831
455.629, 2578.175
456.111, 2586.181
456.593, 2601.608
457.075, 2622.557
457.557, 2640.716
458.039, 2650.473
458.522, 2662.219
459.004, 2694.040
459.486, 2741.659
459.968, 2787.171
460.450, 2819.956
460.932, 2845.823
461.414, 2867.815
461.896, 2883.696
462.379, 2909.163
462.861, 2963.205
463.343, 3029.028
463.825, 3085.344
464.307, 3121.807
464.789, 3150.278
465.271, 3177.443
465.753, 3202.555
466.235, 3213.284
466.717, 3201.062
467.200, 3178.390
467.682, 3152.432
468.164, 3131.535
468.646, 3094.494
469.128, 3035.005
469.610, 2961.255
470.092, 2888.138
470.574, 2812.797
471.057, 2744.116
471.539, 2685.886
472.021, 2638.153
472.503, 2587.501
472.985, 2531.431
473.467, 2480.924
473.949, 2449.696
474.431, 2436.577
474.914, 2423.558
475.396, 2407.375
475.878, 2388.985
476.360, 2367.569
476.842, 2344.205
477.324, 2325.872
477.806, 2322.224
478.288, 2324.355
478.770, 2318.700
479.253, 2303.618
479.735, 2286.133
480.217, 2266.685
480.699, 2249.433
481.181, 2240.163
481.663, 2247.328
482.145, 2257.191
482.627, 2266.598
483.109, 2274.400
483.592, 2274.526
484.074, 2254.556
484.556, 2234.144
485.038, 2224.239
485.520, 2232.675
486.002, 2238.085
486.484, 2240.412
486.966, 2238.913
487.448, 2231.782
487.931, 2214.215
488.413, 2199.871
488.895, 2193.838
489.377, 2195.100
489.859, 2186.708
490.341, 2164.513
490.823, 2144.559
491.306, 2142.477
491.788, 2157.805
492.270, 2164.786
492.752, 2159.587
493.234, 2147.983
493.716, 2139.252
494.198, 2132.528
494.680, 2123.503
495.162, 2106.155
495.645, 2086.767
496.127, 2076.344
496.609, 2074.693
497.091, 2071.571
497.573, 2056.091
498.055, 2036.469
498.537, 2021.995
499.019, 2015.789
499.501, 2013.738
499.984, 2016.024
500.466, 2021.159
500.948, 2025.792
501.430, 2037.256
501.912, 2040.647
502.394, 2025.430
502.876, 1985.750
503.358, 1960.722
503.841, 1959.347
504.323, 1966.409
504.805, 1971.329
505.287, 1976.799
505.769, 1973.504
506.251, 1959.339
506.733, 1936.617
507.215, 1907.897
507.698, 1870.635
508.180, 1841.045
508.662, 1829.151
509.144, 1832.803
509.626, 1837.136
510.108, 1842.530
510.590, 1846.299
511.072, 1847.381
511.554, 1844.870
512.036, 1835.104
512.519, 1812.467
513.001, 1789.532
513.483, 1783.540
513.965, 1789.135
514.447, 1789.491
514.929, 1765.513
515.411, 1740.744
515.893, 1734.124
516.375, 1749.910
516.858, 1762.027
517.340, 1759.326
517.822, 1750.085
518.304, 1741.904
518.786, 1757.621
519.268, 1746.881
519.750, 1727.099
520.232, 1742.219
520.715, 1748.867
521.197, 1747.498
521.679, 1714.104
522.161, 1721.503
522.643, 1712.222
523.125, 1704.366
523.607, 1696.542
524.089, 1694.019
524.571, 1708.485
525.054, 1737.869
525.536, 1752.695
526.018, 1741.658
526.500, 1720.654
526.982, 1719.185
527.464, 1732.677
527.946, 1738.911
528.429, 1717.603
528.911, 1686.345
529.393, 1664.120
529.875, 1652.235
530.357, 1647.642
530.839, 1657.859
531.321, 1670.065
531.803, 1671.337
532.286, 1639.734
532.768, 1619.794
533.250, 1632.752
533.732, 1665.963
534.214, 1684.896
534.696, 1676.161
535.178, 1664.565
535.660, 1656.206
536.142, 1651.179
536.625, 1649.003
537.107, 1650.841
537.589, 1653.706
538.071, 1655.808
538.553, 1657.398
539.035, 1654.613
539.517, 1645.111
539.999, 1634.212
540.481, 1633.853
540.964, 1642.612
541.446, 1648.062
541.928, 1640.243
542.410, 1626.811
542.892, 1620.286
543.374, 1620.424
543.856, 1622.260
544.338, 1623.721
544.820, 1624.369
545.303, 1623.285
545.785, 1618.657
546.267, 1615.902
546.749, 1620.889
547.231, 1628.481
547.713, 1630.268
548.195, 1619.094
548.677, 1607.688
549.159, 1596.797
549.642, 1586.937
550.124, 1586.868
550.606, 1604.061
551.088, 1620.112
551.570, 1623.408
552.052, 1611.407
552.534, 1600.030
553.016, 1589.291
553.499, 1580.065
553.981, 1573.438
554.463, 1569.335
554.945, 1567.516
555.427, 1568.219
555.909, 1570.850
556.391, 1576.176
556.873, 1583.367
557.356, 1587.608
557.838, 1587.085
558.320, 1581.554
558.802, 1566.485
559.284, 1538.961
559.766, 1522.472
560.248, 1541.996
560.730, 1572.154
561.213, 1586.834
561.695, 1565.956
562.177, 1547.088
562.659, 1534.855
563.141, 1528.456
563.623, 1525.494
564.105, 1523.783
564.587, 1529.578
565.069, 1549.661
565.552, 1584.285
566.034, 1596.387
566.516, 1581.086
566.998, 1560.337
567.480, 1554.624
567.962, 1561.866
568.444, 1566.250
568.926, 1564.877
569.408, 1562.039
569.891, 1564.129
570.373, 1569.288
570.855, 1572.615
571.337, 1571.271
571.819, 1567.651
572.301, 1561.877
572.783, 1554.709
573.265, 1550.838
573.747, 1554.223
574.230, 1559.987
574.712, 1567.428
575.194, 1582.654
575.676, 1582.247
576.158, 1550.058
576.640, 1509.851
577.122, 1485.494
577.604, 1480.547
578.086, 1483.436
578.569, 1496.798
579.051, 1514.623
579.533, 1514.373
580.015, 1493.325
580.497, 1480.584
580.979, 1502.074
581.461, 1543.705
581.943, 1551.833
582.426, 1526.310
582.908, 1495.958
583.390, 1483.849
583.872, 1483.046
584.354, 1482.594
584.836, 1477.838
585.318, 1479.556
585.800, 1506.809
586.282, 1541.987
586.765, 1557.455
587.247, 1524.598
587.729, 1492.355
588.211, 1474.152
588.693, 1469.591
589.175, 1468.366
589.657, 1471.708
590.140, 1476.847
590.622, 1484.605
591.104, 1497.024
591.586, 1494.811
592.068, 1472.544
592.550, 1449.884
593.032, 1454.362
593.514, 1481.169
593.996, 1490.254
594.479, 1467.872
594.961, 1437.268
595.443, 1432.032
595.925, 1445.386
596.407, 1456.970
596.889, 1455.139
597.371, 1449.082
597.853, 1446.419
598.335, 1446.631
598.818, 1442.690
599.300, 1421.251
599.782, 1402.749
600.264, 1401.004
600.746, 1427.767
601.228, 1446.361
601.710, 1455.286
602.192, 1456.920
602.674, 1453.350
603.157, 1443.663
603.639, 1431.071
604.121, 1414.445
604.603, 1396.874
605.085, 1385.176
605.567, 1379.278
606.049, 1379.771
606.531, 1391.666
607.013, 1408.551
607.496, 1417.297
607.978, 1418.395
608.460, 1420.086
608.942, 1433.054
609.424, 1446.609
609.906, 1449.085
610.388, 1434.849
610.870, 1421.674
611.353, 1415.192
611.835, 1413.263
612.317, 1413.203
612.799, 1417.487
613.281, 1419.876
613.763, 1418.141
614.245, 1414.475
614.727, 1416.679
615.209, 1427.808
615.692, 1434.610
616.174, 1429.170
616.656, 1414.543
617.138, 1409.266
617.620, 1413.650
618.102, 1419.050
618.584, 1419.299
619.067, 1415.597
619.549, 1409.211
620.031, 1399.452
620.513, 1391.668
620.995, 1389.757
621.477, 1392.035
621.959, 1396.302
622.441, 1408.016
622.923, 1414.753
623.406, 1406.973
623.888, 1391.453
624.370, 1388.312
624.852, 1409.932
625.334, 1426.259
625.816, 1428.206
626.298, 1416.512
626.780, 1400.743
627.263, 1378.079
627.745, 1362.664
628.227, 1369.840
628.709, 1394.154
629.191, 1408.061
629.673, 1408.970
630.155, 1405.330
630.637, 1403.156
631.119, 1402.776
631.602, 1405.449
632.084, 1416.146
632.566, 1422.389
633.048, 1413.367
633.530, 1395.337
634.012, 1380.393
634.494, 1368.428
634.976, 1363.348
635.458, 1369.186
635.941, 1384.260
636.423, 1395.682
636.905, 1404.386
637.387, 1407.589
637.869, 1401.379
638.351, 1385.336
638.833, 1377.238
639.315, 1378.004
639.797, 1381.122
640.280, 1383.477
640.762, 1383.075
641.244, 1372.262
641.726, 1345.704
642.208, 1320.789
642.690, 1316.249
643.172, 1323.404
643.654, 1328.739
644.137, 1320.668
644.619, 1317.006
645.101, 1327.700
645.583, 1349.107
646.065, 1364.447
646.547, 1372.299
647.029, 1374.861
647.511, 1370.326
647.994, 1358.875
648.476, 1359.146
648.958, 1375.324
649.440, 1387.539
649.922, 1373.354
650.404, 1339.753
650.886, 1325.771
651.368, 1335.823
651.851, 1354.079
652.333, 1368.624
652.815, 1379.727
653.297, 1387.469
653.779, 1391.223
654.261, 1392.754
654.743, 1392.655
655.225, 1391.026
655.707, 1388.035
656.190, 1384.507
656.672, 1378.581
657.154, 1367.351
657.636, 1352.726
658.118, 1346.789
658.600, 1351.676
659.082, 1359.426
659.564, 1367.575
660.046, 1375.724
660.529, 1380.996
661.011, 1383.431
661.493, 1382.182
661.975, 1370.989
662.457, 1357.186
662.939, 1355.465
663.421, 1370.797
663.903, 1384.766
664.385, 1385.751
664.868, 1378.581
665.350, 1368.805
665.832, 1349.688
666.314, 1337.846
666.796, 1338.286
667.278, 1347.110
667.760, 1358.493
668.242, 1376.302
668.724, 1387.063
669.207, 1383.872
669.689, 1371.796
670.171, 1374.880
670.653, 1393.349
671.135, 1409.024
671.617, 1408.449
672.099, 1398.256
672.581, 1389.017
673.064, 1381.153
673.546, 1376.616
674.028, 1380.184
674.510, 1385.577
674.992, 1385.770
675.474, 1375.099
675.956, 1373.581
676.438, 1401.509
676.920, 1431.626
677.403, 1435.867
677.885, 1394.845
678.367, 1373.686
678.849, 1384.512
679.331, 1409.675
679.813, 1416.740
680.295, 1405.880
680.778, 1393.807
681.260, 1382.992
681.742, 1377.160
682.224, 1388.046
682.706, 1410.620
683.188, 1426.102
683.670, 1412.137
684.152, 1396.809
684.634, 1405.055
685.117, 1436.282
685.599, 1454.326
686.081, 1433.585
686.563, 1411.728
687.045, 1409.499
687.527, 1433.574
688.009, 1444.576
688.491, 1438.635
688.973, 1427.090
689.456, 1418.579
689.938, 1413.205
690.420, 1412.129
690.902, 1415.378
691.384, 1423.303
