##NAMES=Walpurgite
##RRUFFID=R050573
##IDEAL CHEMISTRY=Bi^3+^_4_O_4_(U^6+^O_2_)(As^5+^O_4_)_2_&#183;2H_2_O
##LOCALITY=Joachimstal, Bohemia, Czech Republic
##OWNER=RRUFF
##SOURCE=University of Arizona Mineral Museum
##DESCRIPTION=Yellow thin tabular crystals associated with metazeunerite, R060301
##STATUS=The identification of this mineral has been confirmed by single-crystal X-ray diffraction.
##URL=rruff.info/R050573
92.06543, 129.8885
92.54755, 132.4862
93.02966, 133.7442
93.51178, 130.1130
93.99390, 126.1866
94.47601, 123.2044
94.95813, 121.1268
95.44025, 119.3407
95.92236, 117.3210
96.40448, 114.9759
96.88660, 113.4375
97.36871, 113.2477
97.85082, 113.3607
98.33294, 113.1039
98.81506, 112.3230
99.29717, 111.1063
99.77929, 110.0286
100.2614, 109.1097
100.7435, 108.1618
101.2256, 106.8848
101.7078, 105.5141
102.1899, 104.6671
102.6720, 104.6254
103.1541, 104.9264
103.6362, 105.1133
104.1183, 105.1836
104.6005, 105.1882
105.0826, 105.1107
105.5647, 104.9159
106.0468, 104.8744
106.5289, 105.1266
107.0110, 105.4572
107.4931, 105.7991
107.9753, 106.1279
108.4574, 106.3648
108.9395, 106.3279
109.4216, 105.7252
109.9037, 105.2890
110.3858, 105.2141
110.8680, 105.2811
111.3501, 105.2292
111.8322, 104.9061
112.3143, 104.3879
112.7964, 104.1723
113.2785, 104.3476
113.7607, 104.6916
114.2428, 105.2709
114.7249, 105.9965
115.2070, 106.6506
115.6891, 107.0308
116.1712, 107.1601
116.6534, 107.5554
117.1355, 108.3388
117.6176, 109.2852
118.0997, 110.1708
118.5818, 110.9662
119.0639, 111.9316
119.5461, 113.3941
120.0282, 115.2366
120.5103, 117.1815
120.9924, 119.1596
121.4745, 121.1794
121.9566, 123.2213
122.4388, 125.0736
122.9209, 127.3140
123.4030, 130.2826
123.8851, 133.8793
124.3672, 137.8128
124.8493, 141.7956
125.3315, 145.8120
125.8136, 150.2187
126.2957, 154.9380
126.7778, 160.1469
127.2599, 166.1628
127.7420, 172.8960
128.2242, 179.9604
128.7063, 186.7831
129.1884, 193.2377
129.6705, 199.7473
130.1526, 206.6279
130.6347, 213.4045
131.1169, 219.6644
131.5990, 225.2843
132.0811, 230.4664
132.5632, 235.6346
133.0453, 240.7065
133.5274, 245.9111
134.0096, 251.1292
134.4917, 256.5114
134.9738, 262.2797
135.4559, 268.5843
135.9380, 275.2964
136.4201, 281.8781
136.9023, 288.1018
137.3844, 294.5239
137.8665, 301.6053
138.3486, 309.1705
138.8307, 316.4100
139.3128, 322.5992
139.7950, 328.2037
140.2771, 334.2787
140.7592, 341.2281
141.2413, 348.3379
141.7234, 354.8502
142.2055, 360.6360
142.6877, 366.3534
143.1698, 372.7271
143.6519, 379.1215
144.1340, 384.7759
144.6161, 389.3600
145.0982, 393.0351
145.5803, 396.3754
146.0625, 400.0341
146.5446, 402.0776
147.0267, 402.0211
147.5088, 400.1880
147.9909, 397.1170
148.4730, 393.2343
148.9552, 388.4777
149.4373, 381.8848
149.9194, 372.3794
150.4015, 361.7250
150.8836, 349.8240
151.3657, 337.0562
151.8479, 323.9025
152.3300, 310.8572
152.8121, 297.7612
153.2942, 285.1512
153.7763, 272.8628
154.2584, 261.0092
154.7406, 249.4286
155.2227, 238.2342
155.7048, 227.7115
156.1869, 218.2156
156.6690, 210.0676
157.1511, 202.2821
157.6333, 194.6973
158.1154, 187.5438
158.5975, 181.1181
159.0796, 175.4862
159.5617, 170.4021
160.0438, 165.6189
160.5260, 161.1114
161.0081, 156.9478
161.4902, 153.1649
161.9723, 149.7505
162.4544, 146.7409
162.9365, 144.2758
163.4187, 142.0098
163.9008, 139.4771
164.3829, 136.6982
164.8650, 134.1230
165.3471, 132.0779
165.8292, 130.4993
166.3113, 129.0032
166.7935, 127.5289
167.2756, 126.1100
167.7577, 124.7156
168.2398, 123.3497
168.7219, 122.1419
169.2040, 121.2160
169.6862, 120.5821
170.1683, 120.1691
170.6504, 120.1895
171.1325, 120.2858
171.6146, 120.2723
172.0967, 120.1119
172.5789, 119.8857
173.0610, 119.6747
173.5431, 119.3755
174.0252, 119.3556
174.5073, 119.6875
174.9894, 120.2162
175.4716, 120.9013
175.9537, 121.7079
176.4358, 122.5329
176.9179, 123.1642
177.4000, 123.5203
177.8821, 123.7627
178.3643, 123.6688
178.8464, 123.5656
179.3285, 123.8553
179.8106, 124.7034
180.2927, 125.8552
180.7748, 126.6051
181.2570, 126.4872
181.7391, 126.5493
182.2212, 126.9648
182.7033, 127.6174
183.1854, 128.3519
183.6675, 129.1121
184.1497, 129.8781
184.6318, 130.5727
185.1139, 131.0725
185.5960, 131.6933
186.0781, 132.6900
186.5602, 133.9173
187.0423, 134.9490
187.5245, 135.5405
188.0066, 135.8291
188.4887, 136.1973
188.9708, 136.7001
189.4529, 137.1782
189.9350, 137.4581
190.4172, 137.5657
190.8993, 137.8292
191.3814, 138.6381
191.8635, 139.5399
192.3456, 139.8875
192.8277, 139.4795
193.3099, 138.7802
193.7920, 138.4046
194.2741, 138.4728
194.7562, 137.9501
195.2383, 135.8925
195.7204, 133.2343
196.2026, 130.6518
196.6847, 128.2829
197.1668, 126.1254
197.6489, 124.1948
198.1310, 122.5467
198.6131, 120.9805
199.0953, 119.3812
199.5774, 117.8479
200.0595, 116.5038
200.5416, 115.3951
201.0237, 114.4518
201.5058, 113.5193
201.9880, 112.5245
202.4701, 111.6839
202.9522, 111.0094
203.4343, 110.4915
203.9164, 110.1954
204.3985, 110.1590
204.8807, 110.2284
205.3628, 109.9277
205.8449, 108.8942
206.3270, 107.9353
206.8091, 107.2137
207.2912, 106.5895
207.7733, 105.9107
208.2555, 105.1053
208.7376, 104.1808
209.2197, 103.1619
209.7018, 101.8336
210.1839, 100.6522
210.6660, 99.71004
211.1482, 98.93664
211.6303, 98.25902
212.1124, 97.64825
212.5945, 97.07244
213.0766, 96.37426
213.5587, 95.45750
214.0409, 94.54607
214.5230, 93.66760
215.0051, 92.82446
215.4872, 91.98455
215.9693, 91.10949
216.4514, 90.26439
216.9336, 89.73472
217.4157, 89.79031
217.8978, 89.73542
218.3799, 89.18677
218.8620, 88.33921
219.3441, 87.70924
219.8263, 87.61550
220.3084, 87.82326
220.7905, 87.66909
221.2726, 86.93651
221.7547, 86.25835
222.2368, 86.01109
222.7190, 86.10287
223.2011, 86.16788
223.6832, 86.07176
224.1653, 85.83189
224.6474, 85.49366
225.1295, 84.99208
225.6117, 84.54610
226.0938, 84.30399
226.5759, 84.25282
227.0580, 84.31966
227.5401, 84.66029
228.0222, 84.95320
228.5043, 84.73277
228.9865, 83.84240
229.4686, 82.98257
229.9507, 82.89799
230.4328, 83.58077
230.9149, 83.97617
231.3970, 83.45664
231.8792, 82.73633
232.3613, 82.46713
232.8434, 82.74965
233.3255, 83.13168
233.8076, 83.12195
234.2897, 82.67547
234.7719, 82.37204
235.2540, 82.62626
235.7361, 82.87031
236.2182, 82.65945
236.7003, 81.94776
237.1824, 81.17738
237.6646, 80.87450
238.1467, 81.14121
238.6288, 81.29044
239.1109, 81.13705
239.5930, 80.89987
240.0751, 80.64365
240.5573, 80.39381
241.0394, 80.19958
241.5215, 80.14844
242.0036, 80.29499
242.4857, 80.35813
242.9678, 80.27706
243.4500, 80.14663
243.9321, 79.96694
244.4142, 79.76274
244.8963, 79.60938
245.3784, 79.63747
245.8605, 79.95877
246.3427, 80.04485
246.8248, 79.53652
247.3069, 79.10873
247.7890, 79.19918
248.2711, 79.75637
248.7532, 80.35365
249.2354, 80.50048
249.7175, 80.01244
250.1996, 79.87519
250.6817, 80.37843
251.1638, 80.92849
251.6459, 81.16662
252.1281, 81.15255
252.6102, 81.23694
253.0923, 81.79665
253.5744, 82.94498
254.0565, 83.84935
254.5386, 84.45230
255.0208, 84.91623
255.5029, 85.28992
255.9850, 85.58667
256.4671, 85.79480
256.9492, 85.87556
257.4313, 85.79308
257.9135, 86.02534
258.3956, 86.74484
258.8777, 87.53332
259.3598, 88.24412
259.8419, 88.87514
260.3240, 89.48656
260.8062, 90.13097
261.2883, 90.80823
261.7704, 91.36504
262.2525, 91.89953
262.7346, 92.25829
263.2167, 92.14272
263.6989, 91.76748
264.1810, 91.72514
264.6631, 92.45756
265.1452, 93.84422
265.6273, 94.79740
266.1094, 95.03626
266.5916, 95.24091
267.0737, 95.65580
267.5558, 96.22049
268.0379, 96.78791
268.5200, 97.28882
269.0021, 97.72095
269.4843, 98.07581
269.9664, 98.36277
270.4485, 98.58269
270.9306, 98.76570
271.4127, 98.88044
271.8948, 98.84502
272.3770, 98.60471
272.8591, 98.22617
273.3412, 97.87244
273.8233, 97.56786
274.3054, 97.23463
274.7875, 96.87698
275.2697, 96.47240
275.7518, 95.95170
276.2339, 95.26311
276.7160, 94.52013
277.1981, 93.98238
277.6802, 93.70271
278.1623, 93.32214
278.6444, 92.60791
279.1266, 91.75359
279.6087, 91.10006
280.0908, 90.75075
280.5729, 90.55473
281.0550, 90.31020
281.5371, 90.01044
282.0193, 89.78909
282.5014, 89.77659
282.9835, 89.83052
283.4656, 89.69889
283.9477, 89.30655
284.4298, 88.91907
284.9120, 88.91508
285.3941, 89.22945
285.8762, 89.35190
286.3583, 88.98785
286.8404, 88.46436
287.3225, 88.19044
287.8047, 88.21785
288.2868, 88.34107
288.7689, 88.42480
289.2510, 88.47412
289.7331, 88.50886
290.2152, 88.55289
290.6974, 88.57043
291.1795, 88.55018
291.6616, 88.49419
292.1437, 88.30873
292.6258, 87.77773
293.1079, 87.10909
293.5901, 86.80430
294.0722, 87.22002
294.5543, 87.67028
295.0364, 87.58614
295.5185, 86.98450
296.0006, 86.15551
296.4828, 85.09759
296.9649, 83.96526
297.4470, 83.03249
297.9291, 82.36358
298.4112, 81.76222
298.8933, 81.10078
299.3755, 80.39087
299.8576, 79.67397
300.3397, 78.91245
300.8218, 78.21391
301.3039, 77.74412
301.7860, 77.54105
302.2682, 77.29105
302.7503, 76.73905
303.2324, 75.98421
303.7145, 75.36858
304.1966, 74.98091
304.6787, 74.72630
305.1609, 74.51462
305.6430, 74.34148
306.1251, 74.19347
306.6072, 74.03740
307.0893, 73.90569
307.5714, 73.92103
308.0536, 74.17836
308.5357, 74.35337
309.0178, 73.96741
309.4999, 73.24488
309.9820, 72.81941
310.4641, 73.09292
310.9463, 73.70328
311.4284, 74.15499
311.9105, 74.43410
312.3926, 74.56314
312.8747, 74.41798
313.3568, 74.15134
313.8390, 74.03769
314.3211, 74.15610
314.8032, 74.41917
315.2853, 74.81028
315.7674, 75.33292
316.2495, 75.73968
316.7317, 75.87601
317.2138, 75.84431
317.6959, 75.77971
318.1780, 75.63466
318.6601, 75.60488
319.1422, 75.93301
319.6243, 76.55960
320.1064, 77.06137
320.5886, 77.28835
321.0707, 77.34850
321.5528, 77.33252
322.0349, 77.22060
322.5170, 77.26859
322.9991, 77.77933
323.4813, 78.56344
323.9634, 79.07704
324.4455, 79.17973
324.9276, 79.08008
325.4097, 78.94131
325.8918, 78.77061
326.3740, 78.60007
326.8561, 78.44145
327.3382, 78.29002
327.8203, 78.15646
328.3024, 78.05629
328.7845, 77.89786
329.2667, 77.57335
329.7488, 77.13601
330.2309, 76.71049
330.7130, 76.31999
331.1951, 75.95203
331.6772, 75.61028
332.1594, 75.29372
332.6415, 74.94759
333.1236, 74.53120
333.6057, 74.06645
334.0878, 73.56406
334.5699, 72.86626
335.0521, 72.42488
335.5342, 72.77865
336.0163, 73.71420
336.4984, 74.27750
336.9805, 74.01063
337.4626, 73.40091
337.9448, 73.20310
338.4269, 73.43818
338.9090, 73.77403
339.3911, 74.12834
339.8732, 74.48606
340.3553, 74.79678
340.8375, 75.03404
341.3196, 75.29055
341.8017, 75.68346
342.2838, 76.19946
342.7659, 76.74107
343.2480, 77.29262
343.7302, 77.85992
344.2123, 78.44652
344.6944, 79.05031
345.1765, 79.67635
345.6586, 80.34805
346.1407, 81.04543
346.6229, 81.67028
347.1050, 82.18666
347.5871, 82.65578
348.0692, 83.03195
348.5513, 83.36560
349.0334, 83.87280
349.5156, 84.68150
349.9977, 85.70271
350.4798, 86.72015
350.9619, 87.88837
351.4440, 88.76674
351.9261, 88.95822
352.4083, 88.81887
352.8904, 88.94919
353.3725, 89.54028
353.8546, 90.35701
354.3367, 91.07613
354.8188, 91.66477
355.3010, 92.29314
355.7831, 93.11926
356.2652, 93.90149
356.7473, 94.32542
357.2294, 94.39266
357.7115, 94.53173
358.1937, 95.20464
358.6758, 96.43861
359.1579, 97.04562
359.6400, 96.62730
360.1221, 96.04052
360.6042, 95.61717
361.0863, 95.35924
361.5685, 95.22945
362.0506, 95.22654
362.5327, 95.29823
363.0148, 95.22443
363.4969, 94.98087
363.9790, 94.63618
364.4612, 94.13157
364.9433, 93.55563
365.4254, 93.08504
365.9075, 92.76785
366.3896, 92.37938
366.8717, 91.51308
367.3539, 89.70715
367.8360, 88.50317
368.3181, 88.42581
368.8002, 88.50510
369.2823, 88.13222
369.7644, 87.25765
370.2466, 86.11528
370.7287, 84.87007
371.2108, 83.50191
371.6929, 82.40821
372.1750, 81.72738
372.6571, 81.14656
373.1393, 80.59435
373.6214, 80.07293
374.1035, 79.62438
374.5856, 79.28371
375.0677, 78.97395
375.5498, 78.42503
376.0320, 77.35737
376.5141, 76.46153
376.9962, 75.85413
377.4783, 75.39404
377.9604, 74.97543
378.4425, 74.56479
378.9247, 74.18208
379.4068, 73.85635
379.8889, 73.59907
380.3710, 73.36036
380.8531, 73.16985
381.3352, 72.97128
381.8174, 72.75983
382.2995, 72.52126
382.7816, 72.21223
383.2637, 71.75440
383.7458, 71.19775
384.2279, 70.92613
384.7101, 71.21513
385.1922, 71.36937
385.6743, 71.16458
386.1564, 70.73397
386.6385, 70.16998
387.1206, 69.47440
387.6028, 68.85676
388.0849, 68.74992
388.5670, 69.30834
389.0491, 69.63644
389.5312, 69.21948
390.0133, 68.72327
390.4955, 68.60594
390.9776, 68.88860
391.4597, 69.25079
391.9418, 69.50447
392.4239, 69.64425
392.9060, 69.60168
393.3882, 69.26425
393.8703, 68.93438
394.3524, 68.85590
394.8345, 68.92824
395.3166, 68.93613
395.7987, 68.77615
396.2809, 68.53159
396.7630, 68.29771
397.2451, 68.07043
397.7272, 67.89548
398.2093, 67.84054
398.6914, 67.82113
399.1736, 67.66117
399.6557, 67.26330
400.1378, 67.02293
400.6199, 67.32756
401.1020, 67.97285
401.5841, 68.41721
402.0662, 68.53573
402.5483, 68.42879
403.0305, 68.12843
403.5126, 67.64896
403.9947, 67.23560
404.4768, 66.84135
404.9589, 66.59084
405.4410, 66.69530
405.9232, 67.12337
406.4053, 67.54044
406.8874, 67.74953
407.3695, 67.75942
407.8516, 67.64522
408.3337, 67.16550
408.8159, 66.85767
409.2980, 67.03185
409.7801, 67.45064
410.2622, 67.73003
410.7443, 67.73903
411.2264, 67.60029
411.7086, 67.48850
412.1907, 67.32433
412.6728, 67.42778
413.1549, 68.23055
413.6370, 68.95158
414.1191, 68.91596
414.6013, 68.23487
415.0834, 67.58123
415.5655, 67.51610
416.0476, 67.99105
416.5297, 68.16570
417.0118, 67.66883
417.4940, 67.28783
417.9761, 67.04676
418.4582, 67.03340
418.9403, 67.49142
419.4224, 68.49216
419.9045, 69.57776
420.3867, 69.86976
420.8688, 68.93674
421.3509, 68.35702
421.8330, 68.36900
422.3151, 68.58192
422.7972, 68.91459
423.2794, 69.28698
423.7615, 69.53590
424.2436, 69.47703
424.7257, 69.17544
425.2078, 69.09611
425.6899, 69.41549
426.1721, 69.64735
426.6542, 69.53432
427.1363, 69.28139
427.6184, 69.15528
428.1005, 69.26333
428.5826, 69.39195
429.0648, 69.20657
429.5469, 68.69904
430.0290, 68.42839
430.5111, 68.75083
430.9932, 69.08212
431.4753, 68.84165
431.9575, 68.09914
432.4396, 67.42724
432.9217, 67.12904
433.4038, 67.06535
433.8859, 67.01698
434.3680, 66.97514
434.8502, 66.94492
435.3323, 66.98974
435.8144, 67.02848
436.2965, 66.84829
436.7786, 66.28395
437.2607, 65.73974
437.7429, 65.43729
438.2250, 65.31696
438.7071, 65.29775
439.1892, 65.38686
439.6713, 65.39468
440.1534, 64.96871
440.6356, 63.91927
441.1177, 63.33990
441.5998, 63.69532
442.0819, 64.21847
442.5640, 64.35575
443.0461, 64.13577
443.5282, 63.87354
444.0103, 63.77391
444.4925, 63.81438
444.9746, 63.87216
445.4567, 64.01257
445.9388, 64.08846
446.4209, 64.05425
446.9030, 63.96339
447.3852, 63.81950
447.8673, 63.64543
448.3494, 63.55772
448.8315, 63.74489
449.3136, 64.30084
449.7957, 64.65633
450.2779, 64.61497
450.7600, 64.56360
451.2421, 64.60130
451.7242, 64.72931
452.2063, 64.94505
452.6884, 65.26484
453.1706, 65.61974
453.6527, 65.84801
454.1348, 65.93935
454.6169, 65.93372
455.0990, 65.65703
455.5811, 65.40921
456.0633, 65.46189
456.5454, 65.82040
457.0275, 66.15942
457.5096, 66.15202
457.9917, 65.92413
458.4738, 65.95238
458.9560, 66.33221
459.4381, 66.78265
459.9202, 67.23473
460.4023, 67.60801
460.8844, 67.69556
461.3665, 67.21795
461.8487, 66.79595
462.3308, 67.01104
462.8129, 67.69019
463.2950, 68.23701
463.7771, 68.46890
464.2592, 68.47939
464.7414, 68.31355
465.2235, 67.90252
465.7056, 67.79868
466.1877, 68.25096
466.6698, 68.89065
467.1519, 69.53197
467.6341, 70.11381
468.1162, 70.47794
468.5983, 70.49169
469.0804, 70.25483
469.5625, 70.22546
470.0446, 70.52747
470.5268, 70.88867
471.0089, 71.30866
471.4910, 71.76878
471.9731, 72.27644
472.4552, 72.81901
472.9373, 73.34163
473.4195, 73.80714
473.9016, 74.22747
474.3837, 74.41325
474.8658, 73.93068
475.3479, 73.69608
475.8300, 74.16290
476.3122, 74.97077
476.7943, 75.58450
477.2764, 75.76509
477.7585, 75.78897
478.2406, 76.12317
478.7227, 76.81528
479.2049, 77.37420
479.6870, 77.68446
480.1691, 77.85603
480.6512, 77.85425
481.1333, 77.75224
481.6154, 77.87222
482.0976, 78.46402
482.5797, 79.32900
483.0618, 80.21379
483.5439, 81.11962
484.0260, 81.91591
484.5081, 82.50586
484.9902, 82.96964
485.4724, 83.45674
485.9545, 83.89961
486.4366, 84.54700
486.9187, 85.62229
487.4008, 86.89488
487.8829, 88.04323
488.3651, 89.02432
488.8472, 90.01076
489.3293, 91.16796
489.8114, 92.49960
490.2935, 93.63879
490.7756, 94.21706
491.2578, 95.06353
491.7399, 96.46898
492.2220, 98.25175
492.7041, 100.2039
493.1862, 102.2399
493.6683, 104.3329
494.1505, 106.4521
494.6326, 108.6042
495.1147, 110.7326
495.5968, 112.7376
496.0789, 114.8046
496.5610, 117.0740
497.0432, 119.4431
497.5253, 121.7217
498.0074, 123.7739
498.4895, 125.7323
498.9716, 127.8635
499.4537, 130.2133
499.9359, 132.4653
500.4180, 134.5755
500.9001, 136.5512
501.3822, 138.3346
501.8643, 139.9589
502.3464, 141.6428
502.8286, 143.6369
503.3107, 145.6997
503.7928, 147.4617
504.2749, 148.9077
504.7570, 150.2987
505.2391, 151.7948
505.7213, 153.3100
506.2034, 154.5925
506.6855, 155.6160
507.1676, 156.5112
507.6497, 157.4163
508.1318, 158.1565
508.6140, 158.5262
509.0961, 158.5014
509.5782, 158.1780
510.0603, 157.6329
510.5424, 156.8684
511.0245, 155.8928
511.5067, 154.8716
511.9888, 153.4356
512.4709, 151.4591
512.9530, 149.0634
513.4351, 146.3806
513.9172, 143.4395
514.3994, 140.1880
514.8815, 136.4761
515.3636, 132.2443
515.8457, 128.1771
516.3278, 124.3568
516.8099, 120.5761
517.2921, 116.6056
517.7742, 112.6675
518.2563, 109.1648
518.7384, 106.3038
519.2205, 103.6024
519.7026, 100.4442
520.1848, 96.91007
520.6669, 93.63163
521.1490, 90.75782
521.6311, 88.13243
522.1132, 85.59914
522.5953, 83.17445
523.0775, 81.11846
523.5596, 79.70615
524.0417, 78.48017
524.5238, 77.14300
525.0059, 75.74161
525.4880, 74.43082
525.9702, 73.28765
526.4523, 72.20255
526.9344, 70.94296
527.4165, 69.30737
527.8986, 68.07831
528.3807, 67.54953
528.8629, 67.11481
529.3450, 66.44939
529.8271, 65.60799
530.3092, 64.78213
530.7913, 64.07770
531.2734, 63.46645
531.7556, 62.86568
532.2377, 62.24375
532.7198, 61.72770
533.2019, 61.46585
533.6840, 61.21010
534.1661, 60.80822
534.6483, 60.27832
535.1304, 59.73810
535.6125, 59.22004
536.0946, 58.75188
536.5767, 58.40706
537.0588, 58.19227
537.5410, 57.95090
538.0231, 57.59687
538.5052, 57.21083
538.9873, 56.92141
539.4694, 56.73270
539.9515, 56.57385
540.4337, 56.40247
540.9158, 56.26618
541.3979, 56.27504
541.8800, 56.38992
542.3621, 56.40031
542.8442, 56.17081
543.3264, 55.75566
543.8085, 55.33693
544.2906, 54.87822
544.7726, 54.47325
545.2548, 54.12692
545.7369, 53.83165
546.2190, 53.56181
546.7011, 53.33377
547.1832, 53.22080
547.6653, 53.31701
548.1475, 53.53816
548.6296, 53.50825
549.1117, 53.08407
549.5938, 52.78673
550.0759, 52.92218
550.5580, 53.14090
551.0402, 53.19776
551.5223, 53.07190
552.0044, 52.85727
552.4865, 52.53306
552.9686, 52.18212
553.4507, 51.98481
553.9329, 51.94910
554.4150, 51.85406
554.8971, 51.52597
555.3792, 51.10894
555.8613, 51.02535
556.3434, 51.49052
556.8256, 51.68726
557.3077, 51.17826
557.7898, 50.52930
558.2719, 50.29372
558.7540, 50.45205
559.2361, 50.61229
559.7183, 50.48002
560.2004, 50.17665
560.6825, 50.26277
561.1646, 51.29251
561.6467, 51.74323
562.1288, 51.06776
562.6110, 50.15940
563.0931, 49.60329
563.5752, 49.43319
564.0573, 49.38930
564.5394, 49.31672
565.0215, 49.22798
565.5037, 49.14181
565.9858, 49.04877
566.4679, 49.03224
566.9500, 49.22737
567.4321, 49.42295
567.9142, 49.31606
568.3964, 48.88479
568.8785, 48.48018
569.3606, 48.13668
569.8427, 47.93158
570.3248, 48.05082
570.8069, 48.41914
571.2891, 48.65826
571.7712, 48.54244
572.2533, 48.22565
572.7354, 48.09519
573.2175, 48.32289
573.6996, 48.43592
574.1818, 48.46260
574.6639, 48.35804
575.1460, 47.98571
575.6281, 47.45771
576.1102, 47.04539
576.5923, 46.91289
577.0745, 46.97025
577.5566, 47.06611
578.0387, 47.23872
578.5208, 47.22520
579.0029, 46.76677
579.4850, 46.32760
579.9672, 46.27866
580.4493, 46.55395
580.9314, 46.85982
581.4135, 47.22570
581.8956, 47.46334
582.3777, 47.30137
582.8599, 46.83630
583.3420, 46.38206
583.8241, 46.00923
584.3062, 45.87230
584.7883, 46.26849
585.2704, 47.41392
585.7526, 47.98662
586.2347, 47.52666
586.7168, 47.02936
587.1989, 46.94075
587.6810, 47.09443
588.1631, 47.18660
