##NAMES=Walpurgite
##RRUFFID=R050573
##IDEAL CHEMISTRY=Bi^3+^_4_O_4_(U^6+^O_2_)(As^5+^O_4_)_2_&#183;2H_2_O
##LOCALITY=Joachimstal, Bohemia, Czech Republic
##OWNER=RRUFF
##SOURCE=University of Arizona Mineral Museum
##DESCRIPTION=Yellow thin tabular crystals associated with metazeunerite, R060301
##STATUS=The identification of this mineral has been confirmed by single-crystal X-ray diffraction.
##URL=rruff.info/R050573
91.11523, 51.24083
91.59735, 50.13372
92.07947, 50.98169
92.56158, 53.23938
93.04370, 55.19384
93.52582, 55.43750
94.00793, 54.71603
94.49006, 54.73377
94.97218, 55.85066
95.45429, 57.32082
95.93641, 57.93379
96.41853, 57.70726
96.90064, 57.36857
97.38276, 57.45445
97.86488, 57.92210
98.34699, 58.29710
98.82911, 58.47894
99.31123, 58.52966
99.79334, 58.60937
100.2755, 58.68641
100.7576, 58.90039
101.2397, 59.45502
101.7218, 60.46130
102.2039, 61.30924
102.6861, 61.89527
103.1682, 62.22361
103.6503, 62.20086
104.1324, 61.54968
104.6145, 60.85307
105.0966, 60.84261
105.5788, 61.85091
106.0609, 62.97902
106.5430, 64.02685
107.0251, 65.01978
107.5072, 65.84431
107.9893, 66.07192
108.4715, 66.24326
108.9536, 67.32439
109.4357, 69.84528
109.9178, 72.81639
110.3999, 75.94994
110.8820, 78.93605
111.3642, 82.54568
111.8463, 86.98963
112.3284, 92.11170
112.8105, 97.49767
113.2926, 102.6492
113.7747, 108.4371
114.2569, 115.2345
114.7390, 122.8833
115.2211, 131.8416
115.7032, 142.0308
116.1853, 153.5148
116.6674, 166.5600
117.1496, 181.1834
117.6317, 197.6364
118.1138, 215.9697
118.5959, 235.4833
119.0780, 257.6448
119.5602, 283.0475
120.0423, 311.8874
120.5244, 343.5839
121.0065, 378.8807
121.4886, 416.6593
121.9707, 455.6122
122.4529, 495.8271
122.9350, 536.1918
123.4171, 575.0741
123.8992, 612.2252
124.3813, 650.2407
124.8634, 691.5140
125.3456, 735.2871
125.8277, 780.0308
126.3098, 824.3686
126.7919, 869.0040
127.2740, 914.0543
127.7561, 959.0364
128.2383, 1006.443
128.7204, 1058.675
129.2025, 1115.717
129.6846, 1177.489
130.1667, 1244.730
130.6488, 1316.133
131.1310, 1391.667
131.6131, 1471.075
132.0952, 1554.932
132.5773, 1645.468
133.0594, 1743.178
133.5415, 1842.672
134.0237, 1940.930
134.5058, 2038.588
134.9879, 2138.212
135.4700, 2241.897
135.9521, 2347.470
136.4343, 2451.642
136.9164, 2554.876
137.3985, 2656.158
137.8806, 2754.895
138.3627, 2851.276
138.8448, 2948.927
139.3270, 3049.822
139.8091, 3154.200
140.2912, 3259.001
140.7733, 3364.173
141.2554, 3471.557
141.7375, 3580.766
142.2197, 3690.944
142.7018, 3808.425
143.1839, 3935.774
143.6660, 4072.952
144.1481, 4212.751
144.6302, 4355.995
145.1124, 4500.146
145.5945, 4639.962
146.0766, 4779.669
146.5587, 4911.150
147.0408, 5034.588
147.5230, 5153.212
148.0051, 5248.875
148.4872, 5296.547
148.9693, 5290.621
149.4514, 5266.660
149.9335, 5225.714
150.4157, 5167.554
150.8978, 5093.064
151.3799, 4997.849
151.8620, 4894.852
152.3441, 4780.521
152.8262, 4658.620
153.3084, 4538.472
153.7905, 4419.776
154.2726, 4303.688
154.7547, 4188.461
155.2368, 4072.737
155.7189, 3963.002
156.2011, 3859.045
156.6832, 3760.596
157.1653, 3670.146
157.6474, 3588.247
158.1295, 3513.741
158.6116, 3446.078
159.0938, 3386.347
159.5759, 3331.284
160.0580, 3279.540
160.5401, 3231.482
161.0222, 3188.665
161.5044, 3154.293
161.9865, 3123.575
162.4686, 3093.177
162.9507, 3059.852
163.4328, 3029.345
163.9149, 3003.536
164.3971, 2981.982
164.8792, 2963.951
165.3613, 2951.659
165.8434, 2941.548
166.3255, 2930.303
166.8076, 2915.047
167.2898, 2900.191
167.7719, 2888.621
168.2540, 2880.012
168.7361, 2871.447
169.2182, 2859.628
169.7003, 2847.352
170.1825, 2837.955
170.6646, 2834.842
171.1467, 2833.552
171.6288, 2830.410
172.1109, 2825.482
172.5931, 2820.555
173.0752, 2816.613
173.5573, 2813.511
174.0394, 2811.036
174.5215, 2808.503
175.0036, 2806.810
175.4858, 2807.471
175.9679, 2810.531
176.4500, 2813.903
176.9321, 2816.015
177.4142, 2817.132
177.8963, 2817.830
178.3785, 2818.128
178.8606, 2818.260
179.3427, 2818.663
179.8248, 2819.392
180.3069, 2820.035
180.7890, 2819.892
181.2712, 2819.243
181.7533, 2818.974
182.2354, 2820.221
182.7175, 2822.043
183.1996, 2822.072
183.6818, 2819.977
184.1639, 2817.479
184.6460, 2816.325
185.1281, 2816.427
185.6102, 2817.305
186.0923, 2819.899
186.5745, 2823.228
187.0566, 2823.340
187.5387, 2819.375
188.0208, 2814.858
188.5029, 2814.985
188.9850, 2819.446
189.4672, 2824.210
189.9493, 2827.068
190.4314, 2828.458
190.9135, 2830.803
191.3956, 2834.403
191.8777, 2838.552
192.3599, 2842.923
192.8420, 2847.503
193.3241, 2850.354
193.8062, 2850.265
194.2883, 2847.348
194.7704, 2842.813
195.2526, 2836.297
195.7347, 2828.825
196.2168, 2822.365
196.6989, 2816.958
197.1810, 2811.386
197.6632, 2804.644
198.1453, 2796.650
198.6274, 2789.606
199.1095, 2783.604
199.5916, 2778.585
200.0737, 2774.581
200.5559, 2771.626
201.0380, 2769.484
201.5201, 2768.286
202.0022, 2768.139
202.4843, 2767.945
202.9664, 2767.683
203.4486, 2767.424
203.9307, 2767.257
204.4128, 2767.214
204.8949, 2767.316
205.3770, 2768.146
205.8591, 2770.148
206.3413, 2769.453
206.8234, 2765.257
207.3055, 2758.626
207.7876, 2752.041
208.2697, 2745.292
208.7519, 2739.135
209.2340, 2734.052
209.7161, 2730.233
210.1982, 2726.324
210.6803, 2722.274
211.1624, 2718.065
211.6446, 2713.489
212.1267, 2708.273
212.6088, 2703.548
213.0909, 2700.124
213.5730, 2698.530
214.0551, 2696.343
214.5373, 2693.250
215.0194, 2689.663
215.5015, 2686.519
215.9836, 2683.704
216.4657, 2681.630
216.9478, 2680.764
217.4300, 2681.850
217.9121, 2681.565
218.3942, 2679.237
218.8763, 2675.560
219.3584, 2672.438
219.8405, 2669.418
220.3227, 2667.658
220.8048, 2668.269
221.2869, 2672.951
221.7690, 2674.784
222.2511, 2672.298
222.7333, 2667.159
223.2154, 2664.374
223.6975, 2664.814
224.1796, 2666.177
224.6617, 2667.604
225.1438, 2669.636
225.6260, 2670.441
226.1081, 2669.684
226.5902, 2667.846
227.0723, 2665.918
227.5544, 2662.679
228.0365, 2661.343
228.5187, 2664.073
229.0008, 2673.951
229.4829, 2680.120
229.9650, 2681.064
230.4471, 2678.560
230.9292, 2677.199
231.4114, 2676.644
231.8935, 2677.564
232.3756, 2680.604
232.8577, 2687.648
233.3398, 2692.182
233.8220, 2693.325
234.3041, 2692.203
234.7862, 2691.560
235.2683, 2691.679
235.7504, 2691.886
236.2325, 2691.945
236.7147, 2691.890
237.1968, 2691.883
237.6789, 2692.383
238.1610, 2692.894
238.6431, 2692.164
239.1252, 2689.541
239.6074, 2686.846
240.0895, 2684.817
240.5716, 2683.784
241.0537, 2682.617
241.5358, 2681.281
242.0179, 2679.813
242.5001, 2678.102
242.9822, 2675.235
243.4643, 2673.485
243.9464, 2673.877
244.4285, 2677.248
244.9106, 2679.644
245.3928, 2680.386
245.8749, 2680.442
246.3570, 2681.664
246.8391, 2684.948
247.3212, 2687.751
247.8034, 2689.259
248.2855, 2689.323
248.7676, 2688.551
249.2497, 2686.113
249.7318, 2683.501
250.2139, 2683.116
250.6961, 2686.083
251.1782, 2689.380
251.6603, 2692.315
252.1424, 2694.962
252.6245, 2697.038
253.1066, 2698.188
253.5888, 2699.163
254.0709, 2701.011
254.5530, 2704.162
255.0351, 2707.290
255.5172, 2709.786
255.9993, 2711.476
256.4815, 2714.570
256.9636, 2719.942
257.4457, 2725.706
257.9278, 2729.550
258.4099, 2730.431
258.8921, 2731.731
259.3742, 2734.110
259.8563, 2737.543
260.3384, 2742.276
260.8205, 2748.868
261.3026, 2755.957
261.7848, 2762.074
262.2669, 2766.445
262.7490, 2771.876
263.2311, 2779.006
263.7132, 2787.774
264.1953, 2797.137
264.6775, 2807.830
265.1596, 2817.794
265.6417, 2824.555
266.1238, 2826.562
266.6059, 2830.718
267.0880, 2838.552
267.5702, 2849.618
268.0523, 2860.421
268.5344, 2871.154
269.0165, 2881.522
269.4986, 2891.261
269.9807, 2900.239
270.4629, 2909.730
270.9450, 2920.350
271.4271, 2931.538
271.9092, 2940.190
272.3913, 2945.404
272.8734, 2950.616
273.3556, 2958.281
273.8377, 2968.749
274.3198, 2979.100
274.8019, 2989.067
275.2840, 2998.832
275.7661, 3008.891
276.2483, 3019.088
276.7304, 3030.087
277.2125, 3042.628
277.6946, 3056.987
278.1768, 3069.681
278.6589, 3080.277
279.1410, 3089.463
279.6231, 3097.770
280.1052, 3104.861
280.5873, 3114.096
281.0695, 3128.353
281.5516, 3147.605
282.0337, 3164.108
282.5158, 3177.103
282.9979, 3188.544
283.4800, 3201.280
283.9622, 3215.305
284.4443, 3230.150
284.9264, 3245.986
285.4085, 3262.510
285.8906, 3278.337
286.3727, 3293.218
286.8549, 3308.114
287.3370, 3324.504
287.8191, 3342.291
288.3012, 3360.104
288.7833, 3378.720
289.2654, 3396.787
289.7476, 3408.687
290.2297, 3413.925
290.7118, 3417.089
291.1939, 3423.036
291.6760, 3431.278
292.1581, 3439.273
292.6403, 3447.744
293.1224, 3454.707
293.6045, 3454.939
294.0866, 3448.440
294.5687, 3439.173
295.0508, 3430.874
295.5330, 3422.639
296.0151, 3411.293
296.4972, 3394.973
296.9793, 3376.261
297.4614, 3360.932
297.9435, 3348.307
298.4257, 3333.780
298.9078, 3313.328
299.3899, 3288.609
299.8720, 3263.418
300.3541, 3237.713
300.8362, 3212.660
301.3184, 3190.083
301.8005, 3169.366
302.2826, 3148.940
302.7647, 3127.351
303.2469, 3105.471
303.7290, 3083.921
304.2111, 3062.820
304.6932, 3042.614
305.1753, 3024.451
305.6574, 3007.796
306.1396, 2992.119
306.6217, 2977.301
307.1038, 2963.019
307.5859, 2948.801
308.0680, 2934.431
308.5501, 2920.667
309.0323, 2907.073
309.5144, 2894.572
309.9965, 2884.680
310.4786, 2880.405
310.9607, 2877.162
311.4428, 2871.096
311.9250, 2862.293
312.4071, 2854.023
312.8892, 2849.036
313.3713, 2845.487
313.8534, 2841.400
314.3355, 2835.357
314.8177, 2829.374
315.2998, 2824.529
315.7819, 2820.685
316.2640, 2816.974
316.7461, 2811.796
317.2282, 2807.306
317.7104, 2805.316
318.1925, 2808.509
318.6746, 2810.796
319.1567, 2809.437
319.6388, 2805.504
320.1209, 2801.900
320.6031, 2798.402
321.0852, 2796.298
321.5673, 2796.536
322.0494, 2800.467
322.5315, 2803.904
323.0136, 2804.977
323.4958, 2805.232
323.9779, 2807.175
324.4600, 2813.348
324.9421, 2819.441
325.4242, 2823.796
325.9064, 2825.861
326.3885, 2828.597
326.8706, 2833.962
327.3527, 2839.431
327.8348, 2842.416
328.3170, 2839.530
328.7991, 2837.677
329.2812, 2838.543
329.7633, 2842.213
330.2454, 2844.266
330.7275, 2845.562
331.2097, 2844.421
331.6918, 2839.335
332.1739, 2826.777
332.6560, 2815.820
333.1381, 2808.126
333.6202, 2802.817
334.1024, 2795.821
334.5845, 2785.120
335.0666, 2775.793
335.5487, 2770.961
336.0308, 2772.644
336.5129, 2773.562
336.9951, 2774.905
337.4772, 2774.581
337.9593, 2766.654
338.4414, 2747.612
338.9235, 2731.384
339.4056, 2724.547
339.8878, 2728.028
340.3699, 2729.469
340.8520, 2728.537
341.3341, 2726.274
341.8162, 2723.760
342.2983, 2720.963
342.7805, 2718.228
343.2626, 2715.430
343.7447, 2712.701
344.2268, 2711.186
344.7089, 2710.938
345.1910, 2711.091
345.6732, 2710.184
346.1553, 2708.509
346.6374, 2709.172
347.1195, 2713.686
347.6016, 2719.808
348.0837, 2722.818
348.5659, 2722.910
349.0480, 2722.543
349.5301, 2723.687
350.0122, 2725.731
350.4944, 2727.043
350.9765, 2727.457
351.4586, 2727.227
351.9407, 2725.769
352.4228, 2723.727
352.9049, 2723.171
353.3871, 2726.528
353.8692, 2731.396
354.3513, 2734.315
354.8334, 2735.007
355.3155, 2735.752
355.7976, 2738.506
356.2798, 2742.447
356.7619, 2746.306
357.2440, 2749.444
357.7261, 2752.299
358.2082, 2755.533
358.6903, 2758.926
359.1725, 2761.168
359.6546, 2760.433
360.1367, 2758.750
360.6188, 2757.876
361.1009, 2758.335
361.5830, 2759.528
362.0652, 2762.553
362.5473, 2766.238
363.0294, 2767.677
363.5115, 2764.157
363.9936, 2759.531
364.4757, 2755.687
364.9579, 2752.948
365.4400, 2750.656
365.9221, 2749.706
366.4042, 2748.848
366.8863, 2746.497
367.3684, 2740.310
367.8506, 2734.832
368.3327, 2731.801
368.8148, 2731.612
369.2969, 2729.536
369.7790, 2724.249
370.2611, 2717.973
370.7433, 2712.062
371.2254, 2705.195
371.7075, 2700.923
372.1896, 2700.715
372.6717, 2703.392
373.1538, 2703.993
373.6360, 2701.338
374.1181, 2698.447
374.6002, 2696.917
375.0823, 2697.366
375.5645, 2696.734
376.0466, 2694.569
376.5287, 2691.831
377.0108, 2690.093
377.4929, 2689.511
377.9750, 2689.455
378.4572, 2690.036
378.9393, 2691.131
379.4214, 2691.221
379.9035, 2690.188
380.3856, 2688.744
380.8677, 2687.079
381.3499, 2685.315
381.8320, 2685.252
382.3141, 2687.904
382.7962, 2691.728
383.2783, 2693.389
383.7604, 2692.958
384.2426, 2692.228
384.7247, 2692.314
385.2068, 2692.941
385.6889, 2693.550
386.1710, 2694.080
386.6531, 2694.484
387.1353, 2694.570
387.6174, 2694.488
388.0995, 2694.620
388.5816, 2695.994
389.0637, 2697.222
389.5458, 2696.656
390.0280, 2694.333
390.5101, 2691.812
390.9922, 2689.688
391.4743, 2688.132
391.9564, 2687.394
392.4385, 2688.737
392.9207, 2689.479
393.4028, 2687.219
393.8849, 2683.061
394.3670, 2680.324
394.8491, 2681.539
395.3312, 2683.586
395.8134, 2684.791
396.2955, 2684.825
396.7776, 2684.267
397.2597, 2682.742
397.7418, 2680.846
398.2239, 2679.353
398.7061, 2678.327
399.1882, 2677.784
399.6703, 2678.053
400.1524, 2679.207
400.6346, 2679.650
401.1167, 2678.980
401.5988, 2677.964
402.0809, 2677.062
402.5630, 2676.106
403.0451, 2675.576
403.5273, 2675.638
404.0094, 2676.067
404.4915, 2676.196
404.9736, 2675.782
405.4557, 2675.550
405.9378, 2675.828
406.4200, 2676.640
406.9021, 2677.671
407.3842, 2679.153
407.8663, 2680.323
408.3484, 2680.061
408.8305, 2678.368
409.3127, 2676.464
409.7948, 2674.419
410.2769, 2672.638
410.7590, 2672.164
411.2411, 2673.042
411.7232, 2675.071
412.2054, 2678.922
412.6875, 2683.894
413.1696, 2687.669
413.6517, 2689.688
414.1338, 2691.375
414.6159, 2694.692
415.0981, 2699.011
415.5802, 2702.638
416.0623, 2703.235
416.5444, 2703.478
417.0265, 2706.474
417.5086, 2712.265
417.9908, 2717.869
418.4729, 2721.253
418.9550, 2723.445
419.4371, 2725.446
419.9192, 2727.045
420.4013, 2729.152
420.8835, 2732.365
421.3656, 2736.431
421.8477, 2740.632
422.3298, 2745.203
422.8119, 2749.500
423.2940, 2753.679
423.7762, 2758.592
424.2583, 2760.744
424.7404, 2757.229
425.2225, 2751.783
425.7047, 2748.575
426.1868, 2748.523
426.6689, 2749.622
427.1510, 2752.200
427.6331, 2756.022
428.1152, 2758.521
428.5974, 2759.756
429.0795, 2759.607
429.5616, 2757.722
430.0437, 2753.595
430.5258, 2750.038
431.0079, 2747.709
431.4901, 2745.295
431.9722, 2739.693
432.4543, 2730.469
432.9364, 2722.507
433.4185, 2718.238
433.9006, 2716.864
434.3828, 2715.173
434.8649, 2713.190
435.3470, 2710.647
435.8291, 2707.019
436.3112, 2702.614
436.7933, 2698.291
437.2755, 2693.934
437.7576, 2690.387
438.2397, 2689.823
438.7218, 2691.317
439.2039, 2691.704
439.6860, 2687.922
440.1682, 2682.899
440.6503, 2679.836
441.1324, 2678.939
441.6145, 2678.298
442.0966, 2676.541
442.5787, 2674.441
443.0609, 2672.820
443.5430, 2670.930
444.0251, 2670.497
444.5072, 2673.919
444.9893, 2679.663
445.4714, 2682.322
445.9536, 2676.750
446.4357, 2671.173
446.9178, 2669.656
447.3999, 2674.858
447.8820, 2677.647
448.3641, 2675.883
448.8463, 2672.870
449.3284, 2672.323
449.8105, 2676.404
450.2926, 2679.043
450.7747, 2678.340
451.2569, 2675.180
451.7390, 2675.356
452.2211, 2679.982
452.7032, 2685.006
453.1853, 2687.739
453.6674, 2687.973
454.1496, 2689.276
454.6317, 2692.027
455.1138, 2695.084
455.5959, 2696.298
456.0780, 2695.896
456.5602, 2696.671
457.0423, 2700.899
457.5244, 2706.122
458.0065, 2706.565
458.4886, 2702.668
458.9707, 2699.046
459.4529, 2699.649
459.9350, 2702.617
460.4171, 2705.255
460.8992, 2707.263
461.3813, 2708.746
461.8634, 2708.692
462.3456, 2708.345
462.8277, 2709.778
463.3098, 2714.844
463.7919, 2721.009
464.2740, 2727.477
464.7561, 2734.099
465.2383, 2739.840
465.7204, 2744.829
466.2025, 2748.469
466.6846, 2750.058
467.1667, 2746.265
467.6488, 2745.620
468.1310, 2751.208
468.6131, 2759.430
469.0952, 2764.467
469.5773, 2763.379
470.0594, 2763.863
470.5415, 2768.691
471.0237, 2777.609
471.5058, 2783.328
471.9879, 2785.055
472.4700, 2785.414
472.9521, 2786.039
473.4342, 2786.922
473.9164, 2788.524
474.3985, 2790.942
474.8806, 2794.058
475.3627, 2798.309
475.8448, 2803.496
476.3270, 2807.511
476.8091, 2808.883
477.2912, 2808.683
477.7733, 2808.694
478.2554, 2808.935
478.7375, 2809.703
479.2197, 2811.237
479.7018, 2813.439
480.1839, 2816.270
480.6660, 2819.908
481.1481, 2823.593
481.6302, 2826.974
482.1124, 2830.042
482.5945, 2832.779
483.0766, 2834.289
483.5587, 2836.292
484.0408, 2839.837
484.5229, 2844.871
485.0051, 2849.555
485.4872, 2853.341
485.9693, 2856.838
486.4514, 2860.233
486.9335, 2861.941
487.4156, 2866.446
487.8978, 2875.450
488.3799, 2886.353
488.8620, 2895.071
489.3441, 2900.292
489.8262, 2906.758
490.3083, 2916.036
490.7905, 2927.788
491.2726, 2938.869
491.7547, 2949.087
492.2368, 2959.998
492.7189, 2972.298
493.2010, 2986.130
493.6832, 3001.505
494.1653, 3018.661
494.6474, 3036.870
495.1295, 3056.013
495.6116, 3075.709
496.0938, 3095.037
496.5759, 3112.824
497.0580, 3130.698
497.5401, 3149.887
498.0222, 3170.513
498.5044, 3192.263
498.9865, 3216.368
499.4686, 3240.960
499.9507, 3264.575
500.4328, 3286.785
500.9149, 3308.828
501.3971, 3330.233
501.8792, 3352.247
502.3613, 3376.302
502.8434, 3404.997
503.3255, 3433.398
503.8076, 3460.656
504.2898, 3486.944
504.7719, 3513.261
505.2540, 3540.240
505.7361, 3566.109
506.2182, 3590.263
506.7003, 3612.385
507.1825, 3634.243
507.6646, 3656.495
508.1467, 3677.109
508.6288, 3694.186
509.1109, 3707.761
509.5930, 3717.648
510.0752, 3723.857
510.5573, 3726.431
511.0394, 3726.173
511.5215, 3722.751
512.0037, 3713.851
512.4858, 3697.068
512.9679, 3674.555
513.4500, 3648.795
513.9321, 3619.897
514.4142, 3588.740
514.8964, 3555.246
515.3785, 3519.921
515.8606, 3483.695
516.3427, 3446.362
516.8248, 3408.301
517.3069, 3368.387
517.7891, 3327.975
518.2712, 3289.433
518.7533, 3254.177
519.2354, 3220.321
519.7175, 3187.754
520.1996, 3156.317
520.6818, 3126.058
521.1639, 3095.890
521.6460, 3068.155
522.1281, 3045.101
522.6102, 3028.173
523.0923, 3009.370
523.5745, 2987.189
524.0566, 2965.189
524.5387, 2949.135
525.0208, 2938.938
525.5029, 2928.934
525.9850, 2917.464
526.4672, 2905.178
526.9493, 2893.091
527.4314, 2881.102
527.9135, 2869.417
528.3956, 2858.009
528.8777, 2846.733
529.3599, 2835.079
529.8420, 2822.784
530.3241, 2812.106
530.8062, 2805.324
531.2883, 2800.505
531.7704, 2795.613
532.2526, 2789.026
532.7347, 2783.578
533.2168, 2781.445
533.6989, 2781.057
534.1810, 2778.671
534.6631, 2771.906
535.1453, 2764.962
535.6274, 2758.903
536.1095, 2753.662
536.5916, 2749.197
537.0737, 2745.253
537.5558, 2742.415
538.0380, 2741.465
538.5201, 2742.799
539.0022, 2743.198
539.4843, 2742.482
539.9664, 2740.726
540.4485, 2737.372
540.9307, 2732.695
541.4128, 2729.011
541.8949, 2727.141
542.3770, 2726.617
542.8591, 2727.017
543.3412, 2728.185
543.8234, 2729.458
544.3055, 2731.604
544.7876, 2732.913
545.2697, 2730.986
545.7518, 2725.310
546.2339, 2720.296
546.7161, 2718.927
547.1982, 2718.802
547.6803, 2717.768
548.1624, 2714.576
548.6445, 2711.579
549.1266, 2709.464
549.6088, 2707.792
550.0909, 2705.633
550.5730, 2702.803
551.0551, 2699.920
551.5372, 2696.911
552.0193, 2693.936
552.5015, 2692.822
552.9836, 2694.103
553.4657, 2695.405
553.9478, 2694.966
554.4299, 2692.937
554.9120, 2690.869
555.3942, 2688.722
555.8763, 2687.058
556.3584, 2687.096
556.8405, 2688.099
557.3226, 2688.125
557.8047, 2685.872
558.2869, 2683.430
558.7690, 2682.949
559.2511, 2683.826
559.7332, 2684.554
560.2154, 2684.442
560.6975, 2684.066
561.1796, 2684.048
561.6617, 2684.466
562.1439, 2683.735
562.6260, 2679.797
563.1081, 2676.009
563.5902, 2674.214
564.0723, 2674.876
564.5544, 2676.747
565.0366, 2680.593
565.5187, 2684.899
566.0008, 2687.700
566.4829, 2688.960
566.9650, 2688.593
567.4471, 2685.772
567.9293, 2682.016
568.4114, 2681.515
568.8935, 2684.053
569.3756, 2687.138
569.8577, 2690.079
570.3398, 2692.359
570.8220, 2692.862
571.3041, 2691.615
571.7862, 2689.481
572.2683, 2685.605
572.7504, 2681.920
573.2325, 2680.757
573.7147, 2683.985
574.1968, 2686.070
574.6789, 2683.789
575.1610, 2679.647
575.6431, 2676.848
576.1252, 2676.887
576.6074, 2677.233
577.0895, 2677.983
577.5716, 2678.843
578.0537, 2678.388
578.5358, 2675.695
579.0179, 2673.896
579.5001, 2674.711
579.9822, 2677.900
580.4643, 2679.330
580.9464, 2678.782
581.4285, 2677.868
581.9106, 2678.227
582.3928, 2679.351
582.8749, 2679.349
583.3570, 2677.723
583.8391, 2676.138
584.3212, 2675.664
584.8033, 2676.448
585.2855, 2678.787
585.7676, 2685.101
586.2497, 2690.483
586.7318, 2691.843
587.2139, 2690.319
