##NAMES=Walstromite
##RRUFFID=R070634
##IDEAL CHEMISTRY=BaCa_2_Si_3_O_9_
##LOCALITY=Esquire number 8 mine, Big Creek, Fresno County, California, USA
##OWNER=RRUFF
##SOURCE=Michael Scott
##DESCRIPTION=Colorless massive with pronounced cleavage, strong orange-pink fluorescence under long-wave ultraviolet light
##STATUS=The identification of this mineral is confirmed by single-crystal X-ray diffraction and chemical analysis.
##URL=rruff.info/R070634
##MEASURED CHEMISTRY=(Ba_0.96_Sr_0.02_Ca_0.02_)_Σ=1_(Ca_1.98_Mn_0.02_)_Σ=2_Si_3.00_O_9_; trace amounts of Ti
155.8039, 5416.706
156.2860, 5418.751
156.7682, 5424.136
157.2503, 5433.956
157.7324, 5449.773
158.2145, 5489.605
158.6966, 5521.663
159.1787, 5529.199
159.6609, 5496.344
160.1430, 5470.608
160.6251, 5478.566
161.1072, 5505.376
161.5893, 5516.515
162.0714, 5478.055
162.5536, 5431.896
163.0357, 5406.604
163.5178, 5419.325
163.9999, 5442.750
164.4820, 5470.861
164.9641, 5502.101
165.4463, 5525.181
165.9284, 5532.551
166.4105, 5529.490
166.8926, 5521.662
167.3747, 5500.029
167.8568, 5481.859
168.3390, 5480.788
168.8211, 5497.962
169.3032, 5518.735
169.7853, 5530.030
170.2674, 5538.487
170.7495, 5555.778
171.2317, 5597.586
171.7138, 5646.140
172.1959, 5687.038
172.6780, 5721.838
173.1601, 5738.661
173.6422, 5706.115
174.1244, 5640.953
174.6065, 5598.059
175.0886, 5632.826
175.5707, 5704.145
176.0528, 5749.063
176.5349, 5741.760
177.0170, 5721.883
177.4992, 5740.485
177.9813, 5793.206
178.4634, 5844.591
178.9455, 5862.460
179.4276, 5858.063
179.9097, 5858.332
180.3919, 5879.117
180.8740, 5905.168
181.3561, 5906.807
181.8382, 5882.850
182.3203, 5857.029
182.8024, 5855.788
183.2846, 5874.090
183.7667, 5891.392
184.2488, 5898.553
184.7309, 5898.411
185.2130, 5896.694
185.6951, 5892.550
186.1773, 5891.461
186.6594, 5901.382
187.1415, 5921.843
187.6236, 5946.803
188.1057, 5977.618
188.5878, 6011.661
189.0700, 6036.865
189.5521, 6049.937
190.0342, 6056.201
190.5163, 6065.606
190.9984, 6078.046
191.4805, 6088.886
191.9627, 6092.199
192.4448, 6088.743
192.9269, 6091.175
193.4090, 6105.861
193.8911, 6125.175
194.3732, 6123.553
194.8554, 6098.207
195.3375, 6067.950
195.8196, 6045.391
196.3017, 6030.424
196.7838, 6033.909
197.2659, 6068.878
197.7481, 6127.650
198.2302, 6154.084
198.7123, 6141.916
199.1944, 6116.200
199.6765, 6104.976
200.1586, 6109.055
200.6408, 6121.436
201.1229, 6146.421
201.6050, 6184.291
202.0871, 6194.858
202.5692, 6165.851
203.0513, 6128.157
203.5335, 6142.638
204.0156, 6223.708
204.4977, 6295.727
204.9798, 6314.763
205.4619, 6269.290
205.9440, 6255.813
206.4262, 6288.666
206.9083, 6346.542
207.3904, 6372.848
207.8725, 6357.765
208.3546, 6337.649
208.8367, 6335.537
209.3189, 6357.368
209.8010, 6371.578
210.2831, 6373.312
210.7652, 6365.790
211.2473, 6360.729
211.7294, 6353.691
212.2116, 6358.147
212.6937, 6393.955
213.1758, 6482.747
213.6579, 6531.065
214.1400, 6507.864
214.6221, 6420.998
215.1043, 6391.648
215.5864, 6444.394
216.0685, 6519.084
216.5506, 6552.110
217.0327, 6524.110
217.5148, 6505.577
217.9969, 6517.523
218.4791, 6562.736
218.9612, 6585.889
219.4433, 6576.720
219.9254, 6555.251
220.4075, 6549.378
220.8896, 6569.716
221.3718, 6582.639
221.8539, 6571.247
222.3360, 6523.150
222.8181, 6511.735
223.3002, 6554.819
223.7823, 6623.402
224.2645, 6662.432
224.7466, 6655.186
225.2287, 6648.022
225.7108, 6659.336
226.1929, 6696.237
226.6750, 6733.172
227.1572, 6775.357
227.6393, 6815.902
228.1214, 6834.743
228.6035, 6817.239
229.0856, 6799.723
229.5677, 6799.580
230.0499, 6821.024
230.5320, 6851.168
231.0141, 6897.844
231.4962, 6952.953
231.9783, 6982.163
232.4604, 6971.336
232.9426, 6952.329
233.4247, 6944.126
233.9068, 6952.940
234.3889, 6960.116
234.8710, 6963.743
235.3531, 6964.223
235.8353, 6964.050
236.3174, 6960.268
236.7995, 6959.380
237.2816, 6966.683
237.7637, 6985.619
238.2458, 7006.462
238.7280, 7028.889
239.2101, 7052.865
239.6922, 7075.273
240.1743, 7100.987
240.6564, 7120.285
241.1385, 7121.512
241.6207, 7087.678
242.1028, 7066.056
242.5849, 7068.140
243.0670, 7095.990
243.5491, 7121.551
244.0313, 7147.768
244.5134, 7169.249
244.9955, 7176.952
245.4776, 7154.841
245.9597, 7147.515
246.4418, 7173.230
246.9240, 7242.885
247.4061, 7280.819
247.8882, 7272.050
248.3703, 7242.192
248.8524, 7226.877
249.3345, 7227.466
249.8167, 7240.720
250.2988, 7271.117
250.7809, 7329.152
251.2630, 7360.554
251.7451, 7351.625
252.2272, 7323.761
252.7094, 7316.303
253.1915, 7339.916
253.6736, 7365.540
254.1557, 7380.428
254.6378, 7376.050
255.1199, 7389.039
255.6021, 7426.438
256.0842, 7477.655
256.5663, 7520.944
257.0484, 7559.290
257.5305, 7584.712
258.0126, 7591.246
258.4948, 7570.112
258.9769, 7554.147
259.4590, 7539.482
259.9411, 7531.773
260.4232, 7549.271
260.9053, 7604.313
261.3875, 7662.332
261.8696, 7707.881
262.3517, 7739.909
262.8338, 7758.623
263.3159, 7756.246
263.7980, 7742.228
264.2802, 7752.863
264.7623, 7802.370
265.2444, 7848.011
265.7265, 7859.355
266.2086, 7822.039
266.6907, 7802.402
267.1729, 7810.249
267.6550, 7838.829
268.1371, 7863.330
268.6192, 7881.800
269.1013, 7899.640
269.5834, 7922.622
270.0656, 7953.778
270.5477, 7972.860
271.0298, 7970.520
271.5119, 7955.130
271.9940, 7968.235
272.4761, 8021.493
272.9583, 8073.625
273.4404, 8089.686
273.9225, 8061.894
274.4046, 8041.954
274.8867, 8039.919
275.3688, 8051.378
275.8510, 8053.719
276.3331, 8042.737
276.8152, 8035.500
277.2973, 8051.476
277.7794, 8094.282
278.2615, 8123.543
278.7437, 8122.348
279.2257, 8102.874
279.7079, 8132.249
280.1900, 8224.425
280.6721, 8311.776
281.1542, 8321.290
281.6363, 8249.053
282.1184, 8192.347
282.6006, 8172.777
283.0827, 8184.425
283.5648, 8208.050
284.0469, 8245.941
284.5290, 8284.259
285.0111, 8306.995
285.4933, 8314.726
285.9754, 8327.074
286.4575, 8349.434
286.9396, 8379.592
287.4217, 8411.709
287.9038, 8446.222
288.3860, 8478.181
288.8681, 8500.026
289.3502, 8512.786
289.8323, 8529.393
290.3144, 8556.619
290.7965, 8588.858
291.2787, 8610.524
291.7608, 8621.319
292.2429, 8625.002
292.7250, 8624.097
293.2071, 8619.042
293.6892, 8611.510
294.1714, 8601.486
294.6535, 8590.034
295.1356, 8575.233
295.6177, 8556.686
296.0998, 8547.518
296.5819, 8568.606
297.0641, 8611.271
297.5462, 8646.059
298.0283, 8663.764
298.5104, 8667.629
298.9925, 8653.521
299.4746, 8621.136
299.9568, 8600.786
300.4389, 8630.928
300.9210, 8693.447
301.4031, 8747.718
301.8852, 8783.929
302.3673, 8800.473
302.8495, 8779.490
303.3316, 8722.132
303.8137, 8681.200
304.2958, 8722.520
304.7779, 8808.526
305.2600, 8871.451
305.7422, 8863.334
306.2243, 8835.358
306.7064, 8843.021
307.1885, 8884.456
307.6706, 8920.837
308.1527, 8913.278
308.6349, 8886.363
309.1170, 8874.250
309.5991, 8912.347
310.0812, 8953.344
310.5633, 8954.418
311.0454, 8918.329
311.5276, 8890.891
312.0097, 8904.628
312.4918, 8940.175
312.9739, 8976.203
313.4560, 9006.255
313.9381, 9033.893
314.4203, 9056.358
314.9024, 9075.005
315.3845, 9103.076
315.8666, 9172.897
316.3487, 9243.980
316.8308, 9278.057
317.3130, 9225.043
317.7951, 9168.604
318.2772, 9138.467
318.7593, 9133.704
319.2414, 9142.624
319.7235, 9176.221
320.2057, 9214.383
320.6878, 9241.197
321.1699, 9240.304
321.6520, 9240.881
322.1341, 9249.915
322.6162, 9267.120
323.0984, 9287.863
323.5805, 9321.707
324.0626, 9352.954
324.5447, 9371.041
325.0268, 9354.720
325.5089, 9347.128
325.9911, 9358.136
326.4732, 9385.816
326.9553, 9410.147
327.4374, 9433.051
327.9195, 9449.851
328.4016, 9457.897
328.8838, 9444.127
329.3659, 9437.192
329.8480, 9436.794
330.3301, 9443.545
330.8122, 9462.256
331.2943, 9500.554
331.7765, 9543.112
332.2586, 9581.702
332.7407, 9615.703
333.2228, 9647.104
333.7049, 9676.810
334.1870, 9704.376
334.6692, 9727.941
335.1513, 9747.088
335.6334, 9763.784
336.1155, 9778.837
336.5976, 9792.262
337.0797, 9804.461
337.5619, 9814.607
338.0440, 9823.821
338.5261, 9834.106
339.0082, 9843.942
339.4903, 9858.749
339.9724, 9883.174
340.4546, 9918.824
340.9367, 9951.967
341.4188, 9984.023
341.9009, 10011.13
342.3830, 10018.74
342.8651, 10003.65
343.3473, 10000.02
343.8294, 10038.95
344.3115, 10115.76
344.7936, 10158.61
345.2757, 10158.48
345.7578, 10138.64
346.2400, 10132.09
346.7221, 10138.68
347.2042, 10152.15
347.6863, 10182.39
348.1684, 10218.12
348.6505, 10213.92
349.1327, 10159.72
349.6148, 10101.47
350.0969, 10099.32
350.5790, 10142.07
351.0611, 10187.11
351.5432, 10215.48
352.0254, 10232.50
352.5075, 10245.84
352.9896, 10255.34
353.4717, 10263.22
353.9538, 10271.98
354.4359, 10280.69
354.9181, 10287.16
355.4002, 10286.68
355.8823, 10286.31
356.3644, 10294.13
356.8465, 10310.55
357.3286, 10327.12
357.8108, 10339.12
358.2929, 10348.21
358.7750, 10356.76
359.2571, 10366.81
359.7392, 10375.73
360.2213, 10374.89
360.7035, 10366.08
361.1856, 10374.83
361.6677, 10427.08
362.1498, 10494.55
362.6319, 10553.25
363.1140, 10603.56
363.5961, 10637.23
364.0782, 10646.29
364.5604, 10633.50
365.0425, 10618.54
365.5246, 10596.02
366.0067, 10579.06
366.4888, 10575.68
366.9709, 10593.64
367.4531, 10617.22
367.9352, 10649.94
368.4173, 10688.91
368.8994, 10721.38
369.3815, 10754.96
369.8636, 10775.22
370.3458, 10773.53
370.8279, 10721.67
371.3100, 10696.10
371.7921, 10700.73
372.2742, 10730.46
372.7563, 10777.05
373.2385, 10858.00
373.7206, 10926.01
374.2027, 10958.11
374.6848, 10944.02
375.1669, 10934.90
375.6490, 10928.76
376.1312, 10929.64
376.6133, 10947.95
377.0954, 10989.16
377.5775, 11026.17
378.0596, 11048.59
378.5417, 11056.51
379.0239, 11062.58
379.5060, 11066.57
379.9881, 11069.50
380.4702, 11070.07
380.9523, 11068.62
381.4344, 11074.52
381.9166, 11096.63
382.3987, 11127.12
382.8808, 11140.26
383.3629, 11134.74
383.8450, 11128.14
384.3271, 11144.18
384.8093, 11173.69
385.2914, 11185.91
385.7735, 11155.05
386.2556, 11118.06
386.7377, 11134.66
387.2198, 11198.56
387.7020, 11263.20
388.1841, 11296.49
388.6662, 11309.71
389.1483, 11318.09
389.6304, 11325.68
390.1125, 11329.15
390.5947, 11317.50
391.0768, 11298.11
391.5589, 11293.92
392.0410, 11333.85
392.5231, 11382.78
393.0052, 11414.64
393.4874, 11419.25
393.9695, 11420.29
394.4516, 11421.04
394.9337, 11424.85
395.4158, 11437.99
395.8979, 11485.29
396.3801, 11522.15
396.8622, 11519.60
397.3443, 11453.46
397.8264, 11426.74
398.3085, 11484.47
398.7906, 11577.60
399.2728, 11647.09
399.7549, 11682.20
400.2370, 11703.63
400.7191, 11710.81
401.2012, 11702.47
401.6833, 11701.00
402.1655, 11706.71
402.6476, 11719.44
403.1297, 11740.89
403.6118, 11777.41
404.0939, 11807.79
404.5760, 11828.11
405.0582, 11839.76
405.5403, 11844.26
406.0224, 11833.89
406.5045, 11838.35
406.9866, 11891.08
407.4688, 11996.60
407.9509, 12067.13
408.4330, 12085.66
408.9151, 12076.13
409.3972, 12089.71
409.8793, 12126.32
410.3615, 12160.95
410.8436, 12175.42
411.3257, 12176.26
411.8078, 12184.58
412.2899, 12201.78
412.7720, 12227.01
413.2542, 12267.46
413.7363, 12316.44
414.2184, 12354.49
414.7005, 12367.17
415.1826, 12366.49
415.6647, 12365.83
416.1469, 12365.52
416.6290, 12361.76
417.1111, 12345.41
417.5932, 12325.34
418.0753, 12313.71
418.5574, 12324.28
419.0396, 12334.93
419.5217, 12331.24
420.0038, 12315.63
420.4859, 12304.81
420.9680, 12305.31
421.4501, 12313.07
421.9323, 12325.51
422.4144, 12344.58
422.8965, 12365.79
423.3786, 12396.61
423.8607, 12430.59
424.3428, 12448.96
424.8250, 12432.57
425.3071, 12417.16
425.7892, 12415.27
426.2713, 12430.94
426.7534, 12449.76
427.2355, 12471.20
427.7177, 12495.96
428.1998, 12524.27
428.6819, 12554.65
429.1640, 12590.76
429.6461, 12635.94
430.1282, 12688.98
430.6104, 12738.95
431.0925, 12789.57
431.5746, 12825.78
432.0567, 12822.89
432.5388, 12779.31
433.0209, 12747.87
433.5031, 12740.91
433.9852, 12751.98
434.4673, 12768.23
434.9494, 12789.66
435.4315, 12810.96
435.9136, 12826.61
436.3958, 12839.48
436.8779, 12857.88
437.3600, 12885.18
437.8421, 12912.48
438.3242, 12925.69
438.8063, 12930.25
439.2885, 12941.08
439.7706, 12972.39
440.2527, 13009.60
440.7348, 13036.92
441.2169, 13051.74
441.6990, 13071.79
442.1812, 13114.75
442.6633, 13165.77
443.1454, 13207.80
443.6275, 13228.59
444.1096, 13245.67
444.5917, 13264.30
445.0738, 13284.47
445.5559, 13304.02
446.0381, 13333.77
446.5202, 13355.17
447.0023, 13357.13
447.4844, 13308.95
447.9665, 13280.34
448.4486, 13280.61
448.9308, 13300.29
449.4129, 13312.94
449.8950, 13310.90
450.3771, 13314.49
450.8592, 13334.52
451.3413, 13375.47
451.8235, 13406.65
452.3056, 13428.04
452.7877, 13439.94
453.2698, 13436.23
453.7519, 13414.22
454.2340, 13408.69
454.7162, 13435.12
455.1983, 13484.49
455.6804, 13530.42
456.1625, 13573.48
456.6446, 13603.86
457.1267, 13601.54
457.6089, 13579.53
458.0910, 13574.44
458.5731, 13596.40
459.0552, 13633.53
459.5373, 13679.67
460.0194, 13730.80
460.5016, 13774.28
460.9837, 13803.24
461.4658, 13820.71
461.9479, 13823.35
462.4300, 13805.79
462.9121, 13801.69
463.3943, 13849.18
463.8764, 13914.47
464.3585, 13953.15
464.8406, 13908.81
465.3227, 13878.19
465.8048, 13900.97
466.2870, 13977.69
466.7691, 14044.60
467.2512, 14112.70
467.7333, 14156.53
468.2154, 14157.36
468.6975, 14054.75
469.1797, 14009.53
469.6618, 14054.05
470.1439, 14153.33
470.6260, 14214.29
471.1081, 14223.84
471.5902, 14226.12
472.0724, 14237.53
472.5545, 14258.29
473.0366, 14286.76
473.5187, 14325.44
474.0008, 14363.96
474.4829, 14388.89
474.9651, 14401.11
475.4472, 14410.38
475.9293, 14420.58
476.4114, 14429.47
476.8935, 14431.14
477.3756, 14426.25
477.8578, 14420.74
478.3399, 14414.94
478.8220, 14412.75
479.3041, 14419.28
479.7862, 14434.73
480.2683, 14461.42
480.7505, 14518.81
481.2326, 14588.37
481.7147, 14631.49
482.1968, 14594.42
482.6789, 14557.76
483.1610, 14567.64
483.6432, 14632.52
484.1253, 14695.34
484.6074, 14749.96
485.0895, 14791.23
485.5716, 14815.05
486.0537, 14793.35
486.5359, 14786.68
487.0180, 14805.75
487.5001, 14844.76
487.9822, 14877.20
488.4643, 14900.37
488.9464, 14921.23
489.4286, 14946.68
489.9107, 14981.23
490.3928, 14991.03
490.8749, 14964.43
491.3570, 14934.36
491.8391, 14958.07
492.3213, 15035.30
492.8034, 15104.28
493.2855, 15141.67
493.7676, 15156.31
494.2497, 15164.64
494.7318, 15167.09
495.2140, 15177.11
495.6961, 15219.22
496.1782, 15273.78
496.6603, 15299.36
497.1424, 15270.07
497.6245, 15249.10
498.1067, 15305.61
498.5888, 15408.78
499.0709, 15487.42
499.5530, 15473.03
500.0351, 15455.56
500.5172, 15497.07
500.9994, 15613.50
501.4815, 15693.09
501.9636, 15688.31
502.4457, 15646.59
502.9278, 15610.64
503.4099, 15568.22
503.8921, 15551.55
504.3742, 15577.24
504.8563, 15632.96
505.3384, 15663.69
505.8205, 15655.57
506.3026, 15650.80
506.7848, 15678.88
507.2669, 15750.67
507.7490, 15775.08
508.2311, 15739.78
508.7132, 15686.78
509.1953, 15673.41
509.6775, 15696.33
510.1596, 15717.21
510.6417, 15715.07
511.1238, 15707.95
511.6059, 15741.25
512.0880, 15810.60
512.5701, 15870.13
513.0522, 15886.05
513.5344, 15873.49
514.0165, 15846.54
514.4986, 15799.17
514.9807, 15762.44
515.4628, 15759.83
515.9449, 15780.44
516.4271, 15805.63
516.9092, 15825.51
517.3913, 15853.08
517.8734, 15901.13
518.3555, 15971.60
518.8376, 16023.69
519.3198, 16044.66
519.8019, 16052.22
520.2840, 16055.30
520.7661, 16043.59
521.2482, 16049.00
521.7303, 16079.96
522.2125, 16124.75
522.6946, 16156.05
523.1767, 16171.20
523.6588, 16184.12
524.1409, 16200.03
524.6230, 16218.19
525.1052, 16235.64
525.5873, 16252.23
526.0694, 16269.34
526.5515, 16287.48
527.0336, 16307.15
527.5157, 16329.50
527.9979, 16353.83
528.4800, 16381.91
528.9621, 16424.73
529.4442, 16474.08
529.9263, 16506.93
530.4084, 16481.55
530.8906, 16456.16
531.3727, 16479.80
531.8548, 16563.81
532.3369, 16633.43
532.8190, 16647.90
533.3011, 16644.15
533.7833, 16655.57
534.2654, 16705.56
534.7475, 16747.53
535.2296, 16774.68
535.7117, 16790.65
536.1938, 16811.30
536.6760, 16851.12
537.1581, 16868.67
537.6402, 16832.38
538.1223, 16734.28
538.6044, 16694.31
539.0865, 16721.35
539.5687, 16780.32
540.0508, 16840.18
540.5329, 16899.97
541.0150, 16944.67
541.4971, 16967.63
541.9792, 16977.88
542.4614, 16982.56
542.9435, 16984.30
543.4256, 16995.10
543.9077, 17035.98
544.3898, 17081.45
544.8719, 17102.17
545.3541, 17091.16
545.8362, 17085.92
546.3183, 17109.43
546.8004, 17145.99
547.2825, 17178.66
547.7646, 17188.33
548.2468, 17209.94
548.7289, 17270.04
549.2110, 17352.39
549.6931, 17385.06
550.1752, 17329.92
550.6573, 17276.90
551.1395, 17263.24
551.6216, 17295.43
552.1037, 17330.08
552.5858, 17366.26
553.0679, 17407.63
553.5500, 17467.13
554.0322, 17542.87
554.5143, 17595.22
554.9964, 17608.56
555.4785, 17601.82
555.9606, 17608.71
556.4427, 17626.81
556.9249, 17642.63
557.4070, 17635.22
557.8891, 17627.54
558.3712, 17651.99
558.8533, 17715.00
559.3354, 17771.78
559.8176, 17791.97
560.2997, 17795.63
560.7818, 17803.37
561.2639, 17822.29
561.7460, 17842.86
562.2281, 17862.91
562.7103, 17882.87
563.1924, 17904.33
563.6745, 17925.89
564.1566, 17950.90
564.6387, 17983.52
565.1208, 18026.49
565.6030, 18051.85
566.0851, 18054.94
566.5672, 18051.77
567.0493, 18058.86
567.5314, 18075.82
568.0135, 18092.28
568.4957, 18107.93
568.9778, 18119.68
569.4599, 18112.03
569.9420, 18092.21
570.4241, 18091.00
570.9063, 18133.56
571.3884, 18197.23
571.8705, 18271.50
572.3526, 18354.59
572.8347, 18412.65
573.3168, 18400.05
573.7990, 18368.96
574.2811, 18363.74
574.7632, 18410.93
575.2453, 18459.21
575.7274, 18506.99
576.2095, 18550.14
576.6917, 18577.60
577.1738, 18571.80
577.6559, 18579.74
578.1380, 18620.79
578.6201, 18691.63
579.1022, 18735.44
579.5844, 18746.07
580.0665, 18752.05
580.5486, 18781.63
581.0307, 18829.44
581.5128, 18851.32
581.9949, 18836.35
582.4771, 18815.96
582.9592, 18835.53
583.4413, 18880.49
583.9234, 18914.77
584.4055, 18914.03
584.8876, 18904.27
585.3698, 18901.08
585.8519, 18904.91
586.3340, 18917.11
586.8161, 18958.72
587.2982, 18993.65
587.7803, 18996.53
588.2625, 18942.60
588.7446, 18915.30
589.2267, 18925.78
589.7088, 18958.71
590.1909, 18998.92
590.6730, 19046.71
591.1552, 19101.19
591.6373, 19167.65
592.1194, 19237.23
592.6015, 19282.05
593.0836, 19301.09
593.5657, 19311.15
594.0479, 19310.96
594.5300, 19309.43
595.0121, 19338.87
595.4942, 19400.88
595.9763, 19456.79
596.4584, 19462.49
596.9406, 19446.49
597.4227, 19447.79
597.9048, 19488.21
598.3869, 19526.04
598.8690, 19542.83
599.3511, 19543.54
599.8333, 19538.24
600.3154, 19510.28
600.7975, 19496.79
601.2796, 19509.75
601.7617, 19549.02
602.2438, 19597.62
602.7260, 19672.14
603.2081, 19728.80
603.6902, 19731.60
604.1723, 19675.83
604.6544, 19629.14
605.1365, 19590.68
605.6187, 19575.39
606.1008, 19622.49
606.5829, 19715.90
607.0650, 19785.74
607.5471, 19792.24
608.0292, 19784.75
608.5114, 19831.78
608.9935, 19916.36
609.4756, 19979.97
609.9577, 19957.64
610.4398, 19929.45
610.9219, 19952.60
611.4041, 20041.72
611.8862, 20108.64
612.3683, 20112.65
612.8504, 20103.10
613.3325, 20118.10
613.8146, 20173.02
614.2968, 20222.76
614.7789, 20265.10
615.2610, 20301.45
615.7431, 20336.28
616.2252, 20370.76
616.7073, 20390.16
617.1895, 20381.87
617.6716, 20357.59
618.1537, 20348.40
618.6358, 20353.68
619.1179, 20367.16
619.6000, 20385.39
620.0822, 20409.08
620.5643, 20441.50
621.0464, 20485.53
621.5285, 20526.06
622.0106, 20558.12
622.4927, 20580.91
622.9749, 20593.32
623.4570, 20572.18
623.9391, 20568.55
624.4212, 20603.45
624.9033, 20659.28
625.3854, 20687.80
625.8676, 20670.13
626.3497, 20666.82
626.8318, 20707.18
627.3139, 20784.14
627.7960, 20824.90
628.2781, 20825.43
628.7603, 20821.84
629.2424, 20847.25
629.7245, 20891.10
630.2066, 20927.91
630.6887, 20954.99
631.1708, 20972.06
631.6530, 20961.24
632.1351, 20944.51
632.6172, 20955.23
633.0993, 21034.30
633.5814, 21112.91
634.0635, 21168.34
634.5457, 21204.37
635.0278, 21235.21
635.5099, 21255.66
635.9920, 21278.69
636.4741, 21307.51
636.9562, 21342.38
637.4384, 21385.04
637.9205, 21437.95
638.4026, 21492.97
638.8847, 21543.17
639.3668, 21588.94
639.8489, 21628.42
640.3311, 21656.33
640.8132, 21695.70
641.2953, 21797.98
641.7774, 21931.20
642.2595, 22026.85
642.7416, 22013.99
643.2238, 21999.26
643.7059, 22055.38
644.1880, 22166.18
644.6701, 22279.02
645.1522, 22376.71
645.6343, 22472.09
646.1165, 22568.05
646.5986, 22665.18
647.0807, 22768.15
647.5628, 22888.74
648.0449, 23000.16
648.5270, 23079.64
