##NAMES=Walstromite
##RRUFFID=R070634
##IDEAL CHEMISTRY=BaCa_2_Si_3_O_9_
##LOCALITY=Esquire number 8 mine, Big Creek, Fresno County, California, USA
##OWNER=RRUFF
##SOURCE=Michael Scott
##DESCRIPTION=Colorless massive with pronounced cleavage, strong orange-pink fluorescence under long-wave ultraviolet light
##STATUS=The identification of this mineral is confirmed by single-crystal X-ray diffraction and chemical analysis.
##URL=rruff.info/R070634
##MEASURED CHEMISTRY=(Ba_0.96_Sr_0.02_Ca_0.02_)_Σ=1_(Ca_1.98_Mn_0.02_)_Σ=2_Si_3.00_O_9_; trace amounts of Ti
109.3990, 1173.401
109.8811, 1200.075
110.3632, 1215.382
110.8453, 1205.814
111.3275, 1192.183
111.8096, 1196.050
112.2917, 1226.886
112.7738, 1275.143
113.2559, 1305.565
113.7380, 1291.370
114.2201, 1290.306
114.7023, 1327.112
115.1844, 1387.491
115.6665, 1438.209
116.1486, 1455.564
116.6307, 1442.573
117.1128, 1437.998
117.5950, 1444.753
118.0771, 1457.119
118.5592, 1470.361
119.0413, 1483.999
119.5234, 1501.960
120.0055, 1530.803
120.4877, 1567.254
120.9698, 1602.815
121.4519, 1634.523
121.9340, 1663.530
122.4161, 1693.448
122.8982, 1728.015
123.3804, 1757.573
123.8625, 1773.568
124.3446, 1778.358
124.8267, 1783.514
125.3088, 1800.172
125.7909, 1829.592
126.2731, 1853.057
126.7552, 1871.866
127.2373, 1881.136
127.7194, 1872.323
128.2015, 1845.550
128.6837, 1814.430
129.1658, 1799.861
129.6479, 1811.589
130.1300, 1821.915
130.6121, 1828.494
131.0942, 1832.899
131.5764, 1833.894
132.0585, 1830.936
132.5406, 1828.327
133.0227, 1841.502
133.5048, 1892.440
133.9869, 1936.225
134.4691, 1970.115
134.9512, 1993.256
135.4333, 2004.214
135.9154, 2001.531
136.3975, 1985.446
136.8796, 1964.197
137.3618, 1929.381
137.8439, 1897.962
138.3260, 1877.733
138.8081, 1868.674
139.2902, 1867.982
139.7723, 1878.630
140.2545, 1899.357
140.7366, 1900.906
141.2187, 1863.434
141.7008, 1814.240
142.1829, 1780.638
142.6650, 1765.841
143.1472, 1767.844
143.6293, 1794.397
144.1114, 1840.039
144.5935, 1881.003
145.0756, 1904.794
145.5577, 1915.755
146.0398, 1928.901
146.5220, 1949.337
147.0041, 1968.971
147.4862, 1977.883
147.9683, 1976.952
148.4504, 1980.975
148.9325, 2007.163
149.4147, 2058.641
149.8968, 2100.759
150.3789, 2115.282
150.8610, 2125.699
151.3431, 2145.612
151.8252, 2177.900
152.3074, 2214.052
152.7895, 2239.061
153.2716, 2243.134
153.7537, 2257.743
154.2358, 2290.193
154.7179, 2331.048
155.2001, 2374.871
155.6822, 2419.625
156.1643, 2462.157
156.6464, 2492.377
157.1285, 2481.856
157.6106, 2492.362
158.0928, 2555.337
158.5749, 2638.073
159.0570, 2693.472
159.5391, 2691.283
160.0212, 2638.193
160.5033, 2608.492
160.9855, 2617.300
161.4676, 2630.156
161.9497, 2638.051
162.4318, 2641.389
162.9139, 2643.640
163.3960, 2647.135
163.8782, 2652.019
164.3603, 2658.370
164.8424, 2667.562
165.3245, 2677.032
165.8066, 2687.613
166.2887, 2698.853
166.7709, 2704.357
167.2530, 2696.848
167.7351, 2676.143
168.2172, 2653.204
168.6993, 2628.633
169.1814, 2602.543
169.6636, 2576.203
170.1457, 2550.787
170.6278, 2521.237
171.1099, 2473.959
171.5920, 2412.976
172.0741, 2365.525
172.5563, 2348.752
173.0384, 2354.143
173.5205, 2358.994
174.0026, 2364.034
174.4847, 2360.831
174.9668, 2340.150
175.4490, 2303.324
175.9311, 2267.104
176.4132, 2244.080
176.8953, 2233.767
177.3774, 2222.696
177.8595, 2203.549
178.3417, 2187.355
178.8238, 2179.911
179.3059, 2181.939
179.7880, 2192.812
180.2701, 2218.692
180.7522, 2268.764
181.2344, 2294.852
181.7165, 2259.394
182.1986, 2217.704
182.6807, 2208.679
183.1628, 2242.021
183.6449, 2290.943
184.1271, 2306.896
184.6092, 2261.707
185.0913, 2239.656
185.5734, 2262.470
186.0555, 2301.214
186.5376, 2330.827
187.0198, 2341.206
187.5019, 2340.740
187.9840, 2352.099
188.4661, 2393.244
188.9482, 2423.778
189.4303, 2430.968
189.9125, 2429.173
190.3946, 2435.148
190.8767, 2457.709
191.3588, 2493.625
191.8409, 2528.609
192.3230, 2562.817
192.8052, 2595.809
193.2873, 2624.889
193.7694, 2652.658
194.2515, 2683.266
194.7336, 2719.306
195.2157, 2760.407
195.6979, 2805.220
196.1800, 2858.905
196.6621, 2910.077
197.1442, 2952.693
197.6263, 2988.865
198.1084, 3025.384
198.5906, 3067.371
199.0727, 3114.215
199.5548, 3158.175
200.0369, 3194.865
200.5190, 3232.316
201.0011, 3277.398
201.4833, 3329.340
201.9654, 3379.553
202.4475, 3421.811
202.9296, 3456.103
203.4117, 3489.709
203.8938, 3520.935
204.3760, 3552.805
204.8581, 3589.323
205.3402, 3631.166
205.8223, 3671.552
206.3044, 3703.751
206.7865, 3729.813
207.2687, 3756.656
207.7508, 3786.004
208.2329, 3816.582
208.7150, 3849.328
209.1971, 3886.744
209.6792, 3916.666
210.1614, 3920.997
210.6435, 3909.372
211.1256, 3903.630
211.6077, 3918.627
212.0898, 3944.138
212.5719, 3956.497
213.0541, 3949.385
213.5362, 3939.571
214.0183, 3946.200
214.5004, 3960.750
214.9825, 3960.335
215.4646, 3922.043
215.9468, 3856.111
216.4289, 3807.660
216.9110, 3789.749
217.3931, 3773.025
217.8752, 3736.105
218.3573, 3685.595
218.8395, 3640.863
219.3216, 3622.391
219.8037, 3627.045
220.2858, 3612.797
220.7679, 3561.396
221.2500, 3509.183
221.7322, 3476.435
222.2143, 3458.366
222.6964, 3438.014
223.1785, 3398.055
223.6606, 3337.137
224.1427, 3287.219
224.6249, 3262.358
225.1070, 3236.765
225.5891, 3196.883
226.0712, 3145.975
226.5533, 3097.732
227.0354, 3067.959
227.5176, 3061.142
227.9997, 3042.014
228.4818, 2999.933
228.9639, 2954.046
229.4460, 2906.226
229.9281, 2860.113
230.4103, 2823.259
230.8924, 2807.046
231.3745, 2819.049
231.8566, 2816.902
232.3387, 2789.190
232.8208, 2758.080
233.3030, 2732.208
233.7851, 2712.653
234.2672, 2697.056
234.7493, 2683.577
235.2314, 2674.114
235.7135, 2659.640
236.1957, 2639.984
236.6778, 2616.484
237.1599, 2583.615
237.6420, 2544.624
238.1241, 2513.408
238.6062, 2508.961
239.0884, 2546.474
239.5705, 2560.032
240.0526, 2535.620
240.5347, 2502.993
241.0168, 2477.036
241.4989, 2460.531
241.9811, 2450.624
242.4632, 2444.720
242.9453, 2445.792
243.4274, 2441.120
243.9095, 2424.427
244.3916, 2407.517
244.8738, 2398.099
245.3559, 2397.013
245.8380, 2399.725
246.3201, 2401.394
246.8022, 2402.386
247.2843, 2400.392
247.7665, 2397.522
248.2486, 2390.584
248.7307, 2374.116
249.2128, 2348.769
249.6949, 2323.418
250.1770, 2307.772
250.6592, 2303.784
251.1413, 2306.290
251.6234, 2322.591
252.1055, 2340.065
252.5876, 2348.701
253.0697, 2347.451
253.5519, 2342.947
254.0340, 2342.929
254.5161, 2349.880
254.9982, 2349.942
255.4803, 2334.373
255.9624, 2317.824
256.4445, 2312.282
256.9267, 2319.122
257.4088, 2331.358
257.8909, 2342.996
258.3730, 2354.453
258.8551, 2360.051
259.3372, 2349.494
259.8194, 2339.677
260.3015, 2348.645
260.7836, 2377.331
261.2657, 2405.884
261.7478, 2412.437
262.2299, 2392.229
262.7121, 2387.809
263.1942, 2414.204
263.6763, 2447.061
264.1584, 2467.395
264.6405, 2473.311
265.1227, 2472.623
265.6048, 2472.623
266.0869, 2473.149
266.5690, 2465.872
267.0511, 2433.406
267.5332, 2404.488
268.0154, 2410.386
268.4975, 2451.508
268.9796, 2492.334
269.4617, 2502.501
269.9438, 2481.221
270.4259, 2464.198
270.9081, 2449.927
271.3902, 2441.800
271.8723, 2445.947
272.3544, 2461.863
272.8365, 2477.479
273.3186, 2484.100
273.8008, 2481.647
274.2829, 2477.895
274.7650, 2469.320
275.2471, 2462.179
275.7292, 2461.462
276.2113, 2467.047
276.6935, 2475.736
277.1756, 2486.742
277.6577, 2499.241
278.1398, 2508.154
278.6219, 2506.242
279.1040, 2506.601
279.5862, 2524.563
280.0683, 2557.196
280.5504, 2579.215
281.0325, 2569.604
281.5146, 2537.436
281.9967, 2523.489
282.4789, 2541.232
282.9610, 2564.361
283.4431, 2578.897
283.9252, 2585.337
284.4073, 2585.411
284.8894, 2576.767
285.3716, 2564.030
285.8537, 2560.632
286.3358, 2567.796
286.8179, 2582.109
287.3000, 2607.167
287.7821, 2639.632
288.2643, 2665.274
288.7464, 2676.819
289.2285, 2678.007
289.7106, 2679.488
290.1927, 2682.425
290.6748, 2683.681
291.1570, 2678.016
291.6391, 2668.828
292.1212, 2667.692
292.6033, 2681.498
293.0854, 2702.592
293.5675, 2716.189
294.0497, 2723.436
294.5318, 2723.192
295.0139, 2705.013
295.4960, 2679.078
295.9781, 2670.767
296.4602, 2691.517
296.9424, 2726.362
297.4245, 2749.109
297.9066, 2758.245
298.3887, 2767.417
298.8708, 2779.769
299.3529, 2795.123
299.8351, 2814.361
300.3172, 2838.712
300.7993, 2863.490
301.2814, 2882.501
301.7635, 2896.139
302.2456, 2905.031
302.7278, 2900.709
303.2099, 2894.639
303.6920, 2907.667
304.1741, 2945.946
304.6562, 2983.729
305.1383, 2985.920
305.6205, 2949.772
306.1026, 2930.497
306.5847, 2953.587
307.0668, 2987.133
307.5489, 2995.545
308.0310, 2974.405
308.5132, 2947.765
308.9953, 2937.563
309.4774, 2944.816
309.9595, 2950.221
310.4416, 2949.948
310.9237, 2949.800
311.4059, 2957.524
311.8880, 2972.231
312.3701, 2981.691
312.8522, 2974.515
313.3343, 2951.808
313.8164, 2937.798
314.2986, 2942.729
314.7807, 2946.920
315.2628, 2935.576
315.7449, 2912.187
316.2270, 2893.411
316.7091, 2891.799
317.1913, 2902.665
317.6734, 2898.536
318.1555, 2869.477
318.6376, 2838.683
319.1197, 2812.151
319.6018, 2790.317
320.0840, 2773.933
320.5661, 2763.738
321.0482, 2758.722
321.5303, 2756.284
322.0124, 2757.956
322.4945, 2759.648
322.9767, 2762.280
323.4588, 2764.017
323.9409, 2760.540
324.4230, 2749.730
324.9051, 2736.986
325.3872, 2733.251
325.8694, 2742.629
326.3515, 2754.056
326.8336, 2770.920
327.3157, 2787.463
327.7978, 2796.636
328.2799, 2796.855
328.7621, 2793.759
329.2442, 2795.070
329.7263, 2802.853
330.2084, 2810.454
330.6905, 2817.366
331.1726, 2824.437
331.6548, 2835.032
332.1369, 2848.067
332.6190, 2855.386
333.1011, 2845.869
333.5832, 2812.180
334.0653, 2805.221
334.5475, 2843.218
335.0296, 2885.768
335.5117, 2916.943
335.9938, 2935.693
336.4759, 2945.236
336.9580, 2946.420
337.4402, 2939.532
337.9223, 2943.902
338.4044, 2972.486
338.8865, 2997.830
339.3686, 3003.838
339.8507, 3002.911
340.3329, 3019.616
340.8150, 3069.968
341.2971, 3142.607
341.7792, 3188.602
342.2613, 3181.167
342.7434, 3178.981
343.2256, 3189.199
343.7077, 3207.387
344.1898, 3231.295
344.6719, 3259.800
345.1540, 3286.895
345.6361, 3298.849
346.1183, 3282.597
346.6004, 3276.474
347.0825, 3287.518
347.5646, 3304.756
348.0467, 3321.518
348.5288, 3335.911
349.0110, 3348.977
349.4931, 3362.338
349.9752, 3376.980
350.4573, 3388.090
350.9394, 3393.558
351.4215, 3397.158
351.9037, 3400.167
352.3858, 3402.778
352.8679, 3404.561
353.3500, 3402.166
353.8321, 3396.068
354.3142, 3404.765
354.7964, 3444.529
355.2785, 3479.542
355.7606, 3492.314
356.2427, 3490.530
356.7248, 3489.890
357.2069, 3499.395
357.6891, 3515.977
358.1712, 3529.874
358.6533, 3537.278
359.1354, 3551.057
359.6175, 3580.678
360.0996, 3617.339
360.5818, 3652.598
361.0639, 3685.387
361.5460, 3711.874
362.0281, 3720.965
362.5102, 3709.369
362.9923, 3710.869
363.4745, 3745.747
363.9566, 3793.111
364.4387, 3833.090
364.9208, 3863.407
365.4029, 3889.296
365.8850, 3913.955
366.3672, 3937.330
366.8493, 3958.535
367.3314, 3973.709
367.8135, 3992.289
368.2956, 4022.865
368.7777, 4064.600
369.2599, 4115.205
369.7420, 4182.549
370.2241, 4255.441
370.7062, 4312.740
371.1883, 4350.338
371.6704, 4383.182
372.1526, 4423.679
372.6347, 4470.701
373.1168, 4517.215
373.5989, 4554.941
374.0810, 4597.460
374.5631, 4656.813
375.0453, 4732.457
375.5274, 4815.999
376.0095, 4903.280
376.4916, 4995.124
376.9737, 5094.527
377.4558, 5207.700
377.9380, 5320.843
378.4201, 5427.693
378.9022, 5531.380
379.3843, 5636.246
379.8664, 5743.582
380.3485, 5854.651
380.8307, 5969.105
381.3128, 6075.413
381.7949, 6208.343
382.2770, 6386.656
382.7591, 6583.954
383.2412, 6769.586
383.7234, 6939.901
384.2055, 7117.265
384.6876, 7328.479
385.1697, 7584.326
385.6518, 7830.818
386.1339, 8048.831
386.6161, 8276.874
387.0982, 8533.998
387.5803, 8818.465
388.0624, 9118.142
388.5445, 9427.279
389.0266, 9745.132
389.5088, 10056.28
389.9909, 10340.76
390.4730, 10641.94
390.9551, 10969.92
391.4372, 11316.52
391.9193, 11668.21
392.4015, 12018.67
392.8836, 12378.90
393.3657, 12781.95
393.8478, 13252.24
394.3299, 13697.31
394.8120, 14086.63
395.2942, 14460.95
395.7763, 14848.50
396.2584, 15253.64
396.7405, 15657.06
397.2226, 16052.21
397.7047, 16437.85
398.1869, 16776.51
398.6690, 17030.93
399.1511, 17278.24
399.6332, 17588.86
400.1153, 17931.41
400.5974, 18216.27
401.0796, 18374.60
401.5617, 18449.54
402.0438, 18546.35
402.5259, 18681.70
403.0080, 18773.75
403.4901, 18762.85
403.9723, 18682.63
404.4544, 18579.98
404.9365, 18468.26
405.4186, 18325.78
405.9007, 18135.35
406.3828, 17899.17
406.8650, 17623.31
407.3471, 17300.72
407.8292, 16951.92
408.3113, 16604.69
408.7934, 16260.48
409.2755, 15918.38
409.7577, 15592.31
410.2398, 15264.76
410.7219, 14908.34
411.2040, 14518.75
411.6861, 14123.86
412.1682, 13750.67
412.6504, 13403.25
413.1325, 13060.67
413.6146, 12724.91
414.0967, 12391.16
414.5788, 12049.80
415.0609, 11706.27
415.5431, 11374.95
416.0252, 11064.87
416.5073, 10773.36
416.9894, 10482.21
417.4715, 10165.44
417.9536, 9879.376
418.4358, 9646.236
418.9179, 9439.079
419.4000, 9228.875
419.8821, 9006.648
420.3642, 8780.993
420.8463, 8562.581
421.3285, 8348.331
421.8106, 8152.995
422.2927, 7981.802
422.7748, 7824.359
423.2569, 7680.421
423.7390, 7547.009
424.2212, 7416.819
424.7033, 7285.269
425.1854, 7152.701
425.6675, 7016.724
426.1496, 6875.261
426.6317, 6735.285
427.1139, 6589.161
427.5960, 6449.207
428.0781, 6333.601
428.5602, 6254.629
429.0423, 6187.826
429.5244, 6102.287
430.0066, 5997.581
430.4887, 5893.563
430.9708, 5789.869
431.4529, 5695.470
431.9350, 5623.119
432.4171, 5574.035
432.8993, 5521.080
433.3814, 5446.294
433.8635, 5360.404
434.3456, 5280.239
434.8277, 5207.693
435.3098, 5145.406
435.7920, 5100.155
436.2741, 5070.000
436.7562, 5029.016
437.2383, 4967.167
437.7204, 4902.805
438.2025, 4845.758
438.6847, 4794.844
439.1668, 4744.571
439.6489, 4691.668
440.1310, 4639.322
440.6131, 4596.500
441.0952, 4570.958
441.5774, 4543.847
442.0595, 4514.954
442.5416, 4483.574
443.0237, 4449.330
443.5058, 4412.039
443.9879, 4371.412
444.4701, 4325.826
444.9522, 4273.635
445.4343, 4229.532
445.9164, 4197.210
446.3985, 4169.563
446.8806, 4149.685
447.3628, 4132.527
447.8449, 4109.335
448.3270, 4074.534
448.8091, 4032.599
449.2912, 3994.883
449.7733, 3964.413
450.2555, 3929.933
450.7376, 3874.353
451.2197, 3822.589
451.7018, 3800.453
452.1839, 3811.827
452.6660, 3820.461
453.1481, 3791.116
453.6302, 3732.483
454.1124, 3685.650
454.5945, 3657.066
455.0766, 3636.025
455.5587, 3617.193
456.0408, 3599.328
456.5229, 3578.461
457.0051, 3547.807
457.4872, 3518.053
457.9693, 3504.874
458.4514, 3503.924
458.9335, 3489.049
459.4156, 3444.143
459.8978, 3382.037
460.3799, 3337.119
460.8620, 3311.630
461.3441, 3295.403
461.8262, 3298.138
462.3083, 3303.264
462.7905, 3290.113
463.2726, 3256.383
463.7547, 3218.798
464.2368, 3194.399
464.7189, 3184.361
465.2010, 3177.657
465.6832, 3183.228
466.1653, 3182.461
466.6474, 3163.473
467.1295, 3135.281
467.6116, 3113.017
468.0938, 3104.782
468.5759, 3104.472
469.0580, 3099.006
469.5401, 3087.594
470.0222, 3073.166
470.5043, 3051.994
470.9865, 3031.096
471.4686, 3014.400
471.9507, 3002.416
472.4328, 2993.905
472.9149, 2992.042
473.3970, 2993.412
473.8792, 2983.108
474.3613, 2955.708
474.8434, 2931.141
475.3255, 2930.006
475.8076, 2940.073
476.2897, 2934.780
476.7719, 2898.308
477.2540, 2860.844
477.7361, 2843.306
478.2182, 2841.610
478.7003, 2845.217
479.1824, 2851.952
479.6646, 2857.446
480.1467, 2853.396
480.6288, 2834.044
481.1109, 2823.894
481.5930, 2833.908
482.0751, 2845.926
482.5573, 2846.257
483.0394, 2835.835
483.5215, 2822.555
484.0036, 2810.909
484.4857, 2802.312
484.9678, 2806.617
485.4500, 2836.171
485.9321, 2862.767
486.4142, 2886.931
486.8963, 2904.235
487.3784, 2906.210
487.8605, 2892.189
488.3427, 2877.568
488.8248, 2882.185
489.3069, 2907.051
489.7890, 2927.521
490.2711, 2941.008
490.7532, 2951.663
491.2354, 2959.680
491.7175, 2967.055
492.1996, 2978.745
492.6817, 2998.123
493.1638, 3021.066
493.6459, 3044.569
494.1281, 3068.364
494.6102, 3087.273
495.0923, 3097.032
495.5744, 3103.678
496.0565, 3118.479
496.5386, 3142.904
497.0208, 3166.744
497.5029, 3187.929
497.9850, 3207.213
498.4671, 3222.634
498.9492, 3235.398
499.4313, 3253.601
499.9135, 3284.794
500.3956, 3327.519
500.8777, 3363.924
501.3598, 3396.858
501.8419, 3419.733
502.3240, 3424.447
502.8062, 3421.592
503.2883, 3421.347
503.7704, 3427.196
504.2525, 3438.812
504.7346, 3457.563
505.2167, 3484.768
505.6989, 3509.236
506.1810, 3530.081
506.6631, 3548.617
507.1452, 3565.345
507.6273, 3580.407
508.1094, 3593.696
508.5916, 3602.974
509.0737, 3613.165
509.5558, 3629.932
510.0379, 3653.218
510.5200, 3684.921
511.0021, 3730.029
511.4843, 3778.734
511.9664, 3817.105
512.4485, 3845.615
512.9306, 3865.945
513.4127, 3867.527
513.8948, 3868.038
514.3770, 3886.170
514.8591, 3921.863
515.3412, 3964.004
515.8233, 4006.592
516.3054, 4048.002
516.7875, 4076.545
517.2697, 4061.725
517.7518, 4072.256
518.2339, 4142.843
518.7160, 4225.877
519.1981, 4270.480
519.6802, 4269.245
520.1624, 4258.110
520.6445, 4278.285
521.1266, 4330.741
521.6087, 4374.466
522.0908, 4404.402
522.5729, 4432.442
523.0551, 4464.509
523.5372, 4498.087
524.0193, 4528.772
524.5014, 4554.531
524.9835, 4579.016
525.4656, 4604.756
525.9478, 4631.970
526.4299, 4664.544
526.9120, 4706.674
527.3941, 4745.779
527.8762, 4762.174
528.3583, 4754.486
528.8405, 4760.026
529.3226, 4797.931
529.8047, 4836.253
530.2868, 4850.604
530.7689, 4847.727
531.2510, 4850.131
531.7332, 4869.905
532.2153, 4897.512
532.6974, 4908.991
533.1795, 4893.528
533.6616, 4881.154
534.1437, 4874.093
534.6259, 4868.586
535.1080, 4863.621
535.5901, 4858.295
536.0722, 4850.957
536.5543, 4840.406
537.0364, 4827.037
537.5186, 4812.307
538.0007, 4796.450
538.4828, 4778.137
538.9649, 4754.215
539.4470, 4729.227
539.9291, 4708.486
540.4113, 4692.636
540.8934, 4678.902
541.3755, 4674.014
541.8576, 4667.320
542.3397, 4638.141
542.8218, 4584.847
543.3040, 4529.274
543.7861, 4487.287
544.2682, 4457.313
544.7503, 4426.285
545.2324, 4394.296
545.7145, 4361.209
546.1967, 4322.538
546.6788, 4285.315
547.1609, 4259.482
547.6430, 4246.071
548.1251, 4234.973
548.6072, 4216.502
549.0894, 4190.696
549.5715, 4154.067
550.0536, 4094.732
550.5357, 4041.577
551.0178, 4006.496
551.4999, 3982.563
551.9821, 3960.425
552.4642, 3937.677
552.9463, 3915.707
553.4284, 3900.560
553.9105, 3888.159
554.3926, 3859.468
554.8748, 3807.196
555.3569, 3752.215
555.8390, 3714.968
556.3211, 3695.121
556.8032, 3670.359
557.2853, 3635.882
557.7675, 3600.811
558.2496, 3565.161
558.7317, 3532.853
559.2138, 3514.169
559.6959, 3512.328
560.1780, 3513.281
560.6602, 3492.846
561.1423, 3440.682
561.6244, 3408.818
562.1065, 3419.996
562.5886, 3430.050
563.0707, 3423.392
563.5529, 3404.864
564.0350, 3384.506
564.5171, 3366.442
564.9992, 3348.834
565.4813, 3330.878
565.9634, 3312.234
566.4456, 3284.613
566.9277, 3238.466
567.4098, 3196.085
567.8919, 3190.646
568.3740, 3217.250
568.8561, 3225.873
569.3383, 3196.650
569.8204, 3158.836
570.3025, 3122.870
570.7846, 3093.706
571.2667, 3086.190
571.7488, 3107.126
572.2310, 3135.724
572.7131, 3132.430
573.1952, 3078.958
573.6773, 3042.863
574.1594, 3039.984
574.6415, 3037.772
575.1237, 3013.822
575.6058, 2980.649
576.0879, 2969.028
576.5700, 3000.230
577.0521, 3042.766
577.5342, 3042.664
578.0164, 2999.606
578.4985, 2965.255
578.9806, 2952.140
579.4627, 2950.690
579.9448, 2958.535
580.4269, 2973.733
580.9091, 2972.202
581.3912, 2927.297
581.8733, 2884.246
582.3554, 2881.824
582.8375, 2906.210
583.3196, 2920.931
583.8018, 2910.781
584.2839, 2884.658
584.7660, 2855.627
585.2481, 2816.269
585.7302, 2795.981
586.2123, 2811.292
586.6945, 2827.905
587.1766, 2832.218
587.6587, 2827.093
588.1408, 2819.532
588.6229, 2811.769
589.1050, 2806.035
589.5872, 2808.439
590.0693, 2818.439
590.5514, 2819.554
591.0335, 2804.004
591.5156, 2786.662
591.9977, 2781.738
592.4799, 2788.078
592.9620, 2800.384
593.4441, 2826.004
593.9262, 2849.464
594.4083, 2860.334
594.8904, 2862.648
595.3726, 2862.304
595.8547, 2861.618
596.3368, 2865.579
596.8189, 2883.841
597.3010, 2922.518
597.7831, 2945.939
598.2653, 2933.964
598.7474, 2927.364
599.2295, 2945.152
599.7116, 2974.691
600.1937, 2995.618
600.6758, 2999.678
601.1580, 2998.599
601.6401, 3004.729
602.1222, 3016.589
