##NAMES=Wardite
##RRUFFID=R050643
##IDEAL CHEMISTRY=NaAl_3_(PO_4_)_2_(OH)_4_&#183;2H_2_O
##LOCALITY=Big Fish River, Yukon Territory, Canada
##OWNER=RRUFF
##SOURCE=Rock Currier
##DESCRIPTION=Tan bipyramidal pseudo-octahedral crystals
##STATUS=The identification of this mineral has been confirmed by X-ray diffraction and chemical analysis
##URL=rruff.info/R050643
##MEASURED CHEMISTRY=(Na_0.93_[box]_0.05_Ca_0.02_)_Σ=1_(Al_2.97_Fe^3+^_0.03_)_Σ=3_(P_1.00_O_4_)_2_((OH)_3.88_F_0.12_)_Σ=4_·2H_2_O
89.78156, 0.0000000E+00
90.26367, 49.79158
90.74579, 49.41142
91.22791, 49.35072
91.71002, 49.61746
92.19214, 50.31151
92.67426, 51.07727
93.15638, 52.27736
93.63850, 54.92762
94.12061, 60.62617
94.60273, 67.69012
95.08485, 72.63987
95.56696, 75.50060
96.04908, 75.78017
96.53120, 71.14756
97.01331, 61.97939
97.49543, 54.24964
97.97755, 51.25488
98.45966, 52.73716
98.94178, 53.30925
99.42390, 52.70128
99.90602, 51.51026
100.3881, 50.80377
100.8703, 50.61510
101.3524, 50.79580
101.8345, 51.43555
102.3166, 52.75294
102.7987, 53.52818
103.2808, 53.49294
103.7630, 52.85878
104.2451, 52.52904
104.7272, 52.48290
105.2093, 52.76534
105.6914, 53.50124
106.1735, 55.27332
106.6557, 56.45594
107.1378, 56.41431
107.6199, 55.07673
108.1020, 55.03986
108.5841, 57.79950
109.0662, 61.07570
109.5484, 62.85876
110.0305, 60.84052
110.5126, 59.64078
110.9947, 60.05957
111.4768, 62.27549
111.9590, 65.34988
112.4411, 70.39159
112.9232, 75.98880
113.4053, 80.17729
113.8874, 80.90359
114.3695, 81.59750
114.8517, 83.51534
115.3338, 87.00105
115.8159, 91.21184
116.2980, 95.80529
116.7801, 100.9912
117.2622, 107.1584
117.7444, 113.3843
118.2265, 121.3164
118.7086, 132.2253
119.1907, 147.8512
119.6728, 164.4583
120.1549, 179.3964
120.6371, 193.3422
121.1192, 209.1093
121.6013, 229.7929
122.0834, 252.5293
122.5655, 274.0640
123.0476, 293.2766
123.5298, 311.0160
124.0119, 327.7466
124.4940, 343.5067
124.9761, 358.9066
125.4582, 374.2576
125.9404, 389.4911
126.4225, 404.3352
126.9046, 417.7724
127.3867, 431.0335
127.8688, 445.8877
128.3509, 462.3214
128.8331, 480.4839
129.3152, 499.8580
129.7973, 520.8978
130.2794, 545.2842
130.7615, 574.3292
131.2436, 607.4324
131.7258, 642.4222
132.2079, 679.3871
132.6900, 717.7421
133.1721, 756.8544
133.6542, 796.5585
134.1364, 836.7776
134.6185, 880.5057
135.1006, 927.4568
135.5827, 965.3024
136.0648, 992.7247
136.5469, 1011.519
137.0291, 1025.029
137.5112, 1032.513
137.9933, 1037.388
138.4754, 1042.005
138.9575, 1046.664
139.4396, 1048.717
139.9218, 1047.005
140.4039, 1042.478
140.8860, 1039.533
141.3681, 1037.932
141.8502, 1038.407
142.3323, 1041.687
142.8145, 1048.420
143.2966, 1056.296
143.7787, 1064.443
144.2608, 1072.989
144.7429, 1084.903
145.2250, 1101.008
145.7072, 1119.909
146.1893, 1140.281
146.6714, 1161.159
147.1535, 1184.967
147.6356, 1213.190
148.1178, 1246.794
148.5999, 1277.710
149.0820, 1308.713
149.5641, 1335.711
150.0462, 1353.492
150.5283, 1355.673
151.0105, 1354.788
151.4926, 1340.723
151.9747, 1323.327
152.4568, 1308.377
152.9389, 1295.207
153.4210, 1284.749
153.9032, 1278.171
154.3853, 1278.081
154.8674, 1279.691
155.3495, 1281.156
155.8316, 1280.917
156.3137, 1283.778
156.7959, 1290.114
157.2780, 1299.919
157.7601, 1313.203
158.2422, 1330.023
158.7243, 1350.248
159.2065, 1374.032
159.6886, 1401.929
160.1707, 1432.233
160.6528, 1466.188
161.1349, 1502.372
161.6170, 1537.030
162.0992, 1568.338
162.5813, 1598.005
163.0634, 1627.027
163.5455, 1654.731
164.0276, 1683.051
164.5097, 1712.778
164.9919, 1743.814
165.4740, 1775.799
165.9561, 1807.136
166.4382, 1839.908
166.9203, 1876.399
167.4024, 1918.405
167.8846, 1963.064
168.3667, 2008.595
168.8488, 2055.295
169.3309, 2105.129
169.8130, 2159.619
170.2952, 2218.043
170.7773, 2278.723
171.2594, 2341.809
171.7415, 2406.888
172.2236, 2472.164
172.7057, 2538.023
173.1879, 2611.042
173.6700, 2695.490
174.1521, 2790.430
174.6342, 2894.373
175.1163, 3007.636
175.5984, 3130.254
176.0806, 3266.733
176.5627, 3417.831
177.0448, 3563.226
177.5269, 3706.936
178.0090, 3832.664
178.4911, 3905.081
178.9733, 3916.049
179.4554, 3862.480
179.9375, 3725.112
180.4196, 3500.994
180.9017, 3238.439
181.3838, 2965.140
181.8660, 2690.999
182.3481, 2441.055
182.8302, 2227.168
183.3123, 2047.350
183.7944, 1900.078
184.2766, 1785.030
184.7587, 1695.566
185.2408, 1626.559
185.7229, 1576.982
186.2050, 1536.963
186.6871, 1505.116
187.1693, 1479.521
187.6514, 1455.306
188.1335, 1431.900
188.6156, 1409.695
189.0977, 1389.200
189.5798, 1370.403
190.0620, 1351.840
190.5441, 1331.395
191.0262, 1309.764
191.5083, 1292.210
191.9904, 1279.336
192.4725, 1269.072
192.9547, 1258.061
193.4368, 1246.183
193.9189, 1234.392
194.4010, 1222.939
194.8831, 1211.868
195.3652, 1201.600
195.8474, 1191.791
196.3295, 1183.392
196.8116, 1178.751
197.2937, 1178.140
197.7758, 1178.738
198.2579, 1179.113
198.7401, 1179.252
199.2222, 1179.159
199.7043, 1178.082
200.1864, 1177.560
200.6685, 1181.933
201.1507, 1192.038
201.6328, 1202.954
202.1149, 1211.365
202.5970, 1216.870
203.0791, 1223.938
203.5612, 1232.889
204.0434, 1243.558
204.5255, 1255.669
205.0076, 1269.492
205.4897, 1283.849
205.9718, 1298.388
206.4539, 1313.385
206.9361, 1326.759
207.4182, 1337.625
207.9003, 1347.058
208.3824, 1358.686
208.8645, 1372.601
209.3466, 1388.588
209.8288, 1407.047
210.3109, 1428.537
210.7930, 1449.852
211.2751, 1469.980
211.7572, 1489.849
212.2393, 1513.881
212.7215, 1542.513
213.2036, 1573.733
213.6857, 1606.197
214.1678, 1639.811
214.6499, 1675.294
215.1320, 1712.806
215.6142, 1752.548
216.0963, 1794.645
216.5784, 1839.293
217.0605, 1885.510
217.5426, 1932.302
218.0247, 1977.970
218.5069, 2027.946
218.9890, 2083.766
219.4711, 2144.306
219.9532, 2206.220
220.4353, 2273.678
220.9175, 2336.618
221.3996, 2392.563
221.8817, 2449.067
222.3638, 2477.735
222.8459, 2474.655
223.3280, 2441.260
223.8102, 2383.905
224.2923, 2291.963
224.7744, 2191.003
225.2565, 2095.519
225.7386, 2001.951
226.2207, 1922.870
226.7029, 1861.103
227.1850, 1814.940
227.6671, 1779.043
228.1492, 1755.283
228.6313, 1739.076
229.1134, 1727.890
229.5956, 1721.856
230.0777, 1720.587
230.5598, 1725.838
231.0419, 1736.098
231.5240, 1743.994
232.0062, 1748.877
232.4883, 1752.337
232.9704, 1755.964
233.4525, 1762.883
233.9346, 1763.208
234.4167, 1755.869
234.8989, 1741.352
235.3810, 1721.600
235.8631, 1694.423
236.3452, 1664.492
236.8273, 1633.702
237.3094, 1600.539
237.7916, 1569.731
238.2737, 1540.713
238.7558, 1514.051
239.2379, 1491.616
239.7200, 1473.683
240.2021, 1459.548
240.6843, 1448.815
241.1664, 1442.002
241.6485, 1437.515
242.1306, 1435.690
242.6127, 1436.136
243.0948, 1437.468
243.5770, 1439.907
244.0591, 1443.001
244.5412, 1446.448
245.0233, 1449.982
245.5054, 1454.443
245.9876, 1459.114
246.4697, 1464.832
246.9518, 1474.674
247.4339, 1490.312
247.9160, 1507.651
248.3981, 1524.371
248.8803, 1539.197
249.3624, 1556.707
249.8445, 1577.522
250.3266, 1600.900
250.8087, 1624.833
251.2908, 1648.374
251.7730, 1673.609
252.2551, 1701.362
252.7372, 1732.751
253.2193, 1764.223
253.7014, 1795.272
254.1835, 1826.351
254.6657, 1858.317
255.1478, 1891.826
255.6299, 1925.174
256.1120, 1958.066
256.5941, 1990.249
257.0763, 2022.637
257.5584, 2057.725
258.0405, 2091.844
258.5226, 2118.373
259.0047, 2140.199
259.4868, 2149.134
259.9690, 2142.610
260.4511, 2121.099
260.9332, 2081.181
261.4153, 2018.253
261.8974, 1940.465
262.3795, 1861.109
262.8617, 1777.234
263.3438, 1697.108
263.8259, 1621.449
264.3080, 1549.786
264.7901, 1489.232
265.2722, 1441.593
265.7544, 1402.875
266.2365, 1368.520
266.7186, 1338.766
267.2007, 1312.867
267.6828, 1291.122
268.1649, 1273.363
268.6471, 1258.596
269.1292, 1247.072
269.6113, 1237.715
270.0934, 1229.127
270.5755, 1221.048
271.0576, 1214.495
271.5398, 1210.144
272.0219, 1207.882
272.5040, 1205.260
272.9861, 1202.596
273.4682, 1198.976
273.9503, 1192.566
274.4325, 1182.543
274.9146, 1174.632
275.3967, 1170.964
275.8788, 1170.795
276.3610, 1167.976
276.8431, 1161.682
277.3252, 1155.338
277.8073, 1152.502
278.2894, 1153.498
278.7715, 1154.303
279.2537, 1154.051
279.7358, 1153.033
280.2179, 1152.754
280.7000, 1153.527
281.1821, 1153.653
281.6642, 1150.971
282.1464, 1145.458
282.6285, 1141.922
283.1106, 1141.887
283.5927, 1143.691
284.0748, 1142.575
284.5569, 1138.260
285.0391, 1133.352
285.5212, 1129.291
286.0033, 1126.070
286.4854, 1123.685
286.9675, 1121.951
287.4496, 1121.295
287.9318, 1123.737
288.4139, 1129.353
288.8960, 1133.464
289.3781, 1131.922
289.8602, 1126.049
290.3423, 1122.717
290.8245, 1122.907
291.3066, 1124.807
291.7887, 1125.451
292.2708, 1125.035
292.7529, 1125.300
293.2350, 1127.990
293.7172, 1132.169
294.1993, 1134.635
294.6814, 1135.017
295.1635, 1134.805
295.6456, 1135.518
296.1277, 1137.125
296.6099, 1139.545
297.0920, 1143.463
297.5741, 1147.972
298.0562, 1151.170
298.5383, 1152.947
299.0204, 1154.093
299.5026, 1155.295
299.9847, 1156.461
300.4668, 1157.368
300.9489, 1157.447
301.4311, 1157.462
301.9132, 1158.447
302.3953, 1160.403
302.8774, 1163.002
303.3595, 1166.235
303.8416, 1169.913
304.3238, 1173.801
304.8059, 1177.810
305.2880, 1181.927
305.7701, 1185.721
306.2522, 1189.380
306.7343, 1193.837
307.2165, 1199.506
307.6986, 1206.443
308.1807, 1214.887
308.6628, 1225.782
309.1449, 1236.915
309.6270, 1247.179
310.1092, 1256.541
310.5913, 1264.588
311.0734, 1269.108
311.5555, 1273.296
312.0376, 1279.993
312.5197, 1290.233
313.0019, 1301.587
313.4840, 1313.720
313.9661, 1326.098
314.4482, 1337.746
314.9303, 1347.388
315.4124, 1356.814
315.8946, 1366.715
316.3767, 1377.021
316.8588, 1388.868
317.3409, 1403.601
317.8230, 1420.019
318.3051, 1436.466
318.7873, 1452.269
319.2694, 1468.374
319.7515, 1485.725
320.2336, 1504.535
320.7157, 1522.046
321.1978, 1537.065
321.6800, 1550.473
322.1621, 1563.000
322.6442, 1575.626
323.1263, 1586.505
323.6084, 1595.820
324.0905, 1603.428
324.5727, 1607.395
325.0548, 1604.520
325.5369, 1599.765
326.0190, 1596.127
326.5012, 1592.950
326.9833, 1591.972
327.4654, 1593.725
327.9475, 1597.913
328.4296, 1603.269
328.9117, 1608.882
329.3939, 1616.468
329.8760, 1626.885
330.3581, 1641.537
330.8402, 1656.471
331.3223, 1671.779
331.8044, 1687.375
332.2866, 1703.315
332.7687, 1720.565
333.2508, 1736.508
333.7329, 1751.456
334.2150, 1766.949
334.6971, 1773.938
335.1793, 1771.864
335.6614, 1761.922
336.1435, 1745.325
336.6256, 1720.921
337.1077, 1692.413
337.5898, 1659.970
338.0720, 1623.564
338.5541, 1590.601
339.0362, 1561.434
339.5183, 1534.419
340.0004, 1507.891
340.4825, 1481.147
340.9647, 1458.451
341.4468, 1441.111
341.9289, 1428.023
342.4110, 1414.930
342.8931, 1401.563
343.3752, 1390.536
343.8574, 1384.329
344.3395, 1382.638
344.8216, 1381.946
345.3037, 1381.954
345.7858, 1382.638
346.2679, 1384.377
346.7501, 1387.083
347.2322, 1389.325
347.7143, 1390.739
348.1964, 1391.119
348.6785, 1389.577
349.1607, 1385.877
349.6428, 1381.343
350.1249, 1377.519
350.6070, 1374.104
351.0891, 1370.023
351.5713, 1364.083
352.0534, 1357.672
352.5355, 1353.069
353.0176, 1350.273
353.4997, 1347.479
353.9818, 1343.082
354.4640, 1337.847
354.9461, 1332.946
355.4282, 1329.225
355.9103, 1325.368
356.3924, 1319.450
356.8745, 1312.118
357.3567, 1306.054
357.8388, 1304.182
358.3209, 1303.406
358.8030, 1300.425
359.2851, 1293.195
359.7672, 1287.820
360.2494, 1288.385
360.7315, 1293.029
361.2136, 1298.280
361.6957, 1306.037
362.1778, 1311.507
362.6599, 1311.452
363.1421, 1304.954
363.6242, 1298.283
364.1063, 1293.549
364.5884, 1289.427
365.0705, 1284.603
365.5526, 1278.310
366.0348, 1271.815
366.5169, 1264.846
366.9990, 1257.521
367.4811, 1251.734
367.9632, 1249.667
368.4453, 1247.787
368.9275, 1244.055
369.4096, 1235.886
369.8917, 1229.393
370.3738, 1224.386
370.8559, 1221.120
371.3380, 1220.549
371.8202, 1224.568
372.3023, 1228.713
372.7844, 1231.235
373.2665, 1231.728
373.7487, 1232.175
374.2308, 1232.323
374.7129, 1232.689
375.1950, 1233.523
375.6771, 1234.024
376.1592, 1237.766
376.6414, 1246.755
377.1235, 1260.296
377.6056, 1271.283
378.0877, 1279.127
378.5698, 1286.689
379.0519, 1296.982
379.5341, 1309.944
380.0162, 1322.218
380.4983, 1332.906
380.9804, 1342.904
381.4625, 1353.666
381.9446, 1365.316
382.4268, 1377.365
382.9089, 1388.862
383.3910, 1400.482
383.8731, 1415.342
384.3552, 1434.013
384.8373, 1453.915
385.3195, 1471.996
385.8016, 1488.745
386.2837, 1505.985
386.7658, 1525.444
387.2479, 1545.134
387.7300, 1562.383
388.2122, 1577.207
388.6943, 1591.936
389.1764, 1607.973
389.6585, 1624.925
390.1406, 1642.177
390.6227, 1660.669
391.1049, 1677.813
391.5870, 1691.150
392.0691, 1701.493
392.5512, 1711.289
393.0333, 1721.166
393.5154, 1731.202
393.9976, 1741.385
394.4797, 1751.612
394.9618, 1762.337
395.4439, 1774.190
395.9260, 1786.494
396.4081, 1798.303
396.8903, 1811.177
397.3724, 1821.962
397.8545, 1829.287
398.3366, 1833.011
398.8188, 1836.799
399.3009, 1843.819
399.7830, 1849.017
400.2651, 1849.260
400.7472, 1844.250
401.2293, 1834.605
401.7115, 1819.580
402.1936, 1799.970
402.6757, 1778.070
403.1578, 1753.607
403.6399, 1727.173
404.1220, 1698.973
404.6042, 1668.536
405.0863, 1638.089
405.5684, 1607.875
406.0505, 1577.784
406.5326, 1547.360
407.0147, 1516.171
407.4969, 1487.172
407.9790, 1460.876
408.4611, 1437.225
408.9432, 1416.110
409.4253, 1397.711
409.9074, 1381.242
410.3896, 1366.179
410.8717, 1352.462
411.3538, 1339.670
411.8359, 1327.711
412.3180, 1317.072
412.8001, 1308.702
413.2823, 1302.475
413.7644, 1297.260
414.2465, 1292.608
414.7286, 1288.605
415.2107, 1285.390
415.6928, 1283.004
416.1750, 1280.974
416.6571, 1279.088
417.1392, 1277.312
417.6213, 1275.547
418.1034, 1273.942
418.5855, 1272.167
419.0677, 1269.252
419.5498, 1265.783
420.0319, 1264.064
420.5140, 1266.380
420.9961, 1269.758
421.4782, 1272.589
421.9604, 1274.869
422.4425, 1275.988
422.9246, 1274.845
423.4067, 1272.721
423.8889, 1271.358
424.3710, 1271.658
424.8531, 1272.018
425.3352, 1271.934
425.8173, 1271.398
426.2994, 1271.594
426.7816, 1272.755
427.2637, 1274.415
427.7458, 1276.373
428.2279, 1279.029
428.7100, 1280.994
429.1921, 1281.883
429.6743, 1282.213
430.1564, 1283.089
430.6385, 1284.512
431.1206, 1286.514
431.6027, 1289.635
432.0848, 1293.778
432.5670, 1295.243
433.0491, 1293.263
433.5312, 1291.790
434.0133, 1296.028
434.4954, 1305.103
434.9775, 1313.125
435.4597, 1318.600
435.9418, 1322.348
436.4239, 1325.344
436.9060, 1327.639
437.3881, 1329.703
437.8702, 1331.453
438.3524, 1333.275
438.8345, 1336.087
439.3166, 1340.213
439.7987, 1343.682
440.2808, 1344.930
440.7629, 1344.477
441.2451, 1343.133
441.7272, 1340.195
442.2093, 1337.352
442.6914, 1335.937
443.1735, 1335.662
443.6556, 1334.563
444.1378, 1331.418
444.6199, 1327.573
445.1020, 1323.757
445.5841, 1319.466
446.0662, 1316.461
446.5483, 1315.911
447.0305, 1316.625
447.5126, 1316.577
447.9947, 1313.884
448.4768, 1312.685
448.9590, 1314.388
449.4411, 1319.059
449.9232, 1322.766
450.4053, 1325.283
450.8874, 1327.178
451.3695, 1328.610
451.8517, 1329.265
452.3338, 1330.908
452.8159, 1333.990
453.2980, 1337.740
453.7801, 1340.470
454.2622, 1342.059
454.7444, 1343.986
455.2265, 1347.019
455.7086, 1350.951
456.1907, 1355.080
456.6728, 1359.532
457.1549, 1363.229
457.6371, 1364.995
458.1192, 1365.321
458.6013, 1365.438
459.0834, 1365.703
459.5655, 1365.750
460.0476, 1364.771
460.5298, 1363.168
461.0119, 1362.179
461.4940, 1362.624
461.9761, 1363.790
462.4582, 1364.865
462.9403, 1365.708
463.4225, 1367.787
463.9046, 1373.484
464.3867, 1379.980
464.8688, 1384.476
465.3509, 1383.516
465.8330, 1383.737
466.3152, 1386.605
466.7973, 1391.721
467.2794, 1397.600
467.7615, 1403.869
468.2436, 1411.250
468.7257, 1420.122
469.2079, 1430.555
469.6900, 1441.522
470.1721, 1452.556
470.6542, 1464.536
471.1363, 1478.848
471.6184, 1496.378
472.1006, 1512.689
472.5827, 1526.888
473.0648, 1539.440
473.5469, 1551.203
474.0291, 1562.018
474.5112, 1573.947
474.9933, 1588.825
475.4754, 1605.955
475.9575, 1622.130
476.4396, 1637.111
476.9218, 1652.231
477.4039, 1669.128
477.8860, 1687.129
478.3681, 1704.442
478.8502, 1719.991
479.3323, 1735.224
479.8145, 1751.815
480.2966, 1769.497
480.7787, 1786.557
481.2608, 1803.335
481.7429, 1818.681
482.2250, 1831.550
482.7072, 1841.545
483.1893, 1850.669
483.6714, 1861.923
484.1535, 1871.636
484.6356, 1876.167
485.1177, 1873.358
485.5999, 1867.295
486.0820, 1858.469
486.5641, 1846.932
487.0462, 1832.152
487.5283, 1813.461
488.0104, 1792.424
488.4926, 1769.096
488.9747, 1743.383
489.4568, 1717.113
489.9389, 1690.161
490.4210, 1663.256
490.9031, 1637.586
491.3853, 1613.040
491.8674, 1589.194
492.3495, 1565.796
492.8316, 1543.472
493.3137, 1523.245
493.7958, 1505.081
494.2780, 1489.804
494.7601, 1479.034
495.2422, 1471.260
495.7243, 1463.717
496.2064, 1456.137
496.6885, 1450.117
497.1707, 1448.084
497.6528, 1447.883
498.1349, 1446.477
498.6170, 1442.079
499.0992, 1437.626
499.5813, 1433.931
500.0634, 1431.344
500.5455, 1430.666
501.0276, 1433.221
501.5097, 1436.772
501.9919, 1441.077
502.4740, 1446.486
502.9561, 1449.713
503.4382, 1447.988
503.9203, 1445.851
504.4024, 1446.642
504.8846, 1452.836
505.3667, 1456.741
505.8488, 1457.098
506.3309, 1455.419
506.8130, 1455.020
507.2951, 1456.189
507.7773, 1457.331
508.2594, 1457.515
508.7415, 1457.125
509.2236, 1459.213
509.7057, 1464.069
510.1878, 1467.772
510.6700, 1467.620
511.1521, 1463.762
511.6342, 1456.057
512.1163, 1443.870
512.5984, 1430.375
513.0806, 1419.403
513.5627, 1409.617
514.0448, 1398.219
514.5269, 1382.246
515.0090, 1365.664
515.4911, 1350.997
515.9733, 1338.038
516.4554, 1325.689
516.9375, 1312.359
517.4196, 1300.193
517.9017, 1290.880
518.3839, 1286.400
518.8660, 1280.296
519.3481, 1270.834
519.8302, 1259.922
520.3123, 1249.534
520.7944, 1238.619
521.2766, 1230.148
521.7587, 1225.309
522.2408, 1223.194
522.7229, 1219.839
523.2050, 1214.761
523.6871, 1210.312
524.1693, 1208.263
524.6514, 1208.380
525.1335, 1206.710
525.6156, 1202.983
526.0977, 1199.220
526.5798, 1197.894
527.0620, 1198.183
527.5441, 1197.509
528.0262, 1194.764
528.5083, 1191.853
528.9904, 1191.072
529.4725, 1191.745
529.9547, 1192.261
530.4368, 1191.308
530.9189, 1190.317
531.4010, 1189.955
531.8831, 1190.265
532.3652, 1191.660
532.8474, 1196.021
533.3295, 1200.302
533.8116, 1202.453
534.2937, 1199.724
534.7758, 1199.191
535.2579, 1202.356
535.7401, 1207.155
536.2222, 1210.520
536.7043, 1212.021
537.1864, 1213.243
537.6685, 1214.358
538.1506, 1215.510
538.6328, 1217.474
539.1149, 1220.463
539.5970, 1223.165
540.0791, 1224.038
540.5612, 1223.771
541.0433, 1225.891
541.5255, 1230.703
542.0076, 1236.075
542.4897, 1240.416
542.9718, 1243.743
543.4539, 1245.960
543.9360, 1246.220
544.4182, 1246.723
544.9003, 1249.557
545.3824, 1253.909
545.8645, 1257.991
546.3466, 1260.948
546.8287, 1263.572
547.3109, 1266.539
547.7930, 1269.862
548.2751, 1271.740
548.7572, 1270.254
549.2393, 1268.536
549.7214, 1268.395
550.2036, 1271.136
550.6857, 1272.431
551.1678, 1271.548
551.6499, 1269.996
552.1320, 1270.123
552.6141, 1272.310
553.0963, 1273.726
553.5784, 1273.517
554.0605, 1272.307
554.5426, 1271.481
555.0247, 1271.053
555.5068, 1271.229
555.9890, 1272.663
556.4711, 1274.604
556.9532, 1275.548
557.4353, 1275.436
557.9174, 1275.355
558.3995, 1276.717
558.8817, 1278.265
559.3638, 1278.384
559.8459, 1275.552
560.3281, 1273.591
560.8102, 1275.356
561.2923, 1278.686
561.7744, 1280.173
562.2565, 1277.425
562.7386, 1274.723
563.2208, 1272.862
563.7029, 1271.790
564.1850, 1271.008
564.6671, 1270.563
565.1492, 1270.358
565.6313, 1270.395
566.1135, 1270.699
566.5956, 1270.817
567.0777, 1270.580
567.5598, 1270.752
568.0419, 1272.146
568.5240, 1274.647
569.0062, 1277.954
569.4883, 1282.277
569.9704, 1286.636
570.4525, 1289.441
570.9346, 1291.249
571.4167, 1293.360
571.8989, 1296.935
572.3810, 1300.617
572.8631, 1303.207
573.3452, 1304.906
573.8273, 1307.267
574.3094, 1311.181
574.7916, 1315.654
575.2737, 1320.249
575.7558, 1325.060
576.2379, 1329.490
576.7200, 1332.826
577.2021, 1336.292
577.6843, 1341.182
578.1664, 1348.131
578.6485, 1354.509
579.1306, 1360.177
579.6127, 1365.045
580.0948, 1368.695
580.5770, 1371.103
581.0591, 1374.132
581.5412, 1378.719
582.0233, 1384.262
582.5054, 1389.490
582.9875, 1394.390
583.4697, 1399.419
583.9518, 1404.483
