##NAMES=Warikahnite
##RRUFFID=R080105
##IDEAL CHEMISTRY=Zn^2+^_3_(As^5+^O_4_)_2_&#183;2H_2_O
##LOCALITY=O stope, 31st level, Tsumeb, Namibia
##OWNER=RRUFF
##SOURCE=William W. Pinch
##DESCRIPTION=Transparent yellow flattened striated crystal fragments
##STATUS=The identification of this mineral is confirmed by single-crystal X-ray diffraction and chemical analysis.
##URL=rruff.info/R080105
##MEASURED CHEMISTRY=(Zn_2.87_Fe_0.04_Mn_0.03_Cd_0.02_)(As_1.01_O_4_)_2_.2H_2_O
92.52344, 1132.815
93.00555, 1130.735
93.48767, 1131.707
93.96979, 1155.118
94.45190, 1181.174
94.93402, 1206.470
95.41614, 1214.955
95.89825, 1211.882
96.38037, 1207.012
96.86249, 1200.677
97.34460, 1194.804
97.82672, 1191.073
98.30884, 1188.012
98.79095, 1187.024
99.27307, 1185.196
99.75519, 1178.719
100.2373, 1168.412
100.7194, 1156.351
101.2015, 1148.057
101.6837, 1142.213
102.1658, 1139.823
102.6479, 1143.072
103.1300, 1152.371
103.6121, 1161.803
104.0942, 1169.164
104.5764, 1173.565
105.0585, 1171.881
105.5406, 1161.871
106.0227, 1144.883
106.5048, 1124.214
106.9869, 1095.620
107.4691, 1068.608
107.9512, 1047.162
108.4333, 1030.486
108.9154, 1016.582
109.3975, 1003.609
109.8796, 991.1725
110.3618, 981.9839
110.8439, 976.8875
111.3260, 974.0865
111.8081, 972.6130
112.2902, 972.5224
112.7723, 974.8115
113.2544, 981.1270
113.7366, 994.4239
114.2187, 1006.643
114.7008, 1019.335
115.1829, 1030.373
115.6650, 1038.434
116.1471, 1043.124
116.6293, 1043.606
117.1114, 1036.704
117.5935, 1019.424
118.0756, 1001.825
118.5577, 985.3517
119.0398, 970.1780
119.5220, 956.4891
120.0041, 944.3839
120.4862, 934.1584
120.9683, 925.7631
121.4504, 919.3941
121.9325, 914.4052
122.4147, 910.3117
122.8968, 907.0814
123.3789, 905.0660
123.8610, 904.5341
124.3431, 905.3607
124.8252, 907.9000
125.3074, 912.7453
125.7895, 918.7669
126.2716, 923.5980
126.7537, 926.6326
127.2358, 929.3956
127.7179, 932.0303
128.2001, 934.8116
128.6822, 938.1194
129.1643, 942.1708
129.6464, 946.9609
130.1285, 952.2015
130.6107, 957.5551
131.0928, 963.7985
131.5749, 971.0756
132.0570, 979.3908
132.5391, 988.9850
133.0212, 1000.310
133.5034, 1014.071
133.9855, 1024.570
134.4676, 1030.985
134.9497, 1035.598
135.4318, 1038.692
135.9139, 1040.676
136.3960, 1043.126
136.8782, 1047.592
137.3603, 1054.222
137.8424, 1063.633
138.3245, 1077.207
138.8066, 1093.053
139.2887, 1109.467
139.7709, 1126.378
140.2530, 1142.402
140.7351, 1156.001
141.2172, 1167.441
141.6993, 1176.480
142.1814, 1183.042
142.6636, 1187.062
143.1457, 1188.064
143.6278, 1184.561
144.1099, 1179.257
144.5920, 1174.682
145.0741, 1170.878
145.5563, 1166.746
146.0384, 1161.816
146.5205, 1156.295
147.0026, 1148.335
147.4847, 1136.369
147.9668, 1122.530
148.4490, 1107.295
148.9311, 1090.963
149.4132, 1074.180
149.8953, 1057.724
150.3774, 1040.587
150.8595, 1025.956
151.3417, 1014.029
151.8238, 1004.183
152.3059, 995.8294
152.7880, 988.8143
153.2701, 983.4414
153.7522, 980.6082
154.2344, 980.0753
154.7165, 983.0045
155.1986, 991.3406
155.6807, 1002.647
156.1628, 1013.939
156.6449, 1023.674
157.1271, 1032.427
157.6092, 1042.590
158.0913, 1054.706
158.5734, 1067.357
159.0555, 1082.135
159.5376, 1097.451
160.0198, 1109.300
160.5019, 1115.656
160.9840, 1116.234
161.4661, 1112.542
161.9482, 1103.085
162.4303, 1091.245
162.9125, 1079.053
163.3946, 1066.495
163.8767, 1053.007
164.3588, 1037.763
164.8409, 1021.530
165.3230, 1005.442
165.8052, 989.6390
166.2873, 974.1628
166.7694, 959.0033
167.2515, 943.6927
167.7336, 930.2014
168.2157, 919.4622
168.6979, 910.9115
169.1800, 904.1389
169.6621, 899.0970
170.1442, 895.6465
170.6263, 893.3698
171.1084, 892.3199
171.5906, 892.5979
172.0727, 894.0789
172.5548, 896.6782
173.0369, 900.2776
173.5190, 904.8002
174.0011, 910.2578
174.4833, 916.7526
174.9654, 924.9638
175.4475, 933.7236
175.9296, 943.4251
176.4117, 953.4683
176.8938, 963.0540
177.3760, 971.6368
177.8581, 979.2266
178.3402, 985.2990
178.8223, 989.5017
179.3044, 992.7507
179.7865, 994.9810
180.2687, 996.4356
180.7508, 997.5396
181.2329, 998.5335
181.7150, 999.3767
182.1971, 1001.254
182.6792, 1003.661
183.1614, 1007.300
183.6435, 1012.942
184.1256, 1020.467
184.6077, 1028.792
185.0898, 1037.162
185.5719, 1045.542
186.0541, 1053.378
186.5362, 1060.598
187.0183, 1067.283
187.5004, 1073.286
187.9825, 1078.569
188.4646, 1083.765
188.9468, 1090.066
189.4289, 1096.958
189.9110, 1102.219
190.3931, 1105.168
190.8752, 1106.236
191.3573, 1106.795
191.8395, 1107.985
192.3216, 1105.504
192.8037, 1095.439
193.2858, 1079.552
193.7679, 1060.744
194.2500, 1038.407
194.7322, 1013.986
195.2143, 991.6576
195.6964, 971.4990
196.1785, 953.9388
196.6606, 938.5974
197.1427, 925.4247
197.6249, 914.5057
198.1070, 905.9799
198.5891, 899.7914
199.0712, 895.4882
199.5533, 894.2679
200.0354, 893.8152
200.5176, 893.2491
200.9997, 892.7094
201.4818, 892.6669
201.9639, 893.6205
202.4460, 895.6028
202.9281, 897.2045
203.4103, 898.2271
203.8924, 899.0051
204.3745, 899.4822
204.8566, 899.7713
205.3387, 900.0571
205.8208, 900.4670
206.3030, 900.9749
206.7851, 901.9356
207.2672, 903.2296
207.7493, 905.0253
208.2314, 907.5334
208.7135, 910.6472
209.1957, 914.0204
209.6778, 917.3000
210.1599, 920.3785
210.6420, 924.2770
211.1241, 929.1146
211.6062, 934.4520
212.0884, 939.7654
212.5705, 945.2048
213.0526, 951.6772
213.5347, 960.2239
214.0168, 971.1643
214.4989, 981.2775
214.9811, 990.3856
215.4632, 998.9197
215.9453, 1007.486
216.4274, 1016.021
216.9095, 1023.497
217.3916, 1029.142
217.8737, 1032.711
218.3559, 1034.538
218.8380, 1034.568
219.3201, 1032.926
219.8022, 1029.585
220.2843, 1024.549
220.7664, 1018.215
221.2486, 1010.446
221.7307, 1001.467
222.2128, 992.6185
222.6949, 984.8748
223.1770, 976.9133
223.6591, 966.9457
224.1413, 954.6612
224.6234, 942.1705
225.1055, 930.8916
225.5876, 920.5305
226.0697, 910.7091
226.5518, 901.2795
227.0340, 892.4025
227.5161, 884.3429
227.9982, 877.1188
228.4803, 870.6553
228.9624, 864.9074
229.4445, 859.8991
229.9267, 855.7459
230.4088, 852.5882
230.8909, 850.2864
231.3730, 848.6990
231.8551, 848.0039
232.3372, 847.6146
232.8194, 847.2860
233.3015, 847.0887
233.7836, 847.2253
234.2657, 847.9565
234.7478, 848.7924
235.2299, 848.6406
235.7121, 847.3720
236.1942, 845.2610
236.6763, 841.9623
237.1584, 838.1933
237.6405, 834.7232
238.1227, 831.9018
238.6048, 829.4247
239.0869, 826.5022
239.5690, 822.8224
240.0511, 819.2035
240.5332, 815.4603
241.0154, 811.9872
241.4975, 809.2802
241.9796, 807.5540
242.4617, 806.5144
242.9438, 805.4498
243.4259, 804.1898
243.9081, 803.1928
244.3902, 801.7799
244.8723, 800.9502
245.3544, 802.0364
245.8365, 805.5078
246.3186, 810.1406
246.8008, 813.1406
247.2829, 813.0715
247.7650, 813.2986
248.2471, 813.4664
248.7292, 814.2150
249.2113, 816.2400
249.6935, 819.7482
250.1756, 824.2568
250.6577, 828.8503
251.1398, 833.5091
251.6219, 838.2551
252.1040, 843.3182
252.5862, 848.3036
253.0683, 852.8920
253.5504, 856.9635
254.0325, 860.5824
254.5146, 863.8076
254.9967, 866.1941
255.4789, 869.0041
255.9610, 872.5665
256.4431, 876.3480
256.9252, 880.0660
257.4073, 883.6223
257.8894, 886.7491
258.3716, 889.0007
258.8537, 889.7744
259.3358, 891.2953
259.8179, 893.9006
260.3000, 897.0582
260.7821, 900.6064
261.2643, 904.4577
261.7464, 907.9559
262.2285, 910.2753
262.7106, 911.0629
263.1927, 912.3450
263.6748, 914.5736
264.1570, 917.0272
264.6391, 919.3395
265.1212, 921.4163
265.6033, 922.7835
266.0854, 922.7543
266.5675, 921.2393
267.0497, 920.2720
267.5318, 920.3270
268.0139, 920.6447
268.4960, 920.5784
268.9781, 920.1100
269.4602, 919.7167
269.9424, 919.8245
270.4245, 920.3580
270.9066, 920.6475
271.3887, 920.2440
271.8708, 919.9294
272.3529, 920.7052
272.8351, 922.4420
273.3172, 923.4968
273.7993, 922.7197
274.2814, 920.4669
274.7635, 918.2705
275.2456, 915.9769
275.7278, 913.9637
276.2099, 912.7200
276.6920, 912.1419
277.1741, 911.3354
277.6562, 909.7338
278.1383, 907.7370
278.6205, 906.2700
279.1026, 905.6136
279.5847, 904.8444
280.0668, 903.1474
280.5489, 900.6885
281.0310, 898.4659
281.5132, 896.7006
281.9953, 895.5114
282.4774, 895.0848
282.9595, 895.5614
283.4416, 895.9427
283.9237, 895.5811
284.4059, 894.6096
284.8880, 893.5941
285.3701, 892.7298
285.8522, 891.7626
286.3343, 890.6842
286.8164, 889.4867
287.2986, 887.4718
287.7807, 883.9371
288.2628, 879.2432
288.7449, 874.6874
289.2270, 870.7095
289.7091, 866.3524
290.1913, 860.6319
290.6734, 853.8555
291.1555, 846.8931
291.6376, 840.0214
292.1197, 833.3084
292.6018, 826.8088
293.0840, 820.5719
293.5661, 814.5471
294.0482, 808.3564
294.5303, 802.3642
295.0124, 797.2656
295.4945, 793.4875
295.9767, 790.7325
296.4588, 788.5088
296.9409, 786.8248
297.4230, 785.6555
297.9051, 784.9980
298.3872, 784.8370
298.8694, 785.3309
299.3515, 786.7615
299.8336, 788.4551
300.3157, 789.2897
300.7978, 789.0160
301.2799, 789.4286
301.7621, 791.6324
302.2442, 794.6667
302.7263, 797.8563
303.2084, 801.1305
303.6905, 804.2872
304.1726, 806.9974
304.6548, 809.2232
305.1369, 811.7911
305.6190, 815.1358
306.1011, 818.7438
306.5832, 822.1305
307.0653, 825.2817
307.5475, 828.6397
308.0296, 832.5071
308.5117, 836.8713
308.9938, 841.7534
309.4759, 847.5877
309.9580, 853.4360
310.4402, 858.3485
310.9223, 862.6155
311.4044, 867.3771
311.8865, 873.5550
312.3686, 880.8406
312.8507, 888.0081
313.3329, 894.9977
313.8150, 901.9278
314.2971, 909.0331
314.7792, 916.1639
315.2613, 923.1481
315.7434, 930.2750
316.2256, 936.9987
316.7077, 942.2253
317.1898, 945.9896
317.6719, 948.1965
318.1540, 948.5106
318.6361, 947.4322
319.1183, 945.4014
319.6004, 942.6013
320.0825, 938.7134
320.5646, 933.0891
321.0467, 925.5283
321.5288, 917.5012
322.0110, 909.0153
322.4931, 900.5028
322.9752, 892.3284
323.4573, 884.5814
323.9394, 877.0982
324.4215, 869.8347
324.9037, 862.8262
325.3858, 855.5942
325.8679, 847.4161
326.3500, 839.7314
326.8321, 833.5706
327.3142, 828.8150
327.7964, 824.6666
328.2785, 820.7728
328.7606, 817.0969
329.2427, 813.3835
329.7248, 809.4964
330.2069, 805.8191
330.6891, 802.9340
331.1712, 800.4095
331.6533, 797.2664
332.1354, 792.7034
332.6175, 787.4293
333.0996, 782.8875
333.5818, 779.1897
334.0639, 775.7960
334.5460, 772.8243
335.0281, 769.8793
335.5102, 766.4211
335.9923, 762.1072
336.4745, 757.6620
336.9566, 753.8063
337.4387, 750.5597
337.9208, 747.8311
338.4029, 745.9531
338.8850, 744.3477
339.3671, 742.3054
339.8492, 739.7081
340.3314, 737.4777
340.8135, 736.4694
341.2956, 736.5058
341.7777, 736.5344
342.2598, 736.3476
342.7419, 736.1494
343.2241, 735.8966
343.7062, 735.6801
344.1883, 736.0516
344.6704, 737.8856
345.1525, 740.3923
345.6346, 741.7365
346.1168, 741.5593
346.5989, 741.0743
347.0810, 740.9713
347.5631, 741.1752
348.0452, 741.6240
348.5273, 742.3204
349.0095, 743.2386
349.4916, 744.5329
349.9737, 746.2150
350.4558, 747.5511
350.9379, 748.0558
351.4200, 748.0687
351.9022, 748.1748
352.3843, 748.4286
352.8664, 748.6957
353.3485, 748.9004
353.8306, 749.0472
354.3127, 749.1718
354.7949, 749.3266
355.2770, 749.3846
355.7591, 749.0900
356.2412, 748.4473
356.7233, 747.9786
357.2054, 748.6552
357.6876, 749.3738
358.1697, 747.9670
358.6518, 743.8956
359.1339, 739.5774
359.6160, 737.1688
360.0981, 736.3815
360.5803, 735.6770
361.0624, 734.7523
361.5445, 733.9474
362.0266, 733.4424
362.5087, 733.2658
362.9908, 733.6631
363.4730, 735.0076
363.9551, 736.8893
364.4372, 738.0087
364.9193, 737.7232
365.4014, 737.7929
365.8835, 739.1705
366.3657, 741.3846
366.8478, 743.4633
367.3299, 745.0441
367.8120, 746.5236
368.2941, 748.5163
368.7762, 751.0137
369.2584, 753.9648
369.7405, 757.6313
370.2226, 761.5824
370.7047, 765.5770
371.1868, 769.5515
371.6689, 773.0856
372.1511, 775.7426
372.6332, 777.4745
373.1153, 779.4528
373.5974, 781.6542
374.0795, 784.1151
374.5616, 787.2024
375.0438, 790.5901
375.5259, 793.3488
376.0080, 794.8171
376.4901, 795.6140
376.9722, 797.9676
377.4543, 804.5420
377.9365, 809.2108
378.4186, 809.8224
378.9007, 808.9074
379.3828, 809.3705
379.8649, 811.9677
380.3470, 815.2395
380.8292, 817.1858
381.3113, 817.5175
381.7934, 817.2017
382.2755, 815.7662
382.7576, 814.1851
383.2397, 812.8523
383.7219, 811.8589
384.2040, 811.3228
384.6861, 811.4219
385.1682, 812.0851
385.6503, 812.1122
386.1324, 811.1817
386.6146, 809.9325
387.0967, 808.5018
387.5788, 806.8070
388.0609, 804.5812
388.5430, 801.7238
389.0251, 798.6631
389.5073, 796.3126
389.9894, 795.1903
390.4715, 793.6775
390.9536, 791.6290
391.4357, 789.2638
391.9178, 786.4733
392.4000, 783.3951
392.8821, 780.5289
393.3642, 778.5084
393.8463, 777.3691
394.3284, 775.6171
394.8105, 772.7397
395.2927, 769.7761
395.7748, 766.7474
396.2569, 763.9396
396.7390, 761.8418
397.2211, 760.8295
397.7032, 760.3907
398.1854, 759.4199
398.6675, 757.8460
399.1496, 755.9476
399.6317, 753.3546
400.1138, 750.7321
400.5959, 748.5951
401.0781, 747.0342
401.5602, 745.7858
402.0423, 744.7071
402.5244, 743.7834
403.0065, 742.8074
403.4886, 741.6976
403.9708, 740.6241
404.4529, 739.6359
404.9350, 738.7609
405.4171, 738.0895
405.8992, 737.8203
406.3813, 737.6976
406.8635, 737.3113
407.3456, 736.6403
407.8277, 735.8609
408.3098, 734.8495
408.7919, 733.8860
409.2740, 733.3748
409.7562, 733.3118
410.2383, 733.7690
410.7204, 735.2349
411.2025, 737.2903
411.6846, 738.6904
412.1667, 739.0626
412.6489, 738.8942
413.1310, 738.5715
413.6131, 738.0895
414.0952, 738.0402
414.5773, 738.4136
415.0594, 739.3400
415.5416, 741.0239
416.0237, 743.4317
416.5058, 746.3300
416.9879, 749.7543
417.4700, 753.4853
417.9521, 756.3353
418.4343, 757.5596
418.9164, 758.9500
419.3985, 760.2159
419.8806, 762.1747
420.3627, 766.7873
420.8448, 774.6455
421.3270, 782.9337
421.8091, 787.3275
422.2912, 785.9854
422.7733, 785.7347
423.2554, 786.8909
423.7375, 788.7548
424.2197, 791.3778
424.7018, 794.4036
425.1839, 796.9550
425.6660, 798.3273
426.1481, 798.7466
426.6302, 799.8184
427.1124, 802.4872
427.5945, 804.6541
428.0766, 805.6895
428.5587, 806.3019
429.0408, 807.2071
429.5229, 808.6215
430.0051, 810.3098
430.4872, 812.0815
430.9693, 814.1183
431.4514, 815.4628
431.9335, 815.8899
432.4156, 815.7543
432.8978, 814.7867
433.3799, 813.3376
433.8620, 812.2080
434.3441, 812.0287
434.8262, 812.4092
435.3083, 812.2724
435.7905, 811.6134
436.2726, 810.4376
436.7547, 808.3260
437.2368, 805.9056
437.7189, 803.8585
438.2010, 802.3562
438.6832, 800.5385
439.1653, 797.5758
439.6474, 793.6283
440.1295, 789.4578
440.6116, 785.0585
441.0938, 780.7020
441.5759, 776.7497
442.0580, 773.0665
442.5401, 769.2116
443.0222, 765.1080
443.5043, 760.7667
443.9865, 756.2917
444.4686, 751.6527
444.9507, 746.3399
445.4328, 739.8967
445.9149, 732.8466
446.3970, 726.2982
446.8792, 720.0251
447.3613, 714.7275
447.8434, 711.3723
448.3255, 708.7401
448.8076, 705.1605
449.2897, 700.3879
449.7719, 695.6147
450.2540, 691.9814
450.7361, 689.5406
451.2182, 687.0933
451.7003, 684.4157
452.1824, 681.9760
452.6646, 680.1710
453.1467, 678.6599
453.6288, 676.6934
454.1109, 673.9349
454.5930, 671.1326
455.0751, 669.8682
455.5573, 671.3591
456.0394, 672.0226
456.5215, 670.4904
457.0036, 669.4198
457.4857, 671.1369
457.9678, 674.9303
458.4500, 678.0333
458.9321, 678.1438
459.4142, 675.8457
459.8963, 674.5927
460.3784, 674.7501
460.8605, 675.3605
461.3427, 676.2547
461.8248, 677.3693
462.3069, 678.6472
462.7890, 680.0752
463.2711, 681.6905
463.7532, 683.6911
464.2354, 686.0359
464.7175, 687.8333
465.1996, 688.4490
465.6817, 689.3766
466.1638, 692.0750
466.6459, 695.8937
467.1281, 699.1962
467.6102, 701.0743
468.0923, 702.5209
468.5744, 704.5696
469.0565, 707.1863
469.5386, 709.8517
470.0208, 712.2703
470.5029, 714.7526
470.9850, 717.9216
471.4671, 721.8945
471.9492, 725.7424
472.4313, 728.9672
472.9135, 732.1232
473.3956, 735.8577
473.8777, 740.1924
474.3598, 744.7087
474.8419, 749.0490
475.3240, 753.2780
475.8062, 757.9212
476.2883, 763.5768
476.7704, 768.8897
477.2525, 773.5264
477.7346, 777.6991
478.2167, 781.4908
478.6989, 785.0016
479.1810, 788.5487
479.6631, 792.6666
480.1452, 797.5333
480.6273, 801.9159
481.1094, 805.6352
481.5916, 809.0159
482.0737, 812.1716
482.5558, 815.0436
483.0379, 817.3054
483.5200, 818.6754
484.0021, 820.0587
484.4843, 823.6136
484.9664, 830.1033
485.4485, 835.2995
485.9306, 837.7590
486.4127, 839.1475
486.8948, 840.1497
487.3770, 840.9577
487.8591, 842.1711
488.3412, 844.6857
488.8233, 847.6641
489.3054, 849.4916
489.7875, 850.1096
490.2697, 849.9677
490.7518, 849.1335
491.2339, 847.7073
491.7160, 845.9158
492.1981, 843.5735
492.6802, 841.4420
493.1624, 839.9131
493.6445, 838.7823
494.1266, 838.0690
494.6087, 837.7315
495.0908, 836.7245
495.5729, 834.0057
496.0551, 829.5881
496.5372, 825.2480
497.0193, 820.7548
497.5014, 816.5992
497.9835, 812.8046
498.4656, 809.4672
498.9478, 806.8818
499.4299, 805.0945
499.9120, 803.5095
500.3941, 801.2393
500.8762, 798.0219
501.3583, 795.0900
501.8405, 792.5189
502.3226, 790.1632
502.8047, 788.3660
503.2868, 786.6888
503.7689, 784.3959
504.2510, 781.0769
504.7331, 777.1216
505.2152, 773.1555
505.6974, 769.1445
506.1795, 765.3019
506.6616, 762.0325
507.1437, 758.6070
507.6258, 754.5699
508.1079, 749.9135
508.5901, 744.8409
509.0722, 739.0009
509.5543, 733.0244
510.0364, 727.9346
510.5185, 723.7317
511.0006, 719.4716
511.4828, 714.7839
511.9649, 709.7260
512.4470, 704.4637
512.9291, 699.0403
513.4113, 693.3131
513.8934, 687.0750
514.3755, 680.6516
514.8576, 674.3387
515.3397, 668.1780
515.8218, 662.2469
516.3040, 656.5401
516.7861, 651.0917
517.2682, 646.2404
517.7503, 643.1298
518.2324, 639.1863
518.7145, 633.2121
519.1967, 626.8430
519.6788, 621.6011
520.1609, 617.7277
520.6430, 614.4734
521.1251, 611.1609
521.6072, 607.7744
522.0894, 604.4177
522.5715, 601.0598
523.0536, 597.7712
523.5357, 594.6745
524.0178, 591.6038
524.4999, 588.2823
524.9821, 584.5988
525.4642, 581.0501
525.9463, 578.0219
526.4284, 575.5021
526.9105, 573.4583
527.3926, 572.0739
527.8748, 570.6451
528.3569, 568.3735
528.8390, 565.5898
529.3211, 563.4230
529.8032, 562.5367
530.2853, 561.6710
530.7675, 560.1781
531.2496, 558.2219
531.7317, 555.9982
532.2138, 553.5472
532.6959, 551.2281
533.1780, 549.5247
533.6602, 548.5569
534.1423, 547.4485
534.6244, 545.8396
535.1065, 544.4902
535.5886, 544.0975
536.0707, 544.0312
536.5529, 543.2572
537.0350, 541.3840
537.5171, 538.9919
537.9992, 536.9675
538.4813, 535.3306
538.9634, 533.9931
539.4456, 533.3674
539.9277, 532.5942
540.4098, 530.8625
540.8919, 528.7639
541.3740, 527.5681
541.8561, 528.0516
542.3383, 529.0317
542.8204, 529.2050
543.3025, 528.6019
543.7846, 527.3597
544.2667, 525.1590
544.7488, 523.0231
545.2310, 522.2726
545.7131, 522.7444
546.1952, 523.0898
546.6773, 523.0302
547.1594, 522.8578
547.6415, 522.8824
548.1237, 522.9435
548.6058, 522.5517
549.0879, 521.4955
549.5700, 520.1996
550.0521, 519.3821
550.5342, 519.2735
551.0164, 518.9620
551.4985, 518.2969
551.9806, 517.6209
552.4627, 517.0865
552.9448, 516.6474
553.4269, 516.1440
553.9091, 515.4847
554.3912, 514.8827
554.8733, 514.8591
555.3554, 515.5715
555.8375, 515.7331
556.3196, 514.7936
556.8018, 513.6951
557.2839, 512.9300
557.7660, 512.4828
558.2481, 512.3380
558.7302, 512.7343
559.2123, 513.1402
559.6945, 512.9625
560.1766, 512.3061
560.6587, 511.6188
561.1408, 511.0227
561.6229, 510.4882
562.1050, 509.9618
562.5872, 509.4369
563.0693, 509.0483
563.5514, 508.8296
564.0335, 508.7192
564.5156, 508.7973
564.9977, 508.9385
565.4799, 508.9464
565.9620, 508.7401
566.4441, 508.3352
566.9262, 507.6606
567.4083, 506.5002
567.8904, 505.9481
568.3726, 506.9793
568.8547, 507.6097
569.3368, 506.6513
569.8189, 504.9665
570.3010, 504.0447
570.7831, 504.5016
571.2653, 505.4640
571.7474, 506.0444
572.2295, 506.2508
572.7116, 506.1296
573.1937, 505.6260
573.6758, 504.9511
574.1580, 504.1816
574.6401, 503.3710
575.1222, 502.7281
575.6043, 502.2876
576.0864, 502.0027
576.5685, 501.9264
577.0507, 501.9742
577.5328, 502.1068
578.0149, 502.2897
578.4970, 502.2054
578.9791, 501.4217
579.4612, 499.8871
579.9434, 498.9737
580.4255, 499.0538
580.9076, 499.3449
581.3897, 499.9948
581.8718, 500.6360
582.3539, 500.8629
582.8361, 500.5968
583.3182, 500.0934
583.8003, 498.2737
584.2824, 499.1194
584.7645, 499.5040
585.2466, 499.4522
585.7288, 497.6569
586.2108, 498.1130
586.6929, 497.6668
587.1750, 497.1836
