##NAMES=Warwickite
##RRUFFID=R120161
##IDEAL CHEMISTRY=(Mg,Ti^4+^,Fe^3+^,Cr^3+^,Al)_2_O(BO_3_)
##LOCALITY=South Baptiste Lake roadcut, Bancroft, Ontario, Canada
##OWNER=RRUFF
##SOURCE=Michael J. Bainbridge
##DESCRIPTION=Black prismatic crystals
##STATUS=The identification of this mineral has been confirmed only by single crystal X-ray diffraction.
##URL=rruff.info/R120161
134.6201, 573.0978
135.1022, 574.5433
135.5843, 576.1898
136.0664, 578.0103
136.5485, 579.7118
137.0306, 581.2693
137.5128, 582.7883
137.9949, 584.3491
138.4770, 585.8847
138.9591, 587.8551
139.4412, 590.8254
139.9233, 594.9527
140.4055, 597.3166
140.8876, 597.3167
141.3697, 596.1427
141.8518, 595.6903
142.3339, 596.0487
142.8160, 596.9033
143.2982, 598.1973
143.7803, 600.0140
144.2624, 601.9677
144.7445, 604.0510
145.2266, 606.2814
145.7087, 608.6220
146.1909, 611.3052
146.6730, 613.8651
147.1551, 616.1380
147.6372, 617.9257
148.1193, 619.7419
148.6014, 621.6008
149.0836, 623.4969
149.5657, 625.4734
150.0478, 627.2692
150.5299, 629.3123
151.0120, 631.8086
151.4941, 635.4894
151.9763, 638.7182
152.4584, 641.3174
152.9405, 643.3753
153.4226, 645.4240
153.9047, 647.2098
154.3868, 649.1774
154.8690, 651.5681
155.3511, 655.6777
155.8332, 658.8538
156.3153, 659.9583
156.7974, 659.3183
157.2795, 659.5891
157.7617, 662.0463
158.2438, 665.2574
158.7259, 668.1889
159.2080, 670.5770
159.6901, 672.7036
160.1722, 674.5983
160.6544, 676.2761
161.1365, 677.8889
161.6186, 679.3774
162.1007, 680.8604
162.5828, 682.4825
163.0649, 684.9473
163.5471, 686.9839
164.0292, 687.7982
164.5113, 687.3574
164.9934, 686.8004
165.4755, 686.6392
165.9576, 686.6882
166.4398, 686.7214
166.9219, 686.7566
167.4040, 686.6625
167.8861, 686.2698
168.3682, 685.5500
168.8503, 684.8875
169.3325, 684.4396
169.8146, 684.2263
170.2967, 684.2809
170.7788, 685.6693
171.2609, 686.7546
171.7430, 685.6591
172.2252, 682.0596
172.7073, 678.2172
173.1894, 676.1262
173.6715, 675.1525
174.1536, 673.9435
174.6357, 671.3121
175.1179, 668.2761
175.6000, 666.1591
176.0821, 665.1964
176.5642, 664.5404
177.0463, 663.3824
177.5284, 661.8531
178.0106, 660.3753
178.4927, 659.5883
178.9748, 658.9045
179.4569, 657.1774
179.9390, 654.0920
180.4211, 650.7194
180.9033, 648.1047
181.3854, 646.2061
181.8675, 644.8673
182.3496, 644.2942
182.8317, 644.2000
183.3138, 643.8135
183.7960, 642.9807
184.2781, 642.0599
184.7602, 641.6843
185.2423, 641.7784
185.7244, 641.7626
186.2065, 641.3391
186.6887, 640.5201
187.1708, 639.2798
187.6529, 637.4993
188.1350, 635.5329
188.6171, 634.0354
189.0992, 632.9832
189.5814, 632.0593
190.0635, 631.2241
190.5456, 630.4042
191.0277, 629.0971
191.5098, 627.0801
191.9919, 624.8057
192.4741, 623.3099
192.9562, 622.6272
193.4383, 622.0878
193.9204, 621.3516
194.4025, 620.4124
194.8846, 619.1115
195.3668, 617.2916
195.8489, 615.2499
196.3310, 613.8021
196.8131, 613.0276
197.2952, 612.2351
197.7773, 610.7192
198.2595, 608.4491
198.7416, 606.9916
199.2237, 606.8975
199.7058, 607.4543
200.1879, 606.3773
200.6700, 603.2640
201.1522, 600.3100
201.6343, 599.5552
202.1164, 601.3720
202.5985, 601.4156
203.0806, 598.6268
203.5627, 594.0248
204.0449, 590.9406
204.5270, 589.6448
205.0091, 588.9623
205.4912, 588.2688
205.9733, 587.6454
206.4554, 586.4481
206.9376, 584.4039
207.4197, 581.7938
207.9018, 579.6119
208.3839, 577.9327
208.8660, 576.4937
209.3481, 575.1545
209.8303, 573.9194
210.3124, 572.7593
210.7945, 571.6551
211.2766, 570.6404
211.7587, 569.8079
212.2408, 569.1949
212.7230, 568.6911
213.2051, 568.3152
213.6872, 568.2410
214.1693, 567.5885
214.6514, 565.9348
215.1335, 563.6178
215.6157, 562.4581
216.0978, 562.9934
216.5799, 563.6428
217.0620, 563.2701
217.5441, 561.3947
218.0262, 559.8802
218.5084, 558.9998
218.9905, 558.6086
219.4726, 558.0131
219.9547, 557.0914
220.4368, 556.1695
220.9189, 555.5373
221.4011, 555.4573
221.8832, 554.9717
222.3653, 553.8784
222.8474, 552.3306
223.3295, 550.9069
223.8116, 549.5781
224.2938, 548.4747
224.7759, 547.7740
225.2580, 547.8401
225.7401, 547.3738
226.2222, 545.9334
226.7043, 543.8810
227.1865, 542.7666
227.6686, 543.0873
228.1507, 543.6268
228.6328, 543.6954
229.1149, 543.1205
229.5970, 542.4871
230.0792, 541.8864
230.5613, 541.2560
231.0434, 540.2888
231.5255, 538.6307
232.0076, 537.1912
232.4897, 536.6132
232.9719, 537.6531
233.4540, 537.8173
233.9361, 536.5471
234.4182, 534.3728
234.9003, 533.2119
235.3824, 533.7636
235.8646, 534.3278
236.3467, 533.9359
236.8288, 531.7168
237.3109, 530.5508
237.7930, 531.1630
238.2751, 532.7593
238.7573, 532.7776
239.2394, 530.0494
239.7215, 527.4026
240.2036, 526.1822
240.6857, 527.2394
241.1678, 527.7410
241.6500, 527.3359
242.1321, 526.4623
242.6142, 526.3105
243.0963, 527.4302
243.5784, 528.4612
244.0605, 528.7846
244.5427, 528.0721
245.0248, 527.5184
245.5069, 527.2152
245.9890, 527.0408
246.4711, 526.7213
246.9532, 526.1756
247.4354, 525.6303
247.9175, 525.1984
248.3996, 524.9539
248.8817, 524.5679
249.3638, 523.8440
249.8459, 523.1021
250.3281, 523.0363
250.8102, 524.2364
251.2923, 525.0870
251.7744, 524.7960
252.2565, 522.7985
252.7386, 522.1700
253.2208, 523.5809
253.7029, 525.8687
254.1850, 527.2480
254.6671, 527.4799
255.1492, 527.2318
255.6313, 526.4865
256.1135, 525.0406
256.5956, 524.5262
257.0777, 525.4637
257.5598, 526.8162
258.0419, 527.0138
258.5240, 525.2662
259.0062, 524.1618
259.4883, 524.7239
259.9704, 527.1175
260.4525, 528.3785
260.9346, 528.0914
261.4167, 527.1752
261.8989, 526.6229
262.3810, 526.4609
262.8631, 526.6619
263.3452, 527.4425
263.8273, 528.8107
264.3094, 529.2413
264.7916, 528.3044
265.2737, 527.1564
265.7558, 527.0718
266.2379, 528.5318
266.7200, 529.4905
267.2021, 529.4978
267.6843, 528.6266
268.1664, 527.4196
268.6485, 525.4886
269.1306, 524.0172
269.6127, 524.5090
270.0948, 527.7245
270.5770, 529.2894
271.0591, 527.8047
271.5412, 524.1409
272.0233, 522.7629
272.5054, 524.3992
272.9875, 526.3769
273.4697, 526.5829
273.9518, 524.6698
274.4339, 523.2889
274.9160, 522.8607
275.3981, 523.1028
275.8802, 523.2292
276.3624, 523.2681
276.8445, 523.0877
277.3266, 522.4378
277.8087, 521.2596
278.2908, 520.6100
278.7729, 520.7400
279.2551, 521.2574
279.7372, 521.2429
280.2193, 520.6340
280.7014, 519.9100
281.1835, 519.3435
281.6656, 518.9307
282.1478, 518.2940
282.6299, 517.2813
283.1120, 516.3166
283.5941, 516.1686
284.0762, 516.8668
284.5583, 517.8276
285.0405, 519.0724
285.5226, 520.4997
286.0047, 521.1282
286.4868, 520.8885
286.9689, 520.0591
287.4510, 518.6843
287.9332, 516.8110
288.4153, 515.4378
288.8974, 515.1635
289.3795, 515.7186
289.8616, 516.1251
290.3438, 516.3575
290.8259, 516.6054
291.3080, 517.3147
291.7901, 518.3358
292.2722, 518.7869
292.7543, 518.1594
293.2365, 516.8735
293.7186, 515.8385
294.2007, 515.0643
294.6828, 514.4944
295.1649, 513.8275
295.6470, 513.2839
296.1292, 513.7116
296.6113, 515.8816
297.0934, 518.5151
297.5755, 519.4216
298.0576, 518.7294
298.5397, 517.7854
299.0219, 517.7970
299.5040, 518.2637
299.9861, 517.9230
300.4682, 516.1146
300.9503, 514.2993
301.4324, 514.5699
301.9146, 516.5058
302.3967, 518.3414
302.8788, 518.8124
303.3609, 518.5538
303.8430, 518.5209
304.3251, 518.9374
304.8073, 519.2262
305.2894, 518.3666
305.7715, 516.9130
306.2536, 516.1985
306.7357, 517.6112
307.2178, 519.7383
307.7000, 521.1215
308.1821, 521.5961
308.6642, 521.7664
309.1463, 521.9199
309.6284, 522.0765
310.1105, 522.2732
310.5927, 522.6232
311.0748, 522.9412
311.5569, 523.0408
312.0390, 522.9230
312.5211, 522.8765
313.0032, 523.1917
313.4854, 523.6247
313.9675, 523.9129
314.4496, 523.9060
314.9317, 523.8055
315.4138, 523.6279
315.8959, 523.4105
316.3781, 523.3463
316.8602, 523.8685
317.3423, 524.3848
317.8244, 524.4247
318.3065, 523.4334
318.7886, 522.6049
319.2708, 522.5639
319.7529, 523.0186
320.2350, 523.1490
320.7171, 522.1586
321.1992, 521.1907
321.6813, 520.8230
322.1635, 521.3015
322.6456, 521.9655
323.1277, 522.9974
323.6098, 524.0821
324.0919, 524.6970
324.5740, 523.7880
325.0562, 523.2727
325.5383, 524.0099
326.0204, 526.5524
326.5025, 528.2277
326.9846, 528.7892
327.4667, 528.4392
327.9489, 527.3884
328.4310, 523.9824
328.9131, 521.7640
329.3952, 521.7562
329.8773, 524.0360
330.3594, 525.4257
330.8416, 525.2192
331.3237, 524.7125
331.8058, 524.8370
332.2879, 526.0667
332.7700, 527.1108
333.2521, 527.7521
333.7343, 528.1088
334.2164, 528.8442
334.6985, 530.3583
335.1806, 531.6041
335.6627, 531.8257
336.1448, 530.3658
336.6270, 529.9133
337.1091, 530.7325
337.5912, 532.4460
338.0733, 534.6729
338.5554, 537.9319
339.0375, 539.9423
339.5197, 539.1376
340.0018, 535.2755
340.4839, 533.5318
340.9660, 534.4792
341.4481, 536.3624
341.9302, 536.8200
342.4124, 535.7362
342.8945, 534.8259
343.3766, 534.5959
343.8587, 534.9414
344.3408, 535.4391
344.8229, 536.1029
345.3051, 536.7985
345.7872, 537.4922
346.2693, 538.1483
346.7514, 538.5890
347.2335, 538.8881
347.7156, 538.8114
348.1978, 537.5417
348.6799, 535.1892
349.1620, 533.0880
349.6441, 532.2274
350.1262, 532.2814
350.6083, 532.5911
351.0905, 533.1801
351.5726, 533.6510
352.0547, 533.3774
352.5368, 532.5696
353.0189, 531.8661
353.5010, 531.9171
353.9832, 532.0901
354.4653, 531.5970
354.9474, 530.3857
355.4295, 528.8406
355.9116, 526.4723
356.3937, 524.1132
356.8759, 523.0475
357.3580, 525.1891
357.8401, 527.5553
358.3222, 527.9482
358.8043, 526.6365
359.2864, 525.1940
359.7686, 524.2728
360.2507, 523.6753
360.7328, 523.2660
361.2149, 523.1287
361.6970, 522.9674
362.1791, 522.7916
362.6613, 522.5023
363.1434, 521.8765
363.6255, 520.0842
364.1076, 518.5370
364.5897, 518.1611
365.0718, 519.6640
365.5540, 520.2276
366.0361, 518.1988
366.5182, 515.3598
367.0003, 513.8489
367.4824, 515.9313
367.9645, 517.2894
368.4467, 516.6685
368.9288, 513.9672
369.4109, 511.8218
369.8930, 510.0583
370.3751, 508.9994
370.8572, 508.9698
371.3394, 511.0955
371.8215, 512.3234
372.3036, 511.9562
372.7857, 510.5476
373.2678, 510.1939
373.7499, 511.6012
374.2321, 512.7927
374.7142, 512.7117
375.1963, 510.9564
375.6784, 509.5980
376.1605, 508.6562
376.6426, 508.0906
377.1248, 508.0599
377.6069, 508.7249
378.0890, 508.9195
378.5711, 508.0494
379.0532, 506.3103
379.5353, 505.2003
380.0175, 504.7676
380.4996, 504.6859
380.9817, 504.7725
381.4638, 504.9946
381.9459, 505.0919
382.4280, 505.0590
382.9102, 504.8047
383.3923, 503.8551
383.8744, 502.3000
384.3565, 501.1720
384.8386, 501.4434
385.3207, 502.5626
385.8029, 503.4713
386.2850, 504.0902
386.7671, 504.3961
387.2492, 504.1095
387.7313, 503.4853
388.2134, 503.1105
388.6956, 503.7938
389.1777, 504.5026
389.6598, 504.1183
390.1419, 502.6933
390.6240, 501.2987
391.1061, 500.6460
391.5883, 500.3373
392.0704, 499.9742
392.5525, 499.6075
393.0346, 498.9608
393.5167, 497.3729
393.9988, 495.3357
394.4810, 494.2037
394.9631, 495.1901
395.4452, 496.6215
395.9273, 497.7220
396.4094, 498.3976
396.8915, 498.7502
397.3737, 498.8158
397.8558, 498.5544
398.3379, 497.9160
398.8200, 495.6866
399.3021, 494.3592
399.7842, 495.0728
400.2664, 497.8080
400.7485, 498.7207
401.2306, 496.2986
401.7127, 493.5060
402.1948, 492.2979
402.6769, 493.6160
403.1591, 494.4408
403.6412, 494.3863
404.1233, 493.8349
404.6054, 493.8875
405.0875, 494.9173
405.5696, 495.4456
406.0518, 494.6113
406.5339, 492.3607
407.0160, 490.9249
407.4981, 490.4890
407.9802, 490.4085
408.4623, 489.9361
408.9445, 489.0836
409.4266, 488.3396
409.9087, 487.9541
410.3908, 487.6719
410.8729, 486.6059
411.3550, 484.7948
411.8372, 483.4254
412.3193, 483.7139
412.8014, 485.0373
413.2835, 485.9787
413.7656, 486.3659
414.2477, 486.3148
414.7299, 485.5728
415.2120, 484.4515
415.6941, 483.7270
416.1762, 484.2311
416.6583, 484.9630
417.1404, 485.0250
417.6226, 484.4027
418.1047, 483.5204
418.5868, 482.0488
419.0689, 480.6913
419.5510, 480.1732
420.0331, 481.6834
420.5153, 482.7229
420.9974, 481.6781
421.4795, 479.3950
421.9616, 478.0546
422.4437, 479.8123
422.9258, 481.2654
423.4080, 480.7288
423.8901, 477.3416
424.3722, 474.7343
424.8543, 473.9181
425.3364, 473.6713
425.8185, 472.7628
426.3007, 470.1224
426.7828, 468.4064
427.2649, 468.3854
427.7470, 469.7298
428.2291, 470.2852
428.7112, 469.8841
429.1934, 468.9641
429.6755, 467.6426
430.1576, 465.8090
430.6397, 464.0893
431.1218, 462.4055
431.6039, 460.9878
432.0861, 460.4380
432.5682, 460.8409
433.0503, 460.7844
433.5324, 459.5114
434.0145, 457.4577
434.4966, 456.2819
434.9788, 456.0168
435.4609, 455.7621
435.9430, 454.2439
436.4251, 452.1177
436.9072, 451.4843
437.3893, 453.2542
437.8715, 455.2281
438.3536, 454.6385
438.8357, 452.1679
439.3178, 449.7208
439.7999, 447.9464
440.2820, 446.8333
440.7642, 446.7143
441.2463, 447.5992
441.7284, 448.1510
442.2105, 447.5524
442.6926, 446.2985
443.1747, 444.8399
443.6569, 442.6819
444.1390, 441.0612
444.6211, 440.7285
445.1032, 441.2741
445.5853, 441.5268
446.0674, 441.2614
446.5496, 440.6840
447.0317, 439.7995
447.5138, 438.4555
447.9959, 437.3363
448.4780, 436.4188
448.9601, 435.7533
449.4423, 435.4260
449.9244, 435.6970
450.4065, 435.8182
450.8886, 435.8078
451.3707, 435.5576
451.8528, 434.3445
452.3350, 431.7002
452.8171, 429.4843
453.2992, 428.9034
453.7813, 429.9777
454.2634, 430.6281
454.7455, 430.7476
455.2277, 430.6258
455.7098, 430.5766
456.1919, 430.5970
456.6740, 430.7066
457.1561, 430.9896
457.6382, 431.2957
458.1204, 431.3535
458.6025, 431.1833
459.0846, 430.9164
459.5667, 430.6293
460.0488, 430.3085
460.5309, 429.9286
461.0131, 429.4839
461.4952, 429.0161
461.9773, 428.1388
462.4594, 427.3565
462.9415, 427.4016
463.4236, 429.7363
463.9058, 431.8480
464.3879, 432.3979
464.8700, 431.5357
465.3521, 430.9716
465.8342, 431.5313
466.3163, 432.1963
466.7985, 432.3445
467.2806, 431.2731
467.7627, 430.9067
468.2448, 431.8842
468.7269, 433.3211
469.2090, 433.9739
469.6912, 433.5529
470.1733, 432.8493
470.6554, 431.8575
471.1375, 430.6608
471.6196, 430.1225
472.1017, 430.3660
472.5839, 430.9171
473.0660, 431.6671
473.5481, 432.6193
474.0302, 432.7715
474.5123, 431.8187
474.9944, 430.6823
475.4766, 430.8810
475.9587, 432.2291
476.4408, 433.5367
476.9229, 434.4982
477.4050, 435.0309
477.8871, 434.7557
478.3693, 433.7618
478.8514, 432.8256
479.3335, 432.5451
479.8156, 432.6101
480.2977, 432.5503
480.7798, 432.0982
481.2620, 432.1436
481.7441, 433.8228
482.2262, 436.1835
482.7083, 437.8232
483.1904, 437.5820
483.6725, 437.2025
484.1547, 437.3389
484.6368, 437.9621
485.1189, 438.4796
485.6010, 439.1661
486.0831, 439.4295
486.5652, 438.8404
487.0474, 436.3505
487.5295, 435.3107
488.0116, 436.4106
488.4937, 438.4600
488.9758, 439.8093
489.4579, 440.2710
489.9401, 440.5718
490.4222, 440.7313
490.9043, 440.8856
491.3864, 442.0400
491.8685, 444.4333
492.3506, 446.1871
492.8328, 445.3163
493.3149, 442.5401
493.7970, 441.3212
494.2791, 442.1115
494.7612, 443.4876
495.2433, 443.8709
495.7255, 443.5688
496.2076, 443.3777
496.6897, 443.7574
497.1718, 444.2135
497.6539, 444.1449
498.1360, 443.7050
498.6182, 443.4814
499.1003, 443.9018
499.5824, 444.5710
500.0645, 445.2137
500.5466, 445.7893
501.0287, 446.4052
501.5109, 446.9980
501.9930, 447.6846
502.4751, 448.5752
502.9572, 450.3695
503.4393, 451.5269
503.9214, 451.5798
504.4036, 450.8505
504.8857, 450.4671
505.3678, 450.5566
505.8499, 450.7726
506.3320, 451.0083
506.8141, 451.2723
507.2963, 451.3258
507.7784, 450.9585
508.2605, 450.9565
508.7426, 452.5522
509.2247, 455.5961
509.7068, 457.7838
510.1890, 458.6168
510.6711, 458.5387
511.1532, 457.9973
511.6353, 457.0816
512.1174, 456.2467
512.5995, 454.9612
513.0817, 454.2820
513.5638, 456.5105
514.0459, 461.4693
514.5280, 464.9579
515.0101, 462.8090
515.4922, 458.7161
515.9744, 456.2088
516.4565, 456.7616
516.9386, 457.4663
517.4207, 457.2997
517.9028, 456.7048
518.3849, 456.4059
518.8671, 456.5835
519.3492, 457.0119
519.8313, 457.8896
520.3134, 459.1346
520.7955, 459.5468
521.2776, 458.4856
521.7598, 457.5271
522.2419, 457.7069
522.7240, 459.3432
523.2061, 460.4224
523.6882, 460.9028
524.1703, 460.8496
524.6525, 460.1735
525.1346, 458.9179
525.6167, 457.7956
526.0988, 457.0785
526.5809, 456.5374
527.0630, 455.7008
527.5452, 454.6364
528.0273, 453.6983
528.5094, 453.2362
528.9915, 452.9365
529.4736, 452.2812
529.9557, 451.2062
530.4379, 450.5321
530.9200, 451.6196
531.4021, 452.9185
531.8842, 452.8399
532.3663, 449.7711
532.8484, 447.0518
533.3306, 445.5443
533.8127, 444.9412
534.2948, 444.6559
534.7769, 445.2600
535.2590, 445.4517
535.7411, 444.8842
536.2233, 443.5838
536.7054, 442.1322
537.1875, 440.4615
537.6696, 438.8117
538.1517, 437.2950
538.6339, 435.9234
539.1160, 434.8227
539.5981, 434.1026
540.0802, 433.3901
540.5623, 431.9268
541.0444, 429.9034
541.5266, 428.3825
542.0087, 427.8199
542.4908, 427.7737
542.9729, 427.8603
543.4550, 427.9896
543.9371, 427.8153
544.4193, 427.1127
544.9014, 426.0332
545.3835, 424.5233
545.8656, 422.5444
546.3477, 420.8750
546.8298, 420.1013
547.3120, 419.5994
547.7941, 418.8525
548.2762, 417.2544
548.7583, 416.1211
549.2404, 416.0160
549.7225, 416.2890
550.2047, 415.8415
550.6868, 414.5129
551.1689, 412.7318
551.6510, 410.4404
552.1331, 407.7639
552.6152, 405.5235
553.0974, 403.7095
553.5795, 402.4057
554.0616, 402.0233
554.5437, 402.3309
555.0258, 401.8234
555.5079, 400.3289
555.9901, 398.7035
556.4722, 397.9922
556.9543, 397.7892
557.4364, 397.2474
557.9185, 396.0736
558.4006, 394.5570
558.8828, 392.3252
559.3649, 389.9112
559.8470, 388.5005
560.3291, 389.4725
560.8112, 390.7218
561.2933, 391.5389
561.7755, 391.8731
562.2576, 391.4081
562.7397, 388.8803
563.2218, 386.5308
563.7039, 385.5233
564.1860, 386.5298
564.6682, 387.1564
565.1503, 387.3729
565.6324, 387.2679
566.1145, 386.9416
566.5966, 386.3934
567.0787, 385.6189
567.5609, 384.5002
568.0430, 383.3197
568.5251, 382.7008
569.0072, 382.6107
569.4893, 382.8027
569.9714, 383.3043
570.4536, 383.9332
570.9357, 384.5149
571.4178, 385.0266
571.8999, 385.2709
572.3820, 384.9491
572.8641, 384.3889
573.3463, 383.8275
573.8284, 383.1874
574.3105, 382.8517
574.7926, 382.9594
575.2747, 383.4192
575.7568, 384.1359
576.2390, 386.1073
576.7211, 386.9489
577.2032, 385.8092
577.6853, 383.3955
578.1674, 382.1632
578.6495, 382.3025
579.1317, 383.0947
579.6138, 384.4643
580.0959, 386.3066
580.5780, 387.8355
581.0601, 389.0856
581.5422, 389.8016
582.0244, 389.3989
582.5065, 388.3298
582.9886, 387.7507
583.4707, 387.8566
583.9528, 388.1905
584.4349, 388.1736
584.9171, 388.1605
585.3992, 388.6894
585.8813, 390.8534
586.3634, 392.6134
586.8455, 392.7094
587.3276, 391.7155
587.8098, 391.1946
588.2919, 391.6647
588.7740, 392.4311
589.2561, 393.4024
589.7382, 394.5854
590.2203, 395.4037
590.7025, 395.6164
591.1846, 395.8788
591.6667, 396.8103
592.1488, 398.5152
592.6309, 399.2758
593.1130, 398.8633
593.5952, 398.1763
594.0773, 398.2627
594.5594, 399.0049
595.0415, 399.9814
595.5236, 401.2327
596.0057, 402.4154
596.4879, 403.0722
596.9700, 403.3548
597.4521, 403.6067
597.9342, 403.4164
598.4163, 403.7475
598.8984, 405.9072
599.3806, 409.5584
599.8627, 411.5211
600.3448, 408.8792
600.8269, 406.2547
601.3090, 406.0585
601.7911, 409.2476
602.2733, 411.0453
602.7554, 410.8975
603.2375, 410.1361
603.7196, 409.9035
604.2017, 410.2124
604.6838, 410.9921
605.1660, 412.3540
605.6481, 413.9248
606.1302, 415.0370
606.6123, 415.7921
607.0944, 416.6766
607.5765, 418.1392
608.0587, 419.5575
608.5408, 420.0345
609.0229, 419.8073
609.5050, 419.7475
609.9871, 420.3205
610.4692, 421.1808
610.9514, 422.2331
611.4335, 423.4927
611.9156, 424.5012
612.3977, 424.9595
612.8798, 425.2914
613.3619, 425.7478
613.8441, 426.4465
614.3262, 426.9882
614.8083, 427.3000
615.2904, 427.5653
615.7725, 427.9031
616.2546, 428.2914
616.7368, 429.3300
617.2189, 431.4579
617.7010, 433.7627
618.1831, 434.4570
618.6652, 433.8332
619.1473, 433.0406
619.6295, 432.1551
620.1116, 431.7044
620.5937, 432.5940
621.0758, 434.5442
621.5579, 436.1931
622.0400, 436.5159
622.5222, 436.5858
623.0043, 436.9027
623.4864, 437.4644
623.9685, 438.5842
624.4506, 440.9413
624.9327, 443.3155
625.4149, 444.8915
625.8970, 445.4149
626.3791, 445.8471
626.8612, 446.2020
627.3433, 446.5010
627.8254, 446.7314
628.3076, 446.9005
628.7897, 447.2029
629.2718, 447.7514
629.7539, 448.3538
630.2360, 448.7592
630.7181, 448.9686
631.2003, 448.9735
631.6824, 448.2371
