##NAMES=Warwickite
##RRUFFID=R050674
##IDEAL CHEMISTRY=(Mg,Ti^4+^,Fe^3+^,Cr^3+^,Al)_2_O(BO_3_)
##LOCALITY=Edenville, Orange County, New York, USA
##OWNER=RRUFF
##SOURCE=University of Arizona Mineral Museum
##DESCRIPTION=Black prismatic crystals embedded in matrix
##STATUS=The identification of this mineral has been confirmed by X-ray diffraction and chemical analysis
##URL=rruff.info/R050674
##MEASURED CHEMISTRY=(Mg_1.23_Ti_0.39_Fe^2+^_0.17_Al_0.19_Fe^3+^_0.02_)_Î£=2_O(BO_3_) ; B not measured but estimated by difference and charge balance
91.00781, 5.632405
91.48993, 5.622130
91.97205, 5.618195
92.45416, 5.624807
92.93628, 5.637560
93.41840, 5.640265
93.90051, 5.618177
94.38263, 5.605834
94.86475, 5.681981
95.34686, 5.845634
95.82898, 6.003005
96.31110, 6.101464
96.79321, 6.139028
97.27533, 6.072662
97.75745, 5.850139
98.23956, 5.522356
98.72168, 5.296135
99.20380, 5.170579
99.68591, 5.155642
100.1680, 5.296486
100.6501, 5.624452
101.1323, 5.950548
101.6144, 6.228974
102.0965, 6.461039
102.5786, 6.619669
103.0607, 6.674997
103.5428, 6.684483
104.0250, 6.723946
104.5071, 6.724623
104.9892, 6.871428
105.4713, 7.254405
105.9534, 8.006001
106.4355, 8.701809
106.9177, 9.324980
107.3998, 9.891578
107.8819, 10.47383
108.3640, 11.07213
108.8461, 11.67899
109.3282, 12.29947
109.8104, 12.90943
110.2925, 13.54619
110.7746, 14.19026
111.2567, 14.84613
111.7388, 15.57800
112.2209, 16.44906
112.7031, 17.35951
113.1852, 18.25059
113.6673, 19.13729
114.1494, 19.97005
114.6315, 20.67594
115.1136, 21.25244
115.5958, 21.96614
116.0779, 23.04579
116.5600, 24.26431
117.0421, 25.36243
117.5242, 26.03831
118.0063, 26.74148
118.4885, 27.76510
118.9706, 29.18890
119.4527, 30.63202
119.9348, 31.84867
120.4169, 32.93473
120.8990, 34.08620
121.3812, 35.49571
121.8633, 36.96442
122.3454, 38.35546
122.8275, 39.76038
123.3096, 40.82647
123.7917, 41.01155
124.2739, 40.51260
124.7560, 40.05246
125.2381, 40.11662
125.7202, 40.52435
126.2023, 40.95954
126.6844, 41.32324
127.1666, 41.72791
127.6487, 42.39965
128.1308, 43.32451
128.6129, 44.22210
129.0950, 44.76575
129.5771, 45.07217
130.0593, 45.57822
130.5414, 46.50978
131.0235, 47.67954
131.5056, 48.54890
131.9877, 48.91493
132.4698, 48.94985
132.9520, 49.00409
133.4341, 49.08390
133.9162, 49.37074
134.3983, 50.02422
134.8804, 50.97506
135.3625, 51.66350
135.8447, 52.01376
136.3268, 52.30979
136.8089, 52.95916
137.2910, 53.99854
137.7731, 55.16762
138.2552, 56.56837
138.7374, 58.32470
139.2195, 59.19999
139.7016, 58.98453
140.1837, 58.12148
140.6658, 57.50214
141.1479, 57.15702
141.6301, 56.95404
142.1122, 56.80940
142.5943, 56.64986
143.0764, 56.75308
143.5585, 57.21970
144.0406, 57.93799
144.5228, 58.53656
145.0049, 58.96371
145.4870, 59.33161
145.9691, 59.70121
146.4512, 60.14380
146.9333, 60.47907
147.4155, 60.64724
147.8976, 60.67459
148.3797, 60.78523
148.8618, 60.94243
149.3439, 61.20895
149.8260, 61.62278
150.3082, 62.30695
150.7903, 63.00393
151.2724, 63.79254
151.7545, 64.67805
152.2366, 65.26464
152.7188, 65.12992
153.2009, 64.89180
153.6830, 65.04778
154.1651, 66.28374
154.6472, 67.29074
155.1293, 67.64840
155.6115, 67.25766
156.0936, 67.00298
156.5757, 67.19641
157.0578, 67.54501
157.5399, 67.72603
158.0220, 67.41746
158.5042, 67.14620
158.9863, 67.12195
159.4684, 67.39673
159.9505, 67.73710
160.4326, 68.07902
160.9147, 68.44150
161.3969, 68.85229
161.8790, 69.42287
162.3611, 69.97217
162.8432, 70.39429
163.3253, 70.64146
163.8074, 70.85359
164.2896, 71.10641
164.7717, 71.36763
165.2538, 71.57346
165.7359, 71.63953
166.2180, 71.66888
166.7001, 71.73546
167.1823, 71.85049
167.6644, 72.00362
168.1465, 72.21720
168.6286, 72.46871
169.1107, 72.69579
169.5928, 73.03772
170.0750, 73.26633
170.5571, 73.07364
171.0392, 72.10809
171.5213, 71.18035
172.0034, 71.11115
172.4855, 71.73656
172.9677, 72.32933
173.4498, 72.44189
173.9319, 72.23518
174.4140, 71.92146
174.8961, 71.48844
175.3782, 71.04877
175.8604, 70.70373
176.3425, 70.44934
176.8246, 70.26632
177.3067, 70.20847
177.7888, 70.20592
178.2709, 70.11736
178.7531, 69.88535
179.2352, 69.55746
179.7173, 69.19160
180.1994, 68.78693
180.6815, 68.35715
181.1636, 67.85696
181.6458, 67.33116
182.1279, 66.92898
182.6100, 66.69335
183.0921, 66.60975
183.5742, 66.71052
184.0563, 67.00391
184.5385, 67.28033
185.0206, 67.34624
185.5027, 67.21700
185.9848, 66.96061
186.4669, 66.54444
186.9490, 66.02426
187.4312, 65.52993
187.9133, 65.06371
188.3954, 64.66275
188.8775, 64.38210
189.3596, 64.21798
189.8417, 64.13117
190.3239, 64.14693
190.8060, 64.23898
191.2881, 64.28020
191.7702, 64.27240
192.2523, 64.20955
192.7344, 64.08968
193.2166, 63.91365
193.6987, 63.65963
194.1808, 63.26742
194.6629, 62.75756
195.1450, 62.35104
195.6271, 62.05585
196.1093, 61.84271
196.5914, 61.67589
197.0735, 61.55564
197.5556, 61.47340
198.0377, 61.47631
198.5198, 61.56569
199.0020, 61.44259
199.4841, 61.02473
199.9662, 60.53740
200.4483, 60.40268
200.9304, 60.68900
201.4125, 60.90904
201.8947, 60.78075
202.3768, 60.26161
202.8589, 59.96828
203.3410, 59.98717
203.8231, 60.12296
204.3052, 59.95402
204.7874, 59.38446
205.2695, 58.91164
205.7516, 58.81197
206.2337, 59.15751
206.7158, 59.38825
207.1979, 59.49151
207.6801, 59.48596
208.1622, 59.38383
208.6443, 59.14619
209.1264, 58.93107
209.6085, 58.85536
210.0906, 58.99501
210.5728, 58.89989
211.0549, 58.47153
211.5370, 57.87247
212.0191, 57.49612
212.5012, 57.41335
212.9833, 57.37157
213.4655, 57.22085
213.9476, 56.87474
214.4297, 56.76646
214.9118, 57.02653
215.3939, 57.46624
215.8760, 57.59202
216.3581, 57.26746
216.8403, 56.90731
217.3224, 56.72122
217.8045, 56.77555
218.2866, 56.79639
218.7687, 56.78657
219.2508, 56.73528
219.7330, 56.60566
220.2151, 56.36316
220.6972, 56.10368
221.1793, 55.85075
221.6614, 55.53481
222.1435, 55.42578
222.6257, 55.64208
223.1078, 56.03210
223.5899, 56.16198
224.0720, 55.89771
224.5541, 55.58855
225.0362, 55.38081
225.5184, 55.27881
226.0005, 55.29081
226.4826, 55.51020
226.9647, 55.82092
227.4468, 55.88081
227.9289, 55.54953
228.4111, 55.18502
228.8932, 54.94871
229.3753, 54.44939
229.8574, 54.94564
230.3395, 55.20899
230.8216, 55.25196
231.3038, 54.41447
231.7859, 54.71391
232.2680, 54.55772
232.7501, 54.38284
233.2322, 54.84230
233.7143, 54.13287
234.1965, 54.58226
234.6786, 54.56908
235.1607, 54.76760
235.6428, 54.50769
236.1249, 54.38937
236.6070, 54.72964
237.0892, 54.81598
237.5713, 54.50330
238.0534, 54.71528
238.5355, 53.98984
239.0176, 54.08700
239.4997, 54.53908
239.9819, 54.24944
240.4640, 54.46980
240.9461, 54.49593
241.4282, 53.63933
241.9103, 54.31788
242.3924, 54.33253
242.8746, 53.66549
243.3567, 54.29144
243.8388, 53.71838
244.3209, 53.57330
244.8030, 53.75029
245.2851, 53.59153
245.7673, 53.96211
246.2494, 53.82274
246.7315, 53.63780
247.2136, 53.63883
247.6957, 53.19865
248.1778, 53.38331
248.6600, 53.31757
249.1421, 53.24155
249.6242, 53.51416
250.1063, 53.14436
250.5884, 53.41143
251.0705, 53.42428
251.5527, 53.55348
252.0348, 53.43073
252.5169, 53.38580
252.9990, 53.59290
253.4811, 53.66045
253.9632, 53.50869
254.4454, 53.64529
254.9275, 53.26669
255.4096, 53.34018
255.8917, 53.60873
256.3738, 53.46965
256.8560, 53.61085
257.3381, 53.64530
257.8202, 53.19462
258.3023, 53.58764
258.7844, 53.61578
259.2665, 53.26928
259.7487, 53.63339
260.2308, 53.33854
260.7129, 53.27890
261.1950, 53.39626
261.6771, 53.32910
262.1592, 53.55287
262.6414, 53.49637
263.1235, 53.41482
263.6056, 53.44256
264.0877, 53.16063
264.5698, 53.45319
265.0519, 53.35332
265.5341, 53.44852
266.0162, 53.58794
266.4983, 53.38881
266.9804, 53.54809
267.4625, 53.15156
267.9446, 53.22009
268.4268, 53.23855
268.9089, 53.55428
269.3910, 53.16045
269.8731, 53.21606
270.3552, 53.46305
270.8373, 53.44226
271.3195, 53.53344
271.8016, 53.29317
272.2837, 53.36427
272.7658, 53.34954
273.2479, 53.63137
273.7300, 53.43827
274.2122, 53.60112
274.6943, 53.70830
275.1764, 53.71135
275.6585, 53.63066
276.1406, 53.58263
276.6227, 53.58581
277.1049, 53.56217
277.5870, 53.40140
278.0691, 53.08009
278.5512, 52.90520
279.0333, 52.95911
279.5154, 53.17567
279.9976, 53.36643
280.4797, 53.54571
280.9618, 53.62571
281.4439, 53.50021
281.9260, 53.16678
282.4081, 52.87279
282.8903, 52.63143
283.3724, 52.46580
283.8545, 52.46102
284.3366, 52.62939
284.8187, 52.82793
285.3008, 52.95907
285.7830, 53.03091
286.2651, 53.13545
286.7472, 53.29939
287.2293, 53.46544
287.7114, 53.54029
288.1935, 53.52381
288.6757, 53.42247
289.1578, 53.13019
289.6399, 52.71842
290.1220, 52.60826
290.6041, 52.87245
291.0862, 53.27306
291.5684, 53.47783
292.0505, 53.50338
292.5326, 53.50148
293.0147, 53.58563
293.4968, 53.70154
293.9789, 53.65527
294.4611, 53.42123
294.9432, 53.15578
295.4253, 53.03492
295.9074, 53.03898
296.3895, 53.08335
296.8716, 53.15137
297.3538, 53.23185
297.8359, 53.29260
298.3180, 53.33256
298.8001, 53.39032
299.2822, 53.56091
299.7643, 53.78448
300.2465, 53.89686
300.7286, 53.74374
301.2107, 53.51312
301.6928, 53.47894
302.1749, 53.63124
302.6570, 53.81242
303.1392, 53.89559
303.6213, 53.92274
304.1034, 53.96672
304.5855, 54.07009
305.0676, 54.17397
305.5497, 54.23729
306.0319, 54.25651
306.5140, 54.21593
306.9961, 53.99324
307.4782, 53.74588
307.9603, 53.67402
308.4424, 53.88446
308.9246, 54.16615
309.4067, 54.40194
309.8888, 54.58364
310.3709, 54.69196
310.8530, 54.62860
311.3351, 54.53334
311.8173, 54.52963
312.2994, 54.65473
312.7815, 54.81721
313.2636, 55.08027
313.7457, 55.33419
314.2278, 55.37997
314.7100, 54.80093
315.1921, 54.22849
315.6742, 54.12328
316.1563, 54.61805
316.6384, 55.03006
317.1205, 54.92672
317.6027, 54.60669
318.0848, 54.44839
318.5669, 54.78848
319.0490, 55.11744
319.5311, 55.16821
320.0132, 54.91408
320.4954, 54.79493
320.9775, 55.10362
321.4596, 55.51877
321.9417, 55.76314
322.4238, 55.64329
322.9059, 55.48970
323.3881, 55.35508
323.8702, 55.24346
324.3523, 55.16712
324.8344, 55.20039
325.3165, 55.22270
325.7986, 55.16333
326.2808, 54.80712
326.7629, 54.61705
327.2450, 54.69510
327.7271, 54.98080
328.2092, 55.23481
328.6913, 55.44505
329.1735, 55.63218
329.6556, 55.81044
330.1377, 56.00729
330.6198, 56.14381
331.1019, 56.23370
331.5840, 56.25795
332.0662, 56.16295
332.5483, 55.79005
333.0304, 55.20505
333.5125, 55.62605
333.9946, 55.87062
334.4767, 55.94825
334.9589, 55.35889
335.4410, 55.63080
335.9231, 55.55755
336.4052, 55.47015
336.8873, 55.86328
337.3694, 55.37093
337.8516, 55.75644
338.3336, 55.79152
338.8158, 55.98699
339.2979, 55.83517
339.7800, 55.79061
340.2621, 56.09345
340.7442, 56.20393
341.2263, 56.01213
341.7085, 56.21779
342.1906, 55.71331
342.6727, 55.83199
343.1548, 56.21953
343.6369, 56.04519
344.1190, 56.25720
344.6012, 56.32207
345.0833, 55.71823
345.5654, 56.27734
346.0475, 56.33350
346.5296, 55.87327
347.0117, 56.39253
347.4939, 56.00349
347.9760, 55.93865
348.4581, 56.11781
348.9402, 56.04261
349.4223, 56.36842
349.9044, 56.30791
350.3866, 56.21289
350.8687, 56.26850
351.3508, 55.89727
351.8329, 56.31791
352.3150, 56.19763
352.7971, 56.34623
353.2793, 56.55578
353.7614, 56.29868
354.2435, 56.53560
354.7256, 56.00640
355.2077, 56.11825
355.6898, 56.16107
356.1720, 56.61364
356.6541, 56.08817
357.1362, 56.18221
357.6183, 56.54002
358.1004, 56.52875
358.5826, 56.67179
359.0647, 56.35800
359.5468, 56.47337
360.0289, 56.47045
360.5110, 56.87630
360.9931, 56.95944
361.4753, 56.65340
361.9574, 56.34901
362.4395, 56.78428
362.9216, 56.51849
363.4037, 56.63091
363.8858, 56.35272
364.3680, 56.41180
364.8501, 56.46553
365.3322, 56.69214
365.8143, 56.39451
366.2964, 56.77691
366.7785, 56.76627
367.2607, 56.87141
367.7428, 56.96367
368.2249, 56.52850
368.7070, 56.52570
369.1891, 57.14156
369.6712, 56.81392
370.1534, 56.67672
370.6355, 56.67488
371.1176, 57.31194
371.5997, 57.35515
372.0818, 56.68855
372.5639, 57.29745
373.0461, 57.12164
373.5282, 56.69047
374.0103, 56.79115
374.4924, 57.09298
374.9745, 57.24174
375.4566, 57.19580
375.9388, 57.12539
376.4209, 57.04637
376.9030, 56.96847
377.3851, 57.09759
377.8672, 57.50695
378.3493, 57.90234
378.8315, 57.92162
379.3136, 57.55632
379.7957, 57.37909
380.2778, 57.53662
380.7599, 57.90398
381.2420, 58.24361
381.7242, 58.55008
382.2063, 58.71801
382.6884, 58.59850
383.1705, 58.26929
383.6526, 57.96260
384.1347, 57.66979
384.6169, 57.52014
385.0990, 57.84771
385.5811, 58.49743
386.0632, 58.95350
386.5453, 58.80453
387.0274, 58.40162
387.5096, 58.21342
387.9917, 58.24585
388.4738, 58.31881
388.9559, 58.25007
389.4380, 58.15102
389.9201, 58.17286
390.4023, 58.42073
390.8844, 58.73910
391.3665, 59.12678
391.8486, 59.52988
392.3307, 59.73421
392.8128, 59.43948
393.2950, 59.04088
393.7771, 58.82021
394.2592, 58.90144
394.7413, 58.94600
395.2234, 58.74974
395.7055, 58.46723
396.1877, 58.33795
396.6698, 58.56923
397.1519, 58.81329
397.6340, 58.95285
398.1161, 58.96757
398.5982, 59.02667
399.0804, 59.22720
399.5625, 59.42526
400.0446, 59.51300
400.5267, 59.37118
401.0088, 59.29894
401.4909, 59.35950
401.9731, 59.51327
402.4552, 59.58466
402.9373, 59.49712
403.4194, 59.45327
403.9015, 59.57613
404.3836, 59.93621
404.8658, 60.17303
405.3479, 60.24999
405.8300, 60.24850
406.3121, 60.29507
406.7942, 60.39970
407.2763, 60.47169
407.7585, 60.45412
408.2406, 60.37529
408.7227, 60.42266
409.2048, 60.61071
409.6869, 60.79579
410.1690, 60.81488
410.6512, 60.70686
411.1333, 60.67817
411.6154, 60.80409
412.0975, 60.95880
412.5796, 60.87633
413.0617, 60.61875
413.5439, 60.49051
414.0260, 60.84642
414.5081, 61.36799
414.9902, 61.54248
415.4723, 61.30282
415.9544, 61.06369
416.4366, 61.31343
416.9187, 61.75006
417.4008, 61.92045
417.8829, 61.23468
418.3650, 60.59552
418.8471, 60.65849
419.3293, 61.30393
419.8114, 61.81164
420.2935, 61.79977
420.7756, 61.58872
421.2577, 61.37048
421.7398, 61.09196
422.2220, 60.96775
422.7041, 61.10294
423.1862, 61.41277
423.6683, 61.74283
424.1504, 62.28190
424.6325, 62.63619
425.1147, 62.63114
425.5968, 62.21090
426.0789, 61.95176
426.5610, 61.98246
427.0431, 62.05727
427.5252, 61.95707
428.0074, 61.55055
428.4895, 61.28362
428.9716, 61.25817
429.4537, 61.38816
429.9358, 61.38326
430.4179, 61.19481
430.9001, 61.04165
431.3822, 61.09782
431.8643, 61.36951
432.3464, 61.36131
432.8285, 60.99285
433.3106, 60.60290
433.7928, 60.72626
434.2749, 61.28923
434.7570, 61.65830
435.2391, 61.55610
435.7212, 61.20640
436.2033, 61.06713
436.6855, 61.11641
437.1676, 61.11831
437.6497, 60.81414
438.1318, 60.38209
438.6139, 60.10603
439.0960, 60.05608
439.5782, 60.07303
440.0603, 60.06406
440.5424, 60.02544
441.0245, 59.95101
441.5066, 59.77068
441.9887, 59.60837
442.4709, 59.57536
442.9530, 59.66626
443.4351, 59.68586
443.9172, 59.47951
444.3993, 59.22020
444.8814, 59.04026
445.3636, 59.10815
445.8457, 59.05639
446.3278, 58.66048
446.8099, 58.10992
447.2920, 57.87153
447.7741, 58.29848
448.2563, 58.65330
448.7384, 58.68377
449.2205, 58.33515
449.7026, 58.12812
450.1847, 58.17296
450.6668, 58.22539
451.1490, 57.98654
451.6311, 57.29657
452.1132, 56.98479
452.5953, 57.33394
453.0774, 58.01418
453.5595, 58.07276
454.0417, 57.44572
454.5238, 56.78741
455.0059, 56.43817
455.4880, 56.35990
455.9701, 56.37793
456.4522, 56.50391
456.9344, 56.61327
457.4165, 56.55729
457.8986, 56.37511
458.3807, 56.17190
458.8628, 55.94348
459.3449, 55.74961
459.8271, 55.69823
460.3092, 55.75502
460.7913, 55.77119
461.2734, 55.55409
461.7555, 55.32286
462.2376, 55.27800
462.7198, 55.47819
463.2019, 55.72039
463.6840, 55.98092
464.1661, 56.20548
464.6482, 56.32830
465.1303, 56.31113
465.6125, 56.21117
466.0946, 55.96689
466.5767, 55.60621
467.0588, 55.40071
467.5409, 55.46435
468.0230, 55.60421
468.5052, 55.74791
468.9873, 55.92069
469.4694, 56.03566
469.9515, 56.08622
470.4336, 56.08600
470.9157, 56.03741
471.3979, 55.91234
471.8800, 55.84614
472.3621, 55.90858
472.8442, 56.05451
473.3263, 56.01757
473.8084, 55.76512
474.2906, 55.58198
474.7727, 55.72151
475.2548, 56.12169
475.7369, 56.51311
476.2190, 56.89073
476.7011, 57.16968
477.1833, 57.19524
477.6654, 57.03707
478.1475, 56.88727
478.6296, 56.87889
479.1117, 56.88063
479.5938, 56.70402
480.0760, 56.38336
480.5581, 56.15284
481.0402, 56.16450
481.5223, 56.30866
482.0044, 56.51692
482.4865, 56.81440
482.9687, 57.06892
483.4508, 57.22423
483.9329, 57.31339
484.4150, 57.38171
484.8971, 57.48326
485.3792, 57.51733
485.8614, 57.41082
486.3435, 57.17926
486.8256, 57.05353
487.3077, 57.07162
487.7898, 57.15183
488.2719, 57.26890
488.7541, 57.45918
489.2362, 57.55317
489.7183, 57.51562
490.2004, 57.42701
490.6825, 57.38227
491.1646, 57.37486
491.6468, 57.49202
492.1289, 57.82085
492.6110, 58.26018
493.0931, 58.53467
493.5752, 58.64581
494.0573, 58.67146
494.5395, 58.67686
495.0216, 58.63676
495.5037, 58.41883
495.9858, 57.95440
496.4679, 57.64190
496.9500, 58.07136
497.4322, 58.86743
497.9143, 59.39978
498.3964, 59.12221
498.8785, 58.78112
499.3606, 58.85262
499.8427, 59.24796
500.3249, 59.54150
500.8070, 59.44724
501.2891, 59.32427
501.7712, 59.37090
502.2533, 59.67650
502.7354, 59.95113
503.2176, 60.12859
503.6997, 60.28653
504.1818, 60.51378
504.6639, 60.90398
505.1460, 61.18488
505.6281, 61.29496
506.1103, 61.26970
506.5924, 61.22004
507.0745, 61.11656
507.5566, 61.08958
508.0387, 61.20430
508.5208, 61.45805
509.0030, 61.86407
509.4851, 62.46135
509.9672, 62.99020
510.4493, 63.05244
510.9314, 62.79679
511.4135, 62.73688
511.8957, 63.04775
512.3778, 63.52818
512.8599, 64.05658
513.3420, 64.58020
513.8242, 64.94125
514.3063, 64.90594
514.7884, 64.78990
515.2705, 64.83850
515.7526, 65.06871
516.2347, 65.33131
516.7169, 65.59779
517.1990, 65.85421
517.6811, 66.08884
518.1632, 66.26868
518.6453, 66.46679
519.1274, 66.66332
519.6096, 66.88774
520.0917, 67.19202
520.5738, 67.58031
521.0559, 68.04633
521.5380, 68.66029
522.0201, 69.39836
522.5023, 69.78081
522.9844, 69.68987
523.4665, 69.58256
523.9486, 69.82619
524.4307, 70.40218
524.9128, 70.91439
525.3950, 71.32985
525.8771, 71.66760
526.3592, 71.92713
526.8413, 72.12077
527.3234, 72.29914
527.8055, 72.43485
528.2877, 72.60400
528.7698, 72.96810
529.2519, 73.46790
529.7340, 73.86671
530.2161, 73.97079
530.6982, 73.96264
531.1804, 73.95055
531.6625, 73.93246
532.1446, 74.01029
532.6267, 74.43188
533.1088, 74.86086
533.5909, 74.98087
534.0731, 74.24932
534.5552, 73.84007
535.0373, 74.02132
535.5194, 74.55051
536.0015, 74.81413
536.4836, 74.69971
536.9658, 74.53819
537.4479, 74.40659
537.9300, 74.30923
538.4121, 74.42441
538.8942, 74.81683
539.3763, 75.14201
539.8585, 75.02649
540.3406, 74.55433
540.8227, 74.23265
541.3048, 74.15303
541.7869, 74.12289
542.2690, 73.92583
542.7512, 73.58990
543.2333, 73.18462
543.7154, 72.68530
544.1975, 72.17355
544.6796, 71.68046
545.1617, 71.21826
545.6439, 70.86103
546.1260, 70.76728
546.6081, 70.69254
547.0902, 70.46940
547.5723, 70.02859
548.0544, 69.66903
548.5366, 69.54323
549.0187, 69.45052
549.5008, 69.21594
549.9829, 68.79394
550.4650, 68.30284
550.9471, 67.69263
551.4293, 67.05251
551.9114, 66.61983
552.3935, 66.45428
552.8756, 66.20757
553.3577, 65.72554
553.8398, 65.05533
554.3220, 64.39379
554.8041, 63.73751
555.2862, 63.11886
555.7683, 62.56626
556.2504, 62.06367
556.7325, 61.54933
557.2147, 61.00010
557.6968, 60.52356
558.1789, 60.34167
558.6610, 60.25701
559.1431, 59.98051
559.6252, 59.19552
560.1074, 58.41931
560.5895, 57.84972
561.0716, 57.44890
561.5537, 57.10057
562.0358, 56.89954
562.5179, 56.62691
563.0001, 56.16401
563.4822, 55.48148
563.9643, 54.95477
564.4464, 54.63181
564.9285, 54.39729
565.4106, 54.17487
565.8928, 53.96791
566.3749, 53.74796
566.8570, 53.51204
567.3391, 53.25951
567.8212, 52.97062
568.3033, 52.65195
568.7855, 52.36979
569.2676, 52.13707
569.7497, 51.95875
570.2318, 51.93309
570.7139, 51.99906
571.1960, 51.88743
571.6782, 51.10445
572.1603, 50.30483
572.6424, 50.13104
573.1245, 50.67791
573.6066, 51.12263
574.0887, 51.08486
574.5709, 50.86011
575.0530, 50.67821
575.5351, 50.53513
576.0172, 50.48717
576.4993, 50.60529
576.9814, 50.78520
577.4636, 50.85975
577.9457, 50.81379
578.4278, 50.68917
578.9099, 50.43713
579.3920, 50.13403
579.8741, 50.10719
580.3563, 50.37359
580.8384, 50.69270
581.3205, 50.97343
581.8026, 51.19510
582.2847, 51.23751
582.7668, 51.09406
583.2490, 50.97669
583.7311, 51.15899
