##NAMES=Warwickite
##RRUFFID=R120161
##IDEAL CHEMISTRY=(Mg,Ti^4+^,Fe^3+^,Cr^3+^,Al)_2_O(BO_3_)
##LOCALITY=South Baptiste Lake roadcut, Bancroft, Ontario, Canada
##OWNER=RRUFF
##SOURCE=Michael J. Bainbridge
##DESCRIPTION=Black prismatic crystals
##STATUS=The identification of this mineral has been confirmed only by single crystal X-ray diffraction.
##URL=rruff.info/R120161
135.9146, 848.3105
136.3968, 849.9081
136.8789, 851.6940
137.3610, 853.5521
137.8431, 855.3700
138.3252, 857.1794
138.8073, 858.6967
139.2895, 859.5832
139.7716, 860.2957
140.2537, 861.4020
140.7358, 863.0611
141.2179, 864.9567
141.7000, 866.6740
142.1821, 868.2241
142.6643, 869.8384
143.1464, 871.7769
143.6285, 873.8946
144.1106, 875.6251
144.5927, 876.5500
145.0748, 877.3829
145.5570, 878.7510
146.0391, 880.6594
146.5212, 882.7875
147.0033, 884.9141
147.4854, 887.0472
147.9675, 889.1272
148.4497, 890.7311
148.9318, 892.5709
149.4139, 895.3523
149.8960, 899.1458
150.3781, 903.0704
150.8602, 905.6503
151.3424, 906.0374
151.8245, 906.9514
152.3066, 908.7548
152.7887, 911.0193
153.2708, 913.5971
153.7529, 916.3924
154.2351, 919.1706
154.7172, 921.3359
155.1993, 922.6429
155.6814, 923.5019
156.1635, 923.1213
156.6456, 922.5447
157.1278, 923.1345
157.6099, 925.6179
158.0920, 929.5030
158.5741, 932.7191
159.0562, 935.3795
159.5383, 937.3777
160.0205, 938.0490
160.5026, 937.9643
160.9847, 938.5731
161.4668, 940.9671
161.9489, 944.5219
162.4310, 946.4393
162.9131, 945.5956
163.3953, 944.3460
163.8774, 944.0013
164.3595, 944.4895
164.8416, 945.1291
165.3237, 945.6389
165.8058, 945.9682
166.2880, 946.0284
166.7701, 945.5905
167.2522, 945.0539
167.7343, 945.0164
168.2164, 945.6451
168.6985, 945.9765
169.1807, 944.8732
169.6628, 943.2614
170.1449, 942.3473
170.6270, 942.9336
171.1091, 944.2897
171.5912, 944.7325
172.0734, 943.9902
172.5555, 942.7413
173.0376, 941.0659
173.5197, 939.1864
174.0018, 937.4128
174.4839, 935.9564
174.9661, 934.7610
175.4482, 933.4960
175.9303, 932.1533
176.4124, 930.7434
176.8945, 929.0573
177.3766, 927.3207
177.8588, 926.0106
178.3409, 925.5964
178.8230, 926.0916
179.3051, 925.4596
179.7872, 922.2748
180.2693, 919.3631
180.7515, 917.7133
181.2336, 917.0834
181.7157, 916.7448
182.1978, 916.1503
182.6799, 915.3441
183.1620, 913.6412
183.6441, 909.7359
184.1263, 906.2706
184.6084, 904.9579
185.0905, 905.5674
185.5726, 906.4267
186.0547, 906.0314
186.5368, 904.1745
187.0190, 902.1838
187.5011, 900.1684
187.9832, 897.9772
188.4653, 895.3011
188.9474, 892.1555
189.4296, 889.1568
189.9117, 886.9130
190.3938, 885.4451
190.8759, 884.2877
191.3580, 884.1843
191.8401, 884.0185
192.3223, 882.2520
192.8044, 878.4738
193.2865, 874.3251
193.7686, 871.2520
194.2507, 869.0321
194.7328, 867.3231
195.2150, 866.8736
195.6971, 866.7236
196.1792, 864.5941
196.6613, 859.3507
197.1434, 854.2227
197.6255, 851.7060
198.1077, 851.1302
198.5898, 851.0195
199.0719, 851.0480
199.5540, 851.0238
200.0361, 850.0350
200.5182, 847.4400
201.0004, 844.6910
201.4825, 842.6395
201.9646, 841.0872
202.4467, 839.5486
202.9288, 837.7059
203.4109, 835.5715
203.8930, 833.3426
204.3752, 830.5311
204.8573, 828.1959
205.3394, 827.0742
205.8215, 826.7956
206.3036, 826.4564
206.7857, 825.3019
207.2679, 823.2900
207.7500, 821.3040
208.2321, 819.1318
208.7142, 817.1832
209.1963, 815.6675
209.6784, 814.5126
210.1606, 813.5372
210.6427, 812.6434
211.1248, 811.9058
211.6069, 810.5927
212.0890, 807.6457
212.5711, 805.1514
213.0533, 804.2996
213.5354, 804.7652
214.0175, 805.2880
214.4996, 804.6720
214.9817, 802.6765
215.4638, 801.2141
215.9460, 800.7288
216.4281, 800.2574
216.9102, 799.2635
217.3923, 797.7957
217.8744, 796.2553
218.3565, 795.0089
218.8387, 794.0984
219.3208, 793.2010
219.8029, 792.4767
220.2850, 791.6332
220.7671, 790.5782
221.2492, 789.2717
221.7314, 787.5211
222.2135, 784.9210
222.6956, 781.4437
223.1777, 779.2244
223.6598, 779.2982
224.1419, 779.8477
224.6240, 779.6505
225.1062, 778.6255
225.5883, 777.1124
226.0704, 775.2825
226.5525, 773.1473
227.0346, 770.9066
227.5167, 768.0799
227.9989, 765.4656
228.4810, 764.1292
228.9631, 764.1645
229.4452, 764.0961
229.9273, 762.7755
230.4094, 760.5082
230.8916, 758.1486
231.3737, 755.8243
231.8558, 753.4747
232.3379, 750.9238
232.8200, 748.1075
233.3021, 745.5374
233.7843, 743.6777
234.2664, 742.2523
234.7485, 740.8897
235.2306, 739.5721
235.7127, 738.2137
236.1948, 736.6498
236.6770, 734.8142
237.1591, 733.0102
237.6412, 731.4117
238.1233, 729.9210
238.6054, 728.4079
239.0875, 726.7780
239.5697, 725.1887
240.0518, 723.9281
240.5339, 723.0711
241.0160, 722.2943
241.4981, 721.8820
241.9802, 721.3176
242.4624, 719.9275
242.9445, 717.3342
243.4266, 714.2982
243.9087, 712.1312
244.3908, 711.0568
244.8729, 710.2753
245.3550, 709.7907
245.8372, 709.3615
246.3193, 708.8036
246.8014, 708.0549
247.2835, 707.1262
247.7656, 705.9609
248.2477, 704.3698
248.7299, 703.0069
249.2120, 701.8562
249.6941, 701.0178
250.1762, 700.8016
250.6583, 701.2659
251.1404, 701.8041
251.6226, 701.2508
252.1047, 698.8093
252.5868, 697.1105
253.0689, 696.6697
253.5510, 696.7438
254.0331, 697.0394
254.5153, 697.3998
254.9974, 697.5118
255.4795, 696.7643
255.9616, 694.4310
256.4437, 692.8377
256.9258, 692.6068
257.4080, 692.5724
257.8901, 691.7842
258.3722, 690.1688
258.8543, 688.5283
259.3364, 688.0440
259.8185, 689.4788
260.3007, 690.1381
260.7828, 689.5695
261.2649, 688.7517
261.7470, 688.2772
262.2291, 688.2060
262.7112, 688.2345
263.1934, 688.0060
263.6755, 687.4235
264.1576, 686.9217
264.6397, 686.1924
265.1218, 685.7711
265.6039, 686.4604
266.0861, 687.9576
266.5682, 688.9009
267.0503, 687.7703
267.5324, 684.0110
268.0145, 681.8114
268.4966, 682.0793
268.9788, 682.7308
269.4609, 683.0499
269.9430, 682.8899
270.4251, 682.1187
270.9072, 680.4684
271.3893, 677.8801
271.8715, 676.6073
272.3536, 677.8086
272.8357, 678.8914
273.3178, 678.4730
273.7999, 676.9746
274.2820, 675.7693
274.7642, 675.8748
275.2463, 677.1223
275.7284, 677.3943
276.2105, 676.1359
276.6926, 674.7599
277.1747, 673.5862
277.6568, 672.6448
278.1389, 671.9560
278.6211, 671.5349
279.1032, 671.3666
279.5853, 671.4199
280.0674, 671.8355
280.5495, 672.2593
281.0316, 672.9864
281.5138, 673.6224
281.9959, 673.3154
282.4780, 671.5961
282.9601, 669.0701
283.4422, 667.3304
283.9243, 666.6239
284.4065, 666.0686
284.8886, 665.5549
285.3707, 665.0726
285.8528, 664.6038
286.3349, 664.1409
286.8170, 663.6968
287.2992, 663.2443
287.7813, 662.6611
288.2634, 662.4658
288.7455, 663.1490
289.2276, 664.1021
289.7097, 664.5732
290.1919, 664.3859
290.6740, 663.8547
291.1561, 663.2592
291.6382, 662.5611
292.1203, 662.1578
292.6024, 662.4037
293.0846, 662.7836
293.5667, 662.7017
294.0488, 662.0904
294.5309, 661.5102
295.0130, 661.6146
295.4951, 662.3915
295.9773, 662.5116
296.4594, 661.0572
296.9415, 659.5563
297.4236, 659.5408
297.9057, 660.9128
298.3878, 661.9440
298.8700, 661.2420
299.3521, 659.0978
299.8342, 657.7449
300.3163, 657.8976
300.7984, 658.1795
301.2805, 657.7663
301.7627, 656.7692
302.2448, 655.7021
302.7269, 654.7681
303.2090, 653.9979
303.6911, 653.4262
304.1732, 653.0012
304.6554, 652.8232
305.1375, 653.3703
305.6196, 654.2347
306.1017, 654.1934
306.5838, 652.5436
307.0659, 650.2367
307.5481, 649.1709
308.0302, 649.4926
308.5123, 650.0353
308.9944, 650.7574
309.4765, 651.3934
309.9586, 651.3815
310.4408, 650.5032
310.9229, 649.2794
311.4050, 648.3093
311.8871, 647.5605
312.3692, 647.1311
312.8513, 647.2193
313.3335, 647.5517
313.8156, 647.8870
314.2977, 648.1970
314.7798, 648.3112
315.2619, 647.9974
315.7440, 647.2754
316.2262, 646.6152
316.7083, 646.1821
317.1904, 645.7309
317.6725, 644.9100
318.1546, 643.7559
318.6367, 642.8791
319.1188, 642.8025
319.6010, 643.3424
320.0831, 643.5045
320.5652, 642.9982
321.0473, 642.4195
321.5294, 641.9910
322.0115, 641.7377
322.4937, 641.8282
322.9758, 642.5050
323.4579, 643.3789
323.9400, 643.4084
324.4221, 642.2854
324.9042, 641.1722
325.3864, 640.4082
325.8685, 639.9428
326.3506, 639.8028
326.8327, 640.0963
327.3148, 640.3439
327.7969, 639.5244
328.2791, 637.3180
328.7612, 636.0313
329.2433, 637.0369
329.7254, 638.7490
330.2075, 639.2331
330.6896, 638.1561
331.1718, 636.5623
331.6539, 635.2476
332.1360, 634.2513
332.6181, 634.2786
333.1002, 636.5809
333.5823, 638.9819
334.0645, 639.6534
334.5466, 638.7168
335.0287, 637.7912
335.5108, 638.1180
335.9929, 639.4197
336.4750, 639.6597
336.9572, 637.6635
337.4393, 635.9592
337.9214, 635.9105
338.4035, 636.9721
338.8856, 637.8125
339.3677, 637.7870
339.8499, 637.2296
340.3320, 637.0745
340.8141, 637.7715
341.2962, 638.0046
341.7783, 637.3578
342.2604, 636.1692
342.7426, 634.7194
343.2247, 633.0927
343.7068, 631.6062
344.1889, 630.7161
344.6710, 630.6336
345.1531, 630.6726
345.6353, 631.1208
346.1174, 631.4938
346.5995, 631.4168
347.0816, 630.8703
347.5637, 630.0169
348.0458, 628.9346
348.5280, 627.5958
349.0101, 626.7250
349.4922, 626.7090
349.9743, 626.6904
350.4564, 626.3688
350.9385, 625.7630
351.4207, 624.8937
351.9028, 623.7252
352.3849, 622.4191
352.8670, 621.6783
353.3491, 622.2662
353.8312, 622.4747
354.3134, 621.7044
354.7955, 620.6055
355.2776, 620.0724
355.7597, 620.3944
356.2418, 620.9338
356.7239, 620.5745
357.2061, 618.6534
357.6882, 617.1461
358.1703, 616.0069
358.6524, 615.2616
359.1345, 615.2558
359.6166, 615.8094
360.0987, 616.0961
360.5808, 615.1995
361.0630, 612.9107
361.5451, 611.4560
362.0272, 611.6013
362.5093, 611.7265
362.9914, 611.1152
363.4735, 610.0988
363.9557, 609.4138
364.4378, 609.5324
364.9199, 610.2433
365.4020, 610.6508
365.8841, 610.6713
366.3662, 610.4661
366.8484, 609.7539
367.3305, 608.9940
367.8126, 608.7657
368.2947, 609.2156
368.7768, 609.8053
369.2589, 609.6057
369.7411, 608.1707
370.2232, 607.1647
370.7053, 606.8070
371.1874, 606.7177
371.6695, 606.7894
372.1516, 606.9633
372.6338, 607.1624
373.1159, 607.3835
373.5980, 607.6144
374.0801, 607.4330
374.5622, 606.3083
375.0443, 605.4194
375.5265, 605.3613
376.0086, 605.7302
376.4907, 605.9047
376.9728, 605.5743
377.4549, 604.9005
377.9370, 604.2066
378.4192, 603.4554
378.9013, 602.7940
379.3834, 602.0413
379.8655, 601.5255
380.3476, 601.6809
380.8297, 602.5822
381.3119, 603.5413
381.7940, 603.7952
382.2761, 603.3620
382.7582, 603.0823
383.2403, 603.3586
383.7224, 603.4387
384.2046, 602.6098
384.6867, 601.1307
385.1688, 599.9200
385.6509, 599.6960
386.1330, 600.0513
386.6151, 599.9397
387.0973, 599.1438
387.5794, 598.6642
388.0615, 599.5673
388.5436, 601.0115
389.0257, 601.7474
389.5078, 601.2522
389.9900, 600.5226
390.4721, 600.5029
390.9542, 601.0928
391.4363, 601.5383
391.9184, 601.6290
392.4005, 601.4111
392.8827, 600.9788
393.3648, 600.3488
393.8469, 599.4870
394.3290, 598.1238
394.8111, 596.6083
395.2932, 595.5237
395.7754, 594.9633
396.2575, 594.6584
396.7396, 594.3944
397.2217, 594.1913
397.7038, 594.1380
398.1859, 594.5382
398.6681, 594.8295
399.1501, 594.4555
399.6323, 593.6113
400.1144, 593.0498
400.5965, 593.2020
401.0786, 593.7879
401.5607, 593.9904
402.0428, 593.6155
402.5250, 593.2592
403.0071, 592.9796
403.4892, 592.7872
403.9713, 592.8484
404.4534, 593.1586
404.9355, 593.2352
405.4177, 592.4067
405.8998, 590.3443
406.3819, 589.0904
406.8640, 589.3640
407.3461, 589.6592
407.8282, 589.0488
408.3104, 587.8337
408.7925, 586.9842
409.2746, 587.1699
409.7567, 588.0248
410.2388, 587.8366
410.7209, 585.1829
411.2031, 583.3120
411.6852, 582.7606
412.1673, 582.9420
412.6494, 583.5657
413.1315, 584.4406
413.6136, 585.0538
414.0958, 584.5589
414.5779, 582.5201
415.0600, 581.1205
415.5421, 581.0265
416.0242, 580.9775
416.5063, 580.3293
416.9885, 579.3248
417.4706, 578.6606
417.9527, 578.8806
418.4348, 579.6703
418.9169, 579.9438
419.3990, 579.5535
419.8812, 578.9583
420.3633, 578.1511
420.8454, 577.2994
421.3275, 576.6101
421.8096, 576.1400
422.2917, 575.6178
422.7739, 574.6521
423.2560, 573.2750
423.7381, 572.2042
424.2202, 571.7646
424.7023, 571.3458
425.1844, 570.3785
425.6666, 569.0126
426.1487, 567.7934
426.6308, 567.0846
427.1129, 566.5895
427.5950, 565.7766
428.0771, 564.6064
428.5593, 563.7261
429.0414, 563.6882
429.5235, 564.0690
430.0056, 563.9072
430.4877, 563.0200
430.9698, 562.0098
431.4520, 561.3465
431.9341, 560.7520
432.4162, 559.4598
432.8983, 557.1877
433.3804, 554.9349
433.8625, 554.0403
434.3447, 554.7658
434.8268, 554.6693
435.3089, 552.9756
435.7910, 551.0268
436.2731, 549.6496
436.7552, 548.7930
437.2374, 548.0891
437.7195, 547.3342
438.2016, 546.5525
438.6837, 545.8536
439.1658, 545.1100
439.6479, 544.6189
440.1301, 544.8188
440.6122, 545.0477
441.0943, 544.6555
441.5764, 543.5338
442.0585, 542.0018
442.5406, 540.3063
443.0227, 538.2938
443.5049, 537.2311
443.9870, 538.3781
444.4691, 539.1839
444.9512, 538.6796
445.4333, 537.3409
445.9154, 535.9901
446.3976, 535.0485
446.8797, 534.3499
447.3618, 533.4841
447.8439, 532.2985
448.3260, 531.4010
448.8081, 531.0873
449.2903, 530.9588
449.7724, 530.8250
450.2545, 530.6509
450.7366, 530.4241
451.2187, 530.1545
451.7008, 529.8263
452.1830, 529.4005
452.6651, 528.9172
453.1472, 528.2331
453.6293, 526.8499
454.1114, 525.3083
454.5935, 524.4693
455.0757, 524.7496
455.5578, 525.3085
456.0399, 525.5574
456.5220, 525.5169
457.0041, 525.2404
457.4862, 524.6695
457.9684, 524.0222
458.4505, 523.6391
458.9326, 523.5249
459.4147, 523.2342
459.8968, 522.3578
460.3789, 521.5169
460.8611, 521.4290
461.3432, 521.9778
461.8253, 522.3378
462.3074, 521.9498
462.7895, 521.0430
463.2716, 520.5615
463.7538, 521.3179
464.2359, 521.4130
464.7180, 519.8774
465.2001, 517.9849
465.6822, 517.1590
466.1643, 517.6030
466.6465, 518.3898
467.1286, 518.4767
467.6107, 517.7535
468.0928, 517.3774
468.5749, 517.7272
469.0570, 518.0177
469.5392, 517.9628
470.0213, 517.7341
470.5034, 517.5698
470.9855, 517.5698
471.4676, 517.7475
471.9497, 518.3209
472.4319, 519.5759
472.9140, 519.9573
473.3961, 518.1713
473.8782, 516.3578
474.3603, 515.9156
474.8424, 516.6119
475.3246, 517.2068
475.8067, 516.7957
476.2888, 515.8533
476.7709, 515.4315
477.2530, 515.5978
477.7351, 515.8925
478.2173, 516.2646
478.6994, 516.5454
479.1815, 516.4134
479.6636, 515.6994
480.1457, 515.1464
480.6278, 515.3278
481.1100, 515.8685
481.5920, 515.9533
482.0742, 515.4113
482.5563, 515.0411
483.0384, 515.6663
483.5205, 517.2674
484.0026, 518.3653
484.4847, 518.7963
484.9669, 518.9338
485.4490, 518.7445
485.9311, 518.4028
486.4132, 518.1752
486.8953, 518.1608
487.3774, 518.3256
487.8596, 518.6436
488.3417, 519.2701
488.8238, 519.6183
489.3059, 519.6136
489.7880, 519.4554
490.2701, 519.1050
490.7523, 518.6853
491.2344, 518.4541
491.7165, 518.5988
492.1986, 518.9468
492.6807, 518.9520
493.1628, 518.3624
493.6450, 518.1318
494.1271, 518.8194
494.6092, 519.6780
495.0913, 520.2914
495.5734, 520.6082
496.0555, 520.6910
496.5377, 520.3260
497.0198, 519.7776
497.5019, 519.8529
497.9840, 520.6837
498.4661, 521.6020
498.9482, 522.3920
499.4304, 522.9751
499.9125, 523.1677
500.3946, 522.7469
500.8767, 522.4650
501.3588, 522.6682
501.8409, 523.2682
502.3231, 524.2379
502.8052, 525.5773
503.2873, 526.8800
503.7694, 527.8196
504.2515, 528.3876
504.7336, 528.3762
505.2158, 527.0225
505.6979, 526.0083
506.1800, 526.1162
506.6621, 526.8917
507.1442, 527.6548
507.6263, 528.1546
508.1085, 528.5417
508.5906, 529.0682
509.0727, 529.8360
509.5548, 530.3680
510.0369, 530.4795
510.5190, 530.5332
511.0012, 530.7360
511.4833, 530.9705
511.9654, 530.9091
512.4475, 530.2869
512.9296, 529.6315
513.4117, 530.1115
513.8939, 531.9460
514.3760, 533.2405
514.8581, 533.4186
515.3402, 533.0684
515.8223, 532.5847
516.3044, 532.0062
516.7866, 531.5270
517.2687, 531.2645
517.7508, 531.1244
518.2329, 531.0495
518.7150, 531.0235
519.1971, 530.8460
519.6793, 530.3810
520.1614, 529.7562
520.6435, 529.2910
521.1256, 529.0809
521.6077, 528.7133
522.0898, 528.0984
522.5720, 527.3132
523.0541, 526.2335
523.5362, 524.9904
524.0183, 524.1334
524.5004, 524.1446
524.9825, 524.7620
525.4647, 524.5984
525.9468, 522.9886
526.4289, 521.5168
526.9110, 520.2185
527.3931, 519.1711
527.8752, 518.6230
528.3574, 518.4835
528.8395, 518.2088
529.3216, 517.2499
529.8037, 515.7316
530.2858, 514.4765
530.7679, 513.7753
531.2501, 512.6671
531.7322, 510.0243
532.2143, 507.1051
532.6964, 505.3595
533.1785, 505.1689
533.6606, 504.9860
534.1428, 503.7895
534.6249, 501.8782
535.1070, 499.6774
535.5891, 497.1874
536.0712, 495.1538
536.5533, 494.3568
537.0355, 494.5303
537.5176, 493.9839
537.9997, 491.9385
538.4818, 490.1919
538.9639, 489.7039
539.4460, 489.5807
539.9282, 488.6844
540.4103, 486.8012
540.8924, 484.4557
541.3745, 482.1548
541.8566, 479.8933
542.3387, 477.8406
542.8209, 476.0826
543.3029, 474.4632
543.7850, 472.9949
544.2672, 471.6324
544.7493, 470.4400
545.2314, 469.4089
545.7135, 468.1941
546.1956, 466.3000
546.6777, 463.7918
547.1599, 461.4686
547.6420, 459.2363
548.1241, 457.4863
548.6062, 457.0230
549.0883, 457.0929
549.5704, 456.3989
550.0526, 454.4005
550.5347, 452.3244
551.0168, 450.8098
551.4989, 449.7887
551.9810, 449.3079
552.4631, 449.3958
552.9453, 449.3252
553.4274, 448.3907
553.9095, 446.5806
554.3916, 444.7435
554.8737, 442.6130
555.3558, 440.7722
555.8380, 439.5551
556.3201, 438.6245
556.8022, 437.5233
557.2843, 436.1563
557.7664, 434.8889
558.2485, 434.2368
558.7307, 434.2430
559.2128, 433.7122
559.6949, 432.1801
560.1770, 430.7773
560.6591, 429.8988
561.1412, 429.3365
561.6234, 428.8893
562.1055, 428.5270
562.5876, 428.0803
563.0697, 427.2977
563.5518, 426.3048
564.0339, 425.5312
564.5161, 425.0407
564.9982, 424.6826
565.4803, 424.3764
565.9624, 424.1182
566.4445, 423.8740
566.9266, 423.6025
567.4088, 423.4023
567.8909, 423.4810
568.3730, 423.5670
568.8551, 423.2241
569.3372, 422.4293
569.8193, 421.5936
570.3015, 421.0885
570.7836, 420.9064
571.2657, 420.9542
571.7478, 421.5673
572.2299, 421.9550
572.7120, 421.8040
573.1942, 421.5036
573.6763, 421.4243
574.1584, 421.6158
574.6405, 421.8617
575.1226, 422.0674
575.6047, 422.1821
576.0869, 421.8989
576.5690, 421.0832
577.0511, 420.4405
577.5332, 420.4392
578.0153, 420.7385
578.4974, 420.7189
578.9796, 420.2470
579.4617, 420.0194
579.9438, 420.7596
580.4259, 421.6098
580.9080, 421.3332
581.3901, 420.0382
581.8723, 419.0083
582.3544, 419.0954
582.8365, 419.9668
583.3186, 420.4885
583.8007, 420.4317
584.2828, 420.3622
584.7650, 420.3382
585.2471, 420.2693
585.7292, 419.9030
586.2113, 419.4199
586.6934, 419.3833
587.1755, 420.2576
587.6577, 421.5848
588.1398, 422.2991
588.6219, 422.3293
589.1040, 422.1874
589.5861, 421.6733
590.0682, 421.3912
590.5504, 422.1096
591.0325, 423.6463
591.5146, 424.8089
591.9967, 424.8776
592.4788, 424.7279
592.9609, 425.1460
593.4431, 425.9608
593.9252, 426.6961
594.4073, 427.1945
594.8894, 427.3640
595.3715, 426.9700
595.8536, 425.7028
596.3358, 425.3088
596.8179, 426.2827
597.3000, 427.4436
597.7821, 428.6451
598.2642, 429.6788
598.7463, 430.1787
599.2285, 430.0446
599.7106, 429.8465
600.1927, 430.3482
600.6748, 431.5217
601.1569, 432.6089
601.6390, 433.7227
602.1212, 434.4274
602.6033, 433.8934
603.0854, 432.9612
603.5675, 433.1077
604.0496, 435.0222
604.5317, 436.4740
605.0139, 435.7796
605.4960, 434.1810
605.9781, 433.4514
606.4602, 433.7885
606.9423, 434.6001
607.4244, 435.5194
607.9066, 436.5104
608.3887, 437.4118
608.8708, 438.0219
609.3529, 438.8393
609.8350, 440.3286
610.3171, 441.6661
610.7993, 442.1544
611.2814, 441.9300
611.7635, 441.5999
612.2456, 441.4576
612.7277, 441.5915
613.2098, 442.3802
613.6920, 443.9212
614.1741, 444.9240
614.6562, 444.6972
615.1383, 444.3311
615.6204, 445.2001
616.1025, 447.0440
616.5847, 448.2307
617.0668, 447.9893
617.5489, 447.4292
618.0310, 447.1193
618.5131, 447.0296
618.9952, 447.0619
619.4774, 447.1884
619.9595, 447.4615
620.4416, 447.9370
620.9237, 448.6161
621.4058, 449.5308
621.8879, 451.2827
622.3701, 452.5189
622.8522, 452.6691
623.3343, 452.3422
623.8164, 452.0623
624.2985, 451.9642
624.7806, 452.0830
625.2628, 452.4784
625.7448, 453.1078
626.2269, 453.9658
626.7090, 455.0934
627.1912, 455.9188
627.6733, 456.0273
628.1554, 455.8341
628.6375, 456.2544
629.1196, 457.5151
629.6017, 458.2169
630.0839, 457.5941
630.5660, 456.8482
631.0481, 456.7890
631.5302, 457.2905
632.0123, 457.9522
632.4944, 458.5883
632.9766, 459.1618
