##NAMES=Warwickite
##RRUFFID=R050674
##IDEAL CHEMISTRY=(Mg,Ti^4+^,Fe^3+^,Cr^3+^,Al)_2_O(BO_3_)
##LOCALITY=Edenville, Orange County, New York, USA
##OWNER=RRUFF
##SOURCE=University of Arizona Mineral Museum
##DESCRIPTION=Black prismatic crystals embedded in matrix
##STATUS=The identification of this mineral has been confirmed by X-ray diffraction and chemical analysis
##URL=rruff.info/R050674
##MEASURED CHEMISTRY=(Mg_1.23_Ti_0.39_Fe^2+^_0.17_Al_0.19_Fe^3+^_0.02_)_Î£=2_O(BO_3_) ; B not measured but estimated by difference and charge balance
93.78320, 38.60564
94.26532, 38.29769
94.74744, 38.57453
95.22955, 39.34245
95.71167, 40.14286
96.19379, 39.92057
96.67590, 38.38213
97.15803, 37.20998
97.64014, 36.95771
98.12226, 37.16961
98.60438, 37.02368
99.08649, 36.16668
99.56861, 34.98811
100.0507, 34.07167
100.5328, 33.35336
101.0150, 32.80150
101.4971, 32.47454
101.9792, 32.38263
102.4613, 32.24148
102.9434, 31.82111
103.4255, 31.35444
103.9077, 31.00794
104.3898, 30.83202
104.8719, 30.78322
105.3540, 30.80329
105.8361, 31.01755
106.3182, 31.06714
106.8004, 30.86967
107.2825, 30.49409
107.7646, 29.99005
108.2467, 29.36747
108.7288, 28.64576
109.2109, 28.11477
109.6931, 27.87955
110.1752, 27.71777
110.6573, 27.60513
111.1394, 27.52263
111.6215, 27.44829
112.1037, 27.36782
112.5858, 27.28170
113.0679, 27.14997
113.5500, 26.88424
114.0321, 26.63665
114.5142, 26.55852
114.9964, 26.67298
115.4785, 26.80270
115.9606, 26.71257
116.4427, 26.41693
116.9248, 26.14499
117.4069, 25.90728
117.8891, 25.73176
118.3712, 25.70725
118.8533, 25.94650
119.3354, 26.18937
119.8175, 26.16756
120.2996, 25.90376
120.7818, 25.62255
121.2639, 25.49634
121.7460, 25.53103
122.2281, 25.55506
122.7102, 25.50614
123.1923, 25.46077
123.6745, 25.48555
124.1566, 25.58463
124.6387, 25.67632
125.1208, 25.63669
125.6029, 25.40538
126.0850, 25.15888
126.5672, 24.84510
127.0493, 24.55940
127.5314, 24.40249
128.0135, 24.41033
128.4956, 24.51685
128.9778, 24.53584
129.4599, 24.34581
129.9420, 24.19776
130.4241, 24.13163
130.9062, 24.11500
131.3883, 24.10678
131.8705, 24.08986
132.3526, 24.05613
132.8347, 23.95928
133.3168, 23.71807
133.7989, 23.50848
134.2810, 23.40973
134.7632, 23.41094
135.2453, 23.45144
135.7274, 23.50473
136.2095, 23.56757
136.6916, 23.62635
137.1737, 23.69727
137.6559, 23.75385
138.1380, 23.75761
138.6201, 23.69644
139.1022, 23.63941
139.5843, 23.64809
140.0664, 23.68796
140.5486, 23.71018
141.0307, 23.68658
141.5128, 23.63235
141.9949, 23.58983
142.4770, 23.55174
142.9591, 23.54015
143.4413, 23.60187
143.9234, 23.69278
144.4055, 23.72619
144.8876, 23.60630
145.3697, 23.33138
145.8518, 23.20579
146.3340, 23.44022
146.8161, 23.64745
147.2982, 23.69227
147.7803, 23.59784
148.2624, 23.46974
148.7445, 23.41449
149.2267, 23.46081
149.7088, 23.46154
150.1909, 23.41019
150.6730, 23.33064
151.1551, 23.17302
151.6372, 22.95949
152.1194, 22.83267
152.6015, 22.99523
153.0836, 23.64039
153.5657, 24.04404
154.0478, 24.06071
154.5300, 23.90679
155.0121, 23.78785
155.4942, 23.75631
155.9763, 23.75504
156.4584, 23.69589
156.9405, 23.57697
157.4227, 23.45484
157.9048, 23.29586
158.3869, 23.14588
158.8690, 23.12924
159.3511, 23.34549
159.8332, 23.59772
160.3154, 23.63354
160.7975, 23.45067
161.2796, 23.24515
161.7617, 23.12337
162.2438, 23.08224
162.7259, 23.09468
163.2081, 23.22347
163.6902, 23.34826
164.1723, 23.35293
164.6544, 23.22826
165.1365, 23.10291
165.6186, 23.15143
166.1008, 23.43710
166.5829, 23.60823
167.0650, 23.47467
167.5471, 23.29626
168.0292, 23.24788
168.5113, 23.36942
168.9935, 23.55202
169.4756, 23.60676
169.9577, 23.43978
170.4398, 23.32062
170.9219, 23.30788
171.4040, 23.32314
171.8862, 23.30259
172.3683, 23.22241
172.8504, 23.10218
173.3325, 22.98675
173.8146, 22.86417
174.2967, 22.76464
174.7789, 22.69168
175.2610, 22.64076
175.7431, 22.61236
176.2252, 22.60750
176.7073, 22.61612
177.1894, 22.60443
177.6716, 22.55391
178.1537, 22.50819
178.6358, 22.49625
179.1179, 22.49392
179.6000, 22.44477
180.0822, 22.30793
180.5643, 22.12410
181.0464, 22.01756
181.5285, 21.99497
182.0106, 22.01936
182.4927, 22.11270
182.9749, 22.25387
183.4570, 22.34632
183.9391, 22.33736
184.4212, 22.24699
184.9033, 22.12922
185.3854, 21.94383
185.8676, 21.79841
186.3497, 21.82699
186.8318, 22.03619
187.3139, 22.18589
187.7960, 22.13427
188.2781, 21.97566
188.7603, 21.80563
189.2424, 21.63999
189.7245, 21.47087
190.2066, 21.26312
190.6887, 20.98047
191.1708, 20.79499
191.6530, 20.80747
192.1351, 20.92118
192.6172, 21.08463
193.0993, 21.29183
193.5814, 21.49088
194.0635, 21.58089
194.5457, 21.55966
195.0278, 21.41569
195.5099, 21.00587
195.9920, 20.55727
196.4741, 20.30959
196.9562, 20.37566
197.4384, 20.65115
197.9205, 20.83959
198.4026, 20.90368
198.8847, 20.91609
199.3668, 20.85785
199.8489, 20.76753
200.3311, 20.69217
200.8132, 20.65649
201.2953, 20.64182
201.7774, 20.57470
202.2595, 20.31927
202.7417, 20.16300
203.2238, 20.24106
203.7059, 20.41293
204.1880, 20.46160
204.6701, 20.26168
205.1522, 19.88935
205.6344, 19.69016
206.1165, 19.78830
206.5986, 19.89322
207.0807, 19.95613
207.5628, 19.98310
208.0449, 19.98894
208.5271, 19.98134
209.0092, 19.95777
209.4913, 19.90402
209.9734, 19.69897
210.4555, 19.60824
210.9376, 19.83654
211.4198, 20.27030
211.9019, 20.59178
212.3840, 20.62305
212.8661, 20.44424
213.3482, 20.30071
213.8303, 20.18878
214.3125, 20.11286
214.7946, 20.12058
215.2767, 20.18814
215.7588, 20.17548
216.2409, 19.97022
216.7230, 19.68225
217.2052, 19.51233
217.6873, 19.49245
218.1694, 19.53016
218.6515, 19.56648
219.1336, 19.60175
219.6157, 19.64392
220.0979, 19.72570
220.5800, 19.79429
221.0621, 19.78325
221.5442, 19.67064
222.0263, 19.53871
222.5084, 19.45433
222.9906, 19.41643
223.4727, 19.43660
223.9548, 19.62523
224.4369, 19.80882
224.9190, 19.83533
225.4011, 19.67099
225.8833, 19.45335
226.3654, 19.36239
226.8475, 19.43830
227.3296, 19.44782
227.8117, 19.23957
228.2939, 19.01511
228.7760, 18.90314
229.2581, 18.92877
229.7402, 19.02514
230.2223, 19.12321
230.7044, 19.24941
231.1866, 19.28903
231.6687, 19.16913
232.1508, 19.00922
232.6329, 18.86585
233.1150, 18.75536
233.5971, 18.67941
234.0793, 18.65321
234.5614, 18.72423
235.0435, 18.72434
235.5256, 18.55207
236.0077, 18.38917
236.4898, 18.36344
236.9720, 18.48882
237.4541, 18.67727
237.9362, 18.81133
238.4183, 18.86731
238.9004, 18.92083
239.3825, 19.00528
239.8647, 19.06372
240.3468, 19.04185
240.8289, 18.94169
241.3110, 18.82394
241.7931, 18.76900
242.2752, 18.82565
242.7574, 18.79835
243.2395, 18.61194
243.7216, 18.41099
244.2037, 18.27803
244.6858, 18.22705
245.1679, 18.23728
245.6501, 18.30048
246.1322, 18.45605
246.6143, 18.47973
247.0964, 18.23781
247.5785, 17.97905
248.0606, 17.87763
248.5428, 17.94178
249.0249, 18.06326
249.5070, 18.15193
249.9891, 18.20737
250.4712, 18.17295
250.9533, 17.95831
251.4355, 17.72966
251.9176, 17.60840
252.3997, 17.59424
252.8818, 17.59412
253.3639, 17.52324
253.8461, 17.38196
254.3282, 17.30738
254.8103, 17.31631
255.2924, 17.37585
255.7745, 17.52376
256.2566, 17.73929
256.7387, 17.85084
257.2209, 17.69132
257.7030, 17.30771
258.1851, 17.06669
258.6672, 17.07875
259.1493, 17.14417
259.6314, 17.11127
260.1136, 16.99219
260.5957, 16.91135
261.0778, 16.94588
261.5599, 17.07828
262.0420, 17.22870
262.5241, 17.47012
263.0063, 17.64254
263.4884, 17.57391
263.9705, 17.29448
264.4526, 17.07332
264.9348, 17.06281
265.4169, 17.17510
265.8990, 17.22665
266.3811, 17.19674
266.8632, 17.14694
267.3453, 17.11777
267.8275, 17.10711
268.3096, 17.09875
268.7917, 17.09341
269.2738, 17.08143
269.7559, 17.03818
270.2380, 16.95095
270.7202, 16.90027
271.2023, 16.99488
271.6844, 17.20302
272.1665, 17.29833
272.6486, 17.16665
273.1307, 16.95801
273.6129, 16.81274
274.0950, 16.73065
274.5771, 16.69794
275.0592, 16.73214
275.5413, 16.81870
276.0234, 16.86852
276.5056, 16.84374
276.9877, 16.81170
277.4698, 16.82446
277.9519, 16.87611
278.4340, 16.93661
278.9161, 17.01119
279.3983, 17.08594
279.8804, 17.08310
280.3625, 16.92481
280.8446, 16.80649
281.3267, 16.87582
281.8088, 17.07046
282.2910, 17.24642
282.7731, 17.32682
283.2552, 17.32875
283.7373, 17.30519
284.2194, 17.24864
284.7015, 17.17880
285.1837, 17.10419
285.6658, 17.02396
286.1479, 16.93395
286.6300, 16.82658
287.1121, 16.71449
287.5942, 16.61892
288.0764, 16.52271
288.5585, 16.48798
289.0406, 16.56428
289.5227, 16.69630
290.0048, 16.84534
290.4869, 17.01203
290.9691, 17.14475
291.4512, 17.12444
291.9333, 16.87813
292.4154, 16.71351
292.8975, 16.83227
293.3796, 16.99220
293.8618, 16.97902
294.3439, 16.73875
294.8260, 16.45122
295.3081, 16.37945
295.7902, 16.58831
296.2723, 16.70431
296.7545, 16.50496
297.2366, 16.30972
297.7187, 16.33860
298.2008, 16.59337
298.6829, 16.87551
299.1650, 16.98710
299.6472, 16.91745
300.1293, 16.77790
300.6114, 16.40030
301.0935, 16.11157
301.5756, 16.10772
302.0577, 16.33657
302.5399, 16.59694
303.0220, 16.72109
303.5041, 16.71658
303.9862, 16.76476
304.4683, 16.95512
304.9504, 17.09255
305.4326, 17.09407
305.9147, 16.99670
306.3968, 16.86929
306.8789, 16.74817
307.3610, 16.63232
307.8431, 16.51205
308.3253, 16.33904
308.8074, 16.24575
309.2895, 16.32182
309.7716, 16.46701
310.2537, 16.54775
310.7358, 16.49689
311.2180, 16.39549
311.7001, 16.44259
312.1822, 16.74403
312.6643, 16.95861
313.1465, 17.01400
313.6286, 16.97362
314.1107, 16.85340
314.5928, 16.66348
315.0749, 16.47673
315.5570, 16.41349
316.0392, 16.51787
316.5213, 16.58472
317.0034, 16.56911
317.4855, 16.52947
317.9676, 16.48091
318.4497, 16.43280
318.9319, 16.40586
319.4140, 16.43157
319.8961, 16.51764
320.3782, 16.58052
320.8603, 16.62845
321.3424, 16.64087
321.8246, 16.59403
322.3067, 16.50405
322.7888, 16.40551
323.2709, 16.31431
323.7530, 16.23524
324.2351, 16.20777
324.7173, 16.24973
325.1994, 16.32412
325.6815, 16.46113
326.1636, 16.60871
326.6457, 16.69394
327.1278, 16.67580
327.6100, 16.58782
328.0921, 16.50632
328.5742, 16.42658
329.0563, 16.36465
329.5384, 16.32410
330.0205, 16.30026
330.5027, 16.29415
330.9848, 16.30584
331.4669, 16.32277
331.9490, 16.34336
332.4311, 16.38691
332.9132, 16.34878
333.3954, 16.03884
333.8775, 15.77166
334.3596, 15.78070
334.8417, 16.04794
335.3238, 16.32570
335.8059, 16.34850
336.2881, 16.11150
336.7702, 15.98148
337.2523, 16.01457
337.7344, 16.11114
338.2165, 16.28182
338.6986, 16.47836
339.1808, 16.59499
339.6629, 16.53514
340.1450, 16.35370
340.6271, 16.25975
341.1092, 16.28848
341.5913, 16.34036
342.0735, 16.40040
342.5556, 16.45082
343.0377, 16.47059
343.5198, 16.45244
344.0019, 16.39894
344.4840, 16.29080
344.9662, 16.09853
345.4483, 15.97807
345.9304, 16.05071
346.4125, 16.17231
346.8946, 16.23835
347.3767, 16.23289
347.8589, 16.22633
348.3410, 16.31251
348.8231, 16.48757
349.3052, 16.57865
349.7873, 16.51956
350.2694, 16.41376
350.7516, 16.32047
351.2337, 16.24203
351.7158, 16.18266
352.1979, 16.15468
352.6800, 16.14807
353.1621, 16.13046
353.6443, 16.09991
354.1264, 16.06138
354.6085, 15.98008
355.0906, 15.89890
355.5727, 15.90095
356.0548, 16.06067
356.5370, 16.25848
357.0191, 16.33028
357.5012, 16.26733
357.9833, 16.16957
358.4654, 16.01431
358.9475, 15.88558
359.4297, 15.89407
359.9118, 16.06995
360.3939, 16.28477
360.8760, 16.49022
361.3581, 16.66892
361.8402, 16.71929
362.3224, 16.56578
362.8045, 16.35621
363.2866, 16.23590
363.7687, 16.19756
364.2509, 16.19761
364.7330, 16.25437
365.2151, 16.32774
365.6972, 16.33734
366.1793, 16.26533
366.6614, 16.19854
367.1436, 16.22042
367.6257, 16.30047
368.1078, 16.34317
368.5899, 16.29100
369.0720, 16.23532
369.5541, 16.27576
370.0363, 16.39428
370.5184, 16.46463
371.0005, 16.41127
371.4826, 16.28766
371.9647, 16.21769
372.4468, 16.21768
372.9290, 16.22295
373.4111, 16.20647
373.8932, 16.17880
374.3753, 16.16573
374.8574, 16.17739
375.3395, 16.18218
375.8217, 16.12887
376.3038, 16.00706
376.7859, 15.92319
377.2680, 15.93059
377.7501, 15.95023
378.2322, 15.88886
378.7144, 15.75473
379.1965, 15.66255
379.6786, 15.71011
380.1607, 15.88178
380.6428, 15.98712
381.1249, 15.99250
381.6071, 15.97908
382.0892, 15.96888
382.5713, 15.96082
383.0534, 15.95427
383.5355, 15.94998
384.0176, 15.93918
384.4998, 15.90061
384.9819, 15.78747
385.4640, 15.72515
385.9461, 15.74264
386.4282, 15.79592
386.9103, 15.86007
387.3925, 15.92494
387.8746, 15.97486
388.3567, 15.98768
388.8388, 15.95318
389.3209, 15.95702
389.8030, 16.08611
390.2852, 16.15946
390.7673, 16.05789
391.2494, 15.85087
391.7315, 15.68169
392.2136, 15.63609
392.6957, 15.68374
393.1779, 15.70880
393.6600, 15.68243
394.1421, 15.67406
394.6242, 15.70408
395.1063, 15.74537
395.5884, 15.77900
396.0706, 15.79807
396.5527, 15.79813
397.0348, 15.76302
397.5169, 15.67270
397.9990, 15.62792
398.4811, 15.71016
398.9633, 15.76436
399.4454, 15.68352
399.9275, 15.51898
400.4096, 15.40306
400.8917, 15.42611
401.3738, 15.56892
401.8560, 15.77155
402.3381, 16.12792
402.8202, 16.35862
403.3023, 16.31050
403.7844, 16.14494
404.2665, 16.01622
404.7487, 15.96898
405.2308, 15.97147
405.7129, 16.00129
406.1950, 16.06170
406.6771, 16.09266
407.1592, 16.07044
407.6414, 16.02732
408.1235, 15.99030
408.6056, 15.95647
409.0877, 15.90698
409.5698, 15.79926
410.0519, 15.67295
410.5341, 15.62596
411.0162, 15.67162
411.4983, 15.75603
411.9804, 15.90514
412.4626, 16.05688
412.9447, 16.09739
413.4268, 15.97560
413.9089, 15.79506
414.3910, 15.59160
414.8731, 15.38497
415.3553, 15.28154
415.8374, 15.33990
416.3195, 15.47509
416.8016, 15.57063
417.2837, 15.62784
417.7658, 15.67007
418.2480, 15.71461
418.7301, 15.74152
419.2122, 15.70755
419.6943, 15.61269
420.1764, 15.53910
420.6585, 15.56181
421.1407, 15.66958
421.6228, 15.72330
422.1049, 15.69336
422.5870, 15.64849
423.0691, 15.59525
423.5512, 15.54904
424.0334, 15.53744
424.5155, 15.57190
424.9976, 15.64068
425.4797, 15.72664
425.9618, 15.87409
426.4439, 15.94232
426.9261, 15.90627
427.4082, 15.81456
427.8903, 15.66550
428.3724, 15.48347
428.8545, 15.33658
429.3366, 15.28193
429.8188, 15.31628
430.3009, 15.36944
430.7830, 15.50842
431.2651, 15.59041
431.7472, 15.56769
432.2293, 15.48494
432.7115, 15.38277
433.1936, 15.27829
433.6757, 15.19117
434.1578, 15.15652
434.6399, 15.18315
435.1220, 15.23046
435.6042, 15.37092
436.0863, 15.46609
436.5684, 15.41509
437.0505, 15.25123
437.5326, 15.09378
438.0147, 15.02891
438.4969, 15.03192
438.9790, 15.01369
439.4611, 14.96211
439.9432, 14.92008
440.4253, 14.92740
440.9074, 14.94339
441.3896, 14.92022
441.8717, 14.84285
442.3538, 14.75643
442.8359, 14.70243
443.3180, 14.67556
443.8001, 14.64692
444.2823, 14.61096
444.7644, 14.57195
445.2465, 14.53340
445.7286, 14.49501
446.2107, 14.45692
446.6928, 14.44121
447.1750, 14.41098
447.6571, 14.30414
448.1392, 14.13153
448.6213, 13.99568
449.1034, 13.95752
449.5855, 13.98689
450.0677, 13.99835
450.5498, 13.97409
451.0319, 13.97166
451.5140, 14.05412
451.9961, 14.14416
452.4782, 14.13490
452.9604, 14.01049
453.4425, 13.84592
453.9246, 13.71105
454.4067, 13.60491
454.8888, 13.54583
455.3709, 13.56188
455.8531, 13.58571
456.3352, 13.61098
456.8173, 13.62374
457.2994, 13.59509
457.7815, 13.51125
458.2636, 13.40721
458.7458, 13.36096
459.2279, 13.41564
459.7100, 13.43825
460.1921, 13.36509
460.6742, 13.31304
461.1564, 13.37963
461.6385, 13.53936
462.1206, 13.68237
462.6027, 13.72679
463.0848, 13.68398
463.5670, 13.59944
464.0491, 13.42396
464.5312, 13.30955
465.0133, 13.35502
465.4954, 13.45854
465.9775, 13.52547
466.4597, 13.53467
466.9418, 13.50636
467.4239, 13.44487
467.9060, 13.35655
468.3881, 13.28382
468.8702, 13.23476
469.3524, 13.19816
469.8345, 13.15760
470.3166, 13.12024
470.7987, 13.11291
471.2808, 13.19985
471.7629, 13.27500
472.2451, 13.19340
472.7272, 12.99540
473.2093, 12.89645
473.6914, 13.00370
474.1735, 13.22562
474.6556, 13.40296
475.1378, 13.55501
475.6199, 13.61275
476.1020, 13.46415
476.5841, 13.28622
477.0662, 13.25737
477.5483, 13.37219
478.0305, 13.48953
478.5126, 13.50207
478.9947, 13.42079
479.4768, 13.34252
479.9589, 13.26301
480.4410, 13.19066
480.9232, 13.07727
481.4053, 12.99711
481.8874, 13.08156
482.3695, 13.33662
482.8516, 13.57062
483.3337, 13.51009
483.8159, 13.09884
484.2980, 12.87639
484.7801, 13.01350
485.2622, 13.15497
485.7443, 13.16230
486.2264, 13.09640
486.7086, 13.06506
487.1907, 13.11903
487.6728, 13.20345
488.1549, 13.24141
488.6370, 13.23085
489.1191, 13.20265
489.6013, 13.14704
490.0834, 13.09453
490.5655, 13.06333
491.0476, 13.05468
491.5297, 13.07826
492.0118, 13.16060
492.4940, 13.26463
492.9761, 13.35483
493.4582, 13.42885
493.9403, 13.45768
494.4224, 13.41220
494.9045, 13.32484
495.3867, 13.28512
495.8688, 13.32614
496.3509, 13.32470
496.8330, 13.19696
497.3151, 13.04419
497.7972, 12.97913
498.2794, 13.01056
498.7615, 13.07386
499.2436, 13.11340
499.7257, 13.13203
500.2078, 13.18646
500.6899, 13.38919
501.1721, 13.49056
501.6542, 13.36928
502.1363, 13.04384
502.6184, 13.22045
503.1005, 13.32820
503.5826, 13.37081
504.0648, 13.15313
504.5469, 13.27155
505.0290, 13.25528
505.5111, 13.23348
505.9932, 13.39921
506.4753, 13.21939
506.9575, 13.38215
507.4396, 13.40815
507.9217, 13.49674
508.4038, 13.44981
508.8859, 13.44473
509.3680, 13.57522
509.8502, 13.63065
510.3323, 13.56812
510.8144, 13.66069
511.2965, 13.47613
511.7787, 13.53476
512.2607, 13.69830
512.7429, 13.64258
513.2250, 13.73763
513.7071, 13.77525
514.1892, 13.55192
514.6713, 13.78242
515.1534, 13.81665
515.6356, 13.64937
516.1177, 13.68979
516.5998, 13.78037
517.0819, 13.83035
517.5640, 13.78163
518.0461, 13.73579
518.5283, 13.77318
519.0104, 13.87921
519.4925, 13.99507
519.9746, 14.08723
520.4567, 14.14578
520.9388, 14.12086
521.4210, 13.91488
521.9031, 13.81077
522.3852, 13.90810
522.8673, 14.05392
523.3494, 14.14124
523.8315, 14.16584
524.3137, 14.18857
524.7958, 14.27432
525.2779, 14.39208
525.7600, 14.41047
526.2421, 14.29072
526.7242, 14.21970
527.2064, 14.34936
527.6885, 14.53488
528.1706, 14.57162
528.6527, 14.41290
529.1348, 14.28899
529.6169, 14.35869
530.0991, 14.52405
530.5812, 14.62974
531.0633, 14.65672
531.5454, 14.64445
532.0275, 14.61613
532.5096, 14.57339
532.9918, 14.52782
533.4739, 14.50226
533.9560, 14.44615
534.4381, 14.29075
534.9202, 14.13067
535.4024, 14.07736
535.8845, 14.14572
536.3666, 14.26915
536.8488, 14.39337
537.3309, 14.51852
537.8130, 14.55287
538.2951, 14.40236
538.7772, 14.28192
539.2593, 14.28166
539.7415, 14.31357
540.2236, 14.27182
540.7057, 14.13137
541.1878, 13.97839
541.6699, 13.89153
542.1520, 13.86700
542.6342, 13.89816
543.1163, 14.02996
543.5984, 14.10541
544.0805, 13.94539
544.5626, 13.67354
545.0447, 13.52651
545.5269, 13.58639
546.0090, 13.67707
546.4911, 13.70240
546.9732, 13.68594
547.4553, 13.70123
547.9374, 13.76479
548.4196, 13.73865
548.9017, 13.44307
549.3838, 12.86525
549.8659, 12.60134
550.3480, 12.90447
550.8301, 13.15947
551.3123, 13.15692
551.7944, 13.03095
552.2765, 12.96047
552.7586, 12.98956
553.2407, 13.02280
553.7228, 12.92411
554.2050, 12.68013
554.6871, 12.55872
555.1692, 12.67229
555.6513, 12.75017
556.1334, 12.64911
556.6155, 12.47873
557.0977, 12.39350
557.5798, 12.44493
558.0619, 12.50030
558.5440, 12.42086
559.0261, 12.24350
559.5082, 12.09626
559.9904, 11.99192
560.4725, 11.94310
560.9546, 11.99484
561.4367, 12.11589
561.9188, 12.14995
562.4009, 12.06490
562.8831, 11.93133
563.3652, 11.69427
563.8473, 11.45696
564.3294, 11.39561
564.8115, 11.53237
565.2936, 11.70400
565.7758, 11.74986
566.2579, 11.66973
566.7400, 11.56686
567.2221, 11.34810
567.7042, 11.22308
568.1863, 11.30962
568.6685, 11.46040
569.1506, 11.51598
569.6327, 11.44719
570.1148, 11.35948
570.5969, 11.38482
571.0790, 11.49288
571.5612, 11.46714
572.0433, 11.24610
572.5254, 11.06126
573.0075, 11.04470
573.4896, 11.13261
573.9717, 11.23966
574.4539, 11.37107
574.9360, 11.48003
575.4181, 11.51892
575.9002, 11.53394
576.3823, 11.61884
576.8644, 11.77202
577.3466, 11.85728
577.8287, 11.76200
578.3108, 11.53207
578.7929, 11.39365
579.2750, 11.43646
579.7571, 11.45566
580.2393, 11.41699
580.7214, 11.36903
581.2035, 11.33766
581.6856, 11.33276
582.1677, 11.37148
582.6498, 11.48442
583.1320, 11.63234
583.6141, 11.66034
584.0962, 11.52197
584.5783, 11.42399
585.0604, 11.45873
585.5425, 11.52857
586.0247, 11.54431
586.5068, 11.50880
