##NAMES=Wattersite
##RRUFFID=R060626
##IDEAL CHEMISTRY=Hg^1+^_4_Hg^2+^O_2_(Cr^6+^O_4_)
##LOCALITY=Clear Creek claim, San Benito County, California, USA
##OWNER=RRUFF
##SOURCE=Michael Scott
##DESCRIPTION=Black metallic crystals associated with red cinnabar, white quartz, silver balls of liquid mercury. Crystals are twinned by a 2-fold rotation around [100].
##STATUS=The identification of this mineral has been confirmed by single-crystal X-ray diffraction.
##URL=rruff.info/R060626
118.147, 6439.907
118.629, 6693.988
119.111, 6960.023
119.593, 7229.866
120.075, 7487.261
120.558, 7737.077
121.040, 7967.362
121.522, 8166.052
122.004, 8326.987
122.486, 8470.805
122.968, 8611.194
123.450, 8746.537
123.932, 8872.400
124.414, 8985.891
124.897, 9088.324
125.379, 9180.997
125.861, 9260.236
126.343, 9333.869
126.825, 9414.189
127.307, 9500.110
127.789, 9578.713
128.271, 9630.462
128.753, 9664.938
129.236, 9708.700
129.718, 9775.867
130.200, 9855.883
130.682, 9922.304
131.164, 9972.946
131.646, 10022.010
132.128, 10078.550
132.610, 10143.140
133.093, 10229.590
133.575, 10368.540
134.057, 10547.560
134.539, 10662.500
135.021, 10700.940
135.503, 10697.970
135.985, 10714.190
136.467, 10753.300
136.949, 10786.830
137.432, 10798.070
137.914, 10785.170
138.396, 10771.930
138.878, 10763.540
139.360, 10754.430
139.842, 10726.230
140.324, 10676.850
140.806, 10613.950
141.288, 10540.020
141.771, 10449.160
142.253, 10364.780
142.735, 10291.810
143.217, 10229.140
143.699, 10167.530
144.181, 10102.340
144.663, 10042.470
145.145, 9994.559
145.628, 9962.546
146.110, 9935.997
146.592, 9913.066
147.074, 9893.044
147.556, 9877.210
148.038, 9862.995
148.520, 9853.227
149.002, 9851.866
149.484, 9864.347
149.967, 9879.145
150.449, 9893.540
150.931, 9908.055
151.413, 9921.396
151.895, 9935.653
152.377, 9949.192
152.859, 9958.048
153.342, 9948.107
153.824, 9945.637
154.306, 9962.368
154.788, 10024.330
155.270, 10071.160
155.752, 10088.810
156.234, 10084.850
156.716, 10085.700
157.198, 10088.450
157.680, 10102.900
158.163, 10134.660
158.645, 10198.600
159.127, 10266.060
159.609, 10329.050
160.091, 10388.020
160.573, 10449.910
161.055, 10530.750
161.538, 10608.250
162.020, 10661.850
162.502, 10640.340
162.984, 10629.940
163.466, 10680.880
163.948, 10796.370
164.430, 10902.630
164.912, 10963.010
165.394, 10992.720
165.876, 11010.640
166.359, 11016.630
166.841, 11018.730
167.323, 11016.560
167.805, 11007.040
168.287, 11015.300
168.769, 11077.840
169.251, 11169.530
169.733, 11243.710
170.216, 11261.550
170.698, 11260.170
171.180, 11273.950
171.662, 11310.250
172.144, 11355.040
172.626, 11391.480
173.108, 11425.760
173.590, 11477.320
174.072, 11565.210
174.555, 11674.490
175.037, 11790.800
175.519, 11920.290
176.001, 12040.330
176.483, 12109.540
176.965, 12137.770
177.447, 12177.240
177.929, 12276.500
178.412, 12411.640
178.894, 12535.500
179.376, 12623.830
179.858, 12705.730
180.340, 12841.410
180.822, 13027.070
181.304, 13189.850
181.786, 13257.860
182.268, 13252.560
182.751, 13234.820
183.233, 13229.130
183.715, 13220.850
184.197, 13181.210
184.679, 13109.440
185.161, 13011.060
185.643, 12854.710
186.125, 12661.530
186.607, 12526.900
187.090, 12506.320
187.572, 12572.790
188.054, 12638.300
188.536, 12697.210
189.018, 12779.450
189.500, 12909.020
189.982, 13085.660
190.464, 13335.070
190.947, 13737.590
191.429, 14253.920
191.911, 14592.530
192.393, 14720.380
192.875, 14751.660
193.357, 14845.810
193.839, 15002.770
194.321, 15188.340
194.803, 15389.860
195.286, 15606.800
195.768, 15851.200
196.250, 16138.360
196.732, 16428.760
197.214, 16652.779
197.696, 16807.250
198.178, 16914.100
198.661, 16997.609
199.143, 17059.529
199.625, 17043.250
200.107, 16950.350
200.589, 16771.211
201.071, 16466.461
201.553, 16018.610
202.035, 15511.050
202.517, 14977.510
202.999, 14412.840
203.482, 13862.300
203.964, 13319.820
204.446, 12798.680
204.928, 12347.690
205.410, 11971.050
205.892, 11650.290
206.374, 11383.690
206.857, 11176.790
207.339, 10983.800
207.821, 10795.260
208.303, 10614.900
208.785, 10466.660
209.267, 10355.500
209.749, 10265.770
210.231, 10184.970
210.713, 10112.030
211.195, 10052.600
211.678, 10011.790
212.160, 9987.952
212.642, 9957.075
213.124, 9914.227
213.606, 9873.051
214.088, 9850.034
214.570, 9853.847
215.052, 9848.872
215.535, 9820.932
216.017, 9770.064
216.499, 9750.331
216.981, 9774.917
217.463, 9812.341
217.945, 9824.649
218.427, 9794.936
218.909, 9781.735
219.391, 9808.139
219.874, 9878.675
220.356, 9908.936
220.838, 9878.615
221.320, 9828.607
221.802, 9811.350
222.284, 9842.339
222.766, 9872.755
223.248, 9889.761
223.731, 9892.193
224.213, 9891.540
224.695, 9883.771
225.177, 9876.955
225.659, 9884.282
226.141, 9916.749
226.623, 9942.798
227.105, 9949.728
227.587, 9930.942
228.070, 9928.488
228.552, 9949.563
229.034, 9981.756
229.516, 10005.310
229.998, 10016.450
230.480, 10024.810
230.962, 10031.900
231.444, 10035.390
231.926, 10047.620
232.409, 10078.170
232.891, 10111.730
233.373, 10118.670
233.855, 10076.630
234.337, 10044.330
234.819, 10045.390
235.301, 10095.150
235.783, 10128.160
236.266, 10140.500
236.748, 10138.260
237.230, 10132.780
237.712, 10125.100
238.194, 10112.540
238.676, 10091.530
239.158, 10053.500
239.640, 10033.680
240.122, 10040.540
240.605, 10062.150
241.087, 10073.190
241.569, 10067.210
242.051, 10060.860
242.533, 10061.540
243.015, 10074.130
243.497, 10080.620
243.980, 10080.180
244.462, 10073.720
244.944, 10061.200
245.426, 10031.670
245.908, 10012.160
246.390, 10017.340
246.872, 10065.040
247.354, 10090.530
247.836, 10085.330
248.318, 10060.250
248.801, 10039.680
249.283, 10021.180
249.765, 10010.690
250.247, 10015.310
250.729, 10052.420
251.211, 10058.530
251.693, 10022.300
252.176, 9960.064
252.658, 9910.178
253.140, 9873.802
253.622, 9848.958
254.104, 9838.213
254.586, 9853.567
255.068, 9851.156
255.550, 9823.536
256.032, 9781.854
256.514, 9753.279
256.997, 9742.849
257.479, 9736.642
257.961, 9727.193
258.443, 9709.146
258.925, 9703.599
259.407, 9716.157
259.889, 9737.895
260.371, 9747.652
260.854, 9741.103
261.336, 9730.108
261.818, 9716.676
262.300, 9694.646
262.782, 9692.198
263.264, 9717.777
263.746, 9757.897
264.228, 9779.014
264.711, 9773.822
265.193, 9766.608
265.675, 9771.902
266.157, 9797.515
266.639, 9799.789
267.121, 9764.520
267.603, 9716.535
268.085, 9717.308
268.567, 9788.249
269.050, 9847.794
269.532, 9846.480
270.014, 9766.144
270.496, 9730.228
270.978, 9756.176
271.460, 9812.029
271.942, 9834.050
272.424, 9815.002
272.906, 9787.968
273.389, 9766.839
273.871, 9752.546
274.353, 9736.886
274.835, 9716.390
275.317, 9699.397
275.799, 9706.232
276.281, 9742.813
276.763, 9773.548
277.246, 9774.771
277.728, 9743.752
278.210, 9739.957
278.692, 9772.878
279.174, 9818.134
279.656, 9833.941
280.138, 9817.385
280.620, 9795.126
281.103, 9772.061
281.585, 9748.590
282.067, 9750.636
282.549, 9783.721
283.031, 9704.634
283.513, 9805.764
283.995, 9863.147
284.477, 9879.136
284.959, 9729.746
285.441, 9793.907
285.924, 9772.487
286.406, 9747.559
286.888, 9841.777
287.370, 9716.441
287.852, 9808.770
288.334, 9814.211
288.816, 9859.419
289.298, 9800.729
289.781, 9794.247
290.263, 9825.766
290.745, 9868.686
291.227, 9893.057
291.709, 9900.710
292.191, 9902.863
292.673, 9904.814
293.155, 9904.251
293.638, 9891.980
294.120, 9867.028
294.602, 9841.253
295.084, 9824.573
295.566, 9817.101
296.048, 9819.112
296.530, 9839.981
297.012, 9867.246
297.494, 9873.983
297.977, 9860.277
298.459, 9841.432
298.941, 9826.769
299.423, 9817.649
299.905, 9818.062
300.387, 9835.497
300.869, 9858.769
301.351, 9871.831
301.833, 9875.016
302.316, 9876.287
302.798, 9879.898
303.280, 9885.750
303.762, 9894.424
304.244, 9909.032
304.726, 9922.615
305.208, 9921.281
305.690, 9907.993
306.173, 9903.785
306.655, 9939.779
307.137, 9988.156
307.619, 10011.050
308.101, 9984.495
308.583, 9949.152
309.065, 9941.114
309.547, 9953.954
310.030, 9961.613
310.512, 9940.581
310.994, 9911.589
311.476, 9894.997
311.958, 9899.761
312.440, 9910.054
312.922, 9923.127
313.404, 9935.513
313.886, 9937.558
314.369, 9907.595
314.851, 9876.104
315.333, 9867.931
315.815, 9897.059
316.297, 9925.911
316.779, 9940.074
317.261, 9942.791
317.743, 9940.588
318.225, 9925.690
318.708, 9914.096
319.190, 9917.837
319.672, 9946.484
320.154, 9964.705
320.636, 9950.174
321.118, 9921.836
321.600, 9908.343
322.082, 9936.476
322.565, 9962.807
323.047, 9969.189
323.529, 9948.967
324.011, 9932.426
324.493, 9920.080
324.975, 9914.520
325.457, 9918.733
325.939, 9897.269
326.422, 9855.951
326.904, 9938.093
327.386, 9990.268
327.868, 10014.082
328.350, 9924.603
328.832, 9981.422
329.314, 9979.610
329.796, 9975.394
330.278, 10020.520
330.760, 9984.086
331.243, 10038.119
331.725, 10070.192
332.207, 10081.486
332.689, 10009.761
333.171, 10045.236
333.653, 10037.751
334.135, 10028.504
334.617, 10079.068
335.100, 10059.290
335.582, 10027.860
336.064, 10017.520
336.546, 10016.940
337.028, 10021.280
337.510, 10032.680
337.992, 10039.880
338.474, 10040.090
338.957, 10036.580
339.439, 10036.390
339.921, 10037.880
340.403, 10047.890
340.885, 10077.200
341.367, 10128.160
341.849, 10153.840
342.331, 10148.200
342.813, 10125.460
343.296, 10108.970
343.778, 10099.130
344.260, 10088.710
344.742, 10070.040
345.224, 10046.270
345.706, 10041.910
346.188, 10060.470
346.670, 10084.330
347.152, 10088.190
347.635, 10076.020
348.117, 10071.350
348.599, 10084.790
349.081, 10111.110
349.563, 10142.430
350.045, 10178.610
350.527, 10209.110
351.009, 10223.430
351.491, 10223.700
351.974, 10213.090
352.456, 10178.720
352.938, 10146.880
353.420, 10159.370
353.902, 10209.700
354.384, 10256.610
354.866, 10266.490
355.349, 10257.160
355.831, 10252.210
356.313, 10260.180
356.795, 10269.060
357.277, 10268.330
357.759, 10261.260
358.241, 10256.700
358.723, 10259.120
359.205, 10266.300
359.688, 10277.390
360.170, 10293.660
360.652, 10309.560
361.134, 10320.050
361.616, 10328.690
362.098, 10341.560
362.580, 10369.490
363.062, 10394.470
363.544, 10403.230
364.027, 10389.340
364.509, 10391.300
364.991, 10431.740
365.473, 10487.310
365.955, 10532.590
366.437, 10563.020
366.919, 10584.070
367.401, 10597.420
367.884, 10603.470
368.366, 10597.940
368.848, 10549.800
369.330, 10510.790
369.812, 10516.060
370.294, 10613.970
370.776, 10686.890
371.258, 10717.830
371.741, 10715.290
372.223, 10715.060
372.705, 10716.070
373.187, 10720.730
373.669, 10729.660
374.151, 10741.460
374.633, 10762.670
375.115, 10799.590
375.597, 10841.070
376.079, 10859.740
376.562, 10847.100
377.044, 10842.210
377.526, 10866.840
378.008, 10922.200
378.490, 10961.010
378.972, 10981.920
379.454, 10991.160
379.936, 10992.350
380.419, 10985.960
380.901, 10988.080
381.383, 11007.010
381.865, 11037.970
382.347, 11064.630
382.829, 11087.190
383.311, 11111.300
383.793, 11147.240
384.276, 11189.540
384.758, 11220.860
385.240, 11232.780
385.722, 11237.280
386.204, 11249.940
386.686, 11269.580
387.168, 11290.220
387.650, 11305.080
388.132, 11319.620
388.615, 11340.850
389.097, 11369.910
389.579, 11404.730
390.061, 11446.040
390.543, 11491.590
391.025, 11537.110
391.507, 11594.500
391.989, 11641.120
392.471, 11653.240
392.954, 11625.710
393.436, 11611.850
393.918, 11649.320
394.400, 11707.210
394.882, 11753.260
395.364, 11770.650
395.846, 11783.470
396.328, 11792.290
396.810, 11798.870
397.293, 11820.820
397.775, 11881.840
398.257, 11944.830
398.739, 11988.700
399.221, 11986.970
399.703, 11995.710
400.185, 12006.440
400.668, 12027.670
401.150, 12087.420
401.632, 12097.444
402.114, 12150.954
402.596, 12193.907
403.078, 12226.880
403.560, 12219.940
404.042, 12263.830
404.524, 12316.660
405.007, 12344.804
405.489, 12415.578
405.971, 12476.000
406.453, 12526.632
406.935, 12538.135
407.417, 12600.163
407.899, 12646.620
408.381, 12685.340
408.863, 12732.160
409.346, 12786.760
409.828, 12841.940
410.310, 12894.730
410.792, 12950.690
411.274, 13029.810
411.756, 13127.710
412.238, 13208.990
412.720, 13229.150
413.203, 13221.310
413.685, 13256.690
414.167, 13349.180
414.649, 13448.730
415.131, 13498.990
415.613, 13520.710
416.095, 13555.500
416.577, 13619.080
417.060, 13704.960
417.542, 13828.840
418.024, 13986.310
418.506, 14110.230
418.988, 14123.710
419.470, 14102.640
419.952, 14116.030
420.434, 14205.130
420.916, 14303.040
421.398, 14391.310
421.881, 14472.200
422.363, 14556.130
422.845, 14658.430
423.327, 14753.700
423.809, 14829.340
424.291, 14875.220
424.773, 14923.340
425.255, 14969.220
425.738, 15019.840
426.220, 15087.280
426.702, 15193.490
427.184, 15282.930
427.666, 15339.980
428.148, 15364.370
428.630, 15399.540
429.112, 15452.080
429.595, 15503.480
430.077, 15534.230
430.559, 15538.520
431.041, 15555.040
431.523, 15592.770
432.005, 15641.820
432.487, 15679.250
432.969, 15704.870
433.451, 15720.980
433.934, 15731.630
434.416, 15734.640
434.898, 15715.140
435.380, 15669.190
435.862, 15619.090
436.344, 15596.240
436.826, 15591.670
437.308, 15577.410
437.790, 15541.430
438.273, 15490.780
438.755, 15434.630
439.237, 15372.350
439.719, 15300.640
440.201, 15211.660
440.683, 15114.430
441.165, 15017.440
441.647, 14919.690
442.129, 14827.190
442.612, 14744.680
443.094, 14670.290
443.576, 14599.300
444.058, 14538.110
444.540, 14473.100
445.022, 14396.730
445.504, 14305.740
445.987, 14217.100
446.469, 14134.210
446.951, 14054.130
447.433, 13972.100
447.915, 13872.440
448.397, 13794.820
448.879, 13756.850
449.361, 13748.610
449.843, 13710.980
450.326, 13633.630
450.808, 13543.510
451.290, 13448.690
451.772, 13341.950
452.254, 13266.640
452.736, 13231.790
453.218, 13216.000
453.700, 13187.960
454.182, 13147.470
454.665, 13100.330
455.147, 13045.910
455.629, 12987.500
456.111, 12935.490
456.593, 12890.230
457.075, 12854.150
457.557, 12842.530
458.039, 12841.750
458.522, 12818.870
459.004, 12763.070
459.486, 12691.540
459.968, 12613.370
460.450, 12532.430
460.932, 12461.540
461.414, 12423.016
461.896, 12414.211
462.379, 12398.193
462.861, 12375.351
463.343, 12325.231
463.825, 12310.334
464.307, 12281.321
464.789, 12251.724
465.271, 12234.010
465.753, 12195.960
466.235, 12148.950
466.717, 12097.600
467.200, 12064.910
467.682, 12075.630
468.164, 12083.720
468.646, 12069.730
469.128, 12022.920
469.610, 11981.290
470.092, 11940.840
470.574, 11908.720
471.057, 11900.770
471.539, 11927.440
472.021, 11935.490
472.503, 11897.780
472.985, 11830.320
473.467, 11794.040
473.949, 11780.073
474.431, 11760.693
474.914, 11736.188
475.396, 11691.210
475.878, 11672.669
476.360, 11643.527
476.842, 11613.956
477.324, 11599.136
477.806, 11557.135
478.288, 11542.080
478.770, 11516.271
479.253, 11487.960
479.735, 11456.840
480.217, 11432.050
480.699, 11414.130
481.181, 11405.300
481.663, 11402.570
482.145, 11402.980
482.627, 11405.570
483.109, 11411.040
483.592, 11427.180
484.074, 11445.690
484.556, 11448.100
485.038, 11416.090
485.520, 11380.510
486.002, 11345.530
486.484, 11307.980
486.966, 11297.270
487.448, 11341.730
487.931, 11386.010
488.413, 11376.770
488.895, 11285.740
489.377, 11225.040
489.859, 11215.850
490.341, 11240.850
490.823, 11257.290
491.306, 11266.410
491.788, 11261.200
492.270, 11231.660
492.752, 11182.750
493.234, 11138.030
493.716, 11096.560
494.198, 11071.750
494.680, 11092.990
495.162, 11142.660
495.645, 11175.520
496.127, 11175.460
496.609, 11157.830
497.091, 11132.370
497.573, 11101.140
498.055, 11071.330
498.537, 11036.950
499.019, 11012.260
499.501, 11012.850
499.984, 11045.950
500.466, 11071.210
500.948, 11074.800
501.430, 11063.710
501.912, 11044.850
502.394, 11008.550
502.876, 10977.660
503.358, 10953.080
503.841, 10935.830
504.323, 10930.600
504.805, 10943.320
505.287, 10959.500
505.769, 10974.080
506.251, 10987.420
506.733, 10993.060
507.215, 10987.590
507.698, 10980.420
508.180, 10985.540
508.662, 11003.020
509.144, 11014.040
509.626, 11010.880
510.108, 11001.860
510.590, 11011.970
511.072, 10971.717
511.554, 11020.885
512.036, 11048.346
512.519, 11055.268
513.001, 10980.133
513.483, 11010.958
513.965, 10999.318
514.447, 10985.938
514.929, 11031.676
515.411, 10968.477
515.893, 11013.276
516.375, 11007.070
516.858, 10993.270
517.340, 10980.400
517.822, 10974.490
518.304, 10989.290
518.786, 11000.160
519.268, 10994.190
519.750, 10964.710
520.232, 10942.910
520.715, 10932.100
521.197, 10926.010
521.679, 10917.710
522.161, 10905.180
522.643, 10895.960
523.125, 10887.050
523.607, 10884.920
524.089, 10922.140
524.571, 11003.150
525.054, 11061.360
525.536, 11037.690
526.018, 10959.250
526.500, 10927.250
526.982, 10946.570
527.464, 10976.290
527.946, 10980.640
528.429, 10967.380
528.911, 10950.020
529.393, 10932.730
529.875, 10912.080
530.357, 10878.610
530.839, 10839.160
531.321, 10811.910
531.803, 10784.585
532.286, 10825.120
532.768, 10849.183
533.250, 10857.658
533.732, 10803.860
534.214, 10830.476
534.696, 10824.865
535.178, 10835.210
535.660, 10852.320
536.142, 10858.680
536.625, 10846.550
537.107, 10825.060
537.589, 10815.390
538.071, 10820.360
538.553, 10825.130
539.035, 10822.640
539.517, 10815.070
539.999, 10818.660
540.481, 10834.580
540.964, 10844.900
541.446, 10819.080
541.928, 10776.520
542.410, 10770.570
542.892, 10818.990
543.374, 10874.450
543.856, 10893.800
544.338, 10887.650
544.820, 10877.380
545.303, 10863.310
545.785, 10855.310
546.267, 10862.760
546.749, 10883.680
547.231, 10899.700
547.713, 10900.170
548.195, 10898.710
548.677, 10905.580
549.159, 10938.520
549.642, 10938.990
550.124, 10883.980
550.606, 10814.730
551.088, 10779.940
551.570, 10784.870
552.052, 10812.020
552.534, 10868.630
553.016, 10940.130
553.499, 10974.880
553.981, 10971.960
554.463, 10954.820
554.945, 10928.600
555.427, 10898.940
555.909, 10885.770
556.391, 10890.960
556.873, 10893.670
557.356, 10860.970
557.838, 10817.780
558.320, 10804.460
558.802, 10854.640
559.284, 10900.840
559.766, 10890.950
560.248, 10849.600
560.730, 10830.170
561.213, 10883.960
561.695, 10929.730
562.177, 10931.690
562.659, 10883.630
563.141, 10856.290
563.623, 10855.970
564.105, 10869.590
564.587, 10893.950
565.069, 10939.110
565.552, 10955.250
566.034, 10932.470
566.516, 10892.590
566.998, 10863.880
567.480, 10846.610
567.962, 10847.340
568.444, 10878.590
568.926, 10920.640
569.408, 10926.460
569.891, 10901.700
570.373, 10880.880
570.855, 10897.030
571.337, 10922.700
571.819, 10927.110
572.301, 10905.640
572.783, 10877.990
573.265, 10842.540
573.747, 10811.700
574.230, 10797.910
574.712, 10829.130
575.194, 10847.450
575.676, 10829.700
576.158, 10794.030
576.640, 10784.160
577.122, 10817.470
577.604, 10848.020
578.086, 10862.510
578.569, 10861.930
579.051, 10859.620
579.533, 10855.500
580.015, 10850.700
580.497, 10844.030
580.979, 10836.690
581.461, 10836.500
581.943, 10844.630
582.426, 10857.710
582.908, 10873.640
583.390, 10891.620
583.872, 10910.760
584.354, 10939.220
584.836, 10958.570
585.318, 10949.330
585.800, 10918.860
586.282, 10889.920
586.765, 10865.260
587.247, 10849.340
587.729, 10849.040
588.211, 10869.320
588.693, 10874.160
589.175, 10846.720
589.657, 10818.050
590.140, 10810.240
590.622, 10830.500
591.104, 10850.610
591.586, 10870.830
592.068, 10888.100
592.550, 10896.300
593.032, 10895.610
593.514, 10892.560
593.996, 10890.350
594.479, 10886.320
594.961, 10870.970
595.443, 10846.820
595.925, 10829.010
596.407, 10821.720
596.889, 10829.040
597.371, 10867.000
597.853, 10940.660
598.335, 10989.370
598.818, 10965.220
599.300, 10914.490
599.782, 10876.080
600.264, 10862.480
600.746, 10854.770
601.228, 10851.930
601.710, 10853.750
602.192, 10859.310
602.674, 10866.570
603.157, 10883.190
603.639, 10915.610
604.121, 10958.160
604.603, 10985.750
605.085, 10997.640
605.567, 11000.780
606.049, 10994.460
606.531, 10983.000
607.013, 10982.250
607.496, 10993.980
607.978, 10998.440
608.460, 10969.190
608.942, 10926.230
609.424, 10894.190
609.906, 10879.700
610.388, 10877.150
610.870, 10889.910
611.353, 10912.190
611.835, 10933.440
612.317, 10969.040
612.799, 10983.320
613.281, 10954.870
613.763, 10893.370
614.245, 10876.320
614.727, 10924.540
615.209, 10970.770
615.692, 10975.600
616.174, 10940.200
616.656, 10921.250
617.138, 10920.930
617.620, 10925.330
618.102, 10913.430
618.584, 10895.490
619.067, 10903.960
