##NAMES=Wavellite
##RRUFFID=R050219
##IDEAL CHEMISTRY=Al_3_(PO_4_)_2_(OH)_3_&#183;5H_2_O
##LOCALITY=Kapunda Quarry, South Australia, Australia
##OWNER=RRUFF
##SOURCE=Marcus Origlieri
##DESCRIPTION=Radial aggregate of colorless acicular crystals
##STATUS=The identification of this mineral is confirmed by single-crystal X-ray diffraction and chemical analysis.
##URL=rruff.info/R050219
##MEASURED CHEMISTRY=(Al_2.96_Fe^3+^_0.04_)_Σ=3_(P_1.00_O_4_)_2_((OH)_2.02_F_0.98_)_Σ=3_·5H_2_O
92.29974, 0.0000000E+00
92.78186, 0.0000000E+00
93.26398, 0.0000000E+00
93.74609, 62.88653
94.22821, 60.41361
94.71033, 61.36974
95.19244, 65.29929
95.67456, 70.36280
96.15668, 75.84400
96.63879, 81.82531
97.12091, 88.67904
97.60303, 96.48463
98.08514, 105.0930
98.56726, 113.9125
99.04938, 122.9346
99.53149, 133.2111
100.0136, 145.3656
100.4957, 159.3583
100.9778, 174.3259
101.4600, 190.0865
101.9421, 206.7799
102.4242, 224.3250
102.9063, 242.8958
103.3884, 262.2151
103.8705, 282.2227
104.3527, 303.9265
104.8348, 323.9066
105.3169, 341.5249
105.7990, 356.9210
106.2811, 373.6296
106.7632, 392.6261
107.2454, 411.8458
107.7275, 429.1393
108.2096, 442.7813
108.6917, 457.1866
109.1738, 473.2080
109.6559, 491.2322
110.1381, 509.2565
110.6202, 525.2599
111.1023, 542.1630
111.5844, 563.0360
112.0665, 592.1620
112.5486, 621.5945
113.0308, 649.2938
113.5129, 674.5974
113.9950, 700.9449
114.4771, 729.0981
114.9592, 758.4098
115.4413, 788.3321
115.9235, 819.6339
116.4056, 850.7206
116.8877, 880.6360
117.3698, 910.3240
117.8519, 937.7587
118.3340, 961.4488
118.8162, 982.2971
119.2983, 1002.434
119.7804, 1023.504
120.2625, 1044.116
120.7446, 1063.010
121.2267, 1079.799
121.7089, 1095.228
122.1910, 1109.033
122.6731, 1121.571
123.1552, 1134.428
123.6373, 1148.336
124.1194, 1163.118
124.6016, 1178.924
125.0837, 1196.543
125.5658, 1214.217
126.0479, 1229.222
126.5300, 1241.756
127.0121, 1255.174
127.4943, 1272.223
127.9764, 1292.170
128.4585, 1313.806
128.9406, 1335.378
129.4227, 1358.531
129.9048, 1388.994
130.3869, 1427.755
130.8691, 1464.038
131.3512, 1483.491
131.8333, 1488.435
132.3154, 1492.719
132.7975, 1501.471
133.2796, 1514.408
133.7618, 1530.394
134.2439, 1546.615
134.7260, 1556.891
135.2081, 1562.626
135.6902, 1567.548
136.1723, 1571.535
136.6545, 1574.261
137.1366, 1575.754
137.6187, 1577.669
138.1008, 1580.427
138.5829, 1583.238
139.0650, 1584.127
139.5472, 1582.565
140.0293, 1581.233
140.5114, 1580.960
140.9935, 1581.191
141.4756, 1585.709
141.9577, 1597.026
142.4399, 1612.160
142.9220, 1619.147
143.4041, 1614.342
143.8862, 1608.256
144.3683, 1607.611
144.8504, 1614.944
145.3326, 1621.546
145.8147, 1626.170
146.2968, 1629.157
146.7789, 1633.116
147.2610, 1640.190
147.7431, 1646.133
148.2253, 1647.755
148.7074, 1641.109
149.1895, 1635.833
149.6716, 1633.512
150.1537, 1634.180
150.6358, 1634.555
151.1180, 1633.177
151.6001, 1632.287
152.0822, 1633.768
152.5643, 1641.344
153.0464, 1647.364
153.5285, 1650.243
154.0107, 1649.555
154.4928, 1649.071
154.9749, 1648.065
155.4570, 1647.744
155.9391, 1649.283
156.4212, 1656.415
156.9034, 1662.099
157.3855, 1663.542
157.8676, 1659.484
158.3497, 1657.098
158.8318, 1658.717
159.3139, 1662.442
159.7961, 1665.861
160.2782, 1667.356
160.7603, 1669.223
161.2424, 1672.993
161.7245, 1679.737
162.2066, 1684.696
162.6888, 1683.870
163.1709, 1680.477
163.6530, 1679.752
164.1351, 1686.240
164.6172, 1694.103
165.0993, 1700.203
165.5815, 1704.178
166.0636, 1706.124
166.5457, 1705.227
167.0278, 1702.364
167.5099, 1699.356
167.9920, 1696.480
168.4742, 1694.136
168.9563, 1692.822
169.4384, 1693.058
169.9205, 1693.356
170.4026, 1693.003
170.8847, 1691.997
171.3669, 1690.282
171.8490, 1686.287
172.3311, 1682.220
172.8132, 1680.682
173.2953, 1683.158
173.7774, 1686.521
174.2596, 1688.402
174.7417, 1688.920
175.2238, 1688.464
175.7059, 1686.161
176.1880, 1683.294
176.6701, 1681.738
177.1523, 1682.132
177.6344, 1683.622
178.1165, 1685.242
178.5986, 1687.055
179.0807, 1689.434
179.5628, 1693.149
180.0450, 1697.611
180.5271, 1701.654
181.0092, 1705.226
181.4913, 1708.069
181.9734, 1709.669
182.4555, 1710.075
182.9377, 1709.746
183.4198, 1708.049
183.9019, 1705.777
184.3840, 1705.436
184.8661, 1708.497
185.3482, 1713.164
185.8304, 1715.679
186.3125, 1716.021
186.7946, 1716.669
187.2767, 1720.391
187.7588, 1726.527
188.2409, 1731.903
188.7231, 1735.698
189.2052, 1738.200
189.6873, 1739.895
190.1694, 1740.721
190.6515, 1741.523
191.1336, 1743.140
191.6158, 1745.494
192.0979, 1748.013
192.5800, 1750.765
193.0621, 1753.533
193.5442, 1755.930
194.0263, 1758.148
194.5085, 1759.060
194.9906, 1756.536
195.4727, 1750.748
195.9548, 1746.302
196.4369, 1745.043
196.9190, 1746.253
197.4012, 1746.256
197.8833, 1744.892
198.3654, 1743.042
198.8475, 1741.408
199.3296, 1739.950
199.8117, 1739.478
200.2939, 1740.594
200.7760, 1743.013
201.2581, 1744.466
201.7402, 1744.668
202.2223, 1744.644
202.7044, 1745.557
203.1866, 1747.470
203.6687, 1749.771
204.1508, 1752.564
204.6329, 1755.761
205.1150, 1757.594
205.5971, 1757.394
206.0793, 1757.277
206.5614, 1760.326
207.0435, 1767.368
207.5256, 1773.184
208.0077, 1775.825
208.4898, 1775.370
208.9720, 1776.568
209.4541, 1779.865
209.9362, 1784.000
210.4183, 1787.713
210.9004, 1791.111
211.3825, 1793.523
211.8647, 1794.518
212.3468, 1794.067
212.8289, 1794.290
213.3110, 1795.708
213.7931, 1797.070
214.2752, 1796.410
214.7574, 1792.553
215.2395, 1790.279
215.7216, 1791.507
216.2037, 1796.434
216.6858, 1799.077
217.1679, 1798.775
217.6500, 1797.048
218.1322, 1795.428
218.6143, 1793.459
219.0964, 1792.756
219.5785, 1794.255
220.0606, 1798.144
220.5427, 1800.066
221.0249, 1799.080
221.5070, 1797.143
221.9891, 1796.586
222.4712, 1798.037
222.9533, 1799.427
223.4354, 1800.380
223.9176, 1800.930
224.3997, 1800.463
224.8818, 1798.011
225.3639, 1795.609
225.8460, 1795.860
226.3281, 1800.768
226.8103, 1804.083
227.2924, 1803.630
227.7745, 1799.095
228.2566, 1797.460
228.7387, 1800.143
229.2208, 1804.230
229.7030, 1806.502
230.1851, 1805.877
230.6672, 1805.629
231.1493, 1806.596
231.6314, 1808.836
232.1135, 1810.421
232.5957, 1811.120
233.0778, 1811.395
233.5599, 1811.691
234.0420, 1812.096
234.5241, 1812.342
235.0062, 1812.343
235.4884, 1812.097
235.9705, 1811.823
236.4526, 1811.270
236.9347, 1810.942
237.4168, 1811.302
237.8989, 1812.476
238.3811, 1814.111
238.8632, 1816.491
239.3453, 1819.590
239.8274, 1821.222
240.3095, 1820.184
240.7916, 1819.011
241.2738, 1820.172
241.7559, 1825.826
242.2380, 1829.413
242.7201, 1829.187
243.2022, 1825.443
243.6843, 1823.349
244.1665, 1823.681
244.6486, 1824.785
245.1307, 1825.377
245.6128, 1825.083
246.0949, 1825.081
246.5770, 1825.262
247.0592, 1825.754
247.5413, 1828.005
248.0234, 1833.524
248.5055, 1838.869
248.9876, 1841.303
249.4697, 1839.002
249.9519, 1837.829
250.4340, 1838.706
250.9161, 1841.242
251.3982, 1843.193
251.8803, 1844.303
252.3624, 1845.089
252.8446, 1845.646
253.3267, 1845.262
253.8088, 1846.438
254.2909, 1850.219
254.7730, 1855.721
255.2551, 1859.016
255.7373, 1859.082
256.2194, 1858.647
256.7015, 1859.202
257.1836, 1861.060
257.6657, 1863.190
258.1478, 1865.864
258.6299, 1868.719
259.1121, 1870.637
259.5942, 1871.300
260.0763, 1871.633
260.5584, 1871.964
261.0405, 1872.047
261.5226, 1872.964
262.0048, 1875.083
262.4869, 1877.864
262.9690, 1879.908
263.4511, 1880.592
263.9332, 1881.837
264.4153, 1884.825
264.8975, 1890.440
265.3796, 1894.076
265.8617, 1894.650
266.3438, 1894.201
266.8259, 1897.033
267.3080, 1904.533
267.7902, 1911.536
268.2723, 1915.698
268.7544, 1916.638
269.2365, 1917.810
269.7186, 1918.966
270.2007, 1920.678
270.6829, 1924.191
271.1650, 1930.176
271.6471, 1935.544
272.1292, 1939.110
272.6113, 1940.861
273.0934, 1942.094
273.5756, 1942.614
274.0577, 1942.948
274.5398, 1943.700
275.0219, 1944.867
275.5040, 1946.445
275.9861, 1948.666
276.4683, 1951.425
276.9504, 1953.335
277.4325, 1954.277
277.9146, 1954.666
278.3967, 1954.704
278.8788, 1954.291
279.3610, 1954.502
279.8431, 1956.032
280.3252, 1958.402
280.8073, 1958.992
281.2894, 1957.529
281.7715, 1955.439
282.2537, 1953.852
282.7358, 1952.773
283.2179, 1952.029
283.7000, 1951.569
284.1821, 1951.434
284.6642, 1952.298
285.1464, 1954.397
285.6285, 1955.426
286.1106, 1952.500
286.5927, 1946.026
287.0748, 1941.938
287.5569, 1941.450
288.0391, 1943.296
288.5212, 1945.117
289.0033, 1946.932
289.4854, 1948.352
289.9675, 1949.027
290.4496, 1949.054
290.9318, 1949.116
291.4139, 1949.470
291.8960, 1949.445
292.3781, 1947.590
292.8602, 1944.051
293.3423, 1940.555
293.8245, 1937.571
294.3066, 1935.291
294.7887, 1934.656
295.2708, 1935.964
295.7529, 1937.784
296.2350, 1938.457
296.7172, 1938.093
297.1993, 1937.273
297.6814, 1935.535
298.1635, 1933.633
298.6456, 1933.572
299.1277, 1935.491
299.6099, 1937.615
300.0920, 1937.571
300.5741, 1936.223
301.0562, 1935.849
301.5383, 1937.823
302.0204, 1940.967
302.5026, 1943.737
302.9847, 1946.155
303.4668, 1948.155
303.9489, 1948.889
304.4310, 1949.282
304.9131, 1951.161
305.3953, 1956.109
305.8774, 1961.588
306.3595, 1964.690
306.8416, 1965.743
307.3237, 1966.539
307.8058, 1967.926
308.2880, 1969.850
308.7701, 1972.294
309.2522, 1975.467
309.7343, 1978.855
310.2164, 1982.120
310.6985, 1985.326
311.1807, 1988.520
311.6628, 1991.103
312.1449, 1994.073
312.6270, 1998.808
313.1091, 2006.416
313.5912, 2012.609
314.0734, 2014.239
314.5555, 2012.770
315.0376, 2010.908
315.5197, 2009.211
316.0018, 2007.822
316.4839, 2007.241
316.9661, 2007.697
317.4482, 2007.098
317.9303, 2003.165
318.4124, 1998.127
318.8945, 1994.550
319.3766, 1995.285
319.8588, 1995.871
320.3409, 1994.451
320.8230, 1991.023
321.3051, 1987.367
321.7872, 1983.061
322.2693, 1979.283
322.7515, 1976.966
323.2336, 1977.603
323.7157, 1978.355
324.1978, 1978.571
324.6799, 1978.360
325.1620, 1978.414
325.6442, 1979.505
326.1263, 1980.361
326.6084, 1980.281
327.0905, 1977.990
327.5726, 1976.371
328.0547, 1975.548
328.5369, 1975.495
329.0190, 1976.151
329.5011, 1978.281
329.9832, 1980.376
330.4653, 1981.999
330.9474, 1983.189
331.4296, 1983.881
331.9117, 1984.156
332.3938, 1983.943
332.8759, 1983.032
333.3580, 1980.537
333.8401, 1978.716
334.3223, 1978.125
334.8044, 1978.797
335.2865, 1980.522
335.7686, 1984.386
336.2507, 1988.042
336.7328, 1988.723
337.2150, 1984.726
337.6971, 1982.324
338.1792, 1982.949
338.6613, 1986.083
339.1434, 1988.602
339.6255, 1990.371
340.1076, 1991.811
340.5898, 1992.964
341.0719, 1993.614
341.5540, 1995.516
342.0361, 1999.274
342.5182, 2003.881
343.0003, 2006.886
343.4825, 2008.106
343.9646, 2008.805
344.4467, 2009.737
344.9288, 2010.823
345.4109, 2010.978
345.8930, 2009.951
346.3752, 2008.652
346.8573, 2008.108
347.3394, 2008.342
347.8215, 2009.684
348.3036, 2013.105
348.7857, 2017.636
349.2679, 2020.441
349.7500, 2021.496
350.2321, 2021.580
350.7142, 2020.717
351.1963, 2019.394
351.6784, 2019.140
352.1606, 2021.112
352.6427, 2023.589
353.1248, 2023.777
353.6069, 2022.027
354.0890, 2020.544
354.5711, 2020.991
355.0533, 2022.601
355.5354, 2024.539
356.0175, 2027.017
356.4996, 2028.812
356.9817, 2028.420
357.4638, 2026.525
357.9460, 2024.742
358.4281, 2022.851
358.9102, 2022.066
359.3923, 2024.025
359.8744, 2029.190
360.3565, 2033.995
360.8387, 2035.775
361.3208, 2036.157
361.8029, 2037.139
362.2850, 2041.325
362.7671, 2044.463
363.2492, 2043.718
363.7314, 2039.417
364.2135, 2036.182
364.6956, 2035.238
365.1777, 2036.101
365.6598, 2038.517
366.1419, 2044.826
366.6241, 2049.776
367.1062, 2051.717
367.5883, 2051.523
368.0704, 2051.689
368.5525, 2052.669
369.0346, 2053.965
369.5168, 2055.421
369.9989, 2057.087
370.4810, 2058.869
370.9631, 2061.149
371.4452, 2063.418
371.9273, 2064.912
372.4095, 2064.692
372.8916, 2065.067
373.3737, 2066.663
373.8558, 2069.530
374.3379, 2072.282
374.8200, 2074.757
375.3022, 2077.378
375.7843, 2080.494
376.2664, 2084.243
376.7485, 2088.123
377.2306, 2092.049
377.7127, 2096.063
378.1949, 2100.397
378.6770, 2105.153
379.1591, 2109.645
379.6412, 2113.314
380.1233, 2116.173
380.6054, 2118.968
381.0876, 2121.598
381.5697, 2124.427
382.0518, 2128.067
382.5339, 2132.454
383.0160, 2137.273
383.4981, 2142.672
383.9803, 2148.346
384.4624, 2153.024
384.9445, 2156.678
385.4266, 2160.402
385.9087, 2165.533
386.3908, 2171.557
386.8730, 2177.250
387.3551, 2182.646
387.8372, 2187.232
388.3193, 2189.479
388.8014, 2190.073
389.2835, 2191.779
389.7657, 2197.319
390.2478, 2204.378
390.7299, 2210.019
391.2120, 2213.361
391.6941, 2217.497
392.1762, 2225.628
392.6584, 2235.691
393.1405, 2244.553
393.6226, 2250.264
394.1047, 2255.018
394.5868, 2259.451
395.0689, 2263.634
395.5511, 2268.543
396.0332, 2276.280
396.5153, 2283.891
396.9974, 2289.113
397.4795, 2288.754
397.9616, 2289.164
398.4438, 2291.245
398.9259, 2294.902
399.4080, 2299.813
399.8901, 2307.995
400.3722, 2315.677
400.8543, 2321.390
401.3365, 2324.630
401.8186, 2327.427
402.3007, 2329.238
402.7828, 2330.919
403.2649, 2333.603
403.7470, 2337.940
404.2292, 2342.051
404.7113, 2345.591
405.1934, 2348.578
405.6755, 2350.894
406.1576, 2352.209
406.6397, 2353.569
407.1219, 2356.208
407.6040, 2360.518
408.0861, 2362.778
408.5682, 2362.252
409.0503, 2360.139
409.5324, 2358.438
410.0146, 2357.164
410.4967, 2356.568
410.9788, 2356.854
411.4609, 2357.931
411.9430, 2359.768
412.4251, 2362.486
412.9073, 2364.746
413.3894, 2364.965
413.8715, 2363.596
414.3536, 2362.178
414.8357, 2361.699
415.3178, 2360.614
415.8000, 2356.643
416.2821, 2350.128
416.7642, 2342.951
417.2463, 2336.064
417.7284, 2329.211
418.2105, 2322.120
418.6927, 2314.541
419.1748, 2307.473
419.6569, 2302.461
420.1390, 2298.136
420.6211, 2292.531
421.1032, 2283.769
421.5854, 2274.602
422.0675, 2265.912
422.5496, 2257.712
423.0317, 2250.660
423.5138, 2245.413
423.9959, 2240.998
424.4781, 2236.698
424.9602, 2232.859
425.4423, 2228.676
425.9244, 2223.823
426.4065, 2218.569
426.8886, 2213.415
427.3708, 2207.004
427.8529, 2202.341
428.3350, 2201.033
428.8171, 2203.897
429.2992, 2204.205
429.7813, 2200.903
430.2635, 2196.471
430.7456, 2193.172
431.2277, 2191.091
431.7098, 2190.039
432.1919, 2190.536
432.6740, 2191.705
433.1562, 2190.734
433.6383, 2187.486
434.1204, 2183.051
434.6025, 2177.042
435.0846, 2169.995
435.5667, 2165.561
436.0489, 2164.128
436.5310, 2163.953
437.0131, 2163.628
437.4952, 2162.927
437.9773, 2160.998
438.4594, 2156.825
438.9415, 2151.860
439.4236, 2148.043
439.9058, 2145.268
440.3879, 2142.773
440.8700, 2139.528
441.3521, 2136.550
441.8342, 2135.282
442.3163, 2136.750
442.7985, 2137.638
443.2806, 2135.033
443.7627, 2130.762
444.2448, 2127.693
444.7269, 2127.868
445.2090, 2128.465
445.6912, 2128.216
446.1733, 2127.052
446.6554, 2126.470
447.1375, 2127.568
447.6196, 2128.778
448.1017, 2129.114
448.5839, 2127.486
449.0660, 2126.338
449.5481, 2125.838
450.0302, 2125.797
450.5123, 2125.812
450.9944, 2125.813
451.4766, 2126.044
451.9587, 2126.743
452.4408, 2127.971
452.9229, 2128.482
453.4050, 2128.074
453.8871, 2127.464
454.3693, 2127.137
454.8514, 2127.076
455.3335, 2127.948
455.8156, 2130.296
456.2977, 2132.991
456.7798, 2133.376
457.2620, 2131.624
457.7441, 2130.065
458.2262, 2130.295
458.7083, 2131.534
459.1904, 2131.784
459.6725, 2130.921
460.1547, 2130.583
460.6368, 2133.340
461.1189, 2137.352
461.6010, 2139.498
462.0831, 2137.904
462.5652, 2135.542
463.0474, 2134.380
463.5295, 2134.164
464.0116, 2134.216
464.4937, 2134.558
464.9758, 2134.829
465.4579, 2134.530
465.9401, 2133.337
466.4222, 2133.239
466.9043, 2136.466
467.3864, 2140.191
467.8685, 2141.749
468.3506, 2137.266
468.8328, 2134.921
469.3149, 2136.526
469.7970, 2140.973
470.2791, 2144.078
470.7612, 2145.061
471.2433, 2145.867
471.7255, 2147.434
472.2076, 2150.022
472.6897, 2151.692
473.1718, 2152.304
473.6539, 2152.299
474.1360, 2152.091
474.6182, 2151.656
475.1003, 2151.134
475.5824, 2150.346
476.0645, 2149.667
476.5466, 2149.995
477.0287, 2151.282
477.5109, 2153.126
477.9930, 2156.112
478.4751, 2159.273
478.9572, 2160.377
479.4393, 2159.120
479.9214, 2157.626
480.4036, 2157.644
480.8857, 2158.684
481.3678, 2160.126
481.8499, 2163.143
482.3320, 2164.969
482.8141, 2163.101
483.2963, 2158.561
483.7784, 2154.481
484.2605, 2150.576
484.7426, 2148.714
485.2247, 2150.998
485.7068, 2159.385
486.1890, 2164.299
486.6711, 2161.055
487.1532, 2155.630
487.6353, 2153.621
488.1174, 2157.592
488.5995, 2160.992
489.0817, 2163.115
489.5638, 2164.198
490.0459, 2165.118
490.5280, 2165.924
491.0101, 2166.305
491.4922, 2165.618
491.9744, 2163.788
492.4565, 2164.282
492.9386, 2167.462
493.4207, 2171.264
493.9028, 2173.264
494.3849, 2173.760
494.8671, 2174.778
495.3492, 2177.023
495.8313, 2179.523
496.3134, 2180.764
496.7955, 2180.995
497.2776, 2181.136
497.7598, 2182.725
498.2419, 2183.957
498.7240, 2182.147
499.2061, 2177.220
499.6882, 2173.219
500.1703, 2173.014
500.6525, 2174.667
501.1346, 2176.412
501.6167, 2178.060
502.0988, 2179.457
502.5809, 2180.178
503.0630, 2180.611
503.5452, 2181.566
504.0273, 2183.972
504.5094, 2185.930
504.9915, 2186.822
505.4736, 2186.573
505.9557, 2186.191
506.4379, 2185.519
506.9200, 2184.852
507.4021, 2184.334
507.8842, 2183.897
508.3663, 2184.024
508.8484, 2184.887
509.3306, 2186.176
509.8127, 2187.598
510.2948, 2189.177
510.7769, 2190.188
511.2590, 2190.049
511.7411, 2189.397
512.2233, 2189.968
512.7054, 2191.664
513.1875, 2193.111
513.6696, 2193.133
514.1517, 2192.370
514.6339, 2191.479
515.1160, 2190.363
515.5981, 2189.968
516.0802, 2190.791
516.5623, 2192.707
517.0444, 2195.557
517.5266, 2201.232
518.0087, 2205.773
518.4908, 2206.867
518.9729, 2205.310
519.4550, 2204.836
519.9371, 2206.553
520.4193, 2209.040
520.9014, 2212.125
521.3835, 2216.482
521.8656, 2218.413
522.3477, 2216.590
522.8298, 2213.823
523.3120, 2212.621
523.7941, 2213.005
524.2762, 2215.304
524.7583, 2220.413
525.2404, 2226.576
525.7225, 2229.499
526.2047, 2229.235
526.6868, 2228.185
527.1689, 2226.286
527.6510, 2224.667
528.1331, 2227.206
528.6152, 2233.815
529.0974, 2239.972
529.5795, 2241.473
530.0616, 2240.618
530.5437, 2240.539
531.0258, 2241.930
531.5079, 2244.002
531.9901, 2246.474
532.4722, 2249.286
532.9543, 2252.304
533.4364, 2255.366
533.9185, 2258.751
534.4006, 2263.207
534.8828, 2268.427
535.3649, 2272.015
535.8470, 2272.155
536.3291, 2272.084
536.8112, 2272.926
537.2933, 2274.548
537.7755, 2277.766
538.2576, 2283.522
538.7397, 2289.465
539.2218, 2292.677
539.7039, 2292.851
540.1860, 2293.039
540.6682, 2293.895
541.1503, 2294.921
541.6324, 2294.675
542.1145, 2293.358
542.5966, 2292.875
543.0787, 2295.444
543.5609, 2299.016
544.0430, 2299.912
544.5251, 2298.237
545.0072, 2296.375
545.4893, 2295.865
545.9714, 2296.148
546.4536, 2297.017
546.9357, 2299.357
547.4178, 2299.858
547.8999, 2294.019
548.3820, 2286.439
548.8641, 2283.470
549.3463, 2291.999
549.8284, 2298.888
550.3105, 2301.198
550.7926, 2299.616
551.2747, 2297.506
551.7568, 2293.726
552.2390, 2291.225
552.7211, 2292.008
553.2032, 2296.569
553.6853, 2298.051
554.1674, 2295.853
554.6495, 2292.452
555.1317, 2289.683
555.6138, 2287.736
556.0959, 2288.248
556.5780, 2292.636
557.0601, 2296.812
557.5422, 2292.927
558.0244, 2283.920
558.5065, 2278.308
558.9886, 2283.392
559.4707, 2291.237
559.9528, 2295.580
560.4349, 2296.723
560.9171, 2296.785
561.3992, 2296.123
561.8813, 2295.063
562.3634, 2293.560
562.8455, 2291.067
563.3276, 2289.694
563.8098, 2290.093
564.2919, 2291.390
564.7740, 2292.948
565.2561, 2295.357
565.7382, 2296.629
566.2203, 2296.048
566.7025, 2294.518
567.1846, 2294.597
567.6667, 2296.598
568.1488, 2298.124
568.6309, 2298.297
569.1130, 2297.306
569.5952, 2295.429
570.0773, 2292.695
570.5594, 2290.116
571.0415, 2288.364
571.5236, 2287.272
572.0057, 2286.787
572.4879, 2287.043
572.9700, 2286.988
573.4521, 2285.431
573.9342, 2283.270
574.4163, 2281.590
574.8984, 2280.009
575.3806, 2279.713
575.8627, 2282.083
576.3448, 2286.005
576.8269, 2288.457
577.3090, 2289.182
577.7911, 2288.356
578.2733, 2285.139
578.7554, 2279.657
579.2375, 2276.951
579.7196, 2277.696
580.2017, 2279.575
580.6838, 2281.318
581.1660, 2282.907
581.6481, 2283.953
582.1302, 2284.439
582.6123, 2284.301
583.0944, 2283.031
583.5765, 2281.056
584.0587, 2279.565
584.5408, 2278.895
585.0229, 2278.882
585.5050, 2280.160
585.9871, 2282.021
586.4692, 2282.709
