##NAMES=Weddellite
##RRUFFID=R110123
##IDEAL CHEMISTRY=Ca(C_2_)^6+^O_4_&#183;2H_2_O
##LOCALITY=Tucson, Arizona, USA
##OWNER=RRUFF
##SOURCE=Gordie Downs
##DESCRIPTION=White to colorless spheroidal crystals found in the pith of a living Saguaro cactus
##STATUS=The identification of this mineral has been confirmed by single-crystal X-ray diffraction.
##URL=rruff.info/R110123
136.4404, 328.9456
136.9225, 331.9272
137.4046, 335.1194
137.8867, 338.3405
138.3688, 341.1798
138.8510, 343.3731
139.3331, 345.2745
139.8152, 348.0453
140.2973, 352.0649
140.7794, 356.1852
141.2615, 360.0777
141.7437, 363.7121
142.2258, 366.9571
142.7079, 369.3516
143.1900, 371.5029
143.6721, 374.6615
144.1542, 379.3727
144.6364, 384.5123
145.1185, 388.9157
145.6006, 392.4443
146.0827, 396.0708
146.5648, 400.5913
147.0469, 405.4088
147.5291, 409.9176
148.0112, 413.8457
148.4933, 417.4085
148.9754, 421.0812
149.4575, 424.9694
149.9396, 428.8303
150.4218, 432.8164
150.9039, 436.7094
151.3860, 440.0898
151.8681, 442.5713
152.3502, 444.3698
152.8323, 447.2113
153.3145, 452.5649
153.7966, 457.6162
154.2787, 461.9248
154.7608, 465.5117
155.2429, 468.5428
155.7250, 471.1112
156.2072, 473.1652
156.6893, 475.4041
157.1714, 477.7167
157.6535, 480.2697
158.1356, 483.5082
158.6177, 487.2062
159.0999, 490.5715
159.5820, 492.9052
160.0641, 494.0534
160.5462, 494.4505
161.0283, 494.1979
161.5104, 493.1914
161.9926, 491.4102
162.4747, 488.8552
162.9568, 485.3575
163.4389, 480.5176
163.9210, 474.3832
164.4031, 467.9542
164.8853, 461.3891
165.3674, 454.6232
165.8495, 447.5800
166.3316, 440.0864
166.8137, 432.6729
167.2958, 425.5123
167.7780, 418.6662
168.2601, 412.7956
168.7422, 408.3602
169.2243, 405.1932
169.7064, 402.6926
170.1885, 400.6991
170.6707, 399.6452
171.1528, 399.8028
171.6349, 401.0311
172.1170, 402.7413
172.5991, 404.2886
173.0812, 405.6143
173.5634, 408.0271
174.0455, 412.6664
174.5276, 417.6662
175.0097, 421.9904
175.4918, 425.7929
175.9739, 430.0532
176.4561, 435.9902
176.9382, 444.3097
177.4203, 452.0814
177.9024, 458.3514
178.3845, 464.8517
178.8666, 472.5924
179.3488, 481.6001
179.8309, 491.2433
180.3130, 500.5410
180.7951, 509.1966
181.2772, 518.1478
181.7593, 527.6713
182.2415, 537.2486
182.7236, 546.7319
183.2057, 556.0040
183.6878, 564.5951
184.1699, 571.7360
184.6520, 576.6078
185.1342, 581.4508
185.6163, 587.2332
186.0984, 592.5978
186.5805, 596.1710
187.0626, 597.5513
187.5447, 597.0683
188.0269, 594.9815
188.5090, 591.3336
188.9911, 586.5220
189.4732, 580.5637
189.9553, 573.4941
190.4374, 565.3156
190.9196, 555.7508
191.4017, 545.4514
191.8838, 535.3057
192.3659, 525.4318
192.8480, 515.0914
193.3301, 503.5864
193.8123, 491.2576
194.2944, 479.2913
194.7765, 468.0763
195.2586, 457.2733
195.7407, 446.3544
196.2228, 435.3388
196.7050, 424.6591
197.1871, 414.5287
197.6692, 404.9557
198.1513, 396.1003
198.6334, 388.2191
199.1155, 380.9784
199.5977, 374.2540
200.0798, 367.9978
200.5619, 361.9865
201.0440, 355.8807
201.5261, 349.5468
202.0082, 343.8012
202.4904, 339.0277
202.9725, 334.6735
203.4546, 330.4594
203.9367, 326.3607
204.4188, 322.5337
204.9009, 319.2975
205.3831, 316.9572
205.8652, 314.2788
206.3473, 310.9453
206.8294, 307.5034
207.3115, 304.1270
207.7936, 300.9218
208.2758, 298.0385
208.7579, 295.7441
209.2400, 294.2963
209.7221, 292.9325
210.2042, 291.8723
210.6863, 290.7379
211.1685, 289.1143
211.6506, 286.9887
212.1327, 284.8298
212.6148, 283.3122
213.0969, 282.7875
213.5790, 282.2778
214.0612, 282.1328
214.5433, 281.7969
215.0254, 280.5910
215.5075, 278.4292
215.9896, 276.0871
216.4717, 274.7310
216.9539, 275.0221
217.4360, 274.7301
217.9181, 273.4614
218.4002, 271.7719
218.8823, 270.1502
219.3644, 268.7178
219.8466, 267.3928
220.3287, 266.0988
220.8108, 264.8520
221.2929, 263.5063
221.7750, 262.1210
222.2571, 260.5964
222.7393, 258.7342
223.2214, 256.4578
223.7035, 254.0806
224.1856, 252.0900
224.6677, 250.4621
225.1498, 248.6146
225.6320, 246.1986
226.1141, 243.5206
226.5962, 241.1345
227.0783, 239.2125
227.5604, 237.3288
228.0425, 234.9723
228.5247, 232.2634
229.0068, 229.5730
229.4889, 227.0854
229.9710, 224.7330
230.4531, 222.3482
230.9352, 219.9205
231.4174, 217.4692
231.8995, 214.9545
232.3816, 212.4237
232.8637, 210.0268
233.3458, 207.9241
233.8279, 206.0190
234.3101, 203.9514
234.7922, 201.6688
235.2743, 199.3189
235.7564, 196.7614
236.2385, 194.2046
236.7206, 192.0792
237.2028, 190.7805
237.6849, 190.1294
238.1670, 189.3544
238.6491, 188.4825
239.1312, 187.4193
239.6133, 186.0804
240.0955, 184.5604
240.5776, 182.9788
241.0597, 181.3637
241.5418, 179.7586
242.0239, 178.4150
242.5060, 177.4306
242.9882, 176.6012
243.4703, 175.9578
243.9524, 175.3909
244.4345, 174.6424
244.9166, 173.4511
245.3987, 172.0931
245.8809, 172.0079
246.3630, 175.0360
246.8451, 176.9445
247.3272, 176.1720
247.8093, 174.0415
248.2914, 172.2652
248.7736, 171.7831
249.2557, 172.2695
249.7378, 172.4155
250.2199, 172.1253
250.7020, 171.5555
251.1841, 170.3948
251.6663, 169.0861
252.1484, 168.1511
252.6305, 167.8386
253.1126, 168.0160
253.5947, 168.2652
254.0768, 168.6599
254.5590, 169.0432
255.0411, 169.3234
255.5232, 169.6194
256.0053, 170.0368
256.4874, 170.6206
256.9695, 171.3935
257.4517, 172.4105
257.9338, 174.2332
258.4159, 175.6209
258.8980, 176.1944
259.3801, 176.4914
259.8622, 177.1322
260.3444, 178.3238
260.8265, 179.7426
261.3086, 180.7838
261.7907, 181.3179
262.2728, 181.6164
262.7549, 181.5922
263.2371, 181.3784
263.7192, 181.1168
264.2013, 180.8436
264.6834, 180.4837
265.1655, 179.9373
265.6476, 179.2243
266.1298, 178.1963
266.6119, 176.4792
267.0940, 174.6463
267.5761, 173.3504
268.0582, 172.6923
268.5403, 172.1011
269.0225, 170.8460
269.5046, 168.6908
269.9867, 166.9760
270.4688, 166.2291
270.9509, 165.6301
271.4330, 164.3882
271.9152, 162.4372
272.3973, 160.3586
272.8794, 158.6283
273.3615, 157.2945
273.8436, 156.4072
274.3257, 156.5816
274.8079, 156.7636
275.2900, 156.0432
275.7721, 154.4078
276.2542, 152.5497
276.7363, 150.9237
277.2184, 149.5322
277.7006, 148.1316
278.1827, 146.3609
278.6648, 144.8792
279.1469, 144.5073
279.6290, 145.0794
280.1111, 145.2288
280.5933, 143.9474
281.0754, 141.6599
281.5575, 139.9805
282.0396, 139.1144
282.5217, 138.5958
283.0038, 138.2754
283.4860, 138.1111
283.9681, 137.8625
284.4502, 137.3697
284.9323, 136.7714
285.4144, 136.3733
285.8965, 136.2667
286.3787, 136.1309
286.8608, 135.7163
287.3429, 135.1109
287.8250, 134.6673
288.3071, 134.6097
288.7892, 134.6074
289.2714, 134.1076
289.7535, 133.0407
290.2356, 132.1112
290.7177, 131.7199
291.1998, 131.7161
291.6819, 131.7277
292.1641, 131.7236
292.6462, 131.6143
293.1283, 131.2331
293.6104, 130.6174
294.0925, 130.0691
294.5746, 129.6238
295.0568, 129.3422
295.5389, 129.4644
296.0210, 130.1843
296.5031, 130.8100
296.9852, 130.5532
297.4673, 129.6980
297.9495, 128.9793
298.4316, 128.6734
298.9137, 128.6258
299.3958, 128.6443
299.8779, 128.7399
300.3600, 128.8248
300.8422, 128.8478
301.3243, 128.8180
301.8064, 128.7404
302.2885, 128.5907
302.7706, 128.4167
303.2527, 128.2816
303.7349, 128.1892
304.2170, 128.0697
304.6991, 127.8414
305.1812, 127.5920
305.6633, 127.4635
306.1454, 127.5325
306.6276, 127.5776
307.1097, 127.3467
307.5918, 126.8602
308.0739, 126.4623
308.5560, 126.2598
309.0381, 126.2163
309.5203, 126.3374
310.0024, 126.6506
310.4845, 126.8413
310.9666, 126.5718
311.4487, 125.9527
311.9308, 125.5588
312.4130, 125.6180
312.8951, 125.7629
313.3772, 125.6098
313.8593, 125.2067
314.3414, 124.8756
314.8235, 124.8147
315.3057, 124.9414
315.7878, 125.0343
316.2699, 125.0488
316.7520, 125.0953
317.2341, 125.4184
317.7162, 125.8436
318.1984, 125.9485
318.6805, 125.3145
319.1626, 124.3960
319.6447, 123.9605
320.1268, 124.1021
320.6089, 124.2557
321.0911, 123.9829
321.5732, 123.5598
322.0553, 123.3873
322.5374, 123.6286
323.0195, 124.0038
323.5016, 124.2834
323.9838, 124.4702
324.4659, 124.4653
324.9480, 124.0665
325.4301, 123.5689
325.9122, 123.3566
326.3943, 123.4929
326.8765, 123.6746
327.3586, 123.6531
327.8407, 123.4731
328.3228, 123.3900
328.8049, 123.4936
329.2870, 123.6704
329.7692, 123.8271
330.2513, 123.9618
330.7334, 124.0313
331.2155, 124.0041
331.6976, 123.8972
332.1797, 123.7520
332.6619, 123.5773
333.1440, 123.3498
333.6261, 122.9289
334.1082, 122.4263
334.5903, 122.1393
335.0724, 122.2561
335.5546, 122.5886
336.0367, 122.9654
336.5188, 123.4018
337.0009, 123.6904
337.4830, 123.6350
337.9651, 123.3672
338.4473, 123.1286
338.9294, 122.9118
339.4115, 122.7811
339.8936, 122.8516
340.3757, 123.0914
340.8578, 123.2652
341.3400, 123.3040
341.8221, 123.2071
342.3042, 122.9278
342.7863, 122.3981
343.2684, 122.0488
343.7505, 122.2041
344.2327, 122.6912
344.7148, 123.1431
345.1969, 123.5352
345.6790, 123.7363
346.1611, 123.4017
346.6432, 122.6282
347.1254, 122.0933
347.6075, 122.1031
348.0896, 122.3823
348.5717, 122.6407
349.0538, 122.8574
349.5359, 122.9960
350.0181, 123.0122
350.5002, 122.9198
350.9823, 122.8114
351.4644, 122.7236
351.9465, 122.5942
352.4286, 122.2822
352.9108, 121.8529
353.3929, 121.6299
353.8750, 121.8162
354.3571, 122.2654
354.8392, 122.6325
355.3214, 122.9857
355.8035, 123.1374
356.2856, 122.8901
356.7677, 122.4186
357.2498, 122.0108
357.7319, 121.7390
358.2141, 121.6009
358.6962, 121.6556
359.1783, 121.9657
359.6604, 122.0698
360.1425, 121.8134
360.6246, 121.3924
361.1068, 120.8874
361.5889, 120.3355
362.0710, 119.9827
362.5531, 120.0940
363.0352, 120.6607
363.5173, 120.9600
363.9995, 120.8528
364.4816, 120.6466
364.9637, 120.4173
365.4458, 120.2008
365.9279, 120.0901
366.4100, 120.1524
366.8922, 120.3072
367.3743, 120.2825
367.8564, 119.7858
368.3385, 119.5319
368.8206, 119.7584
369.3027, 120.2119
369.7849, 120.6564
370.2670, 121.0135
370.7491, 121.2359
371.2312, 121.2337
371.7133, 120.8823
372.1954, 120.6847
372.6776, 120.7380
373.1597, 120.8509
373.6418, 120.9454
374.1239, 120.9973
374.6060, 120.9740
375.0881, 120.8335
375.5703, 120.5833
376.0524, 120.4590
376.5345, 120.5665
377.0166, 120.6754
377.4987, 120.7371
377.9808, 120.7681
378.4630, 120.8198
378.9451, 120.9171
379.4272, 120.9938
379.9093, 120.8761
380.3914, 120.3426
380.8735, 119.9852
381.3557, 119.8209
381.8378, 119.8192
382.3199, 120.0337
382.8020, 120.4274
383.2841, 120.8209
383.7662, 121.0047
384.2484, 120.9479
384.7305, 120.8990
385.2126, 120.9579
385.6947, 120.9234
386.1768, 120.5651
386.6589, 120.0723
387.1411, 119.7909
387.6232, 119.9153
388.1053, 120.4212
388.5874, 121.3546
389.0695, 123.4002
389.5516, 124.5257
390.0338, 123.6422
390.5159, 122.1154
390.9980, 121.1635
391.4801, 121.1245
391.9622, 121.5322
392.4443, 121.9392
392.9265, 122.3797
393.4086, 122.4751
393.8907, 121.7909
394.3728, 121.1104
394.8549, 120.9449
395.3370, 121.2004
395.8192, 121.4501
396.3013, 121.3778
396.7834, 121.0926
397.2655, 120.9845
397.7476, 121.1455
398.2297, 121.2438
398.7119, 120.9354
399.1940, 120.5100
399.6761, 120.3777
400.1582, 120.7304
400.6403, 121.2003
401.1224, 121.4370
401.6046, 121.4495
402.0867, 121.3616
402.5688, 121.1712
403.0509, 120.9333
403.5330, 120.6915
404.0151, 120.4425
404.4973, 120.2688
404.9794, 120.2758
405.4615, 120.3621
405.9436, 120.3453
406.4257, 120.1980
406.9078, 120.0036
407.3900, 119.8051
407.8721, 119.6141
408.3542, 119.4761
408.8363, 119.3559
409.3184, 119.3255
409.8005, 119.5508
410.2827, 119.9323
410.7648, 120.0948
411.2469, 119.8306
411.7290, 119.3396
412.2111, 119.0693
412.6932, 119.0445
413.1754, 119.1282
413.6575, 119.3906
414.1396, 119.6999
414.6217, 119.9364
415.1038, 120.0737
415.5859, 120.1208
416.0681, 120.0812
416.5502, 119.9482
417.0323, 119.7782
417.5144, 119.4020
417.9965, 119.1675
418.4786, 119.2828
418.9608, 119.6360
419.4429, 120.0190
419.9250, 120.3279
420.4071, 120.5719
420.8892, 120.7752
421.3713, 120.9330
421.8535, 121.0505
422.3356, 120.9159
422.8177, 120.8893
423.2998, 121.4419
423.7819, 122.5135
424.2640, 123.4629
424.7462, 123.5805
425.2283, 122.8036
425.7104, 122.1307
426.1925, 121.5724
426.6746, 121.1200
427.1567, 120.7585
427.6389, 120.5022
428.1210, 120.3821
428.6031, 120.4172
429.0852, 120.5760
429.5673, 120.8536
430.0494, 121.3484
430.5316, 121.6119
431.0137, 121.1786
431.4958, 120.7230
431.9779, 120.7388
432.4600, 121.2310
432.9421, 121.7608
433.4243, 122.0090
433.9064, 122.0210
434.3885, 121.9913
434.8706, 121.9251
435.3527, 121.8248
435.8348, 121.5919
436.3170, 121.3402
436.7991, 121.2980
437.2812, 121.6647
437.7633, 122.0547
438.2454, 122.0221
438.7275, 121.6389
439.2097, 121.4229
439.6918, 121.5896
440.1739, 121.9435
440.6560, 122.2359
441.1381, 122.4856
441.6202, 122.5902
442.1024, 122.4086
442.5845, 122.1282
443.0666, 121.9738
443.5487, 121.9602
444.0308, 121.9421
444.5129, 121.7792
444.9951, 121.5092
445.4772, 121.4731
445.9593, 121.7042
446.4414, 122.0894
446.9235, 122.8413
447.4056, 123.6556
447.8878, 124.0518
448.3699, 123.8704
448.8520, 123.3617
449.3341, 122.8750
449.8162, 122.3363
450.2983, 122.0605
450.7805, 122.2171
451.2626, 122.4382
451.7447, 122.5745
452.2268, 122.6129
452.7089, 122.5726
453.1910, 122.4552
453.6732, 122.2904
454.1553, 122.2065
454.6374, 122.2497
455.1195, 122.2990
455.6016, 122.3383
456.0837, 122.3718
456.5659, 122.3694
457.0480, 122.3391
457.5301, 122.3782
458.0122, 122.6175
458.4943, 123.0536
458.9764, 123.4768
459.4586, 123.9882
459.9407, 124.3112
460.4228, 124.1723
460.9049, 123.7914
461.3870, 123.5708
461.8691, 123.7055
462.3513, 123.9660
462.8334, 124.1047
463.3155, 124.1227
463.7976, 124.0404
464.2797, 123.8269
464.7618, 123.5575
465.2440, 123.2835
465.7261, 122.9964
466.2082, 122.8677
466.6903, 123.0565
467.1724, 123.3793
467.6545, 123.6572
468.1367, 123.8675
468.6188, 123.9268
469.1009, 123.6895
469.5830, 123.2795
470.0651, 123.3206
470.5472, 124.2493
471.0294, 125.0100
471.5115, 125.2904
471.9936, 125.2746
472.4757, 125.1260
472.9578, 124.9062
473.4399, 124.7331
473.9221, 124.7644
474.4042, 125.0522
474.8863, 125.2392
475.3684, 125.1532
475.8505, 125.1610
476.3326, 125.4905
476.8148, 125.9880
477.2969, 126.3890
477.7790, 126.5624
478.2611, 126.5905
478.7432, 126.5953
479.2253, 126.4607
479.7075, 126.6389
480.1896, 127.5702
480.6717, 128.5037
481.1538, 128.9611
481.6359, 129.0120
482.1180, 129.0902
482.6002, 129.5036
483.0823, 130.1501
483.5644, 130.7649
484.0465, 131.3500
484.5286, 131.8816
485.0107, 132.2458
485.4929, 132.6051
485.9750, 133.2033
486.4571, 134.1193
486.9392, 134.9702
487.4213, 135.4603
487.9034, 135.7272
488.3856, 136.0135
488.8677, 136.3354
489.3498, 136.8732
489.8319, 137.8544
490.3140, 139.2504
490.7961, 140.4743
491.2783, 141.3660
491.7604, 142.2679
492.2425, 143.2155
492.7246, 144.3098
493.2067, 145.8313
493.6888, 147.8729
494.1710, 150.0605
494.6531, 151.7597
495.1352, 152.7139
495.6173, 153.9899
496.0994, 155.6400
496.5815, 157.5080
497.0637, 159.6385
497.5458, 161.9131
498.0279, 164.0961
498.5100, 166.0452
498.9921, 167.8839
499.4742, 169.9698
499.9564, 172.3642
500.4385, 174.8454
500.9206, 177.4915
501.4027, 180.1435
501.8848, 182.8328
502.3669, 185.4755
502.8491, 187.7020
503.3312, 189.0538
503.8133, 189.8567
504.2954, 191.1237
504.7775, 193.0459
505.2596, 194.4985
505.7418, 194.7666
506.2239, 194.3380
506.7060, 194.0058
507.1881, 193.9316
507.6702, 193.4280
508.1523, 192.1493
508.6345, 190.2200
509.1166, 187.7267
509.5987, 184.6713
510.0808, 181.4434
510.5629, 178.2888
511.0450, 175.2361
511.5272, 172.4214
512.0093, 170.0643
512.4914, 167.6339
512.9735, 164.8677
513.4556, 161.9750
513.9377, 159.1667
514.4199, 156.5325
514.9020, 154.0755
515.3841, 151.8510
515.8662, 149.8928
516.3483, 147.9599
516.8304, 145.8788
517.3126, 144.0216
517.7947, 142.7558
518.2768, 141.7090
518.7589, 140.2831
519.2410, 138.2239
519.7231, 135.9941
520.2053, 134.1972
520.6874, 132.8458
521.1695, 131.8354
521.6516, 131.3720
522.1337, 130.9760
522.6158, 130.2894
523.0980, 129.4022
523.5801, 128.5667
524.0622, 127.8307
524.5443, 127.2279
525.0264, 126.8675
525.5085, 126.7051
525.9907, 126.5029
526.4728, 126.1874
526.9549, 125.7741
527.4370, 125.2722
527.9191, 124.6685
528.4012, 124.0443
528.8834, 123.3631
529.3655, 122.7025
529.8476, 122.1055
530.3297, 121.5733
530.8118, 121.0945
531.2939, 120.6589
531.7761, 120.2916
532.2582, 120.0692
532.7403, 120.1201
533.2224, 120.0774
533.7045, 119.9721
534.1866, 119.7517
534.6688, 119.2997
535.1509, 118.6943
535.6330, 118.1495
536.1151, 117.8013
536.5972, 117.6124
537.0793, 117.5043
537.5615, 117.5065
538.0436, 117.4689
538.5257, 117.2816
539.0078, 117.0931
539.4899, 117.0948
539.9720, 117.2745
540.4542, 117.3191
540.9363, 116.9441
541.4184, 116.4116
541.9005, 116.0586
542.3826, 115.8998
542.8647, 115.9491
543.3469, 116.2953
543.8290, 116.7709
544.3111, 116.9268
544.7932, 116.6669
545.2753, 116.3702
545.7574, 115.9176
546.2396, 115.5684
546.7217, 115.6584
547.2038, 116.1053
547.6859, 116.4909
548.1680, 116.5168
548.6501, 116.2584
549.1323, 116.0490
549.6144, 115.9245
550.0965, 115.7893
550.5786, 115.5760
551.0607, 115.3919
551.5428, 115.2756
552.0250, 115.2541
552.5071, 115.4032
552.9892, 115.9110
553.4713, 116.5860
553.9534, 116.8310
554.4355, 116.5679
554.9177, 116.2507
555.3998, 115.9455
555.8819, 115.7673
556.3640, 115.9324
556.8461, 116.5090
557.3282, 116.8873
557.8104, 116.5777
558.2925, 115.0684
558.7746, 116.5485
559.2567, 117.3961
559.7388, 117.6453
560.2209, 115.5034
560.7031, 116.4490
561.1852, 116.1573
561.6673, 115.8149
562.1494, 117.1951
562.6315, 115.4009
563.1136, 116.7538
563.5958, 116.8505
564.0779, 117.5221
564.5600, 116.9487
565.0421, 116.7598
565.5242, 117.8164
566.0063, 118.1833
566.4885, 117.4666
566.9706, 118.1748
567.4527, 117.7823
567.9348, 117.2237
568.4169, 117.5091
568.8990, 117.6201
569.3812, 117.7168
569.8633, 117.9732
570.3454, 118.2148
570.8275, 118.0916
571.3096, 117.6362
571.7917, 117.3324
572.2739, 117.3894
572.7560, 117.6963
573.2381, 118.1154
573.7202, 118.7460
574.2023, 119.1067
574.6844, 118.9929
575.1666, 118.7368
575.6487, 118.4808
576.1308, 118.2761
576.6129, 118.2010
577.0950, 118.2998
577.5771, 118.5022
578.0593, 118.6726
578.5414, 118.8575
579.0235, 118.8811
579.5056, 118.5023
579.9877, 118.1750
580.4698, 118.0889
580.9520, 118.2165
581.4341, 118.4768
581.9162, 117.1525
582.3983, 119.3988
582.8804, 120.8378
583.3625, 121.5105
583.8447, 119.2658
584.3268, 120.6779
584.8089, 120.5570
585.2910, 120.3270
585.7731, 122.1159
586.2552, 120.0474
586.7374, 121.7073
587.2195, 121.8113
587.7016, 122.5572
588.1837, 121.7608
588.6658, 121.3777
589.1479, 122.4409
589.6301, 122.6283
590.1122, 121.4672
590.5943, 121.9677
591.0764, 120.9136
591.5585, 121.1030
592.0406, 121.2179
592.5228, 121.2002
593.0049, 121.1153
593.4870, 121.0268
593.9691, 120.9525
594.4512, 120.9055
594.9333, 120.9301
595.4155, 120.9978
595.8976, 120.9746
596.3797, 120.8384
596.8618, 120.6871
597.3439, 120.6452
597.8260, 120.5952
598.3082, 120.2287
598.7903, 119.3136
599.2724, 118.6700
599.7545, 118.7519
600.2366, 119.1174
600.7188, 119.3598
601.2009, 119.4198
601.6830, 119.3305
602.1651, 119.0994
602.6472, 118.7720
603.1293, 118.5166
603.6115, 118.3545
604.0936, 118.2279
604.5757, 118.1886
605.0578, 118.1310
605.5399, 117.9753
606.0220, 117.7418
606.5042, 117.5025
606.9863, 117.2865
607.4684, 117.1056
607.9505, 117.0756
608.4326, 117.1850
608.9147, 116.9118
609.3969, 115.9317
609.8790, 114.8760
610.3611, 114.4911
610.8432, 114.7174
611.3253, 114.8857
611.8074, 115.0034
612.2896, 114.9675
612.7717, 114.6251
613.2538, 114.1198
613.7359, 113.6893
614.2180, 113.4032
614.7001, 113.1794
615.1823, 112.9215
615.6644, 112.6271
616.1465, 112.3400
616.6286, 112.0597
617.1107, 111.7888
617.5928, 111.5311
618.0750, 111.2818
618.5571, 111.0224
619.0392, 110.7530
619.5213, 110.5321
620.0034, 110.4314
620.4855, 110.4043
620.9677, 110.3463
621.4498, 110.2528
621.9319, 110.1647
622.4140, 110.1261
622.8961, 110.0816
623.3782, 109.9077
623.8604, 109.5963
624.3425, 109.2054
624.8246, 108.4767
625.3067, 107.9058
625.7888, 108.0129
626.2709, 108.5445
626.7531, 108.8363
627.2352, 108.5561
627.7173, 108.0046
628.1994, 107.7751
628.6815, 107.9751
629.1636, 107.8662
629.6458, 107.0415
630.1279, 106.3859
630.6100, 106.4995
631.0921, 107.0214
631.5742, 107.3069
632.0563, 107.1503
632.5385, 106.8763
633.0206, 106.6658
633.5027, 106.5180
