##NAMES=Weddellite
##RRUFFID=R050242
##IDEAL CHEMISTRY=Ca(C_2_)^6+^O_4_&#183;2H_2_O
##LOCALITY=Biggs, Wasco County, Oregon, USA
##OWNER=RRUFF
##SOURCE=Marcus Origlieri
##DESCRIPTION=Isolated yellowish brown crystal
##STATUS=The identification of this mineral has been confirmed by X-ray diffraction and chemical analysis
##URL=rruff.info/R050242
##MEASURED CHEMISTRY=Ca_1.00_(C_2_O_4_)Â·2H_2_O ; C not measured
92.29974, 0.0000000E+00
92.78186, 0.0000000E+00
93.26398, 0.0000000E+00
93.74609, 776.7883
94.22821, 755.4067
94.71033, 758.8644
95.19244, 786.2720
95.67456, 834.0670
96.15668, 908.9247
96.63879, 1004.429
97.12091, 1096.668
97.60303, 1183.640
98.08514, 1273.562
98.56726, 1376.442
99.04938, 1492.708
99.53149, 1621.626
100.0136, 1762.807
100.4957, 1915.640
100.9778, 2076.964
101.4600, 2242.298
101.9421, 2417.960
102.4242, 2618.413
102.9063, 2849.335
103.3884, 3094.397
103.8705, 3335.999
104.3527, 3566.094
104.8348, 3827.811
105.3169, 4144.288
105.7990, 4505.605
106.2811, 4833.229
106.7632, 5111.042
107.2454, 5367.973
107.7275, 5622.929
108.2096, 5873.909
108.6917, 6130.506
109.1738, 6398.593
109.6559, 6684.276
110.1381, 6956.539
110.6202, 7196.828
111.1023, 7432.553
111.5844, 7692.848
112.0665, 7987.284
112.5486, 8301.082
113.0308, 8630.021
113.5129, 8973.745
113.9950, 9343.790
114.4771, 9746.158
114.9592, 10173.38
115.4413, 10620.46
115.9235, 11100.02
116.4056, 11587.26
116.8877, 12063.98
117.3698, 12533.66
117.8519, 12999.01
118.3340, 13468.45
118.8162, 13935.60
119.2983, 14382.88
119.7804, 14808.99
120.2625, 15215.56
120.7446, 15602.14
121.2267, 15980.65
121.7089, 16327.81
122.1910, 16616.52
122.6731, 16855.92
123.1552, 17086.85
123.6373, 17332.11
124.1194, 17582.66
124.6016, 17831.82
125.0837, 18072.55
125.5658, 18309.04
126.0479, 18538.75
126.5300, 18762.60
127.0121, 18996.40
127.4943, 19266.52
127.9764, 19556.11
128.4585, 19833.63
128.9406, 20060.91
129.4227, 20273.81
129.9048, 20531.70
130.3869, 20835.18
130.8691, 21177.78
131.3512, 21578.21
131.8333, 22024.73
132.3154, 22449.21
132.7975, 22799.45
133.2796, 23096.73
133.7618, 23419.47
134.2439, 23721.58
134.7260, 23925.98
135.2081, 24087.21
135.6902, 24263.49
136.1723, 24411.50
136.6545, 24500.51
137.1366, 24531.46
137.6187, 24574.85
138.1008, 24638.99
138.5829, 24710.43
139.0650, 24763.49
139.5472, 24797.82
140.0293, 24817.84
140.5114, 24818.73
140.9935, 24791.51
141.4756, 24791.94
141.9577, 24833.60
142.4399, 24901.74
142.9220, 24938.34
143.4041, 24926.96
143.8862, 24914.48
144.3683, 24930.46
144.8504, 24983.90
145.3326, 25043.87
145.8147, 25112.34
146.2968, 25187.04
146.7789, 25239.80
147.2610, 25255.81
147.7431, 25264.86
148.2253, 25288.49
148.7074, 25335.52
149.1895, 25383.24
149.6716, 25423.69
150.1537, 25456.07
150.6358, 25507.72
151.1180, 25626.03
151.6001, 25737.42
152.0822, 25779.21
152.5643, 25649.43
153.0464, 25558.52
153.5285, 25549.65
154.0107, 25633.94
154.4928, 25712.19
154.9749, 25791.96
155.4570, 25858.97
155.9391, 25899.40
156.4212, 25869.43
156.9034, 25852.90
157.3855, 25884.94
157.8676, 25981.75
158.3497, 26047.62
158.8318, 26039.90
159.3139, 25998.13
159.7961, 25972.63
160.2782, 25979.94
160.7603, 26002.01
161.2424, 26036.09
161.7245, 26087.13
162.2066, 26127.89
162.6888, 26138.26
163.1709, 26133.27
163.6530, 26137.50
164.1351, 26172.56
164.6172, 26210.37
165.0993, 26230.29
165.5815, 26219.99
166.0636, 26220.02
166.5457, 26263.50
167.0278, 26332.15
167.5099, 26387.87
167.9920, 26396.92
168.4742, 26395.27
168.9563, 26414.47
169.4384, 26469.94
169.9205, 26524.99
170.4026, 26561.32
170.8847, 26579.42
171.3669, 26579.17
171.8490, 26542.59
172.3311, 26495.43
172.8132, 26463.00
173.2953, 26447.46
173.7774, 26453.38
174.2596, 26487.83
174.7417, 26547.86
175.2238, 26623.22
175.7059, 26739.87
176.1880, 26858.68
176.6701, 26916.49
177.1523, 26872.18
177.6344, 26799.90
178.1165, 26783.85
178.5986, 26817.17
179.0807, 26861.06
179.5628, 26884.93
180.0450, 26899.97
180.5271, 26931.70
181.0092, 27000.32
181.4913, 27073.32
181.9734, 27096.75
182.4555, 27073.55
182.9377, 27038.88
183.4198, 27008.56
183.9019, 26987.21
184.3840, 26991.50
184.8661, 27040.14
185.3482, 27105.10
185.8304, 27127.38
186.3125, 27106.69
186.7946, 27082.83
187.2767, 27097.57
187.7588, 27141.79
188.2409, 27169.45
188.7231, 27149.98
189.2052, 27115.11
189.6873, 27161.78
190.1694, 27296.14
190.6515, 27437.39
191.1336, 27510.23
191.6158, 27519.27
192.0979, 27504.78
192.5800, 27469.22
193.0621, 27419.93
193.5442, 27381.06
194.0263, 27352.27
194.5085, 27334.45
194.9906, 27337.07
195.4727, 27359.21
195.9548, 27365.94
196.4369, 27338.08
196.9190, 27286.49
197.4012, 27272.12
197.8833, 27303.03
198.3654, 27339.47
198.8475, 27327.69
199.3296, 27264.47
199.8117, 27222.66
200.2939, 27233.65
200.7760, 27287.36
201.2581, 27300.32
201.7402, 27260.28
202.2223, 27212.13
202.7044, 27208.26
203.1866, 27252.87
203.6687, 27310.76
204.1508, 27386.91
204.6329, 27476.63
205.1150, 27495.86
205.5971, 27424.09
206.0793, 27326.36
206.5614, 27273.88
207.0435, 27270.11
207.5256, 27296.73
208.0077, 27359.06
208.4898, 27455.80
208.9720, 27529.46
209.4541, 27578.83
209.9362, 27606.71
210.4183, 27609.44
210.9004, 27576.57
211.3825, 27556.47
211.8647, 27566.91
212.3468, 27608.63
212.8289, 27631.58
213.3110, 27626.36
213.7931, 27616.35
214.2752, 27631.96
214.7574, 27682.53
215.2395, 27732.50
215.7216, 27773.42
216.2037, 27804.89
216.6858, 27838.52
217.1679, 27881.15
217.6500, 27917.72
218.1322, 27924.60
218.6143, 27884.31
219.0964, 27858.97
219.5785, 27869.96
220.0606, 27919.67
220.5427, 27947.65
221.0249, 27937.54
221.5070, 27923.55
221.9891, 27952.59
222.4712, 28056.74
222.9533, 28129.97
223.4354, 28134.24
223.9176, 28063.74
224.3997, 28030.66
224.8818, 28047.74
225.3639, 28088.21
225.8460, 28125.78
226.3281, 28163.47
226.8103, 28191.63
227.2924, 28203.99
227.7745, 28199.54
228.2566, 28207.39
228.7387, 28233.50
229.2208, 28265.66
229.7030, 28288.79
230.1851, 28292.64
230.6672, 28309.05
231.1493, 28352.82
231.6314, 28425.94
232.1135, 28464.71
232.5957, 28453.63
233.0778, 28424.34
233.5599, 28406.78
234.0420, 28402.33
234.5241, 28406.68
235.0062, 28418.54
235.4884, 28437.78
235.9705, 28470.92
236.4526, 28531.29
236.9347, 28592.13
237.4168, 28628.08
237.8989, 28628.63
238.3811, 28623.50
238.8632, 28609.88
239.3453, 28588.01
239.8274, 28599.51
240.3095, 28667.78
240.7916, 28742.90
241.2738, 28781.77
241.7559, 28768.29
242.2380, 28749.39
242.7201, 28722.59
243.2022, 28690.44
243.6843, 28701.06
244.1665, 28789.54
244.6486, 28880.65
245.1307, 28909.95
245.6128, 28831.95
246.0949, 28787.66
246.5770, 28808.07
247.0592, 28884.70
247.5413, 28931.90
248.0234, 28930.53
248.5055, 28923.41
248.9876, 28942.54
249.4697, 29005.90
249.9519, 29054.81
250.4340, 29080.68
250.9161, 29085.99
251.3982, 29085.01
251.8803, 29067.58
252.3624, 29057.00
252.8446, 29070.10
253.3267, 29119.04
253.8088, 29161.14
254.2909, 29189.54
254.7730, 29208.74
255.2551, 29239.59
255.7373, 29294.74
256.2194, 29341.54
256.7015, 29359.16
257.1836, 29335.85
257.6657, 29315.96
258.1478, 29300.46
258.6299, 29290.54
259.1121, 29289.96
259.5942, 29302.27
260.0763, 29318.18
260.5584, 29333.85
261.0405, 29349.13
261.5226, 29363.90
262.0048, 29376.16
262.4869, 29388.91
262.9690, 29408.97
263.4511, 29434.82
263.9332, 29470.66
264.4153, 29523.98
264.8975, 29606.70
265.3796, 29658.80
265.8617, 29671.84
266.3438, 29661.93
266.8259, 29656.99
267.3080, 29655.36
267.7902, 29663.38
268.2723, 29687.42
268.7544, 29731.91
269.2365, 29759.77
269.7186, 29762.55
270.2007, 29759.70
270.6829, 29787.44
271.1650, 29858.84
271.6471, 29913.55
272.1292, 29924.27
272.6113, 29889.91
273.0934, 29868.60
273.5756, 29861.75
274.0577, 29865.79
274.5398, 29876.87
275.0219, 29894.97
275.5040, 29919.83
275.9861, 29955.35
276.4683, 29999.75
276.9504, 30028.92
277.4325, 30040.20
277.9146, 30043.04
278.3967, 30042.64
278.8788, 30037.01
279.3610, 30046.22
279.8431, 30078.53
280.3252, 30129.57
280.8073, 30183.52
281.2894, 30244.54
281.7715, 30291.80
282.2537, 30295.08
282.7358, 30253.04
283.2179, 30235.26
283.7000, 30265.14
284.1821, 30322.12
284.6642, 30338.83
285.1464, 30311.96
285.6285, 30275.03
286.1106, 30246.33
286.5927, 30226.48
287.0748, 30226.42
287.5569, 30250.20
288.0391, 30291.52
288.5212, 30342.25
289.0033, 30402.86
289.4854, 30456.14
289.9675, 30491.73
290.4496, 30510.74
290.9318, 30516.22
291.4139, 30505.91
291.8960, 30489.30
292.3781, 30478.14
292.8602, 30472.78
293.3423, 30477.85
293.8245, 30510.52
294.3066, 30556.92
294.7887, 30565.81
295.2708, 30528.41
295.7529, 30480.19
296.2350, 30458.20
296.7172, 30461.86
297.1993, 30487.62
297.6814, 30545.74
298.1635, 30623.07
298.6456, 30694.86
299.1277, 30761.81
299.6099, 30816.07
300.0920, 30846.94
300.5741, 30858.10
301.0562, 30857.19
301.5383, 30838.21
302.0204, 30813.98
302.5026, 30800.71
302.9847, 30798.30
303.4668, 30808.45
303.9489, 30843.96
304.4310, 30891.05
304.9131, 30926.12
305.3953, 30936.24
305.8774, 30937.26
306.3595, 30938.99
306.8416, 30943.35
307.3237, 30961.07
307.8058, 31021.27
308.2880, 31091.15
308.7701, 31125.96
309.2522, 31099.63
309.7343, 31069.53
310.2164, 31090.10
310.6985, 31145.71
311.1807, 31190.96
311.6628, 31192.53
312.1449, 31178.24
312.6270, 31171.57
313.1091, 31176.75
313.5912, 31186.13
314.0734, 31185.79
314.5555, 31186.72
315.0376, 31208.96
315.5197, 31290.43
316.0018, 31373.38
316.4839, 31414.68
316.9661, 31405.13
317.4482, 31400.21
317.9303, 31431.91
318.4124, 31478.42
318.8945, 31514.75
319.3766, 31521.81
319.8588, 31527.50
320.3409, 31546.91
320.8230, 31580.50
321.3051, 31605.07
321.7872, 31613.98
322.2693, 31612.19
322.7515, 31603.63
323.2336, 31566.13
323.7157, 31547.12
324.1978, 31570.42
324.6799, 31626.90
325.1620, 31664.21
325.6442, 31646.82
326.1263, 31627.36
326.6084, 31632.69
327.0905, 31680.71
327.5726, 31730.94
328.0547, 31784.37
328.5369, 31837.93
329.0190, 31885.67
329.5011, 31946.35
329.9832, 31982.95
330.4653, 31976.27
330.9474, 31896.56
331.4296, 31852.02
331.9117, 31860.81
332.3938, 31897.60
332.8759, 31925.39
333.3580, 31932.08
333.8401, 31950.15
334.3223, 31996.62
334.8044, 32077.63
335.2865, 32118.42
335.7686, 32105.16
336.2507, 32066.49
336.7328, 32020.81
337.2150, 31944.93
337.6971, 31926.63
338.1792, 32003.97
338.6613, 32154.57
339.1434, 32238.06
339.6255, 32235.27
340.1076, 32209.75
340.5898, 32199.57
341.0719, 32203.72
341.5540, 32232.90
342.0361, 32293.96
342.5182, 32373.87
343.0003, 32448.98
343.4825, 32521.18
343.9646, 32569.17
344.4467, 32562.99
344.9288, 32508.93
345.4109, 32500.40
345.8930, 32550.56
346.3752, 32615.36
346.8573, 32622.87
347.3394, 32578.48
347.8215, 32548.25
348.3036, 32570.38
348.7857, 32625.20
349.2679, 32658.24
349.7500, 32669.52
350.2321, 32664.19
350.7142, 32637.70
351.1963, 32597.60
351.6784, 32563.45
352.1606, 32534.82
352.6427, 32522.29
353.1248, 32550.50
353.6069, 32613.95
354.0890, 32676.13
354.5711, 32717.89
355.0533, 32740.99
355.5354, 32741.22
356.0175, 32705.36
356.4996, 32680.16
356.9817, 32719.77
357.4638, 32802.56
357.9460, 32876.60
358.4281, 32915.08
358.9102, 32934.84
359.3923, 32945.89
359.8744, 32948.33
360.3565, 32949.61
360.8387, 32949.25
361.3208, 32951.13
361.8029, 32960.14
362.2850, 32978.36
362.7671, 33002.68
363.2492, 33032.32
363.7314, 33066.71
364.2135, 33103.86
364.6956, 33144.89
365.1777, 33186.53
365.6598, 33226.45
366.1419, 33264.98
366.6241, 33301.10
367.1062, 33356.26
367.5883, 33412.13
368.0704, 33413.16
368.5525, 33265.00
369.0346, 33136.13
369.5168, 33096.85
369.9989, 33198.29
370.4810, 33275.53
370.9631, 33330.86
371.4452, 33362.06
371.9273, 33362.07
372.4095, 33290.57
372.8916, 33248.14
373.3737, 33268.05
373.8558, 33353.25
374.3379, 33406.71
374.8200, 33422.35
375.3022, 33415.33
375.7843, 33390.34
376.2664, 33331.84
376.7485, 33308.59
377.2306, 33336.88
377.7127, 33402.87
378.1949, 33462.61
378.6770, 33514.86
379.1591, 33563.55
379.6412, 33612.71
380.1233, 33662.67
380.6054, 33697.30
381.0876, 33713.87
381.5697, 33719.28
382.0518, 33713.97
382.5339, 33699.61
383.0160, 33708.79
383.4981, 33783.19
383.9803, 33886.55
384.4624, 33892.74
384.9445, 33798.98
385.4266, 33697.94
385.9087, 33669.66
386.3908, 33698.53
386.8730, 33747.15
387.3551, 33819.03
387.8372, 33888.95
388.3193, 33927.47
388.8014, 33937.78
389.2835, 33931.79
389.7657, 33892.90
390.2478, 33853.00
390.7299, 33852.07
391.2120, 33901.72
391.6941, 33959.59
392.1762, 33996.09
392.6584, 34020.88
393.1405, 34050.07
393.6226, 34100.31
394.1047, 34147.34
394.5868, 34170.12
395.0689, 34169.32
395.5511, 34183.48
396.0332, 34271.09
396.5153, 34354.05
396.9974, 34372.22
397.4795, 34221.32
397.9616, 34112.27
398.4438, 34098.16
398.9259, 34156.09
399.4080, 34214.19
399.8901, 34285.58
400.3722, 34338.46
400.8543, 34354.85
401.3365, 34312.51
401.8186, 34299.80
402.3007, 34333.38
402.7828, 34386.14
403.2649, 34424.80
403.7470, 34441.70
404.2292, 34458.75
404.7113, 34481.05
405.1934, 34507.94
405.6755, 34529.00
406.1576, 34540.67
406.6397, 34554.51
407.1219, 34583.12
407.6040, 34630.16
408.0861, 34661.31
408.5682, 34669.04
409.0503, 34666.68
409.5324, 34683.96
410.0146, 34721.84
410.4967, 34754.07
410.9788, 34765.48
411.4609, 34760.14
411.9430, 34751.40
412.4251, 34737.30
412.9073, 34731.97
413.3894, 34753.78
413.8715, 34795.43
414.3536, 34835.50
414.8357, 34863.74
415.3178, 34891.16
415.8000, 34939.50
416.2821, 35002.70
416.7642, 35051.59
417.2463, 35050.89
417.7284, 35034.98
418.2105, 35046.41
418.6927, 35101.62
419.1748, 35143.68
419.6569, 35125.11
420.1390, 35074.58
420.6211, 35036.55
421.1032, 35040.21
421.5854, 35048.38
422.0675, 35034.82
422.5496, 35001.34
423.0317, 34999.62
423.5138, 35093.52
423.9959, 35191.37
424.4781, 35233.33
424.9602, 35134.89
425.4423, 35078.69
425.9244, 35124.53
426.4065, 35217.07
426.8886, 35228.78
427.3708, 35058.42
427.8529, 34933.54
428.3350, 34941.25
428.8171, 35108.30
429.2992, 35215.99
429.7813, 35236.23
430.2635, 35234.43
430.7456, 35281.42
431.2277, 35393.44
431.7098, 35485.19
432.1919, 35541.63
432.6740, 35568.10
433.1562, 35577.92
433.6383, 35569.43
434.1204, 35555.02
434.6025, 35540.73
435.0846, 35526.09
435.5667, 35505.58
436.0489, 35475.20
436.5310, 35454.72
437.0131, 35484.18
437.4952, 35547.35
437.9773, 35587.09
438.4594, 35560.75
438.9415, 35517.64
439.4236, 35528.22
439.9058, 35586.99
440.3879, 35652.34
440.8700, 35704.36
441.3521, 35746.30
441.8342, 35785.27
442.3163, 35829.86
442.7985, 35850.02
443.2806, 35801.49
443.7627, 35721.80
444.2448, 35670.01
444.7269, 35680.43
445.2090, 35709.80
445.6912, 35748.00
446.1733, 35793.90
446.6554, 35829.97
447.1375, 35850.11
447.6196, 35860.14
448.1017, 35863.25
448.5839, 35832.74
449.0660, 35832.06
449.5481, 35881.03
450.0302, 35955.31
450.5123, 36003.40
450.9944, 36021.23
451.4766, 36019.12
451.9587, 35991.25
452.4408, 35935.08
452.9229, 35913.94
453.4050, 35934.21
453.8871, 35973.74
454.3693, 36010.73
454.8514, 36044.50
455.3335, 36103.21
455.8156, 36208.71
456.2977, 36316.58
456.7798, 36314.05
457.2620, 36210.01
457.7441, 36125.32
458.2262, 36141.64
458.7083, 36219.87
459.1904, 36278.25
459.6725, 36313.63
460.1547, 36338.21
460.6368, 36347.88
461.1189, 36357.16
461.6010, 36393.57
462.0831, 36494.75
462.5652, 36583.73
463.0474, 36589.11
463.5295, 36534.48
464.0116, 36485.68
464.4937, 36468.31
464.9758, 36468.98
465.4579, 36486.77
465.9401, 36526.31
466.4222, 36553.53
466.9043, 36528.91
467.3864, 36502.57
467.8685, 36521.73
468.3506, 36666.38
468.8328, 36766.71
469.3149, 36786.10
469.7970, 36746.63
470.2791, 36732.14
470.7612, 36755.27
471.2433, 36784.84
471.7255, 36805.86
472.2076, 36814.38
472.6897, 36844.85
473.1718, 36908.48
473.6539, 36972.77
474.1360, 36993.59
474.6182, 36968.41
475.1003, 36951.50
475.5824, 36952.84
476.0645, 36971.30
476.5466, 37012.04
477.0287, 37072.95
477.5109, 37128.16
477.9930, 37160.71
478.4751, 37176.32
478.9572, 37183.53
479.4393, 37182.18
479.9214, 37180.40
480.4036, 37196.20
480.8857, 37214.01
481.3678, 37208.50
481.8499, 37141.56
482.3320, 37084.08
482.8141, 37088.18
483.2963, 37138.92
483.7784, 37189.63
484.2605, 37232.22
484.7426, 37263.01
485.2247, 37276.16
485.7068, 37265.15
486.1890, 37264.24
486.6711, 37261.43
487.1532, 37280.36
487.6353, 37345.56
488.1174, 37505.47
488.5995, 37631.59
489.0817, 37697.77
489.5638, 37722.29
490.0459, 37772.28
490.5280, 37862.80
491.0101, 37939.16
491.4922, 37967.02
491.9744, 37944.77
492.4565, 37960.62
492.9386, 38017.78
493.4207, 38096.02
493.9028, 38183.22
494.3849, 38276.01
494.8671, 38347.72
495.3492, 38387.18
495.8313, 38413.76
496.3134, 38455.93
496.7955, 38511.05
497.2776, 38569.57
497.7598, 38633.59
498.2419, 38694.93
498.7240, 38731.57
499.2061, 38743.87
499.6882, 38786.21
500.1703, 38931.15
500.6525, 39101.98
501.1346, 39226.09
501.6167, 39270.44
502.0988, 39293.34
502.5809, 39301.49
503.0630, 39299.48
503.5452, 39296.80
504.0273, 39255.00
504.5094, 39253.12
504.9915, 39333.51
505.4736, 39500.22
505.9557, 39594.28
506.4379, 39590.52
506.9200, 39545.37
507.4021, 39489.72
507.8842, 39414.90
508.3663, 39377.98
508.8484, 39404.36
509.3306, 39434.63
509.8127, 39342.65
510.2948, 39132.97
510.7769, 38965.68
511.2590, 38920.16
511.7411, 38949.77
512.2233, 38948.80
512.7054, 38919.67
513.1875, 38883.42
513.6696, 38856.53
514.1517, 38831.26
514.6339, 38793.72
515.1160, 38738.31
515.5981, 38685.85
516.0802, 38639.52
516.5623, 38606.51
517.0444, 38596.63
517.5266, 38656.59
518.0087, 38694.53
518.4908, 38660.25
518.9729, 38570.06
519.4550, 38500.39
519.9371, 38472.09
520.4193, 38459.97
520.9014, 38456.09
521.3835, 38462.41
521.8656, 38467.95
522.3477, 38471.44
522.8298, 38475.76
523.3120, 38482.77
523.7941, 38491.32
524.2762, 38510.64
524.7583, 38548.36
525.2404, 38591.21
525.7225, 38606.96
526.2047, 38596.16
526.6868, 38575.89
527.1689, 38541.81
527.6510, 38506.75
528.1331, 38512.59
528.6152, 38558.40
529.0974, 38600.95
529.5795, 38592.82
530.0616, 38565.53
530.5437, 38571.39
531.0258, 38639.51
531.5079, 38686.66
531.9901, 38635.20
532.4722, 38535.48
532.9543, 38466.33
533.4364, 38461.01
533.9185, 38480.53
534.4006, 38524.38
534.8828, 38587.80
535.3649, 38635.38
535.8470, 38638.92
536.3291, 38649.41
536.8112, 38696.52
537.2933, 38804.61
537.7755, 38843.70
538.2576, 38778.05
538.7397, 38692.14
539.2218, 38688.14
539.7039, 38774.65
540.1860, 38854.93
540.6682, 38916.68
541.1503, 38954.42
541.6324, 38946.48
542.1145, 38897.14
542.5966, 38847.86
543.0787, 38810.22
543.5609, 38790.38
544.0430, 38813.14
544.5251, 38875.54
545.0072, 38923.31
545.4893, 38886.16
545.9714, 38830.32
546.4536, 38831.92
546.9357, 38933.92
547.4178, 39021.27
547.8999, 39035.50
548.3820, 39010.22
548.8641, 38991.74
549.3463, 38999.56
549.8284, 39002.30
550.3105, 38978.11
550.7926, 38938.32
551.2747, 38949.87
551.7568, 39051.35
552.2390, 39140.69
552.7211, 39166.70
553.2032, 39122.43
553.6853, 39097.64
554.1674, 39095.31
554.6495, 39103.23
555.1317, 39107.98
555.6138, 39111.32
556.0959, 39128.84
556.5780, 39169.34
557.0601, 39211.13
557.5422, 39218.30
558.0244, 39201.81
558.5065, 39192.73
558.9886, 39218.73
559.4707, 39249.29
559.9528, 39245.16
560.4349, 39215.20
560.9171, 39214.60
561.3992, 39316.16
561.8813, 39419.49
562.3634, 39447.58
562.8455, 39351.61
563.3276, 39309.76
563.8098, 39386.12
564.2919, 39500.11
564.7740, 39582.36
565.2561, 39620.05
565.7382, 39649.33
566.2203, 39673.18
566.7025, 39691.09
567.1846, 39705.52
567.6667, 39719.80
568.1488, 39710.64
568.6309, 39655.81
569.1130, 39573.75
569.5952, 39531.95
570.0773, 39530.34
570.5594, 39547.15
571.0415, 39574.77
571.5236, 39608.00
572.0057, 39637.91
572.4879, 39663.81
572.9700, 39687.20
573.4521, 39704.76
573.9342, 39721.98
574.4163, 39745.33
574.8984, 39796.55
575.3806, 39830.53
575.8627, 39814.26
576.3448, 39769.81
576.8269, 39759.63
577.3090, 39833.37
577.7911, 39888.08
578.2733, 39882.46
578.7554, 39818.66
579.2375, 39819.24
579.7196, 39907.41
580.2017, 40003.75
580.6838, 40049.48
581.1660, 40045.25
581.6481, 40053.17
582.1302, 40077.80
582.6123, 40107.59
583.0944, 40137.29
583.5765, 40161.60
584.0587, 40160.90
584.5408, 40114.44
585.0229, 40067.80
585.5050, 40075.11
585.9871, 40118.61
586.4692, 40154.46
586.9513, 40151.54
587.4334, 40147.71
587.9155, 40162.39
588.3976, 40195.77
