##NAMES=Weeksite
##RRUFFID=R050330
##IDEAL CHEMISTRY=K_2_(U^6+^O_2_)_2_(Si_5_O_13_)&#183;4H_2_O
##LOCALITY=Anderson mine, Yavapai County, Arizona, USA
##OWNER=RRUFF
##SOURCE=Lloyd Twaites
##DESCRIPTION=Yellowish green flattened plates, associated with reddish-orange carnotite, R070647. Sample was used in the Fejfarova et al (2012) study.
##STATUS=The identification of this mineral is confirmed by single-crystal X-ray diffraction and chemical analysis.
##URL=rruff.info/R050330
##MEASURED CHEMISTRY=(K_1.84_Ba_0.06_Ca_0.02_)_Σ=1.92_(U_1.00_O_2_)_2_(Si_5.00_O_13_)·1.2H_2_O
139.6302, 1282.114
140.1123, 1318.488
140.5944, 1355.141
141.0765, 1386.535
141.5586, 1419.394
142.0408, 1458.574
142.5229, 1505.838
143.0050, 1560.653
143.4871, 1622.541
143.9692, 1699.197
144.4513, 1771.375
144.9335, 1834.145
145.4156, 1893.905
145.8977, 1955.466
146.3798, 2020.932
146.8619, 2090.748
147.3440, 2165.568
147.8261, 2253.211
148.3083, 2336.775
148.7904, 2418.456
149.2725, 2494.365
149.7546, 2560.052
150.2367, 2613.431
150.7188, 2657.132
151.2010, 2698.679
151.6831, 2741.840
152.1652, 2777.965
152.6473, 2805.359
153.1294, 2825.422
153.6115, 2837.573
154.0937, 2840.791
154.5758, 2839.919
155.0579, 2850.482
155.5400, 2892.402
156.0221, 2921.219
156.5042, 2919.942
156.9864, 2902.747
157.4685, 2891.523
157.9506, 2896.233
158.4327, 2912.743
158.9148, 2929.003
159.3969, 2943.910
159.8791, 2960.056
160.3612, 2976.300
160.8433, 2994.280
161.3254, 3017.987
161.8075, 3050.205
162.2896, 3087.447
162.7718, 3119.225
163.2539, 3139.251
163.7360, 3164.673
164.2181, 3204.170
164.7002, 3253.557
165.1823, 3303.599
165.6645, 3351.708
166.1466, 3396.301
166.6287, 3433.127
167.1108, 3460.882
167.5929, 3485.644
168.0750, 3506.828
168.5572, 3526.570
169.0393, 3552.624
169.5214, 3591.032
170.0035, 3633.735
170.4856, 3664.500
170.9677, 3681.199
171.4499, 3693.422
171.9320, 3707.528
172.4141, 3721.448
172.8962, 3725.792
173.3783, 3711.017
173.8604, 3691.827
174.3426, 3693.493
174.8247, 3721.616
175.3068, 3749.322
175.7889, 3759.947
176.2710, 3756.687
176.7531, 3753.097
177.2353, 3750.147
177.7174, 3752.968
178.1995, 3769.115
178.6816, 3801.210
179.1637, 3832.369
179.6458, 3850.724
180.1280, 3858.472
180.6101, 3867.834
181.0922, 3882.320
181.5743, 3899.812
182.0564, 3915.638
182.5385, 3929.001
183.0207, 3948.345
183.5028, 3986.129
183.9849, 4038.239
184.4670, 4076.351
184.9491, 4086.731
185.4312, 4088.032
185.9134, 4098.343
186.3955, 4117.824
186.8776, 4141.349
187.3597, 4164.692
187.8418, 4188.557
188.3239, 4219.803
188.8061, 4267.771
189.2882, 4313.953
189.7703, 4340.469
190.2524, 4348.650
190.7345, 4357.292
191.2166, 4380.533
191.6988, 4416.232
192.1809, 4448.730
192.6630, 4473.666
193.1451, 4498.073
193.6272, 4527.130
194.1093, 4560.411
194.5915, 4594.557
195.0736, 4627.825
195.5557, 4660.299
196.0378, 4691.816
196.5199, 4721.355
197.0020, 4751.449
197.4842, 4781.615
197.9663, 4812.948
198.4484, 4848.862
198.9305, 4897.142
199.4126, 4953.695
199.8947, 4998.352
200.3769, 5027.957
200.8590, 5047.672
201.3411, 5057.416
201.8232, 5060.865
202.3053, 5066.963
202.7874, 5081.912
203.2696, 5103.906
203.7517, 5127.318
204.2338, 5159.936
204.7159, 5179.909
205.1980, 5164.979
205.6801, 5132.547
206.1623, 5116.229
206.6444, 5142.292
207.1265, 5194.870
207.6086, 5223.732
208.0907, 5218.452
208.5728, 5208.119
209.0549, 5210.185
209.5371, 5215.025
210.0192, 5207.788
210.5013, 5178.701
210.9834, 5136.225
211.4655, 5098.920
211.9476, 5066.266
212.4298, 5040.933
212.9119, 5028.986
213.3940, 5022.420
213.8761, 5013.392
214.3582, 4999.822
214.8403, 4980.433
215.3225, 4949.549
215.8046, 4900.141
216.2867, 4860.555
216.7688, 4850.506
217.2509, 4849.272
217.7330, 4839.517
218.2152, 4816.299
218.6973, 4781.757
219.1794, 4732.512
219.6615, 4660.897
220.1436, 4606.565
220.6257, 4597.964
221.1079, 4601.301
221.5900, 4592.895
222.0721, 4567.235
222.5542, 4536.221
223.0363, 4514.493
223.5184, 4503.529
224.0006, 4490.224
224.4827, 4470.563
224.9648, 4448.318
225.4469, 4424.759
225.9290, 4400.358
226.4111, 4376.358
226.8933, 4352.555
227.3754, 4328.764
227.8575, 4312.520
228.3396, 4313.458
228.8217, 4314.229
229.3038, 4302.418
229.7860, 4279.316
230.2681, 4256.367
230.7502, 4241.275
231.2323, 4233.813
231.7144, 4232.137
232.1965, 4241.437
232.6787, 4250.045
233.1608, 4252.333
233.6429, 4248.748
234.1250, 4241.051
234.6071, 4225.805
235.0892, 4206.299
235.5714, 4198.193
236.0535, 4207.421
236.5356, 4218.073
237.0177, 4221.833
237.4998, 4220.976
237.9819, 4219.038
238.4641, 4214.369
238.9462, 4211.369
239.4283, 4222.746
239.9104, 4255.292
240.3925, 4283.643
240.8746, 4294.254
241.3568, 4293.938
241.8389, 4288.988
242.3210, 4278.456
242.8031, 4268.622
243.2852, 4269.005
243.7673, 4280.929
244.2495, 4296.264
244.7316, 4321.901
245.2137, 4344.278
245.6958, 4346.051
246.1779, 4318.802
246.6600, 4287.833
247.1422, 4278.301
247.6243, 4290.269
248.1064, 4307.243
248.5885, 4331.969
249.0706, 4353.433
249.5527, 4358.967
250.0349, 4346.446
250.5170, 4333.021
250.9991, 4331.020
251.4812, 4338.697
251.9633, 4345.689
252.4454, 4347.111
252.9276, 4351.626
253.4097, 4369.967
253.8918, 4400.894
254.3739, 4429.141
254.8560, 4445.354
255.3382, 4453.733
255.8203, 4463.019
256.3024, 4472.924
256.7845, 4487.267
257.2666, 4514.412
257.7487, 4549.900
258.2308, 4579.259
258.7130, 4597.896
259.1951, 4608.223
259.6772, 4609.161
260.1593, 4599.031
260.6414, 4595.148
261.1235, 4614.498
261.6057, 4649.240
262.0878, 4676.696
262.5699, 4687.675
263.0520, 4695.750
263.5341, 4713.841
264.0162, 4740.581
264.4984, 4764.104
264.9805, 4778.586
265.4626, 4785.146
265.9447, 4788.134
266.4268, 4785.184
266.9089, 4782.834
267.3911, 4786.994
267.8732, 4794.503
268.3553, 4795.099
268.8374, 4782.642
269.3195, 4766.427
269.8016, 4767.664
270.2838, 4792.755
270.7659, 4807.455
271.2480, 4795.732
271.7301, 4770.936
272.2122, 4750.191
272.6943, 4737.263
273.1765, 4730.267
273.6586, 4728.262
274.1407, 4732.878
274.6228, 4733.484
275.1049, 4727.854
275.5870, 4719.153
276.0692, 4709.063
276.5513, 4698.077
277.0334, 4687.244
277.5155, 4676.964
277.9976, 4667.284
278.4797, 4661.746
278.9619, 4657.569
279.4440, 4659.542
279.9261, 4679.271
280.4082, 4707.887
280.8903, 4719.785
281.3724, 4696.994
281.8546, 4650.070
282.3367, 4632.836
282.8188, 4667.069
283.3009, 4703.139
283.7830, 4738.571
284.2651, 4769.751
284.7473, 4792.025
285.2294, 4803.518
285.7115, 4807.623
286.1936, 4810.391
286.6757, 4805.348
287.1578, 4810.170
287.6400, 4832.460
288.1221, 4858.631
288.6042, 4881.740
289.0863, 4899.122
289.5684, 4907.217
290.0505, 4897.848
290.5327, 4860.803
291.0148, 4854.587
291.4969, 4913.931
291.9790, 4969.017
292.4611, 4987.503
292.9432, 4976.462
293.4254, 4960.793
293.9075, 4958.330
294.3896, 4967.679
294.8717, 4975.235
295.3538, 4976.852
295.8359, 4982.218
296.3181, 4998.549
296.8002, 5018.164
297.2823, 5029.331
297.7644, 5025.896
298.2465, 5016.935
298.7286, 5024.153
299.2108, 5057.904
299.6929, 5080.274
300.1750, 5078.332
300.6571, 5066.113
301.1392, 5050.353
301.6213, 5032.832
302.1035, 5018.425
302.5856, 5014.796
303.0677, 5022.429
303.5498, 5024.768
304.0319, 5020.239
304.5140, 5008.988
304.9962, 4990.186
305.4783, 4964.933
305.9604, 4937.542
306.4425, 4907.995
306.9246, 4878.381
307.4067, 4854.692
307.8889, 4837.807
308.3710, 4825.291
308.8531, 4818.064
309.3352, 4813.876
309.8173, 4810.246
310.2994, 4812.644
310.7816, 4808.602
311.2637, 4775.893
311.7458, 4716.212
312.2279, 4671.607
312.7100, 4664.997
313.1921, 4680.941
313.6743, 4690.884
314.1564, 4696.103
314.6385, 4691.995
315.1206, 4669.114
315.6027, 4635.870
316.0848, 4610.829
316.5670, 4599.143
317.0491, 4594.479
317.5312, 4589.206
318.0133, 4582.819
318.4954, 4580.454
318.9775, 4585.295
319.4597, 4592.791
319.9418, 4599.694
320.4239, 4605.494
320.9060, 4610.089
321.3881, 4613.355
321.8702, 4615.256
322.3524, 4615.691
322.8345, 4607.693
323.3166, 4605.874
323.7987, 4619.622
324.2808, 4642.724
324.7629, 4664.660
325.2451, 4680.719
325.7272, 4690.991
326.2093, 4695.200
326.6914, 4671.775
327.1735, 4672.984
327.6556, 4719.601
328.1378, 4777.185
328.6199, 4817.909
329.1020, 4836.784
329.5841, 4846.943
330.0662, 4863.863
330.5483, 4889.896
331.0305, 4910.145
331.5126, 4911.739
331.9947, 4920.319
332.4768, 4952.940
332.9589, 4999.845
333.4410, 5040.303
333.9232, 5061.088
334.4053, 5065.316
334.8874, 5062.622
335.3695, 5045.490
335.8516, 5036.048
336.3337, 5048.668
336.8159, 5066.535
337.2980, 5073.057
337.7801, 5063.275
338.2622, 5045.239
338.7443, 5023.761
339.2264, 4998.094
339.7086, 4986.840
340.1907, 5003.530
340.6728, 5025.341
341.1549, 5034.129
341.6370, 5031.245
342.1191, 5027.917
342.6013, 5027.402
343.0834, 5031.079
343.5655, 5045.368
344.0476, 5073.822
344.5297, 5096.850
345.0118, 5096.363
345.4940, 5080.630
345.9761, 5071.572
346.4582, 5074.769
346.9403, 5081.675
347.4224, 5089.960
347.9045, 5097.812
348.3867, 5098.668
348.8688, 5089.792
349.3509, 5072.815
349.8330, 5048.511
350.3151, 5012.748
350.7972, 4983.110
351.2794, 4969.473
351.7615, 4959.744
352.2436, 4942.206
352.7257, 4914.869
353.2078, 4880.331
353.6899, 4839.776
354.1721, 4792.338
354.6542, 4751.042
355.1363, 4726.092
355.6184, 4695.370
356.1005, 4641.555
356.5826, 4577.162
357.0648, 4528.327
357.5469, 4509.245
358.0290, 4506.803
358.5111, 4483.334
358.9932, 4422.115
359.4753, 4367.708
359.9575, 4322.569
360.4396, 4285.129
360.9217, 4257.748
361.4038, 4238.975
361.8859, 4220.538
362.3680, 4190.661
362.8502, 4148.506
363.3322, 4120.638
363.8144, 4119.557
364.2965, 4117.719
364.7786, 4103.850
365.2607, 4080.795
365.7428, 4053.856
366.2249, 4025.203
366.7071, 3994.447
367.1892, 3956.057
367.6713, 3907.230
368.1534, 3876.707
368.6355, 3887.486
369.1176, 3913.137
369.5998, 3920.834
370.0819, 3907.120
370.5640, 3889.748
371.0461, 3876.104
371.5282, 3865.751
372.0103, 3859.403
372.4925, 3858.064
372.9746, 3854.908
373.4567, 3842.254
373.9388, 3820.335
374.4209, 3801.779
374.9030, 3786.580
375.3852, 3775.341
375.8673, 3774.342
376.3494, 3778.209
376.8315, 3769.842
377.3136, 3738.750
377.7957, 3696.282
378.2779, 3672.193
378.7600, 3687.534
379.2421, 3693.385
379.7242, 3685.451
380.2063, 3670.100
380.6884, 3647.737
381.1706, 3621.167
381.6527, 3601.414
382.1348, 3602.549
382.6169, 3626.580
383.0990, 3632.368
383.5811, 3593.920
384.0633, 3564.795
384.5454, 3565.129
385.0275, 3581.844
385.5096, 3596.739
385.9917, 3602.604
386.4738, 3599.102
386.9560, 3582.953
387.4381, 3551.428
387.9202, 3522.045
388.4023, 3492.593
388.8844, 3472.035
389.3665, 3470.953
389.8487, 3487.962
390.3308, 3504.294
390.8129, 3510.018
391.2950, 3507.286
391.7771, 3498.165
392.2592, 3481.110
392.7414, 3467.977
393.2235, 3467.895
393.7056, 3477.839
394.1877, 3487.418
394.6698, 3500.317
395.1519, 3507.556
395.6341, 3500.990
396.1162, 3485.768
396.5983, 3472.191
397.0804, 3463.441
397.5625, 3457.759
398.0446, 3451.992
398.5268, 3443.313
399.0089, 3445.424
399.4910, 3473.801
399.9731, 3499.088
400.4552, 3500.856
400.9373, 3483.677
401.4195, 3463.604
401.9016, 3450.378
402.3837, 3443.909
402.8658, 3444.233
403.3479, 3458.724
403.8300, 3468.461
404.3122, 3468.254
404.7943, 3464.755
405.2764, 3465.165
405.7585, 3470.047
406.2406, 3471.854
406.7227, 3461.104
407.2049, 3438.354
407.6870, 3417.133
408.1691, 3394.342
408.6512, 3378.830
409.1333, 3380.627
409.6154, 3391.494
410.0976, 3396.477
410.5797, 3388.664
411.0618, 3376.750
411.5439, 3368.477
412.0260, 3363.740
412.5081, 3362.228
412.9903, 3364.355
413.4724, 3368.844
413.9545, 3374.767
414.4366, 3382.598
414.9187, 3387.859
415.4008, 3388.662
415.8830, 3387.314
416.3651, 3385.807
416.8472, 3384.195
417.3293, 3381.471
417.8114, 3376.720
418.2935, 3370.493
418.7757, 3366.003
419.2578, 3364.358
419.7399, 3363.145
420.2220, 3365.246
420.7041, 3365.944
421.1862, 3357.786
421.6684, 3340.788
422.1505, 3325.333
422.6326, 3324.541
423.1147, 3339.677
423.5968, 3350.342
424.0789, 3354.197
424.5611, 3356.204
425.0432, 3359.566
425.5253, 3362.130
426.0074, 3359.825
426.4895, 3349.974
426.9716, 3337.993
427.4538, 3330.476
427.9359, 3327.260
428.4180, 3325.532
428.9001, 3325.547
429.3822, 3325.483
429.8643, 3323.005
430.3465, 3318.325
430.8286, 3313.887
431.3107, 3307.563
431.7928, 3303.682
432.2749, 3307.728
432.7570, 3318.793
433.2392, 3331.180
433.7213, 3342.332
434.2034, 3351.793
434.6855, 3357.971
435.1676, 3366.677
435.6497, 3363.625
436.1319, 3335.659
436.6140, 3303.851
437.0961, 3281.829
437.5782, 3273.592
438.0603, 3282.620
438.5424, 3317.410
439.0246, 3374.914
439.5067, 3401.237
439.9888, 3373.809
440.4709, 3347.174
440.9530, 3335.319
441.4352, 3331.637
441.9173, 3330.127
442.3994, 3329.343
442.8815, 3326.721
443.3636, 3315.184
443.8457, 3297.419
444.3279, 3294.701
444.8100, 3316.045
445.2921, 3339.056
445.7742, 3344.526
446.2563, 3337.015
446.7384, 3328.758
447.2206, 3322.163
447.7027, 3315.175
448.1848, 3302.789
448.6669, 3288.869
449.1490, 3284.853
449.6311, 3295.461
450.1133, 3312.970
450.5954, 3326.136
451.0775, 3334.885
451.5596, 3338.329
452.0417, 3330.707
452.5238, 3323.586
453.0060, 3324.793
453.4881, 3331.543
453.9702, 3336.256
454.4523, 3334.449
454.9344, 3328.786
455.4165, 3325.921
455.8987, 3326.073
456.3808, 3328.446
456.8629, 3331.704
457.3450, 3338.217
457.8271, 3354.421
458.3092, 3377.624
458.7914, 3392.469
459.2735, 3383.651
459.7556, 3362.440
460.2377, 3348.793
460.7198, 3342.927
461.2019, 3345.426
461.6841, 3359.677
462.1662, 3380.447
462.6483, 3396.314
463.1304, 3404.849
463.6125, 3415.467
464.0946, 3434.568
464.5768, 3454.873
465.0589, 3468.063
465.5410, 3473.642
466.0231, 3476.060
466.5052, 3477.807
466.9873, 3479.819
467.4695, 3490.697
467.9516, 3525.112
468.4337, 3549.975
468.9158, 3554.762
469.3979, 3552.515
469.8800, 3554.566
470.3622, 3563.392
470.8443, 3575.516
471.3264, 3588.245
471.8085, 3601.478
472.2906, 3614.509
472.7727, 3626.604
473.2549, 3639.968
473.7370, 3661.855
474.2191, 3683.671
474.7012, 3691.270
475.1833, 3676.818
475.6654, 3663.065
476.1476, 3670.880
476.6297, 3688.389
477.1118, 3688.448
477.5939, 3665.465
478.0760, 3638.971
478.5581, 3625.737
479.0403, 3625.958
479.5224, 3632.029
480.0045, 3658.120
480.4866, 3672.534
480.9687, 3663.163
481.4508, 3638.340
481.9330, 3604.184
482.4151, 3564.196
482.8972, 3529.228
483.3793, 3514.274
483.8614, 3521.456
484.3435, 3527.007
484.8257, 3532.185
485.3078, 3533.694
485.7899, 3526.492
486.2720, 3516.325
486.7541, 3513.006
487.2362, 3521.385
487.7183, 3530.401
488.2004, 3529.756
488.6826, 3521.282
489.1647, 3511.017
489.6468, 3499.476
490.1289, 3489.212
490.6110, 3482.534
491.0931, 3479.627
491.5753, 3478.598
492.0574, 3485.401
492.5395, 3487.497
493.0216, 3476.165
493.5037, 3458.095
493.9858, 3443.094
494.4680, 3434.334
494.9501, 3428.915
495.4322, 3423.153
495.9143, 3416.820
496.3964, 3411.964
496.8785, 3409.428
497.3607, 3407.540
497.8428, 3406.860
498.3249, 3406.104
498.8070, 3403.660
499.2891, 3399.083
499.7712, 3392.264
500.2534, 3378.485
500.7355, 3360.998
501.2176, 3358.702
501.6997, 3378.641
502.1818, 3400.466
502.6639, 3405.756
503.1461, 3396.837
503.6282, 3394.708
504.1103, 3413.545
504.5924, 3423.954
505.0745, 3405.466
505.5566, 3374.027
506.0388, 3350.961
506.5209, 3342.451
507.0030, 3346.752
507.4851, 3364.161
507.9672, 3396.217
508.4493, 3419.233
508.9315, 3424.474
509.4136, 3431.366
509.8957, 3451.704
510.3778, 3473.437
510.8599, 3480.095
511.3420, 3466.917
511.8242, 3449.374
512.3063, 3440.602
512.7884, 3439.388
513.2705, 3441.933
513.7526, 3448.637
514.2347, 3455.309
514.7169, 3458.810
515.1990, 3459.981
515.6811, 3462.405
516.1632, 3464.167
516.6453, 3469.888
517.1274, 3489.361
517.6096, 3509.178
518.0917, 3510.090
518.5738, 3491.480
519.0559, 3470.761
519.5380, 3462.628
520.0201, 3466.797
520.5023, 3481.638
520.9844, 3524.853
521.4665, 3548.877
521.9486, 3534.685
522.4307, 3505.801
522.9128, 3478.529
523.3950, 3456.386
523.8771, 3443.302
524.3592, 3448.474
524.8413, 3462.771
525.3234, 3467.644
525.8055, 3462.436
526.2877, 3446.872
526.7698, 3414.544
527.2519, 3377.105
527.7340, 3365.969
528.2161, 3392.724
528.6982, 3410.266
529.1804, 3405.281
529.6625, 3394.180
530.1446, 3387.929
530.6267, 3387.180
531.1088, 3389.577
531.5909, 3394.018
532.0731, 3399.149
532.5552, 3402.201
533.0373, 3404.726
533.5194, 3400.176
534.0015, 3382.252
534.4836, 3361.653
534.9658, 3340.786
535.4479, 3322.041
535.9300, 3312.378
536.4121, 3319.777
536.8942, 3332.390
537.3763, 3335.753
537.8585, 3332.952
538.3406, 3338.582
538.8227, 3358.733
539.3048, 3380.561
539.7869, 3388.966
540.2690, 3383.305
540.7512, 3365.531
541.2333, 3311.347
541.7154, 3273.217
542.1975, 3283.057
542.6796, 3315.698
543.1617, 3335.340
543.6439, 3330.658
544.1260, 3318.257
544.6081, 3321.058
545.0902, 3337.965
545.5723, 3337.065
546.0544, 3305.872
546.5366, 3282.850
547.0187, 3297.042
547.5008, 3330.056
547.9829, 3354.650
548.4650, 3368.622
548.9471, 3373.053
549.4293, 3357.509
549.9114, 3338.331
550.3935, 3338.358
550.8756, 3358.314
551.3577, 3383.097
551.8398, 3402.829
552.3220, 3418.273
552.8041, 3432.781
553.2862, 3445.714
553.7683, 3458.825
554.2504, 3472.052
554.7325, 3485.604
555.2147, 3500.699
555.6968, 3516.453
556.1789, 3529.804
556.6610, 3537.378
557.1431, 3543.613
557.6252, 3557.373
558.1074, 3577.761
558.5895, 3590.628
559.0716, 3587.635
559.5537, 3586.390
560.0358, 3608.696
560.5179, 3657.610
561.0001, 3703.770
561.4822, 3753.115
561.9643, 3792.963
562.4464, 3813.818
562.9285, 3823.530
563.4106, 3830.355
563.8928, 3837.871
564.3749, 3851.466
564.8570, 3879.364
565.3391, 3921.037
565.8212, 3961.469
566.3033, 4004.510
566.7855, 4038.013
567.2676, 4049.922
567.7497, 4052.468
568.2318, 4058.366
568.7139, 4068.847
569.1960, 4082.406
569.6782, 4106.695
570.1603, 4128.549
570.6424, 4128.514
571.1245, 4109.368
571.6066, 4092.256
572.0887, 4089.476
572.5709, 4093.439
573.0530, 4084.784
573.5351, 4050.193
574.0172, 4031.106
574.4993, 4039.769
574.9814, 4050.907
575.4636, 4061.448
575.9457, 4064.376
576.4278, 4044.487
576.9099, 3989.907
577.3920, 3930.271
577.8741, 3901.320
578.3563, 3895.604
578.8384, 3882.657
579.3205, 3856.627
579.8026, 3829.482
580.2847, 3812.714
580.7668, 3803.740
581.2490, 3781.051
581.7311, 3730.718
582.2132, 3687.266
582.6953, 3660.053
583.1774, 3639.510
583.6595, 3618.563
584.1417, 3595.952
584.6238, 3572.203
585.1059, 3547.536
585.5880, 3522.479
586.0701, 3499.886
586.5522, 3480.913
587.0344, 3453.421
587.5165, 3407.840
587.9986, 3361.044
588.4807, 3330.812
588.9628, 3315.113
589.4449, 3301.347
589.9271, 3291.360
590.4092, 3278.748
590.8913, 3258.173
591.3734, 3233.231
591.8555, 3207.806
592.3376, 3183.671
592.8198, 3165.731
593.3019, 3161.437
593.7840, 3169.295
594.2661, 3163.756
594.7482, 3136.434
595.2303, 3112.620
595.7125, 3102.101
596.1946, 3097.069
596.6767, 3092.935
597.1588, 3089.076
597.6409, 3082.129
598.1230, 3066.736
598.6052, 3050.479
599.0873, 3043.158
599.5694, 3042.117
600.0515, 3036.451
600.5336, 3021.719
601.0157, 3005.140
601.4979, 2997.623
601.9800, 3001.316
602.4621, 3001.401
602.9442, 2994.207
603.4263, 2987.654
603.9084, 2986.070
604.3906, 2985.051
604.8727, 2978.795
605.3548, 2966.097
605.8369, 2952.256
606.3190, 2940.500
606.8011, 2930.237
607.2833, 2920.433
607.7654, 2911.021
608.2475, 2900.493
608.7296, 2886.639
609.2117, 2875.293
609.6938, 2879.402
610.1760, 2910.776
610.6581, 2923.443
611.1402, 2905.488
611.6223, 2883.426
612.1044, 2862.316
612.5865, 2846.441
613.0687, 2844.003
613.5508, 2857.709
614.0329, 2871.409
614.5150, 2865.779
614.9971, 2846.927
615.4792, 2836.000
615.9614, 2834.735
616.4435, 2835.258
616.9256, 2834.143
617.4077, 2831.315
617.8898, 2826.048
618.3719, 2814.764
618.8541, 2809.557
619.3362, 2818.513
619.8183, 2826.264
620.3004, 2821.450
620.7825, 2809.403
621.2646, 2802.090
621.7468, 2804.439
622.2289, 2808.151
622.7110, 2801.966
623.1931, 2787.386
623.6752, 2774.367
624.1573, 2763.541
624.6395, 2754.332
625.1216, 2746.516
625.6037, 2740.030
626.0858, 2734.534
626.5679, 2728.765
627.0500, 2726.821
627.5322, 2735.914
628.0143, 2743.078
628.4964, 2739.034
628.9785, 2725.957
629.4606, 2708.332
629.9427, 2687.947
630.4249, 2670.404
630.9070, 2664.990
631.3891, 2671.006
631.8712, 2678.353
