##NAMES=Weeksite
##RRUFFID=R050330
##IDEAL CHEMISTRY=K_2_(U^6+^O_2_)_2_(Si_5_O_13_)&#183;4H_2_O
##LOCALITY=Anderson mine, Yavapai County, Arizona, USA
##OWNER=RRUFF
##SOURCE=Lloyd Twaites
##DESCRIPTION=Yellowish green flattened plates, associated with reddish-orange carnotite, R070647. Sample was used in the Fejfarova et al (2012) study.
##STATUS=The identification of this mineral is confirmed by single-crystal X-ray diffraction and chemical analysis.
##URL=rruff.info/R050330
##MEASURED CHEMISTRY=(K_1.84_Ba_0.06_Ca_0.02_)_Σ=1.92_(U_1.00_O_2_)_2_(Si_5.00_O_13_)·1.2H_2_O
183.9297, 50498.28
184.4118, 50511.99
184.8940, 50611.02
185.3761, 50782.52
185.8582, 50938.38
186.3403, 51026.30
186.8224, 51065.14
187.3046, 51132.63
187.7867, 51234.01
188.2688, 51354.94
188.7509, 51482.41
189.2330, 51615.91
189.7151, 51739.59
190.1973, 51849.11
190.6794, 51943.40
191.1615, 52015.92
191.6436, 52062.88
192.1257, 52094.45
192.6078, 52122.46
193.0900, 52145.49
193.5721, 52187.52
194.0542, 52276.75
194.5363, 52411.02
195.0184, 52525.85
195.5005, 52607.02
195.9826, 52666.32
196.4648, 52740.81
196.9469, 52833.14
197.4290, 52923.57
197.9111, 52996.13
198.3932, 53049.32
198.8753, 53097.39
199.3575, 53135.41
199.8396, 53170.25
200.3217, 53251.35
200.8038, 53395.38
201.2859, 53534.50
201.7680, 53586.95
202.2502, 53534.72
202.7323, 53509.21
203.2144, 53548.00
203.6965, 53647.78
204.1786, 53745.83
204.6607, 53841.49
205.1429, 53934.75
205.6250, 54032.44
206.1071, 54142.52
206.5892, 54219.91
207.0713, 54234.15
207.5534, 54177.18
208.0356, 54176.87
208.5177, 54247.02
208.9998, 54357.55
209.4819, 54465.38
209.9640, 54569.13
210.4461, 54674.83
210.9282, 54791.23
211.4104, 54929.82
211.8925, 55023.86
212.3746, 55062.00
212.8567, 55063.47
213.3388, 55068.46
213.8209, 55080.20
214.3031, 55088.30
214.7852, 55079.35
215.2673, 55032.11
215.7494, 55039.41
216.2315, 55119.45
216.7136, 55250.55
217.1958, 55372.33
217.6779, 55489.36
218.1600, 55590.77
218.6421, 55674.03
219.1242, 55744.97
219.6063, 55777.23
220.0885, 55741.49
220.5706, 55665.09
221.0527, 55676.29
221.5348, 55821.93
222.0169, 55986.00
222.4990, 56095.50
222.9812, 56130.25
223.4633, 56152.66
223.9454, 56155.37
224.4275, 56145.55
224.9096, 56183.36
225.3917, 56288.11
225.8739, 56417.05
226.3560, 56543.79
226.8381, 56688.86
227.3202, 56789.73
227.8023, 56825.50
228.2844, 56798.63
228.7665, 56788.82
229.2487, 56798.18
229.7308, 56822.50
230.2129, 56859.34
230.6950, 56911.66
231.1771, 56970.93
231.6592, 57041.21
232.1414, 57123.41
232.6235, 57186.47
233.1056, 57217.72
233.5877, 57240.96
234.0698, 57282.03
234.5519, 57353.76
235.0341, 57419.50
235.5162, 57465.50
235.9983, 57485.69
236.4804, 57539.58
236.9625, 57650.80
237.4446, 57777.08
237.9268, 57869.63
238.4089, 57922.30
238.8910, 57951.77
239.3731, 57948.82
239.8552, 57896.35
240.3373, 57909.33
240.8195, 58033.23
241.3016, 58192.01
241.7837, 58274.28
242.2658, 58230.52
242.7479, 58192.25
243.2300, 58194.97
243.7122, 58242.54
244.1943, 58320.73
244.6764, 58462.53
245.1585, 58615.47
245.6406, 58686.30
246.1227, 58612.47
246.6048, 58559.65
247.0870, 58591.09
247.5691, 58743.52
248.0512, 58856.59
248.5333, 58911.45
249.0154, 58936.37
249.4975, 58986.27
249.9797, 59077.13
250.4618, 59166.53
250.9439, 59237.16
251.4260, 59280.18
251.9081, 59333.45
252.3902, 59412.88
252.8724, 59496.08
253.3545, 59522.47
253.8366, 59443.13
254.3187, 59392.77
254.8008, 59441.06
255.2829, 59652.11
255.7651, 59784.92
256.2472, 59816.64
256.7293, 59780.63
257.2114, 59750.08
257.6935, 59709.68
258.1756, 59702.81
258.6577, 59762.29
259.1399, 59931.46
259.6220, 60037.31
260.1041, 60049.71
260.5862, 60009.07
261.0683, 60029.02
261.5504, 60138.57
262.0326, 60250.47
262.5147, 60319.09
262.9968, 60325.98
263.4789, 60349.98
263.9610, 60397.28
264.4431, 60461.77
264.9253, 60527.00
265.4074, 60595.71
265.8895, 60658.82
266.3716, 60710.81
266.8537, 60748.27
267.3358, 60787.04
267.8180, 60829.57
268.3001, 60873.21
268.7822, 60906.62
269.2643, 60919.11
269.7464, 60948.42
270.2285, 61028.91
270.7107, 61178.28
271.1928, 61282.66
271.6749, 61324.67
272.1570, 61323.68
272.6391, 61327.32
273.1212, 61331.71
273.6034, 61353.30
274.0855, 61412.66
274.5676, 61518.15
275.0497, 61591.05
275.5318, 61615.89
276.0139, 61612.25
276.4961, 61630.80
276.9782, 61674.65
277.4603, 61727.63
277.9424, 61787.52
278.4245, 61856.30
278.9066, 61893.09
279.3888, 61881.50
279.8709, 61849.03
280.3530, 61869.90
280.8351, 61951.41
281.3172, 62039.77
281.7993, 62095.94
282.2815, 62121.06
282.7636, 62162.01
283.2457, 62226.34
283.7278, 62304.70
284.2099, 62377.57
284.6920, 62444.63
285.1741, 62510.36
285.6563, 62577.03
286.1384, 62644.96
286.6205, 62714.28
287.1026, 62790.89
287.5847, 62859.96
288.0668, 62875.17
288.5490, 62836.68
289.0311, 62821.30
289.5132, 62897.43
289.9953, 63044.13
290.4774, 63167.53
290.9595, 63257.41
291.4417, 63321.29
291.9238, 63368.51
292.4059, 63399.06
292.8880, 63417.54
293.3701, 63423.50
293.8522, 63419.13
294.3344, 63406.30
294.8165, 63378.86
295.2986, 63359.55
295.7807, 63382.11
296.2628, 63443.05
296.7449, 63522.92
297.2271, 63622.13
297.7092, 63729.79
298.1913, 63832.40
298.6734, 63935.18
299.1555, 64007.04
299.6376, 63976.08
300.1198, 63870.33
300.6019, 63793.73
301.0840, 63822.75
301.5661, 63913.87
302.0482, 64006.61
302.5303, 64099.07
303.0125, 64177.91
303.4946, 64222.85
303.9767, 64243.05
304.4588, 64264.69
304.9409, 64300.02
305.4230, 64344.38
305.9052, 64394.20
306.3873, 64448.92
306.8694, 64507.81
307.3515, 64586.30
307.8336, 64667.73
308.3157, 64719.86
308.7979, 64679.41
309.2800, 64630.55
309.7621, 64656.78
310.2442, 64775.80
310.7263, 64893.47
311.2084, 64955.88
311.6906, 64978.09
312.1727, 64985.07
312.6548, 64957.08
313.1369, 64938.96
313.6190, 64969.15
314.1011, 65055.60
314.5833, 65135.47
315.0654, 65166.47
315.5475, 65177.19
316.0296, 65203.02
316.5117, 65288.30
316.9938, 65364.31
317.4760, 65390.07
317.9580, 65359.55
318.4402, 65341.45
318.9223, 65355.50
319.4044, 65393.98
319.8865, 65449.07
320.3686, 65565.41
320.8507, 65653.63
321.3329, 65665.48
321.8150, 65597.29
322.2971, 65564.19
322.7792, 65586.12
323.2613, 65653.27
323.7434, 65757.58
324.2256, 66005.84
324.7077, 66177.24
325.1898, 66196.18
325.6719, 66065.53
326.1540, 65983.85
326.6361, 65975.87
327.1183, 66011.40
327.6004, 66071.66
328.0825, 66204.73
328.5646, 66303.66
329.0467, 66344.33
329.5288, 66335.52
330.0110, 66347.77
330.4931, 66412.98
330.9752, 66468.76
331.4573, 66471.90
331.9394, 66355.63
332.4215, 66311.15
332.9037, 66376.67
333.3858, 66522.98
333.8679, 66639.52
334.3500, 66722.96
334.8321, 66783.56
335.3142, 66825.59
335.7964, 66845.66
336.2785, 66853.55
336.7606, 66835.05
337.2427, 66813.07
337.7248, 66854.74
338.2069, 66980.63
338.6891, 67107.02
339.1712, 67199.89
339.6533, 67258.30
340.1354, 67275.20
340.6175, 67231.59
341.0996, 67175.52
341.5818, 67201.50
342.0639, 67317.38
342.5460, 67433.85
343.0281, 67513.23
343.5102, 67557.34
343.9923, 67591.34
344.4745, 67612.16
344.9566, 67632.36
345.4387, 67671.71
345.9208, 67727.62
346.4029, 67781.01
346.8850, 67838.45
347.3672, 67886.41
347.8493, 67858.98
348.3314, 67748.63
348.8135, 67655.54
349.2956, 67704.79
349.7777, 67859.31
350.2599, 68008.22
350.7419, 68131.52
351.2241, 68218.08
351.7062, 68226.21
352.1883, 68161.55
352.6704, 68112.73
353.1525, 68169.55
353.6346, 68285.27
354.1168, 68386.58
354.5989, 68454.33
355.0810, 68497.78
355.5631, 68512.79
356.0452, 68505.02
356.5273, 68501.89
357.0095, 68523.39
357.4916, 68555.88
357.9737, 68588.59
358.4558, 68629.79
358.9379, 68652.03
359.4200, 68606.44
359.9022, 68526.32
360.3843, 68499.42
360.8664, 68605.23
361.3485, 68745.61
361.8306, 68865.06
362.3127, 68958.49
362.7949, 69025.44
363.2770, 69041.09
363.7591, 69033.58
364.2412, 69050.23
364.7233, 69131.75
365.2054, 69212.84
365.6876, 69266.98
366.1697, 69284.84
366.6518, 69307.41
367.1339, 69349.18
367.6160, 69393.49
368.0981, 69420.68
368.5803, 69401.00
369.0624, 69397.46
369.5445, 69429.27
370.0266, 69499.60
370.5087, 69549.60
370.9908, 69561.80
371.4730, 69569.20
371.9551, 69598.28
372.4372, 69650.14
372.9193, 69724.37
373.4014, 69835.58
373.8835, 69971.74
374.3657, 70062.32
374.8478, 70102.66
375.3299, 70105.53
375.8120, 70066.44
376.2941, 69973.95
376.7762, 69909.23
377.2584, 69879.89
377.7405, 69883.52
378.2226, 69924.34
378.7047, 70007.28
379.1868, 70088.25
379.6689, 70137.12
380.1511, 70158.20
380.6332, 70193.48
381.1153, 70244.45
381.5974, 70311.77
382.0795, 70413.93
382.5616, 70542.98
383.0438, 70637.61
383.5259, 70646.21
384.0080, 70605.20
384.4901, 70587.19
384.9722, 70592.58
385.4543, 70628.29
385.9364, 70739.02
386.4185, 70884.16
386.9007, 70976.93
387.3828, 70934.82
387.8649, 70864.52
388.3470, 70884.02
388.8291, 70983.66
389.3112, 71082.70
389.7934, 71121.77
390.2755, 71134.38
390.7576, 71155.25
391.2397, 71201.02
391.7218, 71246.70
392.2039, 71272.22
392.6861, 71285.80
393.1682, 71312.88
393.6503, 71378.92
394.1324, 71450.28
394.6145, 71508.30
395.0966, 71548.41
395.5788, 71579.39
396.0609, 71588.45
396.5430, 71591.91
397.0251, 71617.20
397.5072, 71691.22
397.9893, 71765.70
398.4715, 71838.85
398.9536, 71923.55
399.4357, 71941.70
399.9178, 71818.93
400.3999, 71676.91
400.8820, 71637.95
401.3642, 71756.86
401.8463, 71887.38
402.3284, 72019.48
402.8105, 72149.20
403.2926, 72226.19
403.7747, 72235.88
404.2569, 72219.53
404.7390, 72188.91
405.2211, 72127.08
405.7032, 72156.87
406.1853, 72323.25
406.6674, 72555.86
407.1496, 72680.24
407.6317, 72688.63
408.1138, 72664.98
408.5959, 72647.77
409.0780, 72636.55
409.5602, 72622.46
410.0423, 72599.91
410.5244, 72595.55
411.0065, 72667.91
411.4886, 72798.15
411.9707, 72898.98
412.4529, 72904.86
412.9350, 72868.30
413.4171, 72877.92
413.8992, 72933.09
414.3813, 72996.77
414.8634, 73054.02
415.3456, 73098.46
415.8277, 73116.49
416.3098, 73067.14
416.7919, 73033.66
417.2740, 73090.26
417.7561, 73217.95
418.2382, 73343.52
418.7203, 73438.32
419.2025, 73513.33
419.6846, 73576.82
420.1667, 73638.60
420.6488, 73671.32
421.1309, 73631.54
421.6130, 73562.45
422.0952, 73539.34
422.5773, 73633.12
423.0594, 73722.52
423.5415, 73766.14
424.0236, 73749.52
424.5057, 73746.36
424.9879, 73768.53
425.4700, 73797.56
425.9521, 73813.98
426.4342, 73788.52
426.9163, 73804.04
427.3984, 73893.88
427.8806, 74041.70
428.3627, 74119.56
428.8448, 74094.80
429.3269, 74069.03
429.8090, 74118.64
430.2911, 74257.35
430.7733, 74358.61
431.2554, 74408.73
431.7375, 74424.88
432.2196, 74434.13
432.7017, 74436.28
433.1838, 74437.98
433.6660, 74426.84
434.1481, 74416.01
434.6302, 74470.76
435.1123, 74599.06
435.5944, 74723.51
436.0765, 74746.16
436.5587, 74702.09
437.0408, 74681.27
437.5229, 74729.59
438.0050, 74799.89
438.4871, 74838.61
438.9692, 74851.64
439.4514, 74871.49
439.9335, 74928.69
440.4156, 74996.81
440.8977, 75047.62
441.3798, 75061.32
441.8619, 75088.20
442.3441, 75175.45
442.8262, 75289.83
443.3083, 75369.70
443.7904, 75348.88
444.2725, 75330.82
444.7546, 75367.52
445.2368, 75476.88
445.7189, 75549.75
446.2010, 75556.02
446.6831, 75529.39
447.1652, 75497.55
447.6473, 75434.11
448.1295, 75403.13
448.6116, 75413.46
449.0937, 75462.69
449.5758, 75546.86
450.0579, 75699.80
450.5400, 75823.80
451.0221, 75842.00
451.5042, 75723.27
451.9864, 75691.05
452.4685, 75774.43
452.9506, 75911.88
453.4327, 76011.50
453.9148, 76072.96
454.3969, 76106.49
454.8791, 76100.36
455.3612, 76070.47
455.8433, 76064.89
456.3254, 76083.66
456.8075, 76127.07
457.2896, 76229.27
457.7718, 76354.28
458.2539, 76412.05
458.7360, 76345.79
459.2181, 76260.80
459.7002, 76258.19
460.1823, 76324.74
460.6645, 76418.29
461.1466, 76552.13
461.6287, 76680.59
462.1108, 76762.30
462.5929, 76783.88
463.0750, 76805.59
463.5572, 76862.59
464.0393, 76929.81
464.5214, 76977.22
465.0035, 76978.00
465.4856, 76978.32
465.9677, 76998.31
466.4499, 77036.05
466.9320, 77040.40
467.4141, 76944.75
467.8962, 76873.97
468.3783, 76902.26
468.8604, 77101.02
469.3426, 77245.98
469.8247, 77319.34
470.3068, 77349.41
470.7889, 77394.49
471.2710, 77461.71
471.7531, 77516.66
472.2353, 77542.37
472.7174, 77542.16
473.1995, 77550.70
473.6816, 77569.23
474.1637, 77588.81
474.6458, 77593.66
475.1280, 77589.38
475.6101, 77603.48
476.0922, 77645.05
476.5743, 77703.34
477.0564, 77776.11
477.5385, 77856.75
478.0207, 77914.00
478.5028, 77925.35
478.9849, 77907.16
479.4670, 77859.84
479.9491, 77775.08
480.4312, 77728.91
480.9134, 77800.19
481.3955, 77924.88
481.8776, 78027.02
482.3597, 78056.91
482.8418, 78085.71
483.3239, 78144.53
483.8060, 78227.40
484.2881, 78288.23
484.7703, 78284.83
485.2524, 78284.50
485.7345, 78323.43
486.2166, 78447.54
486.6987, 78511.66
487.1808, 78475.42
487.6630, 78405.65
488.1451, 78416.26
488.6272, 78543.93
489.1093, 78646.43
489.5914, 78670.35
490.0735, 78631.51
490.5557, 78665.88
491.0378, 78787.63
491.5199, 78904.11
492.0020, 78929.13
492.4841, 78876.78
492.9662, 78826.30
493.4484, 78779.80
493.9305, 78762.61
494.4126, 78838.37
494.8947, 78980.61
495.3768, 79096.37
495.8589, 79105.11
496.3411, 79085.23
496.8232, 79137.30
497.3053, 79261.52
497.7874, 79352.25
498.2695, 79299.29
498.7516, 79205.20
499.2338, 79168.16
499.7159, 79272.27
500.1980, 79356.85
500.6801, 79341.73
501.1622, 79270.92
501.6443, 79254.90
502.1265, 79368.68
502.6086, 79482.84
503.0907, 79556.60
503.5728, 79583.46
504.0549, 79609.42
504.5370, 79622.92
505.0192, 79648.48
505.5013, 79720.34
505.9834, 79860.35
506.4655, 79954.30
506.9476, 79975.88
507.4297, 79949.64
507.9119, 79935.89
508.3940, 79934.89
508.8761, 79941.10
509.3582, 79951.44
509.8403, 79966.53
510.3224, 79982.40
510.8046, 79997.02
511.2867, 80033.95
511.7688, 80135.96
512.2509, 80273.81
512.7330, 80396.93
513.2151, 80499.85
513.6973, 80569.65
514.1794, 80586.44
514.6615, 80560.02
515.1436, 80521.99
515.6257, 80436.82
516.1078, 80381.48
516.5900, 80416.60
517.0721, 80577.14
517.5542, 80703.27
518.0363, 80753.71
518.5184, 80765.37
519.0005, 80776.69
519.4827, 80805.35
519.9648, 80802.60
520.4469, 80730.80
520.9290, 80625.09
521.4111, 80640.10
521.8932, 80821.41
522.3754, 80998.49
522.8575, 81074.04
523.3396, 81048.34
523.8217, 81050.48
524.3038, 81087.84
524.7859, 81125.90
525.2681, 81100.98
525.7502, 81036.44
526.2323, 81038.45
526.7144, 81172.57
527.1965, 81339.96
527.6786, 81398.45
528.1608, 81372.74
528.6429, 81357.40
529.1250, 81438.45
529.6071, 81532.04
530.0892, 81553.85
530.5714, 81481.87
531.0535, 81441.50
531.5356, 81532.74
532.0176, 81659.02
532.4998, 81724.77
532.9819, 81630.38
533.4640, 81571.70
533.9461, 81602.75
534.4282, 81692.27
534.9103, 81729.36
535.3925, 81659.79
535.8746, 81623.41
536.3567, 81688.64
536.8388, 81866.74
537.3209, 82003.54
537.8030, 82094.73
538.2852, 82152.88
538.7673, 82189.42
539.2494, 82204.18
539.7315, 82195.17
540.2136, 82154.30
540.6957, 82102.77
541.1779, 82063.37
541.6600, 82039.88
542.1421, 82048.09
542.6242, 82132.98
543.1063, 82233.70
543.5884, 82281.97
544.0706, 82274.05
544.5527, 82254.14
545.0348, 82210.38
545.5169, 82184.83
545.9990, 82218.36
546.4811, 82384.69
546.9633, 82521.65
547.4454, 82586.07
547.9275, 82597.05
548.4096, 82600.44
548.8917, 82576.64
549.3738, 82573.50
549.8560, 82609.72
550.3381, 82685.47
550.8202, 82748.70
551.3023, 82798.30
551.7844, 82838.01
552.2665, 82876.20
552.7487, 82912.76
553.2308, 82907.45
553.7129, 82838.37
554.1950, 82774.01
554.6771, 82848.55
555.1592, 83027.95
555.6414, 83164.38
556.1235, 83159.12
556.6056, 83103.30
557.0877, 83095.52
557.5698, 83130.96
558.0519, 83179.26
558.5341, 83249.91
559.0162, 83309.78
559.4983, 83324.48
559.9804, 83269.77
560.4625, 83231.73
560.9446, 83215.35
561.4268, 83233.97
561.9089, 83306.45
562.3910, 83513.48
562.8731, 83664.77
563.3552, 83711.19
563.8373, 83680.92
564.3195, 83704.63
564.8016, 83806.47
565.2837, 83895.83
565.7658, 83911.81
566.2479, 83857.85
566.7300, 83861.99
567.2122, 83934.59
567.6943, 84009.84
568.1764, 84020.23
568.6585, 83977.90
569.1406, 83906.84
569.6227, 83779.41
570.1049, 83689.25
570.5870, 83781.05
571.0691, 83989.97
571.5512, 84161.36
572.0333, 84198.89
572.5154, 84196.67
572.9976, 84196.28
573.4797, 84200.48
573.9618, 84219.46
574.4439, 84277.72
574.9260, 84336.23
575.4081, 84367.46
575.8903, 84336.54
576.3724, 84346.95
576.8545, 84418.79
577.3366, 84515.89
577.8187, 84586.72
578.3008, 84632.40
578.7830, 84641.05
579.2651, 84588.02
579.7472, 84507.91
580.2293, 84525.19
580.7114, 84636.38
581.1935, 84742.49
581.6757, 84755.48
582.1578, 84725.05
582.6399, 84753.27
583.1220, 84851.09
583.6041, 84940.76
584.0862, 84965.00
584.5684, 84946.45
585.0505, 84908.42
585.5326, 84810.32
586.0147, 84758.13
586.4968, 84833.54
586.9789, 84979.09
587.4611, 85063.14
587.9432, 84989.92
588.4253, 84941.81
588.9074, 84980.02
589.3895, 85102.66
589.8716, 85147.75
590.3538, 85077.34
590.8359, 85010.45
591.3180, 85054.84
591.8001, 85210.71
592.2822, 85257.19
592.7643, 85157.46
593.2465, 85031.55
593.7286, 85040.67
594.2107, 85154.53
594.6928, 85268.35
595.1749, 85359.41
595.6570, 85424.23
596.1392, 85451.59
596.6213, 85448.20
597.1034, 85436.16
597.5854, 85377.23
598.0676, 85352.36
598.5497, 85441.43
599.0318, 85670.77
599.5139, 85806.91
599.9960, 85711.12
600.4781, 85583.73
600.9603, 85557.76
601.4424, 85692.95
601.9245, 85797.09
602.4066, 85856.54
602.8887, 85889.79
603.3708, 85932.88
603.8530, 85988.30
604.3351, 86011.09
604.8172, 85971.55
605.2993, 85902.86
605.7814, 85876.50
606.2635, 85891.12
606.7457, 85937.01
607.2278, 86042.02
607.7099, 86157.27
608.1920, 86212.45
608.6741, 86198.59
609.1563, 86198.85
609.6384, 86306.99
610.1205, 86423.87
610.6026, 86458.95
611.0847, 86291.20
611.5668, 86186.80
612.0490, 86206.85
612.5311, 86299.14
613.0132, 86384.13
613.4953, 86463.04
613.9774, 86536.09
614.4595, 86612.67
614.9417, 86682.89
615.4238, 86678.54
615.9059, 86591.68
616.3880, 86507.69
616.8701, 86471.48
617.3522, 86479.68
617.8344, 86540.30
618.3165, 86656.38
618.7986, 86752.52
619.2807, 86739.97
619.7628, 86676.39
620.2449, 86631.68
620.7271, 86606.66
621.2092, 86635.35
621.6913, 86812.46
622.1734, 87037.79
622.6555, 87143.06
623.1376, 86966.86
623.6198, 86814.59
624.1019, 86733.94
624.5840, 86722.61
625.0661, 86777.40
625.5482, 86927.77
626.0303, 87074.83
626.5125, 87175.51
626.9946, 87230.40
627.4767, 87247.76
627.9588, 87224.96
628.4409, 87184.52
628.9230, 87146.04
629.4052, 87106.63
629.8873, 87047.90
630.3694, 86947.05
630.8515, 86884.90
631.3336, 86957.35
631.8157, 87104.63
632.2979, 87230.84
632.7800, 87288.35
633.2621, 87334.97
633.7442, 87394.87
634.2263, 87461.75
634.7084, 87499.00
635.1906, 87471.98
635.6727, 87461.70
636.1548, 87513.19
636.6369, 87630.47
637.1190, 87651.30
637.6011, 87547.59
638.0833, 87447.83
638.5654, 87481.17
639.0475, 87619.43
639.5296, 87720.88
640.0117, 87769.21
640.4938, 87782.16
640.9760, 87744.79
641.4581, 87691.85
641.9402, 87686.44
642.4223, 87797.52
642.9044, 87903.83
643.3865, 87945.17
643.8687, 87934.26
644.3508, 87904.60
644.8329, 87817.54
645.3150, 87761.86
645.7971, 87769.25
646.2792, 87837.64
646.7614, 87894.55
647.2435, 87922.00
647.7256, 87976.91
648.2077, 88125.80
648.6898, 88368.12
649.1719, 88492.16
649.6541, 88487.71
650.1362, 88412.41
650.6183, 88285.33
651.1004, 88136.77
651.5825, 88036.12
652.0646, 87996.94
652.5468, 88015.45
653.0289, 88127.05
653.5110, 88287.25
653.9931, 88421.18
654.4752, 88525.88
654.9573, 88580.55
655.4395, 88556.46
655.9216, 88468.63
656.4037, 88397.36
656.8858, 88332.69
657.3679, 88302.45
657.8500, 88333.69
658.3322, 88422.50
658.8143, 88446.36
659.2964, 88396.16
659.7785, 88335.46
660.2606, 88305.61
660.7427, 88306.18
661.2249, 88347.85
661.7070, 88439.12
662.1891, 88519.93
662.6712, 88517.35
663.1533, 88478.63
663.6354, 88469.59
664.1175, 88549.35
664.5996, 88604.92
665.0817, 88576.08
665.5638, 88500.20
666.0460, 88451.41
666.5281, 88434.49
667.0102, 88443.43
667.4923, 88485.73
667.9744, 88553.48
668.4565, 88610.98
668.9387, 88661.18
669.4208, 88687.29
669.9029, 88669.52
670.3850, 88620.23
670.8671, 88580.95
671.3492, 88551.70
671.8314, 88536.25
672.3135, 88537.55
672.7956, 88554.10
673.2777, 88589.34
673.7598, 88649.52
674.2419, 88701.27
674.7241, 88748.95
675.2062, 88772.11
675.6883, 88749.07
676.1704, 88587.03
