##NAMES=Weloganite
##RRUFFID=R050217
##IDEAL CHEMISTRY=Na_2_Sr_3_Zr^4+^(C^4+^O_3_)_6_&#183;3H_2_O
##LOCALITY=Francon Quarry, Montréal, Québec, Canada
##OWNER=RRUFF
##SOURCE=Marcus Origlieri
##DESCRIPTION=Tan colored tapered hexagonal single crystals
##STATUS=The identification of this mineral has been confirmed by X-ray diffraction and chemical analysis
##URL=rruff.info/R050217
##MEASURED CHEMISTRY=Na_2.00_(Sr_2.93_Ca_0.07_)_Σ=3_(Zr_0.90_Hf_0.10_)_Σ=1_(CO_3_)_6_·3H_2_O
92.35352, 314.0861
92.83563, 317.9564
93.31775, 319.5778
93.79987, 320.8477
94.28198, 317.4583
94.76410, 311.9987
95.24622, 305.2931
95.72833, 298.0455
96.21045, 290.5803
96.69257, 282.8095
97.17468, 275.2560
97.65680, 267.7699
98.13892, 260.8710
98.62103, 255.1591
99.10315, 250.6470
99.58527, 246.6899
100.0674, 242.1524
100.5495, 235.5748
101.0316, 230.2617
101.5137, 227.1064
101.9958, 225.3610
102.4780, 223.8887
102.9601, 221.8329
103.4422, 219.1083
103.9243, 217.3276
104.4064, 216.8770
104.8885, 216.6551
105.3707, 216.3638
105.8528, 215.8883
106.3349, 214.9753
106.8170, 213.2276
107.2991, 210.4968
107.7813, 207.8576
108.2634, 205.2820
108.7455, 202.8420
109.2276, 200.5989
109.7097, 198.5351
110.1918, 196.7417
110.6740, 195.3608
111.1561, 194.3354
111.6382, 193.4500
112.1203, 192.6026
112.6024, 191.7959
113.0845, 191.0512
113.5666, 190.0657
114.0488, 189.4492
114.5309, 189.6515
115.0130, 190.7142
115.4951, 192.2446
115.9772, 193.6284
116.4593, 194.4254
116.9415, 196.4282
117.4236, 200.3230
117.9057, 205.0409
118.3878, 209.8873
118.8699, 214.5715
119.3520, 219.2909
119.8342, 224.5071
120.3163, 230.6886
120.7984, 236.9269
121.2805, 243.6096
121.7626, 250.2268
122.2447, 255.9023
122.7269, 260.0326
123.2090, 262.9112
123.6911, 267.0812
124.1732, 273.3463
124.6553, 279.7380
125.1374, 285.3133
125.6196, 290.2729
126.1017, 295.5380
126.5838, 301.6316
127.0659, 308.6973
127.5480, 316.5760
128.0302, 325.6454
128.5123, 335.2811
128.9944, 344.9774
129.4765, 354.8210
129.9586, 364.3520
130.4407, 373.3181
130.9229, 381.7950
131.4050, 389.6943
131.8871, 396.6905
132.3692, 403.0664
132.8513, 409.6325
133.3334, 416.5916
133.8155, 423.5436
134.2977, 430.2250
134.7798, 436.7228
135.2619, 443.2627
135.7440, 449.8723
136.2261, 456.5170
136.7082, 463.8778
137.1904, 472.4414
137.6725, 481.3891
138.1546, 490.4821
138.6367, 499.7001
139.1188, 509.0154
139.6009, 518.5246
140.0831, 529.0518
140.5652, 537.5906
141.0473, 544.0218
141.5294, 548.9623
142.0115, 552.9216
142.4936, 555.9866
142.9758, 557.6360
143.4579, 556.7725
143.9400, 551.2838
144.4221, 546.8279
144.9042, 543.7236
145.3863, 541.8030
145.8685, 540.8223
146.3506, 540.6657
146.8327, 541.5111
147.3148, 544.1594
147.7969, 549.2753
148.2790, 553.9454
148.7612, 557.5438
149.2433, 559.9102
149.7254, 560.3978
150.2075, 558.5401
150.6896, 554.5040
151.1717, 549.1914
151.6539, 542.4402
152.1360, 534.7937
152.6181, 526.4690
153.1002, 517.3275
153.5823, 508.4187
154.0644, 500.6879
154.5466, 493.1943
155.0287, 485.3671
155.5108, 477.2042
155.9929, 468.1713
156.4750, 457.3233
156.9571, 444.2443
157.4393, 430.1129
157.9214, 415.3715
158.4035, 399.8364
158.8856, 383.1342
159.3677, 364.9644
159.8498, 345.8536
160.3320, 327.7086
160.8141, 309.7108
161.2962, 293.8674
161.7783, 280.8219
162.2604, 269.9517
162.7425, 260.4386
163.2247, 251.7186
163.7068, 243.8313
164.1889, 237.8897
164.6710, 234.6319
165.1531, 232.3630
165.6352, 231.2320
166.1174, 230.8116
166.5995, 230.3082
167.0816, 229.1456
167.5637, 227.3119
168.0458, 225.2929
168.5279, 222.8017
169.0101, 220.4107
169.4922, 218.6664
169.9743, 217.4845
170.4564, 216.0139
170.9385, 213.3546
171.4206, 209.6464
171.9028, 206.6898
172.3849, 205.0361
172.8670, 203.9155
173.3491, 202.3769
173.8312, 200.2377
174.3133, 198.6431
174.7955, 199.4202
175.2776, 201.5729
175.7597, 202.8045
176.2418, 201.6989
176.7239, 199.3367
177.2060, 197.8503
177.6882, 197.5647
178.1703, 197.6437
178.6524, 197.7592
179.1345, 197.8155
179.6166, 197.5714
180.0987, 196.4688
180.5809, 194.7935
181.0630, 194.3506
181.5451, 196.0655
182.0272, 197.9863
182.5093, 199.3344
182.9914, 200.2112
183.4736, 200.9188
183.9557, 201.6840
184.4378, 202.5126
184.9199, 203.2103
185.4020, 203.5540
185.8841, 203.9585
186.3663, 204.3634
186.8484, 204.9079
187.3305, 205.9509
187.8126, 208.0394
188.2947, 211.6172
188.7768, 213.5084
189.2590, 212.2840
189.7411, 210.8752
190.2232, 210.5391
190.7053, 211.3202
191.1874, 212.6121
191.6695, 213.8805
192.1517, 215.3142
192.6338, 215.7271
193.1159, 214.3107
193.5980, 212.6442
194.0801, 211.6430
194.5622, 211.4423
195.0444, 211.6958
195.5265, 212.0127
196.0086, 212.3413
196.4907, 213.1658
196.9728, 215.1259
197.4549, 217.2243
197.9371, 218.4210
198.4192, 218.5245
198.9013, 218.3739
199.3834, 218.8670
199.8655, 220.0010
200.3476, 221.4693
200.8298, 223.4641
201.3119, 225.6934
201.7940, 227.6208
202.2761, 229.0373
202.7582, 230.6563
203.2403, 233.4169
203.7225, 237.0896
204.2046, 240.8246
204.6867, 244.5738
205.1688, 248.1785
205.6509, 251.1851
206.1330, 253.2359
206.6152, 255.2967
207.0973, 258.2599
207.5794, 261.9117
208.0615, 265.4863
208.5436, 268.5610
209.0257, 271.2072
209.5079, 273.7049
209.9900, 275.7413
210.4721, 278.0977
210.9542, 281.3144
211.4363, 285.1841
211.9184, 289.1136
212.4006, 292.7037
212.8827, 295.9633
213.3648, 299.0709
213.8469, 301.8887
214.3290, 304.6678
214.8111, 307.4085
215.2933, 310.1861
215.7754, 313.1805
216.2575, 316.6882
216.7396, 320.7565
217.2217, 324.1879
217.7038, 325.8561
218.1859, 327.8860
218.6681, 331.0133
219.1502, 335.1050
219.6323, 339.6833
220.1144, 344.4235
220.5965, 349.3807
221.0786, 353.8692
221.5608, 357.9785
222.0429, 361.6282
222.5250, 364.7383
223.0071, 367.3532
223.4892, 369.5418
223.9713, 371.3334
224.4535, 372.6787
224.9356, 374.1565
225.4177, 376.5672
225.8998, 378.3631
226.3819, 378.7876
226.8640, 377.9583
227.3462, 376.4739
227.8283, 374.8747
228.3104, 373.1970
228.7925, 370.3900
229.2746, 366.0334
229.7567, 361.1646
230.2389, 356.2296
230.7210, 351.2487
231.2031, 346.1165
231.6852, 340.6494
232.1673, 334.8973
232.6494, 329.7880
233.1316, 325.5679
233.6137, 321.7452
234.0958, 317.9659
234.5779, 314.2745
235.0600, 311.0791
235.5421, 308.8282
236.0243, 307.4073
236.5064, 305.4500
236.9885, 302.7193
237.4706, 299.6809
237.9527, 296.7408
238.4348, 293.8557
238.9170, 290.4917
239.3991, 286.1145
239.8812, 280.9501
240.3633, 276.0509
240.8454, 271.4002
241.3275, 267.0108
241.8097, 262.9627
242.2918, 259.2308
242.7739, 255.5503
243.2560, 251.6916
243.7381, 247.8095
244.2202, 244.2245
244.7024, 241.0772
245.1845, 238.0858
245.6666, 235.0088
246.1487, 231.8581
246.6308, 228.6698
247.1129, 225.6235
247.5951, 222.4626
248.0772, 218.8268
248.5593, 214.5391
249.0414, 210.1001
249.5235, 205.9326
250.0056, 202.0340
250.4878, 198.4358
250.9699, 195.1665
251.4520, 192.2395
251.9341, 189.7098
252.4162, 187.5770
252.8983, 185.8446
253.3805, 184.5191
253.8626, 183.5931
254.3447, 183.1031
254.8268, 183.4243
255.3089, 183.9771
255.7910, 184.4490
256.2732, 184.7854
256.7553, 184.9806
257.2374, 184.9536
257.7195, 184.6510
258.2016, 184.5046
258.6837, 184.9057
259.1659, 185.2486
259.6480, 185.2566
260.1301, 184.8889
260.6122, 184.2155
261.0943, 183.1705
261.5764, 181.6553
262.0586, 180.4696
262.5407, 179.7307
263.0228, 179.3008
263.5049, 179.3559
263.9870, 179.7648
264.4691, 180.0780
264.9513, 179.8281
265.4334, 178.9350
265.9155, 178.0917
266.3976, 177.0637
266.8797, 176.3060
267.3618, 176.2811
267.8440, 176.7353
268.3261, 176.9568
268.8082, 176.2128
269.2903, 174.4427
269.7724, 173.3463
270.2545, 173.5578
270.7367, 173.8869
271.2188, 174.0636
271.7009, 174.1049
272.1830, 174.1099
272.6651, 174.1295
273.1472, 174.1729
273.6294, 174.4168
274.1115, 175.1397
274.5936, 175.7912
275.0757, 176.2951
275.5578, 176.6434
276.0399, 176.8679
276.5221, 177.0011
277.0042, 176.9996
277.4863, 176.6084
277.9684, 175.5770
278.4505, 174.3746
278.9326, 173.0939
279.4148, 171.6538
279.8969, 169.9120
280.3790, 167.7839
280.8611, 165.3651
281.3432, 162.9607
281.8253, 160.7851
282.3075, 158.3274
282.7896, 155.3443
283.2717, 152.1589
283.7538, 149.0695
284.2359, 146.2013
284.7180, 143.5431
285.2002, 141.1099
285.6823, 139.1945
286.1644, 137.1067
286.6465, 134.6110
287.1286, 132.0809
287.6107, 129.9625
288.0929, 128.3326
288.5750, 126.7532
289.0571, 124.4656
289.5392, 120.6534
290.0213, 118.0933
290.5034, 117.7484
290.9856, 117.9041
291.4677, 117.2755
291.9498, 115.7249
292.4319, 113.9661
292.9140, 112.8264
293.3961, 112.4786
293.8783, 112.0683
294.3604, 111.4720
294.8425, 110.9230
295.3246, 110.5808
295.8067, 110.4322
296.2888, 110.3353
296.7710, 110.1404
297.2531, 109.8310
297.7352, 109.9064
298.2173, 110.6425
298.6994, 111.4119
299.1815, 111.8110
299.6637, 111.9981
300.1458, 112.4701
300.6279, 113.6051
301.1100, 115.2906
301.5921, 116.6149
302.0742, 117.5549
302.5564, 118.2355
303.0385, 118.3757
303.5206, 118.3114
304.0027, 118.6741
304.4848, 119.8005
304.9669, 121.4408
305.4491, 122.8584
305.9312, 124.0287
306.4133, 125.0351
306.8954, 125.6758
307.3775, 126.2298
307.8596, 127.1530
308.3418, 128.6052
308.8239, 130.1848
309.3060, 131.1248
309.7881, 130.8619
310.2702, 131.1563
310.7523, 132.5538
311.2345, 134.2749
311.7166, 135.6231
312.1987, 136.4487
312.6808, 136.9633
313.1629, 137.3471
313.6451, 137.4936
314.1272, 138.0428
314.6093, 139.4119
315.0914, 140.8387
315.5735, 141.6986
316.0556, 142.0371
316.5378, 142.4603
317.0199, 143.5397
317.5020, 145.2908
317.9841, 146.5315
318.4662, 146.7479
318.9483, 147.0398
319.4305, 147.9717
319.9126, 149.3953
320.3947, 150.8831
320.8768, 152.2145
321.3589, 153.3739
321.8410, 154.2462
322.3232, 154.6975
322.8053, 155.0867
323.2874, 155.3523
323.7695, 155.6372
324.2516, 156.1681
324.7337, 157.0366
325.2159, 158.1660
325.6980, 159.3949
326.1801, 160.8074
326.6622, 162.1644
327.1443, 163.4190
327.6264, 164.6289
328.1086, 165.6626
328.5907, 166.5289
329.0728, 167.7543
329.5549, 170.0619
330.0370, 173.8752
330.5191, 177.5683
331.0013, 180.8528
331.4834, 184.2254
331.9655, 188.0299
332.4476, 192.2740
332.9297, 196.7483
333.4118, 201.2922
333.8940, 205.8980
334.3761, 210.8005
334.8582, 215.9698
335.3403, 221.3966
335.8224, 227.5409
336.3045, 233.9548
336.7867, 239.6863
337.2688, 244.0742
337.7509, 247.4471
338.2330, 251.3224
338.7151, 256.2576
339.1972, 261.0026
339.6793, 265.1358
340.1614, 269.0757
340.6436, 273.3131
341.1257, 278.0738
341.6078, 283.2740
342.0899, 288.8159
342.5720, 295.1770
343.0541, 301.0322
343.5363, 305.9588
344.0184, 310.7049
344.5005, 315.9628
344.9826, 321.7846
345.4647, 327.6349
345.9468, 332.8782
346.4290, 337.3554
346.9111, 342.0811
347.3932, 347.3885
347.8753, 352.5497
348.3574, 357.2690
348.8395, 361.5487
349.3217, 365.5153
349.8038, 369.2426
350.2859, 372.7317
350.7680, 375.8261
351.2501, 379.1434
351.7322, 381.3475
352.2144, 382.0609
352.6965, 381.5476
353.1786, 380.2072
353.6607, 378.2224
354.1428, 375.3991
354.6249, 371.2524
355.1071, 365.6525
355.5892, 358.7513
356.0713, 350.1953
356.5534, 340.7715
357.0355, 331.0153
357.5176, 321.0611
357.9998, 310.7588
358.4819, 299.6817
358.9640, 287.2165
359.4461, 276.5492
359.9282, 268.6148
360.4103, 261.3719
360.8925, 254.2256
361.3746, 247.0700
361.8567, 239.9631
362.3388, 232.8117
362.8209, 225.7197
363.3030, 219.6890
363.7852, 215.5902
364.2673, 211.5481
364.7494, 207.2469
365.2315, 202.7362
365.7136, 198.0766
366.1957, 193.2892
366.6779, 188.4857
367.1600, 183.9265
367.6421, 179.6184
368.1242, 175.5685
368.6063, 171.8643
369.0884, 168.3380
369.5706, 164.9633
370.0527, 161.6996
370.5348, 158.4382
371.0169, 155.0376
371.4990, 151.5104
371.9811, 147.9559
372.4633, 144.3129
372.9454, 140.7213
373.4275, 137.1166
373.9096, 133.5948
374.3917, 130.3239
374.8738, 127.5223
375.3560, 125.0056
375.8381, 122.1914
376.3202, 118.8578
376.8023, 115.7288
377.2844, 113.2625
377.7665, 111.0748
378.2487, 108.7649
378.7308, 106.1947
379.2129, 103.5475
379.6950, 100.9555
380.1771, 98.40843
380.6592, 96.18291
381.1414, 94.59673
381.6235, 93.12519
382.1056, 91.19070
382.5877, 88.81582
383.0698, 86.70383
383.5519, 85.44185
384.0341, 84.76745
384.5162, 83.86169
384.9983, 82.59331
385.4804, 81.24088
385.9625, 79.97309
386.4446, 78.77492
386.9268, 77.65805
387.4089, 76.57935
387.8910, 75.61784
388.3731, 74.98614
388.8552, 74.66793
389.3373, 74.11766
389.8195, 72.86348
390.3016, 71.38364
390.7837, 70.65907
391.2658, 70.99805
391.7479, 71.17738
392.2300, 70.33718
392.7122, 68.93701
393.1943, 68.01691
393.6764, 67.88334
394.1585, 68.03483
394.6406, 67.90322
395.1227, 67.48418
395.6049, 67.04258
396.0870, 66.61962
396.5691, 66.18285
397.0512, 65.67276
397.5333, 65.10220
398.0154, 64.58406
398.4976, 64.19485
398.9797, 63.92144
399.4618, 63.66436
399.9439, 63.34774
400.4260, 63.12999
400.9081, 63.21504
401.3903, 63.39228
401.8724, 63.24498
402.3545, 62.61650
402.8366, 61.87195
403.3187, 61.66589
403.8008, 62.46895
404.2830, 62.75673
404.7651, 62.16453
405.2472, 61.35882
405.7293, 60.72992
406.2114, 60.33421
406.6935, 60.09320
407.1757, 59.95423
407.6578, 59.91566
408.1399, 59.88293
408.6220, 59.84901
409.1041, 59.82894
409.5862, 59.97361
410.0684, 60.08650
410.5505, 59.78115
411.0326, 58.89827
411.5147, 57.89317
411.9968, 57.79336
412.4789, 59.38023
412.9611, 60.11572
413.4432, 59.25384
413.9253, 58.12130
414.4074, 57.51714
414.8895, 57.44958
415.3716, 57.44010
415.8538, 57.01018
416.3359, 56.20326
416.8180, 55.78190
417.3001, 56.04134
417.7822, 56.28119
418.2643, 56.27514
418.7465, 56.10101
419.2286, 55.83151
419.7107, 55.46344
420.1928, 55.13196
420.6749, 55.08701
421.1570, 55.37710
421.6392, 55.60146
422.1213, 55.64326
422.6034, 55.59645
423.0855, 55.56641
423.5676, 55.54553
424.0497, 55.39474
424.5319, 54.87869
425.0140, 54.17174
425.4961, 53.79196
425.9782, 53.84516
426.4603, 53.97304
426.9424, 53.95736
427.4246, 53.83470
427.9067, 53.66815
428.3888, 53.47405
428.8709, 53.23246
429.3530, 52.86078
429.8351, 52.40526
430.3173, 52.10723
430.7994, 52.10554
431.2815, 52.21325
431.7636, 52.07244
432.2457, 51.63940
432.7278, 51.33362
433.2100, 51.42328
433.6921, 51.58794
434.1742, 51.44640
434.6563, 50.97983
435.1384, 50.46276
435.6205, 50.08390
436.1027, 49.85046
436.5848, 49.83516
437.0669, 50.29711
437.5490, 50.64441
438.0311, 50.61099
438.5132, 50.36586
438.9954, 50.16010
439.4775, 50.08889
439.9596, 50.10734
440.4417, 50.14742
440.9238, 50.25496
441.4059, 50.27053
441.8881, 50.07124
442.3702, 49.89936
442.8523, 49.94416
443.3344, 50.15173
443.8165, 50.31454
444.2986, 50.26295
444.7808, 50.04679
445.2629, 50.00052
445.7450, 50.40375
446.2271, 50.54140
446.7092, 50.10016
447.1913, 49.45950
447.6735, 49.00100
448.1556, 48.82278
448.6377, 48.70045
449.1198, 48.27659
449.6019, 47.51491
450.0840, 47.14424
450.5662, 47.54224
451.0483, 47.95671
451.5304, 47.83838
452.0125, 47.41465
452.4946, 47.26760
452.9767, 47.84198
453.4589, 48.65792
453.9410, 48.92003
454.4231, 48.59266
454.9052, 48.18010
455.3873, 47.76904
455.8694, 47.46027
456.3516, 47.42043
456.8337, 47.70507
457.3158, 47.90736
457.7979, 47.71498
458.2800, 47.34938
458.7621, 47.22917
459.2443, 47.42835
459.7264, 47.65228
460.2085, 47.65969
460.6906, 47.46256
461.1727, 47.29224
461.6548, 47.21056
462.1370, 47.09156
462.6191, 46.74435
463.1012, 46.33601
463.5833, 46.27688
464.0654, 46.73512
464.5475, 47.32508
465.0297, 47.35562
465.5118, 46.37323
465.9939, 45.98600
466.4760, 46.75331
466.9581, 47.58426
467.4402, 47.82133
467.9224, 47.53762
468.4045, 47.11903
468.8866, 46.80544
469.3687, 46.59882
469.8508, 46.50965
470.3329, 46.64410
470.8151, 46.72799
471.2972, 46.68761
471.7793, 46.61289
472.2614, 46.60148
472.7435, 46.65885
473.2256, 46.68198
473.7078, 46.52886
474.1899, 46.20525
474.6720, 45.98456
475.1541, 45.89596
475.6362, 45.87107
476.1183, 45.91396
476.6005, 45.98177
477.0826, 46.00461
477.5647, 45.94930
478.0468, 45.86776
478.5289, 45.77866
479.0110, 45.69323
479.4932, 45.76374
479.9753, 46.16037
480.4574, 46.51814
480.9395, 46.26331
481.4216, 45.46928
481.9037, 44.96149
482.3859, 45.20543
482.8680, 45.65712
483.3501, 45.78885
483.8322, 45.62075
484.3143, 45.44848
484.7964, 45.43402
485.2786, 45.52494
485.7607, 45.56347
486.2428, 45.53987
486.7249, 45.48797
487.2070, 45.40266
487.6891, 45.29593
488.1713, 45.16451
488.6534, 45.01660
489.1355, 44.89309
489.6176, 44.84315
490.0997, 44.86218
490.5818, 44.77717
491.0640, 44.28643
491.5461, 44.04548
492.0282, 44.39176
492.5103, 44.93619
492.9924, 45.21481
493.4745, 45.09787
493.9567, 44.86257
494.4388, 44.91914
494.9209, 45.31753
495.4030, 45.42836
495.8851, 45.03309
496.3672, 44.57617
496.8494, 44.19328
497.3315, 43.92297
497.8136, 43.85717
498.2957, 44.11555
498.7778, 44.44932
499.2599, 44.50734
499.7421, 44.30708
500.2242, 44.19639
500.7063, 44.32149
501.1884, 44.50867
501.6705, 44.52123
502.1526, 44.36949
502.6348, 44.26358
503.1169, 44.30451
503.5990, 44.38049
504.0811, 44.41532
504.5632, 44.39450
505.0453, 44.25701
505.5274, 43.93615
506.0096, 43.53134
506.4917, 43.34519
506.9738, 43.55037
507.4559, 43.68993
507.9380, 43.71045
508.4201, 43.67389
508.9023, 43.60992
509.3844, 43.53568
509.8665, 43.49147
510.3486, 43.52721
510.8307, 43.61785
511.3128, 43.51313
511.7950, 42.80492
512.2771, 42.52714
512.7592, 43.40332
513.2413, 44.42071
513.7234, 44.47789
514.2056, 43.43172
514.6877, 42.28077
515.1698, 42.11891
515.6519, 42.80728
516.1340, 43.05117
516.6161, 42.59485
517.0983, 42.15490
517.5804, 42.26576
518.0625, 42.61476
518.5446, 42.71418
519.0267, 42.33070
519.5089, 42.02523
519.9910, 42.41455
520.4731, 43.20089
520.9552, 43.49707
521.4373, 43.04832
521.9194, 42.44448
522.4016, 42.23516
522.8837, 42.44951
523.3658, 42.78531
523.8479, 43.51482
524.3300, 44.07756
524.8121, 44.16757
525.2943, 43.92657
525.7764, 43.51502
526.2585, 43.00592
526.7406, 42.62783
527.2227, 42.81364
527.7048, 43.87147
528.1870, 44.38268
528.6691, 43.81215
529.1512, 43.27412
529.6333, 43.24706
530.1154, 43.54884
530.5975, 43.82290
531.0797, 43.90710
531.5618, 43.85450
532.0439, 43.66369
532.5260, 43.27578
533.0081, 43.26770
533.4902, 44.16895
533.9724, 44.97199
534.4545, 44.74052
534.9366, 43.76717
535.4187, 43.16826
535.9008, 43.60958
536.3829, 44.43577
536.8651, 45.07922
537.3472, 45.51338
537.8293, 45.42096
538.3114, 44.51466
538.7935, 43.39991
539.2756, 43.10010
539.7578, 43.78896
540.2399, 44.33862
540.7220, 44.66572
541.2041, 44.80729
541.6862, 44.73864
542.1683, 44.50402
542.6505, 44.15921
543.1326, 43.71914
543.6147, 43.30631
544.0968, 43.24986
544.5789, 43.81698
545.0610, 44.19703
545.5432, 44.28761
546.0253, 44.28233
546.5074, 44.28522
546.9895, 44.28474
547.4716, 44.20647
547.9537, 43.97881
548.4359, 43.69158
548.9180, 43.55479
549.4001, 43.59085
549.8822, 43.62436
550.3643, 43.65081
550.8464, 43.61080
551.3286, 43.33222
551.8107, 42.85720
552.2928, 42.69721
552.7749, 43.47233
553.2570, 44.37116
553.7391, 44.40803
554.2213, 43.68928
554.7034, 42.93612
555.1855, 42.42186
555.6676, 42.19168
556.1497, 42.40000
556.6318, 43.48863
557.1140, 43.95896
557.5961, 43.28215
558.0782, 42.42073
558.5603, 41.91619
559.0424, 41.76346
559.5245, 41.81486
560.0067, 42.00169
560.4888, 42.23510
560.9709, 42.27060
561.4530, 42.00953
561.9351, 41.82945
562.4172, 41.91181
562.8994, 41.96646
563.3815, 41.88205
563.8636, 41.64384
564.3457, 41.22090
564.8278, 40.44314
565.3099, 39.64458
565.7921, 39.39613
566.2742, 39.67426
566.7563, 39.94749
567.2384, 40.04160
567.7205, 40.08095
568.2026, 40.27989
568.6848, 40.64016
569.1669, 40.80343
569.6490, 40.59722
570.1311, 40.28517
570.6132, 39.97088
571.0953, 39.69661
571.5775, 39.55575
572.0596, 39.59219
572.5417, 39.69833
573.0238, 39.69834
573.5059, 39.60687
573.9880, 39.35739
574.4702, 38.64384
574.9523, 38.09849
575.4344, 38.11583
575.9165, 38.44652
576.3986, 38.62875
576.8807, 38.45084
577.3629, 38.15992
577.8450, 38.17124
578.3271, 38.47873
578.8092, 38.50608
579.2913, 38.02000
579.7734, 37.50730
580.2556, 37.34252
580.7377, 37.44108
581.2198, 37.62974
581.7019, 37.99072
582.1840, 38.28640
582.6661, 38.38828
583.1483, 38.31653
583.6304, 38.00043
584.1125, 37.42761
584.5946, 37.02261
585.0767, 37.30607
585.5588, 38.31979
586.0409, 38.79596
586.5230, 38.34872
587.0051, 37.87179
