##NAMES=Wendwilsonite
##RRUFFID=R100175
##IDEAL CHEMISTRY=Ca_2_Mg(As^5+^O_4_)_2_&#183;2H_2_O
##LOCALITY=Bou Azzer, Souss- Massa-Draa, Morocco
##OWNER=RRUFF
##SOURCE=University of Arizona Mineral Museum
##DESCRIPTION=Dark pink, bladed crystals
##STATUS=The identification of this mineral is confirmed by single-crystal X-ray diffraction and chemical analysis.
##URL=rruff.info/R100175
##MEASURED CHEMISTRY=Ca_2.017_(Mg_0.608_Co_0.266_Zn_0.069_Mn_0.005_)_Σ=0.995_(As_0.998_O_4_)_2_·2H_2_O
91.03516, 47.50089
91.51727, 47.11078
91.99939, 47.15065
92.48151, 47.62873
92.96362, 48.57337
93.44574, 51.05995
93.92786, 53.92296
94.40997, 54.38466
94.89210, 51.87712
95.37421, 48.09283
95.85633, 45.23405
96.33845, 43.27659
96.82056, 42.06994
97.30268, 41.89647
97.78480, 42.63194
98.26691, 42.94099
98.74903, 42.50470
99.23115, 41.65874
99.71326, 41.42615
100.1954, 41.92822
100.6775, 42.58558
101.1596, 43.00200
101.6417, 43.18479
102.1239, 43.00928
102.6060, 42.18160
103.0881, 40.79168
103.5702, 40.69512
104.0523, 42.72084
104.5344, 45.02917
105.0166, 45.52119
105.4987, 42.89648
105.9808, 40.77765
106.4629, 40.22973
106.9450, 41.79854
107.4271, 42.42534
107.9093, 41.72758
108.3914, 40.22927
108.8735, 38.66856
109.3556, 35.78679
109.8377, 34.04020
110.3198, 34.37873
110.8020, 38.71278
111.2841, 41.43649
111.7662, 41.51851
112.2483, 39.86053
112.7304, 38.47807
113.2125, 37.52201
113.6947, 36.95139
114.1768, 36.78532
114.6589, 37.46137
115.1410, 37.95166
115.6231, 37.93032
116.1052, 37.50339
116.5874, 37.07002
117.0695, 36.65215
117.5516, 36.33972
118.0337, 36.20451
118.5158, 36.22322
118.9980, 36.45642
119.4801, 37.24027
119.9622, 38.48615
120.4443, 39.22066
120.9264, 38.52916
121.4085, 37.10938
121.8907, 35.81524
122.3728, 34.86389
122.8549, 34.25587
123.3370, 34.21983
123.8191, 34.79345
124.3012, 35.17272
124.7834, 34.47293
125.2655, 33.08533
125.7476, 31.84347
126.2297, 30.69936
126.7118, 30.08376
127.1939, 30.91733
127.6761, 33.46615
128.1582, 36.41585
128.6403, 38.81721
129.1224, 40.53309
129.6045, 40.90263
130.0867, 38.36452
130.5688, 33.98911
131.0509, 31.38382
131.5330, 30.99146
132.0151, 32.13385
132.4972, 34.27093
132.9794, 37.40550
133.4615, 39.99886
133.9436, 40.14804
134.4257, 38.14870
134.9078, 38.22334
135.3899, 41.54385
135.8721, 46.82154
136.3542, 50.22906
136.8363, 51.35489
137.3184, 52.44741
137.8005, 55.36124
138.2826, 60.33282
138.7648, 65.60211
139.2469, 70.90329
139.7290, 76.28252
140.2111, 81.62145
140.6932, 86.78465
141.1753, 92.24718
141.6575, 98.45686
142.1396, 105.7153
142.6217, 113.0423
143.1038, 119.9840
143.5859, 126.5224
144.0681, 134.5185
144.5502, 145.0879
145.0323, 156.1835
145.5144, 165.5450
145.9965, 172.0093
146.4786, 178.4529
146.9608, 185.6706
147.4429, 194.3061
147.9250, 201.2845
148.4071, 204.5103
148.8892, 206.8715
149.3713, 212.5432
149.8535, 223.0468
150.3356, 235.4582
150.8177, 249.4945
151.2998, 266.9498
151.7819, 282.0981
152.2640, 292.4907
152.7462, 300.8675
153.2283, 311.9222
153.7104, 327.1876
154.1925, 344.1544
154.6746, 362.1790
155.1567, 382.3758
155.6389, 401.1356
156.1210, 417.2819
156.6031, 431.6994
157.0852, 446.7487
157.5673, 462.7396
158.0495, 479.5165
158.5316, 497.3526
159.0137, 517.8704
159.4958, 536.9916
159.9779, 553.3370
160.4600, 567.4645
160.9422, 581.1968
161.4243, 595.6700
161.9064, 609.6525
162.3885, 622.2383
162.8706, 632.7911
163.3527, 642.6081
163.8349, 653.3165
164.3170, 664.2758
164.7991, 672.4246
165.2812, 673.4163
165.7633, 672.2009
166.2454, 673.2379
166.7276, 678.4514
167.2097, 685.7850
167.6918, 694.2781
168.1739, 703.8812
168.6560, 714.7968
169.1381, 727.2180
169.6203, 740.7167
170.1024, 750.0746
170.5845, 759.2684
171.0666, 768.6848
171.5487, 775.7483
172.0309, 780.6777
172.5130, 786.7410
172.9951, 796.7691
173.4772, 809.2800
173.9593, 822.0253
174.4414, 834.1684
174.9236, 846.0351
175.4057, 857.7318
175.8878, 869.3622
176.3699, 880.8235
176.8520, 891.9772
177.3341, 902.9916
177.8163, 914.2931
178.2984, 926.3024
178.7805, 938.5040
179.2626, 949.8658
179.7447, 960.0721
180.2268, 970.5518
180.7090, 982.6898
181.1911, 996.1542
181.6732, 1009.842
182.1553, 1023.877
182.6374, 1037.687
183.1195, 1049.535
183.6017, 1059.427
184.0838, 1068.057
184.5659, 1077.140
185.0480, 1086.190
185.5301, 1093.109
186.0123, 1096.119
186.4944, 1096.123
186.9765, 1095.806
187.4586, 1095.301
187.9407, 1094.297
188.4228, 1092.254
188.9050, 1089.233
189.3871, 1085.794
189.8692, 1083.771
190.3513, 1082.155
190.8334, 1075.190
191.3155, 1062.099
191.7977, 1045.132
192.2798, 1028.417
192.7619, 1011.980
193.2440, 992.0479
193.7261, 964.6053
194.2082, 930.5450
194.6904, 898.5872
195.1725, 869.0543
195.6546, 841.9155
196.1367, 818.3135
196.6188, 798.1755
197.1009, 780.4894
197.5831, 764.9303
198.0652, 751.3466
198.5473, 739.4444
199.0294, 729.2006
199.5115, 720.5731
199.9937, 713.5750
200.4758, 708.3339
200.9579, 704.2795
201.4400, 701.1627
201.9221, 698.9583
202.4042, 698.0580
202.8864, 698.9189
203.3685, 700.6392
203.8506, 700.9587
204.3327, 699.5595
204.8148, 698.0305
205.2969, 697.0720
205.7791, 696.6387
206.2612, 697.2926
206.7433, 699.6837
207.2254, 702.7133
207.7075, 703.6208
208.1896, 702.2433
208.6718, 699.2452
209.1539, 694.8933
209.6360, 689.2059
210.1181, 682.2659
210.6002, 673.7736
211.0823, 664.2223
211.5645, 654.9178
212.0466, 645.8172
212.5287, 637.0062
213.0108, 628.3367
213.4929, 619.4084
213.9750, 612.1057
214.4572, 606.9862
214.9393, 603.3845
215.4214, 599.0361
215.9035, 593.3274
216.3856, 588.0724
216.8678, 584.4972
217.3499, 583.1194
217.8320, 581.4960
218.3141, 579.3971
218.7962, 577.0048
219.2783, 574.7763
219.7605, 572.2931
220.2426, 570.7296
220.7247, 571.1490
221.2068, 574.9170
221.6889, 576.5352
222.1710, 574.6085
222.6532, 570.6555
223.1353, 569.6860
223.6174, 573.1064
224.0995, 577.1609
224.5816, 579.9203
225.0637, 580.7834
225.5459, 581.9970
226.0280, 583.8082
226.5101, 585.9870
226.9922, 587.7275
227.4743, 588.7731
227.9564, 589.8094
228.4386, 591.1522
228.9207, 592.7328
229.4028, 594.7883
229.8849, 597.8143
230.3670, 601.1922
230.8492, 603.0963
231.3313, 602.4012
231.8134, 601.9036
232.2955, 602.9520
232.7776, 606.2240
233.2597, 609.4599
233.7419, 612.6433
234.2240, 615.8051
234.7061, 618.9834
235.1882, 622.4538
235.6703, 625.5406
236.1524, 627.9434
236.6346, 629.3648
237.1167, 630.8192
237.5988, 632.6165
238.0809, 634.3491
238.5630, 634.9855
239.0451, 633.8834
239.5273, 632.6287
240.0094, 631.9717
240.4915, 632.5193
240.9736, 631.9539
241.4557, 629.6786
241.9378, 626.5334
242.4200, 624.3327
242.9021, 623.6253
243.3842, 622.9567
243.8663, 621.8304
244.3484, 620.2561
244.8306, 618.2476
245.3127, 616.2187
245.7948, 613.5654
246.2769, 608.9888
246.7590, 601.5379
247.2411, 593.8864
247.7233, 587.0280
248.2054, 581.3187
248.6875, 574.9598
249.1696, 567.3212
249.6517, 559.5257
250.1338, 553.5256
250.6160, 550.0168
251.0981, 547.0510
251.5802, 544.1404
252.0623, 541.2995
252.5444, 538.3414
253.0265, 535.1727
253.5087, 531.9894
253.9908, 529.0486
254.4729, 526.0775
254.9550, 523.8677
255.4371, 522.7471
255.9192, 522.8411
256.4014, 523.1537
256.8835, 524.0114
257.3656, 524.7626
257.8477, 524.4499
258.3298, 522.3313
258.8120, 520.8111
259.2941, 520.5576
259.7762, 521.6396
260.2583, 522.8115
260.7404, 524.0464
261.2225, 525.4017
261.7047, 527.0568
262.1868, 529.2532
262.6689, 531.0721
263.1510, 532.1610
263.6331, 532.5390
264.1152, 533.4438
264.5974, 534.9604
265.0795, 536.8654
265.5616, 538.9103
266.0437, 541.1197
266.5258, 543.5108
267.0079, 546.0912
267.4901, 548.8832
267.9722, 552.0178
268.4543, 555.9948
268.9364, 559.4144
269.4185, 560.7022
269.9006, 559.0895
270.3828, 558.7447
270.8649, 560.4643
271.3470, 563.9133
271.8291, 567.7130
272.3112, 572.1258
272.7933, 576.2784
273.2755, 579.2726
273.7576, 580.8520
274.2397, 582.9534
274.7218, 585.7320
275.2039, 589.1798
275.6860, 593.4638
276.1682, 598.8406
276.6503, 604.2399
277.1324, 608.7330
277.6145, 612.1398
278.0966, 616.7966
278.5787, 623.2856
279.0609, 630.6554
279.5430, 636.6920
280.0251, 641.1243
280.5072, 645.8417
280.9893, 652.3056
281.4715, 660.4572
281.9536, 667.5577
282.4357, 673.4460
282.9178, 678.3425
283.3999, 682.6052
283.8820, 686.2303
284.3642, 689.0891
284.8463, 691.8574
285.3284, 694.2497
285.8105, 692.6905
286.2926, 686.6100
286.7747, 678.2927
287.2569, 670.4398
287.7390, 663.0408
288.2211, 655.9866
288.7032, 649.1497
289.1853, 642.6164
289.6674, 636.5410
290.1496, 630.8445
290.6317, 625.9379
291.1138, 622.5606
291.5959, 620.5404
292.0780, 618.6589
292.5602, 615.8274
293.0423, 613.1033
293.5244, 613.5431
294.0065, 617.2405
294.4886, 622.1113
294.9707, 626.4722
295.4529, 630.5161
295.9350, 634.8595
296.4171, 639.8428
296.8992, 645.1111
297.3813, 649.7032
297.8634, 653.6949
298.3456, 658.2300
298.8277, 664.2345
299.3098, 671.3725
299.7919, 679.0302
300.2740, 687.2936
300.7561, 695.5509
301.2383, 702.9730
301.7204, 709.6299
302.2025, 715.3156
302.6846, 720.4179
303.1667, 724.3797
303.6488, 726.3087
304.1310, 725.8243
304.6131, 723.9933
305.0952, 721.9659
305.5773, 719.4525
306.0594, 715.6882
306.5415, 708.9352
307.0237, 701.3636
307.5058, 695.3251
307.9879, 691.2421
308.4700, 687.5303
308.9521, 682.5510
309.4343, 677.1363
309.9164, 672.6350
310.3985, 669.6718
310.8806, 667.7700
311.3627, 666.7686
311.8448, 666.6537
312.3270, 666.7946
312.8091, 665.8750
313.2912, 665.2924
313.7733, 666.6984
314.2554, 672.7233
314.7375, 679.1187
315.2197, 683.0427
315.7018, 684.9156
316.1839, 688.0906
316.6660, 694.8769
317.1481, 703.2268
317.6302, 711.3439
318.1124, 717.7864
318.5945, 725.2382
319.0766, 734.7709
319.5587, 746.1011
320.0408, 758.3531
320.5229, 771.1863
321.0051, 784.9080
321.4872, 799.8799
321.9693, 816.7579
322.4514, 833.4322
322.9335, 849.1326
323.4156, 864.3625
323.8978, 880.0928
324.3799, 896.4950
324.8620, 913.4211
325.3441, 930.7255
325.8262, 947.8709
326.3083, 966.5244
326.7905, 987.8013
327.2726, 1010.418
327.7547, 1032.502
328.2368, 1051.727
328.7189, 1072.965
329.2010, 1097.645
329.6832, 1125.836
330.1653, 1154.148
330.6474, 1181.612
331.1295, 1209.862
331.6116, 1240.674
332.0938, 1275.923
332.5759, 1310.838
333.0580, 1343.892
333.5401, 1375.834
334.0222, 1410.009
334.5043, 1447.748
334.9865, 1486.261
335.4686, 1524.856
335.9507, 1565.372
336.4328, 1601.417
336.9149, 1633.547
337.3970, 1661.034
337.8792, 1681.024
338.3613, 1693.503
338.8434, 1699.521
339.3255, 1699.972
339.8076, 1695.131
340.2898, 1682.190
340.7719, 1660.483
341.2540, 1631.750
341.7361, 1596.510
342.2182, 1554.826
342.7003, 1511.824
343.1825, 1468.946
343.6646, 1426.170
344.1467, 1385.691
344.6288, 1346.907
345.1109, 1311.649
345.5930, 1281.392
346.0752, 1256.304
346.5573, 1234.150
347.0394, 1214.207
347.5215, 1196.826
348.0036, 1182.330
348.4857, 1170.781
348.9679, 1161.913
349.4500, 1155.718
349.9321, 1152.002
350.4142, 1150.377
350.8963, 1151.058
351.3784, 1153.027
351.8606, 1154.904
352.3427, 1156.901
352.8248, 1159.858
353.3069, 1165.660
353.7890, 1172.130
354.2711, 1176.212
354.7533, 1177.514
355.2354, 1177.845
355.7175, 1179.054
356.1996, 1180.301
356.6817, 1180.121
357.1638, 1177.855
357.6460, 1173.954
358.1281, 1168.825
358.6102, 1162.467
359.0923, 1154.382
359.5744, 1144.202
360.0565, 1132.260
360.5387, 1118.856
361.0208, 1103.846
361.5029, 1087.617
361.9850, 1070.301
362.4671, 1051.959
362.9492, 1032.986
363.4314, 1012.041
363.9135, 991.5773
364.3956, 973.1859
364.8777, 958.0568
365.3598, 942.4913
365.8419, 924.8378
366.3241, 906.4771
366.8062, 889.5922
367.2883, 874.3526
367.7704, 860.7388
368.2526, 848.9452
368.7347, 839.1295
369.2168, 830.0281
369.6989, 821.3746
370.1810, 813.5086
370.6631, 806.6027
371.1453, 800.5089
371.6274, 795.6041
372.1095, 792.1080
372.5916, 789.8704
373.0737, 788.0367
373.5558, 786.7969
374.0380, 785.6504
374.5201, 784.4844
375.0022, 783.6915
375.4843, 781.4711
375.9664, 777.2101
376.4485, 771.9808
376.9307, 768.1648
377.4128, 766.3819
377.8949, 763.5036
378.3770, 758.0685
378.8591, 750.2211
379.3412, 742.2103
379.8234, 734.1344
380.3055, 725.7845
380.7876, 716.7680
381.2697, 707.0849
381.7518, 698.0930
382.2339, 690.1989
382.7161, 683.2060
383.1982, 676.6765
383.6803, 670.6557
384.1624, 664.7751
384.6445, 658.7043
385.1266, 652.6241
385.6088, 646.9300
386.0909, 641.6476
386.5730, 636.9138
387.0551, 632.9319
387.5372, 629.7012
388.0193, 627.1565
388.5015, 625.6024
388.9836, 624.5690
389.4657, 623.7547
389.9478, 623.1586
390.4299, 622.1825
390.9120, 619.8838
391.3942, 617.1265
391.8763, 615.0095
392.3584, 614.1142
392.8405, 613.7530
393.3226, 613.7382
393.8047, 614.0173
394.2869, 614.3474
394.7690, 614.6415
395.2511, 614.9547
395.7332, 615.3630
396.2154, 616.0684
396.6975, 616.4755
397.1796, 615.6783
397.6617, 614.6320
398.1438, 614.9659
398.6259, 618.7960
399.1081, 622.1688
399.5902, 623.4962
400.0723, 622.2233
400.5544, 622.7084
401.0365, 625.8528
401.5186, 630.0851
402.0008, 634.2350
402.4829, 639.0330
402.9650, 642.3444
403.4471, 643.5095
403.9292, 643.0095
404.4113, 642.7792
404.8935, 642.7557
405.3756, 643.1338
405.8577, 644.4080
406.3398, 646.9066
406.8219, 647.6367
407.3040, 646.1679
407.7862, 643.7148
408.2683, 641.7982
408.7504, 640.4229
409.2325, 639.7032
409.7146, 639.8693
410.1967, 640.6952
410.6789, 641.3531
411.1610, 641.8337
411.6431, 642.5806
412.1252, 644.6031
412.6073, 647.2412
413.0894, 648.1994
413.5716, 646.2293
414.0537, 644.1752
414.5358, 646.0977
415.0179, 650.9993
415.5000, 655.7043
415.9821, 657.7947
416.4643, 659.1134
416.9464, 661.5279
417.4285, 665.1933
417.9106, 669.4174
418.3927, 674.5643
418.8748, 679.7428
419.3570, 683.8080
419.8391, 685.3265
420.3212, 686.7180
420.8033, 689.4191
421.2854, 693.0314
421.7675, 695.7213
422.2497, 695.5740
422.7318, 695.3887
423.2139, 696.9363
423.6960, 702.0314
424.1781, 705.3300
424.6602, 704.4205
425.1424, 701.8825
425.6245, 701.5237
426.1066, 705.3071
426.5887, 708.7831
427.0709, 710.5794
427.5530, 710.6951
428.0351, 712.7098
428.5172, 717.6569
428.9993, 723.1075
429.4814, 727.2959
429.9636, 729.8919
430.4457, 732.3235
430.9278, 734.3192
431.4099, 736.5882
431.8920, 740.7248
432.3741, 746.8732
432.8563, 754.0590
433.3384, 761.7236
433.8205, 770.0353
434.3026, 780.1164
434.7847, 792.1610
435.2668, 804.7590
435.7490, 816.0397
436.2311, 826.6370
436.7132, 838.4738
437.1953, 852.3605
437.6774, 867.3286
438.1595, 882.4693
438.6417, 897.7912
439.1238, 913.3302
439.6059, 928.8243
440.0880, 944.6972
440.5701, 961.4237
441.0522, 979.1660
441.5344, 997.5332
442.0165, 1015.828
442.4986, 1034.761
442.9807, 1055.116
443.4628, 1077.187
443.9449, 1100.691
444.4271, 1125.438
444.9092, 1151.481
445.3913, 1179.374
445.8734, 1210.061
446.3555, 1241.365
446.8376, 1272.159
447.3198, 1302.426
447.8019, 1332.150
448.2840, 1361.977
448.7661, 1390.760
449.2482, 1417.074
449.7303, 1442.144
450.2125, 1462.357
450.6946, 1477.551
451.1767, 1487.626
451.6588, 1490.722
452.1409, 1486.903
452.6230, 1476.096
453.1052, 1458.251
453.5873, 1433.149
454.0694, 1401.237
454.5515, 1361.883
455.0337, 1317.309
455.5158, 1270.459
455.9979, 1221.208
456.4800, 1173.902
456.9621, 1129.942
457.4442, 1088.876
457.9264, 1048.694
458.4085, 1009.627
458.8906, 973.4899
459.3727, 942.9354
459.8548, 916.3314
460.3369, 891.6254
460.8191, 867.7881
461.3012, 846.4435
461.7833, 829.2121
462.2654, 815.3635
462.7475, 803.4257
463.2296, 793.4407
463.7118, 784.4664
464.1939, 775.9696
464.6760, 767.8321
465.1581, 760.4882
465.6402, 753.7687
466.1223, 748.1053
466.6045, 743.9017
467.0866, 742.8123
467.5687, 741.1849
468.0508, 738.2178
468.5329, 734.6176
469.0150, 731.8689
469.4972, 729.8160
469.9793, 728.9500
470.4614, 730.0900
470.9435, 733.4625
471.4256, 733.9592
471.9077, 730.3911
472.3899, 726.3457
472.8720, 725.7782
473.3541, 729.1879
473.8362, 729.6726
474.3183, 725.4803
474.8004, 719.1888
475.2826, 716.2295
475.7647, 716.3476
476.2468, 715.9584
476.7289, 712.9556
477.2110, 708.1860
477.6931, 703.1310
478.1753, 697.7893
478.6574, 693.2796
479.1395, 691.5575
479.6216, 690.9664
480.1037, 688.9228
480.5858, 684.0373
481.0680, 678.9083
481.5501, 675.3502
482.0322, 672.8542
482.5143, 670.3920
482.9964, 668.1162
483.4786, 665.3185
483.9607, 661.3066
484.4428, 655.9642
484.9249, 651.2721
485.4070, 648.3615
485.8892, 645.8165
486.3713, 642.6198
486.8534, 638.0351
487.3355, 633.9141
487.8176, 630.5005
488.2997, 627.5139
488.7819, 624.1251
489.2640, 619.6985
489.7461, 616.3212
490.2282, 615.0347
490.7103, 615.6555
491.1924, 615.2851
491.6746, 613.8276
492.1567, 611.7465
492.6388, 609.2773
493.1209, 606.4393
493.6030, 603.6207
494.0851, 600.6811
494.5673, 598.1780
495.0494, 597.5218
495.5315, 598.1595
496.0136, 598.1271
496.4957, 596.0203
496.9778, 593.0585
497.4600, 590.3476
497.9421, 587.9208
498.4242, 585.8537
498.9063, 583.5490
499.3884, 581.9725
499.8705, 582.4177
500.3527, 586.6454
500.8348, 589.1162
501.3169, 586.0219
501.7990, 580.4689
502.2811, 576.8109
502.7632, 577.5609
503.2454, 578.4545
503.7275, 578.6196
504.2096, 578.1127
504.6917, 577.5629
505.1738, 576.9715
505.6559, 576.3578
506.1381, 575.8019
506.6202, 575.4323
507.1023, 574.4760
507.5844, 572.5905
508.0665, 570.7491
508.5486, 570.4247
509.0308, 571.6497
509.5129, 573.0494
509.9950, 574.3646
510.4771, 575.5270
510.9592, 576.6304
511.4413, 577.5885
511.9235, 577.7412
512.4056, 576.0392
512.8877, 573.4924
513.3698, 571.4003
513.8519, 569.8342
514.3340, 569.0827
514.8162, 569.7144
515.2983, 571.1522
515.7804, 572.7604
516.2625, 575.1306
516.7446, 576.6584
517.2267, 576.2963
517.7089, 574.6110
518.1910, 572.9760
518.6731, 571.4549
519.1552, 570.2599
519.6373, 569.4760
520.1194, 569.0864
520.6016, 569.1238
521.0837, 569.7240
521.5658, 570.5879
522.0479, 571.6188
522.5300, 573.0211
523.0121, 573.6812
523.4943, 573.2206
523.9764, 572.3861
524.4585, 572.6638
524.9406, 574.0753
525.4227, 575.3412
525.9048, 576.0253
526.3870, 576.2366
526.8691, 576.1920
527.3513, 575.9021
527.8334, 575.5199
528.3155, 575.2213
528.7976, 574.8745
529.2797, 574.0845
529.7618, 572.6481
530.2440, 571.7208
530.7261, 572.5361
531.2082, 574.2167
531.6903, 575.6254
532.1724, 576.2626
532.6545, 576.7179
533.1367, 577.2751
533.6188, 577.8268
534.1009, 578.0110
534.5830, 577.3371
535.0651, 576.7031
535.5472, 576.3459
536.0294, 576.2467
536.5115, 576.6800
536.9936, 578.1748
537.4757, 579.4711
537.9578, 579.3056
538.4399, 577.3622
538.9221, 575.9313
539.4042, 575.2170
539.8863, 575.1330
540.3684, 575.8028
540.8505, 577.1442
541.3326, 578.1518
541.8148, 578.0001
542.2969, 577.5099
542.7790, 578.3347
543.2611, 580.3293
543.7432, 582.3477
544.2253, 583.8279
544.7075, 584.8257
545.1896, 585.3344
545.6717, 585.3012
546.1538, 585.0860
546.6359, 584.7542
547.1180, 584.3806
547.6002, 584.0482
548.0823, 583.7783
548.5644, 583.5477
549.0465, 583.0449
549.5286, 582.5613
550.0107, 583.0255
550.4929, 585.3891
550.9750, 587.2239
551.4571, 587.3792
551.9392, 585.8389
552.4213, 586.2309
552.9034, 589.1938
553.3856, 592.0881
553.8677, 592.3461
554.3498, 590.2405
554.8319, 589.2272
555.3140, 589.8398
555.7961, 590.8850
556.2783, 590.8148
556.7604, 589.9166
557.2425, 588.9673
557.7246, 588.0305
558.2067, 587.4095
558.6888, 587.5839
559.1710, 588.3736
559.6531, 589.1605
560.1352, 589.2334
560.6173, 589.5425
561.0994, 591.1291
561.5815, 594.3947
562.0637, 596.0894
562.5458, 593.6873
563.0279, 590.7139
563.5100, 589.7668
563.9921, 592.4161
564.4742, 594.3395
564.9564, 595.2798
565.4385, 595.5645
565.9206, 595.5833
566.4027, 595.1927
566.8848, 595.2590
567.3669, 596.2093
567.8491, 597.6916
568.3312, 598.7264
568.8133, 599.3047
569.2954, 599.2119
569.7775, 597.4752
570.2596, 595.2084
570.7418, 594.7422
571.2239, 596.2581
571.7060, 597.9636
572.1881, 598.4792
572.6702, 598.4525
573.1523, 598.6454
573.6345, 599.5557
574.1166, 600.1428
574.5987, 599.7213
575.0808, 598.7830
575.5629, 598.1363
576.0450, 597.9189
576.5272, 598.0236
577.0093, 598.5374
577.4914, 599.3906
577.9735, 600.2184
578.4556, 601.2482
578.9377, 601.7770
579.4199, 601.2404
579.9020, 599.6217
580.3841, 598.6501
580.8662, 598.4287
581.3483, 598.3524
581.8304, 597.3617
582.3126, 595.9552
582.7947, 596.0714
583.2768, 598.4244
583.7589, 601.2928
584.2410, 603.0371
584.7231, 603.9283
585.2053, 604.5045
585.6874, 604.8474
