##NAMES=Wendwilsonite
##RRUFFID=R100174
##IDEAL CHEMISTRY=Ca_2_Mg(As^5+^O_4_)_2_&#183;2H_2_O
##LOCALITY=Bou Azzer, Morocco
##OWNER=RRUFF
##SOURCE=University of Arizona Mineral Museum
##DESCRIPTION=Druse of dark pink elongated pyramidal crystals
##STATUS=The identification of this mineral is confirmed by single-crystal X-ray diffraction and chemical analysis.
##URL=rruff.info/R100174
##MEASURED CHEMISTRY=Ca_2.015_(Mg_0.519_Co_0.408_Zn_0.024_Mn_0.005_)_Σ=0.956_(As_0.999_O_4_)_2_·2H_2_O
91.03516, 11.04766
91.51727, 11.55296
91.99939, 11.06211
92.48151, 9.914466
92.96362, 9.072218
93.44574, 9.316230
93.92786, 10.18154
94.40997, 10.66749
94.89210, 10.66314
95.37421, 10.40453
95.85633, 10.19311
96.33845, 10.02711
96.82056, 9.892568
97.30268, 9.770637
97.78480, 9.666088
98.26691, 9.625798
98.74903, 9.657920
99.23115, 9.756278
99.71326, 9.971989
100.1954, 10.36588
100.6775, 10.63680
101.1596, 10.44280
101.6417, 9.647348
102.1239, 9.067556
102.6060, 8.888794
103.0881, 9.085876
103.5702, 9.284871
104.0523, 9.581666
104.5344, 9.766366
105.0166, 9.549247
105.4987, 8.552777
105.9808, 7.840226
106.4629, 7.778322
106.9450, 8.613769
107.4271, 8.958892
107.9093, 8.467708
108.3914, 7.610948
108.8735, 7.085042
109.3556, 7.129780
109.8377, 7.290730
110.3198, 7.474862
110.8020, 7.803614
111.2841, 7.919197
111.7662, 7.636554
112.2483, 7.130203
112.7304, 6.785582
113.2125, 6.685486
113.6947, 6.729321
114.1768, 6.884750
114.6589, 7.342628
115.1410, 7.654111
115.6231, 7.598950
116.1052, 7.276552
116.5874, 7.063169
117.0695, 7.227928
117.5516, 7.484934
118.0337, 7.614381
118.5158, 7.472967
118.9980, 7.266037
119.4801, 7.100112
119.9622, 6.966606
120.4443, 6.760799
120.9264, 6.244278
121.4085, 5.667378
121.8907, 5.337319
122.3728, 5.568263
122.8549, 5.977441
123.3370, 6.255521
123.8191, 6.390108
124.3012, 6.509393
124.7834, 6.772542
125.2655, 7.100066
125.7476, 7.322370
126.2297, 7.251569
126.7118, 7.058677
127.1939, 7.017937
127.6761, 7.172943
128.1582, 7.345765
128.6403, 7.261786
129.1224, 6.981719
129.6045, 6.798451
130.0867, 6.991602
130.5688, 7.431030
131.0509, 7.650447
131.5330, 7.550224
132.0151, 7.345999
132.4972, 7.407532
132.9794, 7.735172
133.4615, 8.152846
133.9436, 8.164246
134.4257, 7.882133
134.9078, 9.123424
135.3899, 12.88410
135.8721, 17.75161
136.3542, 19.35661
136.8363, 17.10557
137.3184, 14.21993
137.8005, 13.34715
138.2826, 14.73919
138.7648, 16.22249
139.2469, 17.38662
139.7290, 18.31886
140.2111, 19.60659
140.6932, 21.34669
141.1753, 23.28329
141.6575, 25.16393
142.1396, 26.99256
142.6217, 28.81726
143.1038, 30.71071
143.5859, 32.71040
144.0681, 34.28125
144.5502, 35.17506
145.0323, 35.87328
145.5144, 36.98154
145.9965, 38.83181
146.4786, 40.56306
146.9608, 41.81859
147.4429, 42.37015
147.9250, 43.51763
148.4071, 45.49401
148.8892, 47.98392
149.3713, 50.48702
149.8535, 53.32132
150.3356, 55.88443
150.8177, 57.86337
151.2998, 58.50913
151.7819, 60.19256
152.2640, 63.70903
152.7462, 68.19426
153.2283, 72.03679
153.7104, 74.32548
154.1925, 76.62576
154.6746, 79.53385
155.1567, 83.60386
155.6389, 87.32272
156.1210, 89.99377
156.6031, 92.16148
157.0852, 95.19090
157.5673, 100.3063
158.0495, 105.6624
158.5316, 110.4044
159.0137, 114.1490
159.4958, 117.5483
159.9779, 120.6948
160.4600, 123.6296
160.9422, 126.4867
161.4243, 129.5285
161.9064, 132.3831
162.3885, 134.7915
162.8706, 136.6738
163.3527, 138.1594
163.8349, 139.2737
164.3170, 140.0359
164.7991, 140.5379
165.2812, 140.3581
165.7633, 140.1374
166.2454, 140.4532
166.7276, 141.5514
167.2097, 143.1728
167.6918, 145.4072
168.1739, 148.1653
168.6560, 150.8724
169.1381, 152.9887
169.6203, 154.8612
170.1024, 155.9276
170.5845, 156.6494
171.0666, 157.9262
171.5487, 160.2631
172.0309, 163.5768
172.5130, 166.9955
172.9951, 169.7756
173.4772, 172.2839
173.9593, 175.1040
174.4414, 178.7835
174.9236, 182.6947
175.4057, 185.9681
175.8878, 188.6238
176.3699, 191.3448
176.8520, 194.7553
177.3341, 198.6781
177.8163, 202.7522
178.2984, 206.7703
178.7805, 210.8245
179.2626, 215.1877
179.7447, 219.8266
180.2268, 224.3222
180.7090, 227.9101
181.1911, 230.8883
181.6732, 234.1432
182.1553, 238.1173
182.6374, 242.6309
183.1195, 247.2885
183.6017, 252.1801
184.0838, 256.9785
184.5659, 261.3071
185.0480, 265.2416
185.5301, 269.3922
186.0123, 274.6139
186.4944, 280.3280
186.9765, 284.2695
187.4586, 286.1282
187.9407, 287.2510
188.4228, 290.0048
188.9050, 294.1479
189.3871, 297.1989
189.8692, 298.1748
190.3513, 297.0875
190.8334, 293.7218
191.3155, 287.9377
191.7977, 280.3066
192.2798, 271.4232
192.7619, 261.2975
193.2440, 250.6474
193.7261, 239.5672
194.2082, 228.1391
194.6904, 216.5100
195.1725, 204.3880
195.6546, 192.6189
196.1367, 183.3829
196.6188, 176.7378
197.1009, 171.0060
197.5831, 165.1969
198.0652, 159.2600
198.5473, 154.6037
199.0294, 151.5742
199.5115, 149.4578
199.9937, 146.6656
200.4758, 143.0711
200.9579, 139.8037
201.4400, 137.5965
201.9221, 136.5100
202.4042, 135.6093
202.8864, 134.9041
203.3685, 134.2907
203.8506, 133.5278
204.3327, 132.6095
204.8148, 131.5970
205.2969, 130.5568
205.7791, 129.5171
206.2612, 128.2340
206.7433, 126.6494
207.2254, 124.8489
207.7075, 123.0034
208.1896, 121.0484
208.6718, 119.2220
209.1539, 117.7195
209.6360, 116.6790
210.1181, 115.3103
210.6002, 113.4639
211.0823, 111.3274
211.5645, 109.3852
212.0466, 107.5920
212.5287, 106.0872
213.0108, 105.0929
213.4929, 104.8759
213.9750, 104.0631
214.4572, 102.3529
214.9393, 100.0969
215.4214, 98.27792
215.9035, 96.97707
216.3856, 95.93255
216.8678, 95.04887
217.3499, 94.34373
217.8320, 93.68330
218.3141, 93.01966
218.7962, 92.40852
219.2783, 92.08147
219.7605, 92.19870
220.2426, 92.30761
220.7247, 92.09680
221.2068, 91.30383
221.6889, 90.96889
222.1710, 91.32120
222.6532, 92.11768
223.1353, 92.56499
223.6174, 92.49279
224.0995, 92.36756
224.5816, 92.43215
225.0637, 92.77864
225.5459, 93.10483
226.0280, 93.48829
226.5101, 93.82923
226.9922, 93.76688
227.4743, 93.05720
227.9564, 92.32878
228.4386, 91.86475
228.9207, 91.70684
229.4028, 91.73728
229.8849, 92.01614
230.3670, 92.46371
230.8492, 92.86202
231.3313, 93.15246
231.8134, 93.47553
232.2955, 93.95068
232.7776, 94.81148
233.2597, 95.22178
233.7419, 94.87107
234.2240, 94.15470
234.7061, 94.18053
235.1882, 95.45579
235.6703, 96.70084
236.1524, 97.32439
236.6346, 96.88456
237.1167, 96.85662
237.5988, 97.45678
238.0809, 98.38844
238.5630, 98.95493
239.0451, 98.96899
239.5273, 98.89029
240.0094, 98.91647
240.4915, 99.14806
240.9736, 99.21178
241.4557, 99.06577
241.9378, 98.76862
242.4200, 98.41891
242.9021, 97.89487
243.3842, 97.50111
243.8663, 97.39853
244.3484, 97.76128
244.8306, 97.89162
245.3127, 97.74879
245.7948, 97.39586
246.2769, 96.93674
246.7590, 96.35277
247.2411, 95.70536
247.7233, 95.01369
248.2054, 94.27668
248.6875, 93.47430
249.1696, 92.47527
249.6517, 91.50703
250.1338, 90.99903
250.6160, 91.25742
251.0981, 91.42259
251.5802, 91.17341
252.0623, 90.38467
252.5444, 89.81988
253.0265, 89.50597
253.5087, 89.39854
253.9908, 89.48855
254.4729, 89.95618
254.9550, 90.25681
255.4371, 90.20025
255.9192, 89.73845
256.4014, 89.31347
256.8835, 88.91068
257.3656, 88.55920
257.8477, 88.27961
258.3298, 88.06421
258.8120, 87.93850
259.2941, 87.92399
259.7762, 88.02727
260.2583, 88.12310
260.7404, 88.20090
261.2225, 88.28279
261.7047, 88.42396
262.1868, 88.70603
262.6689, 88.81508
263.1510, 88.59732
263.6331, 88.06960
264.1152, 87.85954
264.5974, 88.10705
265.0795, 88.45829
265.5616, 88.53249
266.0437, 88.20361
266.5258, 88.01492
267.0079, 88.04282
267.4901, 88.29021
267.9722, 88.82455
268.4543, 89.78026
268.9364, 90.77045
269.4185, 91.46412
269.9006, 91.79555
270.3828, 92.11042
270.8649, 92.42580
271.3470, 92.76865
271.8291, 93.28395
272.3112, 94.00851
272.7933, 94.82029
273.2755, 95.66667
273.7576, 96.57409
274.2397, 97.31570
274.7218, 97.80665
275.2039, 98.13905
275.6860, 98.53460
276.1682, 98.94664
276.6503, 99.61116
277.1324, 100.7250
277.6145, 102.3035
278.0966, 104.0322
278.5787, 105.9473
279.0609, 107.9272
279.5430, 109.6895
280.0251, 111.1855
280.5072, 112.7355
280.9893, 114.7264
281.4715, 117.1385
281.9536, 118.7442
282.4357, 119.2995
282.9178, 119.4077
283.3999, 120.2363
283.8820, 121.8395
284.3642, 123.1470
284.8463, 123.6323
285.3284, 123.3349
285.8105, 122.6860
286.2926, 121.6226
286.7747, 120.4012
287.2569, 119.3541
287.7390, 118.4756
288.2211, 117.6463
288.7032, 116.7974
289.1853, 115.9559
289.6674, 115.2100
290.1496, 114.5494
290.6317, 114.0285
291.1138, 113.5522
291.5959, 113.1897
292.0780, 113.4463
292.5602, 114.7863
293.0423, 116.7475
293.5244, 117.9492
294.0065, 118.3438
294.4886, 118.9973
294.9707, 121.2842
295.4529, 124.7475
295.9350, 127.6223
296.4171, 129.1514
296.8992, 130.1677
297.3813, 132.1277
297.8634, 134.9675
298.3456, 138.1104
298.8277, 141.0593
299.3098, 143.9634
299.7919, 147.2094
300.2740, 151.0234
300.7561, 154.9067
301.2383, 158.3246
301.7204, 161.2668
302.2025, 163.4382
302.6846, 164.7179
303.1667, 165.1179
303.6488, 164.6324
304.1310, 163.2074
304.6131, 161.0698
305.0952, 158.1982
305.5773, 154.7663
306.0594, 151.2596
306.5415, 147.7464
307.0237, 144.3585
307.5058, 141.1525
307.9879, 138.1415
308.4700, 135.4041
308.9521, 133.0354
309.4343, 130.9674
309.9164, 129.0225
310.3985, 127.0421
310.8806, 125.1920
311.3627, 123.5914
311.8448, 122.2320
312.3270, 121.0854
312.8091, 120.0646
313.2912, 119.2655
313.7733, 118.8009
314.2554, 118.9957
314.7375, 119.2896
315.2197, 119.3585
315.7018, 119.2350
316.1839, 119.2076
316.6660, 119.2556
317.1481, 119.5343
317.6302, 120.1722
318.1124, 121.3270
318.5945, 122.6834
319.0766, 124.1407
319.5587, 125.7196
320.0408, 127.5088
320.5229, 129.5766
321.0051, 131.8330
321.4872, 134.2505
321.9693, 136.8614
322.4514, 139.5130
322.9335, 142.0316
323.4156, 144.5794
323.8978, 147.4695
324.3799, 151.2773
324.8620, 154.9828
325.3441, 158.0972
325.8262, 160.1719
326.3083, 162.8714
326.7905, 166.4565
327.2726, 170.7047
327.7547, 175.2886
328.2368, 180.6231
328.7189, 185.8815
329.2010, 190.7054
329.6832, 194.9325
330.1653, 200.0552
330.6474, 206.5472
331.1295, 213.5876
331.6116, 220.5640
332.0938, 227.1008
332.5759, 234.2053
333.0580, 241.9963
333.5401, 250.4844
334.0222, 259.2630
334.5043, 268.7916
334.9865, 278.0781
335.4686, 286.6401
335.9507, 294.4610
336.4328, 301.6998
336.9149, 308.6029
337.3970, 314.9128
337.8792, 319.8887
338.3613, 323.8201
338.8434, 325.8483
339.3255, 325.4297
339.8076, 322.3621
340.2898, 318.3410
340.7719, 313.3592
341.2540, 307.3975
341.7361, 300.0640
342.2182, 291.3800
342.7003, 282.3257
343.1825, 273.1417
343.6646, 263.8479
344.1467, 255.0930
344.6288, 246.7638
345.1109, 239.1562
345.5930, 232.5053
346.0752, 226.8483
346.5573, 221.7032
347.0394, 216.9208
347.5215, 212.5636
348.0036, 208.5501
348.4857, 204.9072
348.9679, 201.9565
349.4500, 200.0842
349.9321, 199.0815
350.4142, 198.3999
350.8963, 198.0263
351.3784, 197.7462
351.8606, 197.3342
352.3427, 196.7992
352.8248, 196.1593
353.3069, 195.2182
353.7890, 194.2670
354.2711, 193.8285
354.7533, 194.0144
355.2354, 194.0803
355.7175, 193.4587
356.1996, 192.2746
356.6817, 190.7446
357.1638, 188.8260
357.6460, 186.6941
358.1281, 184.3735
358.6102, 181.8954
359.0923, 179.4729
359.5744, 177.4656
360.0565, 175.4915
360.5387, 173.1842
361.0208, 170.4369
361.5029, 167.3334
361.9850, 163.7737
362.4671, 159.8729
362.9492, 156.0279
363.4314, 152.1151
363.9135, 148.4855
364.3956, 145.3919
364.8777, 143.0884
365.3598, 140.7641
365.8419, 138.1684
366.3241, 135.4673
366.8062, 132.9256
367.2883, 130.6280
367.7704, 128.4463
368.2526, 126.3543
368.7347, 124.3466
369.2168, 122.4156
369.6989, 120.4729
370.1810, 118.6492
370.6631, 117.0369
371.1453, 115.7524
371.6274, 114.5036
372.1095, 113.2394
372.5916, 111.9673
373.0737, 110.7503
373.5558, 109.4343
374.0380, 108.3852
374.5201, 107.8977
375.0022, 108.2678
375.4843, 108.1975
375.9664, 107.4936
376.4485, 106.4627
376.9307, 105.7004
377.4128, 105.2641
377.8949, 104.8765
378.3770, 104.3925
378.8591, 103.8280
379.3412, 103.5487
379.8234, 103.6333
380.3055, 103.7337
380.7876, 103.3045
381.2697, 102.3901
381.7518, 101.8702
382.2339, 102.1111
382.7161, 102.7876
383.1982, 103.2062
383.6803, 103.3663
384.1624, 103.3344
384.6445, 103.0382
385.1266, 102.5889
385.6088, 102.2441
386.0909, 102.0283
386.5730, 101.9703
387.0551, 102.1417
387.5372, 102.5060
388.0193, 102.9648
388.5015, 103.5722
388.9836, 104.1880
389.4657, 104.6327
389.9478, 104.8919
390.4299, 105.1459
390.9120, 105.3936
391.3942, 105.7463
391.8763, 106.3436
392.3584, 107.6791
392.8405, 108.8447
393.3226, 109.1167
393.8047, 108.7222
394.2869, 108.6989
394.7690, 109.6050
395.2511, 110.9028
395.7332, 112.3280
396.2154, 114.0664
396.6975, 115.4482
397.1796, 115.9893
397.6617, 116.1518
398.1438, 116.7223
398.6259, 117.7931
399.1081, 119.2946
399.5902, 121.3786
400.0723, 124.1779
400.5544, 126.6225
401.0365, 128.6707
401.5186, 130.3984
402.0008, 131.7729
402.4829, 132.3080
402.9650, 133.4647
403.4471, 135.7221
403.9292, 138.7261
404.4113, 140.8947
404.8935, 142.0027
405.3756, 142.8288
405.8577, 143.8224
406.3398, 145.0510
406.8219, 145.8606
407.3040, 146.1814
407.7862, 146.2099
408.2683, 146.1897
408.7504, 146.1206
409.2325, 146.0466
409.7146, 145.8451
410.1967, 145.6844
410.6789, 146.1802
411.1610, 147.3478
411.6431, 148.8067
412.1252, 150.3019
412.6073, 151.8252
413.0894, 153.3061
413.5716, 154.6273
414.0537, 156.0595
414.5358, 157.9623
415.0179, 160.2439
415.5000, 162.6753
415.9821, 165.3311
416.4643, 167.9303
416.9464, 170.1402
417.4285, 171.9063
417.9106, 173.5267
418.3927, 175.3599
418.8748, 177.1030
419.3570, 178.3650
419.8391, 178.6222
420.3212, 178.7687
420.8033, 179.3998
421.2854, 180.3254
421.7675, 180.6676
422.2497, 179.8457
422.7318, 178.6097
423.2139, 177.4016
423.6960, 176.5481
424.1781, 175.1313
424.6602, 172.7711
425.1424, 169.8700
425.6245, 167.0198
426.1066, 164.0135
426.5887, 161.3839
427.0709, 159.3994
427.5530, 158.0583
428.0351, 156.4859
428.5172, 154.7566
428.9993, 152.6627
429.4814, 149.8784
429.9636, 146.0583
430.4457, 142.9351
430.9278, 140.8472
431.4099, 139.3350
431.8920, 137.3690
432.3741, 134.8653
432.8563, 132.4158
433.3384, 130.1537
433.8205, 128.1221
434.3026, 126.7828
434.7847, 126.1835
435.2668, 125.8289
435.7490, 125.2568
436.2311, 124.5121
436.7132, 123.7721
437.1953, 123.0795
437.6774, 122.4158
438.1595, 121.5911
438.6417, 120.7085
439.1238, 120.1949
439.6059, 120.6227
440.0880, 121.3902
440.5701, 121.8676
441.0522, 121.9665
441.5344, 121.9250
442.0165, 121.6521
442.4986, 121.4032
442.9807, 121.4946
443.4628, 122.3818
443.9449, 123.2840
444.4271, 123.7862
444.9092, 123.9861
445.3913, 124.4655
445.8734, 125.5184
446.3555, 126.7570
446.8376, 128.0266
447.3198, 129.5054
447.8019, 130.6247
448.2840, 131.0259
448.7661, 131.2022
449.2482, 131.8884
449.7303, 133.6104
450.2125, 134.9384
450.6946, 135.5389
451.1767, 135.4491
451.6588, 135.2487
452.1409, 135.0493
452.6230, 134.4819
453.1052, 133.1103
453.5873, 130.8337
454.0694, 128.9932
454.5515, 127.8000
455.0337, 126.8620
455.5158, 125.5216
455.9979, 123.7968
456.4800, 122.1333
456.9621, 120.6924
457.4442, 119.4376
457.9264, 118.2940
458.4085, 117.2642
458.8906, 116.2816
459.3727, 115.1023
459.8548, 113.9910
460.3369, 113.4450
460.8191, 113.7090
461.3012, 114.2141
461.7833, 114.5901
462.2654, 114.8668
462.7475, 115.1048
463.2296, 115.0982
463.7118, 115.2541
464.1939, 115.9468
464.6760, 117.2112
465.1581, 118.2218
465.6402, 118.5668
466.1223, 118.6484
466.6045, 118.7412
467.0866, 118.5662
467.5687, 118.7926
468.0508, 119.7377
468.5329, 121.0789
469.0150, 122.1059
469.4972, 122.6033
469.9793, 123.1046
470.4614, 123.8786
470.9435, 124.9700
471.4256, 125.3594
471.9077, 124.7922
472.3899, 124.0353
472.8720, 123.7992
473.3541, 124.1305
473.8362, 124.4703
474.3183, 124.8420
474.8004, 125.0309
475.2826, 124.5088
475.7647, 123.3149
476.2468, 122.0113
476.7289, 120.8047
477.2110, 119.7001
477.6931, 118.7995
478.1753, 118.0970
478.6574, 117.3308
479.1395, 116.2551
479.6216, 114.9862
480.1037, 113.6582
480.5858, 112.1716
481.0680, 110.8794
481.5501, 110.2175
482.0322, 109.9194
482.5143, 109.4341
482.9964, 108.2288
483.4786, 107.0636
483.9607, 106.4367
484.4428, 106.4414
484.9249, 106.0774
485.4070, 104.6941
485.8892, 103.1684
486.3713, 102.1284
486.8534, 101.9576
487.3355, 101.7335
487.8176, 101.4272
488.2997, 101.0583
488.7819, 100.6657
489.2640, 100.2642
489.7461, 99.79121
490.2282, 99.18362
490.7103, 98.45228
491.1924, 97.91048
491.6746, 97.58729
492.1567, 97.31495
492.6388, 96.95772
493.1209, 96.51841
493.6030, 96.05032
494.0851, 95.52471
494.5673, 95.05126
495.0494, 94.85998
495.5315, 94.87679
496.0136, 94.84221
496.4957, 94.65659
496.9778, 94.34370
497.4600, 93.84808
497.9421, 93.19743
498.4242, 92.63161
498.9063, 92.26247
499.3884, 92.05547
499.8705, 92.02198
500.3527, 92.29719
500.8348, 92.41422
501.3169, 92.07634
501.7990, 91.51673
502.2811, 91.06046
502.7632, 90.79633
503.2454, 90.61421
503.7275, 90.53928
504.2096, 90.55515
504.6917, 90.46767
505.1738, 90.20360
505.6559, 89.93957
506.1381, 89.78428
506.6202, 89.78277
507.1023, 89.70177
507.5844, 89.51428
508.0665, 89.29849
508.5486, 89.11892
509.0308, 88.97229
509.5129, 89.04227
509.9950, 89.51238
510.4771, 90.08907
510.9592, 90.03603
511.4413, 89.41275
511.9235, 88.80804
512.4056, 88.52647
512.8877, 88.52210
513.3698, 88.79922
513.8519, 89.37589
514.3340, 89.93875
514.8162, 90.40283
515.2983, 90.66927
515.7804, 90.59952
516.2625, 89.79776
516.7446, 89.10720
517.2267, 88.97701
517.7089, 89.21641
518.1910, 89.35830
518.6731, 89.26378
519.1552, 89.09538
519.6373, 88.84621
520.1194, 88.48532
520.6016, 88.38134
521.0837, 88.77094
521.5658, 89.15340
522.0479, 89.11758
522.5300, 88.49534
523.0121, 88.04994
523.4943, 87.80770
523.9764, 87.79534
524.4585, 88.21132
524.9406, 89.06350
525.4227, 89.65887
525.9048, 89.62348
526.3870, 89.22024
526.8691, 89.11013
527.3513, 89.27818
527.8334, 89.49403
528.3155, 89.68747
528.7976, 89.79198
529.2797, 89.63708
529.7618, 89.14426
530.2440, 88.75439
530.7261, 88.84304
531.2082, 89.20103
531.6903, 89.55872
532.1724, 90.01777
532.6545, 90.26582
533.1367, 90.04102
533.6188, 89.49610
534.1009, 89.16902
534.5830, 89.26107
535.0651, 89.47377
535.5472, 89.76204
536.0294, 90.16785
536.5115, 90.34698
536.9936, 90.19467
537.4757, 89.96324
537.9578, 89.91781
538.4399, 90.13232
538.9221, 90.00031
539.4042, 89.32972
539.8863, 88.51133
540.3684, 88.29321
540.8505, 88.62944
541.3326, 88.97267
541.8148, 89.06728
542.2969, 89.05045
542.7790, 89.19750
543.2611, 89.48454
543.7432, 89.72563
544.2253, 89.83030
544.7075, 89.80657
545.1896, 89.58329
545.6717, 89.08221
546.1538, 88.77867
546.6359, 89.13152
547.1180, 89.70860
547.6002, 90.04619
548.0823, 89.65271
548.5644, 89.45410
549.0465, 89.76615
549.5286, 90.39943
550.0107, 90.80334
550.4929, 90.88343
550.9750, 90.86729
551.4571, 90.76565
551.9392, 90.57681
552.4213, 90.68835
552.9034, 91.19654
553.3856, 91.70390
553.8677, 91.86584
554.3498, 91.70854
554.8319, 91.50027
555.3140, 91.22202
555.7961, 91.06656
556.2783, 91.54298
556.7604, 92.37312
557.2425, 92.73309
557.7246, 91.93204
558.2067, 90.93579
558.6888, 90.68789
559.1710, 91.04184
559.6531, 91.51087
560.1352, 92.07651
560.6173, 92.51218
561.0994, 92.62222
561.5815, 92.35172
562.0637, 92.13267
562.5458, 92.11500
563.0279, 92.13533
563.5100, 92.05961
563.9921, 91.67104
564.4742, 91.59695
564.9564, 92.04073
565.4385, 92.65353
565.9206, 92.76421
566.4027, 92.23363
566.8848, 91.90157
567.3669, 92.07500
567.8491, 92.58200
568.3312, 92.90208
568.8133, 93.03721
569.2954, 93.05509
569.7775, 92.89198
570.2596, 92.67075
570.7418, 92.68400
571.2239, 92.95874
571.7060, 93.14806
572.1881, 92.88909
572.6702, 92.44704
573.1523, 92.09578
573.6345, 91.84853
574.1166, 91.80769
574.5987, 92.23293
575.0808, 92.84618
575.5629, 93.19156
576.0450, 92.85843
576.5272, 92.62045
577.0093, 92.64238
577.4914, 92.88856
577.9735, 93.16044
578.4556, 93.54277
578.9377, 93.77027
579.4199, 93.60160
579.9020, 93.02625
580.3841, 92.86952
580.8662, 93.17131
581.3483, 93.67837
581.8304, 94.28618
582.3126, 94.90838
582.7947, 95.20663
583.2768, 95.05799
583.7589, 94.75571
584.2410, 94.51729
584.7231, 94.36115
585.2053, 94.32422
