##NAMES=Wendwilsonite
##RRUFFID=R050398
##IDEAL CHEMISTRY=Ca_2_Mg(As^5+^O_4_)_2_&#183;2H_2_O
##LOCALITY=Bou Azzer, Morocco
##OWNER=RRUFF
##SOURCE=Marcus Origlieri
##DESCRIPTION=Stout prismatic red crystals
##STATUS=The identification of this mineral has been confirmed by X-ray diffraction and chemical analysis
##URL=rruff.info/R050398
##MEASURED CHEMISTRY=Ca_2.00_(Mg_0.54_Co_0.31_Zn_0.15_)(As_1.00_O_4_)_2_Â·2H_2_O
90.60547, 596.2735
91.08759, 665.5966
91.56970, 707.5720
92.05182, 693.1107
92.53394, 640.4442
93.01605, 582.0903
93.49817, 529.7922
93.98029, 484.4312
94.46240, 448.0522
94.94452, 423.1907
95.42664, 404.9171
95.90874, 391.1630
96.39086, 381.3428
96.87298, 373.9657
97.35509, 367.3044
97.83721, 360.7347
98.31933, 355.2129
98.80145, 350.1837
99.28356, 346.2585
99.76568, 344.2999
100.2478, 344.4696
100.7299, 345.8086
101.2120, 346.0062
101.6941, 342.7856
102.1763, 340.9246
102.6584, 341.1443
103.1405, 342.6958
103.6226, 344.7280
104.1047, 346.9042
104.5868, 349.0165
105.0690, 349.6376
105.5511, 347.7753
106.0332, 345.6906
106.5153, 344.3789
106.9974, 343.7979
107.4795, 343.3931
107.9617, 342.7005
108.4438, 341.8583
108.9259, 341.3704
109.4080, 341.1049
109.8901, 341.2814
110.3722, 342.3679
110.8544, 344.6738
111.3365, 347.1256
111.8186, 348.9566
112.3007, 350.3960
112.7828, 351.8893
113.2649, 353.5973
113.7471, 355.5358
114.2292, 357.8363
114.7113, 360.7969
115.1934, 363.9058
115.6755, 366.7543
116.1576, 369.4928
116.6397, 372.6331
117.1219, 376.6142
117.6040, 381.2648
118.0861, 387.5195
118.5682, 393.6085
119.0503, 402.1312
119.5324, 414.0521
120.0146, 429.7828
120.4967, 449.8590
120.9788, 474.9729
121.4609, 505.0069
121.9430, 542.0071
122.4251, 593.8009
122.9073, 650.1346
123.3894, 703.2330
123.8715, 752.5131
124.3536, 788.7927
124.8357, 782.4865
125.3178, 726.8020
125.8000, 659.3287
126.2821, 584.3491
126.7642, 505.9535
127.2463, 441.0949
127.7284, 399.1746
128.2105, 375.9308
128.6927, 358.9235
129.1748, 349.0962
129.6569, 343.2655
130.1390, 338.7407
130.6211, 335.5256
131.1032, 333.6317
131.5854, 333.6312
132.0675, 334.7444
132.5496, 336.5536
133.0317, 339.1567
133.5138, 342.0293
133.9959, 343.7724
134.4781, 343.1871
134.9602, 343.4337
135.4423, 345.6103
135.9244, 348.9714
136.4065, 352.5147
136.8886, 355.6107
137.3708, 358.3400
137.8529, 361.5552
138.3350, 365.5877
138.8171, 369.8268
139.2992, 374.3266
139.7813, 378.9521
140.2635, 383.4662
140.7456, 387.6212
141.2277, 391.3717
141.7098, 395.3114
142.1919, 399.3167
142.6740, 403.5514
143.1561, 408.1230
143.6383, 413.0242
144.1204, 418.1806
144.6025, 423.5457
145.0846, 429.1529
145.5667, 434.8283
146.0488, 440.2173
146.5310, 445.8160
147.0131, 452.3551
147.4952, 460.1137
147.9773, 468.0757
148.4594, 474.4819
148.9415, 479.6548
149.4237, 486.4099
149.9058, 496.2182
150.3879, 508.4239
150.8700, 521.0145
151.3521, 533.5886
151.8342, 546.9045
152.3164, 560.9340
152.7985, 575.7621
153.2806, 592.6446
153.7627, 612.6786
154.2448, 635.9346
154.7269, 660.4506
155.2091, 684.3056
155.6912, 710.8786
156.1733, 741.5271
156.6554, 776.6341
157.1375, 816.0043
157.6196, 859.6025
158.1018, 907.7156
158.5839, 959.6844
159.0660, 1018.534
159.5481, 1078.652
160.0302, 1138.583
160.5123, 1197.141
160.9945, 1251.300
161.4766, 1295.857
161.9587, 1334.356
162.4408, 1355.366
162.9229, 1356.396
163.4050, 1342.846
163.8871, 1317.245
164.3693, 1280.698
164.8514, 1236.790
165.3335, 1193.754
165.8156, 1148.573
166.2977, 1108.716
166.7798, 1074.566
167.2620, 1046.136
167.7441, 1023.634
168.2262, 1007.165
168.7083, 996.7284
169.1904, 992.8835
169.6725, 995.4161
170.1547, 1002.517
170.6368, 1014.687
171.1189, 1031.177
171.6010, 1049.396
172.0831, 1068.056
172.5652, 1088.134
173.0474, 1110.774
173.5295, 1135.228
174.0116, 1163.443
174.4937, 1197.289
174.9758, 1236.813
175.4579, 1278.997
175.9401, 1322.972
176.4222, 1369.137
176.9043, 1417.355
177.3864, 1467.529
177.8685, 1520.531
178.3506, 1578.012
178.8328, 1640.567
179.3149, 1706.137
179.7970, 1774.580
180.2791, 1845.442
180.7612, 1918.542
181.2433, 1994.485
181.7255, 2071.736
182.2076, 2147.671
182.6897, 2223.255
183.1718, 2295.223
183.6539, 2363.692
184.1360, 2428.761
184.6181, 2490.200
185.1003, 2547.986
185.5824, 2602.070
186.0645, 2651.617
186.5466, 2693.367
187.0287, 2734.273
187.5108, 2778.628
187.9930, 2821.614
188.4751, 2859.610
188.9572, 2891.091
189.4393, 2913.342
189.9214, 2909.156
190.4035, 2877.399
190.8857, 2820.804
191.3678, 2734.013
191.8499, 2623.040
192.3320, 2495.188
192.8141, 2353.143
193.2962, 2199.097
193.7784, 2047.612
194.2605, 1891.156
194.7426, 1744.172
195.2247, 1610.040
195.7068, 1488.834
196.1889, 1379.598
196.6711, 1282.198
197.1532, 1197.246
197.6353, 1122.231
198.1174, 1057.598
198.5995, 1000.787
199.0816, 950.4207
199.5638, 906.3920
200.0459, 868.9162
200.5280, 839.0610
201.0101, 816.1024
201.4922, 796.0267
201.9743, 778.4274
202.4565, 763.8477
202.9386, 753.0051
203.4207, 745.9064
203.9028, 741.3008
204.3849, 739.7086
204.8670, 739.9832
205.3492, 740.7121
205.8313, 742.2056
206.3134, 743.3463
206.7955, 743.5092
207.2776, 743.2912
207.7597, 739.2478
208.2419, 728.5500
208.7240, 713.6328
209.2061, 695.9432
209.6882, 675.4040
210.1703, 653.3693
210.6524, 632.0186
211.1346, 611.5775
211.6167, 591.6117
212.0988, 571.4957
212.5809, 552.0051
213.0630, 533.7250
213.5451, 516.9736
214.0273, 501.6617
214.5094, 487.7103
214.9915, 475.2789
215.4736, 464.1306
215.9557, 454.1542
216.4378, 445.1562
216.9200, 436.9035
217.4021, 429.3463
217.8842, 422.4400
218.3663, 416.1986
218.8484, 411.1140
219.3305, 406.0620
219.8127, 400.4219
220.2948, 394.9130
220.7769, 390.3355
221.2590, 387.0544
221.7411, 384.7452
222.2232, 382.4528
222.7054, 380.0342
223.1875, 377.8254
223.6696, 375.7532
224.1517, 373.9249
224.6338, 372.5624
225.1159, 371.7622
225.5980, 371.2963
226.0802, 370.5011
226.5623, 368.9759
227.0444, 367.5920
227.5265, 366.2856
228.0086, 365.1906
228.4907, 364.5132
228.9729, 364.3430
229.4550, 364.5862
229.9371, 365.0465
230.4192, 365.9956
230.9013, 366.7289
231.3834, 366.7259
231.8656, 366.5314
232.3477, 367.0003
232.8298, 368.4972
233.3119, 370.6384
233.7940, 372.6595
234.2761, 374.5306
234.7583, 376.3801
235.2404, 378.2673
235.7225, 380.1447
236.2046, 381.8249
236.6867, 383.1310
237.1688, 384.5385
237.6510, 387.0870
238.1331, 390.8815
238.6152, 394.6318
239.0973, 397.8749
239.5794, 400.7765
240.0615, 403.7164
240.5437, 406.9022
241.0258, 409.9538
241.5079, 412.4775
241.9900, 414.5473
242.4721, 415.9751
242.9542, 417.1621
243.4364, 417.6583
243.9185, 416.2503
244.4006, 412.5396
244.8827, 407.0648
245.3648, 399.9771
245.8469, 391.5024
246.3290, 383.1902
246.8112, 375.8066
247.2933, 369.1969
247.7754, 362.6714
248.2575, 355.9831
248.7396, 349.7292
249.2217, 344.3383
249.7039, 339.6935
250.1860, 335.5199
250.6681, 331.6618
251.1502, 328.1638
251.6323, 325.1566
252.1144, 322.7849
252.5966, 320.7462
253.0787, 318.7383
253.5608, 316.8685
254.0429, 315.3769
254.5250, 314.5504
255.0071, 314.2242
255.4893, 313.6878
255.9714, 312.5837
256.4535, 311.8873
256.9356, 312.2637
257.4177, 313.2323
257.8998, 313.9804
258.3820, 313.9337
258.8641, 313.4056
259.3462, 313.5209
259.8283, 314.5512
260.3104, 315.8335
260.7925, 317.3993
261.2747, 318.9779
261.7568, 320.0985
262.2389, 320.3982
262.7210, 320.3474
263.2031, 321.4131
263.6852, 324.3549
264.1674, 327.1661
264.6495, 329.2688
265.1316, 331.0542
265.6137, 332.9300
266.0958, 335.0741
266.5779, 337.3585
267.0601, 339.4155
267.5422, 340.8370
268.0243, 342.7975
268.5064, 345.8181
268.9885, 349.1729
269.4706, 352.0534
269.9528, 354.2021
270.4349, 356.2367
270.9170, 359.3612
271.3991, 363.9535
271.8812, 368.9531
272.3633, 374.2761
272.8455, 379.8838
273.3276, 385.7967
273.8097, 392.0036
274.2918, 398.3354
274.7739, 404.2829
275.2560, 408.4877
275.7382, 415.4366
276.2202, 425.8492
276.7024, 437.8336
277.1845, 450.0605
277.6666, 462.4816
278.1487, 476.0955
278.6308, 492.2401
279.1129, 511.4834
279.5951, 531.3177
280.0772, 551.3917
280.5593, 572.2601
281.0414, 595.3276
281.5235, 619.8783
282.0056, 643.5817
282.4878, 664.4747
282.9699, 682.9553
283.4520, 695.9544
283.9341, 704.6852
284.4162, 707.8884
284.8983, 704.2580
285.3805, 694.5055
285.8626, 680.0515
286.3447, 661.5284
286.8268, 639.0927
287.3089, 617.6232
287.7910, 595.9117
288.2732, 576.3782
288.7553, 559.5714
289.2374, 545.5774
289.7195, 534.6450
290.2016, 526.9456
290.6837, 522.3251
291.1659, 520.0034
291.6480, 518.8341
292.1301, 521.2795
292.6122, 528.7145
293.0943, 539.7974
293.5764, 552.3180
294.0586, 565.2683
294.5407, 579.8362
295.0228, 599.3510
295.5049, 626.2230
295.9870, 655.5753
296.4691, 686.0857
296.9513, 719.5081
297.4334, 758.1798
297.9155, 802.6149
298.3976, 851.3096
298.8797, 901.9509
299.3618, 957.5208
299.8440, 1009.205
300.3261, 1060.449
300.8082, 1105.460
301.2903, 1141.364
301.7724, 1166.849
302.2545, 1180.462
302.7367, 1180.306
303.2188, 1164.316
303.7009, 1138.054
304.1830, 1096.719
304.6651, 1050.027
305.1472, 1001.648
305.6294, 952.9783
306.1115, 906.0607
306.5936, 862.5898
307.0757, 822.5126
307.5578, 786.1095
308.0399, 752.3788
308.5221, 722.4317
309.0042, 697.4953
309.4863, 676.8263
309.9684, 659.0752
310.4505, 643.5458
310.9326, 630.1241
311.4148, 618.6811
311.8969, 609.9680
312.3790, 601.9564
312.8611, 593.7614
313.3432, 586.0475
313.8253, 579.8820
314.3075, 575.8036
314.7896, 573.3973
315.2717, 571.6407
315.7538, 570.4273
316.2359, 570.0403
316.7180, 570.5244
317.2001, 571.8425
317.6823, 574.0132
318.1644, 577.0418
318.6465, 580.7639
319.1286, 584.9385
319.6107, 589.4839
320.0928, 594.8141
320.5750, 601.0068
321.0571, 607.9110
321.5392, 615.1827
322.0213, 622.8750
322.5034, 631.7538
322.9855, 642.6064
323.4677, 655.8234
323.9498, 669.0596
324.4319, 681.0749
324.9140, 694.2457
325.3961, 709.5334
325.8782, 726.9758
326.3604, 746.4789
326.8425, 767.9805
327.3246, 791.4768
327.8067, 817.5832
328.2888, 846.0339
328.7709, 876.9681
329.2531, 910.1436
329.7352, 945.8206
330.2173, 984.0824
330.6994, 1024.892
331.1815, 1068.855
331.6636, 1118.114
332.1458, 1175.076
332.6279, 1234.822
333.1100, 1298.724
333.5921, 1364.265
334.0742, 1429.621
334.5563, 1493.730
335.0385, 1557.319
335.5206, 1621.595
336.0027, 1691.341
336.4848, 1748.309
336.9669, 1795.305
337.4490, 1829.561
337.9312, 1849.039
338.4133, 1854.002
338.8954, 1845.889
339.3775, 1825.599
339.8596, 1792.635
340.3417, 1752.483
340.8239, 1701.626
341.3060, 1648.465
341.7881, 1593.385
342.2702, 1538.249
342.7523, 1485.723
343.2344, 1437.344
343.7166, 1393.705
344.1987, 1358.272
344.6808, 1333.535
345.1629, 1315.267
345.6450, 1304.038
346.1271, 1298.948
346.6093, 1299.194
347.0914, 1304.441
347.5735, 1314.800
348.0556, 1330.471
348.5377, 1352.766
349.0198, 1378.871
349.5020, 1407.754
349.9841, 1440.522
350.4662, 1478.460
350.9483, 1521.154
351.4304, 1566.777
351.9125, 1613.588
352.3947, 1662.000
352.8768, 1708.326
353.3589, 1753.919
353.8410, 1796.026
354.3231, 1834.469
354.8052, 1868.518
355.2874, 1897.745
355.7695, 1922.198
356.2516, 1940.925
356.7337, 1949.009
357.2158, 1944.693
357.6979, 1930.458
358.1800, 1905.527
358.6621, 1872.309
359.1443, 1833.277
359.6264, 1789.199
360.1085, 1740.141
360.5906, 1685.301
361.0727, 1623.005
361.5548, 1558.993
362.0370, 1491.818
362.5191, 1424.916
363.0012, 1360.279
363.4833, 1297.746
363.9654, 1237.298
364.4475, 1178.316
364.9297, 1120.667
365.4118, 1066.633
365.8939, 1016.664
366.3760, 970.3375
366.8581, 928.1971
367.3402, 889.5412
367.8224, 852.9235
368.3045, 817.5722
368.7866, 783.9228
369.2687, 753.2703
369.7508, 726.0623
370.2329, 701.2047
370.7151, 678.3195
371.1972, 657.3231
371.6793, 638.0603
372.1614, 620.7040
372.6435, 604.7474
373.1256, 589.7219
373.6078, 575.6411
374.0899, 562.6937
374.5720, 551.4217
375.0541, 540.9391
375.5362, 530.7463
376.0183, 520.7403
376.5005, 510.7467
376.9826, 500.3603
377.4647, 489.8194
377.9468, 479.8931
378.4289, 470.5760
378.9110, 462.0090
379.3932, 454.7968
379.8753, 448.3282
380.3574, 441.4111
380.8395, 433.2332
381.3216, 424.8373
381.8037, 417.5573
382.2859, 411.3926
382.7680, 405.6335
383.2501, 400.0076
383.7322, 394.6386
384.2143, 389.6173
384.6964, 385.0148
385.1786, 380.6190
385.6607, 376.1015
386.1428, 371.7361
386.6249, 368.3008
387.1070, 366.1105
387.5891, 364.5536
388.0713, 363.1302
388.5534, 361.8252
389.0355, 360.2464
389.5176, 357.9472
389.9997, 355.5667
390.4818, 353.7230
390.9640, 352.4383
391.4461, 351.4679
391.9282, 350.6194
392.4103, 349.9721
392.8924, 349.8195
393.3745, 350.4702
393.8567, 351.2259
394.3388, 351.5762
394.8209, 351.8623
395.3030, 352.8415
395.7851, 354.8558
396.2672, 357.3537
396.7494, 359.3431
397.2315, 360.3539
397.7136, 361.9827
398.1957, 364.5516
398.6778, 367.6060
399.1599, 370.4781
399.6420, 373.2771
400.1241, 377.1063
400.6063, 383.1837
401.0884, 391.6485
401.5705, 398.3357
402.0526, 401.8164
402.5347, 405.3858
403.0168, 409.9112
403.4990, 415.2304
403.9811, 420.8344
404.4632, 426.4469
404.9453, 432.4687
405.4274, 439.9455
405.9095, 449.9560
406.3917, 459.5944
406.8738, 468.2238
407.3559, 476.8440
407.8380, 485.8707
408.3201, 495.5469
408.8022, 506.3134
409.2844, 518.7639
409.7665, 532.8915
410.2486, 548.0899
410.7307, 564.2333
411.2128, 581.7009
411.6949, 600.5621
412.1771, 620.7956
412.6592, 642.3698
413.1413, 665.2420
413.6234, 689.5302
414.1055, 715.7256
414.5876, 744.5847
415.0698, 773.4462
415.5519, 801.8611
416.0340, 829.8397
416.5161, 857.9985
416.9982, 886.3498
417.4803, 912.4409
417.9625, 935.1895
418.4446, 954.3040
418.9267, 968.4565
419.4088, 977.6667
419.8909, 981.2705
420.3730, 978.8500
420.8552, 971.0038
421.3373, 958.2254
421.8194, 940.0219
422.3015, 917.6986
422.7836, 891.9235
423.2657, 862.7762
423.7479, 832.9258
424.2300, 803.2391
424.7121, 773.6017
425.1942, 743.0642
425.6763, 711.0758
426.1584, 681.3161
426.6406, 655.6010
427.1227, 633.0246
427.6048, 612.5881
428.0869, 594.0565
428.5690, 576.6031
429.0511, 559.4523
429.5333, 542.6937
430.0154, 527.4973
430.4975, 513.3882
430.9796, 501.2671
431.4617, 492.5341
431.9438, 486.2843
432.4260, 480.0965
432.9081, 472.8097
433.3902, 465.1853
433.8723, 459.0664
434.3544, 455.1624
434.8365, 451.7182
435.3187, 448.1201
435.8008, 445.3257
436.2829, 444.4273
436.7650, 445.3560
437.2471, 446.9771
437.7292, 448.2110
438.2114, 449.0348
438.6935, 450.5978
439.1756, 452.8611
439.6577, 455.9454
440.1398, 459.6674
440.6219, 464.3055
441.1040, 470.1065
441.5862, 477.1521
442.0683, 485.6411
442.5504, 495.9053
443.0325, 508.1484
443.5146, 521.6782
443.9967, 536.3786
444.4789, 552.3978
444.9610, 569.4903
445.4431, 587.8287
445.9252, 608.3397
446.4073, 631.8828
446.8894, 657.9277
447.3716, 684.6943
447.8537, 712.6838
448.3358, 740.0762
448.8179, 767.9698
449.3000, 794.1585
449.7821, 816.4899
450.2643, 834.8014
450.7464, 847.9022
451.2285, 855.3015
451.7106, 856.7839
452.1927, 850.7111
452.6748, 836.2699
453.1570, 815.2719
453.6391, 787.6098
454.1212, 754.4258
454.6033, 719.2796
455.0854, 680.8582
455.5675, 642.5775
456.0497, 606.9050
456.5318, 574.0173
457.0139, 543.4314
457.4960, 514.7776
457.9781, 488.4435
458.4602, 465.7447
458.9424, 447.4048
459.4245, 430.3637
459.9066, 413.6667
460.3887, 398.3335
460.8708, 385.6930
461.3529, 375.7923
461.8351, 367.3643
462.3172, 359.1479
462.7993, 351.1541
463.2814, 344.6005
463.7635, 340.3468
464.2456, 336.4336
464.7278, 332.2891
465.2099, 328.1810
465.6920, 324.4715
466.1741, 321.2896
466.6562, 318.6718
467.1383, 316.6646
467.6205, 315.2410
468.1026, 314.4787
468.5847, 314.8716
469.0668, 315.4966
469.5489, 316.1357
470.0310, 316.6789
470.5132, 316.9057
470.9953, 316.5030
471.4774, 315.8666
471.9595, 316.1624
472.4416, 317.7113
472.9237, 319.0090
473.4059, 319.6849
473.8880, 319.7387
474.3701, 318.9495
474.8522, 317.2662
475.3343, 315.5707
475.8164, 314.6128
476.2986, 314.0562
476.7807, 312.9814
477.2628, 311.2093
477.7449, 309.3744
478.2270, 308.0687
478.7091, 307.0963
479.1913, 305.6633
479.6734, 303.3634
480.1555, 301.0044
480.6376, 299.0656
481.1197, 297.3619
481.6018, 295.5049
482.0839, 293.3683
482.5660, 291.0545
483.0482, 288.6992
483.5303, 286.3490
484.0124, 283.7614
484.4945, 280.5733
484.9766, 277.5096
485.4587, 274.9561
485.9409, 272.8347
486.4230, 270.9474
486.9051, 269.1954
487.3872, 267.4632
487.8693, 265.3957
488.3514, 262.5909
488.8336, 260.1856
489.3157, 258.3138
489.7978, 256.7620
490.2799, 255.5036
490.7620, 254.4648
491.2441, 253.4616
491.7263, 252.3364
492.2084, 251.1302
492.6905, 250.0586
493.1726, 249.1983
493.6547, 248.2965
494.1368, 247.2212
494.6190, 246.0740
495.1011, 244.9732
495.5832, 243.9557
496.0653, 242.8663
496.5474, 241.4711
497.0295, 239.9129
497.5117, 238.6123
497.9938, 237.6174
498.4759, 236.9474
498.9580, 236.8729
499.4401, 237.1946
499.9222, 236.8803
500.4044, 235.1207
500.8865, 233.4798
501.3686, 232.7673
501.8507, 232.7495
502.3328, 233.0485
502.8149, 233.5542
503.2971, 233.9985
503.7792, 234.0011
504.2613, 233.4726
504.7434, 232.7651
505.2255, 231.6290
505.7076, 230.5822
506.1898, 229.7942
506.6719, 229.2938
507.1540, 229.1809
507.6361, 229.5294
508.1182, 230.0566
508.6003, 230.0261
509.0825, 229.0714
509.5646, 228.5446
510.0467, 229.0376
510.5288, 229.5952
511.0109, 229.7492
511.4930, 229.5045
511.9752, 229.0601
512.4573, 228.5093
512.9394, 227.8594
513.4215, 227.0132
513.9036, 225.8765
514.3857, 225.1254
514.8679, 225.1186
515.3500, 225.5786
515.8321, 226.2337
516.3142, 227.1338
516.7963, 227.7141
517.2784, 227.4751
517.7606, 226.8945
518.2427, 226.6317
518.7248, 226.7404
519.2069, 226.9781
519.6890, 227.2258
520.1711, 227.4578
520.6533, 227.5298
521.1354, 227.3614
521.6175, 227.1688
522.0996, 226.8734
522.5817, 226.6351
523.0638, 226.6868
523.5460, 227.0223
524.0281, 227.3431
524.5102, 227.2896
524.9923, 226.8880
525.4744, 227.2021
525.9565, 229.2774
526.4387, 230.6865
526.9208, 230.6490
527.4029, 229.8981
527.8850, 229.0487
528.3671, 228.2930
528.8492, 227.8218
529.3314, 228.0620
529.8135, 228.9009
530.2956, 229.1414
530.7777, 228.4402
531.2598, 227.7159
531.7419, 227.5399
532.2241, 227.7198
532.7062, 227.9708
533.1883, 228.2041
533.6704, 228.5799
534.1525, 229.2895
534.6346, 230.2155
535.1168, 231.2030
535.5989, 232.2528
536.0810, 232.9472
536.5631, 232.7512
537.0452, 231.6101
537.5273, 230.8698
538.0095, 230.6742
538.4916, 230.6751
538.9737, 230.7553
539.4558, 230.9462
539.9379, 231.3662
540.4200, 232.0342
540.9022, 232.7405
541.3843, 233.1688
541.8664, 233.2523
542.3485, 233.4472
542.8306, 234.1473
543.3127, 234.5182
543.7948, 233.8819
544.2769, 232.8711
544.7590, 232.4863
545.2411, 233.1330
545.7233, 234.1891
546.2054, 235.0120
546.6875, 235.5972
547.1696, 235.7643
547.6517, 235.2575
548.1339, 234.7606
548.6160, 235.0366
549.0981, 235.8031
549.5802, 236.2605
550.0623, 235.9447
550.5444, 235.6149
551.0266, 235.8226
551.5087, 236.3796
551.9908, 236.8565
552.4729, 237.1231
552.9550, 237.3298
553.4371, 237.7416
553.9193, 238.5234
554.4014, 238.4464
554.8835, 236.3863
555.3656, 234.8391
555.8477, 235.0732
556.3298, 236.2715
556.8120, 237.1308
557.2941, 237.1896
557.7762, 237.0704
558.2583, 237.7935
558.7404, 239.5177
559.2225, 240.7231
559.7047, 241.2553
560.1868, 241.3632
560.6689, 240.8677
561.1510, 240.1501
561.6331, 239.9327
562.1152, 240.6187
562.5974, 241.3214
563.0795, 240.9852
563.5616, 239.9486
564.0437, 239.5188
564.5258, 240.0390
565.0079, 240.8038
565.4901, 241.2653
565.9722, 241.3984
566.4543, 241.2335
566.9364, 240.1683
567.4185, 239.4955
567.9006, 240.1734
568.3828, 241.3674
568.8649, 241.8333
569.3470, 241.2795
569.8291, 240.3713
570.3112, 239.8532
570.7933, 239.7390
571.2755, 239.7404
571.7576, 239.9398
572.2397, 240.1565
572.7218, 240.2961
573.2039, 240.4540
573.6860, 240.7585
574.1682, 241.2387
574.6503, 241.7607
575.1324, 242.3285
575.6145, 242.8556
576.0966, 242.8484
576.5787, 242.1204
577.0609, 241.4873
577.5430, 241.6352
578.0251, 242.1631
578.5072, 242.0545
578.9893, 240.8924
579.4714, 239.9902
579.9536, 239.8934
580.4357, 240.3078
580.9178, 241.0632
581.3999, 242.0392
581.8820, 242.8004
582.3641, 242.9851
582.8463, 242.6983
583.3284, 242.5528
583.8105, 242.6852
584.2926, 242.7676
584.7747, 242.2944
585.2568, 242.1261
585.7390, 243.5315
586.2211, 246.0845
586.7032, 247.6676
