##NAMES=Wendwilsonite
##RRUFFID=R100174
##IDEAL CHEMISTRY=Ca_2_Mg(As^5+^O_4_)_2_&#183;2H_2_O
##LOCALITY=Bou Azzer, Morocco
##OWNER=RRUFF
##SOURCE=University of Arizona Mineral Museum
##DESCRIPTION=Druse of dark pink elongated pyramidal crystals
##STATUS=The identification of this mineral is confirmed by single-crystal X-ray diffraction and chemical analysis.
##URL=rruff.info/R100174
##MEASURED CHEMISTRY=Ca_2.015_(Mg_0.519_Co_0.408_Zn_0.024_Mn_0.005_)_Σ=0.956_(As_0.999_O_4_)_2_·2H_2_O
90.60547, 263.8285
91.08759, 275.0385
91.56970, 283.1945
92.05182, 280.8934
92.53394, 272.8901
93.01605, 264.4413
93.49817, 258.5562
93.98029, 255.0537
94.46240, 251.1843
94.94452, 246.0500
95.42664, 241.0406
95.90874, 237.0933
96.39086, 234.2092
96.87298, 231.7924
97.35509, 228.9186
97.83721, 224.8330
98.31933, 221.7349
98.80145, 219.9421
99.28356, 218.8230
99.76568, 218.0041
100.2478, 217.3350
100.7299, 216.8974
101.2120, 216.9418
101.6941, 217.3584
102.1763, 218.4386
102.6584, 220.8651
103.1405, 223.8249
103.6226, 226.4737
104.1047, 228.5527
104.5868, 229.7034
105.0690, 227.6058
105.5511, 220.3717
106.0332, 212.4767
106.5153, 205.6574
106.9974, 199.9265
107.4795, 194.8017
107.9617, 189.8918
108.4438, 185.3586
108.9259, 181.6763
109.4080, 178.9828
109.8901, 177.1245
110.3722, 176.0260
110.8544, 175.9229
111.3365, 176.0045
111.8186, 175.6856
112.3007, 175.1345
112.7828, 174.6847
113.2649, 174.5532
113.7471, 174.7195
114.2292, 174.9252
114.7113, 175.0859
115.1934, 175.3841
115.6755, 176.0618
116.1576, 177.0006
116.6397, 177.8170
117.1219, 178.0145
117.6040, 177.2127
118.0861, 176.9737
118.5682, 177.2789
119.0503, 178.0246
119.5324, 179.3889
120.0146, 181.3102
120.4967, 183.3317
120.9788, 184.6318
121.4609, 183.6523
121.9430, 184.4123
122.4251, 188.2413
122.9073, 193.3784
123.3894, 198.1203
123.8715, 201.9846
124.3536, 204.5260
124.8357, 204.1945
125.3178, 200.7694
125.8000, 196.1404
126.2821, 190.1203
126.7642, 183.1843
127.2463, 177.2173
127.7284, 173.1187
128.2105, 170.6028
128.6927, 168.7006
129.1748, 167.4319
129.6569, 166.6947
130.1390, 166.5467
130.6211, 167.0906
131.1032, 167.6103
131.5854, 167.7063
132.0675, 167.6439
132.5496, 167.6291
133.0317, 167.7009
133.5138, 167.9138
133.9959, 168.4060
134.4781, 169.2612
134.9602, 170.3114
135.4423, 171.3504
135.9244, 172.5496
136.4065, 174.1574
136.8886, 176.3670
137.3708, 179.1443
137.8529, 181.8155
138.3350, 184.3633
138.8171, 186.8275
139.2992, 189.4702
139.7813, 192.0690
140.2635, 194.1287
140.7456, 195.1532
141.2277, 194.9821
141.7098, 195.2007
142.1919, 196.4164
142.6740, 197.4442
143.1561, 197.2849
143.6383, 196.0218
144.1204, 194.9178
144.6025, 195.4086
145.0846, 197.8400
145.5667, 199.6384
146.0488, 200.0704
146.5310, 200.1126
147.0131, 200.7617
147.4952, 202.2053
147.9773, 204.1852
148.4594, 206.7394
148.9415, 209.7513
149.4237, 212.5427
149.9058, 214.6480
150.3879, 216.3272
150.8700, 218.2087
151.3521, 220.2509
151.8342, 222.8189
152.3164, 226.4398
152.7985, 230.9505
153.2806, 235.2360
153.7627, 238.0786
154.2448, 239.4393
154.7269, 241.6447
155.2091, 245.6373
155.6912, 250.1342
156.1733, 254.4405
156.6554, 258.5426
157.1375, 262.8882
157.6196, 268.2028
158.1018, 275.0390
158.5839, 281.2104
159.0660, 286.2715
159.5481, 290.9610
160.0302, 295.8600
160.5123, 301.0537
160.9945, 306.0320
161.4766, 309.8620
161.9587, 312.1185
162.4408, 313.7019
162.9229, 314.8532
163.4050, 315.2999
163.8871, 314.4157
164.3693, 311.9966
164.8514, 308.9170
165.3335, 307.3174
165.8156, 307.7812
166.2977, 308.9164
166.7798, 310.6360
167.2620, 312.9432
167.7441, 315.8702
168.2262, 319.4544
168.7083, 323.6183
169.1904, 328.1127
169.6725, 332.7744
170.1547, 337.8955
170.6368, 343.7308
171.1189, 350.1456
171.6010, 356.7392
172.0831, 363.5350
172.5652, 370.2014
173.0474, 376.2503
173.5295, 381.3881
174.0116, 386.4437
174.4937, 392.1377
174.9758, 398.4795
175.4579, 404.5688
175.9401, 409.4194
176.4222, 414.1422
176.9043, 419.8862
177.3864, 426.9630
177.8685, 434.9289
178.3506, 443.4408
178.8328, 452.6924
179.3149, 461.8611
179.7970, 471.1717
180.2791, 480.0817
180.7612, 487.8287
181.2433, 494.0602
181.7255, 499.4822
182.2076, 505.7852
182.6897, 514.0131
183.1718, 521.1283
183.6539, 526.3472
184.1360, 530.4307
184.6181, 534.0405
185.1003, 537.4857
185.5824, 540.7645
186.0645, 543.8696
186.5466, 547.4017
187.0287, 549.9189
187.5108, 551.4020
187.9930, 551.7531
188.4751, 551.0869
188.9572, 549.5389
189.4393, 546.7821
189.9214, 540.7844
190.4035, 531.5354
190.8857, 519.1175
191.3678, 502.4206
191.8499, 482.6575
192.3320, 461.4519
192.8141, 439.5537
193.2962, 417.2035
193.7784, 396.0305
194.2605, 375.5294
194.7426, 356.3696
195.2247, 338.3046
195.7068, 321.6431
196.1889, 307.2044
196.6711, 295.7046
197.1532, 286.9166
197.6353, 278.7904
198.1174, 271.2869
198.5995, 264.3497
199.0816, 257.7376
199.5638, 251.5176
200.0459, 246.2650
200.5280, 242.5113
201.0101, 239.9892
201.4922, 237.6347
201.9743, 235.3978
202.4565, 233.3226
202.9386, 231.4710
203.4207, 229.8425
203.9028, 228.3344
204.3849, 227.1068
204.8670, 225.8930
205.3492, 224.2849
205.8313, 222.0477
206.3134, 219.6006
206.7955, 217.6279
207.2776, 216.3307
207.7597, 214.5646
208.2419, 211.2529
208.7240, 207.4009
209.2061, 204.0217
209.6882, 201.5558
210.1703, 199.4496
210.6524, 196.6467
211.1346, 192.7814
211.6167, 189.2112
212.0988, 186.3929
212.5809, 184.0373
213.0630, 181.9955
213.5451, 180.2887
214.0273, 178.5960
214.5094, 176.0774
214.9915, 171.9423
215.4736, 168.4247
215.9557, 165.9666
216.4378, 164.2080
216.9200, 162.8265
217.4021, 161.6954
217.8842, 160.7859
218.3663, 160.0217
218.8484, 159.2955
219.3305, 158.9238
219.8127, 159.1399
220.2948, 159.6130
220.7769, 160.0056
221.2590, 160.1640
221.7411, 160.1648
222.2232, 160.2295
222.7054, 160.2278
223.1875, 160.4765
223.6696, 161.4007
224.1517, 162.4425
224.6338, 162.8449
225.1159, 162.2671
225.5980, 161.1277
226.0802, 160.6450
226.5623, 161.7201
227.0444, 162.3947
227.5265, 162.1892
228.0086, 161.6016
228.4907, 161.2886
228.9729, 161.5340
229.4550, 162.1195
229.9371, 162.4675
230.4192, 162.1990
230.9013, 162.2908
231.3834, 163.1056
231.8656, 164.3243
232.3477, 165.5077
232.8298, 166.4995
233.3119, 167.3377
233.7940, 168.0949
234.2761, 168.7908
234.7583, 169.3877
235.2404, 169.9833
235.7225, 170.4561
236.2046, 170.4875
236.6867, 169.8501
237.1688, 169.0432
237.6510, 169.0459
238.1331, 169.9572
238.6152, 170.7730
239.0973, 171.1940
239.5794, 171.2815
240.0615, 171.1168
240.5437, 170.6459
241.0258, 170.0807
241.5079, 169.7567
241.9900, 169.6772
242.4721, 169.4639
242.9542, 168.9549
243.4364, 168.1951
243.9185, 167.2568
244.4006, 166.0674
244.8827, 164.8655
245.3648, 163.9937
245.8469, 163.3971
246.3290, 162.6182
246.8112, 161.5229
247.2933, 160.0883
247.7754, 158.1010
248.2575, 155.1927
248.7396, 152.3112
249.2217, 150.0357
249.7039, 148.3299
250.1860, 147.1772
250.6681, 146.9576
251.1502, 147.3546
251.6323, 147.1539
252.1144, 146.0895
252.5966, 144.7444
253.0787, 143.3264
253.5608, 141.9224
254.0429, 140.7181
254.5250, 139.8597
255.0071, 139.2911
255.4893, 138.7969
255.9714, 138.4019
256.4535, 138.0526
256.9356, 137.7454
257.4177, 137.4572
257.8998, 137.1252
258.3820, 136.6433
258.8641, 136.1279
259.3462, 136.0175
259.8283, 136.5277
260.3104, 137.1150
260.7925, 137.6225
261.2747, 138.0810
261.7568, 138.5171
262.2389, 138.9337
262.7210, 139.3606
263.2031, 139.8661
263.6852, 140.3312
264.1674, 141.1179
264.6495, 142.5715
265.1316, 144.2258
265.6137, 145.5410
266.0958, 146.2704
266.5779, 146.6741
267.0601, 147.3974
267.5422, 148.7616
268.0243, 149.8563
268.5064, 150.6131
268.9885, 151.0641
269.4706, 151.0268
269.9528, 150.4701
270.4349, 149.9036
270.9170, 150.4115
271.3991, 152.8322
271.8812, 154.6803
272.3633, 155.3841
272.8455, 155.8023
273.3276, 156.5798
273.8097, 157.8738
274.2918, 159.4041
274.7739, 160.7203
275.2560, 161.5736
275.7382, 162.7609
276.2202, 164.4678
276.7024, 166.2962
277.1845, 167.9722
277.6666, 169.4800
278.1487, 171.0054
278.6308, 172.7559
279.1129, 174.6994
279.5951, 177.0001
280.0772, 179.7467
280.5593, 182.7031
281.0414, 186.0126
281.5235, 189.5024
282.0056, 192.6907
282.4878, 195.1240
282.9699, 196.7825
283.4520, 197.8358
283.9341, 197.8395
284.4162, 197.7724
284.8983, 198.2625
285.3805, 199.0542
285.8626, 199.4007
286.3447, 198.6893
286.8268, 196.9422
287.3089, 195.2304
287.7910, 193.0179
288.2732, 191.4034
288.7553, 190.9396
289.2374, 191.3062
289.7195, 191.9310
290.2016, 192.4878
290.6837, 192.9794
291.1659, 193.4326
291.6480, 193.3599
292.1301, 193.8118
292.6122, 195.0782
293.0943, 196.9448
293.5764, 199.0625
294.0586, 201.2745
294.5407, 203.7400
295.0228, 206.9086
295.5049, 211.8036
295.9870, 216.1754
296.4691, 219.4228
296.9513, 222.3354
297.4334, 225.7615
297.9155, 229.9584
298.3976, 234.6363
298.8797, 239.3194
299.3618, 244.0800
299.8440, 248.6978
300.3261, 253.4686
300.8082, 257.8864
301.2903, 261.8621
301.7724, 265.2451
302.2545, 267.5063
302.7367, 268.0057
303.2188, 266.4219
303.7009, 263.8000
304.1830, 259.7113
304.6651, 255.0358
305.1472, 250.1160
305.6294, 245.0722
306.1115, 240.0768
306.5936, 235.2952
307.0757, 230.4657
307.5578, 226.1141
308.0399, 221.1462
308.5221, 216.4441
309.0042, 212.0139
309.4863, 208.0435
309.9684, 205.1012
310.4505, 203.6595
310.9326, 203.4782
311.4148, 202.9415
311.8969, 201.1879
312.3790, 200.1167
312.8611, 200.0317
313.3432, 200.9539
313.8253, 203.2368
314.3075, 207.1491
314.7896, 211.7652
315.2717, 214.6698
315.7538, 213.8176
316.2359, 214.2236
316.7180, 216.5878
317.2001, 220.2663
317.6823, 224.7444
318.1644, 229.8631
318.6465, 235.3484
319.1286, 240.8255
319.6107, 246.2374
320.0928, 251.7106
320.5750, 257.1151
321.0571, 262.6840
321.5392, 268.7624
322.0213, 275.2874
322.5034, 281.8092
322.9855, 287.8155
323.4677, 293.2754
323.9498, 298.6689
324.4319, 303.4745
324.9140, 308.7051
325.3961, 315.2482
325.8782, 322.7303
326.3604, 329.9731
326.8425, 336.0458
327.3246, 341.1346
327.8067, 347.5375
328.2888, 355.7896
328.7709, 364.5434
329.2531, 373.5376
329.7352, 382.7802
330.2173, 392.3076
330.6994, 402.1362
331.1815, 412.2595
331.6636, 422.7536
332.1458, 433.6228
332.6279, 444.8990
333.1100, 456.9536
333.5921, 469.1701
334.0742, 481.1030
334.5563, 492.5139
335.0385, 503.4798
335.5206, 514.1399
336.0027, 525.2792
336.4848, 533.7822
336.9669, 539.7089
337.4490, 543.3723
337.9312, 545.3002
338.4133, 545.3310
338.8954, 542.5876
339.3775, 536.2005
339.8596, 526.0238
340.3417, 513.6536
340.8239, 497.0506
341.3060, 480.7167
341.7881, 466.5628
342.2702, 453.8574
342.7523, 440.8128
343.2344, 426.2638
343.7166, 410.8201
344.1987, 397.6076
344.6808, 387.7780
345.1629, 379.1147
345.6450, 371.6493
346.1271, 365.2441
346.6093, 359.8806
347.0914, 355.5629
347.5735, 352.0407
348.0556, 348.8964
348.5377, 345.7764
349.0198, 343.7795
349.5020, 343.3879
349.9841, 343.5822
350.4662, 343.6755
350.9483, 343.6040
351.4304, 343.7799
351.9125, 344.7600
352.3947, 346.7665
352.8768, 348.0767
353.3589, 348.1367
353.8410, 348.0572
354.3231, 348.3831
354.8052, 348.8670
355.2874, 349.0290
355.7695, 348.6211
356.2516, 347.5428
356.7337, 345.1620
357.2158, 340.6685
357.6979, 335.8524
358.1800, 331.3547
358.6621, 326.5983
359.1443, 320.8591
359.6264, 313.8342
360.1085, 306.1096
360.5906, 298.6719
361.0727, 291.6728
361.5548, 284.5559
362.0370, 277.2082
362.5191, 269.7955
363.0012, 262.3793
363.4833, 254.9403
363.9654, 247.6145
364.4475, 240.5178
364.9297, 233.6573
365.4118, 226.8693
365.8939, 219.7987
366.3760, 213.2402
366.8581, 207.5510
367.3402, 202.6079
367.8224, 198.1497
368.3045, 194.1077
368.7866, 190.4139
369.2687, 186.8795
369.7508, 183.5496
370.2329, 180.3033
370.7151, 176.8066
371.1972, 173.4946
371.6793, 170.8319
372.1614, 169.0119
372.6435, 167.5866
373.1256, 166.0851
373.6078, 164.5090
374.0899, 162.8700
374.5720, 160.9764
375.0541, 159.2051
375.5362, 157.8513
376.0183, 156.8925
376.5005, 156.0837
376.9826, 155.4066
377.4647, 154.7668
377.9468, 153.6963
378.4289, 151.8661
378.9110, 150.2781
379.3932, 149.9998
379.8753, 150.4051
380.3574, 150.2595
380.8395, 148.7261
381.3216, 146.8907
381.8037, 146.1091
382.2859, 146.3943
382.7680, 146.9906
383.2501, 147.7276
383.7322, 148.4984
384.2143, 149.1180
384.6964, 149.5235
385.1786, 149.9819
385.6607, 150.8093
386.1428, 151.8069
386.6249, 152.2713
387.1070, 151.8004
387.5891, 151.4446
388.0713, 152.8692
388.5534, 155.8816
389.0355, 158.1614
389.5176, 158.6290
389.9997, 158.5333
390.4818, 159.1407
390.9640, 160.4965
391.4461, 161.9050
391.9282, 162.8701
392.4103, 163.4991
392.8924, 164.4011
393.3745, 165.4890
393.8567, 166.9131
394.3388, 168.9370
394.8209, 171.3149
395.3030, 173.4995
395.7851, 175.2826
396.2672, 176.9429
396.7494, 178.9869
397.2315, 181.4556
397.7136, 184.2442
398.1957, 187.6194
398.6778, 191.1557
399.1599, 194.5566
399.6420, 197.7729
400.1241, 200.8180
400.6063, 203.6325
401.0884, 206.2044
401.5705, 209.3852
402.0526, 213.8205
402.5347, 218.0666
403.0168, 221.8127
403.4990, 225.0593
403.9811, 227.8187
404.4632, 230.0870
404.9453, 231.9163
405.4274, 233.4142
405.9095, 234.5355
406.3917, 235.3454
406.8738, 235.5320
407.3559, 235.6703
407.8380, 236.3483
408.3201, 237.5165
408.8022, 238.4713
409.2844, 238.2645
409.7665, 236.7352
410.2486, 236.6807
410.7307, 239.0828
411.2128, 242.0113
411.6949, 245.2106
412.1771, 248.4871
412.6592, 251.5863
413.1413, 254.3524
413.6234, 256.9746
414.1055, 259.9027
414.5876, 263.3044
415.0698, 266.5418
415.5519, 269.2378
416.0340, 271.8592
416.5161, 274.9074
416.9982, 278.3976
417.4803, 281.5196
417.9625, 283.5119
418.4446, 284.4955
418.9267, 285.3979
419.4088, 286.4576
419.8909, 287.0860
420.3730, 287.0868
420.8552, 286.4164
421.3373, 284.8409
421.8194, 281.9232
422.3015, 278.4456
422.7836, 275.5136
423.2657, 273.1168
423.7479, 270.0106
424.2300, 265.4213
424.7121, 260.0873
425.1942, 255.1841
425.6763, 250.8022
426.1584, 246.4337
426.6406, 242.0066
427.1227, 237.4032
427.6048, 232.2352
428.0869, 226.3398
428.5690, 220.7380
429.0511, 216.5486
429.5333, 213.7749
430.0154, 210.4307
430.4975, 205.7931
430.9796, 201.2505
431.4617, 197.6903
431.9438, 194.8710
432.4260, 191.9961
432.9081, 188.6498
433.3902, 185.2704
433.8723, 182.9385
434.3544, 182.3960
434.8365, 181.7280
435.3187, 180.8000
435.8008, 179.7709
436.2829, 178.7334
436.7650, 177.7217
437.2471, 176.7608
437.7292, 175.8506
438.2114, 174.9805
438.6935, 174.4580
439.1756, 174.6403
439.6577, 174.7790
440.1398, 174.3550
440.6219, 173.9020
441.1040, 174.1970
441.5862, 175.5627
442.0683, 177.5758
442.5504, 179.5481
443.0325, 181.6105
443.5146, 183.2449
443.9967, 183.8580
444.4789, 184.4900
444.9610, 185.6475
445.4431, 187.3122
445.9252, 189.2450
446.4073, 191.3307
446.8894, 193.5280
447.3716, 195.6943
447.8537, 197.8549
448.3358, 199.9130
448.8179, 202.2391
449.3000, 204.2707
449.7821, 205.2666
450.2643, 204.9647
450.7464, 204.1445
451.2285, 203.6620
451.7106, 203.3082
452.1927, 201.9417
452.6748, 199.1041
453.1570, 195.7026
453.6391, 192.5290
454.1212, 189.5442
454.6033, 186.6085
455.0854, 184.1077
455.5675, 181.3520
456.0497, 177.1298
456.5318, 171.8060
457.0139, 167.5503
457.4960, 165.6554
457.9781, 165.3084
458.4602, 164.3047
458.9424, 162.2648
459.4245, 160.4829
459.9066, 159.0603
460.3887, 158.0787
460.8708, 157.9161
461.3529, 158.4843
461.8351, 158.8596
462.3172, 158.0508
462.7993, 155.9937
463.2814, 154.9334
463.7635, 155.6084
464.2456, 156.3553
464.7278, 156.7586
465.2099, 156.9871
465.6920, 157.3111
466.1741, 157.8363
466.6562, 158.4588
467.1383, 158.9810
467.6205, 159.3195
468.1026, 159.8336
468.5847, 160.7342
469.0668, 161.6362
469.5489, 162.4851
470.0310, 163.1970
470.5132, 163.5928
470.9953, 163.5171
471.4774, 163.0988
471.9595, 162.5967
472.4416, 161.9298
472.9237, 161.5013
473.4059, 162.1914
473.8880, 162.7200
474.3701, 161.6811
474.8522, 158.8784
475.3343, 155.9391
475.8164, 153.8998
476.2986, 152.5169
476.7807, 151.2600
477.2628, 150.1345
477.7449, 148.8134
478.2270, 146.9294
478.7091, 144.6210
479.1913, 142.5313
479.6734, 140.6880
480.1555, 139.0759
480.6376, 137.8427
481.1197, 136.8206
481.6018, 135.6499
482.0839, 134.2113
482.5660, 132.6238
483.0482, 131.0177
483.5303, 129.3491
484.0124, 127.8711
484.4945, 126.5319
484.9766, 125.4201
485.4587, 124.6663
485.9409, 124.1741
486.4230, 123.7767
486.9051, 123.3964
487.3872, 122.9335
487.8693, 122.0889
488.3514, 120.6571
488.8336, 119.1994
489.3157, 117.5102
489.7978, 116.0067
490.2799, 115.0449
490.7620, 114.5784
491.2441, 114.2851
491.7263, 114.0196
492.2084, 113.7102
492.6905, 112.9060
493.1726, 111.2943
493.6547, 109.9481
494.1368, 109.6099
494.6190, 109.6222
495.1011, 109.2973
495.5832, 108.4762
496.0653, 107.6431
496.5474, 107.2449
497.0295, 107.1311
497.5117, 106.8096
497.9938, 106.1566
498.4759, 105.5145
498.9580, 105.2112
499.4401, 105.1719
499.9222, 104.9817
500.4044, 104.4364
500.8865, 103.9185
501.3686, 103.7069
501.8507, 103.6530
502.3328, 103.3617
502.8149, 102.6859
503.2971, 102.0264
503.7792, 101.9789
504.2613, 102.7645
504.7434, 103.4004
505.2255, 104.1927
505.7076, 104.5574
506.1898, 103.8262
506.6719, 102.4965
507.1540, 101.6029
507.6361, 101.7026
508.1182, 102.3731
508.6003, 102.6207
509.0825, 102.2494
509.5646, 101.9817
510.0467, 101.9947
510.5288, 102.0362
511.0109, 101.9667
511.4930, 101.7998
511.9752, 101.6380
512.4573, 101.6150
512.9394, 101.5948
513.4215, 101.1761
513.9036, 100.2678
514.3857, 99.53505
514.8679, 99.33907
515.3500, 99.37088
515.8321, 99.14285
516.3142, 98.58508
516.7963, 98.32961
517.2784, 98.94370
517.7606, 99.88221
518.2427, 100.4294
518.7248, 100.5186
519.2069, 100.2625
519.6890, 99.60793
520.1711, 98.71293
520.6533, 98.40885
521.1354, 99.40466
521.6175, 99.95132
522.0996, 99.32681
522.5817, 98.36990
523.0638, 97.90078
523.5460, 98.05661
524.0281, 98.54087
524.5102, 99.13545
524.9923, 99.82616
525.4744, 100.1093
525.9565, 99.58496
526.4387, 99.15928
526.9208, 99.05708
527.4029, 99.11611
527.8850, 99.17410
528.3671, 99.18774
528.8492, 99.19791
529.3314, 99.19505
529.8135, 99.19842
530.2956, 99.47758
530.7777, 100.2783
531.2598, 100.8728
531.7419, 100.5739
532.2241, 99.81892
532.7062, 99.31509
533.1883, 99.33067
533.6704, 99.32898
534.1525, 98.85120
534.6346, 98.09067
535.1168, 97.40563
535.5989, 96.84946
536.0810, 96.70296
536.5631, 97.41303
537.0452, 99.03471
537.5273, 99.91132
538.0095, 99.47151
538.4916, 98.99910
538.9737, 99.09558
539.4558, 99.41562
539.9379, 99.34157
540.4200, 98.69913
540.9022, 97.94389
541.3843, 97.74842
541.8664, 98.24446
542.3485, 98.55614
542.8306, 98.50937
543.3127, 98.45804
543.7948, 98.65079
544.2769, 98.86902
544.7590, 98.71721
545.2411, 98.01041
545.7233, 97.19120
546.2054, 96.75391
546.6875, 96.69136
547.1696, 96.98350
547.6517, 97.79944
548.1339, 98.63876
548.6160, 99.16134
549.0981, 99.38287
549.5802, 99.25571
550.0623, 98.18583
550.5444, 97.38566
551.0266, 98.03256
551.5087, 99.50529
551.9908, 100.2968
552.4729, 99.93362
552.9550, 99.18009
553.4371, 98.98635
553.9193, 99.47402
554.4014, 99.79692
554.8835, 99.89051
555.3656, 99.91807
555.8477, 99.83708
556.3298, 99.76225
556.8120, 99.88852
557.2941, 100.2791
557.7762, 100.7448
558.2583, 101.0508
558.7404, 101.2009
559.2225, 101.1263
559.7047, 100.5615
560.1868, 100.1207
560.6689, 100.2998
561.1510, 100.7298
561.6331, 100.6972
562.1152, 99.79169
562.5974, 98.93568
563.0795, 99.21469
563.5616, 100.2865
564.0437, 100.9089
564.5258, 100.8194
565.0079, 100.3139
565.4901, 99.44289
565.9722, 98.28068
566.4543, 97.86752
566.9364, 98.94139
567.4185, 99.91465
567.9006, 100.0388
568.3828, 99.75074
568.8649, 99.74559
569.3470, 100.1758
569.8291, 100.5732
570.3112, 100.3019
570.7933, 99.28431
571.2755, 99.01309
571.7576, 100.3752
572.2397, 101.3777
572.7218, 101.3587
573.2039, 100.8388
573.6860, 100.3009
574.1682, 99.87823
574.6503, 99.73381
575.1324, 100.2330
575.6145, 101.1822
576.0966, 101.7358
576.5787, 101.8336
577.0609, 101.5398
577.5430, 100.5512
578.0251, 99.30424
578.5072, 98.86165
578.9893, 99.60323
579.4714, 100.3393
579.9536, 100.5582
580.4357, 100.5542
580.9178, 100.7872
581.3999, 101.2519
581.8820, 101.4179
582.3641, 100.7846
582.8463, 99.59196
583.3284, 99.25851
583.8105, 100.8377
584.2926, 101.7549
584.7747, 101.3598
