##NAMES=Wendwilsonite
##RRUFFID=R100175
##IDEAL CHEMISTRY=Ca_2_Mg(As^5+^O_4_)_2_&#183;2H_2_O
##LOCALITY=Bou Azzer, Souss- Massa-Draa, Morocco
##OWNER=RRUFF
##SOURCE=University of Arizona Mineral Museum
##DESCRIPTION=Dark pink, bladed crystals
##STATUS=The identification of this mineral is confirmed by single-crystal X-ray diffraction and chemical analysis.
##URL=rruff.info/R100175
##MEASURED CHEMISTRY=Ca_2.017_(Mg_0.608_Co_0.266_Zn_0.069_Mn_0.005_)_Σ=0.995_(As_0.998_O_4_)_2_·2H_2_O
90.60547, 1715.023
91.08759, 1721.548
91.56970, 1739.059
92.05182, 1741.412
92.53394, 1746.713
93.01605, 1748.401
93.49817, 1747.447
93.98029, 1745.755
94.46240, 1740.261
94.94452, 1728.156
95.42664, 1714.675
95.90874, 1703.132
96.39086, 1694.005
96.87298, 1686.622
97.35509, 1679.072
97.83721, 1668.536
98.31933, 1659.702
98.80145, 1653.203
99.28356, 1648.004
99.76568, 1643.003
100.2478, 1637.833
100.7299, 1633.570
101.2120, 1633.220
101.6941, 1639.533
102.1763, 1646.897
102.6584, 1656.090
103.1405, 1665.867
103.6226, 1675.151
104.1047, 1683.823
104.5868, 1690.973
105.0690, 1690.508
105.5511, 1678.860
106.0332, 1664.765
106.5153, 1650.782
106.9974, 1637.200
107.4795, 1625.343
107.9617, 1616.699
108.4438, 1610.643
108.9259, 1604.810
109.4080, 1597.322
109.8901, 1590.386
110.3722, 1587.478
110.8544, 1589.692
111.3365, 1593.497
111.8186, 1597.447
112.3007, 1601.175
112.7828, 1603.829
113.2649, 1604.248
113.7471, 1602.657
114.2292, 1602.072
114.7113, 1602.516
115.1934, 1604.130
115.6755, 1607.872
116.1576, 1613.124
116.6397, 1618.006
117.1219, 1620.161
117.6040, 1617.938
118.0861, 1618.099
118.5682, 1621.186
119.0503, 1625.708
119.5324, 1630.803
120.0146, 1636.273
120.4967, 1642.510
120.9788, 1650.047
121.4609, 1657.737
121.9430, 1669.140
122.4251, 1687.237
122.9073, 1708.096
123.3894, 1728.582
123.8715, 1748.316
124.3536, 1764.240
124.8357, 1767.093
125.3178, 1757.000
125.8000, 1739.501
126.2821, 1711.930
126.7642, 1677.090
127.2463, 1645.868
127.7284, 1623.019
128.2105, 1607.382
128.6927, 1594.781
129.1748, 1585.484
129.6569, 1578.561
130.1390, 1573.133
130.6211, 1569.148
131.1032, 1567.043
131.5854, 1568.305
132.0675, 1571.084
132.5496, 1574.030
133.0317, 1576.959
133.5138, 1579.358
133.9959, 1579.591
134.4781, 1574.998
134.9602, 1572.631
135.4423, 1574.930
135.9244, 1580.169
136.4065, 1586.140
136.8886, 1591.545
137.3708, 1596.466
137.8529, 1601.616
138.3350, 1607.430
138.8171, 1613.074
139.2992, 1618.609
139.7813, 1623.849
140.2635, 1628.458
140.7456, 1632.070
141.2277, 1634.562
141.7098, 1637.144
142.1919, 1640.457
142.6740, 1643.329
143.1561, 1644.600
143.6383, 1644.410
144.1204, 1644.444
144.6025, 1646.661
145.0846, 1651.551
145.5667, 1655.333
146.0488, 1655.886
146.5310, 1656.165
147.0131, 1660.321
147.4952, 1669.788
147.9773, 1679.491
148.4594, 1682.050
148.9415, 1678.811
149.4237, 1677.079
149.9058, 1679.924
150.3879, 1686.317
150.8700, 1693.658
151.3521, 1702.565
151.8342, 1710.945
152.3164, 1716.660
152.7985, 1720.043
153.2806, 1723.876
153.7627, 1730.373
154.2448, 1739.588
154.7269, 1749.061
155.2091, 1759.422
155.6912, 1769.167
156.1733, 1776.560
156.6554, 1781.867
157.1375, 1787.650
157.6196, 1797.367
158.1018, 1812.579
158.5839, 1827.273
159.0660, 1842.265
159.5481, 1855.993
160.0302, 1866.928
160.5123, 1874.872
160.9945, 1881.213
161.4766, 1888.536
161.9587, 1900.296
162.4408, 1907.546
162.9229, 1909.015
163.4050, 1906.961
163.8871, 1902.826
164.3693, 1897.197
164.8514, 1890.728
165.3335, 1884.963
165.8156, 1879.749
166.2977, 1875.496
166.7798, 1871.800
167.2620, 1869.164
167.7441, 1868.576
168.2262, 1870.648
168.7083, 1874.625
169.1904, 1878.371
169.6725, 1881.483
170.1547, 1885.079
170.6368, 1889.982
171.1189, 1895.819
171.6010, 1901.162
172.0831, 1904.832
172.5652, 1908.099
173.0474, 1913.473
173.5295, 1921.569
174.0116, 1930.537
174.4937, 1939.111
174.9758, 1947.312
175.4579, 1955.367
175.9401, 1962.953
176.4222, 1970.698
176.9043, 1979.382
177.3864, 1989.477
177.8685, 1999.858
178.3506, 2009.079
178.8328, 2016.849
179.3149, 2024.551
179.7970, 2032.302
180.2791, 2040.384
180.7612, 2049.205
181.2433, 2059.075
181.7255, 2069.315
182.2076, 2078.692
182.6897, 2087.735
183.1718, 2094.616
183.6539, 2098.297
184.1360, 2100.340
184.6181, 2102.524
185.1003, 2105.785
185.5824, 2109.296
186.0645, 2110.039
186.5466, 2105.050
187.0287, 2100.692
187.5108, 2098.635
187.9930, 2097.487
188.4751, 2095.683
188.9572, 2092.420
189.4393, 2087.617
189.9214, 2080.680
190.4035, 2071.761
190.8857, 2060.607
191.3678, 2046.153
191.8499, 2029.533
192.3320, 2012.726
192.8141, 1997.055
193.2962, 1982.098
193.7784, 1964.086
194.2605, 1939.868
194.7426, 1916.709
195.2247, 1896.223
195.7068, 1878.596
196.1889, 1864.085
196.6711, 1853.156
197.1532, 1845.571
197.6353, 1838.983
198.1174, 1833.697
198.5995, 1828.955
199.0816, 1823.905
199.5638, 1818.748
200.0459, 1814.952
200.5280, 1813.627
201.0101, 1814.377
201.4922, 1815.444
201.9743, 1816.755
202.4565, 1818.400
202.9386, 1820.732
203.4207, 1823.794
203.9028, 1826.491
204.3849, 1828.342
204.8670, 1829.377
205.3492, 1829.552
205.8313, 1828.663
206.3134, 1827.170
206.7955, 1825.978
207.2776, 1825.466
207.7597, 1823.464
208.2419, 1817.773
208.7240, 1810.506
209.2061, 1803.582
209.6882, 1797.663
210.1703, 1792.218
210.6524, 1786.519
211.1346, 1780.914
211.6167, 1774.139
212.0988, 1764.406
212.5809, 1754.052
213.0630, 1745.380
213.5451, 1739.458
214.0273, 1735.235
214.5094, 1730.313
214.9915, 1723.864
215.4736, 1718.257
215.9557, 1713.884
216.4378, 1710.431
216.9200, 1707.572
217.4021, 1705.183
217.8842, 1703.308
218.3663, 1702.144
218.8484, 1702.361
219.3305, 1702.376
219.8127, 1701.667
220.2948, 1700.816
220.7769, 1700.600
221.2590, 1701.374
221.7411, 1702.636
222.2232, 1702.871
222.7054, 1700.153
223.1875, 1698.725
223.6696, 1699.766
224.1517, 1701.885
224.6338, 1703.391
225.1159, 1703.533
225.5980, 1702.895
226.0802, 1703.189
226.5623, 1705.094
227.0444, 1707.165
227.5265, 1709.838
228.0086, 1712.470
228.4907, 1714.081
228.9729, 1714.227
229.4550, 1713.461
229.9371, 1713.192
230.4192, 1713.711
230.9013, 1714.234
231.3834, 1713.857
231.8656, 1713.586
232.3477, 1715.219
232.8298, 1719.639
233.3119, 1725.471
233.7940, 1729.833
234.2761, 1732.763
234.7583, 1734.641
235.2404, 1734.613
235.7225, 1733.716
236.2046, 1733.935
236.6867, 1736.137
237.1688, 1739.133
237.6510, 1741.050
238.1331, 1742.079
238.6152, 1741.936
239.0973, 1739.765
239.5794, 1736.387
240.0615, 1733.459
240.5437, 1731.284
241.0258, 1729.977
241.5079, 1730.179
241.9900, 1731.916
242.4721, 1732.861
242.9542, 1731.514
243.4364, 1728.642
243.9185, 1726.391
244.4006, 1725.683
244.8827, 1724.713
245.3648, 1721.372
245.8469, 1715.981
246.3290, 1710.654
246.8112, 1706.770
247.2933, 1703.797
247.7754, 1699.954
248.2575, 1694.775
248.7396, 1689.088
249.2217, 1682.888
249.7039, 1676.555
250.1860, 1671.584
250.6681, 1669.761
251.1502, 1670.120
251.6323, 1668.971
252.1144, 1665.635
252.5966, 1661.555
253.0787, 1656.921
253.5608, 1652.252
254.0429, 1648.711
254.5250, 1647.185
255.0071, 1647.327
255.4893, 1647.969
255.9714, 1649.826
256.4535, 1650.977
256.9356, 1650.142
257.4177, 1648.222
257.8998, 1646.673
258.3820, 1646.360
258.8641, 1646.966
259.3462, 1647.327
259.8283, 1646.992
260.3104, 1647.198
260.7925, 1648.279
261.2747, 1650.050
261.7568, 1652.477
262.2389, 1655.802
262.7210, 1659.321
263.2031, 1660.714
263.6852, 1657.839
264.1674, 1656.544
264.6495, 1659.212
265.1316, 1663.486
265.6137, 1666.850
266.0958, 1668.198
266.5779, 1668.315
267.0601, 1668.922
267.5422, 1669.729
268.0243, 1671.709
268.5064, 1676.471
268.9885, 1681.505
269.4706, 1684.151
269.9528, 1683.544
270.4349, 1681.569
270.9170, 1682.033
271.3991, 1686.984
271.8812, 1690.332
272.3633, 1689.952
272.8455, 1689.156
273.3276, 1690.749
273.8097, 1695.281
274.2918, 1700.951
274.7739, 1704.888
275.2560, 1705.624
275.7382, 1707.772
276.2202, 1711.979
276.7024, 1716.791
277.1845, 1721.452
277.6666, 1725.789
278.1487, 1729.927
278.6308, 1733.994
279.1129, 1737.910
279.5951, 1741.992
280.0772, 1745.660
280.5593, 1749.931
281.0414, 1756.133
281.5235, 1763.743
282.0056, 1770.741
282.4878, 1775.119
282.9699, 1776.561
283.4520, 1777.706
283.9341, 1779.279
284.4162, 1779.954
284.8983, 1779.382
285.3805, 1777.479
285.8626, 1774.190
286.3447, 1769.427
286.8268, 1763.226
287.3089, 1756.026
287.7910, 1744.498
288.2732, 1735.600
288.7553, 1733.248
289.2374, 1734.941
289.7195, 1735.781
290.2016, 1732.695
290.6837, 1726.618
291.1659, 1722.741
291.6480, 1723.234
292.1301, 1723.378
292.6122, 1721.145
293.0943, 1718.415
293.5764, 1717.996
294.0586, 1721.215
294.5407, 1726.986
295.0228, 1732.406
295.5049, 1737.776
295.9870, 1742.373
296.4691, 1745.215
296.9513, 1747.690
297.4334, 1751.366
297.9155, 1756.721
298.3976, 1763.028
298.8797, 1769.061
299.3618, 1774.470
299.8440, 1780.309
300.3261, 1787.223
300.8082, 1794.113
301.2903, 1800.359
301.7724, 1805.733
302.2545, 1810.134
302.7367, 1813.545
303.2188, 1816.055
303.7009, 1816.531
304.1830, 1814.009
304.6651, 1810.448
305.1472, 1806.682
305.6294, 1802.937
306.1115, 1799.441
306.5936, 1796.429
307.0757, 1793.923
307.5578, 1791.305
308.0399, 1788.139
308.5221, 1785.303
309.0042, 1783.183
309.4863, 1781.713
309.9684, 1780.621
310.4505, 1779.676
310.9326, 1779.015
311.4148, 1779.688
311.8969, 1782.490
312.3790, 1785.491
312.8611, 1787.287
313.3432, 1789.156
313.8253, 1793.484
314.3075, 1801.459
314.7896, 1811.731
315.2717, 1820.896
315.7538, 1827.266
316.2359, 1835.037
316.7180, 1845.153
317.2001, 1856.568
317.6823, 1868.384
318.1644, 1880.352
318.6465, 1892.098
319.1286, 1902.913
319.6107, 1911.346
320.0928, 1922.521
320.5750, 1939.183
321.0571, 1956.634
321.5392, 1970.911
322.0213, 1981.747
322.5034, 1992.144
322.9855, 2005.112
323.4677, 2021.309
323.9498, 2035.849
324.4319, 2047.469
324.9140, 2058.893
325.3961, 2070.219
325.8782, 2082.318
326.3604, 2097.786
326.8425, 2119.036
327.3246, 2145.251
327.8067, 2167.427
328.2888, 2181.680
328.7709, 2196.972
329.2531, 2215.441
329.7352, 2236.443
330.2173, 2258.667
330.6994, 2281.478
331.1815, 2305.304
331.6636, 2331.553
332.1458, 2362.563
332.6279, 2393.244
333.1100, 2422.688
333.5921, 2451.941
334.0742, 2482.580
334.5563, 2514.706
335.0385, 2547.129
335.5206, 2578.057
336.0027, 2608.371
336.4848, 2634.401
336.9669, 2658.704
337.4490, 2677.546
337.9312, 2688.507
338.4133, 2691.591
338.8954, 2688.148
339.3775, 2679.355
339.8596, 2665.159
340.3417, 2645.591
340.8239, 2619.346
341.3060, 2590.016
341.7881, 2556.765
342.2702, 2521.390
342.7523, 2487.056
343.2344, 2455.772
343.7166, 2427.296
344.1987, 2400.799
344.6808, 2376.471
345.1629, 2354.152
345.6450, 2333.306
346.1271, 2314.862
346.6093, 2300.226
347.0914, 2289.924
347.5735, 2282.596
348.0556, 2275.811
348.5377, 2268.397
349.0198, 2263.922
349.5020, 2263.233
349.9841, 2264.389
350.4662, 2266.376
350.9483, 2268.927
351.4304, 2272.096
351.9125, 2275.872
352.3947, 2280.173
352.8768, 2285.645
353.3589, 2294.813
353.8410, 2302.626
354.3231, 2307.260
354.8052, 2309.117
355.2874, 2309.483
355.7695, 2309.296
356.2516, 2308.228
356.7337, 2304.328
357.2158, 2296.048
357.6979, 2286.741
358.1800, 2277.860
358.6621, 2268.005
359.1443, 2255.680
359.6264, 2240.252
360.1085, 2222.384
360.5906, 2202.793
361.0727, 2180.645
361.5548, 2158.928
362.0370, 2139.001
362.5191, 2118.839
363.0012, 2096.742
363.4833, 2072.680
363.9654, 2048.739
364.4475, 2026.811
364.9297, 2006.948
365.4118, 1988.183
365.8939, 1970.736
366.3760, 1954.280
366.8581, 1938.443
367.3402, 1923.512
367.8224, 1910.098
368.3045, 1898.823
368.7866, 1889.200
369.2687, 1879.656
369.7508, 1869.662
370.2329, 1861.060
370.7151, 1855.291
371.1972, 1850.698
371.6793, 1845.561
372.1614, 1839.383
372.6435, 1833.049
373.1256, 1827.689
373.6078, 1823.367
374.0899, 1819.292
374.5720, 1815.254
375.0541, 1811.495
375.5362, 1808.842
376.0183, 1807.017
376.5005, 1803.873
376.9826, 1796.857
377.4647, 1787.204
377.9468, 1779.793
378.4289, 1776.003
378.9110, 1772.000
379.3932, 1764.895
379.8753, 1755.775
380.3574, 1746.533
380.8395, 1737.755
381.3216, 1729.094
381.8037, 1719.854
382.2859, 1709.986
382.7680, 1701.092
383.2501, 1694.011
383.7322, 1688.342
384.2143, 1683.314
384.6964, 1679.182
385.1786, 1674.872
385.6607, 1668.957
386.1428, 1662.427
386.6249, 1658.254
387.1070, 1657.693
387.5891, 1658.084
388.0713, 1656.163
388.5534, 1652.176
389.0355, 1648.450
389.5176, 1645.169
389.9997, 1642.542
390.4818, 1641.320
390.9640, 1641.382
391.4461, 1640.647
391.9282, 1637.006
392.4103, 1631.485
392.8924, 1629.414
393.3745, 1634.010
393.8567, 1638.193
394.3388, 1638.458
394.8209, 1636.427
395.3030, 1635.446
395.7851, 1636.866
396.2672, 1639.086
396.7494, 1639.158
397.2315, 1635.703
397.7136, 1633.323
398.1957, 1633.003
398.6778, 1633.267
399.1599, 1632.465
399.6420, 1630.696
400.1241, 1629.801
400.6063, 1631.630
401.0884, 1636.312
401.5705, 1639.538
402.0526, 1641.241
402.5347, 1641.840
403.0168, 1640.325
403.4990, 1638.036
403.9811, 1637.378
404.4632, 1639.545
404.9453, 1643.059
405.4274, 1644.270
405.9095, 1641.743
406.3917, 1639.212
406.8738, 1636.823
407.3559, 1634.475
407.8380, 1631.444
408.3201, 1628.046
408.8022, 1625.955
409.2844, 1627.268
409.7665, 1632.280
410.2486, 1635.769
410.7307, 1636.978
411.2128, 1637.299
411.6949, 1636.530
412.1771, 1635.262
412.6592, 1634.297
413.1413, 1633.984
413.6234, 1634.324
414.1055, 1635.658
414.5876, 1638.709
415.0698, 1640.545
415.5519, 1638.334
416.0340, 1636.111
416.5161, 1637.243
416.9982, 1641.942
417.4803, 1646.806
417.9625, 1648.271
418.4446, 1647.032
418.9267, 1648.209
419.4088, 1653.459
419.8909, 1658.763
420.3730, 1661.191
420.8552, 1661.808
421.3373, 1662.652
421.8194, 1664.365
422.3015, 1666.631
422.7836, 1669.544
423.2657, 1673.076
423.7479, 1675.388
424.2300, 1675.150
424.7121, 1673.797
425.1942, 1673.487
425.6763, 1674.227
426.1584, 1675.857
426.6406, 1678.738
427.1227, 1682.355
427.6048, 1685.590
428.0869, 1688.211
428.5690, 1691.435
429.0511, 1696.530
429.5333, 1703.567
430.0154, 1710.304
430.4975, 1717.011
430.9796, 1723.167
431.4617, 1727.471
431.9438, 1730.908
432.4260, 1736.113
432.9081, 1744.376
433.3902, 1754.751
433.8723, 1765.058
434.3544, 1775.319
434.8365, 1785.393
435.3187, 1794.461
435.8008, 1803.870
436.2829, 1815.189
436.7650, 1828.260
437.2471, 1841.198
437.7292, 1852.109
438.2114, 1860.962
438.6935, 1870.666
439.1756, 1881.564
439.6577, 1893.002
440.1398, 1904.552
440.6219, 1916.648
441.1040, 1929.715
441.5862, 1943.888
442.0683, 1959.280
442.5504, 1976.066
443.0325, 1994.637
443.5146, 2013.618
443.9967, 2032.019
444.4789, 2051.526
444.9610, 2072.993
445.4431, 2096.280
445.9252, 2121.120
446.4073, 2147.825
446.8894, 2175.648
447.3716, 2201.755
447.8537, 2225.997
448.3358, 2248.785
448.8179, 2271.987
449.3000, 2293.199
449.7821, 2309.803
450.2643, 2321.335
450.7464, 2327.845
451.2285, 2330.447
451.7106, 2328.422
452.1927, 2317.567
452.6748, 2296.083
453.1570, 2267.698
453.6391, 2234.351
454.1212, 2196.853
454.6033, 2157.494
455.0854, 2114.998
455.5675, 2072.410
456.0497, 2031.772
456.5318, 1993.339
457.0139, 1956.922
457.4960, 1922.163
457.9781, 1889.711
458.4602, 1861.632
458.9424, 1838.895
459.4245, 1817.535
459.9066, 1796.525
460.3887, 1776.853
460.8708, 1759.600
461.3529, 1744.882
461.8351, 1732.078
462.3172, 1720.527
462.7993, 1710.281
463.2814, 1701.808
463.7635, 1696.553
464.2456, 1691.268
464.7278, 1684.655
465.2099, 1677.628
465.6920, 1671.598
466.1741, 1667.064
466.6562, 1663.323
467.1383, 1659.056
467.6205, 1653.664
468.1026, 1649.511
468.5847, 1647.137
469.0668, 1645.628
469.5489, 1645.378
470.0310, 1645.742
470.5132, 1645.089
470.9953, 1641.830
471.4774, 1637.455
471.9595, 1636.359
472.4416, 1639.759
472.9237, 1641.933
473.4059, 1640.064
473.8880, 1636.478
474.3701, 1633.160
474.8522, 1630.355
475.3343, 1627.318
475.8164, 1623.313
476.2986, 1618.763
476.7807, 1614.859
477.2628, 1611.924
477.7449, 1608.615
478.2270, 1603.345
478.7091, 1596.803
479.1913, 1591.948
479.6734, 1589.862
480.1555, 1588.445
480.6376, 1586.848
481.1197, 1585.114
481.6018, 1583.451
482.0839, 1581.959
482.5660, 1580.173
483.0482, 1577.428
483.5303, 1573.552
484.0124, 1569.151
484.4945, 1563.243
484.9766, 1557.770
485.4587, 1553.767
485.9409, 1551.035
486.4230, 1549.217
486.9051, 1548.221
487.3872, 1547.258
487.8693, 1543.898
488.3514, 1536.287
488.8336, 1529.672
489.3157, 1524.005
489.7978, 1519.627
490.2799, 1517.625
490.7620, 1517.440
491.2441, 1516.770
491.7263, 1513.201
492.2084, 1507.662
492.6905, 1505.026
493.1726, 1506.798
493.6547, 1507.883
494.1368, 1505.734
494.6190, 1502.072
495.1011, 1498.327
495.5832, 1494.689
496.0653, 1491.475
496.5474, 1489.429
497.0295, 1488.036
497.5117, 1485.215
497.9938, 1480.073
498.4759, 1476.020
498.9580, 1476.955
499.4401, 1481.694
499.9222, 1483.702
500.4044, 1481.069
500.8865, 1477.190
501.3686, 1472.525
501.8507, 1468.029
502.3328, 1465.984
502.8149, 1467.248
503.2971, 1469.785
503.7792, 1470.786
504.2613, 1469.956
504.7434, 1468.489
505.2255, 1465.849
505.7076, 1463.191
506.1898, 1460.559
506.6719, 1458.391
507.1540, 1457.691
507.6361, 1459.055
508.1182, 1461.421
508.6003, 1462.218
509.0825, 1460.721
509.5646, 1459.605
510.0467, 1460.011
510.5288, 1460.098
511.0109, 1458.481
511.4930, 1455.537
511.9752, 1452.832
512.4573, 1451.380
512.9394, 1450.790
513.4215, 1450.030
513.9036, 1448.954
514.3857, 1448.734
514.8679, 1451.019
515.3500, 1453.464
515.8321, 1452.690
516.3142, 1448.224
516.7963, 1444.329
517.2784, 1443.624
517.7606, 1444.191
518.2427, 1442.874
518.7248, 1439.535
519.2069, 1437.223
519.6890, 1438.404
520.1711, 1442.096
520.6533, 1443.299
521.1354, 1440.673
521.6175, 1437.792
522.0996, 1434.493
522.5817, 1431.635
523.0638, 1430.516
523.5460, 1431.093
524.0281, 1431.699
524.5102, 1430.474
524.9923, 1427.531
525.4744, 1427.160
525.9565, 1432.749
526.4387, 1436.480
526.9208, 1435.242
527.4029, 1432.281
527.8850, 1431.148
528.3671, 1432.695
528.8492, 1434.860
529.3314, 1435.873
529.8135, 1435.730
530.2956, 1433.986
530.7777, 1429.583
531.2598, 1425.749
531.7419, 1425.133
532.2241, 1426.285
532.7062, 1426.928
533.1883, 1426.384
533.6704, 1425.826
534.1525, 1426.495
534.6346, 1427.705
535.1168, 1427.671
535.5989, 1425.914
536.0810, 1423.674
536.5631, 1422.256
537.0452, 1421.705
537.5273, 1420.449
538.0095, 1416.999
538.4916, 1414.558
538.9737, 1415.037
539.4558, 1417.020
539.9379, 1418.515
540.4200, 1418.838
540.9022, 1418.371
541.3843, 1417.569
541.8664, 1416.374
542.3485, 1415.201
542.8306, 1413.910
543.3127, 1412.829
543.7948, 1411.333
544.2769, 1410.337
544.7590, 1411.839
545.2411, 1416.955
545.7233, 1421.992
546.2054, 1421.158
546.6875, 1414.988
547.1696, 1411.921
547.6517, 1414.626
548.1339, 1417.976
548.6160, 1417.369
549.0981, 1413.933
549.5802, 1410.543
550.0623, 1406.574
550.5444, 1404.025
551.0266, 1405.248
551.5087, 1408.768
551.9908, 1411.190
552.4729, 1411.482
552.9550, 1410.763
553.4371, 1410.491
553.9193, 1410.945
554.4014, 1410.047
554.8835, 1405.016
555.3656, 1401.906
555.8477, 1405.396
556.3298, 1411.385
556.8120, 1413.142
557.2941, 1408.364
557.7762, 1401.534
558.2583, 1399.383
558.7404, 1402.662
559.2225, 1404.326
559.7047, 1403.081
560.1868, 1401.600
560.6689, 1400.946
561.1510, 1400.957
561.6331, 1401.553
562.1152, 1403.083
562.5974, 1404.112
563.0795, 1402.596
563.5616, 1399.369
564.0437, 1397.832
564.5258, 1399.033
565.0079, 1400.126
565.4901, 1397.880
565.9722, 1392.610
566.4543, 1390.331
566.9364, 1393.747
567.4185, 1397.049
567.9006, 1397.998
568.3828, 1397.511
568.8649, 1396.816
569.3470, 1396.288
569.8291, 1395.824
570.3112, 1395.378
570.7933, 1394.986
571.2755, 1393.934
571.7576, 1391.176
572.2397, 1389.076
572.7218, 1388.255
573.2039, 1388.315
573.6860, 1388.975
574.1682, 1390.135
574.6503, 1391.281
575.1324, 1391.847
575.6145, 1391.963
576.0966, 1392.526
576.5787, 1393.987
577.0609, 1394.216
577.5430, 1390.736
578.0251, 1385.480
578.5072, 1383.187
578.9893, 1385.168
579.4714, 1387.363
579.9536, 1389.048
580.4357, 1389.675
580.9178, 1387.672
581.3999, 1383.369
581.8820, 1379.943
582.3641, 1379.996
582.8463, 1382.843
583.3284, 1384.482
583.8105, 1384.282
584.2926, 1383.729
584.7747, 1382.971
585.2568, 1381.910
