##NAMES=Wendwilsonite
##RRUFFID=R180008
##IDEAL CHEMISTRY=Ca_2_Mg(As^5+^O_4_)_2_&#183;2H_2_O
##LOCALITY=Bou Azzer, Morrocco
##OWNER=RRUFF
##SOURCE=Wendell Wilson
##DESCRIPTION=Red crystals associated with colorless calcite
##STATUS=The identification of this mineral is confirmed by single-crystal X-ray diffraction and chemical analysis.
##URL=rruff.info/R180008
##MEASURED CHEMISTRY=Ca_1.97_(Mg_0.55_Co_0.38_Ni_0.03_Mn_0.02_Cu_0.01_)_Σ=0.99_(AsO_4_)_2_·2H_2_O
8.813672e+001, 2.942195e+002
8.861884e+001, 3.026897e+002
8.910095e+001, 3.080667e+002
8.958307e+001, 3.097973e+002
9.006519e+001, 3.087160e+002
9.054730e+001, 3.056259e+002
9.102942e+001, 3.007750e+002
9.151154e+001, 2.937594e+002
9.199365e+001, 2.825049e+002
9.247577e+001, 2.685245e+002
9.295789e+001, 2.558930e+002
9.344000e+001, 2.462737e+002
9.392212e+001, 2.392481e+002
9.440424e+001, 2.341257e+002
9.488635e+001, 2.313335e+002
9.536847e+001, 2.299346e+002
9.585059e+001, 2.284814e+002
9.633270e+001, 2.269886e+002
9.681482e+001, 2.265667e+002
9.729694e+001, 2.279375e+002
9.777905e+001, 2.310140e+002
9.826117e+001, 2.345595e+002
9.874329e+001, 2.379556e+002
9.922540e+001, 2.422098e+002
9.970752e+001, 2.507408e+002
1.001896e+002, 2.644421e+002
1.006718e+002, 2.784138e+002
1.011539e+002, 2.882442e+002
1.016360e+002, 2.922137e+002
1.021181e+002, 3.007556e+002
1.026002e+002, 3.173529e+002
1.030823e+002, 3.401606e+002
1.035645e+002, 3.558031e+002
1.040466e+002, 3.643055e+002
1.045287e+002, 3.663159e+002
1.050108e+002, 3.618277e+002
1.054929e+002, 3.476076e+002
1.059750e+002, 3.330197e+002
1.064572e+002, 3.194651e+002
1.069393e+002, 3.069642e+002
1.074214e+002, 2.952074e+002
1.079035e+002, 2.834262e+002
1.083856e+002, 2.727082e+002
1.088677e+002, 2.644263e+002
1.093499e+002, 2.606285e+002
1.098320e+002, 2.571596e+002
1.103141e+002, 2.528888e+002
1.107962e+002, 2.468637e+002
1.112783e+002, 2.427664e+002
1.117604e+002, 2.414066e+002
1.122426e+002, 2.419384e+002
1.127247e+002, 2.431165e+002
1.132068e+002, 2.447525e+002
1.136889e+002, 2.469800e+002
1.141710e+002, 2.499476e+002
1.146531e+002, 2.541505e+002
1.151353e+002, 2.581568e+002
1.156174e+002, 2.613790e+002
1.160995e+002, 2.641304e+002
1.165816e+002, 2.672449e+002
1.170637e+002, 2.715178e+002
1.175458e+002, 2.759606e+002
1.180280e+002, 2.798326e+002
1.185101e+002, 2.819057e+002
1.189922e+002, 2.847103e+002
1.194743e+002, 2.890751e+002
1.199564e+002, 2.951295e+002
1.204385e+002, 3.033666e+002
1.209207e+002, 3.141613e+002
1.214028e+002, 3.273160e+002
1.218849e+002, 3.425932e+002
1.223670e+002, 3.611985e+002
1.228491e+002, 3.812643e+002
1.233312e+002, 4.043730e+002
1.238134e+002, 4.300565e+002
1.242955e+002, 4.485336e+002
1.247776e+002, 4.513585e+002
1.252597e+002, 4.411035e+002
1.257418e+002, 4.231179e+002
1.262239e+002, 3.923481e+002
1.267061e+002, 3.567965e+002
1.271882e+002, 3.300087e+002
1.276703e+002, 3.120431e+002
1.281524e+002, 3.002813e+002
1.286345e+002, 2.935720e+002
1.291166e+002, 2.913596e+002
1.295988e+002, 2.910002e+002
1.300809e+002, 2.920401e+002
1.305630e+002, 2.940926e+002
1.310451e+002, 2.958509e+002
1.315272e+002, 2.972339e+002
1.320093e+002, 2.983965e+002
1.324915e+002, 2.992561e+002
1.329736e+002, 2.998227e+002
1.334557e+002, 3.011002e+002
1.339378e+002, 3.038685e+002
1.344199e+002, 3.080542e+002
1.349020e+002, 3.122044e+002
1.353842e+002, 3.161901e+002
1.358663e+002, 3.201180e+002
1.363484e+002, 3.241822e+002
1.368305e+002, 3.282165e+002
1.373126e+002, 3.331586e+002
1.377947e+002, 3.400427e+002
1.382769e+002, 3.493486e+002
1.387590e+002, 3.574559e+002
1.392411e+002, 3.638199e+002
1.397232e+002, 3.687397e+002
1.402053e+002, 3.732581e+002
1.406874e+002, 3.779229e+002
1.411696e+002, 3.811976e+002
1.416517e+002, 3.815842e+002
1.421338e+002, 3.777718e+002
1.426159e+002, 3.746205e+002
1.430980e+002, 3.725529e+002
1.435801e+002, 3.716068e+002
1.440623e+002, 3.719455e+002
1.445444e+002, 3.740533e+002
1.450265e+002, 3.769494e+002
1.455086e+002, 3.798707e+002
1.459907e+002, 3.830155e+002
1.464728e+002, 3.859316e+002
1.469550e+002, 3.885334e+002
1.474371e+002, 3.907898e+002
1.479192e+002, 3.930488e+002
1.484013e+002, 3.948425e+002
1.488834e+002, 3.968965e+002
1.493655e+002, 3.999141e+002
1.498477e+002, 4.042232e+002
1.503298e+002, 4.091113e+002
1.508119e+002, 4.146750e+002
1.512940e+002, 4.211080e+002
1.517761e+002, 4.270067e+002
1.522583e+002, 4.310228e+002
1.527404e+002, 4.348540e+002
1.532225e+002, 4.403334e+002
1.537046e+002, 4.493154e+002
1.541867e+002, 4.583509e+002
1.546688e+002, 4.661702e+002
1.551510e+002, 4.721461e+002
1.556331e+002, 4.795548e+002
1.561152e+002, 4.895214e+002
1.565973e+002, 5.010348e+002
1.570794e+002, 5.126429e+002
1.575615e+002, 5.243505e+002
1.580437e+002, 5.360085e+002
1.585258e+002, 5.477823e+002
1.590079e+002, 5.600717e+002
1.594900e+002, 5.713201e+002
1.599721e+002, 5.814230e+002
1.604542e+002, 5.901667e+002
1.609364e+002, 5.971706e+002
1.614185e+002, 6.029976e+002
1.619006e+002, 6.065663e+002
1.623827e+002, 6.072186e+002
1.628648e+002, 6.046268e+002
1.633469e+002, 5.996210e+002
1.638291e+002, 5.907516e+002
1.643112e+002, 5.796161e+002
1.647933e+002, 5.697418e+002
1.652754e+002, 5.627872e+002
1.657575e+002, 5.576793e+002
1.662396e+002, 5.536143e+002
1.667218e+002, 5.503565e+002
1.672039e+002, 5.482705e+002
1.676860e+002, 5.473331e+002
1.681681e+002, 5.477033e+002
1.686502e+002, 5.498438e+002
1.691323e+002, 5.543972e+002
1.696145e+002, 5.606737e+002
1.700966e+002, 5.680055e+002
1.705787e+002, 5.762965e+002
1.710608e+002, 5.855143e+002
1.715429e+002, 5.960851e+002
1.720250e+002, 6.078522e+002
1.725072e+002, 6.194574e+002
1.729893e+002, 6.297230e+002
1.734714e+002, 6.395958e+002
1.739535e+002, 6.504772e+002
1.744356e+002, 6.633613e+002
1.749177e+002, 6.766300e+002
1.753999e+002, 6.881938e+002
1.758820e+002, 6.984245e+002
1.763641e+002, 7.093613e+002
1.768462e+002, 7.231177e+002
1.773283e+002, 7.387837e+002
1.778104e+002, 7.547179e+002
1.782926e+002, 7.702621e+002
1.787747e+002, 7.858179e+002
1.792568e+002, 8.022972e+002
1.797389e+002, 8.195010e+002
1.802210e+002, 8.363431e+002
1.807031e+002, 8.513542e+002
1.811853e+002, 8.650033e+002
1.816674e+002, 8.782167e+002
1.821495e+002, 8.913411e+002
1.826316e+002, 9.040711e+002
1.831137e+002, 9.154070e+002
1.835958e+002, 9.254318e+002
1.840780e+002, 9.346389e+002
1.845601e+002, 9.440863e+002
1.850422e+002, 9.532715e+002
1.855243e+002, 9.607882e+002
1.860064e+002, 9.654253e+002
1.864885e+002, 9.682598e+002
1.869707e+002, 9.725182e+002
1.874528e+002, 9.784826e+002
1.879349e+002, 9.833976e+002
1.884170e+002, 9.848944e+002
1.888991e+002, 9.830089e+002
1.893812e+002, 9.780654e+002
1.898634e+002, 9.706813e+002
1.903455e+002, 9.602725e+002
1.908276e+002, 9.443573e+002
1.913097e+002, 9.225376e+002
1.917918e+002, 8.965023e+002
1.922739e+002, 8.666339e+002
1.927561e+002, 8.326345e+002
1.932382e+002, 7.998068e+002
1.937203e+002, 7.693690e+002
1.942024e+002, 7.413578e+002
1.946845e+002, 7.148205e+002
1.951666e+002, 6.895684e+002
1.956488e+002, 6.669664e+002
1.961309e+002, 6.489758e+002
1.966130e+002, 6.355072e+002
1.970951e+002, 6.246655e+002
1.975772e+002, 6.159293e+002
1.980593e+002, 6.092551e+002
1.985415e+002, 6.041937e+002
1.990236e+002, 6.008004e+002
1.995057e+002, 5.989230e+002
1.999878e+002, 5.988082e+002
2.004699e+002, 6.006956e+002
2.009520e+002, 6.027424e+002
2.014342e+002, 6.046659e+002
2.019163e+002, 6.064637e+002
2.023984e+002, 6.067341e+002
2.028805e+002, 6.052188e+002
2.033626e+002, 6.027430e+002
2.038447e+002, 6.002819e+002
2.043269e+002, 5.978210e+002
2.048090e+002, 5.954738e+002
2.052911e+002, 5.935280e+002
2.057732e+002, 5.920023e+002
2.062553e+002, 5.893830e+002
2.067374e+002, 5.855382e+002
2.072196e+002, 5.807578e+002
2.077017e+002, 5.755400e+002
2.081838e+002, 5.700597e+002
2.086659e+002, 5.633771e+002
2.091480e+002, 5.548721e+002
2.096301e+002, 5.442660e+002
2.101123e+002, 5.344781e+002
2.105944e+002, 5.254591e+002
2.110765e+002, 5.172081e+002
2.115586e+002, 5.098260e+002
2.120407e+002, 5.035187e+002
2.125228e+002, 4.974847e+002
2.130050e+002, 4.916646e+002
2.134871e+002, 4.861675e+002
2.139692e+002, 4.799230e+002
2.144513e+002, 4.723925e+002
2.149334e+002, 4.647094e+002
2.154155e+002, 4.583493e+002
2.158977e+002, 4.535276e+002
2.163798e+002, 4.495009e+002
2.168619e+002, 4.460733e+002
2.173440e+002, 4.432348e+002
2.178261e+002, 4.411313e+002
2.183082e+002, 4.396649e+002
2.187904e+002, 4.390600e+002
2.192725e+002, 4.397689e+002
2.197546e+002, 4.422121e+002
2.202367e+002, 4.450565e+002
2.207188e+002, 4.479417e+002
2.212009e+002, 4.508969e+002
2.216831e+002, 4.539225e+002
2.221652e+002, 4.570158e+002
2.226473e+002, 4.601947e+002
2.231294e+002, 4.634204e+002
2.236115e+002, 4.667276e+002
2.240936e+002, 4.700798e+002
2.245758e+002, 4.735475e+002
2.250579e+002, 4.771584e+002
2.255400e+002, 4.806566e+002
2.260221e+002, 4.843880e+002
2.265042e+002, 4.877061e+002
2.269863e+002, 4.894663e+002
2.274685e+002, 4.884209e+002
2.279506e+002, 4.881953e+002
2.284327e+002, 4.899196e+002
2.289148e+002, 4.939110e+002
2.293969e+002, 4.974934e+002
2.298790e+002, 5.003368e+002
2.303612e+002, 5.030353e+002
2.308433e+002, 5.062098e+002
2.313254e+002, 5.095993e+002
2.318075e+002, 5.140187e+002
2.322896e+002, 5.199840e+002
2.327717e+002, 5.277074e+002
2.332539e+002, 5.346912e+002
2.337360e+002, 5.404998e+002
2.342181e+002, 5.457913e+002
2.347002e+002, 5.514828e+002
2.351823e+002, 5.583770e+002
2.356644e+002, 5.641859e+002
2.361466e+002, 5.684192e+002
2.366287e+002, 5.710399e+002
2.371108e+002, 5.725924e+002
2.375929e+002, 5.727852e+002
2.380750e+002, 5.721800e+002
2.385571e+002, 5.713054e+002
2.390393e+002, 5.700436e+002
2.395214e+002, 5.687587e+002
2.400035e+002, 5.675475e+002
2.404856e+002, 5.664104e+002
2.409677e+002, 5.651622e+002
2.414498e+002, 5.637980e+002
2.419320e+002, 5.623153e+002
2.424141e+002, 5.608339e+002
2.428962e+002, 5.600695e+002
2.433783e+002, 5.579212e+002
2.438604e+002, 5.539761e+002
2.443425e+002, 5.482216e+002
2.448247e+002, 5.411772e+002
2.453068e+002, 5.324615e+002
2.457889e+002, 5.228251e+002
2.462710e+002, 5.126853e+002
2.467531e+002, 5.015840e+002
2.472352e+002, 4.908685e+002
2.477174e+002, 4.806607e+002
2.481995e+002, 4.710500e+002
2.486816e+002, 4.620262e+002
2.491637e+002, 4.537402e+002
2.496458e+002, 4.458599e+002
2.501279e+002, 4.381369e+002
2.506101e+002, 4.301409e+002
2.510922e+002, 4.231649e+002
2.515743e+002, 4.176523e+002
2.520564e+002, 4.134350e+002
2.525385e+002, 4.092946e+002
2.530206e+002, 4.050503e+002
2.535028e+002, 4.010995e+002
2.539849e+002, 3.977658e+002
2.544670e+002, 3.949568e+002
2.549491e+002, 3.928730e+002
2.554312e+002, 3.916768e+002
2.559133e+002, 3.912364e+002
2.563955e+002, 3.908442e+002
2.568776e+002, 3.904639e+002
2.573597e+002, 3.901499e+002
2.578418e+002, 3.899883e+002
2.583239e+002, 3.901493e+002
2.588061e+002, 3.898913e+002
2.592882e+002, 3.888045e+002
2.597703e+002, 3.872979e+002
2.602524e+002, 3.869991e+002
2.607345e+002, 3.883123e+002
2.612166e+002, 3.900983e+002
2.616988e+002, 3.919235e+002
2.621809e+002, 3.940200e+002
2.626630e+002, 3.952436e+002
2.631451e+002, 3.951484e+002
2.636272e+002, 3.943450e+002
2.641093e+002, 3.944334e+002
2.645915e+002, 3.954928e+002
2.650736e+002, 3.972881e+002
2.655557e+002, 3.998817e+002
2.660378e+002, 4.034506e+002
2.665199e+002, 4.069818e+002
2.670020e+002, 4.105518e+002
2.674842e+002, 4.139852e+002
2.679663e+002, 4.166247e+002
2.684484e+002, 4.180291e+002
2.689305e+002, 4.198868e+002
2.694126e+002, 4.230062e+002
2.698947e+002, 4.276559e+002
2.703769e+002, 4.323154e+002
2.708590e+002, 4.371963e+002
2.713411e+002, 4.418434e+002
2.718232e+002, 4.449957e+002
2.723053e+002, 4.460142e+002
2.727874e+002, 4.479635e+002
2.732696e+002, 4.523491e+002
2.737517e+002, 4.593411e+002
2.742338e+002, 4.655597e+002
2.747159e+002, 4.708635e+002
2.751980e+002, 4.757072e+002
2.756801e+002, 4.802659e+002
2.761623e+002, 4.842894e+002
2.766444e+002, 4.895506e+002
2.771265e+002, 4.967148e+002
2.776086e+002, 5.058072e+002
2.780907e+002, 5.157792e+002
2.785728e+002, 5.270933e+002
2.790550e+002, 5.381693e+002
2.795371e+002, 5.467518e+002
2.800192e+002, 5.526049e+002
2.805013e+002, 5.593297e+002
2.809834e+002, 5.683510e+002
2.814655e+002, 5.790388e+002
2.819477e+002, 5.886631e+002
2.824298e+002, 5.974176e+002
2.829119e+002, 6.038080e+002
2.833940e+002, 6.059990e+002
2.838761e+002, 6.040276e+002
2.843582e+002, 6.005379e+002
2.848404e+002, 5.962535e+002
2.853225e+002, 5.907290e+002
2.858046e+002, 5.819753e+002
2.862867e+002, 5.698237e+002
2.867688e+002, 5.570083e+002
2.872509e+002, 5.453254e+002
2.877331e+002, 5.347748e+002
2.882152e+002, 5.252883e+002
2.886973e+002, 5.166827e+002
2.891794e+002, 5.093292e+002
2.896615e+002, 5.041362e+002
2.901436e+002, 5.010582e+002
2.906258e+002, 4.997567e+002
2.911079e+002, 5.005861e+002
2.915900e+002, 5.031433e+002
2.920721e+002, 5.055128e+002
2.925542e+002, 5.071887e+002
2.930363e+002, 5.092445e+002
2.935185e+002, 5.133204e+002
2.940006e+002, 5.193864e+002
2.944827e+002, 5.265744e+002
2.949648e+002, 5.346586e+002
2.954469e+002, 5.436217e+002
2.959290e+002, 5.533553e+002
2.964112e+002, 5.639728e+002
2.968933e+002, 5.750659e+002
2.973754e+002, 5.858077e+002
2.978575e+002, 5.963857e+002
2.983396e+002, 6.077740e+002
2.988217e+002, 6.208151e+002
2.993039e+002, 6.348095e+002
2.997860e+002, 6.487939e+002
3.002681e+002, 6.629246e+002
3.007502e+002, 6.755359e+002
3.012323e+002, 6.849897e+002
3.017144e+002, 6.916530e+002
3.021966e+002, 6.960497e+002
3.026787e+002, 6.997195e+002
3.031608e+002, 7.006442e+002
3.036429e+002, 6.954762e+002
3.041250e+002, 6.844516e+002
3.046071e+002, 6.713011e+002
3.050893e+002, 6.583864e+002
3.055714e+002, 6.453517e+002
3.060535e+002, 6.319877e+002
3.065356e+002, 6.175007e+002
3.070177e+002, 6.032376e+002
3.074998e+002, 5.902806e+002
3.079820e+002, 5.785809e+002
3.084641e+002, 5.685364e+002
3.089462e+002, 5.611128e+002
3.094283e+002, 5.551265e+002
3.099104e+002, 5.492258e+002
3.103925e+002, 5.425117e+002
3.108747e+002, 5.369828e+002
3.113568e+002, 5.346469e+002
3.118389e+002, 5.347456e+002
3.123210e+002, 5.351605e+002
3.128031e+002, 5.344482e+002
3.132852e+002, 5.338832e+002
3.137674e+002, 5.345604e+002
3.142495e+002, 5.369413e+002
3.147316e+002, 5.396432e+002
3.152137e+002, 5.412868e+002
3.156958e+002, 5.428550e+002
3.161779e+002, 5.460267e+002
3.166601e+002, 5.516381e+002
3.171422e+002, 5.588543e+002
3.176243e+002, 5.672271e+002
3.181064e+002, 5.766038e+002
3.185885e+002, 5.873909e+002
3.190706e+002, 6.008408e+002
3.195528e+002, 6.153895e+002
3.200349e+002, 6.292599e+002
3.205170e+002, 6.392665e+002
3.209991e+002, 6.511207e+002
3.214812e+002, 6.674620e+002
3.219633e+002, 6.884655e+002
3.224455e+002, 7.090450e+002
3.229276e+002, 7.271695e+002
3.234097e+002, 7.451663e+002
3.238918e+002, 7.647774e+002
3.243739e+002, 7.870212e+002
3.248560e+002, 8.100334e+002
3.253382e+002, 8.333824e+002
3.258203e+002, 8.572757e+002
3.263024e+002, 8.822619e+002
3.267845e+002, 9.091133e+002
3.272666e+002, 9.366945e+002
3.277487e+002, 9.645076e+002
3.282309e+002, 9.899890e+002
3.287130e+002, 1.018790e+003
3.291951e+002, 1.051560e+003
3.296772e+002, 1.087620e+003
3.301593e+002, 1.125410e+003
3.306414e+002, 1.163877e+003
3.311236e+002, 1.204790e+003
3.316057e+002, 1.249348e+003
3.320878e+002, 1.298854e+003
3.325699e+002, 1.348445e+003
3.330520e+002, 1.398623e+003
3.335341e+002, 1.448115e+003
3.340163e+002, 1.494942e+003
3.344984e+002, 1.538438e+003
3.349805e+002, 1.580017e+003
3.354626e+002, 1.621632e+003
3.359447e+002, 1.663805e+003
3.364268e+002, 1.697016e+003
3.369090e+002, 1.721957e+003
3.373911e+002, 1.737436e+003
3.378732e+002, 1.742155e+003
3.383553e+002, 1.735995e+003
3.388374e+002, 1.719360e+003
3.393195e+002, 1.691025e+003
3.398017e+002, 1.652437e+003
3.402838e+002, 1.607924e+003
3.407659e+002, 1.556241e+003
3.412480e+002, 1.502366e+003
3.417301e+002, 1.448273e+003
3.422122e+002, 1.394121e+003
3.426944e+002, 1.341282e+003
3.431765e+002, 1.289425e+003
3.436586e+002, 1.239733e+003
3.441407e+002, 1.195759e+003
3.446228e+002, 1.157696e+003
3.451049e+002, 1.123778e+003
3.455871e+002, 1.093475e+003
3.460692e+002, 1.066575e+003
3.465513e+002, 1.044472e+003
3.470334e+002, 1.027402e+003
3.475155e+002, 1.013870e+003
3.479977e+002, 1.002474e+003
3.484798e+002, 9.931919e+002
3.489619e+002, 9.864481e+002
3.494440e+002, 9.829642e+002
3.499261e+002, 9.819220e+002
3.504082e+002, 9.820735e+002
3.508904e+002, 9.834076e+002
3.513725e+002, 9.850648e+002
3.518546e+002, 9.862998e+002
3.523367e+002, 9.873024e+002
3.528188e+002, 9.885566e+002
3.533009e+002, 9.905122e+002
3.537831e+002, 9.923475e+002
3.542652e+002, 9.933109e+002
3.547473e+002, 9.934051e+002
3.552294e+002, 9.926693e+002
3.557115e+002, 9.916821e+002
3.561936e+002, 9.896475e+002
3.566758e+002, 9.858812e+002
3.571579e+002, 9.804707e+002
3.576400e+002, 9.726989e+002
3.581221e+002, 9.611563e+002
3.586042e+002, 9.469886e+002
3.590863e+002, 9.322205e+002
3.595685e+002, 9.184346e+002
3.600506e+002, 9.038652e+002
3.605327e+002, 8.866437e+002
3.610148e+002, 8.662225e+002
3.614969e+002, 8.471473e+002
3.619790e+002, 8.316037e+002
3.624612e+002, 8.183080e+002
3.629433e+002, 8.056701e+002
3.634254e+002, 7.939293e+002
3.639075e+002, 7.821055e+002
3.643896e+002, 7.691403e+002
3.648717e+002, 7.552731e+002
3.653539e+002, 7.434054e+002
3.658360e+002, 7.348920e+002
3.663181e+002, 7.280660e+002
3.668002e+002, 7.217496e+002
3.672823e+002, 7.153729e+002
3.677644e+002, 7.100701e+002
3.682466e+002, 7.057753e+002
3.687287e+002, 7.025983e+002
3.692108e+002, 7.008179e+002
3.696929e+002, 7.002968e+002
3.701750e+002, 7.013246e+002
3.706571e+002, 7.043744e+002
3.711393e+002, 7.105109e+002
3.716214e+002, 7.151977e+002
3.721035e+002, 7.179269e+002
3.725856e+002, 7.196529e+002
3.730677e+002, 7.216093e+002
3.735498e+002, 7.241852e+002
3.740320e+002, 7.262792e+002
3.745141e+002, 7.279406e+002
3.749962e+002, 7.290880e+002
3.754783e+002, 7.283995e+002
3.759604e+002, 7.261369e+002
3.764425e+002, 7.215422e+002
3.769247e+002, 7.135238e+002
3.774068e+002, 7.017930e+002
3.778889e+002, 6.894052e+002
3.783710e+002, 6.767833e+002
3.788531e+002, 6.638490e+002
3.793352e+002, 6.498113e+002
3.798174e+002, 6.346528e+002
3.802995e+002, 6.199083e+002
3.807816e+002, 6.068785e+002
3.812637e+002, 5.951991e+002
3.817458e+002, 5.830131e+002
3.822279e+002, 5.697830e+002
3.827101e+002, 5.572405e+002
3.831922e+002, 5.474905e+002
3.836743e+002, 5.401266e+002
3.841564e+002, 5.337273e+002
3.846385e+002, 5.279154e+002
3.851206e+002, 5.225477e+002
3.856028e+002, 5.173810e+002
3.860849e+002, 5.124129e+002
3.865670e+002, 5.075797e+002
3.870491e+002, 5.021269e+002
3.875312e+002, 4.968932e+002
3.880133e+002, 4.934075e+002
3.884955e+002, 4.928203e+002
3.889776e+002, 4.927035e+002
3.894597e+002, 4.907757e+002
3.899418e+002, 4.875653e+002
3.904239e+002, 4.845712e+002
3.909060e+002, 4.824612e+002
3.913882e+002, 4.809549e+002
3.918703e+002, 4.799469e+002
3.923524e+002, 4.794905e+002
3.928345e+002, 4.790887e+002
3.933166e+002, 4.781845e+002
3.937987e+002, 4.772832e+002
3.942809e+002, 4.770317e+002
3.947630e+002, 4.777548e+002
3.952451e+002, 4.790060e+002
3.957272e+002, 4.809677e+002
3.962093e+002, 4.835575e+002
3.966914e+002, 4.856656e+002
3.971736e+002, 4.866465e+002
3.976557e+002, 4.873462e+002
3.981378e+002, 4.882845e+002
3.986199e+002, 4.897542e+002
3.991020e+002, 4.911309e+002
3.995841e+002, 4.918741e+002
4.000663e+002, 4.925326e+002
4.005484e+002, 4.945372e+002
4.010305e+002, 4.995662e+002
4.015126e+002, 5.038283e+002
4.019947e+002, 5.059008e+002
4.024768e+002, 5.053016e+002
4.029590e+002, 5.049929e+002
4.034411e+002, 5.050833e+002
4.039232e+002, 5.053445e+002
4.044053e+002, 5.055732e+002
4.048874e+002, 5.058365e+002
4.053695e+002, 5.058364e+002
4.058517e+002, 5.054542e+002
4.063338e+002, 5.047842e+002
4.068159e+002, 5.042956e+002
4.072980e+002, 5.040819e+002
4.077801e+002, 5.036130e+002
4.082622e+002, 5.022379e+002
4.087444e+002, 5.000568e+002
4.092265e+002, 4.985272e+002
4.097086e+002, 4.977335e+002
4.101907e+002, 4.977334e+002
4.106728e+002, 4.989610e+002
4.111549e+002, 5.012355e+002
4.116371e+002, 5.033942e+002
4.121192e+002, 5.042995e+002
