##NAMES=Wermlandite
##RRUFFID=R100052
##IDEAL CHEMISTRY=Mg_8_Al_2_(OH)_18_(S^6+^O_4_)_2_&#183;12H_2_O
##LOCALITY=Langban, Filipstad, Varmland, Sweden
##OWNER=RRUFF
##SOURCE=William W Pinch
##DESCRIPTION=Pale greenish blue hexagonal plates
##STATUS=The identification of this mineral has been confirmed by single-crystal X-ray diffraction.
##URL=rruff.info/R100052
91.53320, 290.7829
92.01532, 287.9611
92.49744, 286.1605
92.97955, 290.1097
93.46167, 295.4633
93.94379, 298.0566
94.42590, 299.6612
94.90802, 300.4902
95.39014, 299.9356
95.87225, 297.7690
96.35437, 295.4100
96.83649, 293.6053
97.31860, 292.1548
97.80072, 290.8105
98.28284, 289.0580
98.76495, 286.7941
99.24707, 285.0055
99.72919, 284.0248
100.2113, 283.2861
100.6934, 282.4477
101.1755, 281.6521
101.6577, 281.2502
102.1398, 281.5834
102.6219, 282.7738
103.1040, 283.9647
103.5861, 285.3191
104.0682, 286.5075
104.5504, 287.2595
105.0325, 287.5601
105.5146, 287.6661
105.9967, 287.8538
106.4788, 288.0118
106.9609, 288.5198
107.4431, 289.5094
107.9252, 290.8174
108.4073, 292.2241
108.8894, 293.6501
109.3715, 295.1587
109.8536, 296.9176
110.3358, 299.0291
110.8179, 300.9748
111.3000, 302.3024
111.7821, 303.0905
112.2642, 304.1150
112.7463, 305.7874
113.2285, 307.7916
113.7106, 309.8335
114.1927, 311.8712
114.6748, 313.9003
115.1569, 315.8937
115.6390, 317.8683
116.1212, 319.7987
116.6033, 321.6751
117.0854, 323.5192
117.5675, 325.3460
118.0496, 327.1635
118.5317, 328.9813
119.0139, 330.8228
119.4960, 332.3930
119.9781, 334.3285
120.4602, 337.0239
120.9423, 340.1646
121.4244, 343.2057
121.9066, 345.7285
122.3887, 347.7011
122.8708, 349.6117
123.3529, 351.6480
123.8350, 353.4922
124.3171, 354.8548
124.7993, 355.7914
125.2814, 356.6896
125.7635, 357.9632
126.2456, 359.7215
126.7277, 361.3445
127.2098, 362.7956
127.6920, 364.1157
128.1741, 365.3497
128.6562, 366.4956
129.1383, 367.5659
129.6204, 368.7017
130.1025, 369.9082
130.5847, 370.6587
131.0668, 370.3069
131.5489, 369.2337
132.0310, 368.8097
132.5131, 369.6281
132.9952, 370.8937
133.4774, 372.1845
133.9595, 373.4688
134.4416, 374.0856
134.9237, 373.1287
135.4058, 370.3158
135.8879, 367.8884
136.3701, 366.5614
136.8522, 365.5786
137.3343, 364.6798
137.8164, 363.7706
138.2985, 362.6962
138.7806, 361.1873
139.2628, 359.1862
139.7449, 356.7687
140.2270, 353.6035
140.7091, 350.2557
141.1912, 347.2313
141.6733, 344.7711
142.1555, 342.7175
142.6376, 340.5765
143.1197, 338.9368
143.6018, 336.5167
144.0839, 332.4505
144.5660, 327.5816
145.0482, 323.2720
145.5303, 320.3776
146.0124, 318.6752
146.4945, 316.4075
146.9766, 313.3140
147.4587, 310.0643
147.9409, 306.9536
148.4230, 303.9429
148.9051, 300.7870
149.3872, 297.1501
149.8693, 293.2168
150.3514, 289.8471
150.8336, 287.6490
151.3157, 285.6591
151.7978, 282.9058
152.2799, 279.2560
152.7620, 275.5470
153.2441, 272.4526
153.7263, 269.7313
154.2084, 266.9627
154.6905, 264.1570
155.1726, 261.2166
155.6547, 257.7418
156.1368, 253.2127
156.6190, 249.1583
157.1011, 246.7524
157.5832, 245.3438
158.0653, 243.6264
158.5474, 240.5710
159.0295, 236.3102
159.5117, 232.6375
159.9938, 230.0684
160.4759, 227.6082
160.9580, 224.9283
161.4401, 222.0594
161.9222, 219.1725
162.4044, 216.4283
162.8865, 213.8340
163.3686, 211.2477
163.8507, 208.8244
164.3328, 206.2636
164.8149, 203.2554
165.2971, 199.8777
165.7792, 196.6275
166.2613, 194.1070
166.7434, 192.7524
167.2255, 190.8968
167.7076, 188.1595
168.1898, 185.2513
168.6719, 182.6167
169.1540, 180.3525
169.6361, 178.4002
170.1182, 176.7341
170.6003, 175.6213
171.0825, 174.0802
171.5646, 171.6618
172.0467, 168.9549
172.5288, 166.6887
173.0109, 165.1058
173.4930, 163.7771
173.9752, 161.8742
174.4573, 159.2682
174.9394, 157.0307
175.4215, 155.7922
175.9036, 155.1351
176.3857, 154.1153
176.8679, 152.3624
177.3500, 150.2776
177.8321, 148.4052
178.3142, 146.7452
178.7963, 145.1435
179.2784, 143.5712
179.7606, 142.0001
180.2427, 140.2679
180.7248, 138.0072
181.2069, 135.8745
181.6890, 134.5983
182.1711, 134.2590
182.6533, 133.9721
183.1354, 132.7991
183.6175, 130.6154
184.0996, 128.5358
184.5817, 126.9010
185.0638, 125.3939
185.5460, 123.8075
186.0281, 122.1030
186.5102, 120.4693
186.9923, 119.1712
187.4744, 118.2668
187.9565, 117.5736
188.4387, 117.2619
188.9208, 117.0021
189.4029, 116.5878
189.8850, 115.9474
190.3671, 115.1175
190.8492, 114.1389
191.3314, 112.9170
191.8135, 111.6982
192.2956, 110.5270
192.7777, 109.3568
193.2598, 108.1164
193.7419, 106.7858
194.2241, 105.4380
194.7062, 104.2509
195.1883, 103.1639
195.6704, 102.3440
196.1525, 102.1311
196.6346, 102.0815
197.1168, 101.6280
197.5989, 100.5117
198.0810, 98.98556
198.5631, 97.78162
199.0452, 97.09097
199.5273, 96.43948
200.0095, 95.78224
200.4916, 95.11478
200.9737, 94.40489
201.4558, 93.61512
201.9379, 92.81361
202.4200, 92.22527
202.9022, 92.13234
203.3843, 91.75256
203.8664, 90.46348
204.3485, 88.62251
204.8306, 87.30935
205.3127, 87.20165
205.7949, 87.66188
206.2770, 87.22629
206.7591, 85.49123
207.2412, 83.81387
207.7233, 83.07650
208.2054, 83.14137
208.6876, 83.20081
209.1697, 83.02560
209.6518, 82.58201
210.1339, 81.80170
210.6160, 80.53239
211.0981, 79.36599
211.5803, 78.88705
212.0624, 79.09797
212.5445, 79.26591
213.0266, 79.15038
213.5087, 78.85600
213.9908, 78.47076
214.4730, 78.00485
214.9551, 77.46851
215.4372, 76.85567
215.9193, 76.14719
216.4014, 75.46819
216.8836, 74.87377
217.3657, 74.30959
217.8478, 73.70293
218.3299, 73.03642
218.8120, 72.43168
219.2941, 72.08203
219.7763, 72.05786
220.2584, 72.06199
220.7405, 72.20216
221.2226, 72.25227
221.7047, 72.01458
222.1868, 71.44254
222.6690, 70.69504
223.1511, 69.96748
223.6332, 69.10242
224.1153, 68.64657
224.5974, 68.94842
225.0795, 69.41889
225.5617, 69.69235
226.0438, 69.64940
226.5259, 69.33384
227.0080, 68.76784
227.4901, 67.63039
227.9722, 66.85398
228.4544, 66.66764
228.9365, 66.67680
229.4186, 66.57475
229.9007, 66.27833
230.3828, 65.92487
230.8649, 65.78349
231.3471, 66.29106
231.8292, 66.26804
232.3113, 65.15572
232.7934, 63.88454
233.2755, 63.29737
233.7576, 63.60238
234.2398, 64.29051
234.7219, 64.50800
235.2040, 63.78978
235.6861, 63.41969
236.1682, 63.64820
236.6503, 64.07951
237.1325, 64.38005
237.6146, 64.45734
238.0967, 64.39160
238.5788, 64.26939
239.0609, 63.94813
239.5430, 63.94958
240.0252, 64.79807
240.5073, 65.72970
240.9894, 65.93499
241.4715, 65.22372
241.9536, 64.03097
242.4357, 62.79164
242.9179, 61.36936
243.4000, 60.60226
243.8821, 61.01755
244.3642, 61.92579
244.8463, 62.67344
245.3284, 63.14312
245.8106, 63.31343
246.2927, 63.01543
246.7748, 62.22135
247.2569, 61.68398
247.7390, 61.70088
248.2211, 61.94984
248.7033, 62.03583
249.1854, 61.88662
249.6675, 61.68542
250.1496, 61.60321
250.6317, 61.62649
251.1138, 61.69843
251.5960, 61.85846
252.0781, 62.03988
252.5602, 62.15666
253.0423, 62.19635
253.5244, 62.19523
254.0065, 62.10476
254.4887, 61.98374
254.9708, 62.02539
255.4529, 62.43264
255.9350, 62.96802
256.4171, 63.28484
256.8992, 63.33997
257.3813, 63.32949
257.8635, 63.40825
258.3456, 63.51568
258.8277, 63.53209
259.3098, 63.27142
259.7919, 62.99113
260.2740, 63.11554
260.7562, 63.72961
261.2383, 64.37910
261.7204, 64.84064
262.2025, 65.17429
262.6846, 65.42965
263.1667, 65.58690
263.6489, 65.71228
264.1310, 65.86293
264.6131, 66.00719
265.0952, 66.31637
265.5773, 67.05556
266.0594, 67.92513
266.5416, 68.67199
267.0237, 69.24655
267.5058, 69.63208
267.9879, 69.76128
268.4700, 69.57958
268.9521, 69.39470
269.4343, 69.26601
269.9164, 69.20100
270.3985, 69.18445
270.8806, 69.20332
271.3627, 69.36141
271.8448, 69.85439
272.3270, 70.76613
272.8091, 71.58448
273.2912, 72.18718
273.7733, 72.65302
274.2554, 72.97083
274.7375, 73.14963
275.2197, 73.31797
275.7018, 73.66474
276.1839, 74.23696
276.6660, 74.66976
277.1481, 74.70158
277.6302, 74.73001
278.1124, 74.94263
278.5945, 75.35509
279.0766, 75.87832
279.5587, 76.51536
280.0408, 77.31538
280.5229, 77.80049
281.0051, 77.51962
281.4872, 77.27570
281.9693, 77.52281
282.4514, 78.14625
282.9335, 78.67774
283.4156, 78.59777
283.8978, 77.88333
284.3799, 77.65469
284.8620, 78.43936
285.3441, 79.21017
285.8262, 79.63712
286.3083, 79.77347
286.7905, 79.79512
287.2726, 79.83469
287.7547, 79.87364
288.2368, 79.70934
288.7189, 78.96379
289.2010, 78.47469
289.6832, 78.64869
290.1653, 79.17971
290.6474, 79.61817
291.1295, 79.70984
291.6116, 79.51060
292.0938, 79.22725
292.5759, 78.74618
293.0580, 78.34911
293.5401, 78.03487
294.0222, 77.84464
294.5043, 77.90845
294.9865, 78.29881
295.4686, 78.77689
295.9507, 78.69360
296.4328, 77.47842
296.9149, 76.73094
297.3970, 77.06337
297.8792, 77.64200
298.3613, 77.65773
298.8434, 76.89064
299.3255, 75.85623
299.8076, 75.47364
300.2897, 76.20644
300.7719, 76.53871
301.2540, 76.14687
301.7361, 75.58263
302.2182, 75.18069
302.7003, 74.99931
303.1824, 74.88760
303.6646, 74.63662
304.1467, 74.15373
304.6288, 73.87769
305.1109, 74.04232
305.5930, 74.19543
306.0751, 74.09747
306.5573, 73.77795
307.0394, 73.42976
307.5215, 73.24129
308.0036, 73.23010
308.4857, 73.10151
308.9678, 72.81155
309.4500, 72.43936
309.9321, 71.80325
310.4142, 71.10241
310.8963, 70.76472
311.3784, 71.15120
311.8605, 72.11478
312.3427, 72.48269
312.8248, 71.62029
313.3069, 70.86546
313.7890, 70.59288
314.2711, 70.52957
314.7532, 70.27064
315.2354, 69.60798
315.7175, 68.72100
316.1996, 68.14269
316.6817, 68.08450
317.1638, 68.01809
317.6459, 67.91036
318.1281, 67.75537
318.6102, 67.52209
319.0923, 67.20841
319.5744, 66.88649
320.0565, 66.70515
320.5386, 66.81413
321.0208, 66.70832
321.5029, 66.20738
321.9850, 65.64201
322.4671, 65.18755
322.9492, 64.87730
323.4313, 64.66933
323.9135, 64.52285
324.3956, 64.44522
324.8777, 64.39377
325.3598, 64.56103
325.8419, 64.57545
326.3240, 64.18648
326.8062, 63.50173
327.2883, 62.80646
327.7704, 62.28143
328.2525, 61.93544
328.7346, 61.91494
329.2167, 62.79902
329.6989, 63.34918
330.1810, 63.02376
330.6631, 62.23484
331.1452, 61.62000
331.6273, 61.54092
332.1094, 61.79259
332.5916, 61.69296
333.0737, 60.82863
333.5558, 60.33604
334.0379, 60.68733
334.5200, 61.29536
335.0021, 61.60650
335.4843, 61.44398
335.9664, 61.03749
336.4485, 60.73333
336.9306, 60.53610
337.4127, 60.42943
337.8948, 60.52423
338.3770, 60.61853
338.8591, 60.61255
339.3412, 60.48808
339.8233, 60.26332
340.3055, 59.88981
340.7876, 59.33308
341.2697, 58.99052
341.7518, 58.97475
342.2339, 59.08754
342.7160, 59.36759
343.1982, 59.72009
343.6803, 59.94465
344.1624, 59.87810
344.6445, 59.57933
345.1266, 59.34866
345.6087, 59.25193
346.0909, 59.11556
346.5730, 58.75753
347.0551, 58.37362
347.5372, 58.24297
348.0193, 58.51126
348.5014, 58.96456
348.9836, 59.22422
349.4657, 59.25642
349.9478, 59.20248
350.4299, 59.00366
350.9120, 58.79039
351.3941, 58.68520
351.8763, 58.70747
352.3584, 58.72031
352.8405, 58.49361
353.3226, 58.01189
353.8047, 57.84486
354.2868, 58.34811
354.7690, 58.90075
355.2511, 59.10144
355.7332, 58.99877
356.2153, 58.84764
356.6974, 58.81758
357.1795, 58.87287
357.6617, 58.87040
358.1438, 58.78978
358.6259, 58.68987
359.1080, 58.54485
359.5901, 58.41308
360.0722, 58.41391
360.5544, 58.68176
361.0365, 58.99353
361.5186, 58.99440
362.0007, 58.64209
362.4828, 58.30468
362.9649, 58.08541
363.4471, 57.99033
363.9292, 58.04705
364.4113, 58.28660
364.8934, 58.55318
365.3755, 58.74842
365.8576, 58.87415
366.3398, 58.92381
366.8219, 58.84320
367.3040, 58.76593
367.7861, 58.85133
368.2682, 59.08302
368.7503, 59.30615
369.2325, 59.52375
369.7146, 59.67574
370.1967, 59.60071
370.6788, 59.24443
371.1609, 58.91972
371.6430, 58.94603
372.1252, 59.20530
372.6073, 59.29920
373.0894, 59.09717
373.5715, 58.77567
374.0536, 58.37752
374.5357, 57.93990
375.0179, 57.71395
375.5000, 57.91513
375.9821, 58.32173
376.4642, 58.37685
376.9463, 57.89669
377.4284, 57.53681
377.9106, 57.72358
378.3927, 58.14908
378.8748, 58.24577
379.3569, 57.84240
379.8390, 57.24742
380.3211, 56.80663
380.8033, 56.51667
381.2854, 56.46333
381.7675, 56.82428
382.2496, 57.30255
382.7317, 57.80482
383.2138, 58.25909
383.6960, 58.34713
384.1781, 57.71770
384.6602, 56.45980
385.1423, 55.87654
385.6244, 56.46532
386.1065, 57.03413
386.5887, 57.16852
387.0708, 57.02370
387.5529, 56.88708
388.0350, 56.88507
388.5171, 56.93628
388.9992, 56.85302
389.4814, 56.34544
389.9635, 56.16730
390.4456, 56.69450
390.9277, 57.29798
391.4098, 57.46950
391.8919, 57.14499
392.3741, 56.56121
392.8562, 55.91545
393.3383, 55.15034
393.8204, 54.76492
394.3025, 55.02106
394.7846, 55.35569
395.2668, 55.61439
395.7489, 55.80872
396.2310, 56.00558
396.7131, 56.24995
397.1952, 56.50315
397.6773, 56.62233
398.1595, 56.49223
398.6416, 56.41620
399.1237, 56.40814
399.6058, 56.47723
400.0879, 56.63978
400.5700, 56.89589
401.0522, 57.21472
401.5343, 57.56236
402.0164, 57.93350
402.4985, 58.35956
402.9806, 58.94941
403.4627, 59.49047
403.9449, 59.93272
404.4270, 60.25406
404.9091, 60.39541
405.3912, 60.20866
405.8733, 59.87080
406.3554, 59.97544
406.8376, 60.68475
407.3197, 61.43801
407.8018, 62.05908
408.2839, 62.58793
408.7660, 63.02581
409.2481, 63.35886
409.7303, 63.70201
410.2124, 64.20599
410.6945, 64.85696
411.1766, 65.45824
411.6587, 66.00096
412.1408, 66.43588
412.6230, 66.60101
413.1051, 66.55549
413.5872, 66.76989
414.0693, 67.74686
414.5514, 68.99280
415.0335, 69.61933
415.5157, 69.52176
415.9978, 69.42496
416.4799, 69.79990
416.9620, 70.53957
417.4441, 71.25614
417.9262, 71.94809
418.4084, 72.59996
418.8905, 73.22330
419.3726, 73.79915
419.8547, 74.21012
420.3368, 74.35828
420.8189, 74.52625
421.3011, 75.25155
421.7832, 76.72651
422.2653, 77.90435
422.7474, 78.48034
423.2295, 78.84518
423.7116, 79.27056
424.1938, 79.80517
424.6759, 80.47761
425.1580, 81.33949
425.6401, 82.37366
426.1222, 83.28659
426.6043, 84.08728
427.0865, 84.77675
427.5686, 85.27732
428.0507, 85.69245
428.5328, 86.17175
429.0149, 86.77209
429.4970, 87.42176
429.9792, 87.98650
430.4613, 88.35863
430.9434, 88.89452
431.4255, 89.82872
431.9076, 90.69537
432.3897, 91.12212
432.8719, 91.21817
433.3540, 91.43115
433.8361, 92.17733
434.3182, 93.33074
434.8003, 93.94175
435.2824, 93.54648
435.7646, 93.30726
436.2467, 93.54849
436.7288, 94.05370
437.2109, 94.61701
437.6930, 95.17513
438.1751, 95.72993
438.6573, 96.29133
439.1394, 96.86086
439.6215, 97.42670
440.1036, 98.14167
440.5857, 98.66525
441.0678, 98.65877
441.5500, 98.25882
442.0321, 97.98294
442.5142, 98.17238
442.9963, 98.61829
443.4784, 98.90784
443.9605, 99.00576
444.4427, 99.24224
444.9248, 99.98087
445.4069, 100.8540
445.8890, 101.1476
446.3711, 100.5578
446.8532, 100.1625
447.3354, 100.8148
447.8175, 102.0613
448.2996, 102.8931
448.7817, 103.0595
449.2638, 102.9666
449.7459, 103.0442
450.2281, 103.3056
450.7102, 103.4064
451.1923, 103.0942
451.6744, 102.8305
452.1565, 102.9678
452.6386, 103.4076
453.1208, 103.8061
453.6029, 103.9742
454.0850, 104.0243
454.5671, 104.2706
455.0492, 105.0138
455.5313, 105.5435
456.0135, 105.8149
456.4956, 105.8964
456.9777, 105.7159
457.4598, 105.3463
457.9419, 105.1238
458.4240, 105.4519
458.9062, 106.3465
459.3883, 106.6091
459.8704, 105.6259
460.3525, 104.6648
460.8346, 104.0758
461.3167, 103.6362
461.7989, 103.0009
462.2810, 102.0304
462.7631, 101.0047
463.2452, 100.5481
463.7273, 100.8940
464.2094, 100.3837
464.6916, 97.93435
465.1737, 95.38606
465.6558, 93.81967
466.1379, 93.09376
466.6200, 92.50624
467.1021, 91.72593
467.5843, 90.81414
468.0664, 89.92164
468.5485, 89.06459
469.0306, 88.06294
469.5127, 86.64438
469.9948, 85.15008
470.4770, 84.20071
470.9591, 84.00410
471.4412, 83.64438
471.9233, 82.42472
472.4054, 80.79005
472.8875, 79.58677
473.3697, 78.97753
473.8518, 78.59047
474.3339, 78.13318
474.8160, 77.60148
475.2981, 77.01026
475.7802, 76.28024
476.2624, 75.57768
476.7445, 74.96854
477.2266, 74.43694
477.7087, 73.93965
478.1908, 73.45399
478.6729, 73.02856
479.1551, 72.73872
479.6372, 72.52020
480.1193, 72.62014
480.6014, 73.35825
481.0835, 74.08450
481.5656, 74.47108
482.0478, 74.52988
482.5299, 74.37614
483.0120, 74.05466
483.4941, 73.63953
483.9762, 73.41731
484.4583, 73.41805
484.9405, 73.56252
485.4226, 73.95692
485.9047, 74.39484
486.3868, 74.68288
486.8689, 74.81103
487.3510, 74.96474
487.8332, 75.31175
488.3153, 75.81924
488.7974, 76.39403
489.2795, 77.14812
489.7616, 77.67933
490.2437, 77.39236
490.7259, 76.80212
491.2080, 76.73917
491.6901, 77.53117
492.1722, 78.51241
492.6543, 79.22298
493.1364, 79.74029
493.6186, 80.28586
494.1007, 80.92358
494.5828, 81.59217
495.0649, 82.22779
495.5470, 82.82755
496.0291, 83.41915
496.5113, 84.01399
496.9934, 84.59455
497.4755, 85.06094
497.9576, 85.50648
498.4397, 86.17128
498.9218, 87.17302
499.4040, 88.38326
499.8861, 89.49123
500.3682, 90.27178
500.8503, 91.36894
501.3324, 93.09431
501.8145, 94.83655
502.2967, 96.12318
502.7788, 97.07344
503.2609, 98.19556
503.7430, 99.90003
504.2251, 101.9912
504.7072, 103.6468
505.1894, 104.6189
505.6715, 105.7393
506.1536, 107.1963
506.6357, 108.8985
507.1178, 110.8470
507.5999, 113.0243
508.0821, 115.2334
508.5642, 117.2748
509.0463, 119.2332
509.5284, 121.4245
510.0105, 123.9215
510.4926, 126.3923
510.9748, 128.6464
511.4569, 130.7063
511.9390, 132.6297
512.4211, 134.2700
512.9032, 136.0228
513.3853, 138.0274
513.8674, 140.2826
514.3495, 142.7940
514.8317, 145.5833
515.3138, 148.5386
515.7959, 151.5879
516.2780, 154.7583
516.7601, 157.7266
517.2422, 160.4534
517.7244, 163.0716
518.2065, 165.6744
518.6886, 168.1824
519.1707, 170.4514
519.6528, 172.4343
520.1349, 174.2688
520.6171, 176.1314
521.0992, 178.0170
521.5813, 179.9601
522.0634, 182.2637
522.5455, 184.3139
523.0276, 185.8746
523.5098, 187.0225
523.9919, 187.9006
524.4740, 188.5618
524.9561, 189.0268
525.4382, 189.4122
525.9203, 189.7215
526.4025, 189.5102
526.8846, 188.4676
527.3667, 187.1376
527.8488, 186.0255
528.3309, 185.0991
528.8130, 184.1301
529.2952, 183.4325
529.7773, 182.3765
530.2594, 180.1176
530.7415, 176.8905
531.2236, 173.8165
531.7057, 171.4435
532.1879, 169.3257
532.6700, 166.5696
533.1521, 162.6552
533.6342, 159.2537
534.1163, 156.7927
534.5984, 154.5294
535.0806, 152.1283
535.5627, 149.5079
536.0448, 146.5290
536.5269, 143.0693
537.0090, 139.4069
537.4911, 136.5011
537.9733, 134.7656
538.4554, 132.8240
538.9375, 130.3904
539.4196, 127.8171
539.9017, 125.3134
540.3839, 122.8632
540.8660, 120.3328
541.3481, 117.6631
541.8302, 114.8381
542.3123, 111.6397
542.7944, 107.9697
543.2766, 104.8884
543.7587, 103.2450
544.2408, 102.0652
544.7229, 99.90170
545.2050, 96.65746
545.6871, 93.39305
546.1693, 90.20180
546.6514, 87.34937
547.1335, 85.27896
547.6156, 83.91029
548.0977, 82.59251
548.5798, 80.95801
549.0620, 79.04445
549.5441, 76.99504
550.0262, 74.12301
550.5083, 72.07021
550.9904, 71.49734
551.4725, 71.24881
551.9547, 70.48278
552.4368, 69.18935
552.9189, 67.79432
553.4010, 66.61434
553.8831, 65.58897
554.3652, 64.44302
554.8474, 62.99998
555.3295, 61.89809
555.8116, 61.78737
556.2937, 61.74168
556.7758, 60.92414
557.2579, 59.36475
557.7401, 58.04427
558.2222, 57.80023
558.7043, 58.06273
559.1864, 57.77437
559.6685, 56.90679
560.1506, 56.08959
560.6328, 55.59423
561.1149, 55.37212
561.5970, 55.40944
562.0791, 55.89355
562.5612, 56.00381
563.0433, 55.19108
563.5255, 54.24416
564.0076, 54.00975
564.4897, 54.32604
564.9718, 54.26554
565.4539, 53.18763
565.9360, 51.45783
566.4182, 50.31516
566.9003, 49.95140
567.3824, 49.82768
567.8645, 50.05867
568.3466, 50.35718
568.8287, 50.65019
569.3109, 50.86277
569.7930, 50.81477
570.2751, 50.32056
570.7572, 49.57406
571.2393, 48.98442
571.7214, 48.56585
572.2036, 48.13744
572.6857, 47.56411
573.1678, 47.05334
573.6499, 46.86588
574.1320, 46.99132
574.6141, 47.16937
575.0963, 47.49009
575.5784, 47.70675
576.0605, 47.51677
576.5426, 47.02296
577.0247, 46.58144
577.5068, 46.35587
577.9890, 46.25730
578.4711, 46.10947
578.9532, 45.81626
579.4353, 45.73039
579.9174, 46.17033
580.3995, 46.47498
580.8817, 46.17886
581.3638, 45.53577
581.8459, 45.09000
582.3280, 45.11659
582.8101, 45.29071
583.2922, 45.02306
583.7744, 44.27156
584.2565, 43.71620
584.7386, 43.54835
585.2207, 43.44013
585.7029, 43.08439
586.1850, 42.60337
586.6671, 42.32946
587.1492, 42.49220
587.6313, 42.67944
588.1135, 42.56027
588.5956, 42.24044
589.0777, 41.92955
