##NAMES=Whelanite
##RRUFFID=R050323
##IDEAL CHEMISTRY=Cu^2+^_2_Ca_6_[Si_6_O_17_(OH)](CO_3_)(OH)_3_&#183;2H_2_O
##LOCALITY=Christmas mine, Christmas, Gila County, Arizona, USA
##OWNER=RRUFF
##SOURCE=Marcus Origlieri
##DESCRIPTION=Light-blue thin, flat bladed fibers associated with colorless hydroxyapophyllite, blue kinoite, and light yellow andradite.
##STATUS=The identification of this mineral has been confirmed by single-crystal X-ray diffraction.
##URL=rruff.info/R050323
106.0234, 103.8353
106.5055, 104.2215
106.9877, 104.9229
107.4698, 104.9504
107.9519, 104.2850
108.4340, 102.8181
108.9161, 100.1904
109.3982, 96.74180
109.8804, 93.25864
110.3625, 90.37024
110.8446, 88.10706
111.3267, 86.36961
111.8088, 85.38892
112.2909, 84.68164
112.7731, 84.08194
113.2552, 83.54321
113.7373, 83.06906
114.2194, 82.66503
114.7015, 82.28078
115.1836, 82.09029
115.6658, 82.29165
116.1479, 82.58681
116.6300, 82.67788
117.1121, 82.45480
117.5942, 82.02869
118.0763, 81.65845
118.5584, 81.42381
119.0406, 81.07841
119.5227, 80.37891
120.0048, 79.48483
120.4869, 78.85429
120.9690, 78.77795
121.4511, 79.04509
121.9333, 79.11753
122.4154, 78.81189
122.8975, 78.62153
123.3796, 79.24669
123.8617, 80.84509
124.3438, 81.92648
124.8260, 81.08218
125.3081, 79.58215
125.7902, 78.54166
126.2723, 78.43483
126.7544, 78.89537
127.2365, 79.06779
127.7187, 78.61654
128.2008, 78.45986
128.6829, 79.04926
129.1650, 80.01338
129.6471, 80.85692
130.1292, 81.25521
130.6114, 81.24155
131.0935, 81.29827
131.5756, 81.78918
132.0577, 81.99990
132.5398, 81.47846
133.0219, 80.47905
133.5041, 79.62020
133.9862, 79.46504
134.4683, 80.15655
134.9504, 80.66283
135.4325, 80.76492
135.9146, 80.89198
136.3968, 81.30637
136.8789, 82.02409
137.3610, 82.87312
137.8431, 83.65137
138.3252, 84.33580
138.8073, 85.10502
139.2895, 86.36894
139.7716, 87.57056
140.2537, 87.96108
140.7358, 87.28050
141.2179, 86.15008
141.7000, 85.22889
142.1821, 84.48372
142.6643, 84.02922
143.1464, 84.03020
143.6285, 84.38937
144.1106, 84.76181
144.5927, 85.09697
145.0748, 85.39556
145.5570, 85.66455
146.0391, 85.90359
146.5212, 86.12346
147.0033, 86.45562
147.4854, 86.95774
147.9675, 87.00136
148.4497, 86.04338
148.9318, 84.83250
149.4139, 83.68595
149.8960, 82.68940
150.3781, 81.82659
150.8602, 81.10831
151.3424, 80.61841
151.8245, 80.08028
152.3066, 79.44870
152.7887, 78.77784
153.2708, 78.10845
153.7529, 77.45893
154.2351, 76.80896
154.7172, 76.10513
155.1993, 75.14960
155.6814, 74.39464
156.1635, 74.04340
156.6456, 73.84748
157.1278, 73.49183
157.6099, 72.80987
158.0920, 71.90097
158.5741, 71.19228
159.0562, 70.65480
159.5383, 70.30755
160.0205, 70.32565
160.5026, 70.55605
160.9847, 70.62331
161.4668, 70.25986
161.9489, 69.59803
162.4310, 69.25034
162.9131, 69.59378
163.3953, 69.87077
163.8774, 69.56866
164.3595, 68.73789
164.8416, 67.87368
165.3237, 67.26112
165.8058, 66.83750
166.2880, 66.43299
166.7701, 66.01558
167.2522, 65.62003
167.7343, 65.29562
168.2164, 65.05370
168.6985, 64.83158
169.1807, 64.57878
169.6628, 64.32785
170.1449, 64.11285
170.6270, 63.91039
171.1091, 63.77391
171.5912, 63.89630
172.0734, 64.55673
172.5555, 64.94309
173.0376, 64.59751
173.5197, 63.85780
174.0018, 63.19278
174.4839, 62.87915
174.9661, 62.86629
175.4482, 62.85723
175.9303, 62.88475
176.4124, 62.87615
176.8945, 62.83455
177.3766, 62.74402
177.8588, 62.56176
178.3409, 62.22853
178.8230, 61.74102
179.3051, 61.48924
179.7872, 61.72091
180.2693, 61.94234
180.7515, 61.98943
181.2336, 61.89733
181.7157, 61.79787
182.1978, 61.81250
182.6799, 61.96514
183.1620, 61.98159
183.6441, 61.74788
184.1263, 61.51082
184.6084, 61.38897
185.0905, 61.38296
185.5726, 61.43685
186.0547, 61.52215
186.5368, 61.65038
187.0190, 61.61786
187.5011, 61.33445
187.9832, 60.96387
188.4653, 60.57434
188.9474, 60.18335
189.4296, 59.88393
189.9117, 59.83287
190.3938, 60.01868
190.8759, 60.03918
191.3580, 59.75744
191.8401, 59.33329
192.3223, 58.90898
192.8044, 58.48525
193.2865, 58.13915
193.7686, 58.00105
194.2507, 58.01420
194.7328, 58.03063
195.2150, 58.09088
195.6971, 58.11068
196.1792, 57.86533
196.6613, 57.20034
197.1434, 56.57186
197.6255, 56.43590
198.1077, 56.61500
198.5898, 56.65674
199.0719, 56.18206
199.5540, 55.33990
200.0361, 54.80250
200.5182, 54.79188
201.0004, 54.80770
201.4825, 54.55433
201.9646, 54.10986
202.4467, 53.67670
202.9288, 53.41504
203.4109, 53.31136
203.8930, 53.14369
204.3752, 52.91161
204.8573, 52.60476
205.3394, 52.18090
205.8215, 51.67884
206.3036, 51.18535
206.7857, 50.79633
207.2679, 50.52418
207.7500, 50.11423
208.2321, 49.24699
208.7142, 48.52909
209.1963, 48.26593
209.6784, 48.34556
210.1606, 48.43406
210.6427, 48.21388
211.1248, 47.63005
211.6069, 47.24103
212.0890, 47.16785
212.5711, 47.15535
213.0533, 47.15699
213.5354, 47.13996
214.0175, 47.03983
214.4996, 46.76657
214.9817, 46.25172
215.4638, 46.08026
215.9460, 46.59346
216.4281, 47.06854
216.9102, 47.07716
217.3923, 46.67028
217.8744, 46.22531
218.3565, 46.09817
218.8387, 46.34215
219.3208, 46.44084
219.8029, 46.23290
220.2850, 46.02844
220.7671, 46.06785
221.2492, 46.33306
221.7314, 46.56929
222.2135, 46.51512
222.6956, 46.15388
223.1777, 46.07064
223.6598, 46.48080
224.1419, 47.00628
224.6240, 47.44705
225.1062, 47.77755
225.5883, 47.89074
226.0704, 47.61989
226.5525, 47.00771
227.0346, 46.48949
227.5167, 46.07903
227.9989, 45.78151
228.4810, 45.63198
228.9631, 45.63477
229.4452, 45.69680
229.9273, 45.77568
230.4094, 45.86359
230.8916, 45.93887
231.3737, 45.98515
231.8558, 46.02401
232.3379, 46.06996
232.8200, 46.11895
233.3021, 46.20466
233.7843, 46.43968
234.2664, 46.70911
234.7485, 46.81200
235.2306, 46.57109
235.7127, 46.24929
236.1948, 46.24951
236.6770, 46.65589
237.1591, 47.03567
237.6412, 47.16387
238.1233, 47.14217
238.6054, 47.05514
239.0875, 46.90746
239.5697, 46.73600
240.0518, 46.59145
240.5339, 46.46609
241.0160, 46.39328
241.4981, 46.31166
241.9802, 46.31557
242.4624, 46.58088
242.9445, 47.23710
243.4266, 47.95671
243.9087, 48.09880
244.3908, 47.39327
244.8729, 46.84550
245.3550, 46.84715
245.8372, 47.05218
246.3193, 47.16936
246.8014, 47.09680
247.2835, 46.95308
247.7656, 46.93974
248.2477, 47.08749
248.7299, 47.30260
249.2120, 47.70213
249.6941, 48.07616
250.1762, 48.22974
250.6583, 48.10897
251.1404, 47.86161
251.6226, 47.73117
252.1047, 47.76244
252.5868, 47.81816
253.0689, 47.90637
253.5510, 47.99677
254.0331, 48.05850
254.5153, 48.08753
254.9974, 48.11660
255.4795, 48.21501
255.9616, 48.48453
256.4437, 48.59233
256.9258, 48.43589
257.4080, 48.21926
257.8901, 48.07409
258.3722, 48.02435
258.8543, 48.00748
259.3364, 47.94138
259.8185, 47.81534
260.3007, 47.66108
260.7828, 47.36341
261.2649, 47.12778
261.7470, 47.09566
262.2291, 47.27174
262.7112, 47.55875
263.1934, 47.85778
263.6755, 48.19065
264.1576, 48.44796
264.6397, 48.63023
265.1218, 48.75310
265.6039, 48.80336
266.0861, 48.79374
266.5682, 48.76526
267.0503, 48.75876
267.5324, 48.78104
268.0145, 48.77970
268.4966, 48.69218
268.9788, 48.64141
269.4609, 48.67218
269.9430, 48.79163
270.4251, 49.00904
270.9072, 49.35070
271.3893, 49.82238
271.8715, 50.17530
272.3536, 50.46434
272.8357, 50.61178
273.3178, 50.38601
273.7999, 49.96098
274.2820, 49.81194
274.7642, 50.30281
275.2463, 51.36536
275.7284, 52.14237
276.2105, 52.66936
276.6926, 52.95910
277.1747, 52.80967
277.6568, 52.42205
278.1389, 52.27350
278.6211, 52.67234
279.1032, 53.43506
279.5853, 53.75372
280.0674, 53.31002
280.5495, 52.89644
281.0316, 52.67879
281.5138, 52.62706
281.9959, 52.69059
282.4780, 52.84881
282.9601, 53.10764
283.4422, 53.52539
283.9243, 54.38558
284.4065, 54.87076
284.8886, 54.61979
285.3707, 53.94463
285.8528, 53.21193
286.3349, 52.50778
286.8170, 51.98613
287.2992, 52.00468
287.7813, 52.78322
288.2634, 53.30484
288.7455, 53.21076
289.2276, 52.85561
289.7097, 52.69686
290.1919, 52.84492
290.6740, 53.03668
291.1561, 52.91445
291.6382, 52.42210
292.1203, 52.06065
292.6024, 51.88400
293.0846, 51.85690
293.5667, 52.02174
294.0488, 52.37716
294.5309, 52.69023
295.0130, 52.73235
295.4951, 52.49105
295.9773, 52.25690
296.4594, 52.02759
296.9415, 51.81694
297.4236, 51.61359
297.9057, 51.42495
298.3878, 51.32219
298.8700, 51.40232
299.3521, 51.61669
299.8342, 51.66203
300.3163, 51.39668
300.7984, 51.09504
301.2805, 50.92113
301.7627, 50.85225
302.2448, 50.77421
302.7269, 50.62382
303.2090, 50.42535
303.6911, 50.25443
304.1732, 50.12318
304.6554, 49.99572
305.1375, 49.86067
305.6196, 49.71781
306.1017, 49.56678
306.5838, 49.40865
307.0659, 49.24086
307.5481, 49.05901
308.0302, 48.86458
308.5123, 48.65885
308.9944, 48.41618
309.4765, 48.16803
309.9586, 47.98046
310.4408, 47.87858
310.9229, 47.80436
311.4050, 47.64181
311.8871, 47.37466
312.3692, 47.27877
312.8513, 47.58027
313.3335, 48.00191
313.8156, 48.24749
314.2977, 48.27522
314.7798, 48.09496
315.2619, 47.57018
315.7440, 46.75029
316.2262, 46.33506
316.7083, 46.71975
317.1904, 47.29041
317.6725, 47.59223
318.1546, 47.60875
318.6367, 47.41700
319.1188, 46.95695
319.6010, 46.34155
320.0831, 46.06435
320.5652, 46.49064
321.0473, 46.88070
321.5294, 46.74392
322.0115, 46.21129
322.4937, 45.74609
322.9758, 45.57546
323.4579, 45.59276
323.9400, 45.51466
324.4221, 45.25264
324.9042, 45.09645
325.3864, 45.29732
325.8685, 45.65315
326.3506, 45.73822
326.8327, 45.37838
327.3148, 44.86459
327.7969, 44.68707
328.2791, 44.91366
328.7612, 45.01214
329.2433, 44.80754
329.7254, 44.46046
330.2075, 44.09132
330.6896, 43.72069
331.1718, 43.50475
331.6539, 43.68475
332.1360, 44.29825
332.6181, 44.60138
333.1002, 44.31040
333.5823, 43.89827
334.0645, 43.74493
334.5466, 43.83144
335.0287, 43.85784
335.5108, 43.60122
335.9929, 43.10032
336.4750, 42.68786
336.9572, 42.25222
337.4393, 42.00057
337.9214, 42.17977
338.4035, 42.61481
338.8856, 42.88549
339.3677, 42.78802
339.8499, 42.43102
340.3320, 42.08156
340.8141, 41.65730
341.2962, 41.38124
341.7783, 41.34270
342.2604, 41.45865
342.7426, 41.66302
343.2247, 41.93661
343.7068, 42.19658
344.1889, 42.32708
344.6710, 42.28729
345.1531, 42.20519
345.6353, 41.93949
346.1174, 41.73067
346.5995, 41.85842
347.0816, 42.29243
347.5637, 42.68536
348.0458, 42.70792
348.5280, 42.33587
349.0101, 42.07347
349.4922, 41.82203
349.9743, 41.75457
350.4564, 42.16236
350.9385, 42.81968
351.4207, 43.16299
351.9028, 42.81543
352.3849, 42.00794
352.8670, 41.74086
353.3491, 42.56632
353.8312, 43.24426
354.3134, 43.62727
354.7955, 43.78569
355.2776, 43.73354
355.7597, 43.48671
356.2418, 43.21746
356.7239, 43.23330
357.2061, 43.77981
357.6882, 44.11283
358.1703, 44.07675
358.6524, 43.96502
359.1345, 43.98405
359.6166, 44.14348
360.0987, 44.31485
360.5808, 44.36219
361.0630, 44.26105
361.5451, 44.27446
362.0272, 44.44565
362.5093, 44.67683
362.9914, 45.00867
363.4735, 45.37241
363.9557, 45.64074
364.4378, 45.73214
364.9199, 45.68555
365.4020, 45.67205
365.8841, 45.81358
366.3662, 45.81053
366.8484, 45.46019
367.3305, 45.04191
367.8126, 44.88752
368.2947, 45.08568
368.7768, 45.36866
369.2589, 45.27570
369.7411, 44.58813
370.2232, 44.12282
370.7053, 44.09989
371.1874, 44.12780
371.6695, 43.98478
372.1516, 43.68412
372.6338, 43.38259
373.1159, 43.21415
373.5980, 43.17614
374.0801, 43.18711
374.5622, 43.34634
375.0443, 43.42736
375.5265, 43.24461
376.0086, 42.96399
376.4907, 42.87344
376.9728, 43.15739
377.4549, 43.60151
377.9370, 43.69070
378.4192, 43.27317
378.9013, 42.93050
379.3834, 42.92653
379.8655, 42.99574
380.3476, 42.93710
380.8297, 42.71083
381.3119, 42.40872
381.7940, 42.08738
382.2761, 41.74817
382.7582, 41.48626
383.2403, 41.26427
383.7224, 41.19923
384.2046, 41.43557
384.6867, 41.89334
385.1688, 42.29115
385.6509, 42.43538
386.1330, 42.41944
386.6151, 42.48674
387.0973, 42.69068
387.5794, 42.78233
388.0615, 42.52101
388.5436, 42.08020
389.0257, 41.66631
389.5078, 41.23260
389.9900, 40.98910
390.4721, 41.30636
390.9542, 42.08901
391.4363, 42.54018
391.9184, 42.25679
392.4005, 41.70326
392.8827, 41.49718
393.3648, 41.63679
393.8469, 41.95454
394.3290, 42.60665
394.8111, 43.32637
395.2932, 43.66425
395.7754, 43.54416
396.2575, 43.20344
396.7396, 42.79409
397.2217, 42.32344
397.7038, 41.88427
398.1859, 41.39374
398.6681, 41.00730
399.1501, 40.87506
399.6323, 40.94486
400.1144, 41.01001
400.5965, 40.94564
401.0786, 40.84495
401.5607, 41.02131
402.0428, 41.84290
402.5250, 42.26088
403.0071, 41.79048
403.4892, 40.96047
403.9713, 40.36533
404.4534, 40.14366
404.9355, 40.08407
405.4177, 39.95008
405.8998, 39.72809
406.3819, 39.49506
406.8640, 39.18808
407.3461, 38.93139
407.8282, 38.82722
408.3104, 38.82549
408.7925, 38.79311
409.2746, 38.64244
409.7567, 38.40471
410.2388, 38.22226
410.7209, 38.14907
411.2031, 38.06503
411.6852, 38.04337
412.1673, 37.96225
412.6494, 37.63093
413.1315, 37.03250
413.6136, 36.42109
414.0958, 36.17103
414.5779, 36.40522
415.0600, 36.50338
415.5421, 36.37470
416.0242, 36.18951
416.5063, 35.97555
416.9885, 35.75539
417.4706, 35.55674
417.9527, 35.37782
418.4348, 35.24908
418.9169, 35.29231
419.3990, 35.58545
419.8812, 35.87960
420.3633, 36.12995
420.8454, 36.32874
421.3275, 36.44773
421.8096, 36.47782
422.2917, 36.48967
422.7739, 36.54750
423.2560, 36.65038
423.7381, 36.76297
424.2202, 36.78418
424.7023, 36.95780
425.1844, 37.61280
425.6666, 38.59681
426.1487, 39.35315
426.6308, 39.45013
427.1129, 39.27601
427.5950, 39.44885
428.0771, 39.99550
428.5593, 40.48444
429.0414, 40.65154
429.5235, 40.62738
430.0056, 40.70985
430.4877, 40.90370
430.9698, 41.19617
431.4520, 41.60880
431.9341, 42.11013
432.4162, 42.64542
432.8983, 43.20013
433.3804, 43.78086
433.8625, 44.42936
434.3447, 45.16804
434.8268, 45.71653
435.3089, 45.88283
435.7910, 46.01182
436.2731, 46.32243
436.7552, 46.79457
437.2374, 47.33581
437.7195, 47.91267
438.2016, 48.47723
438.6837, 48.83393
439.1658, 48.86283
439.6479, 48.83204
440.1301, 48.56687
440.6122, 48.35796
441.0943, 48.56144
441.5764, 49.20399
442.0585, 49.95386
442.5406, 50.44588
443.0227, 50.66988
443.5049, 50.71888
443.9870, 50.42804
444.4691, 50.13069
444.9512, 49.80584
445.4333, 49.56830
445.9154, 49.67040
446.3976, 50.29197
446.8797, 51.06398
447.3618, 51.07706
447.8439, 50.00162
448.3260, 49.14951
448.8081, 48.99007
449.2903, 48.95980
449.7724, 48.65857
450.2545, 48.09281
450.7366, 47.61383
451.2187, 47.57967
451.7008, 47.87266
452.1830, 48.02211
452.6651, 48.05375
453.1472, 47.85321
453.6293, 47.05689
454.1114, 46.05482
454.5935, 45.44884
455.0757, 45.52988
455.5578, 45.71354
456.0399, 45.48967
456.5220, 44.94521
457.0041, 44.44907
457.4862, 44.09847
457.9684, 43.84518
458.4505, 43.67630
458.9326, 43.59615
459.4147, 43.40615
459.8968, 43.01363
460.3789, 42.53921
460.8611, 42.01628
461.3432, 41.48405
461.8253, 41.11706
462.3074, 41.05986
462.7895, 41.20969
463.2716, 41.13264
463.7538, 40.62537
464.2359, 40.17456
464.7180, 39.86272
465.2001, 39.61416
465.6822, 39.36269
466.1643, 39.08938
466.6465, 38.79606
467.1286, 38.47023
467.6107, 38.09170
468.0928, 37.85333
468.5749, 37.93047
469.0570, 37.96130
469.5392, 37.87757
470.0213, 37.67793
470.5034, 37.28734
470.9855, 36.65577
471.4676, 36.07659
471.9497, 36.17213
472.4319, 37.15144
472.9140, 37.88614
473.3961, 38.14229
473.8782, 38.15542
474.3603, 37.96933
474.8424, 37.63588
475.3246, 37.30443
475.8067, 37.03046
476.2888, 36.83149
476.7709, 36.77366
477.2530, 36.88214
477.7351, 36.97034
478.2173, 36.89741
478.6994, 36.78492
479.1815, 36.85932
479.6636, 37.21076
480.1457, 37.44914
480.6278, 37.28710
481.1100, 36.90269
481.5920, 36.61369
482.0742, 36.47672
482.5563, 36.39319
483.0384, 36.25061
483.5205, 36.06073
484.0026, 36.07465
484.4847, 36.59797
484.9669, 36.98148
485.4490, 36.85663
485.9311, 36.43469
486.4132, 36.09437
486.8953, 35.97608
487.3774, 35.95345
487.8596, 35.80770
488.3417, 35.42878
488.8238, 35.23182
489.3059, 35.48303
489.7880, 35.63271
490.2701, 35.34554
490.7523, 34.74223
491.2344, 34.11885
491.7165, 33.64331
492.1986, 33.29926
492.6807, 33.06319
493.1628, 32.98907
493.6450, 32.87546
494.1271, 32.53066
494.6092, 32.24302
495.0913, 32.31850
495.5734, 32.71843
496.0555, 32.98960
496.5377, 32.66171
497.0198, 31.97910
497.5019, 31.62219
497.9840, 31.64590
498.4661, 31.81478
498.9482, 32.19675
499.4304, 32.56143
499.9125, 32.43352
500.3946, 31.55520
500.8767, 30.75888
501.3588, 30.54814
501.8409, 30.66985
502.3231, 30.67356
502.8052, 30.46734
503.2873, 30.20102
503.7694, 30.01597
504.2515, 29.91465
504.7336, 29.77922
505.2158, 29.52508
505.6979, 29.33471
506.1800, 29.24210
506.6621, 29.26391
507.1442, 29.51187
507.6263, 30.00698
508.1085, 30.46788
508.5906, 30.43797
509.0727, 29.78401
509.5548, 29.11918
510.0369, 28.12609
510.5190, 27.44324
511.0012, 27.55843
511.4833, 28.13104
511.9654, 28.49024
512.4475, 28.26869
512.9296, 27.78750
513.4117, 27.67021
513.8939, 27.98416
514.3760, 28.13369
514.8581, 27.89273
515.3402, 27.53907
515.8223, 27.32738
516.3044, 27.23221
516.7866, 27.06797
517.2687, 26.60460
517.7508, 26.11631
518.2329, 26.03088
518.7150, 26.31978
519.1971, 26.53205
519.6793, 26.44054
520.1614, 26.16266
520.6435, 25.93242
521.1256, 25.68347
521.6077, 25.64499
522.0898, 26.14481
522.5720, 26.66931
523.0541, 26.68786
523.5362, 26.24385
524.0183, 25.76559
524.5004, 25.54854
524.9825, 25.57154
525.4647, 25.74876
525.9468, 26.50246
526.4289, 26.78009
526.9110, 26.07678
527.3931, 25.17705
527.8752, 24.70419
528.3574, 24.72999
528.8395, 24.95618
529.3216, 25.15082
529.8037, 25.32250
530.2858, 25.54466
530.7679, 25.87315
531.2501, 26.12018
531.7322, 26.16928
532.2143, 26.11084
532.6964, 26.00954
533.1785, 25.86386
533.6606, 25.75241
534.1428, 25.75422
534.6249, 25.82118
535.1070, 25.81554
535.5891, 25.70806
536.0712, 25.70811
536.5533, 26.07430
537.0355, 26.68975
537.5176, 26.84760
537.9997, 26.19566
538.4818, 25.56235
538.9639, 25.10479
539.4460, 24.82745
539.9282, 24.80560
540.4103, 25.02094
540.8924, 25.26364
541.3745, 25.31652
541.8566, 25.17579
542.3387, 24.97547
542.8209, 24.56982
543.3029, 24.28372
543.7850, 24.33668
544.2672, 24.46827
544.7493, 24.32734
545.2314, 23.83571
545.7135, 23.33106
546.1956, 23.22843
546.6777, 23.48973
547.1599, 23.65784
547.6420, 23.66212
548.1241, 23.67141
548.6062, 23.87074
549.0883, 24.12731
549.5704, 24.22027
550.0526, 24.09318
550.5347, 23.84066
551.0168, 23.35983
551.4989, 22.82400
551.9810, 22.65978
552.4631, 22.96381
552.9453, 23.34367
553.4274, 23.42408
553.9095, 23.20315
554.3916, 23.08960
554.8737, 23.24962
555.3558, 23.30218
555.8380, 22.95053
556.3201, 22.52033
556.8022, 22.45948
557.2843, 22.85899
557.7664, 23.41245
558.2485, 23.80713
558.7307, 24.04352
559.2128, 24.04739
559.6949, 23.60235
560.1770, 23.23388
560.6591, 23.17452
561.1412, 23.25496
561.6234, 23.25136
562.1055, 23.09746
562.5876, 22.97449
563.0697, 23.12185
563.5518, 23.43294
564.0339, 23.50756
564.5161, 23.25339
564.9982, 23.00350
565.4803, 23.01257
565.9624, 23.22571
566.4445, 23.36702
566.9266, 23.39550
567.4088, 23.41129
567.8909, 23.43202
568.3730, 23.46659
568.8551, 23.53767
569.3372, 23.64297
569.8193, 23.75919
570.3015, 23.88856
570.7836, 24.01738
571.2657, 23.86025
571.7478, 22.93187
572.2299, 22.37716
572.7120, 22.62028
573.1942, 23.14071
573.6763, 23.50260
574.1584, 23.61838
574.6405, 23.58876
575.1226, 23.39563
575.6047, 23.11664
576.0869, 23.14456
576.5690, 23.58306
577.0511, 23.88697
577.5332, 23.70991
578.0153, 23.29075
578.4974, 23.00196
578.9796, 22.84783
579.4617, 22.83265
579.9438, 23.15650
580.4259, 23.50275
580.9080, 23.39309
581.3901, 22.87900
581.8723, 22.51760
582.3544, 22.69454
582.8365, 23.21779
583.3186, 23.42588
583.8007, 22.92559
584.2828, 22.71009
584.7650, 23.02999
585.2471, 23.42458
585.7292, 23.63177
586.2113, 23.63909
586.6934, 23.51474
587.1755, 23.26911
587.6577, 22.97976
588.1398, 22.83172
588.6219, 22.83987
589.1040, 22.89039
589.5861, 22.97862
590.0682, 23.07703
590.5504, 23.17181
591.0325, 23.25885
591.5146, 23.30731
591.9967, 23.24441
592.4788, 23.19241
592.9609, 23.31883
593.4431, 23.54676
593.9252, 23.61737
594.4073, 23.42618
594.8894, 23.15701
595.3715, 23.06737
595.8536, 23.19728
596.3358, 23.33163
596.8179, 23.51499
597.3000, 23.65314
597.7821, 23.73999
598.2642, 23.75145
598.7463, 23.60057
599.2285, 23.26791
599.7106, 22.97244
600.1927, 23.06392
600.6748, 23.52114
