##NAMES=Whelanite
##RRUFFID=R050323
##IDEAL CHEMISTRY=Cu^2+^_2_Ca_6_[Si_6_O_17_(OH)](CO_3_)(OH)_3_&#183;2H_2_O
##LOCALITY=Christmas mine, Christmas, Gila County, Arizona, USA
##OWNER=RRUFF
##SOURCE=Marcus Origlieri
##DESCRIPTION=Light-blue thin, flat bladed fibers associated with colorless hydroxyapophyllite, blue kinoite, and light yellow andradite.
##STATUS=The identification of this mineral has been confirmed by single-crystal X-ray diffraction.
##URL=rruff.info/R050323
90.26532, 87.86057
90.74744, 87.76138
91.22955, 88.38628
91.71167, 89.69106
92.19379, 92.28050
92.67590, 95.90663
93.15802, 98.45666
93.64014, 97.42338
94.12225, 93.99351
94.60437, 91.49063
95.08649, 90.96548
95.56860, 91.69357
96.05072, 92.21422
96.53284, 92.61349
97.01495, 92.83024
97.49707, 92.57335
97.97919, 91.85538
98.46130, 91.53895
98.94342, 91.83813
99.42554, 92.72795
99.90765, 94.20718
100.3898, 96.46129
100.8719, 98.92310
101.3540, 100.7151
101.8361, 101.6849
102.3182, 102.6595
102.8004, 103.9455
103.2825, 105.5567
103.7646, 107.3495
104.2467, 109.3987
104.7288, 111.5822
105.2109, 113.6080
105.6931, 115.5025
106.1752, 117.2647
106.6573, 118.9618
107.1394, 120.9879
107.6215, 122.3469
108.1036, 123.3472
108.5858, 123.8370
109.0679, 122.7834
109.5500, 118.8620
110.0321, 114.4208
110.5142, 110.7366
110.9963, 108.1432
111.4785, 105.8943
111.9606, 103.8359
112.4427, 101.9684
112.9248, 100.6653
113.4069, 100.1009
113.8890, 100.0328
114.3712, 100.2627
114.8533, 100.9726
115.3354, 101.7633
115.8175, 102.6259
116.2996, 103.6036
116.7817, 104.2220
117.2639, 103.8221
117.7460, 103.0986
118.2281, 102.9327
118.7102, 104.2970
119.1923, 105.8580
119.6744, 106.7258
120.1566, 106.6688
120.6387, 106.5680
121.1208, 106.8379
121.6029, 107.4491
122.0850, 108.3493
122.5671, 109.5127
123.0493, 110.9461
123.5314, 112.8087
124.0135, 115.3829
124.4956, 117.7469
124.9777, 118.9283
125.4598, 119.0984
125.9420, 118.8775
126.4241, 118.3134
126.9062, 117.6697
127.3883, 117.4222
127.8704, 117.6655
128.3525, 118.3498
128.8347, 119.4868
129.3168, 121.0701
129.7989, 122.8602
130.2810, 124.9056
130.7631, 127.0695
131.2452, 128.8346
131.7274, 129.8926
132.2095, 130.5512
132.6916, 131.6670
133.1737, 133.2962
133.6558, 135.0737
134.1379, 136.6234
134.6201, 137.9525
135.1022, 139.5028
135.5843, 141.4551
136.0664, 143.7580
136.5485, 145.9334
137.0306, 147.9482
137.5128, 149.9418
137.9949, 152.1027
138.4770, 154.4219
138.9591, 157.0130
139.4412, 160.1178
139.9233, 163.7897
140.4055, 166.8333
140.8876, 169.1797
141.3697, 170.9655
141.8518, 172.3427
142.3339, 173.0893
142.8160, 173.9094
143.2982, 175.0803
143.7803, 176.7046
144.2624, 178.3187
144.7445, 179.9006
145.2266, 181.4819
145.7087, 183.0672
146.1909, 184.7311
146.6730, 186.3410
147.1551, 187.8709
147.6372, 189.3564
148.1193, 190.6961
148.6014, 192.1407
149.0836, 193.4792
149.5657, 194.0150
150.0478, 193.4490
150.5299, 192.3166
151.0120, 190.8332
151.4941, 188.7619
151.9763, 186.6373
152.4584, 184.4688
152.9405, 182.2508
153.4226, 179.9167
153.9047, 177.2702
154.3868, 174.6285
154.8690, 172.1644
155.3511, 169.9079
155.8332, 167.8180
156.3153, 165.9820
156.7974, 164.3680
157.2795, 162.7190
157.7617, 160.9096
158.2438, 159.0851
158.7259, 157.3509
159.2080, 155.7341
159.6901, 154.2111
160.1722, 152.7957
160.6544, 151.4852
161.1365, 150.2152
161.6186, 148.8898
162.1007, 147.6326
162.5828, 146.5251
163.0649, 145.9343
163.5471, 145.2280
164.0292, 144.0763
164.5113, 142.4659
164.9934, 140.7237
165.4755, 138.8000
165.9576, 136.8819
166.4398, 135.2255
166.9219, 134.1003
167.4040, 133.1222
167.8861, 132.0400
168.3682, 130.8283
168.8503, 129.6613
169.3325, 128.6414
169.8146, 127.7384
170.2967, 126.9180
170.7788, 126.0935
171.2609, 125.3739
171.7430, 124.9453
172.2252, 124.8522
172.7073, 124.7257
173.1894, 124.1737
173.6715, 123.3544
174.1536, 122.6432
174.6357, 122.2939
175.1179, 122.1079
175.6000, 121.8055
176.0821, 121.3336
176.5642, 120.9328
177.0463, 120.9082
177.5284, 121.1663
178.0106, 121.4197
178.4927, 121.4712
178.9748, 121.4289
179.4569, 121.4850
179.9390, 121.6752
180.4211, 121.9020
180.9033, 122.0313
181.3854, 122.0889
181.8675, 122.1896
182.3496, 122.4567
182.8317, 122.8131
183.3138, 123.0511
183.7960, 123.1009
184.2781, 123.1584
184.7602, 123.5840
185.2423, 124.3346
185.7244, 125.0182
186.2065, 125.3982
186.6887, 125.5180
187.1708, 125.5581
187.6529, 125.5491
188.1350, 125.4409
188.6171, 125.0984
189.0992, 124.5237
189.5814, 123.9327
190.0635, 123.4801
190.5456, 123.1381
191.0277, 122.7539
191.5098, 122.2954
191.9919, 121.8069
192.4741, 121.3581
192.9562, 120.9472
193.4383, 120.6433
193.9204, 120.4699
194.4025, 120.4311
194.8846, 120.6165
195.3668, 121.0722
195.8489, 121.7175
196.3310, 122.4226
196.8131, 123.2091
197.2952, 123.8840
197.7773, 124.3537
198.2595, 124.6161
198.7416, 124.6116
199.2237, 124.3076
199.7058, 123.7552
200.1879, 123.0753
200.6700, 122.2498
201.1522, 121.3520
201.6343, 120.4336
202.1164, 119.5004
202.5985, 118.5081
203.0806, 117.5043
203.5627, 116.4198
204.0449, 115.0074
204.5270, 113.2065
205.0091, 111.2746
205.4912, 109.3151
205.9733, 107.2795
206.4554, 105.5375
206.9376, 104.2322
207.4197, 103.2268
207.9018, 101.9130
208.3839, 100.1801
208.8660, 98.41609
209.3481, 96.93474
209.8303, 95.80506
210.3124, 94.61155
210.7945, 93.28279
211.2766, 91.86703
211.7587, 90.50064
212.2408, 89.17384
212.7230, 87.91199
213.2051, 86.68383
213.6872, 85.42381
214.1693, 84.44246
214.6514, 83.88573
215.1335, 83.63133
215.6157, 83.11132
216.0978, 82.18542
216.5799, 81.23969
217.0620, 80.53897
217.5441, 80.18483
218.0262, 79.75810
218.5084, 79.13972
218.9905, 78.40696
219.4726, 78.00152
219.9547, 78.05834
220.4368, 78.20242
220.9189, 78.18279
221.4011, 77.91038
221.8832, 77.72227
222.3653, 77.69978
222.8474, 77.78526
223.3295, 77.66871
223.8116, 77.16319
224.2938, 76.75468
224.7759, 76.79543
225.2580, 77.56936
225.7401, 78.08134
226.2222, 78.12178
226.7043, 77.84561
227.1865, 77.95872
227.6686, 78.73472
228.1507, 79.48774
228.6328, 79.78400
229.1149, 79.37339
229.5970, 79.09602
230.0792, 79.04400
230.5613, 79.16222
231.0434, 79.22075
231.5255, 79.12431
232.0076, 79.10892
232.4897, 79.33560
232.9719, 79.99189
233.4540, 80.46101
233.9361, 80.64295
234.4182, 80.62957
234.9003, 80.74599
235.3824, 81.04391
235.8646, 81.39777
236.3467, 81.74914
236.8288, 82.09538
237.3109, 82.44054
237.7930, 82.76982
238.2751, 83.09975
238.7573, 83.48148
239.2394, 83.97326
239.7215, 84.42955
240.2036, 84.76853
240.6857, 84.87760
241.1678, 85.13110
241.6500, 85.61133
242.1321, 86.21043
242.6142, 86.65548
243.0963, 86.86373
243.5784, 87.03555
244.0605, 87.26043
244.5427, 87.59266
245.0248, 87.82950
245.5069, 87.87852
245.9890, 87.87119
246.4711, 88.09858
246.9532, 88.64072
247.4354, 89.29345
247.9175, 90.02298
248.3996, 90.94710
248.8817, 91.56386
249.3638, 91.72353
249.8459, 91.66333
250.3281, 91.80798
250.8102, 92.17653
251.2923, 92.72494
251.7744, 93.49905
252.2565, 94.58994
252.7386, 95.48768
253.2208, 96.13090
253.7029, 96.62590
254.1850, 97.17712
254.6671, 97.91660
255.1492, 98.44369
255.6313, 98.52518
256.1135, 98.03100
256.5956, 97.99533
257.0777, 98.63714
257.5598, 99.52222
258.0419, 100.0839
258.5240, 100.2697
259.0062, 100.2261
259.4883, 99.91574
259.9704, 99.31567
260.4525, 98.88716
260.9346, 98.67324
261.4167, 98.58379
261.8989, 98.53330
262.3810, 98.54684
262.8631, 98.53815
263.3452, 98.48943
263.8273, 98.40127
264.3094, 98.28654
264.7916, 98.12602
265.2737, 97.97141
265.7558, 97.83923
266.2379, 97.67810
266.7200, 97.73808
267.2021, 98.17830
267.6843, 98.92994
268.1664, 99.28159
268.6485, 99.08688
269.1306, 98.79392
269.6127, 98.75982
270.0948, 99.00100
270.5770, 99.43847
271.0591, 100.1399
271.5412, 101.0169
272.0233, 101.6036
272.5054, 101.7619
272.9875, 101.9769
273.4697, 102.6874
273.9518, 104.0119
274.4339, 105.0659
274.9160, 105.6691
275.3981, 105.9785
275.8802, 106.4670
276.3624, 107.1412
276.8445, 107.9462
277.3266, 108.9307
277.8087, 110.1225
278.2908, 111.0534
278.7729, 111.6041
279.2551, 111.9711
279.7372, 112.6153
280.2193, 113.5824
280.7014, 114.5492
281.1835, 115.3551
281.6656, 116.0016
282.1478, 116.6032
282.6299, 117.1763
283.1120, 117.6818
283.5941, 118.0792
284.0762, 118.3726
284.5583, 118.4860
285.0405, 118.2373
285.5226, 117.6947
286.0047, 117.5614
286.4868, 117.9269
286.9689, 118.4153
287.4510, 118.5430
287.9332, 118.3191
288.4153, 117.9233
288.8974, 117.2977
289.3795, 116.5515
289.8616, 116.2366
290.3438, 116.4193
290.8259, 116.5700
291.3080, 116.0005
291.7901, 114.8267
292.2722, 113.6995
292.7543, 112.7920
293.2365, 112.0965
293.7186, 111.6867
294.2007, 111.5704
294.6828, 111.4730
295.1649, 111.1188
295.6470, 110.5802
296.1292, 110.0807
296.6113, 109.6827
297.0934, 109.3559
297.5755, 109.0440
298.0576, 108.7495
298.5397, 108.5084
299.0219, 108.3730
299.5040, 108.3066
299.9861, 108.2544
300.4682, 108.2518
300.9503, 108.1696
301.4324, 107.7544
301.9146, 107.0878
302.3967, 106.4914
302.8788, 106.2589
303.3609, 106.1956
303.8430, 105.9771
304.3251, 105.4966
304.8073, 105.0985
305.2894, 105.3035
305.7715, 105.8560
306.2536, 106.1395
306.7357, 105.5488
307.2178, 104.6742
307.7000, 104.1879
308.1821, 104.1842
308.6642, 104.1287
309.1463, 103.4283
309.6284, 102.4504
310.1105, 101.7592
310.5927, 101.8772
311.0748, 102.1715
311.5569, 102.1906
312.0390, 101.9237
312.5211, 101.6324
313.0032, 101.4678
313.4854, 101.3542
313.9675, 101.2131
314.4496, 100.9868
314.9317, 100.7590
315.4138, 100.5033
315.8959, 100.2503
316.3781, 100.1709
316.8602, 100.5190
317.3423, 100.9680
317.8244, 101.2837
318.3065, 101.4125
318.7886, 101.4064
319.2708, 101.1949
319.7529, 100.8477
320.2350, 100.5606
320.7171, 100.3363
321.1992, 100.2295
321.6813, 100.3087
322.1635, 100.7351
322.6456, 100.9931
323.1277, 100.8925
323.6098, 100.5751
324.0919, 100.2774
324.5740, 99.93513
325.0562, 99.71262
325.5383, 99.73213
326.0204, 100.1148
326.5025, 100.2606
326.9846, 99.92719
327.4667, 99.42367
327.9489, 99.07556
328.4310, 99.10176
328.9131, 99.04545
329.3952, 98.84428
329.8773, 98.49808
330.3594, 98.03579
330.8416, 97.25431
331.3237, 96.53439
331.8058, 96.16206
332.2879, 96.35921
332.7700, 96.53561
333.2521, 96.69762
333.7343, 96.80904
334.2164, 96.66336
334.6985, 96.10133
335.1806, 95.53096
335.6627, 95.16189
336.1448, 95.02879
336.6270, 95.02485
337.1091, 95.24125
337.5912, 95.51447
338.0733, 95.46673
338.5554, 94.99558
339.0375, 94.54082
339.5197, 94.32738
340.0018, 94.38142
340.4839, 94.17113
340.9660, 93.59529
341.4481, 92.98467
341.9302, 92.81504
342.4124, 93.11448
342.8945, 93.45132
343.3766, 93.72195
343.8587, 93.92608
344.3408, 94.03602
344.8229, 94.03085
345.3051, 94.07048
345.7872, 94.32019
346.2693, 94.75459
346.7514, 95.20154
347.2335, 95.57754
347.7156, 96.00656
348.1978, 96.79424
348.6799, 97.91484
349.1620, 99.03611
349.6441, 99.90486
350.1262, 100.6126
350.6083, 101.3509
351.0905, 102.1359
351.5726, 103.0116
352.0547, 104.0825
352.5368, 105.2992
353.0189, 106.5124
353.5010, 107.6441
353.9832, 108.7318
354.4653, 109.8594
354.9474, 111.0460
355.4295, 112.1033
355.9116, 112.7486
356.3937, 113.2021
356.8759, 113.7853
357.3580, 114.7463
357.8401, 115.7735
358.3222, 116.7146
358.8043, 117.5656
359.2864, 118.2481
359.7686, 118.4361
360.2507, 118.5907
360.7328, 119.1305
361.2149, 120.3756
361.6970, 121.6354
362.1791, 122.6100
362.6613, 123.3945
363.1434, 124.2092
363.6255, 125.0615
364.1076, 126.0068
364.5897, 127.1419
365.0718, 128.5730
365.5540, 129.7738
366.0361, 130.5784
366.5182, 131.1273
367.0003, 131.5894
367.4824, 132.0773
367.9645, 132.3867
368.4467, 132.3730
368.9288, 132.0159
369.4109, 131.8815
369.8930, 132.2561
370.3751, 132.6375
370.8572, 132.6812
371.3394, 132.1878
371.8215, 131.6971
372.3036, 131.2645
372.7857, 130.8604
373.2678, 130.3421
373.7499, 129.5560
374.2321, 128.9161
374.7142, 128.6896
375.1963, 129.0356
375.6784, 129.1019
376.1605, 128.8483
376.6426, 128.3596
377.1248, 127.7157
377.6069, 126.8650
378.0890, 126.1263
378.5711, 125.6234
379.0532, 125.3292
379.5353, 125.0821
380.0175, 124.8790
380.4996, 124.7315
380.9817, 124.6590
381.4638, 124.6570
381.9459, 124.6912
382.4280, 124.7646
382.9102, 124.8562
383.3923, 124.9239
383.8744, 124.9691
384.3565, 125.0096
384.8386, 125.0928
385.3207, 125.1731
385.8029, 125.1018
386.2850, 124.8232
386.7671, 124.6094
387.2492, 124.8444
387.7313, 125.3619
388.2134, 125.7789
388.6956, 125.7706
389.1777, 125.6794
389.6598, 125.8518
390.1419, 126.2781
390.6240, 126.6933
391.1061, 126.9502
391.5883, 127.1118
392.0704, 127.2397
392.5525, 127.3049
393.0346, 127.4056
393.5167, 127.6236
393.9988, 127.9188
394.4810, 128.1795
394.9631, 128.2775
395.4452, 128.4010
395.9273, 128.6661
396.4094, 129.1468
396.8915, 129.5737
397.3737, 129.8144
397.8558, 130.0006
398.3379, 130.2940
398.8200, 130.8970
399.3021, 131.4053
399.7842, 131.6427
400.2664, 131.6098
400.7485, 131.8790
401.2306, 132.6764
401.7127, 133.5480
402.1948, 134.2261
402.6769, 134.7386
403.1591, 134.9811
403.6412, 134.8843
404.1233, 134.5413
404.6054, 134.1901
405.0875, 133.8742
405.5696, 133.4347
406.0518, 132.7942
406.5339, 131.9500
407.0160, 131.0856
407.4981, 130.2681
407.9802, 129.2747
408.4623, 127.7632
408.9445, 125.7376
409.4266, 123.7240
409.9087, 121.8780
410.3908, 120.1218
410.8729, 118.3125
411.3550, 116.4422
411.8372, 114.5072
412.3193, 112.3363
412.8014, 110.0923
413.2835, 108.1781
413.7656, 106.6806
414.2477, 105.3194
414.7299, 103.7634
415.2120, 102.1088
415.6941, 100.6321
416.1762, 99.46691
416.6583, 98.51198
417.1404, 97.69278
417.6226, 96.99733
418.1047, 96.41005
418.5868, 95.93726
419.0689, 95.55270
419.5510, 95.22066
420.0331, 94.88898
420.5153, 94.67097
420.9974, 94.69511
421.4795, 94.87540
421.9616, 94.99283
422.4437, 94.82590
422.9258, 94.72974
423.4080, 94.84781
423.8901, 95.21015
424.3722, 95.72382
424.8543, 96.42557
425.3364, 97.25890
425.8185, 98.17059
426.3007, 99.25047
426.7828, 100.2796
427.2649, 101.0729
427.7470, 101.7335
428.2291, 103.0399
428.7112, 105.2536
429.1934, 107.6415
429.6755, 109.8576
430.1576, 111.8599
430.6397, 113.8055
431.1218, 115.6323
431.6039, 117.4992
432.0861, 119.6842
432.5682, 122.1967
433.0503, 124.9259
433.5324, 128.0138
434.0145, 131.2758
434.4966, 133.9210
434.9788, 135.9281
435.4609, 137.9904
435.9430, 140.7596
436.4251, 144.0751
436.9072, 147.5062
437.3893, 151.0711
437.8715, 154.5497
438.3536, 157.7424
438.8357, 160.6518
439.3178, 163.2842
439.7999, 165.3954
440.2820, 167.3929
440.7642, 169.7904
441.2463, 172.6354
441.7284, 175.0377
442.2105, 176.4233
442.6926, 177.1924
443.1747, 177.7207
443.6569, 177.9404
444.1390, 178.1320
444.6211, 178.5332
445.1032, 178.9908
445.5853, 179.0495
446.0674, 178.3790
446.5496, 177.5199
447.0317, 176.6736
447.5138, 175.8869
447.9959, 174.9722
448.4780, 173.7296
448.9601, 172.5001
449.4423, 171.6310
449.9244, 171.3621
450.4065, 170.9816
450.8886, 170.3858
451.3707, 169.6014
451.8528, 168.6555
452.3350, 167.4422
452.8171, 166.3690
453.2992, 165.7226
453.7813, 165.5061
454.2634, 165.0637
454.7455, 164.3259
455.2277, 163.5158
455.7098, 162.8521
456.1919, 162.3443
456.6740, 162.0440
457.1561, 162.0997
457.6382, 162.2686
458.1204, 162.1746
458.6025, 161.8233
459.0846, 161.2606
459.5667, 160.4991
460.0488, 159.5483
460.5309, 158.4145
461.0131, 157.1026
461.4952, 155.6180
461.9773, 153.9111
462.4594, 152.0664
462.9415, 150.1818
463.4236, 148.3691
463.9058, 146.4817
464.3879, 144.4012
464.8700, 142.1659
465.3521, 139.9157
465.8342, 137.4582
466.3163, 135.1368
466.7985, 133.1709
467.2806, 131.9297
467.7627, 130.3906
468.2448, 128.2021
468.7269, 125.8644
469.2090, 124.0840
469.6912, 123.1480
470.1733, 122.2085
470.6554, 121.0235
471.1375, 119.6415
471.6196, 118.5566
472.1017, 117.8231
472.5839, 117.2302
473.0660, 116.6448
473.5481, 116.0697
474.0302, 115.4525
474.5123, 114.7513
474.9944, 114.1141
475.4766, 113.7834
475.9587, 113.7305
476.4408, 113.7733
476.9229, 113.9287
477.4050, 114.0847
477.8871, 113.9367
478.3693, 113.5342
478.8514, 113.3204
479.3335, 113.8340
479.8156, 114.6184
480.2977, 115.1113
480.7798, 115.1554
481.2620, 115.0996
481.7441, 115.0752
482.2262, 115.0923
482.7083, 115.1665
483.1904, 115.3531
483.6725, 115.5459
484.1547, 115.8101
484.6368, 116.1136
485.1189, 116.0845
485.6010, 115.2790
486.0831, 114.4308
486.5652, 113.9429
487.0474, 114.1295
487.5295, 113.9870
488.0116, 113.4081
488.4937, 112.5811
488.9758, 111.7557
489.4579, 110.9433
489.9401, 110.0936
490.4222, 109.1969
490.9043, 108.2515
491.3864, 107.1260
491.8685, 105.7646
492.3506, 104.5852
492.8328, 103.9947
493.3149, 103.8609
493.7970, 103.5496
494.2791, 102.9890
494.7612, 102.3713
495.2433, 101.8322
495.7255, 101.4008
496.2076, 101.1525
496.6897, 101.2459
497.1718, 101.4069
497.6539, 101.3676
498.1360, 101.1682
498.6182, 100.9595
499.1003, 100.7551
499.5824, 100.6158
500.0645, 100.6216
500.5466, 100.8256
501.0287, 100.9605
501.5109, 101.0366
501.9930, 100.9662
502.4751, 100.6593
502.9572, 99.70742
503.4393, 99.00190
503.9214, 98.95054
504.4036, 99.24052
504.8857, 98.72868
505.3678, 97.02598
505.8499, 95.17552
506.3320, 93.54467
506.8141, 92.13493
507.2963, 91.01425
507.7784, 90.29613
508.2605, 89.52714
508.7426, 88.15663
509.2247, 86.22310
509.7068, 84.29534
510.1890, 82.45506
510.6711, 80.71571
511.1532, 79.13644
511.6353, 77.70430
512.1174, 76.39848
512.5995, 75.26707
513.0817, 74.20798
513.5638, 73.08054
514.0459, 71.88715
514.5280, 70.74423
515.0101, 69.75809
515.4922, 68.83676
515.9744, 67.90311
516.4565, 66.90916
516.9386, 65.95107
517.4207, 64.98565
517.9028, 64.09108
518.3849, 63.39520
518.8671, 63.11151
519.3492, 62.82363
519.8313, 62.44918
520.3134, 61.99322
520.7955, 61.46605
521.2776, 60.78628
521.7598, 60.15209
522.2419, 59.69498
522.7240, 59.44740
523.2061, 59.18186
523.6882, 58.87902
524.1703, 58.59020
524.6525, 58.38802
525.1346, 58.26793
525.6167, 58.17463
526.0988, 58.10805
526.5809, 58.04524
527.0630, 58.00109
527.5452, 57.94933
528.0273, 57.74125
528.5094, 57.00780
528.9915, 56.21754
529.4736, 55.98027
529.9557, 56.35728
530.4379, 56.74350
530.9200, 56.85813
531.4021, 56.76503
531.8842, 56.51121
532.3663, 55.87683
532.8484, 55.41505
533.3306, 55.38660
533.8127, 55.61598
534.2948, 55.73541
534.7769, 55.66038
535.2590, 55.53765
535.7411, 55.40338
536.2233, 55.25739
536.7054, 55.04878
537.1875, 54.78187
537.6696, 54.44960
538.1517, 54.01981
538.6339, 53.48600
539.1160, 52.98517
539.5981, 52.51262
540.0802, 52.11610
540.5623, 51.93211
541.0444, 51.90681
541.5266, 51.71955
542.0087, 51.19950
542.4908, 50.54970
542.9729, 50.01847
543.4550, 49.60694
543.9371, 49.30153
544.4193, 49.27883
544.9014, 49.23307
545.3835, 48.79180
545.8656, 47.89454
546.3477, 47.24479
546.8298, 47.31100
547.3120, 47.64019
547.7941, 47.86210
548.2762, 47.94756
548.7583, 47.88050
549.2404, 47.58008
549.7225, 47.15141
550.2047, 46.76345
550.6868, 46.40308
551.1689, 46.11056
551.6510, 45.91431
552.1331, 45.79887
552.6152, 45.66344
553.0974, 45.50062
553.5795, 45.35754
554.0616, 45.28088
554.5437, 45.25748
555.0258, 45.21417
555.5079, 45.14931
555.9901, 45.05193
556.4722, 44.83855
556.9543, 44.59025
557.4364, 44.49071
557.9185, 44.67511
558.4006, 44.89000
558.8828, 44.92989
559.3649, 44.84566
559.8470, 44.75704
560.3291, 44.72954
560.8112, 44.69004
561.2933, 44.58833
561.7755, 44.42147
562.2576, 44.29142
562.7397, 44.18400
563.2218, 44.14187
563.7039, 44.20178
564.1860, 44.43995
564.6682, 44.58136
565.1503, 44.60984
565.6324, 44.56496
566.1145, 44.49533
566.5966, 44.40208
567.0787, 44.27238
567.5609, 44.09790
568.0430, 43.89473
568.5251, 43.65409
569.0072, 43.39183
569.4893, 43.24887
569.9714, 43.37025
570.4536, 43.62397
570.9357, 43.84844
571.4178, 44.03656
571.8999, 44.16646
572.3820, 44.18040
572.8641, 44.15191
573.3463, 44.14407
573.8284, 44.17233
574.3105, 44.20885
574.7926, 44.26324
575.2747, 44.31421
575.7568, 44.33439
576.2390, 44.30018
576.7211, 44.26329
577.2032, 44.23017
577.6853, 44.19822
578.1674, 44.15060
578.6495, 44.06726
579.1317, 44.02947
579.6138, 44.09199
580.0959, 44.23830
580.5780, 44.31551
581.0601, 44.31736
581.5422, 44.32923
582.0244, 44.46771
582.5065, 44.66888
582.9886, 44.75636
583.4707, 44.69250
583.9528, 44.60241
584.4349, 44.56452
584.9171, 44.58142
