##NAMES=Wherryite
##RRUFFID=R110089
##IDEAL CHEMISTRY=Pb^2+^_7_Cu^2+^_2_(S^6+^O_4_)_4_(SiO_4_)_2_(OH)_2_
##LOCALITY=Mammoth-St Anthony mine, Tiger, Pinal County, Arizona, USA
##OWNER=RRUFF
##SOURCE=Brent Thorne and Joe Ruiz
##DESCRIPTION=Pale green granular, associated with blue diaboleite
##STATUS=The identification of this mineral has been confirmed by single-crystal X-ray diffraction.
##URL=rruff.info/R110089
181.6122, 459.9233
182.0944, 466.6787
182.5765, 473.5644
183.0586, 481.1725
183.5407, 489.0511
184.0228, 496.5249
184.5049, 503.4637
184.9871, 510.3469
185.4692, 517.5627
185.9513, 525.1399
186.4334, 532.8632
186.9155, 540.5990
187.3976, 548.4296
187.8798, 556.7935
188.3619, 565.6971
188.8440, 575.0031
189.3261, 584.4414
189.8082, 594.0771
190.2903, 603.6891
190.7725, 612.8101
191.2546, 621.7723
191.7367, 631.8027
192.2188, 643.0942
192.7009, 655.1671
193.1830, 667.1433
193.6652, 678.9748
194.1473, 690.7974
194.6294, 703.1171
195.1115, 715.7725
195.5936, 726.5186
196.0757, 735.1257
196.5579, 742.0047
197.0400, 748.2061
197.5221, 753.8771
198.0042, 757.5180
198.4863, 758.4725
198.9684, 756.7484
199.4506, 752.1664
199.9327, 744.4425
200.4148, 734.3483
200.8969, 723.4300
201.3790, 711.5469
201.8611, 699.0884
202.3433, 685.8989
202.8254, 671.8338
203.3075, 658.6302
203.7896, 646.4534
204.2717, 635.2987
204.7538, 625.4880
205.2360, 617.2156
205.7181, 609.4915
206.2002, 601.5409
206.6823, 593.1315
207.1644, 585.8654
207.6465, 579.7558
208.1287, 574.9143
208.6108, 571.7216
209.0929, 570.5114
209.5750, 569.9897
210.0571, 569.2278
210.5392, 567.9192
211.0214, 567.8494
211.5035, 569.5088
211.9856, 572.4022
212.4677, 574.7741
212.9498, 576.3149
213.4319, 578.0748
213.9140, 581.0427
214.3962, 585.9690
214.8783, 589.3998
215.3604, 590.6155
215.8425, 590.1838
216.3246, 590.3464
216.8067, 591.3855
217.2889, 592.4656
217.7710, 593.0500
218.2531, 592.9527
218.7352, 592.8926
219.2173, 592.9711
219.6994, 593.1168
220.1816, 592.8279
220.6637, 591.4017
221.1458, 590.6979
221.6279, 592.1461
222.1100, 596.8654
222.5921, 600.7450
223.0743, 603.1862
223.5564, 604.5305
224.0385, 606.3552
224.5206, 608.2585
225.0027, 611.2078
225.4848, 616.0956
225.9670, 624.0778
226.4491, 631.1023
226.9312, 636.5611
227.4133, 640.8121
227.8954, 645.8466
228.3775, 651.7781
228.8597, 658.1879
229.3418, 664.7320
229.8239, 671.2112
230.3060, 678.2739
230.7881, 686.1701
231.2702, 694.7040
231.7524, 702.6541
232.2345, 709.7808
232.7166, 716.4939
233.1987, 722.9447
233.6808, 729.1874
234.1629, 735.0095
234.6451, 740.6092
235.1272, 745.8024
235.6093, 749.8888
236.0914, 752.6135
236.5735, 754.5875
237.0556, 756.2109
237.5378, 757.8601
238.0199, 758.3378
238.5020, 757.3029
238.9841, 755.0665
239.4662, 752.9555
239.9483, 751.5000
240.4305, 749.4928
240.9126, 746.2463
241.3947, 741.3865
241.8768, 736.1248
242.3589, 730.3328
242.8410, 724.2177
243.3232, 718.2839
243.8053, 712.1642
244.2874, 706.7604
244.7695, 702.7962
245.2516, 701.4368
245.7337, 698.7188
246.2159, 693.7856
246.6980, 687.4672
247.1801, 682.5967
247.6622, 679.7419
248.1443, 677.3732
248.6264, 674.7682
249.1086, 671.5950
249.5907, 669.0004
250.0728, 667.4438
250.5549, 666.3597
251.0370, 664.1909
251.5191, 660.5176
252.0013, 656.4452
252.4834, 652.5419
252.9655, 649.4310
253.4476, 644.9924
253.9297, 639.0117
254.4118, 631.8256
254.8940, 623.9642
255.3761, 615.2292
255.8582, 606.1251
256.3403, 596.9365
256.8224, 587.8226
257.3046, 578.0580
257.7867, 567.2508
258.2688, 556.1168
258.7509, 546.1676
259.2330, 537.8971
259.7151, 529.9936
260.1973, 521.9313
260.6794, 513.7999
261.1615, 505.7119
261.6436, 497.6139
262.1257, 489.7051
262.6078, 482.3297
263.0900, 475.5562
263.5721, 469.3339
264.0542, 463.7887
264.5363, 458.9327
265.0184, 454.3482
265.5005, 450.1100
265.9827, 445.9845
266.4648, 441.4606
266.9469, 436.3408
267.4290, 431.4950
267.9111, 427.1924
268.3932, 423.4828
268.8754, 419.8387
269.3575, 416.4584
269.8396, 412.8286
270.3217, 408.1143
270.8038, 401.9181
271.2859, 396.2147
271.7681, 391.7174
272.2502, 388.3920
272.7323, 384.6910
273.2144, 380.4307
273.6965, 376.2913
274.1786, 373.2534
274.6608, 371.5779
275.1429, 369.4052
275.6250, 366.0584
276.1071, 361.7773
276.5892, 358.2201
277.0714, 355.5011
277.5535, 353.3442
278.0356, 351.6031
278.5177, 350.3088
278.9998, 349.0854
279.4819, 347.8402
279.9641, 346.6034
280.4462, 345.6071
280.9283, 344.8967
281.4104, 344.2142
281.8925, 343.2573
282.3746, 342.0202
282.8568, 341.0551
283.3389, 340.4932
283.8210, 340.2400
284.3031, 339.9966
284.7852, 339.7483
285.2673, 339.7074
285.7495, 340.0884
286.2316, 340.8691
286.7137, 341.7351
287.1958, 342.7216
287.6779, 343.6739
288.1600, 344.0764
288.6422, 343.9140
289.1243, 344.0420
289.6064, 345.2550
290.0885, 347.3094
290.5706, 348.7889
291.0527, 349.3755
291.5349, 349.7943
292.0170, 351.4248
292.4991, 354.1362
292.9812, 356.6875
293.4633, 358.0065
293.9454, 358.5799
294.4276, 360.0986
294.9097, 362.7896
295.3918, 365.7504
295.8739, 367.9478
296.3560, 369.4347
296.8381, 370.5560
297.3203, 371.0077
297.8024, 371.2747
298.2845, 372.4513
298.7666, 374.6167
299.2487, 377.1757
299.7308, 379.6325
300.2130, 382.0422
300.6951, 384.5181
301.1772, 387.0185
301.6593, 389.6445
302.1414, 392.6403
302.6235, 395.9732
303.1057, 399.4188
303.5878, 402.8991
304.0699, 406.3297
304.5520, 409.4785
305.0341, 412.1896
305.5162, 414.6602
305.9984, 417.1001
306.4805, 419.4872
306.9626, 421.8266
307.4447, 424.0253
307.9268, 426.1894
308.4089, 428.4521
308.8911, 430.9909
309.3732, 433.4214
309.8553, 435.4684
310.3374, 437.1516
310.8195, 438.5738
311.3016, 439.4326
311.7838, 440.2172
312.2659, 441.5143
312.7480, 443.8065
313.2301, 445.7005
313.7122, 446.0293
314.1943, 445.3700
314.6765, 444.9285
315.1586, 444.7939
315.6407, 445.3610
316.1228, 447.1368
316.6049, 450.4981
317.0870, 453.6977
317.5692, 455.9875
318.0513, 457.6256
318.5334, 458.9539
319.0155, 459.6482
319.4976, 460.4330
319.9797, 461.7284
320.4619, 463.6176
320.9440, 465.3062
321.4261, 466.9118
321.9082, 468.0372
322.3903, 468.2945
322.8724, 467.4079
323.3546, 465.8317
323.8367, 463.8908
324.3188, 461.5520
324.8009, 457.8701
325.2830, 451.4323
325.7651, 444.4271
326.2473, 438.2885
326.7294, 434.9772
327.2115, 430.4472
327.6936, 423.5862
328.1757, 414.9831
328.6578, 407.2469
329.1400, 400.6731
329.6221, 394.7542
330.1042, 389.2381
330.5863, 384.1859
331.0684, 379.4073
331.5505, 374.8146
332.0327, 370.5271
332.5148, 366.9020
332.9969, 364.3337
333.4790, 361.8589
333.9611, 359.0003
334.4432, 355.4610
334.9254, 352.6899
335.4075, 350.9014
335.8896, 349.7114
336.3717, 348.6689
336.8538, 347.8934
337.3359, 346.9782
337.8180, 345.7603
338.3001, 344.2545
338.7823, 342.9510
339.2644, 341.9037
339.7465, 340.9960
340.2286, 340.1040
340.7107, 339.2182
341.1928, 338.4878
341.6750, 337.9516
342.1571, 337.6062
342.6392, 337.5527
343.1213, 337.8651
343.6034, 338.0934
344.0855, 337.8032
344.5677, 337.0261
345.0498, 336.4416
345.5319, 336.1060
346.0140, 336.0470
346.4961, 336.3330
346.9782, 336.9572
347.4604, 337.8461
347.9425, 338.9821
348.4246, 340.3537
348.9067, 341.8498
349.3888, 343.4433
349.8709, 345.2691
350.3531, 347.7125
350.8352, 350.5910
351.3173, 353.2170
351.7994, 355.1142
352.2815, 356.6516
352.7636, 358.4552
353.2458, 360.5217
353.7279, 362.6626
354.2100, 364.8980
354.6921, 367.0681
355.1742, 368.8606
355.6563, 369.9032
356.1385, 370.8455
356.6206, 372.3423
357.1027, 374.3158
357.5848, 376.3365
358.0669, 378.5614
358.5490, 380.5283
359.0312, 381.8022
359.5133, 382.2909
359.9954, 382.1367
360.4775, 380.8198
360.9596, 378.9239
361.4417, 377.7023
361.9239, 378.5421
362.4060, 379.5109
362.8881, 379.4626
363.3702, 378.0986
363.8523, 376.6978
364.3344, 376.0410
364.8166, 375.4408
365.2987, 374.1007
365.7808, 370.8732
366.2629, 367.8871
366.7450, 365.8498
367.2271, 364.7669
367.7093, 363.5316
368.1914, 361.9376
368.6735, 360.1956
369.1556, 358.4259
369.6377, 356.5543
370.1198, 354.7983
370.6020, 353.2534
371.0841, 351.8379
371.5662, 350.2409
372.0483, 348.2751
372.5304, 346.3739
373.0125, 344.7909
373.4947, 343.8498
373.9768, 342.2656
374.4589, 339.6908
374.9410, 336.7328
375.4231, 334.4406
375.9052, 333.0291
376.3874, 331.6582
376.8695, 330.1392
377.3516, 328.4569
377.8337, 326.6255
378.3158, 324.6271
378.7979, 322.4899
379.2801, 320.2421
379.7622, 317.8625
380.2443, 315.4330
380.7264, 312.8135
381.2085, 310.2502
381.6906, 308.4974
382.1728, 307.5709
382.6549, 306.7533
383.1370, 305.6290
383.6191, 304.2176
384.1012, 302.5785
384.5833, 300.6167
385.0655, 298.6843
385.5476, 297.3914
386.0297, 296.5617
386.5118, 295.6352
386.9939, 294.0411
387.4760, 292.3001
387.9582, 291.3483
388.4403, 291.2054
388.9224, 290.9364
389.4045, 289.5148
389.8866, 287.5737
390.3687, 286.0037
390.8509, 285.3281
391.3330, 284.8972
391.8151, 284.3703
392.2972, 283.7333
392.7793, 282.9162
393.2614, 281.4308
393.7436, 280.0452
394.2257, 279.3606
394.7078, 279.7943
395.1899, 280.1752
395.6720, 280.0429
396.1541, 279.5994
396.6363, 279.1712
397.1184, 278.8550
397.6005, 278.5461
398.0826, 278.1787
398.5647, 277.7283
399.0468, 277.4002
399.5290, 277.2567
400.0111, 277.2198
400.4932, 277.2261
400.9753, 277.2660
401.4574, 277.3715
401.9395, 277.6498
402.4217, 278.0206
402.9038, 278.0622
403.3859, 277.5532
403.8680, 277.0420
404.3501, 276.8115
404.8322, 276.9656
405.3144, 277.0305
405.7965, 276.9488
406.2786, 276.8443
406.7607, 276.9212
407.2428, 277.1994
407.7249, 277.5489
408.2071, 277.9270
408.6892, 278.3374
409.1713, 278.9107
409.6534, 279.7177
410.1355, 280.2692
410.6176, 279.6429
411.0998, 278.1587
411.5819, 277.9024
412.0640, 279.7198
412.5461, 282.1936
413.0282, 282.8670
413.5103, 282.0012
413.9925, 281.1708
414.4746, 281.3777
414.9567, 282.1718
415.4388, 282.8931
415.9209, 283.4976
416.4030, 284.0137
416.8852, 284.4652
417.3673, 284.8530
417.8494, 285.1805
418.3315, 285.2647
418.8136, 285.4502
419.2957, 286.0912
419.7779, 287.1055
420.2600, 287.9730
420.7421, 288.2802
421.2242, 288.4600
421.7063, 288.8229
422.1884, 289.5212
422.6706, 290.2402
423.1527, 290.8023
423.6348, 291.3509
424.1169, 292.1543
424.5990, 293.4974
425.0811, 294.8713
425.5633, 296.2521
426.0454, 297.7242
426.5275, 298.5457
427.0096, 298.1057
427.4917, 297.4955
427.9738, 297.6753
428.4560, 299.2117
428.9381, 300.3171
429.4202, 300.6376
429.9023, 300.4106
430.3844, 300.4672
430.8665, 300.8655
431.3487, 301.3829
431.8308, 301.9294
432.3129, 302.5056
432.7950, 303.0998
433.2771, 303.7324
433.7592, 304.3304
434.2414, 304.7372
434.7235, 304.9807
435.2056, 305.3907
435.6877, 306.1738
436.1698, 307.1199
436.6519, 307.8486
437.1341, 308.3578
437.6162, 308.6195
438.0983, 308.4871
438.5804, 308.1298
439.0625, 307.8040
439.5446, 307.5174
440.0268, 307.3868
440.5089, 307.6884
440.9910, 308.2178
441.4731, 308.5537
441.9552, 308.3773
442.4373, 308.0479
442.9195, 307.8112
443.4016, 307.6678
443.8837, 307.4062
444.3658, 306.8013
444.8479, 306.1102
445.3300, 305.5376
445.8122, 305.1079
446.2943, 304.8042
446.7764, 304.7664
447.2585, 304.8536
447.7406, 304.7060
448.2227, 304.0829
448.7049, 303.4347
449.1870, 302.8244
449.6691, 302.2088
450.1512, 301.9859
450.6333, 302.4897
451.1154, 303.0340
451.5976, 302.8384
452.0797, 301.5311
452.5618, 300.7902
453.0439, 301.0464
453.5260, 301.9523
454.0081, 302.4130
454.4903, 302.3661
454.9724, 302.3003
455.4545, 302.5875
455.9366, 303.1417
456.4187, 303.3163
456.9008, 303.0424
457.3830, 302.6339
457.8651, 302.3148
458.3472, 302.1357
458.8293, 302.3571
459.3114, 303.5570
459.7935, 304.6795
460.2757, 304.0939
460.7578, 302.0948
461.2399, 300.1871
461.7220, 299.3739
462.2041, 299.0492
462.6862, 298.7265
463.1684, 298.3848
463.6505, 297.8362
464.1326, 297.0433
464.6147, 295.9838
465.0968, 294.6074
465.5789, 292.2687
466.0611, 290.2986
466.5432, 289.2012
467.0253, 288.9256
467.5074, 288.6960
467.9895, 288.5389
468.4716, 288.3205
468.9538, 287.9676
469.4359, 287.3949
469.9180, 286.8883
470.4001, 286.5085
470.8822, 286.1416
471.3643, 285.5421
471.8465, 284.5102
472.3286, 283.8404
472.8107, 283.8790
473.2928, 284.4583
473.7749, 284.4713
474.2570, 283.7728
474.7392, 283.2646
475.2213, 283.9677
475.7034, 285.6244
476.1855, 286.3861
476.6676, 285.9443
477.1497, 284.9868
477.6319, 284.1588
478.1140, 283.5368
478.5961, 283.3874
479.0782, 284.1573
479.5603, 285.2587
480.0424, 286.1057
480.5246, 286.7004
481.0067, 287.0380
481.4888, 287.0141
481.9709, 286.7892
482.4530, 286.4928
482.9352, 286.1336
483.4173, 285.7386
483.8994, 285.4351
484.3815, 285.0711
484.8636, 284.4196
485.3457, 283.1820
485.8279, 281.9081
486.3100, 280.6660
486.7921, 279.4624
487.2742, 278.5431
487.7563, 278.2549
488.2384, 277.8981
488.7206, 276.9698
489.2027, 274.9152
489.6848, 273.9167
490.1669, 274.4761
490.6490, 275.5902
491.1311, 275.5942
491.6133, 274.3372
492.0954, 272.9971
492.5775, 271.8326
493.0596, 270.8844
493.5417, 270.4201
494.0238, 270.4469
494.5060, 270.4151
494.9881, 269.6500
495.4702, 268.5240
495.9523, 268.0425
496.4344, 268.4372
496.9165, 269.0083
497.3987, 268.7980
497.8808, 268.2867
498.3629, 268.3870
498.8450, 270.0609
499.3271, 271.9782
499.8092, 273.4008
500.2914, 274.3585
500.7735, 274.9320
501.2556, 274.5109
501.7377, 274.2179
502.2198, 274.7565
502.7019, 276.4937
503.1841, 278.3367
503.6662, 280.3389
504.1483, 282.3089
504.6304, 283.9883
505.1125, 285.1288
505.5946, 286.3512
506.0768, 287.7971
506.5589, 289.4057
507.0410, 290.9004
507.5231, 292.2501
508.0052, 293.5585
508.4873, 294.8190
508.9695, 296.0115
509.4516, 297.7055
509.9337, 300.0725
510.4158, 302.2237
510.8979, 303.0988
511.3800, 302.8589
511.8622, 302.1518
512.3443, 301.0179
512.8264, 299.6898
513.3085, 298.6765
513.7906, 297.7828
514.2728, 296.3045
514.7549, 293.5186
515.2370, 290.1947
515.7191, 286.9526
516.2012, 283.8355
516.6833, 280.7020
517.1655, 277.4651
517.6476, 274.1670
518.1297, 270.8447
518.6118, 267.5786
519.0939, 264.2009
519.5760, 260.4233
520.0582, 256.5471
520.5403, 253.1696
521.0224, 250.5430
521.5045, 248.1075
521.9866, 245.6462
522.4688, 243.1506
522.9509, 241.3228
523.4330, 240.4027
523.9151, 239.5583
524.3972, 238.0273
524.8793, 235.7930
525.3615, 233.8934
525.8436, 232.3909
526.3257, 231.2822
526.8078, 230.8897
527.2899, 231.0119
527.7720, 230.6754
528.2542, 229.1609
528.7363, 227.2509
529.2184, 225.7206
529.7005, 224.6355
530.1826, 224.2747
530.6647, 226.0181
531.1469, 227.8324
531.6290, 227.7055
532.1111, 224.9331
532.5932, 222.3500
533.0753, 221.1944
533.5574, 220.7377
534.0396, 220.2430
534.5217, 219.4074
535.0038, 218.7314
535.4859, 218.4601
535.9680, 218.4084
536.4501, 217.9432
536.9323, 216.7586
537.4144, 215.6812
537.8965, 215.0302
538.3786, 214.8140
538.8607, 214.6459
539.3428, 214.5160
539.8250, 214.4603
540.3071, 214.7105
540.7892, 215.1799
541.2713, 214.9378
541.7534, 213.6651
542.2355, 212.1332
542.7177, 211.4452
543.1998, 211.4020
543.6819, 211.3917
544.1640, 211.0995
544.6461, 210.7361
545.1282, 210.5132
545.6104, 210.4085
546.0925, 210.2725
546.5746, 209.9685
547.0567, 209.6505
547.5388, 209.4572
548.0209, 209.4973
548.5031, 209.3586
548.9852, 208.6673
549.4673, 207.8911
549.9494, 207.5365
550.4315, 207.9938
550.9136, 208.2630
551.3958, 208.1613
551.8779, 207.8223
552.3600, 207.5886
552.8421, 207.3848
553.3242, 207.5523
553.8063, 208.4607
554.2885, 209.9504
554.7706, 210.6789
555.2527, 210.5994
555.7348, 210.2632
556.2169, 209.9425
556.6990, 209.7463
557.1812, 210.0942
557.6633, 211.2258
558.1454, 212.2336
558.6275, 211.9420
559.1096, 210.9584
559.5917, 210.3464
560.0739, 210.9438
560.5560, 211.6373
561.0381, 211.7525
561.5202, 211.4502
562.0023, 211.4609
562.4844, 212.2511
562.9666, 213.1503
563.4487, 213.8993
563.9308, 214.5079
564.4129, 214.8745
564.8950, 214.8941
565.3771, 214.7825
565.8593, 214.6427
566.3414, 214.3718
566.8235, 214.5732
567.3056, 215.4574
567.7877, 216.6077
568.2698, 217.2613
568.7520, 217.4471
569.2341, 217.5428
569.7162, 217.7025
570.1983, 217.7426
570.6804, 217.8764
571.1625, 217.7676
571.6447, 217.6772
572.1268, 217.6188
572.6089, 217.6729
573.0910, 218.0337
573.5731, 218.7997
574.0552, 219.2811
574.5374, 219.0204
575.0195, 218.4016
575.5016, 217.7834
575.9837, 217.0324
576.4658, 216.5312
576.9479, 216.4509
577.4301, 216.5972
577.9122, 216.5882
578.3943, 216.3349
578.8764, 216.0946
579.3585, 215.9804
579.8406, 215.9438
580.3228, 215.6478
580.8049, 215.0746
581.2870, 214.3565
581.7691, 213.3527
582.2512, 212.2417
582.7333, 211.8548
583.2155, 212.3044
583.6975, 212.8604
584.1796, 212.9881
584.6617, 212.7293
585.1439, 212.0999
585.6260, 210.8571
586.1081, 209.7037
586.5902, 209.0637
587.0723, 208.8170
587.5544, 208.7381
588.0366, 209.2873
588.5187, 209.4513
589.0008, 208.4988
589.4829, 206.5327
589.9650, 205.6383
590.4471, 206.4576
590.9293, 207.5095
591.4114, 208.1239
591.8935, 208.2607
592.3756, 208.2161
592.8577, 207.9349
593.3398, 207.6168
593.8220, 207.5339
594.3041, 207.6397
594.7862, 207.5232
595.2683, 207.0442
595.7504, 206.5019
596.2325, 206.4092
596.7147, 206.5717
597.1968, 206.4837
597.6789, 205.6744
598.1610, 204.7457
598.6431, 204.1902
599.1252, 203.9193
599.6074, 203.4970
600.0895, 202.5566
600.5716, 201.6028
601.0537, 200.8708
601.5358, 200.4172
602.0179, 200.0496
602.5001, 199.8077
602.9822, 199.6078
603.4643, 199.4237
603.9464, 199.3144
604.4285, 198.9691
604.9106, 198.3305
605.3928, 197.5171
605.8749, 196.6164
606.3570, 195.6431
606.8391, 194.8378
607.3212, 194.2776
607.8033, 193.9158
608.2855, 193.7471
608.7676, 193.7293
609.2497, 193.7048
609.7318, 193.8251
610.2139, 193.7260
610.6960, 192.8671
611.1782, 191.2714
611.6603, 190.1451
612.1424, 190.4265
612.6245, 190.9242
613.1066, 190.8700
613.5887, 189.8563
614.0709, 189.1048
614.5530, 188.6723
615.0351, 188.4497
615.5172, 188.3885
615.9993, 188.5879
616.4814, 188.4763
616.9636, 187.9047
617.4457, 187.0888
617.9278, 186.3484
618.4099, 185.6958
618.8920, 185.2504
619.3741, 185.0410
619.8563, 185.0688
620.3384, 185.6068
620.8205, 186.4960
621.3026, 186.9474
621.7847, 186.1814
622.2668, 185.0343
622.7490, 184.0363
623.2311, 183.2201
623.7132, 182.7351
624.1953, 182.9286
624.6774, 183.2644
625.1595, 183.3869
625.6417, 183.3617
626.1238, 182.9205
626.6059, 181.6958
627.0880, 180.4688
627.5701, 180.5433
628.0522, 182.1228
628.5344, 182.9826
629.0165, 182.4683
629.4986, 181.2676
629.9807, 180.6405
630.4628, 180.5155
630.9449, 180.5242
631.4271, 180.4048
631.9092, 180.3695
632.3913, 180.7581
632.8734, 181.4976
633.3555, 182.1250
633.8376, 182.4327
634.3198, 182.5404
634.8019, 182.4462
635.2840, 182.0689
635.7661, 181.9252
636.2482, 182.1870
636.7303, 182.5956
637.2125, 182.9932
637.6946, 183.3985
638.1767, 183.7345
638.6588, 183.9664
639.1409, 184.1879
639.6230, 184.6082
640.1052, 185.2041
640.5873, 185.5299
641.0694, 185.3614
641.5515, 185.0621
642.0336, 185.2088
642.5157, 185.6830
642.9979, 186.1435
643.4800, 186.5034
643.9621, 186.7165
644.4442, 186.6359
644.9263, 186.3271
645.4084, 186.1672
645.8906, 186.4275
646.3727, 186.7345
646.8548, 186.9380
647.3369, 187.0429
647.8190, 187.0039
648.3011, 186.7863
648.7833, 186.4775
649.2654, 186.0633
649.7475, 185.5037
650.2296, 185.3931
650.7117, 185.8720
651.1938, 186.3794
651.6760, 186.1533
652.1581, 185.3728
652.6402, 184.5885
653.1223, 183.9315
653.6044, 183.3367
654.0865, 182.7273
654.5687, 182.1260
655.0508, 181.5746
655.5329, 181.1630
656.0150, 180.7190
656.4971, 180.0926
656.9792, 179.3502
657.4614, 178.8469
657.9435, 178.8218
658.4256, 178.7123
658.9077, 178.2764
659.3898, 177.5359
659.8719, 177.0674
660.3541, 176.9129
660.8362, 176.8319
661.3183, 176.6421
661.8004, 176.3838
662.2825, 176.2473
662.7646, 176.2540
663.2468, 176.1977
663.7289, 175.8535
664.2110, 175.3551
664.6931, 174.8273
665.1752, 174.1783
665.6573, 173.8252
666.1395, 174.2841
666.6216, 175.0114
667.1037, 175.3372
667.5858, 174.7488
668.0679, 174.2735
668.5500, 173.9390
669.0322, 173.7851
669.5143, 173.9760
669.9964, 174.6077
670.4785, 175.1293
670.9606, 175.4251
671.4427, 175.4583
671.9249, 174.8765
672.4070, 173.7853
672.8891, 173.0677
673.3712, 173.5558
673.8533, 174.5199
674.3354, 175.1145
674.8176, 175.3529
675.2997, 175.6236
675.7818, 176.3638
676.2639, 177.0099
676.7460, 177.0962
677.2281, 176.3062
677.7103, 176.0398
