##NAMES=Whewellite
##RRUFFID=R050526
##IDEAL CHEMISTRY=Ca(C_2_)^6+^O_4_&#183;H_2_O
##LOCALITY=Dresden, Saxony, Germany
##OWNER=RRUFF
##SOURCE=University of Arizona Mineral Museum
##DESCRIPTION=Coating of colorless fragments
##STATUS=The identification of this mineral has been confirmed by X-ray diffraction and chemical analysis
##URL=rruff.info/R050526
##MEASURED CHEMISTRY=Ca_1.00_C_2.00_O_4_Â·H_2_O ; C not measured but estimated by difference.
90.92609, 0.0000000E+00
91.40820, 12.30873
91.89032, 12.63336
92.37244, 12.45031
92.85455, 11.84557
93.33667, 11.33297
93.81879, 11.36651
94.30090, 11.79694
94.78302, 12.18238
95.26514, 12.43618
95.74725, 12.57895
96.22937, 12.62554
96.71149, 12.56920
97.19360, 12.48884
97.67572, 12.46471
98.15784, 12.49607
98.63995, 12.50429
99.12207, 12.42718
99.60419, 12.29061
100.0863, 12.35622
100.5684, 12.69140
101.0505, 13.09479
101.5327, 13.27061
102.0148, 13.12042
102.4969, 13.07299
102.9790, 13.31921
103.4611, 13.94184
103.9432, 14.37490
104.4253, 14.52474
104.9075, 14.53316
105.3896, 14.66677
105.8717, 14.90990
106.3538, 15.30172
106.8359, 15.86276
107.3180, 16.58753
107.8002, 17.48493
108.2823, 18.62489
108.7644, 19.94817
109.2465, 21.28569
109.7286, 22.52552
110.2107, 23.84198
110.6929, 25.33359
111.1750, 26.70581
111.6571, 28.56409
112.1392, 31.14473
112.6213, 34.36011
113.1034, 37.59246
113.5856, 40.25969
114.0677, 43.21275
114.5498, 47.02790
115.0319, 52.01170
115.5140, 57.71939
115.9961, 63.97834
116.4783, 70.78716
116.9604, 78.26454
117.4425, 86.61304
117.9246, 95.70605
118.4067, 105.3183
118.8888, 115.8180
119.3710, 126.5778
119.8531, 137.3131
120.3352, 147.9700
120.8173, 158.5304
121.2994, 168.8244
121.7815, 178.9318
122.2637, 189.0344
122.7458, 199.1565
123.2279, 209.2402
123.7100, 219.0844
124.1921, 228.5706
124.6742, 238.2245
125.1564, 248.0959
125.6385, 258.4189
126.1206, 269.9862
126.6027, 282.8922
127.0848, 297.3200
127.5669, 313.6360
128.0491, 332.1114
128.5312, 352.0423
129.0133, 372.7114
129.4954, 393.9347
129.9775, 415.7418
130.4596, 438.4364
130.9418, 461.6522
131.4239, 484.9373
131.9060, 508.4955
132.3881, 531.8790
132.8702, 553.7921
133.3523, 574.3487
133.8345, 593.3953
134.3166, 610.9384
134.7987, 627.0980
135.2808, 641.1365
135.7629, 653.1055
136.2450, 663.0520
136.7272, 670.8029
137.2093, 676.2443
137.6914, 680.0140
138.1735, 682.5748
138.6556, 683.7851
139.1377, 684.3762
139.6199, 684.2352
140.1020, 683.3701
140.5841, 683.3688
141.0662, 684.1245
141.5483, 685.8809
142.0304, 689.0071
142.5126, 693.6469
142.9947, 698.9699
143.4768, 702.6121
143.9589, 702.9413
144.4410, 704.1646
144.9231, 706.9792
145.4053, 710.2346
145.8874, 712.2711
146.3695, 713.2109
146.8516, 712.8592
147.3337, 711.0603
147.8158, 707.2551
148.2980, 703.4808
148.7801, 699.8518
149.2622, 696.2281
149.7443, 692.4318
150.2264, 689.4539
150.7085, 685.3735
151.1907, 679.4410
151.6728, 669.4241
152.1549, 661.1224
152.6370, 655.6005
153.1191, 651.8358
153.6012, 647.4821
154.0834, 640.9568
154.5655, 634.8566
155.0476, 630.2692
155.5297, 629.1289
156.0118, 627.1224
156.4939, 622.9560
156.9761, 617.2878
157.4582, 612.4553
157.9403, 609.2931
158.4224, 606.8859
158.9045, 604.7048
159.3866, 602.9158
159.8688, 601.0665
160.3509, 598.7440
160.8330, 596.1519
161.3151, 594.2390
161.7972, 594.2341
162.2793, 594.5808
162.7615, 594.0862
163.2436, 591.5735
163.7257, 588.9706
164.2078, 586.8130
164.6899, 585.1293
165.1720, 584.1806
165.6541, 584.6016
166.1363, 585.6051
166.6184, 586.4139
167.1005, 586.8399
167.5826, 586.9278
168.0647, 586.3351
168.5468, 585.1480
169.0290, 584.5383
169.5111, 585.6659
169.9932, 587.6972
170.4753, 589.5403
170.9574, 590.2747
171.4395, 590.9503
171.9217, 592.4267
172.4038, 594.7095
172.8859, 597.4955
173.3680, 600.5149
173.8501, 603.8735
174.3322, 607.8129
174.8144, 612.6352
175.2965, 618.0393
175.7786, 623.5432
176.2607, 629.1814
176.7428, 635.0149
177.2249, 641.6435
177.7071, 648.5352
178.1892, 654.5533
178.6713, 659.0175
179.1534, 662.3229
179.6355, 665.0887
180.1176, 667.3473
180.5998, 669.1100
181.0819, 670.0657
181.5640, 670.4452
182.0461, 671.1287
182.5282, 672.5653
183.0103, 674.5811
183.4925, 676.6055
183.9746, 678.4821
184.4567, 681.0021
184.9388, 685.0789
185.4209, 690.6778
185.9030, 697.3388
186.3852, 705.0343
186.8673, 713.6425
187.3494, 722.9562
187.8315, 732.9017
188.3136, 743.7036
188.7957, 755.9625
189.2779, 769.5629
189.7600, 784.4561
190.2421, 800.7289
190.7242, 818.1808
191.2063, 836.5770
191.6884, 856.2919
192.1706, 875.7306
192.6527, 893.3366
193.1348, 909.0213
193.6169, 922.5798
194.0990, 934.7260
194.5811, 945.2020
195.0633, 950.9286
195.5454, 951.2970
196.0275, 947.8087
196.5096, 942.5426
196.9917, 935.3365
197.4738, 927.9723
197.9560, 921.4360
198.4381, 915.7659
198.9202, 909.7020
199.4023, 902.9741
199.8844, 896.2277
200.3665, 890.5516
200.8487, 885.8082
201.3308, 882.7799
201.8129, 882.4077
202.2950, 884.9344
202.7771, 886.7998
203.2592, 887.4535
203.7414, 887.8651
204.2235, 890.2027
204.7056, 894.6743
205.1877, 900.1080
205.6698, 906.1258
206.1519, 912.8489
206.6341, 919.2048
207.1162, 924.8356
207.5983, 930.2645
208.0804, 936.7881
208.5625, 944.6611
209.0446, 952.6207
209.5268, 959.5544
210.0089, 964.7108
210.4910, 972.5068
210.9731, 983.4513
211.4552, 996.8841
211.9373, 1010.863
212.4195, 1024.765
212.9016, 1040.622
213.3837, 1059.253
213.8658, 1080.692
214.3479, 1104.992
214.8300, 1131.982
215.3121, 1162.064
215.7943, 1196.068
216.2764, 1233.121
216.7585, 1275.307
217.2406, 1324.388
217.7227, 1381.032
218.2048, 1440.498
218.6870, 1501.989
219.1691, 1566.477
219.6512, 1638.395
220.1333, 1720.975
220.6154, 1805.529
221.0975, 1891.937
221.5797, 1984.415
222.0618, 2065.729
222.5439, 2143.294
223.0260, 2206.158
223.5081, 2231.667
223.9902, 2218.000
224.4724, 2169.706
224.9545, 2085.356
225.4366, 1950.189
225.9187, 1817.441
226.4008, 1682.159
226.8829, 1550.488
227.3651, 1434.271
227.8472, 1332.426
228.3293, 1245.670
228.8114, 1174.893
229.2935, 1122.643
229.7757, 1079.065
230.2578, 1045.681
230.7399, 1020.603
231.2220, 999.9301
231.7041, 984.0765
232.1862, 972.2136
232.6684, 964.3220
233.1505, 961.0699
233.6326, 959.6691
234.1147, 960.4351
234.5968, 962.8701
235.0789, 966.1467
235.5611, 970.5830
236.0432, 975.3251
236.5253, 980.0587
237.0074, 984.4307
237.4895, 989.8661
237.9716, 996.5381
238.4538, 1004.176
238.9359, 1012.353
239.4180, 1021.326
239.9001, 1030.564
240.3822, 1039.706
240.8643, 1048.234
241.3465, 1058.684
241.8286, 1071.324
242.3107, 1085.690
242.7928, 1100.979
243.2749, 1116.277
243.7570, 1134.072
244.2392, 1155.373
244.7213, 1180.776
245.2034, 1206.620
245.6855, 1233.200
246.1676, 1260.182
246.6497, 1287.458
247.1319, 1316.468
247.6140, 1343.337
248.0961, 1368.281
248.5782, 1392.087
249.0603, 1407.344
249.5424, 1413.787
250.0246, 1412.156
250.5067, 1403.473
250.9888, 1388.572
251.4709, 1364.768
251.9530, 1329.705
252.4351, 1282.445
252.9173, 1235.693
253.3994, 1188.399
253.8815, 1141.872
254.3636, 1096.858
254.8457, 1052.720
255.3278, 1012.464
255.8100, 976.8987
256.2921, 945.8463
256.7742, 917.4799
257.2563, 891.8553
257.7384, 868.8764
258.2205, 849.0795
258.7026, 833.1840
259.1848, 818.3092
259.6669, 804.1111
260.1490, 790.5668
260.6311, 778.3763
261.1132, 767.2918
261.5953, 758.0065
262.0775, 751.6287
262.5596, 749.3825
263.0417, 746.2518
263.5238, 741.3281
264.0059, 735.0695
264.4880, 729.3593
264.9702, 724.0868
265.4523, 719.6296
265.9344, 716.4334
266.4165, 714.8810
266.8986, 713.0275
267.3807, 710.5237
267.8629, 707.6668
268.3450, 705.4651
268.8271, 704.1132
269.3092, 702.9005
269.7913, 701.4205
270.2734, 699.6455
270.7556, 697.8110
271.2377, 695.8159
271.7198, 693.8712
272.2019, 692.4682
272.6840, 691.7094
273.1661, 691.1921
273.6483, 690.6749
274.1304, 690.1044
274.6125, 690.0037
275.0946, 690.4501
275.5767, 691.2556
276.0588, 692.1458
276.5410, 693.1271
277.0231, 694.0471
277.5052, 694.7270
277.9873, 695.1453
278.4694, 695.8651
278.9515, 696.9154
279.4337, 698.1543
279.9158, 699.4706
280.3979, 700.8802
280.8800, 702.1185
281.3621, 703.2577
281.8442, 704.2226
282.3264, 703.9792
282.8085, 702.2973
283.2906, 700.2546
283.7727, 699.1837
284.2548, 699.1053
284.7369, 698.9051
285.2191, 698.2538
285.7012, 697.2465
286.1833, 696.1329
286.6654, 694.8773
287.1475, 693.7657
287.6296, 693.4523
288.1118, 693.7862
288.5939, 693.1699
289.0760, 690.9763
289.5581, 687.7842
290.0402, 684.8657
290.5223, 682.2055
291.0045, 679.8099
291.4866, 677.7389
291.9687, 675.9366
292.4508, 674.1558
292.9329, 672.3550
293.4150, 670.5546
293.8972, 668.7430
294.3793, 666.9212
294.8614, 665.0258
295.3435, 662.7526
295.8256, 660.3790
296.3077, 658.8090
296.7899, 658.3279
297.2720, 658.2134
297.7541, 657.6102
298.2362, 656.5693
298.7183, 655.2932
299.2004, 653.6192
299.6826, 651.8421
300.1647, 650.5017
300.6468, 649.6676
301.1289, 649.0811
301.6110, 648.5517
302.0931, 648.0565
302.5753, 647.5311
303.0574, 647.1785
303.5395, 646.6749
304.0216, 645.5286
304.5037, 643.7119
304.9858, 641.6832
305.4680, 639.4407
305.9501, 637.3010
306.4322, 635.8228
306.9143, 635.8590
307.3964, 636.1660
307.8785, 635.3519
308.3607, 633.5588
308.8428, 632.0652
309.3249, 631.9913
309.8070, 632.5952
310.2891, 633.0213
310.7712, 633.0687
311.2534, 632.8172
311.7355, 632.0476
312.2176, 630.9268
312.6997, 630.1211
313.1818, 630.4635
313.6639, 630.9958
314.1461, 630.8556
314.6282, 629.4883
315.1103, 628.2513
315.5924, 627.9681
316.0745, 628.3047
316.5566, 628.5631
317.0388, 628.1251
317.5209, 627.7839
318.0030, 628.2252
318.4851, 629.8893
318.9672, 630.8558
319.4493, 629.8694
319.9315, 627.9730
320.4136, 626.5331
320.8957, 626.3591
321.3778, 626.3363
321.8599, 625.9796
322.3420, 625.2086
322.8242, 624.7523
323.3063, 625.2028
323.7884, 625.8204
324.2705, 625.9606
324.7526, 624.9054
325.2347, 624.0149
325.7169, 623.5685
326.1990, 623.5423
326.6811, 623.6911
327.1632, 624.2348
327.6453, 624.7864
328.1274, 625.1307
328.6096, 624.9050
329.0917, 624.9225
329.5738, 625.4276
330.0559, 626.2128
330.5380, 626.6069
331.0201, 626.3790
331.5023, 626.0126
331.9844, 625.6566
332.4665, 625.1937
332.9486, 625.0554
333.4307, 625.4376
333.9128, 626.0403
334.3950, 626.3254
334.8771, 626.1068
335.3592, 625.9266
335.8413, 626.0125
336.3234, 626.4220
336.8055, 626.4401
337.2877, 625.8366
337.7698, 625.1551
338.2519, 625.0710
338.7340, 625.7812
339.2161, 626.3058
339.6982, 626.3454
340.1803, 626.0135
340.6624, 626.0346
341.1446, 626.4818
341.6267, 627.0519
342.1088, 627.5507
342.5909, 627.9739
343.0730, 628.3427
343.5551, 628.6751
344.0373, 628.9277
344.5194, 629.0617
345.0015, 629.0866
345.4836, 628.7712
345.9657, 627.5314
346.4478, 625.6727
346.9300, 625.0145
347.4121, 625.8298
347.8942, 627.2321
348.3763, 628.1916
348.8584, 628.7380
349.3405, 629.0521
349.8227, 628.9473
350.3048, 628.7340
350.7869, 629.2963
351.2690, 630.6627
351.7511, 631.8332
352.2332, 631.4152
352.7154, 630.1218
353.1975, 629.4835
353.6796, 630.0950
354.1617, 631.4448
354.6438, 633.2993
355.1259, 635.5218
355.6081, 637.4101
356.0902, 638.6250
356.5723, 639.2060
357.0544, 639.0668
357.5365, 637.8502
358.0186, 636.6934
358.5008, 636.4144
358.9829, 636.7663
359.4650, 637.2258
359.9471, 637.7336
360.4292, 638.1447
360.9113, 638.3298
361.3935, 638.2499
361.8756, 638.1891
362.3577, 638.3939
362.8398, 638.6519
363.3219, 638.7200
363.8040, 638.3186
364.2862, 637.9492
364.7683, 637.7727
365.2504, 637.7939
365.7325, 637.9091
366.2146, 638.0295
366.6967, 638.2870
367.1789, 638.7636
367.6610, 639.7912
368.1431, 640.6569
368.6252, 641.4284
369.1073, 642.0212
369.5894, 642.1630
370.0716, 641.1974
370.5537, 640.4536
371.0358, 640.4465
371.5179, 641.4661
372.0000, 642.3242
372.4821, 642.8854
372.9643, 643.3612
373.4464, 644.0746
373.9285, 645.2242
374.4106, 646.1396
374.8927, 646.5356
375.3748, 646.4413
375.8570, 646.8956
376.3391, 648.1794
376.8212, 649.4111
377.3033, 649.6603
377.7854, 648.7128
378.2675, 648.4241
378.7497, 649.2441
379.2318, 650.6805
379.7139, 651.5245
380.1960, 651.7458
380.6781, 651.7106
381.1602, 651.4249
381.6424, 650.9918
382.1245, 651.1193
382.6066, 651.9288
383.0887, 652.9656
383.5708, 653.7404
384.0529, 654.2694
384.5351, 654.6390
385.0172, 654.7090
385.4993, 654.7196
385.9814, 655.2302
386.4635, 656.2073
386.9456, 657.0652
387.4278, 657.0765
387.9099, 656.6953
388.3920, 656.6790
388.8741, 657.3384
389.3562, 658.1957
389.8383, 658.8778
390.3205, 659.4271
390.8026, 659.9526
391.2847, 660.4889
391.7668, 661.0322
392.2489, 661.7367
392.7310, 662.7460
393.2132, 663.1867
393.6953, 661.9507
394.1774, 660.1249
394.6595, 659.0172
395.1416, 659.8752
395.6237, 660.7209
396.1059, 660.6341
396.5880, 659.6891
397.0701, 659.3134
397.5522, 660.3640
398.0343, 661.7028
398.5164, 662.6621
398.9986, 663.0784
399.4807, 663.2586
399.9628, 663.0182
400.4449, 662.5687
400.9270, 662.4085
401.4091, 662.7969
401.8913, 663.1414
402.3734, 663.1883
402.8555, 662.8215
403.3376, 662.8323
403.8197, 663.3520
404.3018, 664.0880
404.7840, 664.7764
405.2661, 665.4695
405.7482, 665.8798
406.2303, 665.8262
406.7124, 665.4657
407.1945, 665.5018
407.6767, 665.9772
408.1588, 666.5941
408.6409, 667.1808
409.1230, 667.7308
409.6051, 668.2330
410.0872, 668.6560
410.5694, 669.1224
411.0515, 669.9656
411.5336, 671.1003
412.0157, 671.9537
412.4978, 672.0926
412.9799, 671.8433
413.4621, 671.8617
413.9442, 672.1500
414.4263, 672.4969
414.9084, 672.8954
415.3905, 673.2130
415.8727, 673.1635
416.3548, 672.3698
416.8369, 671.7126
417.3190, 672.3773
417.8011, 673.8232
418.2832, 674.6176
418.7654, 673.1229
419.2475, 671.3491
419.7296, 670.7524
420.2117, 671.6228
420.6938, 672.7102
421.1759, 673.9395
421.6581, 674.9503
422.1402, 675.3741
422.6223, 674.2074
423.1044, 673.3909
423.5865, 673.5130
424.0686, 674.4725
424.5508, 675.4548
425.0329, 676.7101
425.5150, 677.7074
425.9971, 678.1319
426.4792, 677.3644
426.9613, 677.3575
427.4435, 678.5655
427.9256, 680.2960
428.4077, 681.4418
428.8898, 681.8333
429.3719, 682.0391
429.8540, 682.1305
430.3362, 682.1298
430.8183, 682.5061
431.3004, 683.4619
431.7825, 684.2067
432.2646, 683.7465
432.7467, 682.0758
433.2289, 681.3016
433.7110, 681.8182
434.1931, 683.1736
434.6752, 684.9280
435.1573, 686.9954
435.6394, 688.4725
436.1216, 688.3641
436.6036, 687.4188
437.0858, 687.2809
437.5679, 687.9841
438.0500, 689.1526
438.5321, 691.0414
439.0142, 693.0656
439.4963, 694.1636
439.9785, 693.5261
440.4606, 692.5646
440.9427, 692.2514
441.4248, 692.5251
441.9069, 693.2044
442.3890, 694.7545
442.8712, 696.3033
443.3533, 697.1640
443.8354, 697.0821
444.3175, 697.2498
444.7996, 698.1968
445.2817, 699.5289
445.7639, 700.8397
446.2460, 701.9792
446.7281, 703.1674
447.2102, 704.6258
447.6923, 706.2449
448.1744, 707.2303
448.6566, 706.7485
449.1387, 706.4843
449.6208, 707.2375
450.1029, 709.4044
450.5850, 711.4131
451.0671, 713.2866
451.5493, 714.9505
452.0314, 716.2994
452.5135, 717.3233
452.9956, 718.0253
453.4777, 718.2896
453.9598, 718.2522
454.4420, 718.5166
454.9241, 719.1046
455.4062, 719.8047
455.8883, 720.3920
456.3704, 720.9395
456.8525, 721.8990
457.3347, 723.4344
457.8168, 724.8873
458.2989, 725.1891
458.7810, 724.6830
459.2631, 724.3673
459.7452, 724.6581
460.2274, 725.3790
460.7095, 726.5168
461.1916, 728.0182
461.6737, 729.3495
462.1558, 730.1422
462.6379, 730.6547
463.1201, 731.0543
463.6022, 731.1901
464.0843, 731.6576
464.5664, 732.9568
465.0485, 734.6833
465.5306, 736.1949
466.0128, 737.2879
466.4949, 738.1901
466.9770, 738.8795
467.4591, 739.3497
467.9412, 739.9266
468.4233, 740.5785
468.9055, 741.3863
469.3876, 742.4256
469.8697, 743.8316
470.3518, 745.1977
470.8339, 746.5307
471.3160, 747.8406
471.7982, 749.0374
472.2803, 749.9661
472.7624, 751.4828
473.2445, 754.1852
473.7266, 757.7531
474.2087, 759.9239
474.6909, 760.5065
475.1730, 761.1992
475.6551, 763.6707
476.1372, 767.5138
476.6193, 771.0185
477.1014, 773.7975
477.5836, 776.4540
478.0657, 779.5624
478.5478, 783.1342
479.0299, 787.1390
479.5120, 791.9745
479.9941, 797.0204
480.4763, 801.3660
480.9584, 805.1478
481.4405, 809.5774
481.9226, 815.4503
482.4047, 822.1794
482.8868, 829.3157
483.3690, 836.6170
483.8511, 844.4899
484.3332, 853.1890
484.8153, 862.4746
485.2974, 872.1425
485.7795, 881.2711
486.2617, 891.6137
486.7438, 903.7206
487.2259, 917.6205
487.7080, 931.8538
488.1901, 946.4315
488.6722, 961.4857
489.1544, 977.1371
489.6365, 992.9590
490.1186, 1010.544
490.6007, 1030.250
491.0828, 1051.325
491.5649, 1073.037
492.0471, 1095.188
492.5292, 1118.162
493.0113, 1141.047
493.4934, 1165.041
493.9755, 1194.414
494.4576, 1228.777
494.9398, 1265.488
495.4219, 1301.649
495.9040, 1338.947
496.3861, 1379.017
496.8682, 1422.692
497.3503, 1468.723
497.8325, 1517.359
498.3146, 1567.709
498.7967, 1619.437
499.2788, 1673.526
499.7609, 1727.357
500.2430, 1781.881
500.7252, 1835.618
501.2073, 1883.338
501.6894, 1925.413
502.1715, 1958.953
502.6536, 1983.546
503.1357, 2000.285
503.6179, 2003.639
504.1000, 1990.883
504.5821, 1966.784
505.0642, 1935.569
505.5463, 1896.117
506.0284, 1851.741
506.5106, 1801.259
506.9927, 1746.945
507.4748, 1695.484
507.9569, 1646.410
508.4390, 1602.312
508.9211, 1564.480
509.4033, 1532.780
509.8854, 1506.205
510.3675, 1484.761
510.8496, 1468.381
511.3317, 1457.381
511.8138, 1451.393
512.2960, 1449.587
512.7781, 1451.800
513.2602, 1457.918
513.7423, 1467.990
514.2244, 1481.875
514.7065, 1499.223
515.1887, 1522.106
515.6708, 1546.733
516.1529, 1570.419
516.6350, 1593.196
517.1171, 1616.589
517.5992, 1642.129
518.0814, 1667.551
518.5635, 1691.541
519.0456, 1716.165
519.5277, 1735.686
520.0098, 1749.986
520.4919, 1759.033
520.9741, 1762.875
521.4562, 1762.706
521.9383, 1754.861
522.4204, 1738.136
522.9025, 1712.976
523.3846, 1681.586
523.8668, 1643.607
524.3489, 1601.586
524.8310, 1555.574
525.3131, 1505.856
525.7952, 1456.691
526.2773, 1407.912
526.7595, 1360.070
527.2416, 1313.843
527.7237, 1269.600
528.2058, 1227.436
528.6879, 1187.778
529.1700, 1150.530
529.6522, 1115.478
530.1343, 1083.039
530.6164, 1053.294
531.0985, 1027.280
531.5806, 1003.559
532.0627, 981.5441
532.5449, 961.2474
533.0270, 942.8171
533.5091, 927.0863
533.9912, 912.8864
534.4733, 899.6256
534.9554, 886.7572
535.4376, 875.2373
535.9197, 865.4258
536.4018, 856.8295
536.8839, 848.9796
537.3660, 841.9924
537.8481, 835.2219
538.3303, 828.3477
538.8124, 821.5037
539.2945, 815.2280
539.7766, 809.5188
540.2587, 804.4027
540.7408, 800.0112
541.2230, 796.2274
541.7051, 792.8196
542.1872, 789.7991
542.6693, 786.9972
543.1514, 784.2214
543.6335, 781.5419
544.1157, 778.9918
544.5978, 776.5089
545.0799, 774.2811
545.5620, 772.4622
546.0441, 771.0219
546.5262, 769.8831
547.0084, 769.2003
547.4905, 768.6453
547.9726, 768.0814
548.4547, 767.4975
548.9368, 766.8980
549.4189, 765.8642
549.9011, 765.1391
550.3832, 765.2099
550.8653, 766.5490
551.3474, 767.5936
551.8295, 768.3894
552.3116, 768.7804
552.7938, 768.2318
553.2759, 766.5693
553.7580, 765.7139
554.2401, 766.4977
554.7222, 768.1387
555.2043, 768.4767
555.6865, 767.6395
556.1686, 767.0394
556.6507, 767.6624
557.1328, 769.0328
557.6149, 770.5828
558.0970, 772.2903
558.5792, 773.8562
559.0613, 775.0772
559.5434, 776.0444
560.0255, 776.8060
560.5076, 777.1500
560.9897, 777.6981
561.4719, 778.4814
561.9540, 779.6343
562.4361, 781.3621
562.9182, 784.0557
563.4003, 786.9365
563.8824, 790.0472
564.3646, 793.2762
564.8467, 796.0175
565.3288, 798.0897
565.8109, 800.0247
566.2930, 802.2308
566.7751, 804.7219
567.2573, 806.3989
567.7394, 807.1146
568.2215, 807.7206
568.7036, 809.0703
569.1857, 811.0553
569.6678, 813.3507
570.1500, 815.8955
570.6321, 818.6682
571.1142, 821.7847
571.5963, 825.0878
572.0784, 828.2068
572.5605, 830.5707
573.0427, 833.0994
573.5248, 836.5178
574.0069, 840.6932
574.4890, 844.8792
574.9711, 848.6575
575.4532, 852.4735
575.9354, 856.4670
576.4175, 860.5788
576.8996, 865.1057
577.3817, 870.1026
577.8638, 875.4057
578.3459, 880.9035
578.8281, 886.4175
579.3102, 892.5098
579.7923, 899.2054
580.2744, 906.5184
580.7565, 914.5207
581.2386, 923.1700
581.7208, 931.7642
582.2029, 939.9263
582.6850, 948.0281
583.1671, 956.9634
583.6492, 966.6730
584.1313, 976.7616
584.6134, 987.0654
585.0955, 997.7123
585.5776, 1008.786
586.0598, 1020.326
