##NAMES=Whewellite
##RRUFFID=R050526
##IDEAL CHEMISTRY=Ca(C_2_)^6+^O_4_&#183;H_2_O
##LOCALITY=Dresden, Saxony, Germany
##OWNER=RRUFF
##SOURCE=University of Arizona Mineral Museum
##DESCRIPTION=Coating of colorless fragments
##STATUS=The identification of this mineral has been confirmed by X-ray diffraction and chemical analysis
##URL=rruff.info/R050526
##MEASURED CHEMISTRY=Ca_1.00_C_2.00_O_4_Â·H_2_O ; C not measured but estimated by difference.
92.37695, 261.8499
92.85907, 261.1931
93.34119, 261.6012
93.82330, 260.8404
94.30542, 258.7924
94.78754, 255.9668
95.26965, 252.8480
95.75177, 249.5433
96.23389, 246.1983
96.71600, 242.8161
97.19812, 239.5860
97.68024, 236.6053
98.16235, 233.7271
98.64447, 230.6575
99.12659, 227.1618
99.60870, 223.6014
100.0908, 220.7007
100.5729, 218.3344
101.0551, 216.3304
101.5372, 214.5593
102.0193, 212.9965
102.5014, 211.7077
102.9835, 210.5994
103.4656, 209.8344
103.9478, 209.5758
104.4299, 209.6618
104.9120, 209.8074
105.3941, 209.7736
105.8762, 209.5181
106.3583, 209.4921
106.8405, 209.7221
107.3226, 210.0378
107.8047, 210.3152
108.2868, 210.5488
108.7689, 210.8569
109.2510, 211.3658
109.7332, 212.0779
110.2153, 212.9524
110.6974, 214.1440
111.1795, 215.4521
111.6616, 216.5085
112.1437, 217.0829
112.6259, 217.7112
113.1080, 218.9646
113.5901, 220.7832
114.0722, 222.8483
114.5543, 225.0713
115.0364, 227.4459
115.5185, 229.6372
116.0007, 231.3274
116.4828, 232.9980
116.9649, 235.0130
117.4470, 237.4079
117.9291, 239.9029
118.4112, 242.0697
118.8934, 243.5979
119.3755, 245.5551
119.8576, 248.1539
120.3397, 251.1048
120.8218, 254.2363
121.3039, 257.4745
121.7861, 260.7898
122.2682, 264.1312
122.7503, 267.3572
123.2324, 270.7624
123.7145, 274.5457
124.1966, 278.4967
124.6788, 282.2087
125.1609, 285.4254
125.6430, 288.2753
126.1251, 291.9044
126.6072, 296.7392
127.0893, 301.7214
127.5715, 306.2917
128.0536, 310.5632
128.5357, 315.1205
129.0178, 320.5236
129.4999, 326.6607
129.9821, 332.5683
130.4642, 338.1964
130.9463, 343.6367
131.4284, 349.1705
131.9105, 354.9441
132.3926, 360.1603
132.8748, 364.0287
133.3569, 366.9565
133.8390, 369.4031
134.3211, 371.7365
134.8032, 373.7693
135.2853, 374.9018
135.7674, 375.1183
136.2496, 374.2675
136.7317, 372.2383
137.2138, 369.2255
137.6959, 365.7133
138.1780, 361.9979
138.6601, 358.0714
139.1423, 354.0367
139.6244, 350.2010
140.1065, 345.9895
140.5886, 340.8896
141.0707, 335.0576
141.5528, 329.1083
142.0350, 323.8108
142.5171, 319.5134
142.9992, 314.9706
143.4813, 309.9448
143.9634, 304.9006
144.4455, 300.1204
144.9277, 295.6922
145.4098, 291.4253
145.8919, 287.0133
146.3740, 282.3369
146.8561, 277.7230
147.3382, 273.2337
147.8204, 268.7814
148.3025, 264.1691
148.7846, 259.2685
149.2667, 254.3788
149.7488, 250.1239
150.2309, 246.5003
150.7131, 243.1284
151.1952, 239.9759
151.6773, 236.9858
152.1594, 234.0124
152.6415, 230.9249
153.1236, 227.9058
153.6058, 225.2062
154.0879, 222.9208
154.5700, 220.7020
155.0521, 218.1975
155.5342, 215.3931
156.0163, 212.8150
156.4985, 210.7970
156.9806, 209.0645
157.4627, 207.4448
157.9448, 205.9077
158.4269, 204.4337
158.9090, 203.0554
159.3912, 201.9503
159.8733, 200.4695
160.3554, 198.0958
160.8375, 195.4949
161.3196, 193.2215
161.8017, 191.5276
162.2839, 190.2882
162.7660, 189.1669
163.2481, 188.3540
163.7302, 187.3950
164.2123, 185.9273
164.6944, 184.3620
165.1766, 183.2634
165.6587, 182.9721
166.1408, 183.3348
166.6229, 183.3255
167.1050, 182.5291
167.5871, 181.8160
168.0693, 181.2344
168.5514, 180.8656
169.0335, 180.8697
169.5156, 181.3960
169.9977, 182.4044
170.4798, 183.1541
170.9620, 183.2771
171.4441, 183.5432
171.9262, 184.3085
172.4083, 185.5341
172.8904, 187.0108
173.3725, 188.6678
173.8547, 190.4578
174.3368, 192.0489
174.8189, 193.1230
175.3010, 194.2269
175.7831, 195.8794
176.2652, 198.1165
176.7474, 200.4264
177.2295, 202.4914
177.7116, 204.3402
178.1937, 205.9658
178.6758, 207.3862
179.1579, 208.5784
179.6401, 209.4726
180.1222, 209.9895
180.6043, 210.4219
181.0864, 210.7685
181.5685, 211.1671
182.0506, 211.8857
182.5328, 213.1374
183.0149, 214.7851
183.4970, 216.3900
183.9791, 217.7673
184.4612, 219.4113
184.9433, 221.2938
185.4255, 223.5430
185.9076, 226.4212
186.3897, 230.1989
186.8718, 234.8068
187.3539, 239.3479
187.8360, 243.2384
188.3182, 247.7519
188.8003, 253.2934
189.2824, 259.7281
189.7645, 266.7995
190.2466, 274.3572
190.7287, 282.4632
191.2109, 290.2671
191.6930, 298.2490
192.1751, 305.5351
192.6572, 311.9921
193.1393, 317.4894
193.6214, 321.8687
194.1036, 324.9358
194.5857, 326.6468
195.0678, 327.3106
195.5499, 326.6135
196.0320, 325.4348
196.5141, 324.1264
196.9963, 322.7188
197.4784, 321.0149
197.9605, 318.6910
198.4426, 315.5687
198.9247, 313.7510
199.4068, 313.5380
199.8890, 314.2442
200.3711, 315.3797
200.8532, 316.9267
201.3353, 319.2784
201.8174, 323.0443
202.2995, 328.3393
202.7817, 333.1605
203.2638, 337.4072
203.7459, 341.1735
204.2280, 344.4220
204.7101, 347.1434
205.1922, 349.7285
205.6744, 352.5331
206.1565, 355.5249
206.6386, 358.5114
207.1207, 361.2584
207.6028, 364.0582
208.0849, 367.4141
208.5671, 371.5163
209.0492, 375.6533
209.5313, 378.9167
210.0134, 381.7570
210.4955, 385.2145
210.9776, 389.6410
211.4598, 394.9581
211.9419, 401.0009
212.4240, 407.6859
212.9061, 415.2917
213.3882, 423.5147
213.8703, 432.6363
214.3525, 443.3648
214.8346, 456.0099
215.3167, 470.5363
215.7988, 486.5705
216.2809, 504.0724
216.7630, 523.5085
217.2451, 545.1775
217.7273, 568.5340
218.2094, 592.6414
218.6915, 616.6478
219.1736, 640.9214
219.6557, 667.5772
220.1378, 698.0511
220.6200, 729.2773
221.1021, 764.0751
221.5842, 798.4723
222.0663, 827.3234
222.5484, 847.9868
223.0305, 859.9304
223.5127, 857.8468
223.9948, 835.3327
224.4769, 803.5413
224.9590, 759.4423
225.4411, 708.0479
225.9232, 656.4179
226.4054, 608.4808
226.8875, 564.6594
227.3696, 526.9001
227.8517, 496.4621
228.3338, 471.3761
228.8159, 452.5783
229.2981, 438.9108
229.7802, 428.9156
230.2623, 421.6932
230.7444, 417.1568
231.2265, 414.6111
231.7086, 415.2072
232.1908, 416.3383
232.6729, 417.1716
233.1550, 418.0799
233.6371, 419.9177
234.1192, 423.2615
234.6013, 427.9273
235.0835, 432.5946
235.5656, 437.0671
236.0477, 441.7766
236.5298, 446.7044
237.0119, 451.9524
237.4940, 457.8679
237.9762, 464.7446
238.4583, 472.3271
238.9404, 479.4348
239.4225, 485.5092
239.9046, 491.7846
240.3867, 498.4793
240.8689, 505.6537
241.3510, 513.2798
241.8331, 521.1282
242.3152, 529.7493
242.7973, 540.7082
243.2794, 554.3008
243.7616, 569.1788
244.2437, 584.5082
244.7258, 600.5563
245.2079, 618.4169
245.6900, 639.1924
246.1721, 661.2479
246.6543, 681.8725
247.1364, 701.7095
247.6185, 718.7481
248.1006, 733.0844
248.5827, 744.0390
249.0648, 749.5536
249.5470, 749.3604
250.0291, 742.1307
250.5112, 727.1463
250.9933, 704.1469
251.4754, 676.5831
251.9576, 644.4206
252.4397, 608.6800
252.9218, 572.6371
253.4039, 536.3504
253.8860, 501.3864
254.3681, 468.9485
254.8503, 438.9216
255.3324, 411.5150
255.8145, 387.1264
256.2966, 365.6221
256.7787, 346.4157
257.2608, 329.8230
257.7430, 315.2790
258.2251, 302.0689
258.7072, 290.1676
259.1893, 279.3840
259.6714, 269.6513
260.1535, 260.9691
260.6357, 253.2464
261.1178, 246.6563
261.5999, 240.9612
262.0820, 236.0165
262.5641, 231.6980
263.0462, 227.6322
263.5284, 223.4738
264.0105, 219.3310
264.4926, 215.7587
264.9747, 212.9259
265.4568, 210.5174
265.9389, 208.4268
266.4211, 206.5754
266.9032, 204.8095
267.3853, 202.9596
267.8674, 201.1266
268.3495, 199.8072
268.8316, 199.4622
269.3138, 198.9310
269.7959, 197.5920
270.2780, 195.8555
270.7601, 194.3293
271.2422, 193.3477
271.7243, 192.7843
272.2065, 192.2305
272.6886, 191.6091
273.1707, 191.1505
273.6528, 190.9308
274.1349, 190.8710
274.6170, 190.8910
275.0992, 190.9573
275.5813, 191.0713
276.0634, 191.2473
276.5455, 191.5488
277.0276, 191.7929
277.5097, 191.8794
277.9919, 191.9373
278.4740, 192.0794
278.9561, 192.3471
279.4382, 192.7125
279.9203, 193.1521
280.4024, 193.7634
280.8846, 194.2283
281.3667, 194.5958
281.8488, 194.7847
282.3309, 194.7010
282.8130, 194.3333
283.2951, 193.7838
283.7773, 193.1795
284.2594, 192.4731
284.7415, 191.8333
285.2236, 191.3616
285.7057, 190.8735
286.1878, 190.3018
286.6700, 189.6164
287.1521, 188.7747
287.6342, 187.7074
288.1163, 186.3792
288.5984, 184.9758
289.0805, 183.5347
289.5627, 181.9990
290.0448, 180.2126
290.5269, 178.2669
291.0090, 176.4663
291.4911, 175.1266
291.9732, 174.3050
292.4554, 173.2432
292.9375, 171.7416
293.4196, 170.1995
293.9017, 168.6704
294.3838, 167.2006
294.8659, 165.8450
295.3481, 164.6440
295.8302, 163.5915
296.3123, 162.6701
296.7944, 162.0433
297.2765, 161.3768
297.7586, 160.6616
298.2408, 159.8570
298.7229, 158.8758
299.2050, 157.6607
299.6871, 156.3115
300.1692, 155.2201
300.6513, 154.5790
301.1335, 154.0000
301.6156, 153.6616
302.0977, 153.2896
302.5798, 152.4740
303.0619, 151.0700
303.5440, 149.4581
304.0262, 148.4620
304.5083, 148.9174
304.9904, 148.7368
305.4725, 147.3298
305.9546, 145.6765
306.4367, 144.5828
306.9189, 144.2287
307.4010, 144.2163
307.8831, 144.0035
308.3652, 143.5401
308.8473, 142.9816
309.3294, 142.0852
309.8116, 141.2955
310.2937, 141.0085
310.7758, 141.1594
311.2579, 141.3103
311.7400, 141.0074
312.2221, 140.1604
312.7043, 139.4784
313.1864, 138.9278
313.6685, 138.5413
314.1506, 138.5314
314.6327, 138.7127
315.1148, 138.6016
315.5970, 137.7735
316.0791, 136.3311
316.5612, 135.7047
317.0433, 136.9158
317.5254, 137.8050
318.0075, 137.8393
318.4897, 137.2832
318.9718, 136.4928
319.4539, 135.6361
319.9360, 134.8098
320.4181, 134.3293
320.9002, 134.7769
321.3824, 134.8442
321.8645, 134.1607
322.3466, 133.2206
322.8287, 132.4822
323.3108, 132.1077
323.7929, 131.9772
324.2751, 131.9076
324.7572, 132.0018
325.2393, 131.9481
325.7214, 131.6790
326.2035, 131.3341
326.6856, 130.9682
327.1678, 130.6103
327.6499, 130.3010
328.1320, 130.0831
328.6141, 129.9629
329.0962, 129.9112
329.5783, 130.0714
330.0605, 130.1558
330.5426, 130.0262
331.0247, 129.7129
331.5068, 129.3194
331.9889, 128.9187
332.4710, 128.5103
332.9532, 128.0858
333.4353, 127.4466
333.9174, 127.0092
334.3995, 127.0049
334.8816, 127.2180
335.3637, 127.3305
335.8459, 127.1779
336.3280, 126.8711
336.8101, 126.7504
337.2922, 127.0065
337.7743, 127.1714
338.2564, 127.1771
338.7386, 127.1037
339.2206, 127.0456
339.7028, 127.0204
340.1849, 126.9417
340.6670, 126.6392
341.1491, 125.9258
341.6312, 125.4644
342.1133, 125.4346
342.5955, 125.4740
343.0776, 125.3316
343.5597, 125.0410
344.0418, 124.8501
344.5239, 125.0427
345.0060, 125.6567
345.4882, 125.9902
345.9703, 125.8065
346.4524, 125.5500
346.9345, 125.2724
347.4166, 125.0116
347.8987, 124.8151
348.3809, 124.7193
348.8630, 124.6987
349.3451, 124.6379
349.8272, 124.4058
350.3093, 124.3495
350.7914, 124.7350
351.2736, 125.2095
351.7557, 125.3939
352.2378, 125.1589
352.7199, 124.7118
353.2020, 124.3932
353.6841, 124.2462
354.1663, 124.0972
354.6484, 123.9359
355.1305, 123.7601
355.6126, 123.5330
356.0947, 123.2718
356.5768, 123.0669
357.0590, 123.0058
357.5411, 123.0915
358.0232, 123.2698
358.5053, 123.7646
358.9874, 124.0928
359.4695, 124.0037
359.9517, 123.6088
360.4338, 123.1219
360.9159, 122.5950
361.3980, 122.1125
361.8801, 121.9703
362.3622, 122.3357
362.8444, 122.6783
363.3265, 122.8593
363.8086, 122.9031
364.2907, 122.7851
364.7728, 122.4716
365.2549, 122.1407
365.7371, 122.0356
366.2192, 122.1778
366.7013, 122.3492
367.1834, 122.5883
367.6655, 122.7644
368.1476, 122.7384
368.6298, 122.5194
369.1119, 122.3102
369.5940, 122.3485
370.0761, 122.5489
370.5582, 122.4436
371.0403, 121.7921
371.5225, 121.2058
372.0046, 121.2267
372.4867, 121.6249
372.9688, 121.8689
373.4509, 121.6141
373.9330, 121.1824
374.4152, 121.0301
374.8973, 121.1684
375.3794, 121.5105
375.8615, 122.2405
376.3436, 123.0418
376.8257, 123.4139
377.3079, 123.1874
377.7900, 122.8400
378.2721, 122.6667
378.7542, 122.6514
379.2363, 122.7405
379.7184, 122.9555
380.2006, 123.2112
380.6827, 123.4341
381.1648, 123.6307
381.6469, 123.6972
382.1290, 123.4891
382.6111, 123.1763
383.0933, 123.0254
383.5754, 123.0740
384.0575, 123.1122
384.5396, 122.9150
385.0217, 122.5393
385.5038, 122.4001
385.9860, 122.7308
386.4681, 123.1021
386.9502, 123.2692
387.4323, 123.2595
387.9144, 123.1656
388.3965, 123.0082
388.8787, 122.8299
389.3608, 122.7402
389.8429, 122.7078
390.3250, 122.7985
390.8071, 123.1735
391.2892, 123.6150
391.7714, 123.8565
392.2535, 123.8393
392.7356, 123.6754
393.2177, 123.4767
393.6998, 123.2224
394.1819, 123.0487
394.6641, 122.9268
395.1462, 122.9010
395.6283, 123.1069
396.1104, 123.4475
396.5925, 123.6411
397.0746, 123.4890
397.5568, 123.0632
398.0389, 122.7607
398.5210, 122.5231
399.0031, 122.4926
399.4852, 122.8742
399.9673, 123.3863
400.4495, 123.7376
400.9316, 123.8330
401.4137, 123.7618
401.8958, 123.6550
402.3779, 123.5170
402.8600, 123.3271
403.3422, 122.9716
403.8243, 122.6700
404.3064, 122.5728
404.7885, 122.6363
405.2706, 122.7028
405.7527, 122.6459
406.2349, 122.4862
406.7170, 122.3969
407.1991, 122.4447
407.6812, 122.4690
408.1633, 122.3848
408.6454, 122.2798
409.1276, 122.2682
409.6097, 122.3936
410.0918, 122.5609
410.5739, 122.6435
411.0560, 122.6427
411.5381, 122.5512
412.0203, 122.3398
412.5024, 122.0534
412.9845, 121.6283
413.4666, 121.1195
413.9487, 120.7483
414.4308, 120.6863
414.9130, 120.8885
415.3951, 121.2536
415.8772, 121.9289
416.3593, 122.4020
416.8414, 122.2107
417.3235, 121.6979
417.8057, 121.2811
418.2878, 121.0121
418.7699, 120.9649
419.2520, 121.3433
419.7341, 122.0921
420.2162, 122.6681
420.6984, 122.8602
421.1805, 122.8684
421.6626, 122.9531
422.1447, 123.1164
422.6268, 123.2309
423.1089, 123.2533
423.5911, 123.1996
424.0732, 123.0171
424.5553, 122.6982
425.0374, 122.5340
425.5195, 122.8367
426.0016, 123.5100
426.4838, 123.8531
426.9659, 123.5187
427.4480, 123.2311
427.9301, 123.4368
428.4122, 123.9195
428.8943, 124.2070
429.3765, 124.1134
429.8586, 123.8122
430.3407, 123.5942
430.8228, 123.4722
431.3049, 123.4285
431.7870, 123.5279
432.2692, 123.6588
432.7513, 123.7435
433.2334, 123.7790
433.7155, 123.8061
434.1976, 123.8628
434.6797, 123.9425
435.1619, 123.9476
435.6440, 123.6530
436.1261, 123.5458
436.6082, 123.9053
437.0903, 124.4097
437.5724, 124.6172
438.0546, 124.3899
438.5367, 124.0693
439.0188, 124.2884
439.5009, 125.3706
439.9830, 125.9401
440.4651, 125.3360
440.9473, 124.7741
441.4294, 124.8567
441.9115, 125.4657
442.3936, 126.1602
442.8757, 126.6845
443.3578, 127.0547
443.8400, 127.2919
444.3221, 127.3554
444.8042, 127.3904
445.2863, 127.3657
445.7684, 127.3817
446.2505, 127.5444
446.7327, 127.8780
447.2148, 128.3026
447.6969, 128.8514
448.1790, 129.4669
448.6611, 129.7762
449.1432, 129.5714
449.6254, 129.3470
450.1075, 129.6335
450.5896, 130.2663
451.0717, 130.7439
451.5538, 130.8090
452.0359, 130.7505
452.5181, 130.8474
453.0002, 131.0800
453.4823, 131.2972
453.9644, 131.4214
454.4465, 131.5001
454.9286, 131.6293
455.4108, 131.7776
455.8929, 132.0382
456.3750, 132.6408
456.8571, 133.2538
457.3392, 133.4249
457.8214, 133.1302
458.3035, 132.8130
458.7856, 132.8659
459.2677, 133.2935
459.7498, 133.7292
460.2319, 134.2456
460.7141, 134.6873
461.1962, 135.0201
461.6783, 135.2491
462.1604, 135.3396
462.6425, 135.2860
463.1246, 135.2094
463.6068, 135.3409
464.0889, 135.8183
464.5710, 136.1352
465.0531, 136.3075
465.5352, 136.3174
466.0173, 135.9639
466.4995, 135.4288
466.9816, 135.1492
467.4637, 135.4450
467.9458, 136.1586
468.4279, 136.8227
468.9100, 137.4854
469.3922, 137.9772
469.8743, 138.1375
470.3564, 138.1768
470.8385, 138.2004
471.3206, 138.2301
471.8027, 138.3953
472.2849, 138.8248
472.7670, 139.4767
473.2491, 140.1901
473.7312, 140.9503
474.2133, 141.7730
474.6954, 142.7377
475.1776, 143.7727
475.6597, 144.6915
476.1418, 145.3691
476.6239, 146.0348
477.1060, 146.7448
477.5881, 147.5570
478.0703, 148.7016
478.5524, 150.2804
479.0345, 152.0879
479.5166, 153.8011
479.9987, 155.3618
480.4808, 157.1589
480.9630, 159.2813
481.4451, 161.5853
481.9272, 163.8853
482.4093, 166.2590
482.8914, 168.9655
483.3735, 172.1834
483.8557, 175.8283
484.3378, 179.6187
484.8199, 183.5585
485.3020, 187.6506
485.7841, 191.8433
486.2662, 196.2285
486.7484, 201.0214
487.2305, 206.1590
487.7126, 211.1929
488.1947, 215.6638
488.6768, 219.6405
489.1589, 224.2350
489.6411, 229.8037
490.1232, 235.4696
490.6053, 240.5599
491.0874, 245.7695
491.5695, 251.9451
492.0516, 259.3434
492.5338, 267.3136
493.0159, 275.0836
493.4980, 282.7544
493.9801, 290.8502
494.4622, 299.1574
494.9443, 308.4478
495.4265, 319.4256
495.9086, 331.8487
496.3907, 345.2067
496.8728, 359.7474
497.3549, 374.8864
497.8370, 389.9718
498.3192, 405.1430
498.8013, 421.1041
499.2834, 438.2327
499.7655, 455.8586
500.2476, 473.3623
500.7297, 491.4688
501.2119, 506.6952
501.6940, 518.8502
502.1761, 528.0253
502.6582, 534.5948
503.1403, 538.3217
503.6224, 538.5374
504.1045, 534.7678
504.5866, 527.2761
505.0688, 516.9422
505.5509, 502.4335
506.0330, 486.8858
506.5151, 469.2526
506.9972, 451.6132
507.4793, 435.0404
507.9615, 419.8756
508.4436, 406.3707
508.9257, 394.8097
509.4078, 385.0520
509.8899, 376.6164
510.3720, 369.2865
510.8542, 363.7438
511.3363, 360.5453
511.8184, 359.0506
512.3005, 358.7880
512.7827, 359.6802
513.2648, 361.7437
513.7469, 365.2246
514.2290, 369.8822
514.7111, 375.0134
515.1932, 380.4844
515.6754, 386.7281
516.1575, 394.3056
516.6396, 403.0166
517.1217, 411.6363
517.6038, 420.4105
518.0859, 428.7257
518.5681, 436.6919
519.0502, 443.9205
519.5323, 449.8963
520.0144, 454.4863
520.4965, 457.4333
520.9786, 458.5296
521.4608, 457.9117
521.9429, 454.3568
522.4250, 447.6630
522.9071, 438.7223
523.3892, 427.4317
523.8713, 414.2426
524.3535, 399.4698
524.8356, 383.3594
525.3177, 366.4966
525.7998, 350.0013
526.2819, 333.8940
526.7640, 318.1489
527.2462, 302.5357
527.7283, 287.6869
528.2104, 273.7780
528.6925, 260.8634
529.1746, 248.9897
529.6567, 238.2853
530.1389, 228.4659
530.6210, 219.1737
531.1031, 210.4317
531.5852, 202.7300
532.0673, 196.4727
532.5494, 190.9208
533.0316, 185.0687
533.5137, 178.9706
533.9958, 173.4001
534.4779, 168.5667
534.9600, 164.2850
535.4421, 160.3884
535.9243, 156.8925
536.4064, 153.8526
536.8885, 151.3447
537.3706, 149.1470
537.8527, 146.8055
538.3348, 143.9757
538.8170, 141.6856
539.2991, 140.2588
539.7812, 139.0452
540.2633, 137.6676
540.7454, 136.1692
541.2275, 134.7445
541.7097, 133.5014
542.1918, 132.4411
542.6739, 131.6046
543.1560, 131.0748
543.6381, 130.4915
544.1202, 129.7253
544.6024, 128.9364
545.0845, 128.1598
545.5666, 127.4286
546.0487, 126.8889
546.5308, 126.7510
547.0129, 126.7778
547.4951, 126.5975
547.9772, 126.2140
548.4593, 125.7568
548.9414, 125.2097
549.4235, 124.7029
549.9056, 124.4827
550.3878, 124.5388
550.8699, 124.7880
551.3520, 125.5535
551.8341, 126.2477
552.3162, 126.1887
552.7983, 125.5679
553.2805, 125.1724
553.7626, 125.4670
554.2447, 126.2635
554.7268, 127.0331
555.2089, 127.8554
555.6910, 128.4951
556.1732, 128.8963
556.6553, 129.1837
557.1374, 129.3086
557.6195, 129.3780
558.1016, 129.6795
558.5837, 130.4693
559.0659, 131.4983
559.5480, 132.0595
560.0301, 131.9993
560.5122, 132.4020
560.9943, 133.9044
561.4764, 135.6742
561.9586, 136.8650
562.4407, 137.5067
562.9228, 138.1615
563.4049, 139.1037
563.8870, 140.1143
564.3691, 140.8615
564.8513, 141.4198
565.3334, 142.2421
565.8155, 143.5755
566.2976, 145.1517
566.7797, 146.4522
567.2618, 147.2247
567.7440, 148.3152
568.2261, 149.8784
568.7082, 151.6048
569.1903, 153.3959
569.6724, 155.1986
570.1545, 156.9750
570.6367, 158.6948
571.1188, 160.3741
571.6009, 162.0100
572.0830, 163.5891
572.5651, 165.2220
573.0472, 166.8282
573.5294, 168.5893
574.0115, 170.4807
574.4936, 172.6021
574.9757, 175.2282
575.4578, 178.6945
575.9399, 182.4103
576.4221, 185.6330
576.9042, 188.4600
577.3863, 191.5019
577.8684, 194.9411
578.3505, 198.5923
578.8326, 202.2307
579.3148, 205.8572
579.7969, 209.5831
580.2790, 213.1946
580.7611, 217.1208
581.2432, 221.7393
581.7253, 226.7672
582.2075, 231.8136
582.6896, 236.7035
583.1717, 241.5897
583.6538, 246.6050
584.1359, 251.7097
584.6180, 257.2100
585.1002, 263.2855
585.5823, 269.6466
586.0643, 276.4889
586.5464, 283.4384
587.0286, 289.9291
587.5107, 295.7968
587.9928, 301.5955
