##NAMES=Whewellite
##RRUFFID=R050240
##IDEAL CHEMISTRY=Ca(C_2_)^6+^O_4_&#183;H_2_O
##LOCALITY=Huron River, Milan, Ohio, USA
##OWNER=RRUFF
##SOURCE=Marcus Origlieri
##DESCRIPTION=White fragment
##STATUS=The identification of this mineral has been confirmed by X-ray diffraction and chemical analysis
##URL=rruff.info/R050240
##MEASURED CHEMISTRY=Ca_1.00_C_2_O_4_Â·H_2_O
142.6650, 76207.38
143.1472, 76413.00
143.6293, 76573.95
144.1114, 76697.14
144.5935, 76801.78
145.0756, 76883.20
145.5577, 76949.16
146.0399, 77024.55
146.5220, 77103.45
147.0041, 77207.41
147.4862, 77363.24
147.9683, 77567.23
148.4504, 77763.99
148.9326, 77890.66
149.4147, 77938.10
149.8968, 78019.87
150.3789, 78169.15
150.8610, 78353.97
151.3431, 78577.34
151.8252, 78837.55
152.3074, 79098.20
152.7895, 79293.52
153.2716, 79378.62
153.7537, 79496.09
154.2358, 79671.28
154.7179, 79876.99
155.2001, 80103.05
155.6822, 80346.66
156.1643, 80587.62
156.6464, 80763.68
157.1285, 80799.09
157.6106, 80852.03
158.0928, 80951.36
158.5749, 81075.19
159.0570, 81195.41
159.5391, 81296.30
160.0212, 81377.88
160.5033, 81432.53
160.9855, 81456.41
161.4676, 81462.64
161.9497, 81454.08
162.4318, 81431.01
162.9139, 81390.99
163.3960, 81328.68
163.8782, 81243.12
164.3603, 81174.20
164.8424, 81202.52
165.3245, 81185.74
165.8066, 81007.40
166.2887, 80664.37
166.7709, 80273.48
167.2530, 79929.37
167.7351, 79632.76
168.2172, 79367.66
168.6993, 79133.59
169.1814, 78929.99
169.6636, 78767.30
170.1457, 78656.84
170.6278, 78549.51
171.1099, 78374.41
171.5920, 78145.82
172.0741, 77947.11
172.5563, 77811.16
173.0384, 77729.64
173.5205, 77690.44
174.0026, 77729.28
174.4847, 77755.20
174.9668, 77668.66
175.4490, 77479.49
175.9311, 77312.70
176.4132, 77280.21
176.8953, 77377.23
177.3774, 77428.58
177.8595, 77336.49
178.3417, 77244.48
178.8238, 77241.19
179.3059, 77334.97
179.7880, 77482.46
180.2701, 77635.65
180.7522, 77788.61
181.2344, 77975.98
181.7165, 78192.68
182.1986, 78449.84
182.6807, 78803.30
183.1628, 79259.50
183.6449, 79702.09
184.1271, 79910.98
184.6092, 79720.30
185.0913, 79618.55
185.5734, 79677.52
186.0555, 79819.81
186.5376, 79997.13
187.0198, 80189.46
187.5019, 80378.08
187.9840, 80514.71
188.4661, 80519.69
188.9482, 80571.62
189.4303, 80683.20
189.9125, 80848.12
190.3946, 81069.64
190.8767, 81354.89
191.3588, 81681.09
191.8409, 81948.31
192.3230, 82057.77
192.8052, 82216.85
193.2873, 82473.01
193.7694, 82801.95
194.2515, 83184.04
194.7336, 83630.03
195.2157, 84111.22
195.6979, 84333.88
196.1800, 84245.96
196.6621, 84025.43
197.1442, 83690.23
197.6263, 83265.54
198.1084, 82811.48
198.5906, 82365.26
199.0727, 81923.92
199.5548, 81450.59
200.0369, 80898.45
200.5190, 80360.69
201.0011, 79879.22
201.4833, 79457.04
201.9654, 79092.32
202.4475, 78784.95
202.9296, 78542.18
203.4117, 78344.20
203.8938, 78238.13
204.3760, 78147.58
204.8581, 77993.70
205.3402, 77768.45
205.8223, 77547.98
206.3044, 77396.10
206.7865, 77299.84
207.2687, 77216.55
207.7508, 77157.24
208.2329, 77099.67
208.7150, 77013.73
209.1971, 76895.63
209.6792, 76757.07
210.1614, 76562.45
210.6435, 76347.13
211.1256, 76209.69
211.6077, 76258.26
212.0898, 76400.88
212.5719, 76429.88
213.0541, 76300.60
213.5362, 76125.03
214.0183, 75962.99
214.5004, 75816.15
214.9825, 75691.70
215.4646, 75597.00
215.9468, 75529.23
216.4289, 75479.76
216.9110, 75455.13
217.3931, 75441.70
217.8752, 75440.67
218.3573, 75445.36
218.8395, 75436.52
219.3216, 75396.80
219.8037, 75328.91
220.2858, 75259.55
220.7679, 75167.44
221.2500, 75100.63
221.7322, 75093.88
222.2143, 75133.45
222.6964, 75175.57
223.1785, 75179.15
223.6606, 75141.55
224.1427, 75125.11
224.6249, 75147.23
225.1070, 75176.77
225.5891, 75216.23
226.0712, 75256.21
226.5533, 75272.51
227.0354, 75225.63
227.5176, 75097.13
227.9997, 75033.09
228.4818, 75103.65
228.9639, 75180.45
229.4460, 75204.21
229.9281, 75180.95
230.4103, 75159.05
230.8924, 75198.02
231.3745, 75325.15
231.8566, 75387.70
232.3387, 75339.09
232.8208, 75270.90
233.3030, 75222.90
233.7851, 75197.45
234.2672, 75175.06
234.7493, 75132.21
235.2314, 75058.45
235.7135, 75004.44
236.1957, 74999.85
236.6778, 74988.59
237.1599, 74926.71
237.6420, 74819.83
238.1241, 74715.87
238.6062, 74673.63
239.0884, 74719.20
239.5705, 74743.01
240.0526, 74730.28
240.5347, 74711.42
241.0168, 74703.85
241.4989, 74709.34
241.9811, 74717.80
242.4632, 74713.39
242.9453, 74675.16
243.4274, 74696.52
243.9095, 74825.85
244.3916, 74968.91
244.8738, 75075.42
245.3559, 75134.60
245.8380, 75155.30
246.3201, 75141.48
246.8022, 75068.64
247.2843, 75044.94
247.7665, 75100.49
248.2486, 75178.83
248.7307, 75244.02
249.2128, 75290.09
249.6949, 75327.65
250.1770, 75370.02
250.6592, 75423.73
251.1413, 75454.47
251.6234, 75438.70
252.1055, 75417.27
252.5876, 75416.57
253.0697, 75441.20
253.5519, 75486.91
254.0340, 75551.47
254.5161, 75641.59
254.9982, 75724.87
255.4803, 75799.47
255.9624, 75868.27
256.4445, 75931.98
256.9267, 75990.95
257.4088, 76048.16
257.8909, 76107.09
258.3730, 76168.45
258.8551, 76225.21
259.3372, 76282.15
259.8194, 76331.19
260.3015, 76371.83
260.7836, 76402.60
261.2657, 76409.63
261.7478, 76378.20
262.2299, 76301.75
262.7121, 76208.10
263.1942, 76100.50
263.6763, 75974.56
264.1584, 75810.18
264.6405, 75609.09
265.1227, 75421.81
265.6048, 75295.59
266.0869, 75236.90
266.5690, 75193.54
267.0511, 75192.84
267.5332, 75188.18
268.0154, 75127.94
268.4975, 75011.60
268.9796, 74900.56
269.4617, 74850.48
269.9438, 74861.38
270.4259, 74852.53
270.9081, 74819.77
271.3902, 74767.80
271.8723, 74692.82
272.3544, 74595.76
272.8365, 74497.13
273.3186, 74405.59
273.8008, 74325.61
274.2829, 74274.46
274.7650, 74277.73
275.2471, 74291.54
275.7292, 74291.80
276.2113, 74276.68
276.6935, 74235.83
277.1756, 74151.46
277.6577, 74032.25
278.1398, 73943.91
278.6219, 73905.72
279.1040, 73882.79
279.5862, 73859.56
280.0683, 73834.18
280.5504, 73792.23
281.0325, 73712.95
281.5146, 73612.49
281.9967, 73554.02
282.4789, 73556.12
282.9610, 73580.93
283.4431, 73614.39
283.9252, 73653.93
284.4073, 73688.53
284.8894, 73721.38
285.3716, 73737.86
285.8537, 73700.82
286.3358, 73547.95
286.8179, 73421.39
287.3000, 73447.13
287.7821, 73581.91
288.2643, 73639.65
288.7464, 73502.90
289.2285, 73263.05
289.7106, 73150.91
290.1927, 73208.38
290.6748, 73302.67
291.1570, 73407.35
291.6391, 73506.01
292.1212, 73539.48
292.6033, 73469.17
293.0854, 73342.34
293.5675, 73258.11
294.0497, 73231.28
294.5318, 73198.31
295.0139, 73099.84
295.4960, 72976.88
295.9781, 72939.66
296.4602, 73047.43
296.9424, 73205.38
297.4245, 73232.34
297.9066, 73104.63
298.3887, 73001.02
298.8708, 72994.38
299.3529, 73044.73
299.8351, 73083.78
300.3172, 73092.98
300.7993, 73089.05
301.2814, 73093.72
301.7635, 73106.30
302.2456, 73122.30
302.7278, 73147.39
303.2099, 73172.38
303.6920, 73185.97
304.1741, 73186.07
304.6562, 73172.20
305.1383, 73130.45
305.6205, 73057.04
306.1026, 73027.87
306.5847, 73107.69
307.0668, 73207.35
307.5489, 73223.48
308.0310, 73143.45
308.5132, 73048.13
308.9953, 73013.78
309.4774, 73043.99
309.9595, 73058.90
310.4416, 73055.70
310.9237, 73036.48
311.4059, 72987.50
311.8880, 72913.75
312.3701, 72860.26
312.8522, 72866.64
313.3343, 72930.52
313.8164, 72976.26
314.2986, 72978.92
314.7807, 72985.63
315.2628, 73046.83
315.7449, 73144.11
316.2270, 73194.33
316.7091, 73130.98
317.1913, 72981.79
317.6734, 72911.70
318.1555, 73005.72
318.6376, 73074.84
319.1197, 73008.46
319.6018, 72861.66
320.0840, 72768.57
320.5661, 72800.66
321.0482, 72919.03
321.5303, 72996.90
322.0124, 73034.27
322.4945, 73040.89
322.9767, 73009.53
323.4588, 72951.01
323.9409, 72867.11
324.4230, 72754.34
324.9051, 72649.95
325.3872, 72633.06
325.8694, 72770.60
326.3515, 72878.21
326.8336, 72944.10
327.3157, 72972.96
327.7978, 72962.77
328.2799, 72914.30
328.7621, 72844.13
329.2442, 72771.10
329.7263, 72684.67
330.2084, 72627.91
330.6905, 72629.26
331.1726, 72638.48
331.6548, 72610.72
332.1369, 72545.97
332.6190, 72484.84
333.1011, 72471.22
333.5832, 72516.48
334.0653, 72546.31
334.5475, 72562.19
335.0296, 72564.80
335.5117, 72553.96
335.9938, 72530.23
336.4759, 72491.85
336.9580, 72434.10
337.4402, 72357.70
337.9223, 72310.75
338.4044, 72316.49
338.8865, 72325.41
339.3686, 72323.08
339.8507, 72315.39
340.3329, 72318.21
340.8150, 72342.82
341.2971, 72378.09
341.7792, 72373.83
342.2613, 72120.61
342.7434, 72275.19
343.2256, 72356.93
343.7077, 72369.77
344.1898, 72107.28
344.6719, 72200.31
345.1540, 72150.87
345.6361, 72095.59
346.1183, 72238.65
346.6004, 72016.21
347.0825, 72156.13
347.5646, 72151.41
348.0467, 72212.88
348.5288, 72131.01
349.0110, 72093.41
349.4931, 72199.20
349.9752, 72225.60
350.4573, 72127.23
350.9394, 72192.91
351.4215, 71965.46
351.9037, 71995.24
352.3858, 72136.00
352.8679, 72044.83
353.3500, 72113.14
353.8321, 72120.70
354.3142, 71852.25
354.7964, 72063.82
355.2785, 72067.80
355.7606, 71858.62
356.2427, 72053.75
356.7248, 71873.95
357.2069, 71827.98
357.6891, 71882.73
358.1712, 71832.48
358.6533, 71947.77
359.1354, 71903.58
359.6175, 71845.15
360.0996, 71848.90
360.5818, 71676.45
361.0639, 71830.88
361.5460, 71762.02
362.0281, 71804.16
362.5102, 71871.45
362.9923, 71746.11
363.4745, 71824.70
363.9566, 71587.05
364.4387, 71614.01
364.9208, 71612.48
365.4029, 71780.08
365.8850, 71543.98
366.3672, 71563.58
366.8493, 71692.07
367.3314, 71668.21
367.8135, 71708.05
368.2956, 71559.32
368.7777, 71587.73
369.2599, 71514.69
369.7420, 71508.17
370.2241, 71548.22
370.7062, 71574.09
371.1883, 71579.60
371.6704, 71568.11
372.1526, 71525.83
372.6347, 71462.82
373.1168, 71437.94
373.5989, 71503.98
374.0810, 71576.76
374.5631, 71574.65
375.0453, 71504.91
375.5274, 71445.69
376.0095, 71450.74
376.4916, 71499.03
376.9737, 71499.39
377.4558, 71414.27
377.9380, 71329.97
378.4201, 71272.31
378.9022, 71237.62
379.3843, 71226.91
379.8664, 71244.16
380.3485, 71267.19
380.8307, 71245.30
381.3128, 71118.58
381.7949, 71059.46
382.2770, 71134.13
382.7591, 71250.86
383.2412, 71332.73
383.7234, 71361.84
384.2055, 71346.54
384.6876, 71289.19
385.1697, 71168.63
385.6518, 71099.51
386.1339, 71109.50
386.6161, 71135.54
387.0982, 71165.61
387.5803, 71186.89
388.0624, 71170.78
388.5445, 70947.41
389.0266, 71107.05
389.5088, 71193.87
389.9909, 71211.77
390.4730, 70954.36
390.9551, 71052.46
391.4372, 71008.09
391.9193, 70957.88
392.4015, 71106.01
392.8836, 70888.64
393.3657, 71033.63
393.8478, 71033.98
394.3299, 71100.52
394.8120, 71023.71
395.2942, 70991.18
395.7763, 71102.05
396.2584, 71133.52
396.7405, 71040.20
397.2226, 71110.95
397.7047, 70888.58
398.1869, 70923.43
398.6690, 71069.26
399.1511, 70983.16
399.6332, 71056.53
400.1153, 71069.16
400.5974, 70805.77
401.0796, 71022.42
401.5617, 71031.47
402.0438, 70827.35
402.5259, 71027.55
403.0080, 70852.83
403.4901, 70811.92
403.9723, 70871.73
404.4544, 70826.55
404.9365, 70946.91
405.4186, 70907.79
405.9007, 70854.43
406.3828, 70863.24
406.8650, 70695.87
407.3471, 70855.36
407.8292, 70791.57
408.3113, 70838.77
408.7934, 70911.12
409.2755, 70790.86
409.7577, 70874.52
410.2398, 70641.94
410.7219, 70673.97
411.2040, 70677.50
411.6861, 70850.17
412.1682, 70619.13
412.6504, 70643.80
413.1325, 70777.36
413.6146, 70758.57
414.0967, 70803.48
414.5788, 70659.81
415.0609, 70693.29
415.5431, 70677.95
416.0252, 70831.33
416.5073, 70851.51
416.9894, 70711.05
417.4715, 70571.26
417.9536, 70736.79
418.4358, 70612.94
418.9179, 70645.20
419.4000, 70516.23
419.8821, 70526.47
420.3642, 70534.51
420.8463, 70613.91
421.3285, 70476.91
421.8106, 70620.62
422.2927, 70602.09
422.7748, 70631.35
423.2569, 70655.29
423.7390, 70534.08
424.2212, 70457.63
424.7033, 70389.60
425.1854, 70331.63
425.6675, 70293.24
426.1496, 70270.55
426.6317, 70275.96
427.1139, 70328.98
427.5960, 70403.35
428.0781, 70465.16
428.5602, 70499.58
429.0423, 70525.98
429.5244, 70586.02
430.0066, 70681.90
430.4887, 70714.35
430.9708, 70623.05
431.4529, 70484.62
431.9350, 70380.05
432.4171, 70309.37
432.8993, 70271.10
433.3814, 70280.76
433.8635, 70318.66
434.3456, 70363.06
434.8277, 70416.85
435.3098, 70427.76
435.7920, 70322.91
436.2741, 70115.57
436.7562, 69991.70
437.2383, 70003.65
437.7204, 70057.87
438.2025, 70133.84
438.6847, 70210.73
439.1668, 70224.77
439.6489, 70134.28
440.1310, 69990.49
440.6131, 69933.68
441.0952, 70064.11
441.5774, 70140.98
442.0595, 70106.27
442.5416, 70041.05
443.0237, 70023.75
443.5058, 70064.91
443.9879, 70117.44
444.4701, 70126.97
444.9522, 70085.03
445.4343, 70059.95
445.9164, 70078.38
446.3985, 70086.75
446.8806, 70058.03
447.3628, 70007.95
447.8449, 69969.16
448.3270, 69962.30
448.8091, 69969.33
449.2912, 69936.77
449.7733, 69838.20
450.2555, 69774.16
450.7376, 69804.83
451.2197, 69858.89
451.7018, 69883.67
452.1839, 69870.77
452.6660, 69849.75
453.1482, 69846.89
453.6303, 69857.08
454.1124, 69855.71
454.5945, 69838.62
455.0766, 69813.43
455.5587, 69787.16
456.0409, 69758.58
456.5230, 69721.62
457.0051, 69654.99
457.4872, 69594.52
457.9693, 69572.29
458.4514, 69585.34
458.9336, 69622.62
459.4157, 69691.29
459.8978, 69765.07
460.3799, 69764.69
460.8620, 69642.08
461.3441, 69548.83
461.8262, 69529.93
462.3083, 69542.41
462.7905, 69539.13
463.2726, 69512.51
463.7547, 69490.21
464.2368, 69506.00
464.7189, 69568.91
465.2010, 69587.05
465.6832, 69502.94
466.1653, 69437.48
466.6474, 69429.88
467.1295, 69467.09
467.6116, 69533.04
468.0938, 69623.17
468.5759, 69712.24
469.0580, 69737.51
469.5401, 69676.20
470.0222, 69615.98
470.5043, 69572.09
470.9865, 69534.10
471.4686, 69484.58
471.9507, 69427.30
472.4328, 69399.37
472.9149, 69454.05
473.3970, 69563.38
473.8792, 69620.52
474.3613, 69606.75
474.8434, 69583.14
475.3255, 69592.74
475.8076, 69620.16
476.2897, 69632.64
476.7719, 69611.82
477.2540, 69592.65
477.7361, 69603.20
478.2182, 69635.58
478.7003, 69663.31
479.1824, 69675.23
479.6646, 69687.71
480.1467, 69731.00
480.6288, 69825.75
481.1109, 69885.09
481.5930, 69862.80
482.0751, 69836.38
482.5573, 69869.38
483.0394, 69954.04
483.5215, 70039.69
484.0036, 70090.07
484.4857, 70109.52
484.9678, 70126.90
485.4500, 70127.32
485.9321, 70145.57
486.4142, 70164.77
486.8963, 70213.68
487.3784, 70348.16
487.8605, 70572.08
488.3427, 70786.16
488.8248, 70863.65
489.3069, 70798.19
489.7890, 70743.56
490.2711, 70711.90
490.7532, 70686.62
491.2354, 70643.20
491.7175, 70598.55
492.1996, 70596.35
492.6817, 70699.67
493.1638, 70806.15
493.6459, 70759.48
494.1281, 70573.66
494.6102, 70449.60
495.0923, 70480.12
495.5744, 70591.01
496.0565, 70652.70
496.5386, 70655.57
497.0208, 70664.92
497.5029, 70711.76
497.9850, 70761.77
498.4671, 70766.73
498.9492, 70730.04
499.4313, 70710.25
499.9135, 70759.88
500.3956, 70870.80
500.8777, 70938.17
501.3598, 70915.70
501.8419, 70904.90
502.3240, 70928.83
502.8062, 70969.89
503.2883, 71005.45
503.7704, 71029.75
504.2525, 71058.64
504.7346, 71116.97
505.2167, 71209.98
505.6989, 71296.41
506.1810, 71373.42
506.6631, 71446.08
507.1452, 71513.09
507.6273, 71578.16
508.1094, 71651.48
508.5916, 71748.02
509.0737, 71841.44
509.5558, 71895.88
510.0379, 71911.61
510.5200, 71903.89
511.0021, 71872.27
511.4843, 71825.22
511.9664, 71774.59
512.4485, 71720.56
512.9306, 71662.50
513.4127, 71632.23
513.8948, 71577.50
514.3770, 71424.93
514.8591, 71183.59
515.3412, 70942.88
515.8233, 70766.03
516.3054, 70642.42
516.7875, 70508.69
517.2697, 70351.84
517.7518, 70200.07
518.2339, 70071.89
518.7160, 69940.47
519.1981, 69767.42
519.6802, 69550.69
520.1624, 69338.67
520.6445, 69186.34
521.1266, 69095.01
521.6087, 69011.70
522.0908, 68945.57
522.5729, 68874.46
523.0551, 68795.97
523.5372, 68705.18
524.0193, 68587.19
524.5014, 68419.47
524.9835, 68265.11
525.4656, 68206.84
525.9478, 68224.73
526.4299, 68207.61
526.9120, 68117.34
527.3941, 68010.56
527.8762, 67961.14
528.3583, 67972.28
528.8405, 67954.45
529.3226, 67881.99
529.8047, 67793.20
530.2868, 67699.36
530.7689, 67609.23
531.2510, 67546.33
531.7332, 67498.20
532.2153, 67588.02
532.6974, 67608.76
533.1795, 67564.37
533.6616, 67248.42
534.1437, 67291.77
534.6259, 67196.38
535.1080, 67098.95
535.5901, 67203.63
536.0722, 66946.58
536.5543, 67055.66
537.0364, 67023.85
537.5186, 67062.01
538.0007, 66960.59
538.4828, 66907.22
538.9649, 67001.02
539.4470, 67019.18
539.9291, 66916.34
540.4113, 66981.32
540.8934, 66756.95
541.3755, 66793.56
541.8576, 66944.93
542.3397, 66868.14
542.8218, 66954.59
543.3040, 66984.07
543.7861, 66719.67
544.2682, 66768.16
544.7503, 66803.41
545.2324, 66840.91
545.7145, 66847.94
546.1967, 66793.85
546.6788, 66718.69
547.1609, 66661.02
547.6430, 66631.55
548.1251, 66624.16
548.6072, 66641.95
549.0894, 66687.45
549.5715, 66689.05
550.0536, 66623.27
550.5357, 66546.39
551.0178, 66457.63
551.4999, 66379.50
551.9821, 66345.44
552.4642, 66370.36
552.9463, 66419.32
553.4284, 66464.80
553.9105, 66507.80
554.3926, 66557.80
554.8748, 66622.41
555.3569, 66669.06
555.8390, 66653.43
556.3211, 66577.10
556.8032, 66546.55
557.2853, 66615.45
557.7675, 66675.18
558.2496, 66663.42
558.7317, 66610.34
559.2138, 66575.74
559.6959, 66580.33
560.1780, 66585.46
560.6602, 66520.09
561.1423, 66344.92
561.6244, 66258.41
562.1065, 66381.00
562.5886, 66477.27
563.0707, 66431.55
563.5529, 66307.98
564.0350, 66232.98
564.5171, 66271.02
564.9992, 66347.90
565.4813, 66361.90
565.9634, 66317.24
566.4456, 66281.64
566.9277, 66270.10
567.4098, 66271.25
567.8919, 66273.07
568.3740, 66275.77
568.8561, 66288.05
569.3383, 66340.69
569.8204, 66375.66
570.3025, 66336.53
570.7846, 66250.26
571.2667, 66180.15
571.7488, 66152.20
572.2310, 66157.20
572.7131, 66180.83
573.1952, 66227.87
573.6773, 66281.60
574.1594, 66407.71
574.6415, 66475.85
575.1237, 66362.14
575.6058, 66153.19
576.0879, 66036.71
576.5700, 66120.40
577.0521, 66293.41
577.5342, 66393.17
578.0164, 66419.17
578.4985, 66419.16
578.9806, 66393.41
579.4627, 66361.16
579.9448, 66342.34
580.4269, 66335.56
580.9091, 66330.59
581.3912, 66328.20
581.8733, 66324.69
582.3554, 66312.71
582.8375, 66297.63
583.3196, 66292.38
583.8018, 66302.38
584.2839, 66324.39
584.7660, 66357.21
585.2481, 66419.73
585.7302, 66437.66
586.2123, 66340.38
586.6945, 66271.79
587.1766, 66324.00
587.6587, 66445.33
588.1408, 66521.53
588.6229, 66487.95
589.1050, 66427.87
589.5872, 66489.71
590.0693, 66666.46
590.5514, 66743.01
591.0335, 66630.88
591.5156, 66488.41
591.9977, 66490.59
592.4799, 66615.72
592.9620, 66706.23
593.4441, 66719.30
593.9262, 66713.67
594.4083, 66733.32
594.8904, 66757.33
595.3726, 66732.15
595.8547, 66639.95
596.3368, 66529.76
596.8189, 66474.44
597.3010, 66485.35
597.7831, 66495.55
598.2653, 66536.16
598.7474, 66541.21
599.2295, 66445.05
599.7116, 66312.81
600.1937, 66253.66
600.6758, 66318.21
601.1580, 66402.93
601.6401, 66394.86
602.1222, 66310.06
602.6043, 66223.57
603.0864, 66145.41
603.5685, 66074.30
604.0507, 66006.52
604.5328, 65944.95
605.0149, 65903.32
605.4970, 65890.63
605.9791, 65887.26
606.4612, 65890.17
606.9434, 65896.91
607.4255, 65913.22
607.9076, 65936.07
608.3897, 65938.63
608.8718, 65882.64
609.3539, 65770.17
609.8361, 65710.59
610.3182, 65743.84
610.8003, 65762.95
611.2824, 65712.38
611.7645, 65641.69
612.2466, 65612.46
612.7288, 65639.04
613.2109, 65650.20
613.6930, 65559.80
614.1751, 65435.43
614.6572, 65419.67
615.1393, 65521.75
615.6215, 65616.60
616.1036, 65623.44
616.5857, 65567.24
617.0678, 65538.88
617.5499, 65567.17
618.0320, 65583.45
618.5142, 65585.23
618.9963, 65573.75
619.4784, 65552.93
619.9605, 65520.43
620.4426, 65462.66
620.9247, 65358.15
621.4069, 65239.96
621.8890, 65205.37
622.3711, 65269.11
622.8532, 65330.29
623.3353, 65367.02
623.8174, 65386.86
624.2996, 65398.39
624.7817, 65401.79
625.2638, 65396.11
625.7459, 65378.53
626.2280, 65354.26
626.7101, 65328.37
627.1923, 65299.26
627.6744, 65254.95
628.1565, 65190.41
628.6386, 65131.91
629.1207, 65128.76
629.6028, 65204.66
630.0850, 65239.79
630.5671, 65188.00
631.0492, 65141.59
631.5313, 65144.43
632.0134, 65166.75
632.4955, 65159.57
632.9777, 65104.57
633.4598, 65033.54
633.9419, 64971.51
634.4240, 64918.24
634.9061, 64879.32
635.3882, 64858.72
635.8704, 64821.84
636.3525, 64726.45
636.8346, 64591.30
637.3167, 64538.86
637.7988, 64630.58
638.2809, 64711.84
638.7631, 64750.95
639.2452, 64773.10
639.7273, 64820.48
640.2094, 64882.54
