##NAMES=Whiteite-(CaFeMg)
##RRUFFID=R060912
##IDEAL CHEMISTRY=CaFe^2+^Mg_2_Al_2_(PO_4_)_4_(OH)_2_&#183;8H_2_O
##LOCALITY=Yukon Territory, Canada
##OWNER=RRUFF
##SOURCE=Royal Ontario Museum
##DESCRIPTION=Dull gray-tan crystals
##STATUS=The identification of this mineral has been made only by X-ray diffraction.
##URL=rruff.info/R060912
139.3613, 3638.526
139.8434, 3680.882
140.3256, 3715.214
140.8077, 3741.855
141.2898, 3759.051
141.7719, 3760.672
142.2540, 3769.060
142.7361, 3790.369
143.2183, 3826.218
143.7004, 3862.744
144.1825, 3905.833
144.6646, 3945.137
145.1467, 3963.593
145.6288, 3943.109
146.1110, 3927.424
146.5931, 3930.411
147.0752, 3960.699
147.5573, 3987.060
148.0394, 4009.994
148.5215, 4028.666
149.0037, 4041.544
149.4858, 4043.127
149.9679, 4043.568
150.4500, 4046.485
150.9321, 4050.982
151.4142, 4059.375
151.8964, 4074.640
152.3785, 4094.844
152.8606, 4112.353
153.3427, 4125.075
153.8248, 4136.831
154.3069, 4149.639
154.7890, 4166.647
155.2712, 4182.257
155.7533, 4195.835
156.2354, 4207.404
156.7175, 4217.639
157.1996, 4222.105
157.6817, 4227.584
158.1639, 4239.331
158.6460, 4266.749
159.1281, 4292.717
159.6102, 4308.978
160.0923, 4314.583
160.5744, 4325.011
161.0566, 4349.215
161.5387, 4379.537
162.0208, 4407.340
162.5029, 4440.066
162.9850, 4461.230
163.4671, 4455.666
163.9493, 4416.550
164.4314, 4384.448
164.9135, 4383.838
165.3956, 4402.631
165.8777, 4420.928
166.3598, 4433.836
166.8420, 4440.989
167.3241, 4440.331
167.8062, 4428.893
168.2883, 4418.771
168.7704, 4420.573
169.2525, 4430.275
169.7346, 4437.729
170.2168, 4434.224
170.6989, 4427.212
171.1810, 4424.113
171.6631, 4426.779
172.1452, 4433.027
172.6273, 4443.480
173.1095, 4456.812
173.5916, 4467.895
174.0737, 4467.379
174.5558, 4463.763
175.0379, 4470.209
175.5201, 4493.909
176.0022, 4524.568
176.4843, 4552.475
176.9664, 4577.288
177.4485, 4597.244
177.9306, 4605.697
178.4128, 4608.107
178.8949, 4616.535
179.3770, 4636.743
179.8591, 4663.988
180.3412, 4689.596
180.8233, 4713.729
181.3055, 4742.147
181.7876, 4791.959
182.2697, 4853.418
182.7518, 4895.061
183.2339, 4888.260
183.7160, 4855.563
184.1981, 4853.677
184.6803, 4885.509
185.1624, 4925.484
185.6445, 4950.420
186.1266, 4960.295
186.6087, 4956.598
187.0908, 4929.365
187.5730, 4886.777
188.0551, 4864.705
188.5372, 4867.178
189.0193, 4876.493
189.5014, 4865.296
189.9835, 4834.671
190.4657, 4808.030
190.9478, 4802.577
191.4299, 4814.152
191.9120, 4811.667
192.3941, 4791.329
192.8762, 4762.174
193.3584, 4738.040
193.8405, 4719.087
194.3226, 4703.859
194.8047, 4697.096
195.2868, 4697.955
195.7689, 4681.843
196.2511, 4641.861
196.7332, 4590.026
197.2153, 4548.827
197.6974, 4516.521
198.1795, 4504.943
198.6616, 4538.920
199.1437, 4623.058
199.6259, 4658.462
200.1080, 4620.392
200.5901, 4536.337
201.0722, 4491.323
201.5543, 4491.202
202.0364, 4505.040
202.5186, 4509.844
203.0007, 4503.124
203.4828, 4507.001
203.9649, 4526.175
204.4470, 4557.794
204.9291, 4589.640
205.4113, 4621.958
205.8934, 4653.777
206.3755, 4685.743
206.8576, 4719.283
207.3397, 4744.630
207.8218, 4756.886
208.3040, 4758.736
208.7861, 4770.572
209.2682, 4795.286
209.7503, 4824.250
210.2324, 4849.978
210.7145, 4871.538
211.1967, 4893.516
211.6788, 4918.489
212.1609, 4946.037
212.6430, 4963.979
213.1251, 4966.046
213.6072, 4968.259
214.0894, 4989.065
214.5715, 5036.696
215.0536, 5079.866
215.5357, 5110.810
216.0178, 5129.435
216.4999, 5144.797
216.9820, 5152.661
217.4642, 5161.786
217.9463, 5185.729
218.4284, 5235.985
218.9105, 5271.668
219.3926, 5278.474
219.8747, 5253.324
220.3569, 5236.388
220.8390, 5228.216
221.3211, 5227.871
221.8032, 5235.176
222.2853, 5253.771
222.7674, 5272.667
223.2496, 5289.138
223.7317, 5303.314
224.2138, 5315.770
224.6959, 5324.901
225.1780, 5334.000
225.6601, 5348.845
226.1423, 5373.939
226.6244, 5395.991
227.1065, 5409.111
227.5886, 5409.813
228.0707, 5419.460
228.5528, 5444.697
229.0350, 5474.349
229.5171, 5489.439
229.9992, 5479.115
230.4813, 5473.351
230.9634, 5483.870
231.4455, 5518.114
231.9276, 5539.161
232.4098, 5539.684
232.8919, 5531.329
233.3740, 5534.433
233.8561, 5555.931
234.3382, 5577.348
234.8203, 5592.727
235.3025, 5600.267
235.7846, 5607.639
236.2667, 5613.980
236.7488, 5620.719
237.2309, 5631.955
237.7130, 5656.548
238.1952, 5671.449
238.6773, 5666.408
239.1594, 5632.626
239.6415, 5606.482
240.1236, 5590.137
240.6057, 5580.364
241.0879, 5571.415
241.5700, 5566.520
242.0521, 5557.525
242.5342, 5539.561
243.0163, 5505.638
243.4984, 5483.290
243.9806, 5478.025
244.4627, 5481.787
244.9448, 5478.422
245.4269, 5465.796
245.9090, 5448.701
246.3911, 5427.737
246.8732, 5400.172
247.3554, 5376.427
247.8375, 5359.876
248.3196, 5345.501
248.8017, 5321.252
249.2838, 5277.758
249.7659, 5240.079
250.2481, 5219.782
250.7302, 5227.027
251.2123, 5223.025
251.6944, 5205.367
252.1765, 5178.125
252.6586, 5147.406
253.1408, 5107.524
253.6229, 5074.449
254.1050, 5056.521
254.5871, 5062.198
255.0692, 5056.547
255.5513, 5033.252
256.0334, 5002.155
256.5156, 4983.927
256.9977, 4985.541
257.4798, 4987.090
257.9619, 4978.149
258.4440, 4950.455
258.9261, 4940.774
259.4083, 4956.972
259.8904, 4985.911
260.3725, 5000.802
260.8546, 4997.542
261.3367, 4988.339
261.8188, 4976.494
262.3010, 4959.815
262.7831, 4948.323
263.2652, 4942.778
263.7473, 4941.616
264.2294, 4941.991
264.7115, 4943.917
265.1937, 4947.211
265.6758, 4950.806
266.1579, 4953.313
266.6400, 4965.026
267.1221, 4991.737
267.6042, 5022.158
268.0864, 5032.345
268.5685, 5014.163
269.0506, 4999.755
269.5327, 5004.811
270.0148, 5033.824
270.4969, 5049.514
270.9791, 5046.716
271.4612, 5037.308
271.9433, 5043.230
272.4254, 5069.252
272.9075, 5092.522
273.3896, 5102.655
273.8718, 5098.395
274.3539, 5097.432
274.8360, 5099.846
275.3181, 5105.388
275.8002, 5114.611
276.2823, 5128.271
276.7645, 5141.208
277.2466, 5152.309
277.7287, 5161.498
278.2108, 5166.024
278.6929, 5165.391
279.1750, 5161.031
279.6572, 5153.462
280.1393, 5142.064
280.6214, 5133.033
281.1035, 5131.328
281.5856, 5135.641
282.0677, 5129.889
282.5499, 5113.052
283.0320, 5089.095
283.5141, 5060.271
283.9962, 5026.392
284.4783, 4996.533
284.9604, 4976.631
285.4425, 4964.158
285.9247, 4943.717
286.4068, 4914.731
286.8889, 4881.533
287.3710, 4848.024
287.8531, 4814.306
288.3352, 4781.370
288.8174, 4749.290
289.2995, 4718.280
289.7816, 4688.206
290.2637, 4659.319
290.7458, 4633.473
291.2279, 4617.280
291.7101, 4608.139
292.1922, 4589.642
292.6743, 4551.303
293.1564, 4503.267
293.6385, 4469.418
294.1206, 4450.183
294.6028, 4438.641
295.0849, 4435.429
295.5670, 4436.322
296.0491, 4424.569
296.5312, 4386.205
297.0133, 4340.999
297.4955, 4328.406
297.9776, 4347.044
298.4597, 4368.514
298.9418, 4369.425
299.4239, 4356.406
299.9060, 4343.988
300.3882, 4336.043
300.8703, 4329.940
301.3524, 4322.167
301.8345, 4312.867
302.3166, 4303.795
302.7987, 4296.140
303.2809, 4289.239
303.7630, 4281.437
304.2451, 4270.829
304.7272, 4261.655
305.2093, 4264.210
305.6914, 4274.093
306.1736, 4274.101
306.6557, 4247.118
307.1378, 4207.202
307.6199, 4168.956
308.1020, 4131.645
308.5841, 4103.896
309.0663, 4099.042
309.5484, 4110.167
310.0305, 4118.779
310.5126, 4115.355
310.9947, 4105.398
311.4768, 4091.869
311.9590, 4073.200
312.4411, 4058.200
312.9232, 4063.246
313.4053, 4075.402
313.8874, 4069.916
314.3695, 4010.734
314.8516, 3948.892
315.3337, 3919.378
315.8159, 3931.269
316.2980, 3945.319
316.7801, 3943.618
317.2622, 3934.065
317.7443, 3927.753
318.2264, 3939.555
318.7086, 3946.106
319.1907, 3932.577
319.6728, 3895.146
320.1549, 3866.023
320.6370, 3857.558
321.1191, 3860.905
321.6013, 3866.993
322.0834, 3875.520
322.5655, 3884.666
323.0476, 3896.688
323.5297, 3911.690
324.0118, 3917.722
324.4940, 3901.528
324.9761, 3881.653
325.4582, 3872.302
325.9403, 3888.250
326.4224, 3900.205
326.9045, 3902.747
327.3867, 3896.451
327.8688, 3890.666
328.3509, 3879.034
328.8330, 3872.612
329.3151, 3878.023
329.7972, 3915.497
330.2794, 3936.646
330.7615, 3930.672
331.2436, 3905.187
331.7257, 3892.919
332.2078, 3901.909
332.6899, 3914.547
333.1721, 3921.862
333.6542, 3917.177
334.1363, 3922.452
334.6184, 3944.630
335.1005, 3974.252
335.5826, 3988.868
336.0648, 3983.198
336.5469, 3973.076
337.0290, 3961.817
337.5111, 3945.940
337.9932, 3947.768
338.4753, 3973.130
338.9575, 4008.592
339.4396, 4033.776
339.9217, 4046.991
340.4038, 4057.268
340.8859, 4069.858
341.3680, 4084.149
341.8502, 4082.945
342.3323, 4062.028
342.8144, 4038.237
343.2965, 4034.708
343.7786, 4051.759
344.2607, 4063.956
344.7429, 4062.327
345.2250, 4050.834
345.7071, 4042.967
346.1892, 4038.756
346.6713, 4038.013
347.1534, 4040.818
347.6355, 4046.968
348.1176, 4056.485
348.5998, 4072.855
349.0819, 4088.529
349.5640, 4084.846
350.0461, 4063.438
350.5282, 4046.054
351.0103, 4057.301
351.4925, 4082.219
351.9746, 4087.484
352.4567, 4059.464
352.9388, 4028.354
353.4209, 4033.763
353.9030, 4066.184
354.3852, 4093.955
354.8673, 4098.159
355.3494, 4088.802
355.8315, 4075.575
356.3136, 4059.073
356.7957, 4042.516
357.2779, 4026.723
357.7600, 4012.895
358.2421, 4003.293
358.7242, 4004.283
359.2063, 4005.711
359.6884, 4001.091
360.1706, 3989.893
360.6527, 3975.453
361.1348, 3955.385
361.6169, 3934.195
362.0990, 3916.990
362.5811, 3906.372
363.0633, 3898.548
363.5454, 3894.927
364.0275, 3894.625
364.5096, 3888.875
364.9917, 3871.485
365.4738, 3850.320
365.9560, 3830.407
366.4381, 3812.434
366.9202, 3796.240
367.4023, 3780.688
367.8844, 3766.632
368.3665, 3757.223
368.8487, 3756.554
369.3308, 3757.408
369.8129, 3757.993
370.2950, 3763.684
370.7771, 3757.798
371.2592, 3732.147
371.7414, 3697.959
372.2235, 3675.304
372.7056, 3669.795
373.1877, 3666.496
373.6698, 3661.352
374.1519, 3654.247
374.6341, 3645.558
375.1162, 3634.485
375.5983, 3622.867
376.0804, 3612.275
376.5625, 3602.254
377.0446, 3595.937
377.5267, 3596.292
378.0089, 3601.299
378.4910, 3598.681
378.9731, 3588.102
379.4552, 3571.983
379.9373, 3546.840
380.4194, 3513.631
380.9016, 3497.119
381.3837, 3505.271
381.8658, 3526.623
382.3479, 3538.730
382.8300, 3542.010
383.3121, 3542.652
383.7943, 3543.583
384.2764, 3544.787
384.7585, 3546.682
385.2406, 3549.599
385.7227, 3551.514
386.2048, 3549.268
386.6870, 3543.869
387.1691, 3538.177
387.6512, 3529.613
388.1333, 3523.385
388.6154, 3528.702
389.0975, 3545.993
389.5797, 3560.078
390.0618, 3555.377
390.5439, 3542.222
391.0260, 3533.726
391.5081, 3534.149
391.9902, 3540.801
392.4724, 3557.377
392.9545, 3581.319
393.4366, 3598.680
393.9187, 3598.220
394.4008, 3592.575
394.8829, 3590.352
395.3651, 3594.933
395.8472, 3600.253
396.3293, 3605.392
396.8114, 3610.223
397.2935, 3614.462
397.7756, 3612.146
398.2578, 3614.379
398.7399, 3626.760
399.2220, 3654.587
399.7041, 3675.820
400.1862, 3687.620
400.6683, 3694.068
401.1505, 3698.819
401.6326, 3695.170
402.1147, 3700.986
402.5968, 3725.153
403.0789, 3765.983
403.5610, 3786.867
404.0432, 3777.077
404.5253, 3764.976
405.0074, 3773.866
405.4895, 3809.940
405.9716, 3839.471
406.4537, 3857.814
406.9359, 3868.486
407.4180, 3877.148
407.9001, 3882.593
408.3822, 3895.543
408.8643, 3927.480
409.3464, 3975.163
409.8285, 4011.046
410.3106, 4032.911
410.7928, 4046.900
411.2749, 4054.961
411.7570, 4059.896
412.2391, 4075.099
412.7212, 4110.862
413.2033, 4157.972
413.6855, 4202.405
414.1676, 4243.859
414.6497, 4280.519
415.1318, 4305.449
415.6139, 4325.677
416.0960, 4351.833
416.5782, 4390.852
417.0603, 4429.882
417.5424, 4453.766
418.0245, 4468.428
418.5066, 4491.083
418.9887, 4539.982
419.4709, 4592.773
419.9530, 4634.509
420.4351, 4660.285
420.9172, 4685.605
421.3993, 4712.502
421.8814, 4742.917
422.3636, 4779.318
422.8457, 4837.289
423.3278, 4886.352
423.8099, 4913.905
424.2920, 4919.412
424.7741, 4930.766
425.2563, 4959.156
425.7384, 4986.673
426.2205, 5000.369
426.7026, 4981.476
427.1847, 4983.072
427.6668, 5020.322
428.1490, 5076.913
428.6311, 5105.813
429.1132, 5098.237
429.5953, 5082.255
430.0774, 5069.000
430.5595, 5058.718
431.0417, 5047.097
431.5238, 5033.668
432.0059, 5019.979
432.4880, 5008.287
432.9701, 4998.610
433.4522, 4989.255
433.9344, 4982.251
434.4165, 4973.969
434.8986, 4950.981
435.3807, 4913.444
435.8628, 4875.437
436.3449, 4851.473
436.8271, 4835.167
437.3092, 4809.952
437.7913, 4770.076
438.2734, 4729.166
438.7555, 4699.902
439.2376, 4680.885
439.7197, 4668.499
440.2018, 4669.943
440.6840, 4671.271
441.1661, 4657.548
441.6482, 4626.968
442.1303, 4599.949
442.6124, 4589.819
443.0945, 4587.294
443.5767, 4582.936
444.0588, 4572.006
444.5409, 4561.097
445.0230, 4552.392
445.5051, 4545.403
445.9872, 4537.753
446.4694, 4540.173
446.9515, 4533.059
447.4336, 4503.741
447.9157, 4426.787
448.3978, 4382.468
448.8799, 4385.524
449.3621, 4413.849
449.8442, 4437.150
450.3263, 4459.238
450.8084, 4466.894
451.2905, 4448.948
451.7726, 4408.940
452.2548, 4399.056
452.7369, 4428.184
453.2190, 4462.546
453.7011, 4472.273
454.1832, 4457.231
454.6653, 4447.087
455.1475, 4445.604
455.6296, 4450.905
456.1117, 4462.372
456.5938, 4479.116
457.0759, 4493.942
457.5580, 4504.300
458.0402, 4509.718
458.5223, 4506.417
459.0044, 4493.801
459.4865, 4483.295
459.9686, 4483.243
460.4507, 4491.933
460.9329, 4507.523
461.4150, 4539.081
461.8971, 4566.072
462.3792, 4569.961
462.8613, 4556.736
463.3434, 4548.443
463.8256, 4555.996
464.3077, 4570.385
464.7898, 4587.842
465.2719, 4610.368
465.7540, 4628.215
466.2361, 4632.379
466.7183, 4633.284
467.2004, 4644.136
467.6825, 4678.681
468.1646, 4708.066
468.6467, 4724.097
469.1288, 4727.968
469.6109, 4744.101
470.0930, 4780.611
470.5752, 4817.050
471.0573, 4839.444
471.5394, 4842.942
472.0215, 4852.784
472.5036, 4871.673
472.9857, 4895.363
473.4679, 4918.401
473.9500, 4940.819
474.4321, 4956.959
474.9142, 4960.547
475.3963, 4956.676
475.8784, 4963.148
476.3606, 4980.276
476.8427, 4999.863
477.3248, 5016.071
477.8069, 5029.448
478.2890, 5039.826
478.7711, 5044.930
479.2533, 5052.250
479.7354, 5070.886
480.2175, 5097.438
480.6996, 5123.527
481.1817, 5144.533
481.6638, 5163.668
482.1460, 5183.478
482.6281, 5204.083
483.1102, 5221.562
483.5923, 5229.907
484.0744, 5236.468
484.5565, 5247.565
485.0387, 5272.879
485.5208, 5292.165
486.0029, 5298.806
486.4850, 5297.158
486.9671, 5301.126
487.4492, 5317.417
487.9314, 5330.173
488.4135, 5331.374
488.8956, 5317.756
489.3777, 5316.313
489.8598, 5332.417
490.3419, 5351.767
490.8241, 5355.536
491.3062, 5341.937
491.7883, 5339.483
492.2704, 5358.981
492.7525, 5388.654
493.2346, 5397.178
493.7168, 5385.745
494.1989, 5377.071
494.6810, 5390.211
495.1631, 5414.851
495.6452, 5431.620
496.1273, 5438.693
496.6095, 5439.318
497.0916, 5433.921
497.5737, 5424.379
498.0558, 5413.441
498.5379, 5402.611
499.0201, 5390.357
499.5022, 5372.675
499.9843, 5351.962
500.4664, 5338.203
500.9485, 5345.626
501.4306, 5352.800
501.9127, 5347.815
502.3948, 5324.570
502.8770, 5303.335
503.3591, 5287.413
503.8412, 5273.471
504.3233, 5257.773
504.8054, 5239.352
505.2875, 5220.626
505.7697, 5201.762
506.2518, 5182.546
506.7339, 5164.997
507.2160, 5151.963
507.6981, 5131.016
508.1802, 5088.792
508.6624, 5026.679
509.1445, 4981.145
509.6266, 4955.110
510.1087, 4938.729
510.5908, 4923.402
511.0729, 4908.380
511.5551, 4890.230
512.0372, 4865.032
512.5193, 4839.120
513.0014, 4820.824
513.4835, 4809.233
513.9656, 4800.705
514.4478, 4797.674
514.9299, 4793.908
515.4120, 4782.670
515.8941, 4761.115
516.3762, 4741.666
516.8583, 4736.234
517.3405, 4732.863
517.8226, 4718.583
518.3047, 4675.146
518.7868, 4637.995
519.2689, 4613.518
519.7510, 4600.482
520.2332, 4594.576
520.7153, 4602.158
521.1974, 4608.040
521.6795, 4604.354
522.1616, 4588.476
522.6437, 4580.777
523.1259, 4584.944
523.6080, 4590.098
524.0901, 4580.801
524.5722, 4556.823
525.0543, 4539.509
525.5364, 4533.643
526.0186, 4536.326
526.5007, 4547.232
526.9828, 4564.183
527.4649, 4573.333
527.9470, 4560.440
528.4291, 4537.470
528.9113, 4517.704
529.3934, 4502.025
529.8755, 4494.008
530.3576, 4500.623
530.8397, 4514.337
531.3218, 4526.906
531.8040, 4531.796
532.2861, 4540.542
532.7682, 4559.639
533.2503, 4585.530
533.7324, 4608.383
534.2145, 4621.501
534.6967, 4637.139
535.1788, 4661.463
535.6609, 4696.313
536.1430, 4720.326
536.6251, 4726.432
537.1072, 4731.120
537.5894, 4747.991
538.0715, 4778.619
538.5536, 4811.919
539.0357, 4848.076
539.5178, 4883.766
539.9999, 4910.092
540.4821, 4927.705
540.9642, 4952.043
541.4463, 4997.658
541.9284, 5051.562
542.4105, 5082.174
542.8926, 5091.700
543.3748, 5110.550
543.8569, 5173.000
544.3390, 5251.108
544.8211, 5313.627
545.3032, 5352.244
545.7853, 5384.111
546.2675, 5415.631
546.7495, 5446.390
547.2316, 5475.813
547.7137, 5492.809
548.1959, 5520.053
548.6780, 5570.398
549.1601, 5640.627
549.6422, 5698.806
550.1243, 5738.087
550.6064, 5774.194
551.0886, 5816.012
551.5707, 5867.088
552.0528, 5904.117
552.5349, 5921.678
553.0170, 5935.789
553.4991, 5965.875
553.9813, 6011.462
554.4634, 6060.975
554.9455, 6115.065
555.4276, 6167.084
555.9097, 6197.919
556.3918, 6212.702
556.8740, 6236.140
557.3561, 6291.655
557.8382, 6357.708
558.3203, 6410.831
558.8024, 6449.881
559.2845, 6486.552
559.7667, 6527.030
560.2488, 6568.628
560.7309, 6610.072
561.2130, 6658.403
561.6951, 6695.281
562.1772, 6701.488
562.6594, 6696.735
563.1415, 6719.899
563.6236, 6790.375
564.1057, 6860.489
564.5878, 6922.672
565.0699, 6976.013
565.5521, 7013.877
566.0342, 7030.470
566.5163, 7049.076
566.9984, 7088.154
567.4805, 7145.896
567.9626, 7199.638
568.4448, 7248.546
568.9269, 7293.568
569.4090, 7334.917
569.8911, 7373.593
570.3732, 7412.970
570.8553, 7450.576
571.3375, 7493.578
571.8196, 7552.875
572.3017, 7623.326
572.7838, 7687.601
573.2659, 7729.260
573.7480, 7770.427
574.2302, 7824.840
574.7123, 7894.667
575.1944, 7963.345
575.6765, 8027.855
576.1586, 8090.578
576.6407, 8152.275
577.1229, 8209.705
577.6050, 8275.501
578.0871, 8355.620
578.5692, 8439.596
579.0513, 8501.587
579.5334, 8536.030
580.0156, 8589.926
580.4977, 8684.343
580.9798, 8804.729
581.4619, 8909.283
581.9440, 8998.491
582.4261, 9086.082
582.9083, 9180.044
583.3904, 9277.355
583.8725, 9374.095
584.3546, 9469.354
584.8367, 9568.176
585.3188, 9687.381
585.8010, 9807.118
586.2831, 9905.894
586.7652, 9964.260
587.2473, 10018.33
587.7294, 10092.14
588.2115, 10168.09
588.6937, 10202.27
589.1758, 10169.21
589.6579, 10127.75
590.1400, 10093.67
590.6221, 10065.75
591.1042, 10023.64
591.5864, 9969.693
592.0685, 9896.213
592.5506, 9792.196
593.0327, 9660.040
593.5148, 9531.875
593.9969, 9410.961
594.4791, 9284.503
594.9612, 9141.198
595.4433, 8980.729
595.9254, 8801.709
596.4075, 8593.884
596.8896, 8381.032
597.3718, 8179.502
597.8539, 7989.575
598.3360, 7814.201
598.8181, 7665.697
599.3002, 7521.432
599.7823, 7368.130
600.2645, 7203.693
600.7466, 7053.739
601.2287, 6934.117
601.7108, 6817.350
602.1929, 6684.327
602.6750, 6518.194
603.1572, 6393.411
603.6393, 6321.374
604.1214, 6269.646
604.6035, 6190.909
605.0856, 6085.411
605.5677, 5996.978
606.0499, 5938.364
606.5320, 5897.191
607.0141, 5859.006
607.4962, 5821.388
607.9783, 5773.686
608.4604, 5695.892
608.9425, 5615.401
609.4246, 5559.460
609.9067, 5527.565
610.3889, 5500.812
610.8710, 5468.912
611.3531, 5440.458
611.8352, 5422.662
612.3173, 5425.440
612.7994, 5418.420
613.2816, 5396.591
613.7637, 5367.216
614.2458, 5335.796
614.7279, 5296.859
615.2100, 5275.264
615.6921, 5282.010
616.1743, 5301.617
616.6564, 5292.604
617.1385, 5255.457
617.6206, 5219.022
618.1027, 5190.969
618.5848, 5174.698
619.0670, 5185.001
619.5491, 5218.627
620.0312, 5243.510
620.5133, 5224.857
620.9954, 5194.952
621.4775, 5186.779
621.9597, 5211.137
622.4418, 5230.404
622.9239, 5227.948
623.4060, 5215.926
623.8881, 5206.159
624.3702, 5201.639
624.8524, 5196.631
625.3345, 5189.269
625.8166, 5181.902
626.2987, 5181.653
626.7808, 5191.597
627.2629, 5195.240
627.7451, 5184.472
628.2272, 5164.339
628.7093, 5154.061
629.1914, 5153.312
629.6735, 5151.535
630.1556, 5139.223
630.6378, 5122.452
631.1199, 5112.130
631.6020, 5109.571
632.0841, 5102.724
632.5662, 5070.796
633.0483, 5037.678
633.5305, 5028.527
634.0126, 5077.590
634.4947, 5103.435
634.9768, 5078.403
635.4589, 5025.378
635.9410, 4977.648
636.4232, 4929.504
636.9053, 4898.223
637.3874, 4893.068
