##NAMES=Whitlockite
##RRUFFID=R080052
##IDEAL CHEMISTRY=Ca_9_Mg(PO_4_)_6_(PO_3_OH)
##LOCALITY=Palermo #1 Quarry, Groton, Grafton County, New Hampshire USA
##OWNER=Harvard
##SOURCE=Mineralogical Museum, Harvard University
##DESCRIPTION=Colorless granular massive, and as rhombohedra in cavities, associated with white rice-shaped fluorapatite, and colorless quartz. Type sample.
##STATUS=The identification of this mineral is confirmed by single-crystal X-ray diffraction and chemical analysis.
##URL=rruff.info/R080052
##MEASURED CHEMISTRY=(Ca_8.81_Na_0.18_Sr_0.01_)_Σ=9.00_(Mg_0.62_Fe^3+^_0.34_Mn_0.02_Al_0.02_)_Σ=1.00_(P_1.00_O_4_)_6_(P_1.02_O_3_OH)
93.74609, 26.70597
94.22821, 25.81516
94.71033, 26.22234
95.19244, 27.73381
95.67456, 29.65964
96.15668, 32.06350
96.63879, 34.70300
97.12091, 36.57468
97.60303, 37.48830
98.08514, 38.40943
98.56726, 40.79094
99.04938, 44.67056
99.53149, 48.88351
100.0136, 52.71327
100.4957, 56.12502
100.9778, 60.27821
101.4600, 65.23129
101.9421, 70.89831
102.4242, 76.97044
102.9063, 83.52233
103.3884, 90.39853
103.8705, 97.54157
104.3527, 105.2769
104.8348, 112.5137
105.3169, 119.1209
105.7990, 125.1483
106.2811, 131.4263
106.7632, 138.0215
107.2454, 144.7428
107.7275, 151.3942
108.2096, 158.5224
108.6917, 164.9088
109.1738, 170.0734
109.6559, 173.8491
110.1381, 178.3771
110.6202, 183.4871
111.1023, 189.4658
111.5844, 196.5869
112.0665, 205.2828
112.5486, 214.8063
113.0308, 225.0628
113.5129, 236.1988
113.9950, 247.8630
114.4771, 260.1334
114.9592, 272.8317
115.4413, 285.8870
115.9235, 299.7982
116.4056, 313.6176
116.8877, 326.7360
117.3698, 339.2355
117.8519, 351.2211
118.3340, 362.7606
118.8162, 373.8290
119.2983, 384.3223
119.7804, 394.1935
120.2625, 403.6244
120.7446, 412.6513
121.2267, 421.2075
121.7089, 429.5982
122.1910, 437.8024
122.6731, 445.9126
123.1552, 454.3609
123.6373, 464.2051
124.1194, 474.2897
124.6016, 483.2775
125.0837, 489.5262
125.5658, 495.1929
126.0479, 502.1006
126.5300, 510.2570
127.0121, 519.8273
127.4943, 531.3937
127.9764, 544.4653
128.4585, 558.2342
128.9406, 572.0659
129.4227, 586.3389
129.9048, 601.5876
130.3869, 617.8062
130.8691, 635.0455
131.3512, 653.8121
131.8333, 671.6761
132.3154, 685.9772
132.7975, 699.4209
133.2796, 712.5266
133.7618, 722.5598
134.2439, 729.2145
134.7260, 734.1039
135.2081, 739.8246
135.6902, 746.4922
136.1723, 752.1635
136.6545, 755.7938
137.1366, 757.4039
137.6187, 758.1318
138.1008, 758.0211
138.5829, 757.1274
139.0650, 755.6650
139.5472, 753.7390
140.0293, 750.7794
140.5114, 745.8480
140.9935, 738.1033
141.4756, 732.0215
141.9577, 728.0222
142.4399, 725.8307
142.9220, 724.4021
143.4041, 723.7558
143.8862, 723.7441
144.3683, 724.4397
144.8504, 726.4669
145.3326, 727.7969
145.8147, 728.2562
146.2968, 727.8678
146.7789, 726.4161
147.2610, 723.3791
147.7431, 719.8036
148.2253, 716.5150
148.7074, 713.7101
149.1895, 710.9672
149.6716, 708.2334
150.1537, 705.4802
150.6358, 702.9289
151.1180, 701.0167
151.6001, 699.1034
152.0822, 696.5493
152.5643, 692.5197
153.0464, 688.6469
153.5285, 685.2282
154.0107, 682.3277
154.4928, 679.7239
154.9749, 677.8284
155.4570, 676.0748
155.9391, 673.7483
156.4212, 669.9506
156.9034, 666.2561
157.3855, 663.2742
157.8676, 661.4277
158.3497, 659.3314
158.8318, 656.9164
159.3139, 654.0881
159.7961, 650.6622
160.2782, 645.4392
160.7603, 640.4889
161.2424, 636.8563
161.7245, 635.0837
162.2066, 633.7391
162.6888, 633.4208
163.1709, 633.2375
163.6530, 631.2158
164.1351, 624.4486
164.6172, 616.8956
165.0993, 611.1877
165.5815, 608.4231
166.0636, 606.4879
166.5457, 604.4882
167.0278, 602.4758
167.5099, 600.6375
167.9921, 598.7509
168.4742, 597.2117
168.9563, 596.4335
169.4384, 596.9274
169.9205, 597.6612
170.4026, 598.0627
170.8848, 598.1516
171.3669, 597.9734
171.8490, 597.1013
172.3311, 596.1381
172.8132, 595.7961
173.2953, 596.3259
173.7775, 597.5297
174.2596, 599.8493
174.7417, 603.0714
175.2238, 605.5150
175.7059, 605.7275
176.1880, 604.3908
176.6702, 602.5804
177.1523, 600.7796
177.6344, 598.5690
178.1165, 595.4972
178.5986, 591.5384
179.0807, 586.7609
179.5629, 580.6496
180.0450, 573.6610
180.5271, 566.9797
181.0092, 560.9867
181.4913, 555.4589
181.9734, 550.1475
182.4556, 545.0478
182.9377, 540.0974
183.4198, 534.8170
183.9019, 529.4680
184.3840, 525.1085
184.8661, 522.5126
185.3483, 521.0833
185.8304, 519.4315
186.3125, 517.5574
186.7946, 515.5247
187.2767, 513.2928
187.7588, 510.9008
188.2409, 508.6932
188.7231, 507.0624
189.2052, 505.7517
189.6873, 503.4702
190.1694, 499.9643
190.6515, 496.6499
191.1336, 495.6930
191.6158, 496.9304
192.0979, 497.9968
192.5800, 497.7062
193.0621, 496.2953
193.5442, 495.3623
194.0263, 494.9948
194.5085, 494.8003
194.9906, 494.1617
195.4727, 493.0744
195.9548, 492.0469
196.4369, 491.2665
196.9190, 490.7275
197.4012, 490.4826
197.8833, 490.6190
198.3654, 490.8344
198.8475, 490.4246
199.3296, 489.2787
199.8117, 488.6341
200.2939, 489.4908
200.7760, 491.8815
201.2581, 492.8837
201.7402, 492.0857
202.2223, 490.5092
202.7044, 489.8781
203.1866, 490.2790
203.6687, 491.1769
204.1508, 492.4107
204.6329, 494.0034
205.1150, 495.8021
205.5971, 497.9792
206.0793, 500.1591
206.5614, 501.4351
207.0435, 501.5164
207.5256, 501.7982
208.0077, 503.0353
208.4898, 505.4253
208.9720, 507.5258
209.4541, 509.3226
209.9362, 510.8140
210.4183, 511.8816
210.9004, 512.3062
211.3825, 512.8983
211.8647, 514.0670
212.3468, 515.9346
212.8289, 517.8347
213.3110, 519.8855
213.7931, 521.8746
214.2752, 523.1509
214.7574, 523.3387
215.2395, 523.7469
215.7216, 525.2147
216.2037, 528.3137
216.6858, 530.1296
217.1679, 529.9033
217.6501, 528.8253
218.1322, 529.9017
218.6143, 534.1312
219.0964, 538.4777
219.5785, 541.5894
220.0606, 543.3781
220.5428, 544.2228
221.0249, 543.4773
221.5070, 542.1016
221.9891, 542.6279
222.4712, 546.2009
222.9533, 549.5472
223.4355, 551.0080
223.9176, 549.6842
224.3997, 549.1390
224.8818, 549.6332
225.3639, 550.7786
225.8460, 551.7500
226.3282, 552.6322
226.8103, 553.1851
227.2924, 553.2158
227.7745, 552.4149
228.2566, 551.9670
228.7387, 552.0732
229.2209, 552.4553
229.7030, 552.4040
230.1851, 551.5543
230.6672, 550.8764
231.1493, 550.8266
231.6314, 551.7227
232.1136, 552.4037
232.5957, 552.8364
233.0778, 553.0743
233.5599, 553.1585
234.0420, 552.7977
234.5241, 552.7467
235.0063, 553.3339
235.4884, 554.7281
235.9705, 556.2427
236.4526, 557.9664
236.9347, 559.7723
237.4168, 561.4998
237.8990, 563.5099
238.3811, 564.8304
238.8632, 564.7952
239.3453, 562.4570
239.8274, 561.6609
240.3095, 562.8931
240.7917, 565.4036
241.2738, 567.8807
241.7559, 570.5685
242.2380, 572.8233
242.7201, 574.2545
243.2022, 574.4412
243.6844, 575.3392
244.1665, 577.4752
244.6486, 580.0313
245.1307, 581.4991
245.6128, 581.1664
246.0949, 580.9531
246.5771, 581.6009
247.0592, 583.4965
247.5413, 584.6328
248.0234, 584.5112
248.5055, 583.9518
248.9876, 584.2803
249.4697, 585.9927
249.9519, 587.6788
250.4340, 588.9570
250.9161, 589.8041
251.3982, 590.3483
251.8803, 590.4875
252.3624, 590.4102
252.8446, 590.2974
253.3267, 589.8923
253.8088, 589.9871
254.2909, 590.9808
254.7730, 593.0663
255.2551, 594.5309
255.7373, 595.0073
256.2194, 595.2371
256.7015, 596.1224
257.1836, 597.8887
257.6657, 599.7979
258.1479, 601.6808
258.6300, 603.5056
259.1121, 605.3962
259.5942, 607.2917
260.0763, 609.3044
260.5584, 611.7189
261.0406, 614.8146
261.5227, 617.5352
262.0048, 619.6850
262.4869, 621.2520
262.9690, 622.2408
263.4511, 622.3825
263.9333, 622.3489
264.4154, 622.7344
264.8975, 623.5770
265.3796, 624.8251
265.8617, 626.7577
266.3438, 629.2297
266.8260, 630.6731
267.3081, 630.7177
267.7902, 630.4114
268.2723, 630.6683
268.7544, 631.6660
269.2365, 632.5319
269.7187, 632.9683
270.2008, 633.1586
270.6829, 634.1579
271.1650, 636.1320
271.6471, 638.5007
272.1292, 640.7508
272.6114, 642.7940
273.0935, 645.2034
273.5756, 648.1526
274.0577, 651.4286
274.5398, 654.1415
275.0219, 655.8981
275.5041, 658.2391
275.9862, 662.3230
276.4683, 668.3251
276.9504, 674.5694
277.4325, 681.1029
277.9146, 687.6067
278.3968, 693.0823
278.8788, 697.3018
279.3610, 701.6055
279.8431, 706.9658
280.3252, 713.4055
280.8073, 719.2267
281.2894, 724.1796
281.7715, 728.7634
282.2537, 734.2115
282.7358, 740.6915
283.2179, 746.4926
283.7000, 750.9756
284.1821, 754.1403
284.6642, 755.4238
285.1464, 754.4676
285.6285, 752.5095
286.1106, 751.6908
286.5927, 752.0078
287.0748, 751.4968
287.5569, 749.2057
288.0391, 745.2564
288.5212, 740.5245
289.0033, 734.8883
289.4854, 728.8693
289.9675, 723.1252
290.4496, 717.5998
290.9318, 711.9464
291.4139, 705.8564
291.8960, 699.5013
292.3781, 693.5157
292.8602, 687.8497
293.3423, 682.6115
293.8245, 678.4727
294.3066, 675.0297
294.7887, 670.2349
295.2708, 662.6738
295.7529, 653.8716
296.2350, 647.3584
296.7172, 643.1419
297.1993, 639.0891
297.6814, 633.0927
298.1635, 625.7554
298.6456, 618.9223
299.1277, 613.0655
299.6099, 607.7768
300.0920, 602.9101
300.5741, 598.3158
301.0562, 593.3680
301.5383, 587.2631
302.0204, 580.4877
302.5026, 574.0226
302.9847, 567.9753
303.4668, 562.3209
303.9489, 556.8614
304.4310, 551.7227
304.9131, 546.9709
305.3953, 542.8387
305.8774, 539.0881
306.3595, 535.4954
306.8416, 532.0443
307.3237, 528.6852
307.8058, 525.5978
308.2880, 522.6072
308.7701, 519.3425
309.2522, 515.2129
309.7343, 510.9224
310.2164, 507.1730
310.6985, 504.0351
311.1807, 501.0196
311.6628, 497.6294
312.1449, 494.1529
312.6270, 491.1305
313.1091, 489.1738
313.5912, 487.4196
314.0734, 485.2841
314.5555, 482.7612
315.0376, 480.2306
315.5197, 477.6844
316.0018, 475.2914
316.4839, 473.2904
316.9661, 471.9394
317.4482, 470.7837
317.9303, 469.7754
318.4124, 468.8598
318.8945, 467.6923
319.3766, 465.7740
319.8588, 463.7534
320.3409, 462.1258
320.8230, 461.2010
321.3051, 460.3769
321.7872, 459.3854
322.2693, 458.3513
322.7515, 457.6579
323.2336, 458.0132
323.7157, 458.2681
324.1978, 457.8807
324.6799, 456.7180
325.1620, 455.0622
325.6442, 452.1220
326.1263, 448.8210
326.6084, 446.7957
327.0905, 447.8028
327.5726, 448.6519
328.0547, 448.0399
328.5369, 444.9550
329.0190, 443.6671
329.5011, 445.7498
329.9832, 448.9896
330.4653, 450.9039
330.9474, 450.7120
331.4296, 450.1620
331.9117, 449.3941
332.3938, 448.3849
332.8759, 447.8351
333.3580, 447.9593
333.8401, 448.3406
334.3223, 448.6621
334.8044, 448.9390
335.2865, 449.1281
335.7686, 449.2160
336.2507, 449.2044
336.7328, 449.0496
337.2150, 448.5332
337.6971, 448.2408
338.1792, 448.6993
338.6613, 450.2711
339.1434, 451.0656
339.6255, 450.8257
340.1077, 449.8618
340.5898, 448.6433
341.0719, 446.9826
341.5540, 445.9321
342.0361, 446.2920
342.5182, 448.1402
343.0004, 449.2977
343.4825, 449.5750
343.9646, 449.6062
344.4467, 450.3593
344.9288, 451.8347
345.4109, 453.2677
345.8931, 454.4838
346.3752, 455.4441
346.8573, 455.7962
347.3394, 455.4820
347.8215, 455.0706
348.3036, 455.0877
348.7858, 455.4816
349.2679, 456.0299
349.7500, 456.7003
350.2321, 457.4560
350.7142, 458.3065
351.1964, 459.2225
351.6785, 459.9785
352.1606, 460.2484
352.6427, 460.2555
353.1248, 460.4189
353.6069, 460.7907
354.0891, 461.3902
354.5712, 462.2934
355.0533, 463.4522
355.5354, 464.7448
356.0175, 466.2451
356.4996, 467.7687
356.9818, 469.2677
357.4639, 470.7881
357.9460, 471.8239
358.4281, 471.5786
358.9102, 470.7094
359.3923, 470.1761
359.8745, 470.0190
360.3566, 470.5822
360.8387, 472.1727
361.3208, 474.7549
361.8029, 477.8428
362.2850, 482.3605
362.7672, 486.6939
363.2493, 489.4630
363.7314, 488.9280
364.2135, 488.4720
364.6956, 488.9709
365.1777, 490.3350
365.6599, 492.2959
366.1420, 495.5010
366.6241, 498.7536
367.1062, 501.4180
367.5883, 503.1675
368.0704, 504.9688
368.5526, 506.6693
369.0347, 508.5250
369.5168, 510.9580
369.9989, 514.4881
370.4810, 518.0609
370.9631, 521.2863
371.4453, 523.9972
371.9274, 527.7298
372.4095, 533.5875
372.8916, 539.4776
373.3737, 543.4364
373.8558, 543.8831
374.3380, 545.6233
374.8201, 549.7250
375.3022, 555.7179
375.7843, 560.8381
376.2664, 564.9763
376.7485, 568.6003
377.2307, 571.6337
377.7128, 573.7623
378.1949, 577.4520
378.6770, 583.0247
379.1591, 589.9280
379.6412, 597.2413
380.1234, 605.1098
380.6055, 612.6934
381.0876, 619.1252
381.5697, 624.7457
382.0518, 632.2662
382.5339, 641.7704
383.0161, 652.3460
383.4982, 662.8226
383.9803, 673.3997
384.4624, 684.6543
384.9445, 696.7947
385.4266, 709.6078
385.9088, 722.8990
386.3909, 736.6249
386.8730, 750.9047
387.3551, 765.8440
387.8372, 781.5010
388.3193, 798.1321
388.8015, 815.8558
389.2836, 834.3066
389.7657, 853.2248
390.2478, 872.6976
390.7299, 892.4813
391.2120, 912.4423
391.6942, 932.7556
392.1763, 953.1228
392.6584, 973.3060
393.1405, 994.7316
393.6226, 1019.055
394.1047, 1044.700
394.5869, 1069.666
395.0690, 1091.391
395.5511, 1114.296
396.0332, 1140.285
396.5153, 1168.975
396.9974, 1198.243
397.4796, 1227.367
397.9617, 1257.047
398.4438, 1287.648
398.9259, 1319.227
399.4080, 1351.701
399.8901, 1385.863
400.3723, 1420.942
400.8544, 1455.073
401.3365, 1489.097
401.8186, 1521.523
402.3007, 1552.345
402.7828, 1581.785
403.2649, 1607.693
403.7470, 1629.718
404.2292, 1648.652
404.7113, 1665.302
405.1934, 1680.688
405.6755, 1691.013
406.1576, 1695.173
406.6397, 1693.998
407.1219, 1690.810
407.6040, 1686.328
408.0861, 1676.950
408.5682, 1658.947
409.0503, 1632.746
409.5324, 1606.966
410.0146, 1582.175
410.4967, 1557.205
410.9788, 1529.967
411.4609, 1500.897
411.9430, 1471.784
412.4251, 1442.348
412.9073, 1413.929
413.3894, 1388.564
413.8715, 1366.123
414.3536, 1344.847
414.8357, 1322.752
415.3178, 1300.576
415.8000, 1280.191
416.2821, 1262.295
416.7642, 1245.255
417.2463, 1227.374
417.7284, 1208.947
418.2105, 1191.299
418.6927, 1174.581
419.1748, 1159.075
419.6569, 1144.985
420.1390, 1132.314
420.6211, 1120.365
421.1032, 1108.330
421.5854, 1096.778
422.0675, 1086.303
422.5496, 1077.631
423.0317, 1069.367
423.5138, 1060.591
423.9959, 1051.646
424.4781, 1044.154
424.9602, 1038.595
425.4423, 1034.544
425.9244, 1031.783
426.4065, 1030.233
426.8886, 1030.134
427.3708, 1032.451
427.8529, 1035.791
428.3350, 1037.842
428.8171, 1037.345
429.2992, 1037.857
429.7813, 1040.471
430.2635, 1045.106
430.7456, 1049.793
431.2277, 1054.583
431.7098, 1059.247
432.1919, 1063.955
432.6740, 1068.856
433.1562, 1071.817
433.6383, 1072.146
434.1204, 1071.050
434.6025, 1070.968
435.0846, 1071.875
435.5667, 1072.678
436.0489, 1073.154
436.5310, 1073.094
437.0131, 1071.493
437.4952, 1068.227
437.9773, 1064.942
438.4594, 1063.536
438.9416, 1063.286
439.4237, 1062.617
439.9058, 1060.749
440.3879, 1058.673
440.8700, 1057.464
441.3521, 1056.889
441.8343, 1056.111
442.3164, 1054.461
442.7985, 1052.570
443.2806, 1050.962
443.7627, 1049.812
444.2448, 1048.512
444.7270, 1047.658
445.2091, 1046.225
445.6912, 1042.997
446.1733, 1036.145
446.6554, 1028.991
447.1375, 1022.949
447.6197, 1017.775
448.1018, 1010.783
448.5839, 1000.687
449.0660, 989.6862
449.5481, 978.8881
450.0302, 968.3940
450.5124, 957.7421
450.9945, 947.0386
451.4766, 936.2355
451.9587, 925.2472
452.4408, 913.8080
452.9229, 902.8093
453.4051, 892.3438
453.8872, 882.4615
454.3693, 872.7750
454.8514, 863.2320
455.3335, 853.9933
455.8156, 845.0255
456.2978, 836.3666
456.7799, 828.0336
457.2620, 819.8757
457.7441, 812.2017
458.2262, 805.5934
458.7083, 799.8822
459.1905, 794.0367
459.6726, 787.6827
460.1547, 780.8779
460.6368, 773.4660
461.1189, 765.4222
461.6010, 757.6911
462.0832, 751.2105
462.5653, 745.2750
463.0474, 739.2016
463.5295, 732.7001
464.0116, 726.0996
464.4937, 719.3459
464.9759, 712.6435
465.4580, 706.6127
465.9401, 702.0033
466.4222, 697.6234
466.9043, 692.8764
467.3864, 687.5807
467.8686, 683.0589
468.3507, 679.9588
468.8328, 677.3685
469.3149, 674.6335
469.7970, 671.5851
470.2791, 668.6699
470.7613, 666.0649
471.2434, 663.5730
471.7255, 660.5214
472.2076, 656.4479
472.6897, 652.9489
473.1718, 650.7238
473.6540, 649.7835
474.1361, 648.7433
474.6182, 647.5704
475.1003, 646.4323
475.5824, 645.4906
476.0645, 644.7425
476.5467, 644.1754
477.0288, 643.8578
477.5109, 643.6053
477.9930, 643.2102
478.4751, 642.6491
478.9572, 641.7994
479.4394, 639.5312
479.9215, 637.4251
480.4036, 638.1214
480.8857, 641.7988
481.3678, 645.1281
481.8499, 646.0591
482.3321, 645.3184
482.8142, 643.6649
483.2963, 640.6251
483.7784, 637.5807
484.2605, 635.6461
484.7426, 634.1520
485.2248, 631.4404
485.7069, 626.2686
486.1890, 620.6397
486.6711, 615.2635
487.1532, 610.2786
487.6353, 604.9905
488.1175, 599.0325
488.5996, 593.2206
489.0817, 588.3375
489.5638, 585.0272
490.0459, 581.1487
490.5280, 576.3107
491.0102, 570.9088
491.4923, 565.8029
491.9744, 560.9842
492.4565, 556.3155
492.9386, 551.5431
493.4207, 546.7368
493.9029, 542.5215
494.3850, 538.8665
494.8671, 535.7507
495.3492, 533.5266
495.8313, 531.8165
496.3134, 529.3769
496.7956, 525.6406
497.2777, 521.8464
497.7598, 519.5792
498.2419, 518.3706
498.7240, 517.1042
499.2061, 514.7167
499.6883, 512.4397
500.1704, 511.4713
500.6525, 511.8119
501.1346, 511.6831
501.6167, 509.5434
502.0988, 507.1624
502.5810, 505.8988
503.0631, 507.1955
503.5452, 507.6916
504.0273, 506.2589
504.5094, 503.9034
504.9915, 502.4143
505.4737, 502.4243
505.9558, 502.3343
506.4379, 501.6154
506.9200, 500.3311
507.4021, 499.7939
507.8842, 500.2928
508.3664, 500.8412
508.8485, 500.5944
509.3306, 499.5239
509.8127, 499.0356
510.2948, 499.3088
510.7769, 499.9311
511.2591, 500.4552
511.7412, 500.8531
512.2233, 500.9416
512.7054, 500.4492
513.1875, 499.7875
513.6696, 499.5656
514.1517, 499.7353
514.6339, 500.0215
515.1160, 500.5240
515.5981, 500.9099
516.0802, 500.7059
516.5623, 499.6801
517.0444, 499.0199
517.5266, 499.5038
518.0087, 500.5540
518.4908, 501.5399
518.9729, 502.4651
519.4550, 503.1553
519.9371, 503.5459
520.4193, 503.6613
520.9014, 503.5665
521.3835, 502.6047
521.8656, 502.2899
522.3477, 503.3893
522.8298, 506.1633
523.3120, 508.2059
523.7941, 509.2860
524.2762, 510.0280
524.7583, 510.9220
525.2404, 511.9686
525.7225, 513.2524
526.2047, 514.7695
526.6868, 516.5685
527.1689, 518.6937
527.6510, 521.1553
528.1331, 524.0604
528.6152, 528.0505
529.0974, 532.2476
529.5795, 535.2248
530.0616, 537.0916
530.5437, 539.0636
531.0258, 542.1226
531.5079, 545.5985
531.9901, 548.8050
532.4722, 551.2761
532.9543, 554.4477
533.4364, 559.0227
533.9185, 564.5988
534.4006, 570.7182
534.8828, 577.8320
535.3649, 584.8571
535.8470, 591.3222
536.3291, 597.4304
536.8112, 603.8489
537.2933, 610.5367
537.7755, 617.5736
538.2576, 624.9322
538.7397, 632.6913
539.2218, 640.5786
539.7039, 648.3707
540.1860, 656.6077
540.6682, 666.0624
541.1503, 676.5540
541.6324, 686.6003
542.1145, 695.8141
542.5966, 704.4644
543.0787, 712.7891
543.5609, 720.8707
544.0430, 729.0059
544.5251, 737.5109
545.0072, 746.0584
545.4893, 754.6310
545.9714, 763.1194
546.4536, 770.2551
546.9357, 773.6370
547.4178, 776.4781
547.8999, 781.3701
548.3820, 789.7655
548.8641, 797.8228
549.3463, 805.2561
549.8284, 811.7372
550.3105, 816.8058
550.7926, 819.3285
551.2747, 822.2302
551.7568, 826.7794
552.2390, 832.0505
552.7211, 834.0540
553.2032, 832.2743
553.6853, 828.8438
554.1674, 824.1733
554.6495, 818.4232
555.1317, 814.2196
555.6138, 811.8315
556.0959, 809.5436
556.5780, 805.1736
557.0601, 799.6317
557.5422, 795.5953
558.0244, 794.0436
558.5065, 792.8788
558.9886, 789.9428
559.4707, 785.8412
559.9528, 781.8578
560.4349, 778.8651
560.9171, 775.7830
561.3992, 772.0709
561.8813, 767.7281
562.3634, 763.0459
562.8455, 758.4469
563.3276, 753.1849
563.8098, 746.6706
564.2919, 738.5456
564.7740, 730.5548
565.2561, 722.4957
565.7382, 714.7612
566.2203, 707.6789
566.7025, 701.3133
567.1846, 695.2452
567.6667, 689.5447
568.1488, 683.7823
568.6309, 677.0112
569.1130, 669.2253
569.5952, 661.4951
570.0773, 654.0505
570.5594, 647.0485
571.0415, 640.6317
571.5236, 634.7286
572.0057, 628.9140
572.4879, 622.3198
572.9700, 615.9012
573.4521, 610.7652
573.9342, 607.1951
574.4163, 603.8943
574.8984, 599.8043
575.3806, 595.8969
575.8627, 593.1149
576.3448, 592.5393
576.8269, 592.0541
577.3090, 591.1042
577.7911, 590.1061
578.2733, 590.0310
578.7554, 591.0591
579.2375, 592.6360
579.7196, 594.5647
580.2017, 596.8889
580.6838, 599.7850
581.1660, 603.1801
581.6481, 607.4872
582.1302, 613.4369
582.6123, 620.6343
583.0944, 627.0068
583.5765, 632.2735
584.0587, 638.0273
