##NAMES=Whitmoreite
##RRUFFID=R110175
##IDEAL CHEMISTRY=Fe^2+^Fe^3+^_2_(PO_4_)_2_(OH)_2_&#183;4H_2_O
##LOCALITY=Palermo #1 mine, North Groton, Grafton County, New Hampshire, USA
##OWNER=RRUFF
##SOURCE=Donald Doell
##DESCRIPTION=Radial sprays of brown prismatic crystals associated with jahnsite, childrenite, and quartz
##STATUS=The identification of this mineral has been confirmed by single-crystal X-ray diffraction.
##URL=rruff.info/R110175
186.4334, 316.3240
186.9155, 318.7498
187.3976, 321.5668
187.8798, 323.0327
188.3619, 322.8416
188.8440, 322.2413
189.3261, 323.1407
189.8082, 325.4274
190.2903, 327.5822
190.7725, 329.1238
191.2546, 329.9992
191.7367, 329.3951
192.2188, 326.8636
192.7009, 323.9353
193.1830, 323.4756
193.6652, 325.4862
194.1473, 327.5938
194.6294, 328.2030
195.1115, 327.4846
195.5936, 327.7966
196.0757, 329.5309
196.5579, 331.8871
197.0400, 333.3517
197.5221, 333.8772
198.0042, 334.0751
198.4863, 333.9691
198.9684, 333.5450
199.4506, 334.2264
199.9327, 336.4042
200.4148, 339.3405
200.8969, 341.5253
201.3790, 342.9731
201.8611, 343.7508
202.3433, 343.8858
202.8254, 343.3779
203.3075, 342.1142
203.7896, 339.6590
204.2717, 336.8244
204.7538, 335.9598
205.2360, 337.5004
205.7181, 339.3577
206.2002, 340.1192
206.6823, 339.4994
207.1644, 339.7291
207.6465, 341.3897
208.1287, 343.7788
208.6108, 344.6951
209.0929, 343.7178
209.5750, 342.4270
210.0571, 341.8506
210.5392, 342.1871
211.0214, 342.1954
211.5035, 341.4497
211.9856, 340.4119
212.4677, 340.9932
212.9498, 344.0587
213.4319, 346.8352
213.9140, 347.3658
214.3962, 344.7968
214.8783, 343.1342
215.3604, 343.0525
215.8425, 344.0851
216.3246, 344.2874
216.8067, 343.2814
217.2889, 342.1747
217.7710, 341.7031
218.2531, 342.1673
218.7352, 342.3629
219.2173, 342.2027
219.6994, 341.6849
220.1816, 340.6506
220.6637, 338.4205
221.1458, 336.7875
221.6279, 337.2101
222.1100, 340.9720
222.5921, 343.3491
223.0743, 343.6430
223.5564, 342.2618
224.0385, 341.0545
224.5206, 340.0459
225.0027, 339.2233
225.4848, 338.5041
225.9670, 337.6017
226.4491, 337.6133
226.9312, 339.1665
227.4133, 341.7554
227.8954, 342.8624
228.3775, 341.6856
228.8597, 340.1772
229.3418, 339.5979
229.8239, 340.5584
230.3060, 340.9599
230.7881, 340.2127
231.2702, 338.7261
231.7524, 338.6424
232.2345, 340.8843
232.7166, 343.1984
233.1987, 344.1479
233.6808, 342.8859
234.1629, 342.1328
234.6451, 342.2465
235.1272, 343.0021
235.6093, 343.4570
236.0914, 343.6684
236.5735, 343.5044
237.0556, 342.7350
237.5378, 340.5944
238.0199, 339.5539
238.5020, 339.9909
238.9841, 341.6355
239.4662, 343.5034
239.9483, 346.2256
240.4305, 348.3373
240.9126, 348.9015
241.3947, 346.8094
241.8768, 345.6561
242.3589, 345.8849
242.8410, 347.1428
243.3232, 348.2465
243.8053, 349.3183
244.2874, 350.0529
244.7695, 350.1722
245.2516, 349.0783
245.7337, 348.6906
246.2159, 349.1721
246.6980, 350.3759
247.1801, 351.9110
247.6622, 354.1583
248.1443, 356.1704
248.6264, 357.3910
249.1086, 357.3129
249.5907, 357.7110
250.0728, 358.8925
250.5549, 360.4917
251.0370, 361.5081
251.5191, 361.7108
252.0013, 361.7130
252.4834, 361.7368
252.9655, 361.6757
253.4476, 361.9863
253.9297, 362.9882
254.4118, 364.2252
254.8940, 364.6410
255.3761, 363.8861
255.8582, 362.9205
256.3403, 362.0481
256.8224, 361.1211
257.3046, 360.8337
257.7867, 361.5605
258.2688, 362.6786
258.7509, 362.9337
259.2330, 362.0088
259.7151, 360.8487
260.1973, 359.7198
260.6794, 358.5678
261.1615, 357.8629
261.6436, 357.9770
262.1257, 358.2307
262.6078, 357.2527
263.0900, 354.3213
263.5721, 351.9444
264.0542, 351.3028
264.5363, 352.8253
265.0184, 353.1256
265.5005, 351.8131
265.9827, 349.7688
266.4648, 348.2018
266.9469, 347.2240
267.4290, 346.4430
267.9111, 345.7923
268.3932, 345.2891
268.8754, 344.6718
269.3575, 344.0493
269.8396, 343.1345
270.3217, 341.3735
270.8038, 338.4396
271.2859, 335.9147
271.7681, 334.2655
272.2502, 333.4720
272.7323, 333.1544
273.2144, 333.6670
273.6965, 333.9403
274.1786, 332.6920
274.6608, 329.6624
275.1429, 326.4087
275.6250, 323.0936
276.1071, 319.8300
276.5892, 317.3359
277.0714, 315.6501
277.5535, 314.7411
278.0356, 315.1057
278.5177, 316.9859
278.9998, 317.5116
279.4819, 315.6621
279.9641, 312.0949
280.4462, 309.9204
280.9283, 309.4300
281.4104, 309.0486
281.8925, 307.4334
282.3746, 304.5724
282.8568, 301.4852
283.3389, 298.0975
283.8210, 294.7889
284.3031, 292.8691
284.7852, 292.4894
285.2673, 292.2247
285.7495, 291.0606
286.2316, 289.0566
286.7137, 286.9197
287.1958, 284.7412
287.6779, 282.4764
288.1600, 279.8094
288.6422, 276.7241
289.1243, 274.0556
289.6064, 272.8279
290.0885, 272.6601
290.5706, 271.4256
291.0527, 268.6100
291.5349, 265.4474
292.0170, 264.1159
292.4991, 264.4758
292.9812, 264.8750
293.4633, 264.4300
293.9454, 263.3187
294.4276, 262.0139
294.9097, 260.5016
295.3918, 259.0326
295.8739, 258.1276
296.3560, 257.6412
296.8381, 256.8342
297.3203, 255.1192
297.8024, 252.9017
298.2845, 250.9621
298.7666, 249.3154
299.2487, 247.8861
299.7308, 246.8068
300.2130, 245.8954
300.6951, 244.6364
301.1772, 242.3017
301.6593, 239.7617
302.1414, 238.3373
302.6235, 238.0217
303.1057, 238.0477
303.5878, 237.9081
304.0699, 237.6532
304.5520, 237.3806
305.0341, 237.1526
305.5162, 236.8955
305.9984, 236.7460
306.4805, 236.6204
306.9626, 235.9271
307.4447, 233.4685
307.9268, 230.4474
308.4089, 228.5554
308.8911, 228.7982
309.3732, 229.3939
309.8553, 228.9462
310.3374, 227.6670
310.8195, 226.2531
311.3016, 224.6747
311.7838, 223.3733
312.2659, 222.8443
312.7480, 223.5018
313.2301, 224.1825
313.7122, 224.3728
314.1943, 224.0878
314.6765, 223.3522
315.1586, 221.0212
315.6407, 219.0555
316.1228, 219.0882
316.6049, 221.9305
317.0870, 224.1663
317.5692, 223.5082
318.0513, 221.4922
318.5334, 220.2667
319.0155, 221.6173
319.4976, 222.9683
319.9797, 222.9847
320.4619, 221.4447
320.9440, 220.2697
321.4261, 220.3516
321.9082, 220.9300
322.3903, 221.2859
322.8724, 221.5011
323.3546, 221.2380
323.8367, 219.8961
324.3188, 217.5558
324.8009, 216.3196
325.2830, 217.4331
325.7651, 219.2074
326.2473, 220.5506
326.7294, 220.9634
327.2115, 221.4122
327.6936, 222.1380
328.1757, 223.0299
328.6578, 223.5440
329.1400, 223.0036
329.6221, 222.6565
330.1042, 223.1301
330.5863, 225.9043
331.0684, 226.9851
331.5505, 224.9916
332.0327, 221.5515
332.5148, 220.3968
332.9969, 223.2087
333.4790, 226.0590
333.9611, 227.7259
334.4432, 228.0823
334.9254, 227.5823
335.4075, 225.5473
335.8896, 223.2221
336.3717, 222.4787
336.8538, 224.0152
337.3359, 225.4434
337.8180, 225.9946
338.3001, 225.6895
338.7823, 226.0421
339.2644, 227.2729
339.7465, 228.7276
340.2286, 229.8281
340.7107, 230.5625
341.1928, 231.0179
341.6750, 231.2879
342.1571, 231.2702
342.6392, 230.2267
343.1213, 227.8978
343.6034, 225.8880
344.0855, 225.6973
344.5677, 227.2332
345.0498, 228.1077
345.5319, 227.9472
346.0140, 227.1425
346.4961, 226.3403
346.9782, 225.5442
347.4604, 224.7689
347.9425, 223.8372
348.4246, 222.9058
348.9067, 222.7723
349.3888, 223.6264
349.8709, 224.5412
350.3531, 224.3331
350.8352, 223.2094
351.3173, 221.9446
351.7994, 220.8454
352.2815, 219.8096
352.7636, 218.6433
353.2458, 217.3442
353.7279, 216.0215
354.2100, 214.6923
354.6921, 213.4101
355.1742, 212.2887
355.6563, 211.4855
356.1385, 210.7056
356.6206, 209.5462
357.1027, 208.0984
357.5848, 206.8501
358.0669, 206.4267
358.5490, 206.1620
359.0312, 205.3851
359.5133, 203.7826
359.9954, 202.0557
360.4775, 200.0827
360.9596, 198.2750
361.4417, 197.5259
361.9239, 199.5953
362.4060, 201.7345
362.8881, 202.3020
363.3702, 200.8612
363.8523, 199.2939
364.3344, 198.2287
364.8166, 197.3536
365.2987, 196.3040
365.7808, 194.7933
366.2629, 193.3303
366.7450, 191.9817
367.2271, 190.7533
367.7093, 189.8199
368.1914, 189.9034
368.6735, 189.8450
369.1556, 188.8704
369.6377, 185.4691
370.1198, 183.0346
370.6020, 181.8618
371.0841, 181.7671
371.5662, 182.1941
372.0483, 184.0841
372.5304, 185.3377
373.0125, 184.8413
373.4947, 181.5368
373.9768, 179.6025
374.4589, 179.5943
374.9410, 180.4885
375.4231, 180.5567
375.9052, 179.3814
376.3874, 178.5742
376.8695, 178.7472
377.3516, 179.8773
377.8337, 180.7185
378.3158, 181.2982
378.7979, 181.5677
379.2801, 181.4916
379.7622, 181.0723
380.2443, 180.1840
380.7264, 178.5347
381.2085, 176.6114
381.6906, 175.7629
382.1728, 176.0008
382.6549, 176.6249
383.1370, 177.4613
383.6191, 178.3503
384.1012, 178.4337
384.5833, 177.3971
385.0655, 176.3159
385.5476, 176.8786
386.0297, 178.6941
386.5118, 180.3203
386.9939, 180.8301
387.4760, 180.8448
387.9582, 181.4063
388.4403, 182.5482
388.9224, 183.4577
389.4045, 182.9890
389.8866, 181.9972
390.3687, 181.7215
390.8509, 183.1170
391.3330, 184.7691
391.8151, 185.8149
392.2972, 186.3089
392.7793, 186.4952
393.2614, 186.2342
393.7436, 185.8768
394.2257, 185.5521
394.7078, 184.9893
395.1899, 185.1995
395.6720, 187.3476
396.1541, 190.3529
396.6363, 192.4790
397.1184, 192.1020
397.6005, 191.8963
398.0826, 192.9309
398.5647, 195.4383
399.0468, 197.6182
399.5290, 199.4158
400.0111, 200.7507
400.4932, 201.5479
400.9753, 201.1461
401.4574, 201.0811
401.9395, 201.2867
402.4217, 201.8875
402.9038, 203.6145
403.3859, 207.3165
403.8680, 210.9018
404.3501, 213.3291
404.8322, 214.2654
405.3144, 215.0942
405.7965, 215.7199
406.2786, 216.3393
406.7607, 217.2962
407.2428, 218.6448
407.7249, 220.0552
408.2071, 221.5222
408.6892, 222.9760
409.1713, 223.7665
409.6534, 223.7800
410.1355, 223.8047
410.6176, 224.8740
411.0998, 226.7326
411.5819, 227.7790
412.0640, 227.4856
412.5461, 226.6085
413.0282, 226.2829
413.5103, 226.4611
413.9925, 226.8468
414.4746, 227.4218
414.9567, 228.0463
415.4388, 228.6128
415.9209, 229.1618
416.4030, 229.2507
416.8852, 228.1432
417.3673, 226.3915
417.8494, 224.8952
418.3315, 224.0695
418.8136, 223.5463
419.2957, 223.0922
419.7779, 222.7276
420.2600, 222.5548
420.7421, 223.0900
421.2242, 223.5565
421.7063, 223.3158
422.1884, 221.7684
422.6706, 220.4406
423.1527, 219.9312
423.6348, 219.8581
424.1169, 219.4980
424.5990, 217.7336
425.0811, 216.6268
425.5633, 217.2349
426.0454, 219.9832
426.5275, 221.3533
427.0096, 220.0878
427.4917, 218.4437
427.9738, 218.4794
428.4560, 221.7571
428.9381, 223.3554
429.4202, 222.1627
429.9023, 219.0275
430.3844, 216.6609
430.8665, 215.0593
431.3487, 214.2892
431.8308, 214.6849
432.3129, 216.3268
432.7950, 217.4238
433.2771, 217.8967
433.7592, 217.9814
434.2414, 217.8320
434.7235, 217.4847
435.2056, 217.3713
435.6877, 217.6917
436.1698, 218.2886
436.6519, 218.9434
437.1341, 219.6423
437.6162, 220.1421
438.0983, 220.0002
438.5804, 219.6062
439.0625, 219.7154
439.5446, 220.5883
440.0268, 221.5126
440.5089, 221.8132
440.9910, 221.6975
441.4731, 221.5875
441.9552, 221.7199
442.4373, 221.8798
442.9195, 221.6883
443.4016, 221.1678
443.8837, 221.3292
444.3658, 222.9883
444.8479, 225.2765
445.3300, 227.5040
445.8122, 229.6669
446.2943, 231.6074
446.7764, 233.1033
447.2585, 234.3580
447.7406, 235.8956
448.2227, 238.5469
448.7049, 240.6773
449.1870, 241.4410
449.6691, 240.3122
450.1512, 241.0458
450.6333, 244.5054
451.1154, 248.8759
451.5976, 252.4740
452.0797, 255.0773
452.5618, 257.5244
453.0439, 259.8496
453.5260, 262.1435
454.0081, 264.8242
454.4903, 267.9260
454.9724, 271.2768
455.4545, 275.0993
455.9366, 279.2185
456.4187, 282.4596
456.9008, 284.6270
457.3830, 286.6422
457.8651, 289.3021
458.3472, 292.6190
458.8293, 296.5466
459.3114, 301.3088
459.7935, 306.4596
460.2757, 311.8552
460.7578, 317.3315
461.2399, 322.2003
461.7220, 325.4199
462.2041, 328.1756
462.6862, 331.5865
463.1684, 335.9136
463.6505, 340.4067
464.1326, 344.8469
464.6147, 349.1295
465.0968, 353.1932
465.5789, 356.3361
466.0611, 359.8429
466.5432, 364.3970
467.0253, 369.8744
467.5074, 374.9693
467.9895, 378.7858
468.4716, 382.8051
468.9538, 387.7954
469.4359, 394.4830
469.9180, 400.3798
470.4001, 405.1395
470.8822, 409.3979
471.3643, 414.1958
471.8465, 419.7881
472.3286, 425.1969
472.8107, 430.3504
473.2928, 435.0846
473.7749, 438.5253
474.2570, 440.3817
474.7392, 442.3653
475.2213, 445.9824
475.7034, 450.9794
476.1855, 455.6476
476.6676, 459.8086
477.1497, 463.6469
477.6319, 467.1993
478.1140, 470.5742
478.5961, 474.0738
479.0782, 478.4472
479.5603, 482.6387
480.0424, 484.9554
480.5246, 485.6547
481.0067, 486.7436
481.4888, 490.4665
481.9709, 494.5924
482.4530, 497.0376
482.9352, 496.9073
483.4173, 496.3072
483.8994, 495.9864
484.3815, 495.7256
484.8636, 495.1967
485.3457, 494.4423
485.8279, 493.2936
486.3100, 491.5009
486.7921, 489.0617
487.2742, 487.0452
487.7563, 486.2514
488.2384, 485.0613
488.7206, 482.4384
489.2027, 477.5909
489.6848, 473.5917
490.1669, 470.8696
490.6490, 468.5904
491.1311, 465.4729
491.6133, 461.5444
492.0954, 456.7014
492.5775, 450.3971
493.0596, 443.2804
493.5417, 437.9635
494.0238, 434.4872
494.5060, 431.1070
494.9881, 426.4984
495.4702, 421.0138
495.9523, 415.4593
496.4344, 410.0247
496.9165, 404.2389
497.3987, 397.0510
497.8808, 389.2035
498.3629, 382.2402
498.8450, 377.6284
499.3271, 373.3981
499.8092, 368.3363
500.2914, 362.5186
500.7735, 356.8191
501.2556, 351.2835
501.7377, 346.0634
502.2198, 341.3357
502.7019, 337.3520
503.1841, 333.1326
503.6662, 328.5187
504.1483, 323.6103
504.6304, 318.5479
505.1125, 313.1180
505.5946, 308.0013
506.0768, 303.3859
506.5589, 299.1535
507.0410, 294.5011
507.5231, 289.1494
508.0052, 284.1692
508.4873, 280.3586
508.9695, 277.7789
509.4516, 274.2104
509.9337, 269.4834
510.4158, 264.4109
510.8979, 259.5991
511.3800, 255.1282
511.8622, 251.6939
512.3443, 249.9348
512.8264, 248.6085
513.3085, 245.7642
513.7906, 241.8204
514.2728, 238.2752
514.7549, 236.5011
515.2370, 235.1494
515.7191, 233.0007
516.2012, 229.9166
516.6833, 226.8396
517.1655, 224.0829
517.6476, 221.5672
518.1297, 219.2233
518.6118, 216.9368
519.0939, 214.9474
519.5760, 213.5333
520.0582, 212.4397
520.5403, 211.0040
521.0224, 208.9752
521.5045, 206.9593
521.9866, 204.9692
522.4688, 202.9998
522.9509, 201.9792
523.4330, 202.2623
523.9151, 202.6461
524.3972, 201.9407
524.8793, 200.1084
525.3615, 199.3719
525.8436, 200.1994
526.3257, 201.4008
526.8078, 201.0508
527.2899, 199.4380
527.7720, 197.9114
528.2542, 196.8332
528.7363, 196.2749
529.2184, 196.7132
529.7005, 197.9295
530.1826, 198.7554
530.6647, 198.0147
531.1469, 196.8507
531.6290, 196.2768
532.1111, 196.5489
532.5932, 196.8676
533.0753, 197.2325
533.5574, 197.3543
534.0396, 196.9272
534.5217, 194.5382
535.0038, 193.2046
535.4859, 193.9860
535.9680, 196.1561
536.4501, 197.3796
536.9323, 197.0349
537.4144, 196.8064
537.8965, 197.4223
538.3786, 198.9098
538.8607, 199.7607
539.3428, 199.7681
539.8250, 199.7482
540.3071, 200.4887
540.7892, 201.9136
541.2713, 203.5388
541.7534, 205.4238
542.2355, 207.0887
542.7177, 207.4561
543.1998, 206.9682
543.6819, 207.0260
544.1640, 208.5439
544.6461, 210.7024
545.1282, 213.2439
545.6104, 215.9705
546.0925, 217.7570
546.5746, 217.1585
547.0567, 216.0276
547.5388, 215.4849
548.0209, 215.6318
548.5031, 216.5964
548.9852, 219.5535
549.4673, 222.8013
549.9494, 224.5156
550.4315, 223.5849
550.9136, 222.8367
551.3958, 222.7493
551.8779, 222.9778
552.3600, 222.2754
552.8421, 220.1754
553.3242, 218.7898
553.8063, 219.4724
554.2885, 221.8261
554.7706, 222.5087
555.2527, 221.4017
555.7348, 219.8887
556.2169, 219.2375
556.6990, 219.1181
557.1812, 218.6236
557.6633, 217.5505
558.1454, 216.3333
558.6275, 215.5717
559.1096, 214.9382
559.5917, 213.8348
560.0739, 210.9130
560.5560, 208.5284
561.0381, 208.2920
561.5202, 209.7407
562.0023, 210.7910
562.4844, 210.9788
562.9666, 210.5983
563.4487, 209.5642
563.9308, 207.6344
564.4129, 206.3416
564.8950, 205.8762
565.3771, 205.8366
565.8593, 205.9246
566.3414, 206.1613
566.8235, 206.4853
567.3056, 207.0098
567.7877, 207.4402
568.2698, 206.9674
568.7520, 205.6677
569.2341, 204.9228
569.7162, 205.6797
570.1983, 207.0296
570.6804, 207.3135
571.1625, 206.6260
571.6447, 205.6338
572.1268, 204.4707
572.6089, 203.3899
573.0910, 202.7189
573.5731, 202.5390
574.0552, 202.3613
574.5374, 201.7721
575.0195, 201.1702
575.5016, 200.9249
575.9837, 202.0237
576.4658, 202.3329
576.9479, 201.2642
577.4301, 199.3742
577.9122, 197.7332
578.3943, 196.4267
578.8764, 195.1653
579.3585, 193.9317
579.8406, 192.6849
580.3228, 191.0276
580.8049, 188.8694
581.2870, 186.8922
581.7691, 185.6248
582.2512, 184.9280
582.7333, 184.3895
583.2155, 184.0485
583.6975, 183.2440
584.1796, 181.2428
584.6617, 178.3683
585.1439, 175.0758
585.6260, 171.2019
586.1081, 167.4692
586.5902, 163.9325
587.0723, 160.8781
587.5544, 158.9098
588.0366, 159.3725
588.5187, 159.6937
589.0008, 158.9695
589.4829, 157.2222
589.9650, 155.5521
590.4471, 154.0187
590.9293, 152.4693
591.4114, 150.8306
591.8935, 149.0689
592.3756, 147.3834
592.8577, 145.7643
593.3398, 144.2355
593.8220, 143.0254
594.3041, 142.0255
594.7862, 140.1761
595.2683, 136.9428
595.7504, 133.7065
596.2325, 132.7803
596.7147, 133.2934
597.1968, 132.9979
597.6789, 129.9804
598.1610, 126.5644
598.6431, 124.3189
599.1252, 123.1168
599.6074, 122.2562
600.0895, 121.7541
600.5716, 121.2917
601.0537, 120.6773
601.5358, 119.8330
602.0179, 119.1916
602.5001, 118.8748
602.9822, 118.6435
603.4643, 118.3736
603.9464, 118.1409
604.4285, 117.5217
604.9106, 116.3875
605.3928, 115.0396
605.8749, 113.8431
606.3570, 112.8002
606.8391, 111.9926
607.3212, 111.4377
607.8033, 111.1371
608.2855, 111.2336
608.7676, 111.6207
609.2497, 111.9114
609.7318, 111.9181
610.2139, 111.7196
610.6960, 111.3091
611.1782, 110.6969
611.6603, 110.1201
612.1424, 109.3821
612.6245, 108.9028
613.1066, 109.0324
613.5887, 110.3319
614.0709, 110.9620
614.5530, 110.5077
615.0351, 109.7660
615.5172, 109.7447
615.9993, 110.8052
616.4814, 110.8072
616.9636, 109.0961
617.4457, 106.7144
617.9278, 105.6608
618.4099, 105.8468
618.8920, 106.3323
619.3741, 107.0288
619.8563, 107.5803
620.3384, 107.2344
620.8205, 106.1655
621.3026, 105.2493
621.7847, 105.0230
622.2668, 105.1166
622.7490, 105.3497
623.2311, 105.7272
623.7132, 105.9506
624.1953, 105.7055
624.6774, 105.4431
625.1595, 105.5342
625.6417, 106.6497
626.1238, 106.7239
626.6059, 105.1882
627.0880, 103.2390
627.5701, 102.6899
628.0522, 103.7493
628.5344, 104.1202
629.0165, 103.1071
629.4986, 101.4691
629.9807, 100.4884
630.4628, 100.1495
630.9449, 100.3787
631.4271, 101.9155
631.9092, 103.4947
632.3913, 103.2078
632.8734, 101.4231
633.3555, 100.4907
633.8376, 103.3848
634.3198, 106.0730
634.8019, 105.5506
635.2840, 100.5740
635.7661, 97.47958
636.2482, 98.01775
636.7303, 99.68320
637.2125, 100.9092
637.6946, 101.7478
638.1767, 101.9150
638.6588, 101.1999
639.1409, 100.1652
639.6230, 99.70271
640.1052, 99.76075
640.5873, 99.49880
641.0694, 98.50032
641.5515, 97.44340
642.0336, 97.62852
642.5157, 98.65046
642.9979, 99.32811
643.4800, 98.68941
643.9621, 97.81710
644.4442, 97.42900
644.9263, 97.47955
645.4084, 97.62897
645.8906, 98.12391
646.3727, 98.38381
646.8548, 97.89744
647.3369, 96.44935
647.8190, 96.02898
648.3011, 97.22949
648.7833, 98.57449
649.2654, 98.90171
649.7475, 98.12393
650.2296, 97.41458
650.7117, 96.84093
651.1938, 96.32958
651.6760, 95.49039
652.1581, 94.61297
652.6402, 94.81862
653.1223, 97.01586
653.6044, 99.07044
654.0865, 98.59719
654.5687, 96.67141
655.0508, 95.36761
655.5329, 96.19624
656.0150, 97.01164
656.4971, 96.99909
656.9792, 96.27779
657.4614, 95.55148
657.9435, 94.79142
658.4256, 94.11435
658.9077, 93.53117
659.3898, 93.04691
659.8719, 92.78845
660.3541, 92.75712
660.8362, 92.94273
661.3183, 93.50771
661.8004, 94.30482
662.2825, 94.75109
662.7646, 94.80354
663.2468, 94.70768
663.7289, 94.50344
664.2110, 94.35108
664.6931, 94.53602
665.1752, 95.34449
665.6573, 95.89790
666.1395, 95.61373
666.6216, 94.94197
667.1037, 94.43587
667.5858, 94.70357
668.0679, 94.39701
668.5500, 92.89114
669.0322, 90.98689
669.5143, 90.64001
669.9964, 92.19519
670.4785, 93.60946
670.9606, 94.27308
671.4427, 94.36626
671.9249, 94.26080
672.4070, 93.98392
672.8891, 93.76173
673.3712, 93.90527
673.8533, 94.07127
674.3354, 93.84437
674.8176, 93.23721
675.2997, 92.50065
675.7818, 91.45273
676.2639, 90.55755
676.7460, 90.12222
677.2281, 90.27480
677.7103, 90.59746
678.1924, 91.41021
678.6745, 92.04092
679.1566, 91.93282
679.6387, 90.90677
680.1208, 89.91340
680.6030, 88.89297
681.0851, 88.17026
681.5672, 88.37387
682.0493, 89.27035
