##NAMES=Whitlockite
##RRUFFID=R070675
##IDEAL CHEMISTRY=Ca_9_Mg(PO_4_)_6_(PO_3_OH)
##LOCALITY=Palermo mine, North Groton, New Hampshire, USA
##OWNER=RRUFF
##SOURCE=Rock Currier
##DESCRIPTION=Colorless blocky modified rhombic crystals
##STATUS=The identification of this mineral is confirmed by single-crystal X-ray diffraction and chemical analysis.
##URL=rruff.info/R070675
##MEASURED CHEMISTRY=(Ca_8.70_Na_0.27_Sr_0.02_Mn_0.01_)_Σ=9_(Mg_0.73_Fe^3+^_0.19_Al_0.08_)_Σ=1_(P_1.00_O_4_)_6_(P_1.00_O_3_((OH)_0.58_F_0.42_)_Σ=1_); OH estimated by charge balance
117.7167, 1393.699
118.1988, 1432.277
118.6810, 1472.754
119.1631, 1517.000
119.6452, 1566.295
120.1273, 1626.846
120.6094, 1688.744
121.0915, 1744.228
121.5737, 1793.205
122.0558, 1844.509
122.5379, 1917.016
123.0200, 1995.695
123.5021, 2053.424
123.9842, 2059.839
124.4664, 2045.104
124.9485, 2043.381
125.4306, 2058.458
125.9127, 2086.277
126.3948, 2126.855
126.8769, 2178.446
127.3591, 2232.887
127.8412, 2287.861
128.3233, 2341.440
128.8054, 2387.163
129.2875, 2418.189
129.7696, 2441.953
130.2518, 2474.000
130.7339, 2517.280
131.2160, 2565.680
131.6981, 2609.307
132.1802, 2647.932
132.6623, 2682.228
133.1445, 2709.419
133.6266, 2731.268
134.1087, 2759.324
134.5908, 2794.704
135.0729, 2833.459
135.5550, 2870.332
136.0372, 2905.219
136.5193, 2937.038
137.0014, 2965.944
137.4835, 2991.821
137.9656, 3013.782
138.4477, 3033.708
138.9299, 3049.040
139.4120, 3050.649
139.8941, 3036.983
140.3762, 3013.393
140.8583, 2981.204
141.3404, 2936.645
141.8226, 2896.548
142.3047, 2863.669
142.7868, 2838.312
143.2689, 2818.082
143.7510, 2805.120
144.2331, 2795.635
144.7152, 2784.431
145.1974, 2768.119
145.6795, 2755.251
146.1616, 2749.507
146.6437, 2756.883
147.1258, 2756.438
147.6079, 2747.048
148.0901, 2729.787
148.5722, 2707.732
149.0543, 2670.532
149.5364, 2637.301
150.0185, 2616.597
150.5006, 2620.257
150.9828, 2622.288
151.4649, 2625.224
151.9470, 2628.106
152.4291, 2619.799
152.9112, 2583.424
153.3933, 2544.657
153.8755, 2521.240
154.3576, 2545.927
154.8397, 2555.985
155.3218, 2530.935
155.8039, 2463.027
156.2860, 2406.803
156.7682, 2376.484
157.2503, 2362.192
157.7324, 2351.588
158.2145, 2351.630
158.6966, 2347.384
159.1787, 2330.978
159.6609, 2294.927
160.1430, 2261.580
160.6251, 2241.625
161.1072, 2229.910
161.5893, 2214.320
162.0714, 2189.025
162.5536, 2159.435
163.0357, 2129.057
163.5178, 2097.070
163.9999, 2066.264
164.4820, 2038.135
164.9641, 2012.448
165.4463, 1988.631
165.9284, 1967.201
166.4105, 1947.184
166.8926, 1927.526
167.3747, 1904.885
167.8568, 1884.461
168.3390, 1869.393
168.8211, 1860.060
169.3032, 1855.224
169.7853, 1860.505
170.2674, 1869.429
170.7495, 1870.693
171.2317, 1852.564
171.7138, 1827.250
172.1959, 1806.289
172.6780, 1790.853
173.1601, 1780.219
173.6422, 1778.770
174.1244, 1783.092
174.6065, 1782.097
175.0886, 1760.390
175.5707, 1731.410
176.0528, 1716.996
176.5349, 1729.875
177.0171, 1747.018
177.4992, 1737.676
177.9813, 1704.668
178.4634, 1671.693
178.9455, 1658.023
179.4276, 1658.096
179.9098, 1659.147
180.3919, 1659.636
180.8740, 1657.533
181.3561, 1647.764
181.8382, 1630.095
182.3203, 1611.048
182.8025, 1597.104
183.2846, 1587.489
183.7667, 1578.432
184.2488, 1564.543
184.7309, 1549.929
185.2130, 1549.399
185.6951, 1565.750
186.1773, 1586.011
186.6594, 1592.931
187.1415, 1587.389
187.6236, 1579.163
188.1057, 1572.937
188.5878, 1568.314
189.0700, 1561.987
189.5521, 1551.919
190.0342, 1543.043
190.5163, 1547.654
190.9984, 1566.163
191.4805, 1583.585
191.9627, 1588.404
192.4448, 1581.390
192.9269, 1571.404
193.4090, 1556.827
193.8911, 1541.933
194.3732, 1542.943
194.8554, 1562.510
195.3375, 1583.098
195.8196, 1587.218
196.3017, 1574.572
196.7838, 1561.728
197.2659, 1553.114
197.7481, 1547.985
198.2302, 1540.938
198.7123, 1531.573
199.1944, 1521.605
199.6765, 1513.217
200.1586, 1506.544
200.6408, 1499.924
201.1229, 1492.065
201.6050, 1482.962
202.0871, 1476.949
202.5692, 1474.374
203.0513, 1474.281
203.5335, 1476.236
204.0156, 1481.298
204.4977, 1483.806
204.9798, 1478.712
205.4619, 1463.856
205.9440, 1458.281
206.4262, 1465.984
206.9083, 1480.732
207.3904, 1484.837
207.8725, 1473.557
208.3546, 1464.532
208.8367, 1471.567
209.3189, 1501.444
209.8010, 1518.246
210.2831, 1516.113
210.7652, 1499.120
211.2473, 1484.374
211.7294, 1471.314
212.2116, 1461.632
212.6937, 1455.772
213.1758, 1452.090
213.6579, 1458.576
214.1400, 1482.069
214.6221, 1520.452
215.1043, 1538.109
215.5864, 1526.376
216.0685, 1506.866
216.5506, 1501.648
217.0327, 1515.945
217.5148, 1531.320
217.9970, 1545.345
218.4791, 1558.249
218.9612, 1563.068
219.4433, 1556.307
219.9254, 1544.867
220.4075, 1537.922
220.8897, 1537.719
221.3718, 1537.182
221.8539, 1532.406
222.3360, 1520.117
222.8181, 1520.181
223.3002, 1540.127
223.7824, 1567.681
224.2645, 1578.696
224.7466, 1562.508
225.2287, 1548.387
225.7108, 1548.279
226.1929, 1567.862
226.6750, 1586.332
227.1572, 1606.422
227.6393, 1624.491
228.1214, 1629.683
228.6035, 1613.325
229.0856, 1596.980
229.5677, 1592.073
230.0499, 1605.749
230.5320, 1614.629
231.0141, 1617.508
231.4962, 1614.842
231.9783, 1606.991
232.4604, 1586.762
232.9426, 1570.692
233.4247, 1570.560
233.9068, 1598.681
234.3889, 1616.791
234.8710, 1616.070
235.3531, 1599.751
235.8353, 1598.743
236.3174, 1624.202
236.7995, 1652.371
237.2816, 1664.322
237.7637, 1649.541
238.2458, 1639.036
238.7280, 1639.123
239.2101, 1649.567
239.6922, 1653.849
240.1743, 1647.839
240.6564, 1639.751
241.1385, 1637.988
241.6207, 1648.892
242.1028, 1654.332
242.5849, 1647.003
243.0670, 1624.676
243.5491, 1618.579
244.0313, 1636.049
244.5134, 1663.601
244.9955, 1686.214
245.4776, 1703.520
245.9597, 1716.515
246.4418, 1724.894
246.9240, 1727.910
247.4061, 1730.778
247.8882, 1733.954
248.3703, 1736.656
248.8524, 1736.845
249.3345, 1730.141
249.8167, 1728.638
250.2988, 1737.900
250.7809, 1762.635
251.2630, 1778.786
251.7451, 1781.444
252.2272, 1778.244
252.7094, 1783.803
253.1915, 1804.688
253.6736, 1823.060
254.1557, 1830.407
254.6378, 1819.536
255.1199, 1821.193
255.6021, 1840.958
256.0842, 1870.515
256.5663, 1891.044
257.0484, 1897.853
257.5305, 1903.924
258.0126, 1916.351
258.4948, 1941.194
258.9769, 1954.536
259.4590, 1949.953
259.9411, 1936.055
260.4232, 1937.779
260.9053, 1962.875
261.3875, 1989.498
261.8696, 2005.483
262.3517, 2005.127
262.8338, 2012.151
263.3159, 2031.348
263.7980, 2057.826
264.2802, 2073.410
264.7623, 2074.124
265.2444, 2072.086
265.7265, 2073.809
266.2086, 2079.135
266.6907, 2088.704
267.1729, 2103.390
267.6550, 2122.018
268.1371, 2141.947
268.6192, 2165.398
269.1013, 2184.657
269.5834, 2191.849
270.0656, 2183.063
270.5477, 2179.915
271.0298, 2185.311
271.5119, 2198.181
271.9940, 2215.073
272.4761, 2236.952
272.9583, 2260.145
273.4404, 2283.049
273.9225, 2306.244
274.4046, 2325.085
274.8867, 2336.382
275.3688, 2343.189
275.8510, 2361.136
276.3331, 2392.713
276.8152, 2427.736
277.2973, 2458.767
277.7794, 2485.820
278.2615, 2508.643
278.7437, 2526.343
279.2258, 2539.896
279.7079, 2551.167
280.1900, 2557.945
280.6721, 2570.961
281.1542, 2608.135
281.6364, 2671.438
282.1185, 2713.912
282.6006, 2718.411
283.0827, 2696.045
283.5648, 2694.036
284.0469, 2715.775
284.5291, 2740.329
285.0112, 2746.645
285.4933, 2735.241
285.9754, 2723.813
286.4575, 2720.635
286.9396, 2719.794
287.4217, 2696.022
287.9038, 2646.358
288.3860, 2594.740
288.8681, 2568.375
289.3502, 2564.397
289.8323, 2554.308
290.3144, 2525.088
290.7965, 2485.798
291.2787, 2466.881
291.7608, 2470.310
292.2429, 2471.460
292.7250, 2441.400
293.2071, 2386.092
293.6892, 2334.832
294.1714, 2298.386
294.6535, 2272.035
295.1356, 2246.313
295.6177, 2221.221
296.0998, 2195.611
296.5819, 2167.417
297.0641, 2137.304
297.5462, 2107.964
298.0283, 2080.962
298.5104, 2055.008
298.9925, 2027.140
299.4746, 1997.205
299.9568, 1967.865
300.4389, 1941.325
300.9210, 1916.953
301.4031, 1892.602
301.8852, 1867.824
302.3673, 1842.748
302.8495, 1817.655
303.3316, 1792.691
303.8137, 1766.096
304.2958, 1734.223
304.7779, 1700.033
305.2600, 1669.429
305.7422, 1643.951
306.2243, 1623.399
306.7064, 1610.627
307.1885, 1605.046
307.6706, 1596.986
308.1527, 1578.219
308.6349, 1553.000
309.1170, 1527.607
309.5991, 1500.083
310.0812, 1476.045
310.5633, 1460.965
311.0454, 1454.277
311.5276, 1448.522
312.0097, 1439.653
312.4918, 1429.169
312.9739, 1418.617
313.4560, 1411.723
313.9381, 1402.335
314.4203, 1385.892
314.9024, 1362.719
315.3845, 1339.511
315.8666, 1315.391
316.3487, 1294.376
316.8308, 1280.261
317.3130, 1277.506
317.7951, 1278.708
318.2772, 1285.803
318.7593, 1297.486
319.2414, 1299.495
319.7235, 1276.422
320.2057, 1247.238
320.6878, 1226.973
321.1699, 1226.702
321.6520, 1227.913
322.1341, 1226.462
322.6162, 1222.502
323.0984, 1218.176
323.5805, 1214.759
324.0626, 1210.632
324.5447, 1204.703
325.0268, 1192.201
325.5089, 1182.980
325.9911, 1178.351
326.4732, 1178.264
326.9553, 1181.415
327.4374, 1196.028
327.9195, 1208.284
328.4016, 1210.212
328.8838, 1187.079
329.3659, 1172.020
329.8480, 1170.472
330.3301, 1180.025
330.8122, 1185.741
331.2943, 1188.285
331.7765, 1186.376
332.2586, 1178.229
332.7407, 1155.361
333.2228, 1142.102
333.7049, 1144.545
334.1870, 1157.854
334.6692, 1161.035
335.1513, 1148.056
335.6334, 1134.760
336.1155, 1130.358
336.5976, 1137.611
337.0797, 1145.059
337.5619, 1152.391
338.0440, 1159.350
338.5261, 1165.126
339.0082, 1169.846
339.4903, 1172.946
339.9724, 1174.961
340.4546, 1176.443
340.9367, 1170.314
341.4188, 1152.123
341.9009, 1130.999
342.3830, 1128.633
342.8651, 1146.939
343.3473, 1165.963
343.8294, 1169.042
344.3115, 1158.778
344.7936, 1174.546
345.2757, 1227.441
345.7578, 1285.280
346.2400, 1290.902
346.7221, 1247.154
347.2042, 1203.975
347.6863, 1188.446
348.1684, 1193.388
348.6505, 1195.344
349.1327, 1192.943
349.6148, 1189.098
350.0969, 1187.277
350.5790, 1186.992
351.0611, 1186.451
351.5432, 1180.841
352.0254, 1175.655
352.5075, 1183.687
352.9896, 1206.954
353.4717, 1226.539
353.9538, 1219.257
354.4359, 1195.833
354.9181, 1177.495
355.4002, 1174.489
355.8823, 1179.960
356.3644, 1191.525
356.8465, 1209.131
357.3286, 1221.039
357.8108, 1213.615
358.2929, 1197.690
358.7750, 1187.295
359.2571, 1193.310
359.7392, 1201.438
360.2213, 1203.968
360.7035, 1201.098
361.1856, 1197.189
361.6677, 1187.286
362.1498, 1180.472
362.6319, 1184.478
363.1140, 1218.925
363.5962, 1246.641
364.0783, 1249.801
364.5604, 1232.772
365.0425, 1226.657
365.5246, 1253.626
366.0067, 1284.201
366.4889, 1300.232
366.9710, 1277.085
367.4531, 1265.736
367.9352, 1279.200
368.4173, 1310.659
368.8994, 1329.779
369.3815, 1322.618
369.8636, 1314.656
370.3458, 1317.574
370.8279, 1344.472
371.3100, 1359.316
371.7921, 1354.822
372.2742, 1339.940
372.7563, 1337.095
373.2385, 1350.982
373.7206, 1369.224
374.2027, 1387.410
374.6848, 1405.669
375.1669, 1422.796
375.6490, 1438.164
376.1312, 1453.048
376.6133, 1469.026
377.0954, 1485.360
377.5775, 1506.243
378.0596, 1536.628
378.5417, 1575.515
379.0239, 1603.585
379.5060, 1617.613
379.9881, 1629.809
380.4702, 1655.988
380.9523, 1695.941
381.4344, 1736.647
381.9166, 1770.534
382.3987, 1802.589
382.8808, 1855.447
383.3629, 1930.005
383.8450, 2003.910
384.3271, 2050.790
384.8093, 2078.541
385.2914, 2110.181
385.7735, 2152.750
386.2556, 2201.808
386.7377, 2250.262
387.2198, 2298.327
387.7020, 2349.844
388.1841, 2401.736
388.6662, 2459.730
389.1483, 2534.605
389.6304, 2638.894
390.1125, 2743.812
390.5947, 2827.635
391.0768, 2895.515
391.5589, 2960.756
392.0410, 3022.243
392.5231, 3088.502
393.0052, 3167.097
393.4874, 3261.658
393.9695, 3362.221
394.4516, 3470.275
394.9337, 3581.815
395.4158, 3689.503
395.8979, 3789.269
396.3801, 3886.470
396.8622, 3979.599
397.3443, 4063.940
397.8264, 4161.312
398.3085, 4284.510
398.7906, 4417.955
399.2728, 4542.349
399.7549, 4657.826
400.2370, 4763.529
400.7191, 4856.715
401.2012, 4936.440
401.6833, 5019.141
402.1655, 5107.092
402.6476, 5194.956
403.1297, 5281.253
403.6118, 5376.893
404.0939, 5445.051
404.5760, 5479.660
405.0582, 5482.356
405.5403, 5456.173
406.0224, 5395.712
406.5045, 5322.877
406.9866, 5251.434
407.4688, 5181.182
407.9509, 5111.155
408.4330, 5043.838
408.9151, 4972.231
409.3972, 4875.490
409.8793, 4753.948
410.3615, 4636.201
410.8436, 4541.945
411.3257, 4463.961
411.8078, 4378.145
412.2899, 4280.736
412.7720, 4183.060
413.2542, 4097.290
413.7363, 4023.044
414.2184, 3957.596
414.7005, 3900.545
415.1826, 3852.030
415.6647, 3813.886
416.1469, 3786.534
416.6290, 3763.882
417.1111, 3748.531
417.5932, 3733.413
418.0753, 3709.911
418.5574, 3659.918
419.0396, 3613.805
419.5217, 3592.502
420.0038, 3591.987
420.4859, 3584.066
420.9680, 3546.490
421.4501, 3504.570
421.9323, 3476.672
422.4144, 3473.839
422.8965, 3473.733
423.3786, 3471.997
423.8607, 3470.267
424.3428, 3472.980
424.8250, 3480.995
425.3071, 3493.510
425.7892, 3511.185
426.2713, 3538.472
426.7534, 3559.728
427.2355, 3572.086
427.7177, 3580.186
428.1998, 3590.712
428.6819, 3605.099
429.1640, 3618.334
429.6461, 3629.285
430.1282, 3637.704
430.6104, 3644.349
431.0925, 3649.895
431.5746, 3651.485
432.0567, 3644.639
432.5388, 3629.055
433.0209, 3614.106
433.5031, 3602.093
433.9852, 3591.694
434.4673, 3581.315
434.9494, 3570.963
435.4315, 3554.980
435.9136, 3528.189
436.3958, 3492.908
436.8779, 3453.050
437.3600, 3407.336
437.8421, 3363.965
438.3242, 3334.526
438.8063, 3315.356
439.2885, 3296.126
439.7706, 3269.847
440.2527, 3242.025
440.7348, 3218.987
441.2169, 3201.779
441.6990, 3181.867
442.1812, 3145.781
442.6633, 3106.957
443.1454, 3080.888
443.6275, 3089.979
444.1096, 3095.544
444.5917, 3081.357
445.0739, 3048.506
445.5560, 3017.506
446.0381, 2997.761
446.5202, 2977.573
447.0023, 2950.090
447.4844, 2898.922
447.9666, 2861.222
448.4487, 2844.078
448.9308, 2839.968
449.4129, 2828.829
449.8950, 2810.440
450.3771, 2785.887
450.8593, 2752.825
451.3413, 2708.282
451.8235, 2676.064
452.3056, 2660.904
452.7877, 2650.529
453.2698, 2625.561
453.7519, 2584.382
454.2340, 2549.073
454.7162, 2529.585
455.1983, 2520.028
455.6804, 2497.829
456.1625, 2462.356
456.6446, 2423.020
457.1267, 2384.565
457.6089, 2348.375
458.0910, 2315.879
458.5731, 2287.261
459.0552, 2263.386
459.5373, 2248.312
460.0194, 2239.925
460.5016, 2230.900
460.9837, 2220.749
461.4658, 2206.089
461.9479, 2181.514
462.4300, 2144.320
462.9121, 2109.621
463.3943, 2090.610
463.8764, 2077.278
464.3585, 2056.972
464.8406, 2011.760
465.3227, 1972.821
465.8048, 1954.623
466.2870, 1957.283
466.7691, 1953.053
467.2512, 1936.020
467.7333, 1912.978
468.2154, 1887.401
468.6975, 1850.485
469.1797, 1825.864
469.6618, 1820.332
470.1439, 1826.399
470.6260, 1824.774
471.1081, 1813.980
471.5902, 1798.972
472.0724, 1781.067
472.5545, 1759.911
473.0366, 1738.566
473.5187, 1716.733
474.0008, 1696.133
474.4829, 1679.719
474.9651, 1667.174
475.4472, 1654.170
475.9293, 1636.877
476.4114, 1620.089
476.8935, 1615.494
477.3756, 1622.370
477.8578, 1630.926
478.3399, 1637.810
478.8220, 1640.760
479.3041, 1634.702
479.7862, 1614.814
480.2683, 1595.596
480.7505, 1590.901
481.2326, 1594.901
481.7147, 1595.247
482.1968, 1584.022
482.6789, 1570.082
483.1610, 1557.749
483.6432, 1547.512
484.1253, 1537.116
484.6074, 1530.121
485.0895, 1520.692
485.5716, 1503.702
486.0537, 1461.774
486.5359, 1432.910
487.0180, 1429.072
487.5001, 1442.504
487.9822, 1435.224
488.4643, 1394.365
488.9464, 1354.072
489.4286, 1332.751
489.9107, 1335.566
490.3928, 1329.948
490.8749, 1313.058
491.3570, 1292.499
491.8391, 1281.240
492.3213, 1279.333
492.8034, 1272.115
493.2855, 1251.556
493.7676, 1223.420
494.2497, 1201.366
494.7318, 1185.517
495.2140, 1172.835
495.6961, 1158.579
496.1782, 1146.388
496.6603, 1144.874
497.1424, 1161.178
497.6245, 1176.405
498.1067, 1172.378
498.5888, 1155.803
499.0709, 1142.370
499.5530, 1140.765
500.0351, 1142.464
500.5172, 1144.525
500.9994, 1147.324
501.4815, 1144.480
501.9636, 1114.232
502.4457, 1087.857
502.9278, 1093.834
503.4099, 1196.323
503.8921, 1251.745
504.3742, 1225.579
504.8563, 1140.782
505.3384, 1094.913
505.8205, 1104.636
506.3026, 1121.556
506.7848, 1121.972
507.2669, 1102.981
507.7490, 1088.992
508.2311, 1080.331
508.7132, 1076.032
509.1953, 1076.634
509.6775, 1081.562
510.1596, 1084.116
510.6417, 1080.503
511.1238, 1074.156
511.6059, 1071.647
512.0880, 1072.766
512.5701, 1075.470
513.0522, 1081.399
513.5344, 1086.815
514.0165, 1085.395
514.4986, 1072.721
514.9807, 1062.960
515.4628, 1069.981
515.9449, 1085.138
516.4271, 1093.644
516.9092, 1082.678
517.3913, 1071.791
517.8734, 1067.955
518.3555, 1071.648
518.8376, 1078.527
519.3198, 1092.105
519.8019, 1105.938
520.2840, 1116.365
520.7661, 1122.783
521.2482, 1126.124
521.7303, 1122.812
522.2125, 1118.503
522.6946, 1128.963
523.1767, 1159.210
523.6588, 1182.967
524.1409, 1184.770
524.6230, 1168.839
525.1052, 1168.607
525.5873, 1185.317
526.0694, 1207.921
526.5515, 1226.758
527.0336, 1242.820
527.5157, 1258.639
527.9979, 1274.039
528.4800, 1290.159
528.9621, 1307.902
529.4442, 1327.150
529.9263, 1348.128
530.4084, 1370.274
530.8906, 1394.475
531.3727, 1422.837
531.8548, 1456.777
532.3369, 1485.872
532.8190, 1502.562
533.3011, 1514.889
533.7833, 1529.911
534.2654, 1545.181
534.7475, 1567.623
535.2296, 1601.999
535.7117, 1644.363
536.1938, 1680.735
536.6760, 1710.904
537.1581, 1736.439
537.6402, 1755.595
538.1223, 1767.009
538.6044, 1791.025
539.0865, 1831.312
539.5687, 1874.318
540.0508, 1900.399
540.5329, 1912.847
541.0150, 1934.021
541.4971, 1973.032
541.9792, 2019.203
542.4614, 2054.996
542.9435, 2082.219
543.4256, 2109.226
543.9077, 2141.560
544.3898, 2175.785
544.8719, 2209.052
545.3541, 2241.195
545.8362, 2271.197
546.3183, 2297.510
546.8004, 2322.112
547.2825, 2347.385
547.7646, 2382.623
548.2468, 2408.398
548.7289, 2421.635
549.2110, 2422.466
549.6931, 2411.155
550.1752, 2381.744
550.6573, 2348.367
551.1395, 2315.671
551.6216, 2283.476
552.1037, 2253.417
552.5858, 2225.314
553.0679, 2199.346
553.5500, 2176.962
554.0322, 2158.128
554.5143, 2135.869
554.9964, 2104.944
555.4785, 2074.239
555.9606, 2062.788
556.4427, 2067.812
556.9249, 2074.638
557.4070, 2079.156
557.8891, 2078.232
558.3712, 2065.169
558.8533, 2037.911
559.3354, 2013.632
559.8176, 2004.679
560.2997, 2002.079
560.7818, 1996.593
561.2639, 1978.854
561.7460, 1965.931
562.2281, 1967.267
562.7103, 1977.218
563.1924, 1974.600
563.6745, 1952.679
564.1566, 1926.800
564.6387, 1900.261
565.1208, 1871.747
565.6030, 1856.809
566.0851, 1861.051
566.5672, 1866.361
567.0493, 1850.798
567.5314, 1815.859
568.0135, 1789.235
568.4957, 1778.825
568.9778, 1774.611
569.4599, 1762.054
569.9420, 1741.864
570.4241, 1717.578
570.9063, 1685.154
571.3884, 1653.016
571.8705, 1629.707
572.3526, 1615.750
572.8347, 1603.507
573.3168, 1594.520
573.7990, 1582.608
574.2811, 1561.973
574.7632, 1515.828
575.2453, 1482.751
575.7274, 1473.089
576.2095, 1479.430
576.6917, 1488.202
577.1738, 1503.737
577.6559, 1514.303
578.1380, 1514.379
578.6201, 1504.979
579.1022, 1504.588
579.5844, 1515.928
580.0665, 1526.127
580.5486, 1519.247
581.0307, 1499.435
581.5128, 1499.752
581.9949, 1527.982
582.4771, 1562.252
582.9592, 1573.949
583.4413, 1570.437
583.9234, 1569.929
584.4055, 1578.340
584.8876, 1594.156
585.3698, 1618.649
585.8519, 1650.468
586.3340, 1683.255
586.8161, 1718.913
587.2982, 1750.721
587.7803, 1774.217
588.2625, 1785.960
588.7446, 1796.888
589.2267, 1803.501
589.7088, 1812.172
590.1909, 1832.145
590.6730, 1871.716
591.1552, 1898.873
591.6373, 1905.913
592.1194, 1898.609
592.6015, 1891.014
593.0836, 1882.694
593.5657, 1881.079
594.0479, 1896.717
594.5300, 1921.535
595.0121, 1930.218
595.4942, 1921.721
595.9763, 1915.122
596.4584, 1932.708
596.9406, 1959.516
597.4227, 1974.885
597.9048, 1964.311
598.3869, 1957.802
598.8690, 1972.176
599.3511, 1999.974
599.8333, 2026.929
600.3154, 2053.258
600.7975, 2074.889
601.2796, 2087.765
601.7617, 2092.402
602.2438, 2107.176
602.7260, 2135.581
603.2081, 2168.090
603.6902, 2201.111
604.1723, 2235.796
604.6544, 2257.028
605.1365, 2261.097
605.6187, 2260.418
606.1008, 2271.865
606.5829, 2292.971
607.0650, 2313.268
607.5471, 2328.674
608.0292, 2342.728
608.5114, 2357.042
608.9935, 2372.706
609.4756, 2394.172
609.9577, 2426.313
610.4398, 2462.514
