##NAMES=Whitlockite
##RRUFFID=R070675
##IDEAL CHEMISTRY=Ca_9_Mg(PO_4_)_6_(PO_3_OH)
##LOCALITY=Palermo mine, North Groton, New Hampshire, USA
##OWNER=RRUFF
##SOURCE=Rock Currier
##DESCRIPTION=Colorless blocky modified rhombic crystals
##STATUS=The identification of this mineral is confirmed by single-crystal X-ray diffraction and chemical analysis.
##URL=rruff.info/R070675
##MEASURED CHEMISTRY=(Ca_8.70_Na_0.27_Sr_0.02_Mn_0.01_)_Σ=9_(Mg_0.73_Fe^3+^_0.19_Al_0.08_)_Σ=1_(P_1.00_O_4_)_6_(P_1.00_O_3_((OH)_0.58_F_0.42_)_Σ=1_); OH estimated by charge balance
124.3446, 2407.125
124.8267, 2421.912
125.3088, 2435.783
125.7909, 2448.721
126.2731, 2461.078
126.7552, 2471.881
127.2373, 2482.814
127.7194, 2493.456
128.2015, 2504.156
128.6837, 2517.172
129.1658, 2537.289
129.6479, 2571.793
130.1300, 2598.804
130.6121, 2608.031
131.0942, 2614.360
131.5764, 2632.894
132.0585, 2670.173
132.5406, 2718.796
133.0227, 2752.079
133.5048, 2756.683
133.9869, 2759.238
134.4691, 2758.760
134.9512, 2758.501
135.4333, 2765.144
135.9154, 2784.848
136.3975, 2815.778
136.8796, 2826.370
137.3618, 2793.659
137.8439, 2765.585
138.3260, 2771.295
138.8081, 2807.942
139.2902, 2846.917
139.7723, 2866.129
140.2545, 2864.136
140.7366, 2853.914
141.2187, 2824.569
141.7008, 2792.455
142.1829, 2778.556
142.6650, 2788.955
143.1472, 2802.952
143.6293, 2795.093
144.1114, 2770.368
144.5935, 2752.372
145.0756, 2754.009
145.5577, 2770.474
146.0399, 2786.609
146.5220, 2802.508
147.0041, 2814.019
147.4862, 2820.228
147.9683, 2820.950
148.4504, 2814.308
148.9326, 2794.698
149.4147, 2760.118
149.8968, 2732.482
150.3789, 2724.763
150.8610, 2719.818
151.3431, 2708.984
151.8252, 2690.258
152.3074, 2666.577
152.7895, 2639.854
153.2716, 2600.699
153.7537, 2580.269
154.2358, 2594.281
154.7179, 2618.724
155.2001, 2633.369
155.6822, 2629.585
156.1643, 2612.324
156.6464, 2597.106
157.1285, 2594.608
157.6106, 2580.943
158.0928, 2544.056
158.5749, 2496.548
159.0570, 2455.929
159.5391, 2433.195
160.0212, 2426.301
160.5033, 2413.753
160.9855, 2395.208
161.4676, 2372.426
161.9497, 2345.880
162.4318, 2315.502
162.9139, 2279.972
163.3960, 2236.518
163.8782, 2185.003
164.3603, 2145.409
164.8424, 2123.104
165.3245, 2106.874
165.8066, 2091.346
166.2887, 2075.738
166.7709, 2059.366
167.2530, 2041.460
167.7351, 2021.940
168.2172, 2001.985
168.6993, 1981.238
169.1814, 1960.282
169.6636, 1937.589
170.1457, 1911.141
170.6278, 1890.149
171.1099, 1891.180
171.5920, 1909.682
172.0741, 1920.941
172.5563, 1911.125
173.0384, 1886.352
173.5205, 1864.383
174.0026, 1849.126
174.4847, 1835.493
174.9668, 1818.808
175.4490, 1799.249
175.9311, 1779.307
176.4132, 1759.872
176.8953, 1740.883
177.3774, 1724.480
177.8595, 1713.897
178.3417, 1703.721
178.8238, 1690.792
179.3059, 1674.753
179.7880, 1656.877
180.2701, 1639.154
180.7522, 1622.365
181.2344, 1601.940
181.7165, 1570.207
182.1986, 1539.142
182.6807, 1518.176
183.1628, 1509.586
183.6449, 1505.352
184.1271, 1490.054
184.6092, 1451.186
185.0913, 1426.899
185.5734, 1428.455
186.0555, 1439.748
186.5376, 1447.897
187.0198, 1447.646
187.5019, 1441.454
187.9840, 1435.642
188.4661, 1430.960
188.9482, 1425.729
189.4303, 1421.440
189.9125, 1416.060
190.3946, 1405.754
190.8767, 1388.049
191.3588, 1366.137
191.8409, 1354.847
192.3230, 1366.556
192.8052, 1375.162
193.2873, 1375.070
193.7694, 1368.847
194.2515, 1361.265
194.7336, 1355.091
195.2157, 1350.091
195.6979, 1343.597
196.1800, 1336.719
196.6621, 1327.717
197.1442, 1311.717
197.6263, 1292.053
198.1084, 1279.515
198.5906, 1283.733
199.0727, 1302.677
199.5548, 1308.706
200.0369, 1293.274
200.5190, 1273.667
201.0011, 1258.620
201.4833, 1248.383
201.9654, 1240.389
202.4475, 1232.628
202.9296, 1225.594
203.4117, 1221.295
203.8938, 1221.733
204.3760, 1223.737
204.8581, 1224.523
205.3402, 1223.890
205.8223, 1223.145
206.3044, 1223.415
206.7865, 1224.449
207.2687, 1225.351
207.7508, 1230.085
208.2329, 1232.982
208.7150, 1222.529
209.1971, 1193.754
209.6792, 1168.437
210.1614, 1168.368
210.6435, 1185.394
211.1256, 1202.796
211.6077, 1214.706
212.0898, 1222.835
212.5719, 1231.536
213.0541, 1242.797
213.5362, 1250.659
214.0183, 1250.195
214.5004, 1243.510
214.9825, 1235.281
215.4646, 1225.293
215.9468, 1215.095
216.4289, 1212.731
216.9110, 1225.866
217.3931, 1236.223
217.8752, 1230.279
218.3573, 1212.935
218.8395, 1198.364
219.3216, 1199.743
219.8037, 1215.313
220.2858, 1221.764
220.7679, 1207.140
221.2500, 1195.973
221.7322, 1204.701
222.2143, 1227.805
222.6964, 1247.288
223.1785, 1245.411
223.6606, 1220.895
224.1427, 1203.958
224.6249, 1198.491
225.1070, 1198.127
225.5891, 1202.518
226.0712, 1210.453
226.5533, 1219.338
227.0354, 1228.963
227.5176, 1241.056
227.9997, 1241.236
228.4818, 1210.419
228.9639, 1183.438
229.4460, 1177.842
229.9281, 1191.206
230.4103, 1208.222
230.8924, 1212.629
231.3745, 1200.737
231.8566, 1192.835
232.3387, 1187.997
232.8208, 1187.466
233.3030, 1195.240
233.7851, 1209.450
234.2672, 1222.732
234.7493, 1226.306
235.2314, 1216.348
235.7135, 1210.470
236.1957, 1211.599
236.6778, 1213.674
237.1599, 1214.057
237.6420, 1212.263
238.1241, 1208.726
238.6062, 1203.460
239.0884, 1194.594
239.5705, 1190.538
240.0526, 1195.055
240.5347, 1200.522
241.0168, 1202.249
241.4989, 1199.891
241.9811, 1196.132
242.4632, 1193.833
242.9453, 1192.744
243.4274, 1194.527
243.9095, 1202.639
244.3916, 1210.620
244.8738, 1212.963
245.3559, 1209.658
245.8380, 1206.286
246.3201, 1209.566
246.8022, 1222.306
247.2843, 1233.287
247.7665, 1245.008
248.2486, 1253.547
248.7307, 1254.472
249.2128, 1247.940
249.6949, 1239.246
250.1770, 1234.146
250.6592, 1233.440
251.1413, 1234.775
251.6234, 1239.636
252.1055, 1245.398
252.5876, 1248.874
253.0697, 1250.080
253.5519, 1253.670
254.0340, 1266.192
254.5161, 1292.232
254.9982, 1306.607
255.4803, 1297.675
255.9624, 1284.982
256.4445, 1284.582
256.9267, 1298.275
257.4088, 1316.348
257.8909, 1329.668
258.3730, 1337.433
258.8551, 1340.672
259.3372, 1332.944
259.8194, 1324.824
260.3015, 1325.527
260.7836, 1335.901
261.2657, 1350.114
261.7478, 1363.917
262.2299, 1377.501
262.7121, 1384.336
263.1942, 1377.146
263.6763, 1367.848
264.1584, 1365.357
264.6405, 1370.645
265.1227, 1381.628
265.6048, 1399.196
266.0869, 1423.799
266.5690, 1436.960
267.0511, 1428.705
267.5332, 1415.358
268.0154, 1408.600
268.4975, 1409.531
268.9796, 1416.758
269.4617, 1431.426
269.9438, 1453.373
270.4259, 1469.080
270.9081, 1471.826
271.3902, 1472.688
271.8723, 1480.730
272.3544, 1496.238
272.8365, 1513.408
273.3186, 1528.286
273.8008, 1540.966
274.2829, 1553.956
274.7650, 1564.538
275.2471, 1577.485
275.7292, 1598.909
276.2113, 1628.012
276.6935, 1655.412
277.1756, 1674.886
277.6577, 1686.520
278.1398, 1695.782
278.6219, 1698.281
279.1040, 1701.986
279.5862, 1712.171
280.0683, 1728.605
280.5504, 1749.487
281.0325, 1776.457
281.5146, 1806.392
281.9967, 1827.698
282.4789, 1834.489
282.9610, 1838.332
283.4431, 1846.725
283.9252, 1858.755
284.4073, 1869.622
284.8894, 1878.328
285.3716, 1882.871
285.8537, 1879.156
286.3358, 1862.277
286.8179, 1843.739
287.3000, 1832.528
287.7821, 1825.931
288.2643, 1812.495
288.7464, 1784.643
289.2285, 1748.234
289.7106, 1717.873
290.1927, 1693.144
290.6748, 1674.249
291.1570, 1666.962
291.6391, 1666.604
292.1212, 1658.210
292.6033, 1634.360
293.0854, 1601.420
293.5675, 1573.137
294.0497, 1552.177
294.5318, 1527.661
295.0139, 1489.826
295.4960, 1445.250
295.9781, 1409.415
296.4602, 1388.256
296.9424, 1375.882
297.4245, 1363.609
297.9066, 1351.784
298.3887, 1338.705
298.8708, 1316.713
299.3529, 1294.403
299.8351, 1293.372
300.3172, 1325.008
300.7993, 1358.295
301.2814, 1342.661
301.7635, 1275.225
302.2456, 1211.377
302.7278, 1162.165
303.2099, 1124.268
303.6920, 1095.279
304.1741, 1075.222
304.6562, 1059.494
305.1383, 1041.234
305.6205, 1019.751
306.1026, 1009.108
306.5847, 1024.598
307.0668, 1044.622
307.5489, 1045.456
308.0310, 1024.121
308.5132, 995.6884
308.9953, 973.4476
309.4774, 957.6854
309.9595, 939.1577
310.4416, 910.6643
310.9237, 884.1224
311.4059, 872.9481
311.8880, 876.1611
312.3701, 876.2966
312.8522, 857.7787
313.3343, 822.2335
313.8164, 799.1833
314.2986, 795.1651
314.7807, 797.2377
315.2628, 802.4003
315.7449, 808.5570
316.2270, 808.1695
316.7091, 794.9304
317.1913, 771.6707
317.6734, 755.4293
318.1555, 748.2542
318.6376, 744.5149
319.1197, 745.3463
319.6018, 748.1236
320.0840, 746.3287
320.5661, 736.2122
321.0482, 720.5280
321.5303, 708.5712
322.0124, 702.4161
322.4945, 696.4417
322.9767, 687.3296
323.4588, 678.1921
323.9409, 674.7022
324.4230, 679.3327
324.9051, 687.7466
325.3872, 691.3363
325.8694, 688.4492
326.3515, 683.4584
326.8336, 673.7272
327.3157, 663.4363
327.7978, 655.7708
328.2799, 651.7718
328.7621, 652.9416
329.2442, 662.7660
329.7263, 689.8015
330.2084, 702.6509
330.6905, 690.2658
331.1726, 672.3388
331.6548, 662.9349
332.1369, 663.4772
332.6190, 666.6991
333.1011, 664.9896
333.5832, 656.9069
334.0653, 652.0806
334.5475, 650.5460
335.0296, 651.5087
335.5117, 656.3616
335.9938, 663.6999
336.4759, 670.0332
336.9580, 672.6461
337.4402, 671.5849
337.9223, 669.5922
338.4044, 667.3666
338.8865, 663.5254
339.3686, 656.7202
339.8507, 648.1371
340.3329, 629.0981
340.8150, 641.5611
341.2971, 648.7340
341.7792, 650.9011
342.2613, 633.0693
342.7434, 641.0619
343.2256, 638.7053
343.7077, 635.9243
344.1898, 647.5516
344.6719, 632.6285
345.1540, 644.0273
345.6361, 644.9189
346.1183, 650.6194
346.6004, 645.9068
347.0825, 644.4103
347.5646, 653.3304
348.0467, 656.4828
348.5288, 650.5715
349.0110, 656.5776
349.4931, 641.2909
349.9752, 644.6890
350.4573, 656.1487
350.9394, 650.7608
351.4215, 656.9573
351.9037, 658.7420
352.3858, 640.4760
352.8679, 657.0799
353.3500, 658.6038
353.8321, 644.6436
354.3142, 660.0527
354.7964, 648.2273
355.2785, 646.1229
355.7606, 651.3342
356.2427, 653.4794
356.7248, 659.3813
357.2069, 669.6452
357.6891, 680.2751
358.1712, 677.4039
358.6533, 652.7913
359.1354, 633.3039
359.6175, 631.2005
360.0996, 639.0963
360.5818, 650.3710
361.0639, 664.3650
361.5460, 677.4335
362.0281, 682.5863
362.5102, 678.4918
362.9923, 679.0283
363.4745, 694.6990
363.9566, 713.0380
364.4387, 720.6413
364.9208, 714.9849
365.4029, 707.8692
365.8850, 708.2087
366.3672, 714.8397
366.8493, 721.8593
367.3314, 729.2050
367.8135, 734.7064
368.2956, 733.8892
368.7777, 727.3823
369.2599, 725.6948
369.7420, 736.1976
370.2241, 753.3829
370.7062, 767.4185
371.1883, 776.6342
371.6704, 786.5547
372.1526, 805.7057
372.6347, 831.1025
373.1168, 845.2484
373.5989, 832.5015
374.0810, 817.7103
374.5631, 824.0174
375.0453, 849.6104
375.5274, 875.2371
376.0095, 890.1862
376.4916, 895.9954
376.9737, 900.7257
377.4558, 899.3436
377.9380, 902.6584
378.4201, 917.0415
378.9022, 938.6335
379.3843, 959.9703
379.8664, 978.0513
380.3485, 994.6575
380.8307, 1012.740
381.3128, 1028.822
381.7949, 1053.288
382.2770, 1092.531
382.7591, 1137.400
383.2412, 1179.417
383.7234, 1216.909
384.2055, 1252.038
384.6876, 1286.421
385.1697, 1318.475
385.6518, 1357.531
386.1339, 1404.075
386.6161, 1455.798
387.0982, 1514.780
387.5803, 1578.494
388.0624, 1639.223
388.5445, 1690.193
389.0266, 1733.655
389.5088, 1792.851
389.9909, 1885.297
390.4730, 1974.346
390.9551, 2048.340
391.4372, 2117.007
391.9193, 2193.083
392.4015, 2282.174
392.8836, 2379.278
393.3657, 2474.172
393.8478, 2561.526
394.3299, 2658.422
394.8120, 2771.265
395.2942, 2890.850
395.7763, 3012.520
396.2584, 3135.335
396.7405, 3258.302
397.2226, 3382.003
397.7047, 3505.982
398.1869, 3627.265
398.6690, 3741.701
399.1511, 3858.486
399.6332, 3982.234
400.1153, 4111.642
400.5974, 4243.899
401.0796, 4383.648
401.5617, 4523.481
402.0438, 4648.792
402.5259, 4760.098
403.0080, 4855.091
403.4901, 4930.576
403.9723, 4988.766
404.4544, 5030.948
404.9365, 5057.772
405.4186, 5067.869
405.9007, 5056.632
406.3828, 5026.234
406.8650, 4988.340
407.3471, 4947.840
407.8292, 4900.390
408.3113, 4839.297
408.7934, 4766.638
409.2755, 4678.990
409.7577, 4564.852
410.2398, 4439.518
410.7219, 4325.397
411.2040, 4226.674
411.6861, 4131.674
412.1682, 4028.012
412.6504, 3914.225
413.1325, 3808.870
413.6146, 3711.218
414.0967, 3621.881
414.5788, 3543.957
415.0609, 3474.773
415.5431, 3406.064
416.0252, 3332.109
416.5073, 3255.699
416.9894, 3188.783
417.4715, 3138.233
417.9536, 3088.877
418.4358, 3034.630
418.9179, 2983.118
419.4000, 2942.835
419.8821, 2916.169
420.3642, 2898.154
420.8463, 2882.610
421.3285, 2872.675
421.8106, 2856.569
422.2927, 2825.460
422.7748, 2796.318
423.2569, 2776.263
423.7390, 2765.663
424.2212, 2761.867
424.7033, 2762.542
425.1854, 2768.182
425.6675, 2784.415
426.1496, 2822.096
426.6317, 2851.333
427.1139, 2856.682
427.5960, 2849.594
428.0781, 2843.195
428.5602, 2840.590
429.0423, 2843.839
429.5244, 2858.713
430.0066, 2885.563
430.4887, 2907.957
430.9708, 2918.758
431.4529, 2925.466
431.9350, 2940.439
432.4171, 2964.824
432.8993, 2977.187
433.3814, 2954.151
433.8635, 2915.580
434.3456, 2902.255
434.8277, 2922.434
435.3098, 2943.257
435.7920, 2935.235
436.2741, 2900.107
436.7562, 2872.145
437.2383, 2855.286
437.7204, 2843.298
438.2025, 2838.907
438.6847, 2837.079
439.1668, 2822.131
439.6489, 2784.601
440.1310, 2734.113
440.6131, 2696.822
441.0952, 2680.696
441.5774, 2666.653
442.0595, 2655.716
442.5416, 2645.273
443.0237, 2629.733
443.5058, 2609.811
443.9879, 2595.899
444.4701, 2602.603
444.9522, 2635.509
445.4343, 2648.863
445.9164, 2628.854
446.3985, 2602.797
446.8806, 2576.357
447.3628, 2550.352
447.8449, 2524.006
448.3270, 2496.040
448.8091, 2469.282
449.2912, 2452.260
449.7733, 2450.315
450.2555, 2443.293
450.7376, 2419.246
451.2197, 2392.348
451.7018, 2375.641
452.1839, 2371.156
452.6660, 2363.301
453.1482, 2335.794
453.6303, 2293.168
454.1124, 2257.308
454.5945, 2232.204
455.0766, 2210.164
455.5587, 2185.425
456.0409, 2158.663
456.5230, 2132.018
457.0051, 2106.867
457.4872, 2081.061
457.9693, 2051.507
458.4514, 2018.910
458.9336, 1986.093
459.4156, 1951.345
459.8978, 1921.043
460.3799, 1916.473
460.8620, 1959.216
461.3441, 1982.619
461.8262, 1971.763
462.3083, 1937.812
462.7905, 1886.284
463.2726, 1820.644
463.7547, 1752.747
464.2368, 1693.273
464.7189, 1641.527
465.2010, 1605.558
465.6832, 1600.398
466.1653, 1594.222
466.6474, 1575.930
467.1295, 1550.002
467.6116, 1524.223
468.0938, 1502.608
468.5759, 1483.993
469.0580, 1466.753
469.5401, 1452.413
470.0222, 1434.929
470.5043, 1408.417
470.9865, 1382.047
471.4686, 1361.587
471.9507, 1347.462
472.4328, 1336.105
472.9149, 1324.979
473.3970, 1314.554
473.8792, 1307.819
474.3613, 1307.089
474.8434, 1303.405
475.3255, 1285.442
475.8076, 1260.940
476.2897, 1246.430
476.7719, 1250.796
477.2540, 1257.472
477.7361, 1253.363
478.2182, 1242.150
478.7003, 1235.756
479.1824, 1239.081
479.6646, 1245.844
480.1467, 1245.898
480.6288, 1236.214
481.1109, 1229.442
481.5930, 1228.193
482.0751, 1228.509
482.5573, 1229.774
483.0394, 1230.440
483.5215, 1226.254
484.0036, 1213.696
484.4857, 1194.049
484.9678, 1175.851
485.4500, 1160.686
485.9321, 1144.910
486.4142, 1128.727
486.8963, 1111.437
487.3784, 1093.582
487.8605, 1074.973
488.3427, 1052.193
488.8248, 1018.047
489.3069, 971.7317
489.7890, 934.3160
490.2711, 912.6017
490.7532, 892.2849
491.2354, 862.1116
491.7175, 827.0588
492.1996, 798.5912
492.6817, 784.5781
493.1638, 775.7045
493.6459, 760.9703
494.1281, 740.7231
494.6102, 720.0896
495.0923, 700.4745
495.5744, 682.0859
496.0565, 664.5956
496.5386, 646.5945
497.0208, 634.1400
497.5029, 636.8389
497.9850, 640.7607
498.4671, 628.4696
498.9492, 600.5522
499.4313, 573.3530
499.9135, 559.9850
500.3956, 559.5684
500.8777, 559.8491
501.3598, 561.9111
501.8419, 563.3647
502.3240, 565.2413
502.8062, 565.6523
503.2883, 561.6732
503.7704, 552.7300
504.2525, 542.3760
504.7346, 535.2380
505.2167, 531.8437
505.6989, 528.1144
506.1810, 523.3072
506.6631, 518.9366
507.1452, 515.8798
507.6273, 513.7683
508.1094, 512.0069
508.5916, 511.6158
509.0737, 509.8831
509.5558, 500.7159
510.0379, 484.5491
510.5200, 473.7775
511.0021, 474.8203
511.4843, 480.7488
511.9664, 480.4674
512.4485, 473.0445
512.9306, 467.6043
513.4127, 467.6916
513.8948, 470.0343
514.3770, 472.2428
514.8591, 473.8050
515.3412, 473.6650
515.8233, 470.6935
516.3054, 465.6260
516.7875, 463.2736
517.2697, 464.3088
517.7518, 467.3912
518.2339, 476.9286
518.7160, 485.9072
519.1981, 484.1115
519.6802, 471.2581
520.1624, 460.6253
520.6445, 470.3849
521.1266, 501.3471
521.6087, 519.0618
522.0908, 516.8053
522.5729, 510.6290
523.0551, 504.8688
523.5372, 500.9268
524.0193, 501.4131
524.5014, 508.0174
524.9835, 517.0792
525.4656, 525.5868
525.9478, 533.5406
526.4299, 541.0576
526.9120, 548.0125
527.3941, 554.8787
527.8762, 563.3634
528.3583, 573.7540
528.8405, 578.6458
529.3226, 565.1597
529.8047, 556.7501
530.2868, 575.4941
530.7689, 612.5294
531.2510, 642.0149
531.7332, 650.4520
532.2153, 646.0195
532.6974, 648.3569
533.1795, 658.2195
533.6616, 674.1188
534.1437, 701.6139
534.6259, 729.5826
535.1080, 748.3090
535.5901, 760.3949
536.0722, 777.4752
536.5543, 811.7150
537.0364, 854.7924
537.5186, 877.1147
538.0007, 872.0454
538.4828, 871.6660
538.9649, 889.0840
539.4470, 916.9318
539.9291, 947.6659
540.4113, 981.2376
540.8934, 1014.446
541.3755, 1044.665
541.8576, 1073.826
542.3397, 1105.070
542.8218, 1138.686
543.3040, 1172.371
543.7861, 1204.987
544.2682, 1236.216
544.7503, 1263.057
545.2324, 1283.243
545.7145, 1302.578
546.1967, 1322.653
546.6788, 1342.014
547.1609, 1360.728
547.6430, 1377.917
548.1251, 1389.385
548.6072, 1388.265
549.0894, 1373.906
549.5715, 1367.785
550.0536, 1378.297
550.5357, 1384.984
551.0178, 1378.713
551.4999, 1365.217
551.9821, 1351.919
552.4642, 1340.808
552.9463, 1330.796
553.4284, 1321.088
553.9105, 1311.642
554.3926, 1302.774
554.8748, 1294.858
555.3569, 1285.996
555.8390, 1271.788
556.3211, 1252.847
556.8032, 1245.939
557.2853, 1262.071
557.7675, 1279.019
558.2496, 1287.756
558.7317, 1289.909
559.2138, 1287.826
559.6959, 1282.497
560.1780, 1275.820
560.6602, 1271.441
561.1423, 1271.639
561.6244, 1265.150
562.1065, 1249.735
562.5886, 1229.454
563.0707, 1201.341
563.5529, 1170.006
564.0350, 1143.103
564.5171, 1124.384
564.9992, 1110.259
565.4813, 1098.326
565.9634, 1088.135
566.4456, 1071.378
566.9277, 1043.378
567.4098, 1013.079
567.8919, 991.3120
568.3740, 977.0331
568.8561, 959.3340
569.3383, 933.7891
569.8204, 906.8549
570.3025, 881.4937
570.7846, 857.9843
571.2667, 836.2105
571.7488, 816.1122
572.2310, 798.9470
572.7131, 788.2258
573.1952, 788.8146
573.6773, 782.4827
574.1594, 762.4733
574.6415, 742.6609
575.1237, 728.1549
575.6058, 718.5458
576.0879, 712.0019
576.5700, 707.9396
577.0521, 705.7152
577.5342, 705.9122
578.0164, 708.5682
578.4985, 705.4435
578.9806, 690.7383
579.4627, 675.5288
579.9448, 673.3996
580.4269, 682.6842
580.9091, 689.6595
581.3912, 686.9405
581.8733, 685.4168
582.3554, 694.6753
582.8375, 711.1741
583.3196, 724.8573
583.8018, 731.3257
584.2839, 736.0489
584.7660, 749.2300
585.2481, 775.7369
585.7302, 796.6667
586.2123, 812.0614
586.6945, 822.2864
587.1766, 821.2836
587.6587, 816.0829
588.1408, 820.8768
588.6229, 843.9926
589.1050, 873.8158
589.5872, 893.3302
590.0693, 903.0381
590.5514, 914.6121
591.0335, 932.7297
591.5156, 949.2753
591.9977, 952.5131
592.4799, 944.8013
592.9620, 944.6809
593.4441, 965.8489
593.9262, 984.1636
594.4083, 980.4136
594.8904, 964.3387
595.3726, 956.3804
595.8547, 963.6834
596.3368, 977.1498
596.8189, 982.6359
597.3010, 976.4477
597.7831, 979.9613
598.2653, 1005.856
598.7474, 1028.377
599.2295, 1035.262
599.7116, 1034.706
600.1937, 1040.035
600.6758, 1056.498
601.1580, 1076.598
601.6401, 1094.039
602.1222, 1108.616
602.6043, 1118.442
603.0864, 1122.173
603.5685, 1125.237
604.0507, 1133.035
604.5328, 1144.685
605.0149, 1151.755
605.4970, 1149.162
605.9791, 1148.009
606.4612, 1154.778
606.9434, 1163.965
607.4255, 1168.360
607.9076, 1166.457
608.3897, 1161.588
608.8718, 1156.215
609.3539, 1150.470
609.8361, 1151.037
610.3182, 1159.359
610.8003, 1171.858
611.2824, 1191.745
611.7645, 1212.548
612.2466, 1227.111
612.7288, 1233.930
613.2109, 1238.208
613.6930, 1237.551
614.1751, 1238.482
614.6572, 1256.552
615.1393, 1292.605
615.6215, 1327.794
616.1036, 1350.636
616.5857, 1363.925
617.0678, 1378.273
