##NAMES=Whiteite-(CaFeMg)
##RRUFFID=R060912
##IDEAL CHEMISTRY=CaFe^2+^Mg_2_Al_2_(PO_4_)_4_(OH)_2_&#183;8H_2_O
##LOCALITY=Yukon Territory, Canada
##OWNER=RRUFF
##SOURCE=Royal Ontario Museum
##DESCRIPTION=Dull gray-tan crystals
##STATUS=The identification of this mineral has been made only by X-ray diffraction.
##URL=rruff.info/R060912
160.0968, 1263.739
160.5789, 1259.231
161.0610, 1251.894
161.5431, 1250.081
162.0252, 1254.590
162.5073, 1262.039
162.9895, 1270.434
163.4716, 1279.992
163.9537, 1284.689
164.4358, 1276.812
164.9179, 1268.434
165.4000, 1271.864
165.8822, 1288.622
166.3643, 1309.016
166.8464, 1325.689
167.3285, 1338.404
167.8106, 1342.947
168.2927, 1329.915
168.7749, 1313.089
169.2570, 1308.283
169.7391, 1318.233
170.2212, 1330.895
170.7033, 1334.000
171.1854, 1327.886
171.6676, 1321.880
172.1497, 1316.497
172.6318, 1312.374
173.1139, 1310.939
173.5960, 1312.698
174.0781, 1314.837
174.5603, 1314.133
175.0424, 1310.900
175.5245, 1308.225
176.0066, 1307.984
176.4887, 1308.181
176.9708, 1304.486
177.4530, 1295.116
177.9351, 1287.964
178.4172, 1295.251
178.8993, 1314.342
179.3814, 1326.816
179.8635, 1323.768
180.3457, 1312.799
180.8278, 1304.295
181.3099, 1299.519
181.7920, 1297.269
182.2741, 1297.303
182.7562, 1299.181
183.2384, 1301.568
183.7205, 1303.439
184.2026, 1305.753
184.6847, 1310.753
185.1668, 1319.445
185.6489, 1328.046
186.1311, 1332.312
186.6132, 1333.234
187.0953, 1334.012
187.5774, 1336.566
188.0595, 1339.334
188.5416, 1340.031
189.0238, 1338.644
189.5059, 1334.491
189.9880, 1323.858
190.4701, 1308.929
190.9522, 1297.938
191.4343, 1295.073
191.9165, 1297.300
192.3986, 1299.979
192.8807, 1302.990
193.3628, 1305.706
193.8449, 1307.013
194.3270, 1307.466
194.8092, 1308.776
195.2913, 1312.199
195.7734, 1316.640
196.2555, 1319.133
196.7376, 1318.151
197.2197, 1319.993
197.7019, 1335.013
198.1840, 1357.912
198.6661, 1373.991
199.1482, 1371.965
199.6303, 1362.743
200.1124, 1365.463
200.5946, 1384.137
201.0767, 1402.362
201.5588, 1402.628
202.0409, 1392.326
202.5230, 1387.682
203.0051, 1398.376
203.4873, 1415.406
203.9694, 1425.644
204.4515, 1427.675
204.9336, 1427.531
205.4157, 1428.323
205.8978, 1430.064
206.3800, 1433.082
206.8621, 1437.631
207.3442, 1443.439
207.8263, 1449.544
208.3084, 1455.558
208.7905, 1464.334
209.2727, 1481.221
209.7548, 1502.028
210.2369, 1517.995
210.7190, 1524.483
211.2011, 1526.951
211.6832, 1530.883
212.1654, 1536.272
212.6475, 1543.009
213.1296, 1551.078
213.6117, 1560.528
214.0938, 1571.587
214.5760, 1587.062
215.0581, 1601.812
215.5402, 1609.971
216.0223, 1611.369
216.5044, 1612.001
216.9865, 1613.734
217.4687, 1617.411
217.9508, 1624.599
218.4329, 1637.751
218.9150, 1651.826
219.3971, 1662.836
219.8792, 1670.916
220.3614, 1677.371
220.8435, 1681.268
221.3256, 1684.743
221.8077, 1692.543
222.2898, 1709.261
222.7719, 1723.586
223.2541, 1724.460
223.7362, 1714.030
224.2183, 1706.697
224.7004, 1709.162
225.1825, 1718.056
225.6646, 1726.082
226.1468, 1733.967
226.6289, 1739.573
227.1110, 1740.469
227.5931, 1737.740
228.0752, 1735.415
228.5573, 1734.955
229.0395, 1735.647
229.5216, 1735.805
230.0037, 1734.563
230.4858, 1735.260
230.9679, 1742.910
231.4500, 1753.717
231.9322, 1756.739
232.4143, 1746.102
232.8964, 1731.526
233.3785, 1730.499
233.8606, 1745.521
234.3427, 1757.350
234.8249, 1759.930
235.3070, 1755.386
235.7891, 1745.696
236.2712, 1730.119
236.7533, 1714.151
237.2354, 1706.426
237.7176, 1707.606
238.1997, 1708.546
238.6818, 1706.587
239.1639, 1703.818
239.6460, 1703.217
240.1281, 1705.434
240.6103, 1708.046
241.0924, 1707.491
241.5745, 1702.896
242.0566, 1703.150
242.5387, 1717.130
243.0208, 1731.260
243.5030, 1731.135
243.9851, 1715.925
244.4672, 1698.188
244.9493, 1689.888
245.4314, 1692.425
245.9135, 1689.642
246.3957, 1676.086
246.8778, 1661.743
247.3599, 1652.753
247.8420, 1649.186
248.3241, 1649.154
248.8062, 1652.340
249.2884, 1658.470
249.7705, 1658.092
250.2526, 1647.576
250.7347, 1635.149
251.2168, 1621.859
251.6989, 1609.281
252.1811, 1600.824
252.6632, 1598.743
253.1453, 1602.484
253.6274, 1608.708
254.1095, 1625.491
254.5916, 1635.328
255.0738, 1626.582
255.5559, 1609.191
256.0380, 1600.630
256.5201, 1609.943
257.0022, 1630.332
257.4843, 1640.808
257.9665, 1631.919
258.4486, 1623.661
258.9307, 1614.076
259.4128, 1606.977
259.8949, 1608.202
260.3770, 1619.604
260.8592, 1635.307
261.3413, 1643.971
261.8234, 1637.952
262.3055, 1636.864
262.7876, 1645.105
263.2697, 1654.963
263.7519, 1659.259
264.2340, 1657.194
264.7161, 1654.554
265.1982, 1659.688
265.6803, 1677.073
266.1624, 1689.092
266.6446, 1692.446
267.1267, 1694.003
267.6088, 1696.685
268.0909, 1700.912
268.5730, 1705.898
269.0551, 1710.546
269.5373, 1714.563
270.0194, 1721.758
270.5015, 1735.525
270.9836, 1749.590
271.4657, 1761.585
271.9478, 1772.380
272.4300, 1784.206
272.9121, 1798.993
273.3942, 1816.058
273.8763, 1832.011
274.3584, 1847.998
274.8405, 1860.645
275.3227, 1867.535
275.8048, 1871.167
276.2869, 1874.254
276.7690, 1877.068
277.2511, 1881.921
277.7332, 1896.078
278.2154, 1925.276
278.6975, 1948.042
279.1796, 1951.755
279.6617, 1948.962
280.1438, 1951.876
280.6259, 1964.759
281.1081, 1978.654
281.5902, 1981.545
282.0723, 1972.381
282.5544, 1965.567
283.0365, 1968.925
283.5186, 1972.748
284.0008, 1967.219
284.4829, 1951.256
284.9650, 1935.981
285.4471, 1933.080
285.9292, 1939.087
286.4113, 1935.796
286.8935, 1917.434
287.3756, 1893.138
287.8577, 1869.308
288.3398, 1846.272
288.8219, 1827.902
289.3040, 1821.713
289.7862, 1819.495
290.2683, 1803.753
290.7504, 1769.841
291.2325, 1739.175
291.7146, 1732.933
292.1967, 1746.305
292.6789, 1755.613
293.1610, 1756.058
293.6431, 1752.361
294.1252, 1747.827
294.6073, 1742.589
295.0894, 1736.574
295.5716, 1729.711
296.0537, 1721.949
296.5358, 1713.457
297.0179, 1702.985
297.5000, 1693.080
297.9821, 1682.145
298.4643, 1672.629
298.9464, 1671.246
299.4285, 1681.982
299.9106, 1698.759
300.3927, 1707.096
300.8748, 1701.444
301.3570, 1696.408
301.8391, 1693.747
302.3212, 1692.212
302.8033, 1692.226
303.2854, 1693.438
303.7675, 1691.438
304.2497, 1679.289
304.7318, 1650.471
305.2139, 1630.478
305.6960, 1624.713
306.1781, 1621.927
306.6602, 1616.611
307.1424, 1608.108
307.6245, 1597.739
308.1066, 1586.637
308.5887, 1574.824
309.0708, 1561.470
309.5529, 1546.173
310.0351, 1529.663
310.5172, 1510.207
310.9993, 1489.988
311.4814, 1472.327
311.9635, 1459.138
312.4456, 1449.795
312.9278, 1442.600
313.4099, 1438.851
313.8920, 1434.942
314.3741, 1430.481
314.8562, 1425.382
315.3383, 1419.841
315.8205, 1413.940
316.3026, 1406.768
316.7847, 1396.242
317.2668, 1381.738
317.7489, 1369.174
318.2310, 1360.522
318.7132, 1353.390
319.1953, 1346.279
319.6774, 1339.142
320.1595, 1332.164
320.6416, 1324.717
321.1237, 1317.412
321.6059, 1313.837
322.0880, 1317.047
322.5701, 1317.699
323.0522, 1305.812
323.5343, 1285.411
324.0164, 1266.870
324.4986, 1249.285
324.9807, 1237.139
325.4628, 1239.887
325.9449, 1257.205
326.4270, 1270.128
326.9091, 1265.595
327.3913, 1249.639
327.8734, 1242.729
328.3555, 1251.972
328.8376, 1260.164
329.3197, 1259.208
329.8018, 1251.675
330.2840, 1242.234
330.7661, 1232.221
331.2482, 1222.571
331.7303, 1214.894
332.2124, 1209.568
332.6945, 1205.483
333.1767, 1201.477
333.6588, 1199.390
334.1409, 1202.351
334.6230, 1210.011
335.1051, 1217.557
335.5872, 1220.213
336.0694, 1217.417
336.5515, 1213.806
337.0336, 1207.632
337.5157, 1202.555
337.9979, 1199.441
338.4800, 1198.471
338.9621, 1200.485
339.4442, 1206.573
339.9263, 1214.575
340.4084, 1214.918
340.8906, 1196.712
341.3727, 1188.782
341.8548, 1203.449
342.3369, 1225.042
342.8190, 1239.434
343.3011, 1242.488
343.7833, 1239.184
344.2654, 1234.242
344.7475, 1226.978
345.2296, 1223.667
345.7117, 1228.441
346.1938, 1234.369
346.6760, 1236.079
347.1581, 1234.443
347.6402, 1234.987
348.1223, 1242.511
348.6044, 1254.655
349.0865, 1265.188
349.5687, 1273.858
350.0508, 1281.260
350.5329, 1287.703
351.0150, 1293.147
351.4971, 1297.230
351.9792, 1298.951
352.4614, 1300.263
352.9435, 1302.244
353.4256, 1304.997
353.9077, 1309.799
354.3898, 1318.548
354.8719, 1327.734
355.3541, 1328.368
355.8362, 1316.932
356.3183, 1308.303
356.8004, 1308.679
357.2825, 1312.291
357.7646, 1311.590
358.2468, 1305.378
358.7289, 1299.311
359.2110, 1300.309
359.6931, 1310.822
360.1752, 1313.372
360.6573, 1302.246
361.1395, 1290.137
361.6216, 1282.431
362.1037, 1278.214
362.5858, 1274.297
363.0679, 1268.711
363.5500, 1262.079
364.0322, 1256.693
364.5143, 1251.497
364.9964, 1249.490
365.4785, 1256.576
365.9606, 1263.497
366.4427, 1260.761
366.9249, 1246.331
367.4070, 1227.948
367.8891, 1213.484
368.3712, 1202.789
368.8533, 1198.138
369.3354, 1206.931
369.8176, 1213.663
370.2997, 1203.171
370.7818, 1181.612
371.2639, 1170.549
371.7460, 1196.089
372.2281, 1233.589
372.7103, 1233.648
373.1924, 1191.187
373.6745, 1148.708
374.1566, 1127.998
374.6387, 1123.412
375.1208, 1120.929
375.6030, 1123.380
376.0851, 1122.220
376.5672, 1109.686
377.0493, 1090.524
377.5314, 1074.674
378.0135, 1064.986
378.4957, 1059.944
378.9778, 1058.233
379.4599, 1061.971
379.9420, 1062.080
380.4241, 1056.451
380.9063, 1048.755
381.3884, 1040.129
381.8705, 1031.520
382.3526, 1025.163
382.8347, 1023.163
383.3168, 1024.722
383.7990, 1023.063
384.2811, 1017.897
384.7632, 1009.404
385.2453, 992.4530
385.7274, 974.5865
386.2095, 964.1754
386.6917, 963.8741
387.1738, 969.4918
387.6559, 976.5930
388.1380, 986.1539
388.6201, 991.3919
389.1022, 988.5668
389.5844, 984.0327
390.0665, 980.8618
390.5486, 978.9694
391.0307, 977.4480
391.5128, 974.1761
391.9949, 971.4109
392.4771, 975.2617
392.9592, 986.9307
393.4413, 997.2357
393.9234, 1002.943
394.4055, 1003.119
394.8876, 995.8381
395.3698, 975.1005
395.8519, 958.3256
396.3340, 956.8950
396.8161, 965.4983
397.2982, 974.1029
397.7803, 980.1144
398.2625, 984.7889
398.7446, 990.1530
399.2267, 997.3806
399.7088, 999.3898
400.1909, 990.6997
400.6730, 981.9449
401.1552, 978.3145
401.6373, 979.7524
402.1194, 984.8759
402.6015, 993.1429
403.0836, 1003.581
403.5657, 1012.136
404.0479, 1018.468
404.5300, 1023.392
405.0121, 1027.193
405.4942, 1029.757
405.9763, 1030.071
406.4584, 1028.326
406.9406, 1027.342
407.4227, 1029.606
407.9048, 1035.122
408.3869, 1044.740
408.8690, 1062.923
409.3511, 1078.143
409.8333, 1077.495
410.3154, 1069.286
410.7975, 1072.383
411.2796, 1100.551
411.7617, 1134.434
412.2438, 1152.500
412.7260, 1156.672
413.2081, 1162.191
413.6902, 1175.332
414.1723, 1192.155
414.6544, 1205.159
415.1365, 1213.572
415.6187, 1222.168
416.1008, 1231.391
416.5829, 1241.484
417.0650, 1252.769
417.5471, 1265.267
418.0292, 1278.872
418.5114, 1293.782
418.9935, 1309.851
419.4756, 1324.076
419.9577, 1333.262
420.4398, 1344.415
420.9219, 1361.745
421.4041, 1380.398
421.8862, 1393.726
422.3683, 1399.797
422.8504, 1404.111
423.3325, 1414.548
423.8146, 1431.780
424.2968, 1450.121
424.7789, 1475.056
425.2610, 1494.112
425.7431, 1499.195
426.2252, 1492.957
426.7073, 1483.365
427.1895, 1469.345
427.6716, 1457.165
428.1537, 1458.348
428.6358, 1472.694
429.1179, 1486.428
429.6000, 1494.838
430.0822, 1498.139
430.5643, 1497.170
431.0464, 1492.808
431.5285, 1482.771
432.0106, 1458.450
432.4927, 1432.458
432.9749, 1422.547
433.4570, 1429.115
433.9391, 1434.634
434.4212, 1423.259
434.9033, 1395.397
435.3854, 1372.133
435.8676, 1355.705
436.3497, 1341.542
436.8318, 1327.482
437.3139, 1315.825
437.7960, 1311.295
438.2781, 1315.189
438.7603, 1319.567
439.2424, 1312.156
439.7245, 1291.487
440.2066, 1273.367
440.6887, 1261.106
441.1708, 1249.063
441.6530, 1229.989
442.1351, 1208.091
442.6172, 1195.738
443.0993, 1204.686
443.5814, 1219.767
444.0635, 1221.946
444.5457, 1212.205
445.0278, 1200.977
445.5099, 1191.538
445.9920, 1183.985
446.4741, 1179.573
446.9562, 1179.928
447.4384, 1177.194
447.9205, 1167.503
448.4026, 1155.962
448.8847, 1145.247
449.3668, 1136.608
449.8489, 1133.661
450.3311, 1140.258
450.8132, 1154.091
451.2953, 1158.930
451.7774, 1148.293
452.2595, 1137.018
452.7416, 1123.313
453.2238, 1112.162
453.7059, 1110.080
454.1880, 1117.680
454.6701, 1125.875
455.1522, 1123.110
455.6343, 1111.081
456.1165, 1108.344
456.5986, 1121.289
457.0807, 1132.078
457.5628, 1126.617
458.0449, 1111.620
458.5270, 1098.350
459.0092, 1087.510
459.4913, 1080.877
459.9734, 1081.403
460.4555, 1087.046
460.9376, 1093.728
461.4197, 1100.608
461.9019, 1105.005
462.3840, 1102.606
462.8661, 1090.955
463.3482, 1083.972
463.8303, 1083.640
464.3124, 1085.652
464.7946, 1089.013
465.2767, 1093.075
465.7588, 1097.831
466.2409, 1103.513
466.7230, 1107.675
467.2051, 1103.235
467.6873, 1085.319
468.1694, 1075.594
468.6515, 1084.906
469.1336, 1096.466
469.6157, 1100.447
470.0978, 1097.850
470.5800, 1095.693
471.0621, 1098.999
471.5442, 1104.225
472.0263, 1105.299
472.5084, 1102.315
472.9905, 1100.192
473.4727, 1101.637
473.9548, 1104.679
474.4369, 1104.349
474.9190, 1098.158
475.4011, 1096.429
475.8832, 1106.008
476.3654, 1117.338
476.8475, 1121.796
477.3296, 1119.336
477.8117, 1114.495
478.2938, 1110.060
478.7759, 1106.658
479.2581, 1108.326
479.7402, 1120.819
480.2223, 1129.149
480.7044, 1128.897
481.1865, 1125.500
481.6686, 1123.345
482.1508, 1123.070
482.6329, 1122.623
483.1150, 1118.362
483.5971, 1112.492
484.0792, 1114.204
484.5613, 1125.783
485.0435, 1135.476
485.5256, 1134.517
486.0077, 1127.455
486.4898, 1126.808
486.9719, 1137.361
487.4540, 1145.503
487.9362, 1143.187
488.4183, 1136.678
488.9004, 1134.647
489.3825, 1138.352
489.8646, 1143.057
490.3467, 1144.393
490.8289, 1142.375
491.3110, 1140.309
491.7931, 1137.405
492.2752, 1135.427
492.7573, 1134.336
493.2394, 1134.466
493.7216, 1137.510
494.2037, 1143.617
494.6858, 1147.818
495.1679, 1142.065
495.6500, 1128.527
496.1321, 1124.304
496.6143, 1134.365
497.0964, 1143.399
497.5785, 1138.126
498.0606, 1124.788
498.5427, 1119.212
499.0248, 1130.776
499.5070, 1138.328
499.9891, 1125.677
500.4712, 1104.168
500.9533, 1093.492
501.4355, 1097.733
501.9176, 1105.412
502.3997, 1104.384
502.8818, 1094.141
503.3639, 1085.303
503.8460, 1077.102
504.3282, 1071.330
504.8103, 1070.616
505.2924, 1071.599
505.7745, 1071.160
506.2566, 1068.291
506.7387, 1061.879
507.2209, 1046.551
507.7030, 1024.551
508.1851, 1014.972
508.6672, 1022.883
509.1493, 1034.332
509.6314, 1042.612
510.1136, 1047.103
510.5957, 1045.913
511.0778, 1036.288
511.5599, 1024.542
512.0420, 1010.897
512.5241, 997.9231
513.0062, 990.3968
513.4883, 989.0925
513.9705, 989.7944
514.4526, 988.0870
514.9347, 983.8452
515.4168, 981.0600
515.8989, 982.4200
516.3810, 982.0001
516.8632, 976.6786
517.3453, 969.9151
517.8274, 965.8311
518.3095, 965.4609
518.7916, 965.8161
519.2737, 964.9030
519.7559, 962.4623
520.2380, 956.2477
520.7201, 944.8206
521.2022, 935.0000
521.6843, 931.3256
522.1664, 932.9022
522.6486, 935.6907
523.1307, 942.4798
523.6128, 946.2075
524.0949, 940.9943
524.5770, 933.3702
525.0591, 932.5103
525.5413, 938.8343
526.0234, 944.1505
526.5055, 940.5453
526.9876, 929.1476
527.4697, 922.2397
527.9518, 919.7583
528.4340, 922.2805
528.9161, 936.1705
529.3982, 950.6479
529.8803, 954.0908
530.3624, 945.3849
530.8445, 937.1608
531.3267, 939.0977
531.8088, 947.1669
532.2909, 952.9709
532.7730, 956.0776
533.2551, 960.1206
533.7372, 967.8275
534.2194, 977.1328
534.7015, 981.7407
535.1836, 976.9136
535.6657, 976.7916
536.1478, 986.2068
536.6299, 998.1630
537.1121, 1008.325
537.5942, 1016.001
538.0763, 1020.771
538.5584, 1021.433
539.0405, 1021.179
539.5226, 1030.715
540.0048, 1053.694
540.4869, 1072.450
540.9690, 1078.548
541.4511, 1083.491
541.9332, 1099.024
542.4153, 1123.505
542.8975, 1142.211
543.3796, 1143.981
543.8617, 1142.264
544.3438, 1149.659
544.8259, 1164.470
545.3080, 1180.420
545.7902, 1195.266
546.2723, 1208.630
546.7544, 1219.742
547.2365, 1227.949
547.7186, 1236.259
548.2007, 1243.099
548.6829, 1251.726
549.1650, 1265.184
549.6471, 1280.802
550.1292, 1293.801
550.6113, 1302.070
551.0934, 1309.562
551.5756, 1320.692
552.0577, 1335.210
552.5398, 1353.409
553.0219, 1377.498
553.5040, 1397.697
553.9861, 1402.707
554.4683, 1396.483
554.9504, 1402.525
555.4325, 1433.259
555.9146, 1461.319
556.3967, 1478.271
556.8788, 1487.943
557.3610, 1492.801
557.8431, 1494.419
558.3252, 1496.690
558.8073, 1503.109
559.2894, 1513.357
559.7715, 1524.822
560.2537, 1536.757
560.7358, 1551.520
561.2179, 1577.413
561.7000, 1601.577
562.1821, 1610.925
562.6642, 1604.610
563.1464, 1598.214
563.6285, 1600.660
564.1106, 1606.069
564.5927, 1605.615
565.0748, 1600.729
565.5569, 1601.251
566.0391, 1612.524
566.5212, 1629.031
567.0033, 1639.505
567.4854, 1640.046
567.9675, 1643.996
568.4496, 1658.488
568.9318, 1668.831
569.4139, 1660.862
569.8960, 1645.235
570.3781, 1643.854
570.8602, 1668.007
571.3423, 1699.410
571.8245, 1716.792
572.3066, 1721.767
572.7887, 1723.428
573.2708, 1722.477
573.7529, 1721.155
574.2350, 1721.339
574.7172, 1722.791
575.1993, 1723.473
575.6814, 1722.268
576.1635, 1721.752
576.6456, 1720.117
577.1277, 1720.932
577.6099, 1730.421
578.0920, 1747.571
578.5741, 1763.216
579.0562, 1769.441
579.5383, 1768.151
580.0204, 1765.381
580.5026, 1758.517
580.9847, 1761.135
581.4668, 1788.923
581.9489, 1817.543
582.4310, 1816.562
582.9132, 1786.180
583.3953, 1765.242
583.8774, 1767.149
584.3596, 1780.224
584.8417, 1803.200
585.3238, 1829.540
585.8059, 1844.224
586.2880, 1841.442
586.7701, 1829.455
587.2523, 1819.210
587.7344, 1810.035
588.2165, 1807.567
588.6986, 1821.206
589.1807, 1829.167
589.6628, 1823.673
590.1450, 1808.457
590.6271, 1785.961
591.1092, 1754.955
591.5913, 1728.370
592.0734, 1719.067
592.5555, 1718.040
593.0377, 1710.174
593.5198, 1694.459
594.0019, 1678.003
594.4840, 1665.912
594.9661, 1654.805
595.4482, 1634.598
595.9304, 1599.855
596.4125, 1564.768
596.8946, 1526.188
597.3767, 1490.272
597.8588, 1461.221
598.3409, 1437.447
598.8231, 1415.337
599.3052, 1393.297
599.7873, 1372.071
600.2694, 1354.114
600.7515, 1338.104
601.2336, 1316.671
601.7158, 1287.693
602.1979, 1257.992
602.6800, 1232.860
603.1621, 1212.303
603.6442, 1194.983
604.1263, 1179.835
604.6085, 1169.014
605.0906, 1168.038
605.5727, 1168.012
606.0548, 1158.829
606.5369, 1141.664
607.0190, 1127.808
607.5012, 1127.871
607.9833, 1134.101
608.4654, 1126.701
608.9475, 1105.341
609.4296, 1091.825
609.9117, 1094.920
610.3939, 1103.327
610.8760, 1104.667
611.3581, 1098.403
611.8402, 1091.751
612.3223, 1082.705
612.8044, 1075.752
613.2866, 1074.958
613.7687, 1076.201
614.2508, 1072.340
614.7329, 1062.695
615.2150, 1055.541
615.6971, 1060.637
616.1793, 1075.282
616.6614, 1085.984
617.1435, 1092.567
617.6256, 1095.949
618.1077, 1096.483
618.5898, 1093.897
619.0720, 1084.307
619.5541, 1065.460
620.0362, 1060.384
620.5183, 1087.801
621.0004, 1115.429
621.4825, 1122.678
621.9647, 1115.737
622.4468, 1105.802
622.9289, 1097.293
623.4110, 1092.519
623.8931, 1096.137
624.3752, 1107.860
624.8574, 1116.113
625.3395, 1121.063
625.8216, 1121.976
626.3037, 1116.873
626.7858, 1108.279
627.2679, 1100.471
627.7501, 1093.873
628.2322, 1086.469
628.7143, 1074.352
629.1964, 1064.083
629.6785, 1061.592
630.1606, 1065.182
630.6428, 1071.369
631.1249, 1078.649
631.6070, 1083.294
632.0891, 1078.170
632.5712, 1062.593
633.0533, 1048.631
633.5355, 1035.443
634.0176, 1026.042
634.4997, 1022.997
634.9818, 1024.529
635.4639, 1029.309
635.9460, 1040.344
636.4282, 1043.962
636.9103, 1027.870
637.3924, 1008.469
637.8745, 1002.565
638.3566, 1006.675
638.8387, 1006.788
639.3209, 995.8699
639.8030, 979.8587
640.2851, 969.4476
640.7672, 965.2604
641.2493, 959.0672
641.7314, 948.5200
642.2136, 939.4287
642.6957, 936.8979
643.1778, 937.4741
643.6599, 934.9778
644.1420, 928.2687
644.6241, 920.5458
645.1063, 910.4879
645.5884, 901.7079
646.0705, 899.8605
646.5526, 902.5045
647.0347, 900.8768
647.5168, 890.1664
647.9990, 876.6368
648.4811, 873.2339
648.9632, 881.3179
649.4453, 880.9366
649.9274, 865.7076
650.4095, 852.1270
650.8917, 852.3459
651.3738, 860.2906
651.8559, 863.2949
652.3380, 859.2004
652.8201, 854.1736
653.3022, 849.7064
653.7844, 845.2882
654.2665, 839.9038
654.7486, 834.1656
655.2307, 830.4733
655.7128, 830.2012
656.1949, 830.1392
656.6771, 823.1085
657.1592, 808.9131
657.6413, 802.4389
658.1234, 807.5717
