##NAMES=Wickmanite
##RRUFFID=R100017
##IDEAL CHEMISTRY=Mn^2+^Sn^4+^(OH)_6_
##LOCALITY=Langban, Filipstad, Varmland, Sweden
##OWNER=RRUFF
##SOURCE=William Pinch
##DESCRIPTION=Colorless distorted octahedra
##STATUS=The identification of this mineral has been confirmed by single-crystal X-ray diffraction.
##URL=rruff.info/R100017
89.60352, 17.20059
90.08563, 16.88644
90.56775, 16.84768
91.04987, 17.36078
91.53198, 17.89423
92.01410, 17.63508
92.49622, 16.62099
92.97833, 15.54323
93.46045, 15.04014
93.94257, 14.99110
94.42468, 14.99798
94.90680, 14.94516
95.38892, 14.84175
95.87103, 14.64318
96.35315, 14.30029
96.83527, 14.06803
97.31738, 14.46984
97.79950, 15.53376
98.28162, 16.34057
98.76373, 16.30890
99.24585, 15.40695
99.72797, 14.84626
100.2101, 14.71609
100.6922, 14.88022
101.1743, 15.04545
101.6564, 15.22980
102.1385, 15.37027
102.6207, 15.38697
103.1028, 15.17542
103.5849, 15.18650
104.0670, 15.57373
104.5491, 16.26010
105.0313, 16.67506
105.5134, 16.87112
105.9955, 16.74670
106.4776, 16.15094
106.9597, 14.35392
107.4418, 13.13267
107.9240, 12.91172
108.4061, 13.83378
108.8882, 14.64806
109.3703, 15.56205
109.8524, 16.29000
110.3345, 16.52134
110.8167, 15.54941
111.2988, 14.72347
111.7809, 14.45629
112.2630, 15.03459
112.7451, 15.38445
113.2272, 15.10628
113.7094, 14.54090
114.1915, 14.24858
114.6736, 14.79258
115.1557, 15.33545
115.6378, 15.40323
116.1199, 14.48393
116.6021, 13.84368
117.0842, 14.09325
117.5663, 15.00214
118.0484, 15.87806
118.5305, 16.68428
119.0126, 17.21312
119.4948, 17.24207
119.9769, 16.04883
120.4590, 15.00618
120.9411, 15.12381
121.4232, 16.28224
121.9053, 17.60626
122.3875, 18.61659
122.8696, 19.43425
123.3517, 20.22727
123.8338, 20.93659
124.3159, 21.71817
124.7980, 22.77936
125.2802, 24.13285
125.7623, 25.53791
126.2444, 26.58913
126.7265, 27.48907
127.2086, 28.77760
127.6907, 30.77480
128.1729, 33.32237
128.6550, 35.91840
129.1371, 38.39551
129.6192, 41.53424
130.1013, 46.98610
130.5834, 54.42999
131.0656, 61.68132
131.5477, 67.28688
132.0298, 71.55759
132.5119, 75.95872
132.9940, 80.54069
133.4761, 85.47020
133.9583, 91.43885
134.4404, 98.51509
134.9225, 105.8983
135.4046, 113.0703
135.8867, 120.0659
136.3688, 126.7401
136.8510, 133.0804
137.3331, 139.0435
137.8152, 144.9828
138.2973, 151.0111
138.7794, 156.7453
139.2615, 161.6828
139.7437, 165.3915
140.2258, 169.9283
140.7079, 175.7052
141.1900, 182.6843
141.6721, 190.4291
142.1542, 198.8566
142.6364, 208.0987
143.1185, 218.3951
143.6006, 230.0042
144.0827, 241.9935
144.5648, 254.1620
145.0469, 266.7934
145.5291, 278.7596
146.0112, 289.7128
146.4933, 300.3331
146.9754, 311.8877
147.4575, 325.4591
147.9396, 338.5016
148.4218, 350.4705
148.9039, 361.1528
149.3860, 371.0581
149.8681, 379.6872
150.3502, 387.4569
150.8323, 395.2395
151.3145, 403.4273
151.7966, 411.2162
152.2787, 418.3929
152.7608, 424.5108
153.2429, 430.6121
153.7250, 436.7789
154.2072, 442.9776
154.6893, 449.1143
155.1714, 453.2245
155.6535, 454.9137
156.1356, 457.0308
156.6177, 459.9907
157.0999, 463.5103
157.5820, 467.8718
158.0641, 472.8588
158.5462, 477.5620
159.0283, 481.1743
159.5104, 484.7746
159.9926, 489.0644
160.4747, 495.2280
160.9568, 501.0927
161.4389, 506.1351
161.9210, 510.3086
162.4031, 513.7261
162.8853, 515.2499
163.3674, 516.4899
163.8495, 518.9182
164.3316, 524.1017
164.8137, 529.6356
165.2958, 534.3267
165.7780, 538.1860
166.2601, 541.8340
166.7422, 545.6669
167.2243, 549.5147
167.7064, 553.1110
168.1885, 556.2736
168.6707, 559.2455
169.1528, 561.9781
169.6349, 564.4379
170.1170, 567.3966
170.5991, 571.7666
171.0812, 577.0081
171.5634, 582.1104
172.0455, 587.2880
172.5276, 591.8369
173.0097, 594.7058
173.4918, 595.6157
173.9739, 596.3524
174.4561, 598.4191
174.9382, 601.5082
175.4203, 604.9008
175.9024, 608.3224
176.3845, 611.7650
176.8666, 615.2667
177.3488, 618.9113
177.8309, 622.3708
178.3130, 625.2467
178.7951, 627.6467
179.2772, 629.8487
179.7593, 632.0405
180.2415, 634.1569
180.7236, 636.1845
181.2057, 638.2188
181.6878, 639.9301
182.1699, 640.7034
182.6520, 640.6415
183.1342, 640.5358
183.6163, 640.8649
184.0984, 641.5411
184.5805, 642.3840
185.0626, 643.5113
185.5447, 644.5519
186.0269, 644.7530
186.5090, 644.1386
186.9911, 643.4386
187.4732, 643.0416
187.9553, 642.9550
188.4374, 643.3171
188.9196, 644.3180
189.4017, 645.5980
189.8838, 646.3681
190.3659, 646.6249
190.8480, 646.6798
191.3301, 646.4344
191.8123, 645.9970
192.2944, 646.6483
192.7765, 649.1786
193.2586, 652.6359
193.7407, 653.5712
194.2228, 651.6202
194.7050, 649.8329
195.1871, 651.5507
195.6692, 656.7292
196.1513, 660.4365
196.6334, 661.2816
197.1155, 659.9838
197.5977, 659.1798
198.0798, 658.8571
198.5619, 659.0829
199.0440, 660.1515
199.5261, 662.1343
200.0082, 663.8551
200.4904, 665.1542
200.9725, 665.9861
201.4546, 666.0609
201.9367, 665.2896
202.4188, 663.9944
202.9009, 662.5155
203.3831, 660.8718
203.8652, 658.8439
204.3473, 656.3275
204.8294, 653.3526
205.3115, 650.1130
205.7936, 646.3651
206.2758, 642.8697
206.7579, 640.6726
207.2400, 640.1696
207.7221, 639.2742
208.2042, 637.2076
208.6863, 634.0115
209.1685, 632.0243
209.6506, 631.6858
210.1327, 631.7908
210.6148, 630.7578
211.0969, 628.0862
211.5790, 626.0670
212.0612, 625.5140
212.5433, 626.4720
213.0254, 626.8382
213.5075, 626.4075
213.9896, 625.6526
214.4717, 625.0364
214.9538, 624.3685
215.4360, 624.3483
215.9181, 625.3887
216.4002, 627.5853
216.8823, 629.1411
217.3644, 629.9851
217.8465, 630.2609
218.3287, 630.0393
218.8108, 628.9832
219.2929, 628.1920
219.7750, 627.9291
220.2571, 628.2162
220.7392, 628.9141
221.2214, 630.2391
221.7035, 631.7673
222.1856, 632.9926
222.6677, 633.8600
223.1498, 634.5060
223.6319, 634.7457
224.1141, 634.3954
224.5962, 635.1365
225.0783, 637.4100
225.5604, 640.3672
226.0425, 642.9493
226.5246, 645.0439
227.0068, 646.9407
227.4889, 648.6625
227.9710, 650.2222
228.4531, 651.6932
228.9352, 653.2036
229.4173, 654.5157
229.8995, 655.2405
230.3816, 655.0836
230.8637, 654.8607
231.3458, 654.6033
231.8279, 654.1295
232.3100, 654.9066
232.7922, 657.8189
233.2743, 661.2588
233.7564, 663.0041
234.2385, 661.7625
234.7206, 661.1163
235.2027, 662.3090
235.6849, 665.8056
236.1670, 668.0858
236.6491, 668.6876
237.1312, 668.4554
237.6133, 668.3734
238.0954, 668.2142
238.5776, 668.6200
239.0597, 669.9629
239.5418, 672.4526
240.0239, 674.2912
240.5060, 675.2645
240.9881, 675.7653
241.4703, 676.2878
241.9524, 676.9564
242.4345, 677.4258
242.9166, 677.6018
243.3987, 677.4691
243.8808, 677.2030
244.3630, 676.9504
244.8451, 676.4473
245.3272, 675.2668
245.8093, 672.7899
246.2914, 670.7804
246.7735, 669.7703
247.2557, 669.8843
247.7378, 669.6946
248.2199, 669.1750
248.7020, 668.3661
249.1841, 667.2191
249.6662, 665.3320
250.1484, 663.8906
250.6305, 663.3959
251.1126, 663.9454
251.5947, 663.4785
252.0768, 661.3924
252.5589, 658.9227
253.0411, 657.4993
253.5232, 657.9150
254.0053, 657.6571
254.4874, 655.9945
254.9695, 652.8882
255.4516, 650.3832
255.9338, 648.7103
256.4159, 647.3713
256.8980, 645.9340
257.3801, 644.3724
257.8622, 642.7539
258.3444, 640.9028
258.8265, 638.8630
259.3086, 637.9303
259.7907, 638.4310
260.2728, 639.6052
260.7549, 640.7197
261.2371, 641.5109
261.7192, 643.0074
262.2013, 645.3964
262.6834, 648.6620
263.1655, 652.3444
263.6476, 656.2820
264.1298, 660.9558
264.6119, 666.9674
265.0940, 674.5338
265.5761, 682.5071
266.0582, 690.6581
266.5403, 698.9935
267.0225, 707.7452
267.5046, 716.6201
267.9867, 726.3991
268.4688, 737.5870
268.9509, 750.3399
269.4330, 764.3033
269.9152, 779.4522
270.3973, 795.8212
270.8794, 812.8060
271.3615, 830.0264
271.8436, 848.8337
272.3257, 870.3080
272.8079, 895.1096
273.2900, 918.5785
273.7721, 939.7498
274.2542, 959.8925
274.7363, 983.2632
275.2184, 1010.363
275.7006, 1038.580
276.1827, 1065.561
276.6648, 1091.232
277.1469, 1118.266
277.6290, 1146.853
278.1111, 1176.919
278.5933, 1207.974
279.0754, 1240.143
279.5575, 1274.270
280.0396, 1311.146
280.5217, 1350.454
281.0038, 1391.117
281.4860, 1432.604
281.9681, 1476.232
282.4502, 1524.350
282.9323, 1577.011
283.4144, 1633.099
283.8965, 1692.272
284.3787, 1754.067
284.8608, 1819.459
285.3429, 1888.607
285.8250, 1960.912
286.3071, 2037.497
286.7892, 2118.219
287.2714, 2196.155
287.7535, 2270.073
288.2356, 2339.776
288.7177, 2401.038
289.1998, 2455.099
289.6819, 2498.435
290.1641, 2527.677
290.6462, 2542.817
291.1283, 2543.461
291.6104, 2528.912
292.0925, 2499.764
292.5746, 2456.889
293.0568, 2399.826
293.5389, 2332.917
294.0210, 2258.383
294.5031, 2177.410
294.9852, 2095.422
295.4673, 2014.436
295.9495, 1933.867
296.4316, 1853.078
296.9137, 1772.493
297.3958, 1695.487
297.8779, 1624.755
298.3600, 1560.313
298.8422, 1500.452
299.3243, 1444.634
299.8064, 1393.181
300.2885, 1346.809
300.7706, 1305.427
301.2527, 1266.848
301.7349, 1230.133
302.2170, 1195.356
302.6991, 1163.470
303.1812, 1134.394
303.6633, 1108.020
304.1454, 1084.763
304.6276, 1064.281
305.1097, 1044.851
305.5918, 1025.627
306.0739, 1006.976
306.5560, 989.6871
307.0381, 973.7487
307.5203, 958.9872
308.0024, 945.6667
308.4845, 933.4008
308.9666, 921.2842
309.4487, 908.4050
309.9308, 895.7247
310.4130, 884.1840
310.8951, 873.9492
311.3772, 864.6483
311.8593, 856.3124
312.3414, 848.8509
312.8235, 841.9957
313.3057, 836.1288
313.7878, 830.3905
314.2699, 824.0363
314.7520, 817.0010
315.2341, 810.4226
315.7162, 804.9453
316.1984, 800.2129
316.6805, 795.8937
317.1626, 792.2947
317.6447, 788.6459
318.1268, 784.5190
318.6089, 779.9180
319.0911, 775.5886
319.5732, 771.7766
320.0553, 768.3206
320.5374, 765.1393
321.0195, 762.3832
321.5016, 759.6912
321.9838, 756.9662
322.4659, 754.2366
322.9480, 751.6282
323.4301, 748.7601
323.9122, 746.2975
324.3943, 744.6516
324.8765, 744.5305
325.3586, 744.2242
325.8407, 743.6345
326.3228, 742.7492
326.8049, 741.5394
327.2870, 739.2737
327.7692, 737.3196
328.2513, 736.2599
328.7334, 736.8014
329.2155, 736.6226
329.6976, 735.3065
330.1797, 733.4016
330.6619, 731.7859
331.1440, 730.6926
331.6261, 729.5569
332.1082, 728.1407
332.5903, 726.3715
333.0724, 725.0283
333.5546, 724.2668
334.0367, 723.7880
334.5188, 723.2324
335.0009, 722.3677
335.4830, 721.9716
335.9651, 722.3920
336.4473, 723.5309
336.9294, 724.0480
337.4115, 723.7138
337.8936, 723.2167
338.3757, 722.9400
338.8578, 722.7523
339.3399, 723.5937
339.8221, 725.9671
340.3042, 729.2732
340.7863, 731.1201
341.2684, 731.1237
341.7505, 731.7307
342.2326, 734.8958
342.7148, 740.5684
343.1969, 745.3321
343.6790, 748.5440
344.1611, 751.4747
344.6432, 756.2581
345.1253, 762.8734
345.6075, 770.3073
346.0896, 778.3262
346.5717, 786.8307
347.0538, 794.7853
347.5359, 802.0396
348.0180, 809.8583
348.5002, 820.0281
348.9823, 832.1485
349.4644, 844.5546
349.9465, 856.1342
350.4286, 867.8437
350.9107, 881.7549
351.3929, 897.7836
351.8750, 914.6257
352.3571, 931.5167
352.8392, 948.4649
353.3213, 965.4233
353.8034, 982.1992
354.2856, 999.2306
354.7677, 1017.016
355.2498, 1035.536
355.7319, 1054.950
356.2140, 1076.052
356.6961, 1097.711
357.1783, 1119.014
357.6604, 1139.655
358.1425, 1160.175
358.6246, 1180.539
359.1067, 1201.145
359.5888, 1222.943
360.0710, 1247.475
360.5531, 1272.392
361.0352, 1296.433
361.5173, 1319.344
361.9994, 1342.478
362.4815, 1366.481
362.9637, 1390.917
363.4458, 1415.322
363.9279, 1439.938
364.4100, 1464.360
364.8921, 1488.143
365.3742, 1511.469
365.8564, 1533.966
366.3385, 1556.223
366.8206, 1577.220
367.3027, 1596.346
367.7848, 1613.879
368.2669, 1629.283
368.7491, 1642.260
369.2312, 1653.014
369.7133, 1661.734
370.1954, 1669.551
370.6775, 1674.182
371.1596, 1674.830
371.6418, 1671.500
372.1239, 1664.313
372.6060, 1653.282
373.0881, 1638.522
373.5702, 1619.681
374.0523, 1595.490
374.5345, 1569.932
375.0166, 1543.798
375.4987, 1516.944
375.9808, 1489.264
376.4629, 1460.467
376.9450, 1430.697
377.4272, 1398.676
377.9093, 1363.829
378.3914, 1330.849
378.8735, 1300.609
379.3556, 1272.409
379.8377, 1243.282
380.3199, 1213.271
380.8020, 1183.475
381.2841, 1154.148
381.7662, 1125.350
382.2483, 1099.071
382.7304, 1075.464
383.2126, 1053.743
383.6947, 1032.685
384.1768, 1012.265
384.6589, 992.2247
385.1410, 972.9776
385.6231, 954.0012
386.1053, 935.6963
386.5874, 918.1476
387.0695, 901.4875
387.5516, 886.1325
388.0337, 871.4855
388.5158, 856.5771
388.9980, 840.3028
389.4801, 824.3325
389.9622, 810.1723
390.4443, 797.7128
390.9264, 786.1826
391.4085, 775.9115
391.8907, 766.0984
392.3728, 755.8548
392.8549, 744.6002
393.3370, 734.3642
393.8191, 726.9827
394.3012, 721.1480
394.7834, 714.6561
395.2655, 706.0606
395.7476, 697.3839
396.2297, 689.1695
396.7118, 681.3822
397.1939, 674.6976
397.6761, 670.1053
398.1582, 666.1959
398.6403, 661.7923
399.1224, 656.4103
399.6045, 650.9984
400.0866, 645.4130
400.5688, 639.7675
401.0509, 634.8643
401.5330, 630.6656
402.0151, 627.2209
402.4972, 624.7697
402.9793, 624.1766
403.4615, 622.2020
403.9436, 618.1264
404.4257, 613.3183
404.9078, 610.4101
405.3899, 609.9137
405.8720, 609.2628
406.3542, 607.4005
406.8363, 604.4637
407.3184, 602.5959
407.8005, 601.9628
408.2826, 601.6241
408.7647, 600.6282
409.2469, 599.0272
409.7290, 597.5269
410.2111, 596.2678
410.6932, 595.1608
411.1753, 593.7551
411.6574, 592.1616
412.1396, 591.3146
412.6217, 592.8619
413.1038, 595.3700
413.5859, 595.8690
414.0680, 593.8595
414.5501, 591.2809
415.0323, 589.5983
415.5144, 588.7014
415.9965, 588.3344
416.4786, 588.7911
416.9607, 589.4390
417.4428, 589.7656
417.9250, 589.7931
418.4071, 589.8502
418.8892, 590.2744
419.3713, 590.7049
419.8534, 590.7810
420.3355, 589.9914
420.8177, 589.5532
421.2998, 590.1823
421.7819, 591.4354
422.2640, 592.3613
422.7461, 592.5368
423.2282, 592.5484
423.7104, 592.6544
424.1925, 592.9747
424.6746, 592.9759
425.1567, 592.0402
425.6388, 591.1507
426.1209, 591.1931
426.6031, 592.6527
427.0852, 594.2712
427.5673, 595.9995
428.0494, 597.7735
428.5315, 599.0754
429.0136, 599.4845
429.4958, 600.2274
429.9779, 602.3138
430.4600, 606.1282
430.9421, 608.3865
431.4242, 608.6077
431.9063, 608.0016
432.3885, 608.4003
432.8706, 609.8111
433.3527, 611.4109
433.8348, 612.9931
434.3169, 614.5397
434.7990, 616.0110
435.2812, 617.4102
435.7633, 618.6807
436.2454, 619.5180
436.7275, 620.1923
437.2096, 621.4144
437.6917, 623.4753
438.1739, 625.7484
438.6560, 627.5081
439.1381, 628.9371
439.6202, 630.5156
440.1023, 632.6595
440.5844, 634.9431
441.0666, 637.1865
441.5487, 639.3711
442.0308, 641.0908
442.5129, 641.8340
442.9950, 642.1496
443.4771, 642.5614
443.9593, 643.1064
444.4414, 643.8725
444.9235, 644.8687
445.4056, 646.0928
445.8877, 647.5764
446.3698, 649.8386
446.8520, 651.8985
447.3341, 653.3655
447.8162, 654.1270
448.2983, 654.5413
448.7804, 654.2885
449.2625, 653.8972
449.7447, 653.9152
450.2268, 654.2116
450.7089, 655.3032
451.1910, 657.7305
451.6731, 661.0502
452.1552, 662.8454
452.6374, 662.9396
453.1195, 662.0986
453.6016, 660.1284
454.0837, 657.1348
454.5658, 656.1757
455.0479, 657.7836
455.5301, 660.4598
456.0122, 662.2689
456.4943, 663.3093
456.9764, 663.9984
457.4585, 664.3802
457.9406, 664.5959
458.4228, 665.0287
458.9049, 665.6192
459.3870, 665.8378
459.8691, 664.6281
460.3512, 663.0735
460.8333, 662.7316
461.3155, 664.3977
461.7976, 665.8790
462.2797, 665.3598
462.7618, 663.7360
463.2439, 662.5824
463.7260, 662.5618
464.2082, 663.0684
464.6903, 664.1692
465.1724, 665.8477
465.6545, 666.8802
466.1366, 666.2433
466.6187, 665.3769
467.1009, 665.2193
467.5830, 666.4676
468.0651, 667.5779
468.5472, 668.5849
469.0293, 669.4328
469.5114, 670.0188
469.9936, 670.3710
470.4757, 670.3662
470.9578, 669.7188
471.4399, 668.4413
471.9220, 668.1915
472.4041, 669.0735
472.8863, 670.6478
473.3684, 673.0866
473.8505, 676.3291
474.3326, 677.8297
474.8147, 676.8508
475.2968, 674.6578
475.7790, 673.1092
476.2611, 672.2003
476.7432, 671.9288
477.2253, 672.8145
477.7074, 674.1315
478.1895, 674.5918
478.6717, 674.1819
479.1538, 673.8150
479.6359, 674.2723
480.1180, 675.1489
480.6001, 675.9451
481.0822, 676.5259
481.5644, 677.0379
482.0465, 677.3629
482.5286, 677.6842
483.0107, 678.3942
483.4928, 680.2938
483.9749, 682.0139
484.4571, 682.9363
484.9392, 682.9417
485.4213, 682.8593
485.9034, 682.4488
486.3855, 682.1657
486.8676, 682.3019
487.3498, 682.8459
487.8319, 683.8674
488.3140, 685.7197
488.7961, 687.8651
489.2782, 688.9125
489.7603, 688.5491
490.2425, 688.0715
490.7246, 687.9288
491.2067, 688.1077
491.6888, 688.2840
492.1709, 688.3418
492.6530, 689.1368
493.1352, 692.1750
493.6173, 696.8171
494.0994, 700.1914
494.5815, 701.4532
495.0636, 701.9865
495.5457, 703.8039
496.0279, 706.4120
496.5100, 708.3193
496.9921, 707.7181
497.4742, 706.8158
497.9563, 707.5714
498.4384, 710.0139
498.9206, 713.1705
499.4027, 717.2844
499.8848, 721.4732
500.3669, 725.1270
500.8490, 728.0508
501.3311, 730.4573
501.8133, 732.1495
502.2954, 733.3929
502.7775, 734.6953
503.2596, 735.2920
503.7417, 736.9055
504.2238, 740.3387
504.7060, 745.5351
505.1881, 749.5693
505.6702, 751.9791
506.1523, 753.9299
506.6344, 756.0540
507.1165, 758.2784
507.5987, 761.1986
508.0808, 764.9389
508.5629, 769.1069
509.0450, 773.1379
509.5271, 777.0427
510.0092, 780.9103
510.4914, 784.8965
510.9735, 788.8438
511.4556, 792.3596
511.9377, 795.4760
512.4199, 798.6873
512.9020, 802.3264
513.3841, 806.2490
513.8662, 810.3075
514.3483, 814.4994
514.8304, 818.7180
515.3126, 822.8782
515.7947, 827.0103
516.2768, 831.2138
516.7589, 835.6078
517.2410, 839.9594
517.7231, 844.5921
518.2053, 849.2538
518.6874, 852.7644
519.1695, 853.4811
519.6516, 854.3885
520.1337, 856.6544
520.6158, 860.7531
521.0980, 864.1288
521.5801, 866.5883
522.0622, 868.5979
522.5443, 870.8309
523.0264, 873.5109
523.5085, 874.9186
523.9907, 874.2286
524.4728, 872.7832
524.9549, 874.0416
525.4370, 877.8821
525.9191, 881.0919
526.4012, 881.7621
526.8834, 880.7371
527.3655, 879.7195
527.8476, 878.7267
528.3297, 877.6312
528.8118, 875.6777
529.2939, 873.8242
529.7761, 873.3755
530.2582, 875.0115
530.7403, 877.1578
531.2224, 879.2880
531.7045, 881.2725
532.1866, 882.8954
532.6688, 883.4453
533.1509, 884.2832
533.6330, 885.9000
534.1151, 888.2645
534.5972, 890.7028
535.0793, 893.1177
535.5615, 895.6541
536.0436, 898.4036
536.5257, 901.4906
537.0078, 904.3637
537.4899, 906.7284
537.9720, 909.3630
538.4542, 913.5112
538.9363, 919.3424
539.4184, 924.5814
539.9005, 928.4969
540.3826, 931.7428
540.8647, 935.4802
541.3469, 939.6846
541.8290, 944.0988
542.3111, 948.0460
542.7932, 952.4064
543.2753, 958.8649
543.7574, 967.4346
544.2396, 975.9797
544.7217, 982.7121
545.2038, 988.7379
545.6859, 995.1933
546.1680, 1002.561
546.6501, 1009.918
547.1323, 1016.587
547.6144, 1023.020
548.0965, 1030.127
548.5786, 1038.809
549.0607, 1047.304
549.5428, 1055.057
550.0250, 1062.188
550.5071, 1070.170
550.9892, 1079.967
551.4713, 1088.919
551.9534, 1094.828
552.4355, 1097.090
552.9177, 1103.195
553.3998, 1113.966
553.8819, 1126.109
554.3640, 1135.782
554.8461, 1143.343
555.3282, 1150.708
555.8104, 1158.020
556.2925, 1165.760
556.7746, 1174.654
557.2567, 1184.506
557.7388, 1194.747
558.2209, 1205.609
558.7031, 1216.271
559.1852, 1225.072
559.6673, 1232.203
560.1494, 1241.474
560.6315, 1255.894
561.1136, 1271.891
561.5958, 1287.008
562.0779, 1299.787
562.5600, 1314.030
563.0421, 1329.914
563.5242, 1347.306
564.0063, 1365.955
564.4885, 1385.214
564.9706, 1406.832
565.4527, 1431.562
565.9348, 1458.592
566.4169, 1485.942
566.8990, 1513.324
567.3812, 1542.138
567.8633, 1573.465
568.3454, 1606.839
568.8275, 1641.217
569.3096, 1676.253
569.7917, 1714.613
570.2739, 1758.167
570.7560, 1806.241
571.2381, 1857.444
571.7202, 1911.609
572.2023, 1969.910
572.6844, 2033.476
573.1666, 2101.912
573.6487, 2175.935
574.1308, 2253.948
574.6129, 2338.788
575.0950, 2431.054
575.5771, 2530.452
576.0593, 2637.980
576.5414, 2752.101
577.0235, 2874.441
577.5056, 3007.107
577.9877, 3149.847
578.4698, 3299.829
578.9520, 3457.050
579.4341, 3621.445
579.9162, 3792.511
580.3983, 3969.594
580.8804, 4156.118
581.3625, 4351.638
581.8447, 4555.822
582.3268, 4768.264
582.8089, 4987.130
583.2910, 5217.417
583.7731, 5458.765
584.2552, 5711.483
584.7373, 5974.518
585.2194, 6248.829
585.7015, 6537.962
586.1837, 6853.595
586.6658, 7174.673
587.1479, 7496.320
587.6300, 7815.955
588.1121, 8138.088
