##NAMES=Wickenburgite
##RRUFFID=R060048
##IDEAL CHEMISTRY=Pb^2+^_3_CaAl_2_Si_10_O_27_&#183;4H_2_O
##LOCALITY=Rat Tail Claim, Wickenburg, Maricopa County, Arizona, USA
##OWNER=RRUFF
##SOURCE=University of Arizona Mineral Museum
##DESCRIPTION=Colorless thin hexagonal prisms
##STATUS=The identification of this mineral is confirmed by single-crystal X-ray diffraction and chemical analysis.
##URL=rruff.info/R060048
##MEASURED CHEMISTRY=(Pb_2.95_Zn_0.05_)_Σ=3_Ca_1.00_(Al_1.90_Fe^3+^_0.10_)_Σ=2_Si_10.00_O_27_·4H_2_O
104.7065, 2723.997
105.1886, 2722.610
105.6707, 2723.550
106.1528, 2726.650
106.6349, 2730.665
107.1171, 2733.459
107.5992, 2733.569
108.0813, 2734.454
108.5634, 2735.589
109.0455, 2737.227
109.5276, 2740.070
110.0098, 2744.596
110.4919, 2750.165
110.9740, 2755.052
111.4561, 2758.839
111.9382, 2762.651
112.4203, 2767.713
112.9025, 2773.802
113.3846, 2778.482
113.8667, 2779.952
114.3488, 2779.351
114.8309, 2778.205
115.3130, 2776.604
115.7952, 2774.743
116.2773, 2772.976
116.7594, 2771.579
117.2415, 2769.505
117.7236, 2766.086
118.2057, 2761.877
118.6879, 2757.624
119.1700, 2753.878
119.6521, 2750.406
120.1342, 2745.688
120.6163, 2738.634
121.0984, 2731.188
121.5806, 2723.238
122.0627, 2715.210
122.5448, 2707.861
123.0269, 2701.937
123.5090, 2697.723
123.9911, 2693.139
124.4732, 2687.777
124.9554, 2682.437
125.4375, 2677.369
125.9196, 2672.682
126.4017, 2668.489
126.8838, 2664.970
127.3659, 2662.464
127.8481, 2659.831
128.3302, 2656.934
128.8123, 2653.975
129.2944, 2651.147
129.7765, 2648.511
130.2586, 2646.034
130.7408, 2643.511
131.2229, 2640.836
131.7050, 2638.916
132.1871, 2638.467
132.6692, 2639.183
133.1513, 2639.864
133.6335, 2640.036
134.1156, 2640.237
134.5977, 2641.161
135.0798, 2642.927
135.5619, 2644.595
136.0440, 2644.946
136.5262, 2643.663
137.0083, 2643.206
137.4904, 2645.343
137.9725, 2647.904
138.4546, 2649.321
138.9367, 2649.087
139.4189, 2648.172
139.9010, 2648.491
140.3831, 2650.999
140.8652, 2653.056
141.3473, 2654.109
141.8294, 2654.645
142.3116, 2655.065
142.7937, 2655.563
143.2758, 2656.169
143.7579, 2657.034
144.2400, 2658.169
144.7221, 2659.595
145.2043, 2661.536
145.6864, 2663.778
146.1685, 2665.910
146.6506, 2667.640
147.1327, 2669.038
147.6148, 2671.062
148.0970, 2673.774
148.5791, 2676.892
149.0612, 2680.312
149.5433, 2684.039
150.0254, 2688.179
150.5075, 2692.926
150.9896, 2698.241
151.4718, 2703.238
151.9539, 2706.987
152.4360, 2710.950
152.9181, 2716.871
153.4002, 2725.027
153.8823, 2733.482
154.3645, 2740.450
154.8466, 2746.487
155.3287, 2752.473
155.8108, 2758.121
156.2929, 2763.953
156.7750, 2771.485
157.2572, 2781.806
157.7393, 2791.984
158.2214, 2800.949
158.7035, 2808.528
159.1856, 2814.248
159.6677, 2818.176
160.1499, 2820.239
160.6320, 2819.040
161.1141, 2813.405
161.5962, 2805.147
162.0783, 2794.451
162.5604, 2781.690
163.0426, 2767.721
163.5247, 2753.148
164.0068, 2737.917
164.4889, 2722.843
164.9710, 2707.169
165.4531, 2692.297
165.9353, 2678.837
166.4174, 2666.919
166.8995, 2656.233
167.3816, 2646.505
167.8637, 2637.783
168.3458, 2630.121
168.8280, 2623.757
169.3101, 2618.130
169.7922, 2612.979
170.2743, 2608.203
170.7564, 2603.729
171.2385, 2599.435
171.7207, 2595.493
172.2028, 2591.277
172.6849, 2586.410
173.1670, 2581.348
173.6491, 2576.456
174.1312, 2571.742
174.6133, 2567.561
175.0955, 2564.884
175.5776, 2563.867
176.0597, 2562.731
176.5418, 2560.941
177.0239, 2558.672
177.5060, 2556.127
177.9882, 2553.013
178.4703, 2550.272
178.9524, 2549.249
179.4345, 2550.072
179.9166, 2551.117
180.3987, 2551.225
180.8809, 2550.569
181.3630, 2550.459
181.8451, 2551.156
182.3272, 2552.735
182.8093, 2555.435
183.2914, 2559.320
183.7736, 2563.345
184.2557, 2566.238
184.7378, 2567.749
185.2199, 2570.044
185.7020, 2574.506
186.1841, 2579.362
186.6663, 2583.699
187.1484, 2587.304
187.6305, 2590.351
188.1126, 2593.011
188.5947, 2595.054
189.0768, 2597.231
189.5590, 2599.737
190.0411, 2602.313
190.5232, 2604.854
191.0053, 2607.312
191.4874, 2609.641
191.9695, 2611.667
192.4517, 2612.481
192.9338, 2614.609
193.4159, 2619.202
193.8980, 2624.496
194.3801, 2628.770
194.8622, 2631.431
195.3443, 2633.335
195.8265, 2636.461
196.3086, 2643.222
196.7907, 2648.416
197.2728, 2650.759
197.7549, 2651.919
198.2370, 2653.737
198.7192, 2656.971
199.2013, 2661.230
199.6834, 2665.467
200.1655, 2669.477
200.6476, 2673.745
201.1297, 2678.356
201.6119, 2683.261
202.0940, 2688.417
202.5761, 2693.842
203.0582, 2699.355
203.5403, 2704.483
204.0224, 2709.369
204.5046, 2713.780
204.9867, 2718.299
205.4688, 2722.354
205.9509, 2724.422
206.4330, 2723.801
206.9151, 2720.770
207.3973, 2716.305
207.8794, 2710.500
208.3615, 2703.387
208.8436, 2695.064
209.3257, 2685.518
209.8078, 2674.324
210.2900, 2660.524
210.7721, 2645.618
211.2542, 2631.555
211.7363, 2618.437
212.2184, 2606.058
212.7005, 2594.474
213.1827, 2583.663
213.6648, 2573.079
214.1469, 2561.872
214.6290, 2551.323
215.1111, 2542.802
215.5932, 2536.599
216.0754, 2531.058
216.5575, 2524.025
217.0396, 2515.098
217.5217, 2507.501
218.0038, 2503.257
218.4859, 2499.868
218.9680, 2495.722
219.4502, 2490.508
219.9323, 2485.394
220.4144, 2482.131
220.8965, 2481.496
221.3786, 2480.103
221.8607, 2476.682
222.3429, 2472.967
222.8250, 2470.208
223.3071, 2468.614
223.7892, 2467.304
224.2713, 2464.864
224.7534, 2460.604
225.2356, 2456.842
225.7177, 2454.045
226.1998, 2451.462
226.6819, 2448.497
227.1640, 2445.074
227.6461, 2441.661
228.1283, 2439.020
228.6104, 2437.466
229.0925, 2436.157
229.5746, 2435.993
230.0567, 2435.457
230.5388, 2433.038
231.0210, 2428.571
231.5031, 2423.507
231.9852, 2420.020
232.4673, 2419.334
232.9494, 2417.906
233.4315, 2415.284
233.9137, 2412.275
234.3958, 2409.447
234.8779, 2406.943
235.3600, 2404.578
235.8421, 2402.101
236.3242, 2399.462
236.8064, 2396.802
237.2885, 2393.953
237.7706, 2391.168
238.2527, 2388.710
238.7348, 2386.619
239.2169, 2384.716
239.6991, 2382.815
240.1812, 2380.910
240.6633, 2378.966
241.1454, 2376.871
241.6275, 2374.801
242.1096, 2372.903
242.5918, 2371.219
243.0739, 2369.691
243.5560, 2368.425
244.0381, 2367.487
244.5202, 2365.882
245.0023, 2362.921
245.4845, 2359.546
245.9666, 2356.718
246.4487, 2354.578
246.9308, 2352.817
247.4129, 2351.290
247.8950, 2349.949
248.3772, 2348.417
248.8593, 2346.403
249.3414, 2344.266
249.8235, 2342.420
250.3056, 2340.903
250.7877, 2339.578
251.2699, 2338.544
251.7520, 2337.652
252.2341, 2336.380
252.7162, 2334.262
253.1983, 2331.876
253.6804, 2329.990
254.1626, 2328.665
254.6447, 2327.554
255.1268, 2326.544
255.6089, 2325.581
256.0910, 2324.533
256.5731, 2323.177
257.0552, 2321.865
257.5374, 2321.053
258.0195, 2320.770
258.5016, 2320.863
258.9837, 2321.170
259.4658, 2321.851
259.9479, 2323.312
260.4301, 2326.096
260.9122, 2329.096
261.3943, 2330.435
261.8764, 2329.595
262.3585, 2329.556
262.8406, 2332.873
263.3228, 2337.111
263.8049, 2339.999
264.2870, 2340.735
264.7691, 2340.648
265.2512, 2341.106
265.7333, 2341.903
266.2155, 2344.248
266.6976, 2351.038
267.1797, 2358.194
267.6618, 2362.369
268.1439, 2362.672
268.6260, 2361.677
269.1082, 2362.732
269.5903, 2366.393
270.0724, 2369.229
270.5545, 2369.861
271.0366, 2369.846
271.5187, 2370.247
272.0009, 2371.178
272.4830, 2371.701
272.9651, 2370.535
273.4472, 2367.336
273.9293, 2364.414
274.4114, 2362.688
274.8936, 2360.777
275.3757, 2358.004
275.8578, 2354.348
276.3399, 2350.152
276.8220, 2345.506
277.3041, 2340.277
277.7863, 2335.739
278.2684, 2332.625
278.7505, 2329.659
279.2326, 2326.490
279.7147, 2323.083
280.1968, 2319.461
280.6790, 2315.524
281.1611, 2311.232
281.6432, 2307.624
282.1253, 2305.177
282.6074, 2303.020
283.0895, 2300.765
283.5717, 2298.592
284.0538, 2297.038
284.5359, 2296.709
285.0180, 2297.391
285.5001, 2296.603
285.9822, 2292.580
286.4644, 2288.985
286.9465, 2287.263
287.4286, 2286.409
287.9107, 2284.772
288.3928, 2281.317
288.8749, 2276.531
289.3571, 2272.560
289.8392, 2269.571
290.3213, 2267.304
290.8034, 2266.864
291.2855, 2266.644
291.7676, 2264.557
292.2498, 2259.629
292.7319, 2253.084
293.2140, 2248.141
293.6961, 2246.216
294.1782, 2243.718
294.6603, 2240.035
295.1425, 2235.894
295.6246, 2231.670
296.1067, 2227.562
296.5888, 2223.993
297.0709, 2221.829
297.5530, 2222.301
298.0351, 2221.856
298.5172, 2219.754
298.9994, 2217.380
299.4815, 2215.721
299.9636, 2214.909
300.4457, 2214.353
300.9278, 2213.295
301.4099, 2211.550
301.8921, 2209.904
302.3742, 2208.908
302.8563, 2207.516
303.3384, 2204.707
303.8205, 2200.813
304.3026, 2197.270
304.7848, 2195.571
305.2669, 2196.002
305.7490, 2195.090
306.2311, 2191.657
306.7132, 2188.155
307.1953, 2185.746
307.6775, 2183.929
308.1596, 2181.362
308.6417, 2176.935
309.1238, 2170.966
309.6059, 2166.875
310.0880, 2166.435
310.5702, 2166.033
311.0523, 2165.178
311.5344, 2163.958
312.0165, 2162.625
312.4986, 2161.318
312.9807, 2159.885
313.4629, 2157.775
313.9450, 2154.167
314.4271, 2150.933
314.9092, 2148.063
315.3913, 2145.678
315.8734, 2144.146
316.3556, 2143.524
316.8377, 2143.151
317.3198, 2141.719
317.8019, 2137.875
318.2840, 2135.463
318.7661, 2135.733
319.2483, 2136.344
319.7304, 2135.497
320.2125, 2133.021
320.6946, 2130.107
321.1767, 2128.244
321.6588, 2127.935
322.1410, 2126.578
322.6231, 2123.647
323.1052, 2120.329
323.5873, 2116.897
324.0694, 2113.517
324.5515, 2110.480
325.0337, 2108.019
325.5158, 2106.149
325.9979, 2104.380
326.4800, 2103.371
326.9621, 2101.789
327.4442, 2098.758
327.9264, 2095.014
328.4085, 2091.863
328.8906, 2090.095
329.3727, 2089.310
329.8548, 2087.864
330.3369, 2084.840
330.8191, 2082.328
331.3012, 2080.808
331.7833, 2079.759
332.2654, 2078.798
332.7475, 2077.752
333.2296, 2076.387
333.7118, 2074.131
334.1939, 2070.001
334.6760, 2066.886
335.1581, 2065.008
335.6402, 2063.866
336.1223, 2063.373
336.6045, 2063.364
337.0866, 2063.390
337.5687, 2062.903
338.0508, 2061.759
338.5329, 2060.783
339.0150, 2060.844
339.4972, 2060.262
339.9793, 2057.968
340.4614, 2054.410
340.9435, 2050.741
341.4256, 2047.801
341.9077, 2045.572
342.3898, 2043.793
342.8719, 2042.802
343.3541, 2041.918
343.8362, 2041.228
344.3183, 2040.504
344.8004, 2039.372
345.2825, 2037.621
345.7646, 2035.576
346.2468, 2034.117
346.7289, 2033.643
347.2110, 2033.016
347.6931, 2032.072
348.1752, 2030.939
348.6573, 2029.571
349.1395, 2027.998
349.6216, 2026.565
350.1037, 2025.922
350.5858, 2026.483
351.0679, 2026.170
351.5500, 2024.016
352.0322, 2021.674
352.5143, 2019.974
352.9964, 2018.829
353.4785, 2017.574
353.9606, 2015.558
354.4427, 2012.843
354.9249, 2010.628
355.4070, 2009.641
355.8891, 2008.238
356.3712, 2005.531
356.8533, 2002.137
357.3354, 1999.040
357.8176, 1996.764
358.2997, 1995.036
358.7818, 1993.142
359.2639, 1990.829
359.7460, 1988.972
360.2281, 1988.043
360.7103, 1987.514
361.1924, 1987.135
361.6745, 1986.852
362.1566, 1986.167
362.6387, 1984.088
363.1208, 1980.392
363.6030, 1977.796
364.0851, 1977.894
364.5672, 1978.155
365.0493, 1976.755
365.5314, 1973.894
366.0135, 1971.130
366.4957, 1969.806
366.9778, 1969.565
367.4599, 1968.635
367.9420, 1966.556
368.4241, 1964.582
368.9063, 1963.768
369.3884, 1963.508
369.8705, 1962.674
370.3526, 1960.461
370.8347, 1957.885
371.3168, 1956.796
371.7990, 1957.482
372.2811, 1957.265
372.7632, 1953.986
373.2453, 1949.772
373.7274, 1947.314
374.2095, 1947.190
374.6917, 1947.385
375.1738, 1946.191
375.6559, 1943.953
376.1380, 1942.446
376.6201, 1942.369
377.1022, 1942.645
377.5844, 1942.053
378.0665, 1940.698
378.5486, 1939.413
379.0307, 1938.901
379.5128, 1938.481
379.9949, 1936.784
380.4771, 1933.532
380.9592, 1930.676
381.4413, 1929.920
381.9234, 1930.745
382.4055, 1931.063
382.8876, 1930.353
383.3698, 1929.463
383.8519, 1928.802
384.3340, 1928.401
384.8161, 1928.430
385.2982, 1929.070
385.7803, 1930.033
386.2624, 1930.635
386.7445, 1930.754
387.2267, 1930.992
387.7088, 1931.722
388.1909, 1932.587
388.6730, 1932.998
389.1551, 1932.830
389.6372, 1932.642
390.1194, 1933.119
390.6015, 1934.430
391.0836, 1935.142
391.5657, 1934.541
392.0478, 1933.963
392.5299, 1934.542
393.0121, 1935.938
393.4942, 1936.883
393.9763, 1936.583
394.4584, 1935.191
394.9405, 1933.500
395.4226, 1931.615
395.9048, 1929.337
396.3869, 1926.508
396.8690, 1923.309
397.3511, 1919.717
397.8332, 1915.792
398.3153, 1912.048
398.7975, 1909.444
399.2796, 1908.974
399.7617, 1906.967
400.2438, 1902.465
400.7259, 1897.517
401.2080, 1893.172
401.6902, 1889.450
402.1723, 1885.918
402.6544, 1882.192
403.1365, 1878.335
403.6186, 1875.129
404.1007, 1873.184
404.5829, 1871.215
405.0650, 1869.158
405.5471, 1866.896
406.0292, 1864.202
406.5113, 1860.981
406.9934, 1857.629
407.4756, 1854.543
407.9577, 1851.250
408.4398, 1849.735
408.9219, 1852.805
409.4040, 1855.555
409.8861, 1854.920
410.3683, 1851.165
410.8504, 1846.843
411.3325, 1843.877
411.8146, 1842.119
412.2967, 1840.548
412.7788, 1839.107
413.2610, 1837.964
413.7431, 1837.754
414.2252, 1837.686
414.7073, 1836.477
415.1894, 1833.345
415.6715, 1829.767
416.1537, 1827.941
416.6358, 1827.980
417.1179, 1827.438
417.6000, 1825.096
418.0821, 1822.364
418.5642, 1820.620
419.0464, 1819.885
419.5285, 1819.415
420.0106, 1818.985
420.4927, 1818.513
420.9748, 1817.635
421.4569, 1816.151
421.9391, 1815.109
422.4212, 1815.871
422.9033, 1817.744
423.3854, 1818.459
423.8675, 1816.999
424.3496, 1815.042
424.8318, 1813.454
425.3139, 1812.278
425.7960, 1811.821
426.2781, 1812.414
426.7602, 1813.385
427.2423, 1813.306
427.7245, 1811.867
428.2066, 1810.665
428.6887, 1810.285
429.1708, 1810.089
429.6529, 1809.401
430.1350, 1808.156
430.6172, 1806.765
431.0992, 1805.609
431.5814, 1804.702
432.0635, 1803.287
432.5456, 1801.141
433.0277, 1798.856
433.5098, 1796.650
433.9919, 1794.408
434.4741, 1791.814
434.9562, 1788.725
435.4383, 1785.526
435.9204, 1782.996
436.4025, 1781.437
436.8846, 1779.983
437.3668, 1778.970
437.8489, 1777.769
438.3310, 1775.697
438.8131, 1772.979
439.2952, 1770.618
439.7773, 1769.624
440.2595, 1769.761
440.7416, 1768.571
441.2237, 1764.744
441.7058, 1761.486
442.1879, 1760.082
442.6700, 1759.425
443.1522, 1758.093
443.6343, 1755.596
444.1164, 1753.083
444.5985, 1752.395
445.0806, 1753.762
445.5627, 1754.003
446.0449, 1751.986
446.5270, 1749.448
447.0091, 1747.230
447.4912, 1745.428
447.9733, 1744.263
448.4554, 1744.585
448.9376, 1745.313
449.4197, 1744.144
449.9018, 1740.812
450.3839, 1737.803
450.8660, 1736.525
451.3481, 1736.226
451.8303, 1735.398
452.3124, 1733.632
452.7945, 1732.375
453.2766, 1732.912
453.7587, 1734.394
454.2408, 1735.103
454.7230, 1734.644
455.2051, 1733.621
455.6872, 1732.462
456.1693, 1731.161
456.6514, 1730.473
457.1335, 1731.901
457.6157, 1732.550
458.0978, 1730.041
458.5799, 1725.390
459.0620, 1721.279
459.5441, 1719.013
460.0262, 1718.013
460.5084, 1716.921
460.9905, 1715.295
461.4726, 1714.317
461.9547, 1714.717
462.4368, 1715.218
462.9189, 1714.685
463.4011, 1713.206
463.8832, 1711.811
464.3653, 1711.463
464.8474, 1712.065
465.3295, 1711.984
465.8116, 1710.628
466.2938, 1709.319
466.7759, 1708.336
467.2580, 1707.536
467.7401, 1706.797
468.2222, 1706.081
468.7043, 1705.292
469.1865, 1704.166
469.6686, 1702.639
470.1507, 1701.694
470.6328, 1702.158
471.1149, 1702.320
471.5970, 1701.157
472.0792, 1698.954
472.5613, 1696.469
473.0434, 1693.876
473.5255, 1691.297
474.0076, 1689.031
474.4897, 1687.090
474.9719, 1684.836
475.4540, 1681.960
475.9361, 1678.689
476.4182, 1675.296
476.9003, 1671.702
477.3824, 1668.514
477.8645, 1666.170
478.3466, 1664.259
478.8288, 1662.339
479.3109, 1660.344
479.7930, 1658.201
480.2751, 1655.793
480.7572, 1653.191
481.2393, 1650.801
481.7215, 1648.085
482.2036, 1646.212
482.6857, 1646.297
483.1678, 1647.114
483.6499, 1646.928
484.1320, 1645.270
484.6142, 1643.038
485.0963, 1641.416
485.5784, 1640.597
486.0605, 1639.458
486.5426, 1637.307
487.0247, 1635.559
487.5069, 1635.300
487.9890, 1635.706
488.4711, 1635.143
488.9532, 1632.730
489.4353, 1629.573
489.9174, 1628.221
490.3996, 1629.443
490.8817, 1629.815
491.3638, 1628.139
491.8459, 1625.975
492.3280, 1623.944
492.8102, 1622.145
493.2923, 1620.652
493.7744, 1619.803
494.2565, 1619.189
494.7386, 1617.744
495.2207, 1615.329
495.7029, 1612.981
496.1850, 1611.049
496.6671, 1609.545
497.1492, 1608.492
497.6313, 1608.031
498.1134, 1607.462
498.5956, 1606.548
499.0777, 1605.285
499.5598, 1603.402
500.0419, 1600.866
500.5240, 1598.717
501.0061, 1597.993
501.4883, 1598.542
501.9704, 1598.261
502.4525, 1596.773
502.9346, 1595.006
503.4167, 1592.692
503.8988, 1590.475
504.3810, 1589.488
504.8631, 1589.981
505.3452, 1590.771
505.8273, 1590.219
506.3094, 1587.962
506.7915, 1586.276
507.2737, 1585.972
507.7558, 1585.375
508.2379, 1583.741
508.7200, 1581.494
509.2021, 1579.393
509.6842, 1577.787
510.1664, 1576.296
510.6485, 1574.027
511.1306, 1570.737
511.6127, 1568.473
512.0948, 1568.432
512.5769, 1568.577
513.0590, 1567.629
513.5411, 1565.740
514.0233, 1563.533
514.5054, 1560.892
514.9875, 1558.366
515.4696, 1557.119
515.9517, 1557.057
516.4338, 1556.272
516.9160, 1553.863
517.3981, 1550.541
517.8802, 1547.277
518.3623, 1543.964
518.8444, 1541.287
519.3265, 1539.265
519.8087, 1538.037
520.2908, 1538.617
520.7729, 1540.442
521.2550, 1540.742
521.7371, 1537.493
522.2192, 1531.757
522.7014, 1527.767
523.1835, 1527.259
523.6656, 1526.291
524.1477, 1524.103
524.6298, 1521.864
525.1119, 1520.644
525.5941, 1520.392
526.0762, 1520.203
526.5583, 1519.287
527.0404, 1517.756
527.5225, 1516.346
528.0046, 1514.964
528.4868, 1513.902
528.9689, 1513.597
529.4510, 1513.439
529.9331, 1512.794
530.4152, 1511.561
530.8973, 1510.324
531.3795, 1509.586
531.8616, 1509.194
532.3437, 1508.761
532.8258, 1508.296
533.3079, 1507.577
533.7900, 1506.395
534.2722, 1504.831
534.7543, 1503.193
535.2364, 1501.272
535.7185, 1499.620
536.2006, 1498.595
536.6827, 1497.920
537.1649, 1497.241
537.6470, 1496.473
538.1291, 1495.628
538.6112, 1494.685
539.0933, 1493.642
539.5754, 1492.826
540.0576, 1492.382
540.5397, 1491.999
541.0218, 1491.562
541.5039, 1491.186
541.9860, 1491.036
542.4681, 1491.145
542.9503, 1491.381
543.4324, 1491.737
543.9145, 1492.246
544.3966, 1491.970
544.8787, 1490.263
545.3608, 1488.749
545.8430, 1488.178
546.3251, 1488.156
546.8072, 1488.203
547.2893, 1488.210
547.7714, 1488.183
548.2535, 1488.159
548.7357, 1488.105
549.2178, 1487.872
549.6999, 1487.385
550.1820, 1486.940
550.6641, 1486.887
551.1462, 1487.138
551.6284, 1486.974
552.1105, 1485.998
552.5926, 1485.047
553.0747, 1484.922
553.5568, 1484.870
554.0389, 1483.439
554.5211, 1480.355
555.0032, 1477.156
555.4853, 1475.700
555.9674, 1476.191
556.4495, 1475.992
556.9316, 1474.747
557.4138, 1473.158
557.8959, 1471.317
558.3780, 1469.241
558.8601, 1466.832
559.3422, 1464.081
559.8243, 1461.366
560.3065, 1459.139
560.7886, 1457.373
561.2707, 1455.854
561.7528, 1454.871
562.2349, 1453.522
562.7170, 1450.539
563.1992, 1447.006
563.6813, 1444.825
564.1634, 1444.911
564.6455, 1444.969
565.1276, 1442.995
565.6097, 1440.137
566.0919, 1438.804
566.5740, 1439.447
567.0561, 1440.617
567.5382, 1441.127
568.0203, 1440.991
568.5024, 1440.685
568.9846, 1440.121
569.4667, 1439.499
569.9488, 1438.648
570.4309, 1437.850
570.9130, 1437.443
571.3951, 1437.462
571.8773, 1437.673
572.3594, 1437.939
572.8415, 1438.224
573.3236, 1437.931
573.8057, 1436.693
574.2878, 1435.542
574.7700, 1434.821
575.2521, 1434.348
575.7342, 1433.921
576.2163, 1433.511
576.6984, 1433.414
577.1805, 1433.723
577.6627, 1434.527
578.1448, 1436.324
578.6269, 1439.214
579.1090, 1441.716
579.5911, 1442.920
580.0732, 1443.142
580.5554, 1443.257
581.0375, 1442.933
581.5196, 1443.170
582.0017, 1444.295
582.4838, 1445.945
582.9659, 1448.218
583.4481, 1450.793
583.9302, 1452.605
584.4123, 1452.856
584.8944, 1451.971
585.3765, 1451.580
585.8586, 1452.106
586.3408, 1452.229
586.8229, 1451.954
587.3050, 1451.123
587.7871, 1449.763
588.2692, 1447.780
588.7513, 1444.828
589.2334, 1440.347
589.7155, 1435.155
590.1976, 1430.546
590.6797, 1426.500
591.1619, 1422.703
591.6440, 1419.039
592.1261, 1415.644
592.6082, 1412.997
593.0903, 1411.115
593.5724, 1408.398
594.0546, 1403.552
594.5367, 1398.833
595.0188, 1395.832
595.5009, 1393.981
595.9830, 1391.898
596.4651, 1389.037
596.9473, 1386.103
597.4294, 1384.284
597.9115, 1383.972
598.3936, 1382.861
