##NAMES=Wicksite
##RRUFFID=R070274
##IDEAL CHEMISTRY=NaCa_2_Fe^2+^_2_(Fe^3+^,Mn^2+^,Fe^2+^)_4_(PO_4_)_6_&#183;2H_2_O
##LOCALITY=Big Fish River, Richardson Mountains, Dawson Mining District, Yukon Territory, Canada
##OWNER=RRUFF
##SOURCE=Royal Ontario Museum
##DESCRIPTION=Compact aggregate of very dark green to black prismatic crystals with pale yellow satterlyite in a nodule
##STATUS=The identification of this mineral has been confirmed by single-crystal X-ray diffraction.
##URL=rruff.info/R070274
180.0352, 2041.497
180.5173, 2040.894
180.9994, 2034.873
181.4815, 2018.219
181.9637, 1991.334
182.4458, 1971.297
182.9279, 1979.649
183.4100, 2008.866
183.8921, 2030.179
184.3742, 2030.940
184.8564, 2020.513
185.3385, 2021.194
185.8206, 2033.620
186.3027, 2049.501
186.7848, 2062.747
187.2669, 2073.049
187.7491, 2078.658
188.2312, 2078.380
188.7133, 2072.936
189.1954, 2062.282
189.6775, 2044.784
190.1596, 2029.765
190.6418, 2031.153
191.1239, 2048.565
191.6060, 2065.760
192.0881, 2075.338
192.5702, 2078.316
193.0524, 2084.212
193.5345, 2093.919
194.0166, 2104.187
194.4987, 2108.251
194.9808, 2105.524
195.4629, 2105.490
195.9451, 2114.918
196.4272, 2133.649
196.9093, 2145.652
197.3914, 2148.318
197.8735, 2147.570
198.3556, 2156.343
198.8378, 2176.401
199.3199, 2194.579
199.8020, 2200.455
200.2841, 2192.512
200.7662, 2195.908
201.2483, 2216.550
201.7305, 2245.223
202.2126, 2256.808
202.6947, 2246.808
203.1768, 2236.507
203.6589, 2241.771
204.1410, 2266.111
204.6232, 2279.870
205.1053, 2277.263
205.5874, 2263.786
206.0695, 2258.469
206.5516, 2263.980
207.0337, 2270.643
207.5159, 2271.392
207.9980, 2264.785
208.4801, 2258.874
208.9622, 2253.977
209.4443, 2250.536
209.9264, 2251.818
210.4086, 2260.439
210.8907, 2268.546
211.3728, 2268.227
211.8549, 2255.089
212.3370, 2248.977
212.8191, 2255.050
213.3013, 2271.429
213.7834, 2283.190
214.2655, 2290.650
214.7476, 2292.973
215.2297, 2288.625
215.7118, 2275.394
216.1940, 2261.039
216.6761, 2244.731
217.1582, 2226.893
217.6403, 2220.971
218.1224, 2233.965
218.6045, 2249.609
219.0867, 2250.258
219.5688, 2226.677
220.0509, 2210.227
220.5330, 2210.073
221.0151, 2226.688
221.4972, 2236.143
221.9794, 2235.373
222.4615, 2230.964
222.9436, 2230.085
223.4257, 2234.654
223.9078, 2238.905
224.3899, 2241.933
224.8721, 2243.891
225.3542, 2242.954
225.8363, 2237.930
226.3184, 2231.140
226.8005, 2225.804
227.2827, 2224.852
227.7648, 2219.468
228.2469, 2204.371
228.7290, 2176.615
229.2111, 2163.119
229.6932, 2170.414
230.1754, 2186.821
230.6575, 2198.033
231.1396, 2204.816
231.6217, 2204.610
232.1038, 2194.370
232.5859, 2170.833
233.0681, 2155.133
233.5502, 2150.179
234.0323, 2150.988
234.5144, 2150.272
234.9965, 2146.394
235.4786, 2143.771
235.9608, 2143.742
236.4429, 2146.560
236.9250, 2150.906
237.4071, 2157.855
237.8892, 2165.636
238.3713, 2171.604
238.8535, 2176.002
239.3356, 2178.127
239.8177, 2177.029
240.2998, 2171.151
240.7819, 2168.027
241.2640, 2167.970
241.7462, 2170.434
242.2283, 2174.877
242.7104, 2183.221
243.1925, 2190.330
243.6746, 2193.604
244.1567, 2190.419
244.6389, 2192.865
245.1210, 2203.730
245.6031, 2218.533
246.0852, 2229.447
246.5673, 2235.730
247.0494, 2239.322
247.5316, 2239.848
248.0137, 2234.876
248.4958, 2235.803
248.9779, 2246.860
249.4600, 2261.431
249.9421, 2266.055
250.4243, 2254.708
250.9064, 2244.324
251.3885, 2242.449
251.8706, 2253.979
252.3527, 2256.858
252.8348, 2246.630
253.3170, 2230.542
253.7991, 2223.079
254.2812, 2228.882
254.7633, 2234.518
255.2454, 2233.734
255.7275, 2222.807
256.2097, 2220.445
256.6918, 2232.303
257.1739, 2248.871
257.6560, 2251.210
258.1381, 2232.441
258.6202, 2213.590
259.1024, 2202.899
259.5845, 2202.782
260.0666, 2201.348
260.5487, 2198.638
261.0308, 2194.574
261.5129, 2188.525
261.9951, 2179.692
262.4772, 2170.869
262.9593, 2162.225
263.4414, 2152.380
263.9235, 2149.755
264.4056, 2157.178
264.8878, 2169.176
265.3699, 2176.411
265.8520, 2178.116
266.3341, 2177.403
266.8162, 2174.997
267.2983, 2170.589
267.7805, 2166.725
268.2626, 2163.846
268.7447, 2161.052
269.2268, 2156.212
269.7089, 2148.338
270.1910, 2142.051
270.6732, 2141.362
271.1553, 2147.813
271.6374, 2141.948
272.1195, 2117.956
272.6016, 2090.151
273.0837, 2086.452
273.5659, 2112.619
274.0480, 2133.185
274.5301, 2131.008
275.0122, 2104.974
275.4943, 2089.233
275.9764, 2086.296
276.4586, 2088.930
276.9407, 2086.062
277.4228, 2077.021
277.9049, 2068.622
278.3870, 2063.142
278.8691, 2060.566
279.3513, 2060.615
279.8334, 2063.355
280.3155, 2068.549
280.7976, 2078.157
281.2798, 2092.493
281.7619, 2102.085
282.2440, 2102.528
282.7261, 2094.721
283.2082, 2084.012
283.6903, 2069.272
284.1725, 2055.786
284.6546, 2050.502
285.1367, 2053.260
285.6188, 2058.862
286.1009, 2067.656
286.5830, 2078.026
287.0652, 2082.846
287.5473, 2081.781
288.0294, 2076.931
288.5115, 2068.163
288.9936, 2056.262
289.4757, 2048.069
289.9579, 2047.234
290.4400, 2051.357
290.9221, 2054.736
291.4042, 2057.497
291.8863, 2057.936
292.3684, 2052.543
292.8506, 2042.747
293.3327, 2034.753
293.8148, 2031.395
294.2969, 2030.479
294.7790, 2027.196
295.2611, 2021.529
295.7433, 2016.404
296.2254, 1995.244
296.7075, 2018.816
297.1896, 2031.631
297.6717, 2034.268
298.1538, 1996.240
298.6360, 2010.722
299.1181, 2004.160
299.6002, 1996.736
300.0823, 2018.609
300.5644, 1986.495
301.0465, 2007.903
301.5287, 2007.947
302.0108, 2017.768
302.4929, 2006.416
302.9750, 2001.603
303.4571, 2017.972
303.9392, 2022.612
304.4214, 2008.822
304.9035, 2019.265
305.3856, 1986.412
305.8677, 1991.552
306.3498, 2013.084
306.8319, 2000.359
307.3141, 2011.189
307.7962, 2013.048
308.2783, 1974.137
308.7604, 2006.129
309.2425, 2007.458
309.7246, 1977.303
310.2068, 2006.865
310.6889, 1981.050
311.1710, 1978.356
311.6531, 1974.635
312.1352, 1974.145
312.6173, 1978.790
313.0995, 1992.102
313.5816, 2000.870
314.0637, 1992.948
314.5458, 1976.544
315.0279, 1967.052
315.5100, 1978.784
315.9922, 1992.638
316.4743, 1997.238
316.9564, 1988.541
317.4385, 1981.942
317.9206, 1986.939
318.4027, 1996.071
318.8849, 1998.908
319.3670, 1982.628
319.8491, 1968.397
320.3312, 1965.345
320.8133, 1976.090
321.2954, 1986.086
321.7776, 1995.156
322.2597, 2001.159
322.7418, 2001.815
323.2239, 1991.760
323.7060, 1981.355
324.1881, 1971.752
324.6703, 1962.717
325.1524, 1958.327
325.6345, 1961.251
326.1166, 1967.732
326.5987, 1974.838
327.0808, 1986.364
327.5630, 1993.939
328.0451, 1993.636
328.5272, 1986.103
329.0093, 1986.023
329.4914, 2001.760
329.9735, 2017.361
330.4557, 2021.770
330.9378, 2005.958
331.4199, 1994.728
331.9020, 1991.264
332.3841, 1994.030
332.8662, 1995.645
333.3484, 1995.880
333.8305, 1995.287
334.3126, 1993.865
334.7947, 1990.928
335.2768, 1989.297
335.7589, 1989.144
336.2411, 1990.358
336.7232, 1993.385
337.2053, 1999.433
337.6874, 2003.689
338.1695, 2001.938
338.6516, 1992.688
339.1338, 1991.699
339.6159, 2001.707
340.0980, 2016.130
340.5801, 2023.423
341.0622, 2023.001
341.5443, 2021.544
342.0265, 2023.332
342.5086, 2027.401
342.9907, 2022.943
343.4728, 2008.202
343.9549, 1991.965
344.4370, 1985.277
344.9192, 1987.472
345.4013, 1992.243
345.8834, 1997.761
346.3655, 2004.147
346.8476, 2012.679
347.3297, 2023.468
347.8119, 2032.502
348.2940, 2031.812
348.7761, 2025.707
349.2582, 2027.674
349.7403, 2045.876
350.2225, 2069.479
350.7046, 2084.312
351.1867, 2090.892
351.6688, 2092.156
352.1509, 2086.375
352.6331, 2077.644
353.1152, 2072.376
353.5973, 2073.140
354.0794, 2075.540
354.5615, 2076.305
355.0436, 2075.618
355.5258, 2074.037
356.0079, 2070.465
356.4900, 2066.909
356.9721, 2064.782
357.4542, 2063.936
357.9363, 2065.762
358.4185, 2076.357
358.9006, 2089.595
359.3827, 2094.874
359.8648, 2081.776
360.3469, 2064.636
360.8290, 2048.845
361.3112, 2034.104
361.7933, 2026.495
362.2754, 2034.047
362.7575, 2047.334
363.2396, 2056.149
363.7217, 2056.680
364.2039, 2053.913
364.6860, 2046.932
365.1681, 2035.719
365.6502, 2028.785
366.1323, 2026.861
366.6144, 2029.563
367.0966, 2036.766
367.5787, 2057.658
368.0608, 2071.635
368.5429, 2076.301
369.0250, 2072.667
369.5071, 2065.597
369.9893, 2051.949
370.4714, 2038.562
370.9535, 2028.881
371.4356, 2024.813
371.9177, 2019.838
372.3998, 2011.192
372.8820, 2002.966
373.3641, 2006.637
373.8462, 2028.731
374.3283, 2045.651
374.8104, 2044.847
375.2925, 2023.945
375.7747, 2014.458
376.2568, 2019.419
376.7389, 2029.613
377.2210, 2032.622
377.7031, 2028.016
378.1852, 2022.304
378.6674, 2016.634
379.1495, 2011.488
379.6316, 2009.660
380.1137, 2011.581
380.5958, 2013.072
381.0779, 2007.448
381.5601, 1996.953
382.0422, 1994.254
382.5243, 2006.344
383.0064, 2022.092
383.4885, 2020.552
383.9706, 2003.806
384.4528, 1987.355
384.9349, 1984.657
385.4170, 1988.321
385.8991, 1984.252
386.3812, 1967.443
386.8633, 1952.172
387.3455, 1956.558
387.8276, 1972.889
388.3097, 1983.569
388.7918, 1970.959
389.2739, 1954.648
389.7560, 1953.331
390.2382, 1970.002
390.7203, 1982.610
391.2024, 1972.964
391.6845, 1954.855
392.1666, 1944.057
392.6487, 1952.422
393.1309, 1962.950
393.6130, 1969.604
394.0951, 1972.493
394.5772, 1974.152
395.0593, 1969.718
395.5414, 1967.739
396.0236, 1973.645
396.5057, 1999.889
396.9878, 2020.199
397.4699, 2033.114
397.9520, 2038.381
398.4341, 2034.798
398.9163, 2006.790
399.3984, 1986.195
399.8805, 1987.677
400.3626, 2024.636
400.8447, 2042.509
401.3268, 2029.502
401.8090, 2006.104
402.2911, 2003.137
402.7732, 2030.176
403.2553, 2052.537
403.7374, 2059.564
404.2195, 2052.249
404.7017, 2049.423
405.1838, 2052.922
405.6659, 2055.910
406.1480, 2051.205
406.6301, 2038.672
407.1122, 2026.648
407.5944, 2015.935
408.0765, 2007.278
408.5586, 2003.251
409.0407, 2003.764
409.5228, 2005.714
410.0049, 2007.930
410.4871, 2010.006
410.9692, 2010.407
411.4513, 2008.560
411.9334, 2006.724
412.4155, 2007.323
412.8976, 2010.017
413.3798, 2013.734
413.8619, 2022.387
414.3440, 2029.337
414.8261, 2023.288
415.3082, 2004.185
415.7903, 1991.614
416.2725, 2008.599
416.7546, 2035.276
417.2367, 2049.148
417.7188, 2029.467
418.2009, 2010.299
418.6830, 2007.965
419.1652, 2019.196
419.6473, 2032.110
420.1294, 2049.111
420.6115, 2062.120
421.0937, 2065.567
421.5758, 2051.705
422.0579, 2043.275
422.5400, 2049.801
423.0221, 2062.135
423.5042, 2065.232
423.9864, 2046.424
424.4685, 2032.098
424.9506, 2030.152
425.4327, 2042.040
425.9148, 2047.295
426.3969, 2041.025
426.8791, 2033.699
427.3612, 2035.306
427.8433, 2049.510
428.3254, 2061.171
428.8075, 2068.196
429.2896, 2071.216
429.7718, 2070.542
430.2539, 2064.768
430.7360, 2062.566
431.2181, 2073.205
431.7002, 2095.183
432.1823, 2104.404
432.6645, 2097.154
433.1466, 2085.546
433.6287, 2085.961
434.1108, 2096.740
434.5929, 2110.018
435.0750, 2124.450
435.5572, 2138.456
436.0393, 2148.523
436.5214, 2154.813
437.0035, 2160.817
437.4856, 2171.168
437.9677, 2182.308
438.4499, 2188.509
438.9320, 2184.860
439.4141, 2181.832
439.8962, 2189.609
440.3783, 2204.061
440.8604, 2214.764
441.3426, 2211.163
441.8247, 2206.880
442.3068, 2211.034
442.7889, 2227.047
443.2710, 2239.719
443.7531, 2244.594
444.2353, 2244.198
444.7174, 2241.399
445.1995, 2233.741
445.6816, 2226.840
446.1637, 2222.393
446.6458, 2220.068
447.1280, 2215.314
447.6101, 2202.397
448.0922, 2193.377
448.5743, 2196.878
449.0564, 2222.005
449.5385, 2234.733
450.0207, 2230.475
450.5028, 2216.852
450.9849, 2207.839
451.4670, 2204.224
451.9491, 2201.589
452.4312, 2197.824
452.9134, 2193.411
453.3955, 2192.337
453.8776, 2194.874
454.3597, 2198.762
454.8418, 2203.339
455.3239, 2207.803
455.8061, 2208.093
456.2882, 2201.550
456.7703, 2193.168
457.2524, 2190.087
457.7345, 2191.441
458.2166, 2193.660
458.6988, 2194.390
459.1809, 2194.994
459.6630, 2196.921
460.1451, 2200.398
460.6272, 2204.769
461.1093, 2210.661
461.5915, 2216.867
462.0736, 2221.765
462.5557, 2217.882
463.0378, 2219.395
463.5199, 2237.307
464.0020, 2268.437
464.4842, 2289.514
464.9663, 2285.035
465.4484, 2276.952
465.9305, 2276.826
466.4126, 2289.063
466.8947, 2302.661
467.3769, 2322.108
467.8590, 2340.925
468.3411, 2347.442
468.8232, 2334.287
469.3053, 2323.291
469.7874, 2319.868
470.2696, 2323.800
470.7517, 2332.765
471.2338, 2349.014
471.7159, 2363.316
472.1980, 2366.379
472.6801, 2358.441
473.1623, 2350.072
473.6444, 2342.206
474.1265, 2335.541
474.6086, 2330.332
475.0907, 2326.936
475.5728, 2327.660
476.0550, 2339.386
476.5371, 2354.069
477.0192, 2359.649
477.5013, 2355.798
477.9834, 2342.997
478.4655, 2314.581
478.9477, 2279.514
479.4298, 2249.434
479.9119, 2223.375
480.3940, 2208.172
480.8761, 2214.105
481.3582, 2234.713
481.8404, 2251.413
482.3225, 2258.573
482.8046, 2260.092
483.2867, 2258.147
483.7688, 2253.852
484.2509, 2242.835
484.7331, 2215.318
485.2152, 2185.827
485.6973, 2167.860
486.1794, 2169.079
486.6615, 2168.985
487.1436, 2165.936
487.6258, 2159.452
488.1079, 2145.329
488.5900, 2119.855
489.0721, 2097.258
489.5542, 2085.623
490.0363, 2084.929
490.5185, 2089.357
491.0006, 2100.254
491.4827, 2111.166
491.9648, 2111.972
492.4470, 2104.485
492.9291, 2098.891
493.4112, 2101.735
493.8933, 2105.780
494.3754, 2096.589
494.8575, 2076.406
495.3397, 2059.909
495.8218, 2064.293
496.3039, 2073.564
496.7860, 2067.230
497.2681, 2036.794
497.7502, 2012.209
498.2324, 2014.330
498.7145, 2030.363
499.1966, 2042.956
499.6787, 2051.630
500.1608, 2051.354
500.6429, 2032.674
501.1251, 1997.731
501.6072, 1979.747
502.0893, 1997.898
502.5714, 2018.285
503.0535, 2024.751
503.5356, 2010.545
504.0178, 1998.223
504.4999, 1987.147
504.9820, 1978.675
505.4641, 1975.227
505.9462, 1977.523
506.4283, 1981.442
506.9105, 1987.480
507.3926, 1993.849
507.8747, 1991.196
508.3568, 1978.946
508.8389, 1968.116
509.3210, 1967.481
509.8032, 1974.478
510.2853, 1983.214
510.7674, 1993.957
511.2495, 2002.099
511.7316, 2002.833
512.2137, 1997.457
512.6959, 1988.678
513.1780, 1972.136
513.6601, 1957.089
514.1422, 1951.245
514.6243, 1953.323
515.1064, 1954.219
515.5886, 1947.149
516.0707, 1940.047
516.5528, 1938.225
517.0349, 1945.739
517.5170, 1951.397
517.9991, 1953.773
518.4813, 1953.844
518.9634, 1952.693
519.4455, 1950.171
519.9276, 1946.570
520.4097, 1941.143
520.8918, 1934.543
521.3740, 1931.548
521.8561, 1933.916
522.3382, 1934.067
522.8203, 1922.703
523.3024, 1901.273
523.7845, 1895.681
524.2667, 1910.145
524.7488, 1929.828
525.2309, 1937.935
525.7130, 1936.376
526.1951, 1931.543
526.6772, 1924.076
527.1594, 1915.905
527.6415, 1906.692
528.1236, 1897.877
528.6057, 1895.703
529.0878, 1909.131
529.5699, 1927.093
530.0521, 1942.821
530.5342, 1956.912
531.0163, 1962.656
531.4984, 1947.056
531.9805, 1926.729
532.4626, 1919.263
532.9448, 1941.114
533.4269, 1959.220
533.9090, 1971.516
534.3911, 1977.573
534.8732, 1973.337
535.3553, 1949.811
535.8375, 1932.959
536.3196, 1938.399
536.8017, 1967.974
537.2838, 1979.307
537.7659, 1968.135
538.2480, 1953.119
538.7302, 1957.782
539.2123, 1978.647
539.6944, 1989.980
540.1765, 1982.292
540.6586, 1969.880
541.1407, 1974.829
541.6229, 1992.838
542.1050, 2008.461
542.5871, 2012.689
543.0692, 2011.312
543.5513, 2006.221
544.0334, 1997.728
544.5156, 1996.098
544.9977, 2012.939
545.4798, 2034.720
545.9619, 2050.365
546.4440, 2051.101
546.9261, 2055.618
547.4083, 2073.212
547.8904, 2094.828
548.3725, 2102.776
548.8546, 2083.073
549.3367, 2073.273
549.8188, 2086.974
550.3010, 2121.212
550.7831, 2141.478
551.2652, 2146.539
551.7473, 2141.692
552.2294, 2125.008
552.7115, 2098.567
553.1937, 2084.576
553.6758, 2085.616
554.1579, 2095.703
554.6400, 2113.790
555.1221, 2135.632
555.6042, 2148.474
556.0864, 2142.260
556.5685, 2130.881
557.0506, 2126.664
557.5327, 2128.398
558.0148, 2131.723
558.4969, 2136.542
558.9791, 2140.780
559.4612, 2142.562
559.9433, 2140.930
560.4254, 2140.875
560.9075, 2141.832
561.3896, 2145.665
561.8718, 2154.839
562.3539, 2181.697
562.8360, 2191.849
563.3181, 2175.558
563.8002, 2144.435
564.2823, 2124.762
564.7645, 2116.888
565.2466, 2120.336
565.7287, 2141.611
566.2108, 2174.586
566.6929, 2185.057
567.1750, 2172.056
567.6572, 2156.565
568.1393, 2159.441
568.6214, 2172.032
569.1035, 2175.792
569.5856, 2165.896
570.0677, 2155.079
570.5499, 2152.428
571.0320, 2156.078
571.5141, 2163.013
571.9962, 2178.437
572.4783, 2190.659
572.9604, 2192.906
573.4426, 2187.033
573.9247, 2182.881
574.4068, 2179.245
574.8889, 2180.388
575.3710, 2190.177
575.8531, 2212.028
576.3353, 2222.792
576.8174, 2216.448
577.2995, 2207.790
577.7816, 2212.389
578.2637, 2231.758
578.7458, 2248.279
579.2280, 2259.506
579.7101, 2266.625
580.1922, 2270.198
580.6743, 2270.898
581.1564, 2272.505
581.6385, 2276.665
582.1207, 2282.783
582.6028, 2293.048
583.0849, 2306.190
583.5670, 2313.040
584.0491, 2295.510
584.5313, 2277.602
585.0134, 2280.873
585.4955, 2316.784
585.9776, 2346.688
586.4597, 2357.847
586.9418, 2359.050
587.4240, 2359.566
587.9061, 2352.500
588.3882, 2356.573
588.8703, 2378.473
589.3524, 2411.519
589.8345, 2437.456
590.3167, 2456.965
590.7988, 2466.378
591.2809, 2459.222
591.7630, 2439.906
592.2451, 2431.052
592.7272, 2432.816
593.2094, 2441.264
593.6915, 2461.451
594.1736, 2484.308
594.6557, 2489.547
595.1378, 2469.887
595.6199, 2449.392
596.1021, 2445.506
596.5842, 2452.322
597.0663, 2461.457
597.5485, 2478.596
598.0306, 2488.512
598.5127, 2479.960
598.9948, 2458.394
599.4769, 2447.815
599.9590, 2462.359
600.4412, 2472.388
600.9233, 2465.559
601.4054, 2440.073
601.8875, 2426.264
602.3696, 2426.471
602.8517, 2432.924
603.3339, 2440.855
603.8160, 2450.040
604.2981, 2457.190
604.7802, 2462.558
605.2623, 2463.406
605.7444, 2450.962
606.2266, 2430.678
606.7087, 2417.805
607.1908, 2421.152
607.6729, 2430.369
608.1550, 2442.778
608.6371, 2455.216
609.1193, 2457.831
609.6014, 2433.520
610.0835, 2409.656
610.5656, 2401.045
611.0477, 2410.885
611.5298, 2417.832
612.0120, 2420.067
612.4941, 2420.241
612.9762, 2420.478
613.4583, 2422.047
613.9404, 2418.136
614.4225, 2406.090
614.9047, 2392.735
615.3868, 2390.504
615.8689, 2398.160
616.3510, 2399.100
616.8331, 2385.992
617.3152, 2366.997
617.7974, 2353.818
618.2795, 2345.536
618.7616, 2337.830
619.2437, 2328.057
619.7258, 2318.221
620.2079, 2309.853
620.6901, 2303.062
621.1722, 2296.414
621.6543, 2289.780
622.1364, 2282.837
622.6185, 2275.494
623.1006, 2267.954
623.5828, 2259.073
624.0649, 2246.075
624.5470, 2234.286
625.0291, 2231.961
625.5112, 2241.875
625.9933, 2246.034
626.4755, 2240.138
626.9576, 2228.181
627.4397, 2218.579
627.9218, 2210.789
628.4039, 2200.679
628.8860, 2180.733
629.3682, 2160.120
629.8503, 2154.014
630.3324, 2160.584
630.8145, 2166.128
631.2966, 2161.757
631.7787, 2154.091
632.2609, 2148.055
632.7430, 2145.248
633.2251, 2140.215
633.7072, 2122.419
634.1893, 2108.001
634.6714, 2112.659
635.1536, 2154.563
635.6357, 2173.838
636.1178, 2158.806
636.5999, 2126.841
637.0820, 2108.685
637.5641, 2104.833
638.0463, 2105.859
638.5284, 2110.937
639.0105, 2117.048
639.4926, 2116.378
639.9747, 2110.330
640.4568, 2107.023
640.9390, 2114.021
641.4211, 2124.285
641.9032, 2133.077
642.3853, 2140.009
642.8674, 2140.859
643.3495, 2125.986
643.8317, 2109.747
644.3138, 2102.008
644.7959, 2107.375
645.2780, 2115.633
645.7601, 2132.249
646.2422, 2146.959
646.7244, 2144.242
647.2065, 2118.651
647.6886, 2104.978
648.1707, 2112.405
648.6528, 2130.499
649.1349, 2140.635
649.6171, 2143.063
650.0992, 2140.051
650.5813, 2126.525
651.0634, 2111.941
651.5455, 2110.183
652.0276, 2118.947
652.5098, 2125.958
652.9919, 2122.514
653.4740, 2116.952
653.9561, 2114.226
654.4382, 2115.105
654.9203, 2117.153
655.4025, 2120.679
655.8846, 2124.783
656.3667, 2129.490
656.8488, 2136.785
657.3309, 2138.189
657.8130, 2132.107
658.2952, 2122.494
658.7773, 2112.653
659.2594, 2103.025
659.7415, 2101.204
660.2236, 2113.349
660.7057, 2127.197
661.1879, 2124.121
661.6700, 2108.188
662.1521, 2090.697
662.6342, 2068.835
663.1163, 2054.331
663.5984, 2059.981
664.0806, 2082.865
664.5627, 2098.671
665.0448, 2095.642
665.5269, 2089.247
666.0090, 2085.185
666.4911, 2083.274
666.9733, 2086.817
667.4554, 2100.357
667.9375, 2110.346
668.4196, 2102.043
668.9017, 2076.207
669.3839, 2058.089
669.8660, 2050.305
670.3481, 2048.814
670.8302, 2052.566
671.3123, 2058.835
671.7944, 2060.881
672.2766, 2051.307
672.7587, 2045.618
673.2408, 2061.156
673.7229, 2086.991
674.2050, 2102.027
