##NAMES=Wickenburgite
##RRUFFID=R060087
##IDEAL CHEMISTRY=Pb^2+^_3_CaAl_2_Si_10_O_27_&#183;4H_2_O
##LOCALITY=Potter Claim, Wickenburg, Arizona, USA
##OWNER=RRUFF
##SOURCE=University of Arizona Mineral Museum
##DESCRIPTION=Colorless flattened tabular hexagonal prisms
##STATUS=The identification of this mineral has been confirmed by single-crystal X-ray diffraction.
##URL=rruff.info/R060087
93.46680, 141.6212
93.94891, 141.7842
94.43103, 142.0062
94.91315, 141.1011
95.39526, 139.3623
95.87738, 137.1381
96.35950, 134.7171
96.84161, 132.3499
97.32373, 130.2405
97.80585, 128.2571
98.28796, 126.3567
98.77008, 124.5639
99.25220, 122.8625
99.73431, 121.1968
100.2164, 119.4997
100.6985, 117.7380
101.1807, 116.2666
101.6628, 115.0272
102.1449, 113.9254
102.6270, 112.8870
103.1091, 111.9036
103.5912, 111.0481
104.0734, 110.1940
104.5555, 109.5756
105.0376, 109.3452
105.5197, 109.3817
106.0018, 109.4640
106.4839, 109.4125
106.9661, 109.2105
107.4482, 108.9157
107.9303, 108.3257
108.4124, 107.7813
108.8945, 107.4823
109.3766, 107.4519
109.8588, 107.5849
110.3409, 107.7868
110.8230, 108.0671
111.3051, 108.3283
111.7872, 108.6576
112.2693, 108.9377
112.7515, 108.9293
113.2336, 108.4648
113.7157, 107.9190
114.1978, 107.8191
114.6799, 108.1635
115.1620, 108.4190
115.6442, 108.1785
116.1263, 107.4642
116.6084, 106.8166
117.0905, 106.4011
117.5726, 106.0801
118.0547, 105.7713
118.5369, 105.4623
119.0190, 105.1545
119.5011, 104.8458
119.9832, 104.5313
120.4653, 104.2288
120.9474, 104.0068
121.4296, 103.7617
121.9117, 103.4112
122.3938, 102.9187
122.8759, 102.2997
123.3580, 101.5980
123.8401, 100.6742
124.3223, 99.81191
124.8044, 99.05860
125.2865, 98.37917
125.7686, 97.71695
126.2507, 97.02449
126.7328, 96.31231
127.2150, 95.72869
127.6971, 95.23975
128.1792, 94.86903
128.6613, 94.71162
129.1434, 94.72440
129.6255, 94.68125
130.1077, 94.34407
130.5898, 93.76381
131.0719, 93.44199
131.5540, 93.64690
132.0361, 93.99062
132.5182, 93.99860
133.0004, 93.56190
133.4825, 93.15353
133.9646, 93.22184
134.4467, 93.61555
134.9288, 94.05614
135.4109, 94.39788
135.8931, 94.68838
136.3752, 95.11526
136.8573, 95.78510
137.3394, 96.46783
137.8215, 97.06654
138.3036, 97.57861
138.7858, 98.00282
139.2679, 98.32435
139.7500, 98.53255
140.2321, 98.72419
140.7142, 98.94810
141.1963, 99.11543
141.6785, 99.15879
142.1606, 99.09005
142.6427, 98.98709
143.1248, 98.94371
143.6069, 98.97108
144.0890, 99.04482
144.5712, 99.22401
145.0533, 99.40247
145.5354, 99.48242
146.0175, 99.44407
146.4996, 99.37312
146.9817, 99.42152
147.4639, 99.63371
147.9460, 99.91222
148.4281, 100.3200
148.9102, 100.7742
149.3923, 101.1644
149.8744, 101.4428
150.3566, 101.6585
150.8387, 101.9374
151.3208, 102.3213
151.8029, 102.6588
152.2850, 102.8397
152.7671, 102.9168
153.2493, 103.0590
153.7314, 103.3457
154.2135, 103.7356
154.6956, 104.1412
155.1777, 104.5771
155.6598, 104.9895
156.1420, 105.3565
156.6241, 105.6803
157.1062, 105.8959
157.5883, 106.0109
158.0704, 105.9705
158.5525, 105.6850
159.0347, 105.1025
159.5168, 104.3520
159.9989, 103.6843
160.4810, 103.2804
160.9631, 102.4842
161.4452, 101.0469
161.9274, 99.22550
162.4095, 97.17142
162.8916, 94.92965
163.3737, 92.60031
163.8558, 90.53812
164.3379, 88.93994
164.8201, 87.37096
165.3022, 85.68381
165.7843, 83.99214
166.2664, 82.45991
166.7485, 81.17967
167.2306, 80.13416
167.7128, 79.13815
168.1949, 78.12325
168.6770, 77.22750
169.1591, 76.48913
169.6412, 75.89327
170.1233, 75.41656
170.6055, 75.05905
171.0876, 74.81355
171.5697, 74.48818
172.0518, 73.94465
172.5339, 73.46449
173.0160, 73.19860
173.4982, 73.12766
173.9803, 73.13309
174.4624, 73.15595
174.9445, 73.18192
175.4266, 73.10457
175.9087, 72.81898
176.3909, 72.50072
176.8730, 72.29237
177.3551, 72.20338
177.8372, 72.16885
178.3193, 72.14882
178.8014, 72.14537
179.2836, 72.16813
179.7657, 72.15943
180.2478, 72.19823
180.7299, 72.45574
181.2120, 73.02480
181.6941, 73.55288
182.1763, 73.69609
182.6584, 73.63091
183.1405, 73.67973
183.6226, 74.09191
184.1047, 74.73337
184.5868, 75.12784
185.0690, 75.04264
185.5511, 75.06001
186.0332, 75.47426
186.5153, 76.16871
186.9974, 76.93103
187.4795, 77.66082
187.9617, 78.35131
188.4438, 78.87807
188.9259, 78.98756
189.4080, 79.19228
189.8901, 79.74672
190.3722, 80.53292
190.8544, 81.27454
191.3365, 81.71864
191.8186, 81.83725
192.3007, 82.10094
192.7828, 82.61523
193.2649, 83.17653
193.7471, 83.71634
194.2292, 84.24057
194.7113, 84.80980
195.1934, 85.50094
195.6755, 86.38094
196.1576, 86.95057
196.6398, 86.96410
197.1219, 86.95956
197.6040, 87.17458
198.0861, 87.62289
198.5682, 88.21970
199.0503, 88.90647
199.5325, 89.71763
200.0146, 90.36234
200.4967, 90.73144
200.9788, 91.03078
201.4609, 91.40775
201.9430, 91.87316
202.4252, 92.32460
202.9073, 92.65678
203.3894, 92.85271
203.8715, 93.06858
204.3536, 93.35464
204.8357, 93.63833
205.3179, 93.83192
205.8000, 93.92142
206.2821, 94.00633
206.7642, 94.22363
207.2463, 94.54367
207.7284, 94.75674
208.2106, 94.79446
208.6927, 94.71326
209.1748, 94.56639
209.6569, 94.33787
210.1390, 94.11824
210.6211, 94.03995
211.1033, 94.04038
211.5854, 93.95258
212.0675, 93.66943
212.5496, 93.26025
213.0317, 92.87968
213.5138, 92.54953
213.9960, 92.21667
214.4781, 91.82839
214.9602, 91.41166
215.4423, 91.02370
215.9244, 90.72320
216.4065, 90.47792
216.8886, 90.14670
217.3708, 89.59708
217.8529, 89.17114
218.3350, 89.06680
218.8171, 89.17531
219.2992, 89.29949
219.7813, 89.34754
220.2635, 89.31307
220.7456, 89.13064
221.2277, 88.59000
221.7098, 88.15876
222.1919, 88.07786
222.6740, 88.20031
223.1562, 88.26859
223.6383, 88.10294
224.1204, 87.72135
224.6025, 87.34103
225.0846, 86.89727
225.5667, 86.53203
226.0489, 86.33303
226.5310, 86.23203
227.0131, 86.10659
227.4952, 85.86610
227.9773, 85.52149
228.4594, 85.22518
228.9416, 85.07643
229.4237, 84.87614
229.9058, 84.53090
230.3879, 84.10177
230.8700, 83.72466
231.3521, 83.50405
231.8343, 83.41760
232.3164, 83.11156
232.7985, 82.44919
233.2806, 81.73522
233.7627, 80.95335
234.2448, 80.17740
234.7270, 79.55075
235.2091, 79.18318
235.6912, 79.03642
236.1733, 78.74220
236.6554, 78.17936
237.1375, 77.62920
237.6197, 77.16537
238.1018, 76.78122
238.5839, 76.45132
239.0660, 76.16691
239.5481, 75.92222
240.0302, 75.68325
240.5124, 75.39283
240.9945, 75.16686
241.4766, 75.12168
241.9587, 75.18165
242.4408, 75.13463
242.9229, 74.83312
243.4051, 74.38429
243.8872, 74.15543
244.3693, 74.30260
244.8514, 74.41105
245.3335, 74.22529
245.8156, 73.84424
246.2978, 73.58447
246.7799, 73.61968
247.2620, 73.82082
247.7441, 73.89779
248.2262, 73.82270
248.7083, 73.70601
249.1905, 73.56503
249.6726, 73.41859
250.1547, 73.34553
250.6368, 73.41247
251.1189, 73.52303
251.6010, 73.51130
252.0832, 73.34899
252.5653, 73.20901
253.0474, 73.18164
253.5295, 73.25632
254.0116, 73.39955
254.4937, 73.65819
254.9759, 73.91244
255.4580, 73.98625
255.9401, 73.87063
256.4222, 73.82541
256.9043, 74.08103
257.3864, 74.57190
257.8686, 74.94075
258.3507, 75.02190
258.8328, 75.09083
259.3149, 75.31021
259.7970, 75.68855
260.2791, 76.30415
260.7613, 77.50291
261.2434, 79.10008
261.7255, 79.99494
262.2076, 79.65714
262.6897, 79.09908
263.1718, 78.89107
263.6540, 79.01985
264.1361, 79.42349
264.6182, 80.27010
265.1003, 81.44019
265.5824, 82.19127
266.0645, 82.21461
266.5467, 82.21532
267.0288, 82.53336
267.5109, 83.10088
267.9930, 83.76855
268.4751, 84.49449
268.9572, 85.24899
269.4394, 85.89836
269.9215, 86.40437
270.4036, 86.85372
270.8857, 87.32841
271.3678, 87.77235
271.8499, 88.08802
272.3321, 88.19875
272.8142, 88.16441
273.2963, 88.19537
273.7784, 88.35453
274.2605, 88.47205
274.7426, 88.52489
275.2248, 88.50819
275.7069, 88.40515
276.1890, 88.20049
276.6711, 87.92979
277.1532, 87.67106
277.6353, 87.35914
278.1175, 87.19242
278.5996, 87.31937
279.0817, 87.52758
279.5638, 87.61397
280.0459, 87.50359
280.5280, 87.27220
281.0102, 87.05006
281.4923, 86.80624
281.9744, 86.64792
282.4565, 86.56812
282.9386, 86.57297
283.4207, 86.70762
283.9029, 86.97053
284.3850, 87.26295
284.8671, 87.43769
285.3492, 87.46937
285.8313, 87.43656
286.3134, 87.29557
286.7956, 87.13551
287.2777, 87.04665
287.7598, 87.01926
288.2419, 86.93906
288.7240, 86.64748
289.2061, 86.06536
289.6883, 85.56580
290.1704, 85.31494
290.6525, 84.99699
291.1346, 84.44775
291.6167, 83.68088
292.0988, 82.81304
292.5810, 81.93846
293.0631, 81.05317
293.5452, 80.22191
294.0273, 79.43246
294.5094, 78.70501
294.9915, 78.04617
295.4737, 77.45583
295.9558, 76.93263
296.4379, 76.47743
296.9200, 76.08778
297.4021, 75.75280
297.8842, 75.53788
298.3664, 75.31010
298.8485, 75.00297
299.3306, 74.67381
299.8127, 74.41886
300.2948, 74.29594
300.7769, 74.27364
301.2591, 74.22773
301.7412, 74.24856
302.2233, 74.12345
302.7054, 73.70428
303.1875, 73.18349
303.6696, 72.77567
304.1518, 72.56844
304.6339, 72.48098
305.1160, 72.33020
305.5981, 71.98148
306.0802, 71.78134
306.5623, 71.87672
307.0445, 72.02628
307.5266, 72.04639
308.0087, 71.88756
308.4908, 71.60072
308.9729, 71.23750
309.4550, 70.69762
309.9372, 70.34925
310.4193, 70.27358
310.9014, 70.28714
311.3835, 70.30215
311.8656, 70.29918
312.3477, 70.28927
312.8299, 70.29066
313.3120, 70.31831
313.7941, 70.25111
314.2762, 70.02611
314.7583, 69.78238
315.2404, 69.54433
315.7226, 69.33109
316.2047, 69.16830
316.6868, 69.07569
317.1689, 69.05165
317.6510, 69.07586
318.1331, 69.24895
318.6153, 69.35809
319.0974, 69.35727
319.5795, 69.26240
320.0616, 69.07801
320.5437, 68.80090
321.0258, 68.48135
321.5080, 68.28629
321.9901, 68.35252
322.4722, 68.38300
322.9543, 68.41702
323.4364, 68.38316
323.9185, 68.17930
324.4007, 67.78136
324.8828, 67.29356
325.3649, 66.89603
325.8470, 66.60295
326.3291, 66.38667
326.8112, 66.28496
327.2934, 66.21980
327.7755, 66.15871
328.2576, 66.08566
328.7397, 65.97089
329.2218, 65.75919
329.7039, 65.39094
330.1861, 65.22611
330.6682, 65.47322
331.1503, 65.69711
331.6324, 65.63992
332.1145, 65.39090
332.5966, 65.22666
333.0788, 65.37341
333.5609, 65.80642
334.0430, 66.10212
334.5251, 66.25986
335.0072, 66.26924
335.4893, 65.98835
335.9715, 65.58846
336.4536, 65.30531
336.9357, 65.26098
337.4178, 65.39402
337.8999, 65.53085
338.3820, 65.75809
338.8642, 65.84837
339.3463, 65.71312
339.8284, 65.48637
340.3105, 65.23624
340.7926, 64.99904
341.2747, 64.85498
341.7568, 64.97432
342.2390, 65.57848
342.7211, 65.88445
343.2032, 65.70701
343.6853, 65.42675
344.1674, 65.22027
344.6495, 65.11054
345.1317, 65.04662
345.6138, 64.97794
346.0959, 64.90080
346.5780, 64.88329
347.0601, 65.01694
347.5422, 65.12360
348.0244, 65.12306
348.5065, 65.06423
348.9886, 65.04757
349.4707, 65.14407
349.9528, 65.31087
350.4349, 65.36951
350.9171, 65.25601
351.3992, 65.12642
351.8813, 64.98045
352.3634, 64.84960
352.8455, 64.78091
353.3276, 64.78918
353.8098, 64.81729
354.2919, 64.74863
354.7740, 64.51631
355.2561, 64.39395
355.7382, 64.51952
356.2203, 64.67724
356.7025, 64.75906
357.1846, 64.74922
357.6667, 64.67702
358.1488, 64.53339
358.6309, 64.31248
359.1130, 64.19740
359.5952, 64.21321
360.0773, 64.32229
360.5594, 64.59592
361.0415, 64.94245
361.5236, 65.17786
362.0057, 65.16996
362.4879, 64.99396
362.9700, 64.86128
363.4521, 64.74051
363.9342, 64.74135
364.4163, 65.05931
364.8984, 65.43790
365.3806, 65.58302
365.8627, 65.38567
366.3448, 65.07515
366.8269, 64.93668
367.3090, 64.98324
367.7911, 65.08321
368.2733, 65.32464
368.7554, 65.50956
369.2375, 65.40492
369.7196, 65.03330
370.2017, 64.77038
370.6838, 65.00607
371.1660, 65.61571
371.6481, 65.98686
372.1302, 65.98959
372.6123, 65.89842
373.0944, 65.85940
373.5765, 65.87057
374.0587, 65.93618
374.5408, 66.08691
375.0229, 66.27355
375.5050, 66.41958
375.9871, 66.51902
376.4692, 66.62190
376.9514, 66.73067
377.4335, 66.86922
377.9156, 67.08107
378.3977, 67.39821
378.8798, 67.71432
379.3619, 67.96764
379.8441, 68.15916
380.3262, 68.28580
380.8083, 68.32934
381.2904, 68.33625
381.7725, 68.35414
382.2546, 68.38139
382.7368, 68.43649
383.2189, 68.47602
383.7010, 68.56770
384.1831, 68.86373
384.6652, 69.39350
385.1473, 69.88338
385.6295, 70.09974
386.1116, 70.07366
386.5937, 70.10281
387.0758, 70.14620
387.5579, 70.29137
388.0400, 70.65520
388.5222, 71.17837
389.0043, 71.67636
389.4864, 72.07220
389.9685, 72.37296
390.4506, 72.58042
390.9327, 72.67848
391.4149, 72.74634
391.8970, 72.79420
392.3791, 72.82284
392.8612, 72.84242
393.3433, 72.85349
393.8254, 72.82353
394.3076, 72.70243
394.7897, 72.45922
395.2718, 72.29937
395.7539, 72.37890
396.2360, 72.39229
396.7181, 72.14803
397.2003, 71.68869
397.6824, 71.18108
398.1645, 70.73486
398.6466, 70.31462
399.1287, 69.71753
399.6108, 68.65919
400.0930, 67.77388
400.5751, 67.21127
401.0572, 66.81200
401.5393, 66.41673
402.0214, 65.97319
402.5035, 65.50069
402.9857, 65.02005
403.4678, 64.50572
403.9499, 64.06264
404.4320, 63.71184
404.9141, 63.39978
405.3962, 63.11294
405.8784, 62.84288
406.3605, 62.57956
406.8426, 62.31969
407.3247, 62.05951
407.8068, 61.77657
408.2889, 61.40271
408.7711, 61.11232
409.2532, 60.96289
409.7353, 60.89827
410.2174, 60.89006
410.6995, 60.92879
411.1816, 60.93018
411.6638, 60.71105
412.1459, 60.19430
412.6280, 59.88352
413.1101, 60.06031
413.5922, 60.28502
414.0743, 60.33368
414.5565, 60.21251
415.0386, 60.02320
415.5207, 59.76650
416.0028, 59.49373
416.4849, 59.42834
416.9670, 59.66960
417.4492, 59.87038
417.9313, 59.83371
418.4134, 59.65463
418.8955, 59.42371
419.3776, 59.13007
419.8597, 58.86578
420.3419, 58.73832
420.8240, 58.73404
421.3061, 58.72305
421.7882, 58.66224
422.2703, 58.59127
422.7524, 58.57127
423.2346, 58.60074
423.7167, 58.59571
424.1988, 58.48701
424.6809, 58.34418
425.1630, 58.26934
425.6451, 58.27276
426.1273, 58.28093
426.6094, 58.23265
427.0915, 58.14414
427.5736, 58.10582
428.0557, 58.23464
428.5378, 58.28767
429.0200, 58.05027
429.5021, 57.67013
429.9842, 57.47171
430.4663, 57.58122
430.9484, 57.83851
431.4305, 57.98342
431.9127, 57.96011
432.3948, 57.94949
432.8769, 57.98243
433.3590, 58.00570
433.8411, 57.97089
434.3232, 57.88552
434.8054, 57.79597
435.2875, 57.73845
435.7696, 57.70943
436.2517, 57.67198
436.7338, 57.64339
437.2159, 57.58406
437.6981, 57.43950
438.1802, 57.28255
438.6623, 57.19571
439.1444, 57.20535
439.6265, 57.27246
440.1086, 57.35212
440.5908, 57.46795
441.0729, 57.51785
441.5550, 57.47915
442.0371, 57.39481
442.5192, 57.24556
443.0013, 57.06347
443.4835, 56.92115
443.9656, 56.87773
444.4477, 56.89628
444.9298, 56.84905
445.4119, 56.69037
445.8940, 56.58355
446.3762, 56.56812
446.8583, 56.63512
447.3404, 56.82018
447.8225, 57.13294
448.3046, 57.42730
448.7867, 57.56081
449.2689, 57.55895
449.7510, 57.54974
450.2331, 57.52325
450.7152, 57.54442
451.1973, 57.72619
451.6794, 58.00109
452.1616, 58.18900
452.6437, 58.14884
453.1258, 58.07549
453.6079, 58.18269
454.0900, 58.44131
454.5721, 58.65837
455.0543, 58.74378
455.5364, 58.75283
456.0185, 58.79686
456.5006, 58.88585
456.9827, 58.96173
457.4648, 58.98424
457.9470, 59.00246
458.4291, 59.08281
458.9112, 59.22681
459.3933, 59.36098
459.8754, 59.40918
460.3575, 59.37778
460.8397, 59.49297
461.3218, 59.98863
461.8039, 60.33400
462.2860, 60.26097
462.7681, 60.00171
463.2502, 59.87878
463.7324, 60.00291
464.2145, 60.23829
464.6966, 60.37117
465.1787, 60.36266
465.6608, 60.36543
466.1429, 60.38393
466.6251, 60.40818
467.1072, 60.40659
467.5893, 60.40717
468.0714, 60.48672
468.5535, 60.71661
469.0356, 61.01396
469.5178, 61.11834
469.9999, 60.94386
470.4820, 60.80416
470.9641, 60.84985
471.4462, 60.91455
471.9283, 60.86391
472.4105, 60.68540
472.8926, 60.48319
473.3747, 60.31250
473.8568, 60.17948
474.3389, 60.12065
474.8210, 60.15818
475.3032, 60.21241
475.7853, 60.27015
476.2674, 60.30112
476.7495, 60.23679
477.2316, 60.04678
477.7137, 59.79055
478.1959, 59.45121
478.6780, 59.07544
479.1601, 58.79934
479.6422, 58.67450
480.1243, 58.62616
480.6064, 58.56492
481.0886, 58.48730
481.5707, 58.41772
482.0528, 58.36275
482.5349, 58.31150
483.0170, 58.29480
483.4991, 58.27984
483.9813, 58.14927
484.4634, 57.81957
484.9455, 57.39918
485.4276, 57.21303
485.9097, 57.47948
486.3918, 57.67302
486.8740, 57.80165
487.3561, 57.84818
487.8382, 57.76332
488.3203, 57.57088
488.8024, 57.36541
489.2845, 57.21108
489.7667, 57.11367
490.2488, 57.14132
490.7309, 57.42278
491.2130, 57.61802
491.6951, 57.57942
492.1772, 57.45066
492.6594, 57.38746
493.1415, 57.42935
493.6236, 57.47855
494.1057, 57.38974
494.5878, 57.19271
495.0699, 57.16353
495.5521, 57.39373
496.0342, 57.67242
496.5163, 57.87255
496.9984, 58.00365
497.4805, 58.06794
497.9626, 58.01463
498.4448, 57.95295
498.9269, 57.97499
499.4090, 58.06441
499.8911, 58.17353
500.3732, 58.29587
500.8553, 58.40164
501.3375, 58.45198
501.8196, 58.44665
502.3017, 58.37755
502.7838, 58.18428
503.2659, 57.97809
503.7480, 57.79107
504.2302, 57.65222
504.7123, 57.64571
505.1944, 57.83500
505.6765, 58.12151
506.1586, 58.20959
506.6407, 57.93391
507.1228, 57.72074
507.6049, 57.63610
508.0871, 57.56834
508.5692, 57.44638
509.0513, 57.26632
509.5334, 57.05861
510.0155, 56.84535
510.4977, 56.62379
510.9798, 56.38947
511.4619, 56.14659
511.9440, 55.87949
512.4261, 55.58770
512.9083, 55.26714
513.3904, 54.89247
513.8725, 54.45894
514.3546, 54.05233
514.8367, 53.74847
515.3188, 53.51861
515.8010, 53.26006
516.2831, 52.94517
516.7652, 52.69666
517.2473, 52.63941
517.7294, 52.71188
518.2115, 52.70559
518.6937, 52.62072
519.1758, 52.44672
519.6579, 52.10007
520.1400, 51.68437
520.6221, 51.36944
521.1042, 51.19428
521.5864, 51.09487
522.0685, 51.00715
522.5506, 50.93154
523.0327, 50.86200
523.5148, 50.79506
523.9969, 50.73603
524.4791, 50.68467
524.9612, 50.64314
525.4433, 50.63904
525.9254, 50.67640
526.4075, 50.67940
526.8896, 50.48209
527.3718, 50.00166
527.8539, 49.76096
528.3360, 49.96951
528.8181, 50.20524
529.3002, 50.28811
529.7823, 50.27296
530.2645, 50.27757
530.7466, 50.36004
531.2287, 50.45044
531.7108, 50.44162
532.1929, 50.34178
532.6750, 50.26926
533.1572, 50.23273
533.6393, 50.26392
534.1214, 50.46238
534.6035, 50.79240
535.0856, 51.01087
535.5677, 51.00780
536.0499, 50.92950
536.5320, 50.85485
537.0141, 50.79478
537.4962, 50.75589
537.9783, 50.73572
538.4604, 50.77623
538.9426, 50.97005
539.4247, 51.46149
539.9068, 51.72723
540.3889, 51.55144
540.8710, 51.37173
541.3531, 51.46022
541.8353, 51.72956
542.3174, 51.94081
542.7995, 51.96137
543.2816, 51.86817
543.7637, 51.81915
544.2458, 51.80140
544.7280, 51.87104
545.2101, 52.11950
545.6922, 52.38609
546.1743, 52.63892
546.6564, 52.84399
547.1385, 52.89405
547.6207, 52.61180
548.1028, 52.25768
548.5849, 52.29060
549.0670, 52.69357
549.5491, 52.99166
550.0313, 52.99785
550.5134, 52.85434
550.9955, 52.75695
551.4776, 52.70708
551.9597, 52.65125
552.4418, 52.57879
552.9240, 52.49824
553.4061, 52.41515
553.8882, 52.32965
554.3703, 52.24021
554.8524, 52.14524
555.3345, 52.04668
555.8167, 51.94727
556.2988, 51.83316
556.7809, 51.74593
557.2630, 51.69939
557.7451, 51.66185
558.2272, 51.64927
558.7094, 51.62982
559.1915, 51.52398
559.6736, 51.26874
560.1557, 50.95314
560.6378, 50.75935
561.1199, 50.69762
561.6021, 50.70539
562.0842, 50.85466
562.5663, 50.97910
563.0484, 50.94206
563.5305, 50.76189
564.0126, 50.54130
564.4948, 50.23015
564.9769, 49.96124
565.4590, 49.89349
565.9411, 49.99782
566.4232, 50.14258
566.9053, 50.28292
567.3875, 50.42588
567.8696, 50.58829
568.3517, 50.78747
568.8338, 50.94103
569.3159, 51.05395
569.7980, 51.11616
570.2802, 51.05703
570.7623, 50.95311
571.2444, 50.97422
571.7265, 51.19926
572.2086, 51.48991
572.6907, 51.57285
573.1729, 51.37595
573.6550, 51.26388
574.1371, 51.30924
574.6192, 51.38519
575.1013, 51.44216
575.5834, 51.48577
576.0656, 51.53693
576.5477, 51.61625
577.0298, 51.67572
577.5119, 51.60217
577.9940, 51.44141
578.4761, 51.46771
578.9583, 51.78870
579.4404, 52.15583
579.9225, 52.33182
580.4046, 52.32014
580.8867, 52.29792
581.3688, 52.21962
581.8510, 52.18629
582.3331, 52.29832
582.8152, 52.46308
583.2973, 52.53309
583.7794, 52.47116
584.2615, 52.36689
584.7437, 52.33606
585.2258, 52.38924
585.7079, 52.32381
586.1900, 52.01626
586.6721, 51.74105
587.1542, 51.52082
587.6363, 51.38767
588.1184, 51.43840
588.6005, 51.68370
589.0826, 51.86253
589.5648, 51.69235
590.0469, 51.25859
590.5290, 50.85130
