##NAMES=Wilkinsonite
##RRUFFID=R060922
##IDEAL CHEMISTRY=Na_4_(Fe^2+^_8_Fe^3+^_4_)O_4_[Si_12_O_36_]
##LOCALITY=Warrumbungle Volcanics, New South Wales, Australia
##OWNER=RRUFF
##SOURCE=
##DESCRIPTION=Black anhedral grains found as inclusions within colorless anorthoclase
##STATUS=The identification of this mineral is confirmed by single-crystal X-ray diffraction and chemical analysis.
##URL=rruff.info/R060922
##MEASURED CHEMISTRY=Na_1.00_(Fe^2+^_1.87_Mn_0.07_Fe^3+^_0.03_)_Σ=2_(Fe^3+^_0.97_Cr_0.03_)_Σ=1_(Si_2.94_Al_0.06_)_Σ=3_O_10_ ; the dark phase is anorthoclase: (Na_0.71_K_0.29_)_Σ=1_(Al_0.95_Fe^3+^_0.05_)_Σ=1_Si_3.00_O_8_
143.0053, 2557.244
143.4874, 2726.275
143.9695, 2893.127
144.4517, 3011.716
144.9338, 3106.697
145.4159, 3221.629
145.8980, 3388.547
146.3801, 3588.346
146.8622, 3767.943
147.3444, 3924.116
147.8265, 4063.553
148.3086, 4180.290
148.7907, 4285.799
149.2728, 4400.901
149.7549, 4549.526
150.2371, 4717.632
150.7192, 4838.716
151.2013, 4892.736
151.6834, 4921.443
152.1655, 4933.103
152.6476, 4934.986
153.1298, 4939.346
153.6119, 4954.923
154.0940, 4979.997
154.5761, 5001.571
155.0582, 5011.323
155.5403, 5027.482
156.0225, 5061.098
156.5046, 5104.929
156.9867, 5146.127
157.4688, 5176.303
157.9509, 5195.612
158.4330, 5206.025
158.9152, 5183.886
159.3973, 5177.504
159.8794, 5207.086
160.3615, 5262.512
160.8436, 5321.684
161.3257, 5367.447
161.8079, 5400.392
162.2900, 5447.976
162.7721, 5525.313
163.2542, 5604.530
163.7363, 5685.943
164.2184, 5763.994
164.7006, 5827.508
165.1827, 5865.546
165.6648, 5878.156
166.1469, 5906.035
166.6290, 5966.475
167.1111, 6024.966
167.5933, 6074.009
168.0754, 6113.363
168.5575, 6143.984
169.0396, 6165.923
169.5217, 6179.100
170.0038, 6193.315
170.4860, 6207.132
170.9681, 6223.327
171.4502, 6248.370
171.9323, 6276.942
172.4144, 6296.859
172.8965, 6297.900
173.3787, 6280.117
173.8608, 6270.049
174.3429, 6287.451
174.8250, 6291.805
175.3071, 6251.004
175.7892, 6184.308
176.2714, 6139.011
176.7535, 6152.090
177.2356, 6221.383
177.7177, 6270.072
178.1998, 6301.992
178.6819, 6314.025
179.1641, 6293.536
179.6462, 6250.825
180.1283, 6209.371
180.6104, 6184.984
181.0925, 6176.568
181.5746, 6166.946
182.0567, 6158.039
182.5389, 6146.351
183.0210, 6124.415
183.5031, 6098.098
183.9852, 6083.918
184.4673, 6095.554
184.9494, 6127.761
185.4316, 6130.019
185.9137, 6078.979
186.3958, 6030.325
186.8779, 6003.172
187.3600, 5993.408
187.8421, 5990.820
188.3243, 5991.097
188.8064, 5992.751
189.2885, 5986.889
189.7706, 5971.735
190.2527, 5952.960
190.7348, 5930.769
191.2170, 5906.364
191.6991, 5879.917
192.1812, 5849.205
192.6633, 5819.434
193.1454, 5813.875
193.6275, 5871.800
194.1097, 5903.253
194.5918, 5859.960
195.0739, 5770.541
195.5560, 5694.043
196.0381, 5658.432
196.5202, 5652.896
197.0024, 5646.155
197.4845, 5637.413
197.9666, 5628.996
198.4487, 5622.465
198.9308, 5616.728
199.4129, 5611.816
199.8951, 5609.890
200.3772, 5604.168
200.8593, 5571.700
201.3414, 5491.601
201.8235, 5435.441
202.3056, 5435.137
202.7878, 5469.961
203.2699, 5509.152
203.7520, 5546.555
204.2341, 5571.307
204.7162, 5552.809
205.1983, 5475.875
205.6805, 5415.197
206.1626, 5394.877
206.6447, 5400.328
207.1268, 5412.086
207.6089, 5426.316
208.0910, 5437.917
208.5732, 5436.497
209.0553, 5419.400
209.5374, 5406.071
210.0195, 5400.611
210.5016, 5401.029
210.9837, 5409.174
211.4659, 5427.062
211.9480, 5439.621
212.4301, 5423.978
212.9122, 5377.632
213.3943, 5332.980
213.8764, 5281.759
214.3586, 5240.653
214.8407, 5240.146
215.3228, 5286.622
215.8049, 5334.214
216.2870, 5326.158
216.7691, 5259.756
217.2513, 5225.961
217.7334, 5264.457
218.2155, 5320.845
218.6976, 5342.638
219.1797, 5325.044
219.6618, 5296.163
220.1440, 5276.864
220.6261, 5267.994
221.1082, 5265.613
221.5903, 5274.750
222.0724, 5286.644
222.5546, 5295.175
223.0367, 5300.113
223.5188, 5303.729
224.0009, 5309.128
224.4830, 5314.524
224.9651, 5310.223
225.4473, 5289.771
225.9294, 5265.544
226.4115, 5237.770
226.8936, 5210.057
227.3757, 5199.251
227.8578, 5220.019
228.3400, 5264.209
228.8221, 5293.938
229.3042, 5290.640
229.7863, 5294.126
230.2684, 5335.565
230.7505, 5399.466
231.2327, 5439.109
231.7148, 5427.224
232.1969, 5383.767
232.6790, 5368.281
233.1611, 5398.012
233.6432, 5420.717
234.1254, 5414.195
234.6075, 5390.088
235.0896, 5368.732
235.5717, 5356.942
236.0538, 5353.270
236.5359, 5357.938
237.0181, 5379.407
237.5002, 5387.087
237.9823, 5358.638
238.4644, 5318.721
238.9465, 5299.143
239.4286, 5308.781
239.9108, 5338.294
240.3929, 5380.291
240.8750, 5446.450
241.3571, 5482.300
241.8392, 5461.262
242.3213, 5420.476
242.8035, 5394.165
243.2856, 5387.858
243.7677, 5388.285
244.2498, 5381.932
244.7319, 5367.027
245.2140, 5353.722
245.6962, 5340.092
246.1783, 5329.434
246.6604, 5324.672
247.1425, 5325.475
247.6246, 5329.165
248.1067, 5334.634
248.5889, 5341.834
249.0710, 5342.013
249.5531, 5314.905
250.0352, 5301.372
250.5173, 5329.521
250.9994, 5387.586
251.4816, 5447.422
251.9637, 5496.190
252.4458, 5529.171
252.9279, 5510.210
253.4100, 5386.338
253.8921, 5278.784
254.3743, 5207.959
254.8564, 5172.433
255.3385, 5177.505
255.8206, 5227.790
256.3027, 5302.191
256.7849, 5343.492
257.2670, 5324.755
257.7491, 5303.165
258.2312, 5264.404
258.7133, 5231.101
259.1954, 5236.499
259.6776, 5288.137
260.1597, 5351.160
260.6418, 5366.740
261.1239, 5293.922
261.6060, 5255.417
262.0881, 5272.946
262.5703, 5304.849
263.0524, 5328.741
263.5345, 5338.587
264.0166, 5334.072
264.4987, 5312.032
264.9808, 5265.224
265.4630, 5236.206
265.9451, 5243.009
266.4272, 5248.410
266.9093, 5231.021
267.3914, 5197.237
267.8735, 5167.720
268.3557, 5158.438
268.8378, 5168.838
269.3199, 5183.358
269.8020, 5220.533
270.2841, 5242.097
270.7662, 5230.100
271.2484, 5199.453
271.7305, 5169.346
272.2126, 5148.871
272.6947, 5141.522
273.1768, 5162.050
273.6589, 5240.121
274.1411, 5298.497
274.6232, 5328.852
275.1053, 5335.396
275.5874, 5315.501
276.0695, 5269.055
276.5516, 5214.403
277.0338, 5180.898
277.5159, 5172.404
277.9980, 5173.708
278.4801, 5185.706
278.9622, 5204.797
279.4443, 5238.375
279.9265, 5282.823
280.4086, 5314.960
280.8907, 5300.115
281.3728, 5234.666
281.8549, 5200.809
282.3370, 5219.804
282.8192, 5253.942
283.3013, 5286.411
283.7834, 5318.072
284.2655, 5354.290
284.7476, 5401.131
285.2297, 5455.042
285.7119, 5504.774
286.1940, 5558.041
286.6761, 5589.839
287.1582, 5566.998
287.6403, 5521.882
288.1224, 5501.933
288.6046, 5530.145
289.0867, 5582.079
289.5688, 5626.778
290.0509, 5664.529
290.5330, 5694.075
291.0151, 5713.457
291.4973, 5724.437
291.9794, 5726.431
292.4615, 5716.284
292.9436, 5709.725
293.4257, 5725.554
293.9078, 5758.220
294.3900, 5776.121
294.8721, 5765.005
295.3542, 5745.502
295.8363, 5738.452
296.3184, 5743.044
296.8005, 5761.437
297.2827, 5821.979
297.7648, 5889.065
298.2469, 5889.150
298.7290, 5803.659
299.2111, 5712.902
299.6932, 5690.485
300.1754, 5730.386
300.6575, 5771.016
301.1396, 5812.101
301.6217, 5847.507
302.1038, 5872.079
302.5859, 5886.218
303.0681, 5891.560
303.5501, 5884.612
304.0323, 5871.599
304.5144, 5880.260
304.9965, 5932.302
305.4786, 5977.388
305.9607, 5998.670
306.4428, 6002.896
306.9250, 5999.486
307.4071, 5991.362
307.8892, 5982.716
308.3713, 5982.298
308.8534, 6002.641
309.3355, 6007.473
309.8177, 5978.591
310.2998, 5944.823
310.7819, 5928.941
311.2640, 5934.796
311.7461, 5955.260
312.2282, 5985.043
312.7104, 6027.821
313.1925, 6056.054
313.6746, 6062.996
314.1567, 6064.799
314.6388, 6068.198
315.1209, 6071.652
315.6031, 6070.527
316.0852, 6061.818
316.5673, 6046.204
317.0494, 6026.992
317.5315, 5997.380
318.0136, 5973.564
318.4958, 5957.594
318.9779, 5948.176
319.4600, 5945.991
319.9421, 5950.979
320.4242, 5957.933
320.9063, 5957.416
321.3885, 5945.743
321.8706, 5939.607
322.3527, 5951.648
322.8348, 5961.125
323.3169, 5950.474
323.7990, 5923.150
324.2812, 5902.150
324.7633, 5910.727
325.2454, 5945.418
325.7275, 5974.027
326.2096, 5994.441
326.6917, 6011.715
327.1739, 6038.048
327.6560, 6062.570
328.1381, 6062.624
328.6202, 6016.503
329.1023, 5955.628
329.5844, 5927.713
330.0666, 5935.439
330.5487, 5946.748
331.0308, 5945.406
331.5129, 5942.968
331.9950, 5958.410
332.4771, 5999.682
332.9593, 6034.063
333.4414, 6033.839
333.9235, 6010.927
334.4056, 5999.989
334.8877, 6012.144
335.3698, 6029.127
335.8520, 6030.410
336.3341, 6016.814
336.8162, 5992.886
337.2983, 5935.606
337.7804, 5883.839
338.2625, 5880.606
338.7447, 5924.337
339.2268, 5977.333
339.7089, 6015.096
340.1910, 6038.569
340.6731, 6058.386
341.1552, 6072.587
341.6374, 6085.836
342.1195, 6106.814
342.6016, 6126.098
343.0837, 6085.058
343.5658, 6126.411
344.0479, 6148.803
344.5301, 6153.254
345.0122, 6086.031
345.4943, 6111.361
345.9764, 6099.600
346.4585, 6086.317
346.9406, 6124.673
347.4228, 6067.874
347.9049, 6120.044
348.3870, 6130.629
348.8691, 6134.545
349.3512, 6150.506
349.8333, 6202.712
350.3155, 6239.770
350.7976, 6235.500
351.2797, 6211.088
351.7618, 6199.372
352.2439, 6217.341
352.7260, 6249.078
353.2082, 6262.408
353.6903, 6251.959
354.1724, 6242.288
354.6545, 6236.978
355.1366, 6236.254
355.6187, 6242.449
356.1009, 6255.436
356.5830, 6268.741
357.0651, 6277.477
357.5472, 6282.391
358.0293, 6288.059
358.5114, 6297.665
358.9936, 6301.899
359.4757, 6291.926
359.9578, 6271.168
360.4399, 6246.246
360.9220, 6211.861
361.4041, 6179.104
361.8863, 6161.158
362.3684, 6156.461
362.8505, 6151.825
363.3326, 6140.457
363.8147, 6126.265
364.2968, 6118.818
364.7790, 6120.396
365.2611, 6122.052
365.7432, 6128.766
366.2253, 6131.089
366.7074, 6108.931
367.1895, 6059.743
367.6717, 6015.090
368.1538, 6012.002
368.6359, 6059.981
369.1180, 6085.774
369.6001, 6080.422
370.0822, 6065.433
370.5644, 6045.964
371.0465, 6024.423
371.5286, 6004.222
372.0107, 5987.588
372.4928, 5971.979
372.9749, 5947.602
373.4571, 5894.488
373.9392, 5867.916
374.4213, 5889.962
374.9034, 5925.209
375.3855, 5948.816
375.8676, 5955.828
376.3498, 5953.604
376.8319, 5943.046
377.3140, 5923.702
377.7961, 5927.947
378.2782, 5977.305
378.7603, 6021.421
379.2425, 6030.305
379.7246, 6018.375
380.2067, 6014.066
380.6888, 6035.794
381.1709, 6060.873
381.6530, 6051.440
382.1352, 6006.699
382.6173, 5971.529
383.0994, 5963.688
383.5815, 5972.175
384.0636, 5978.432
384.5457, 5980.511
385.0279, 5992.482
385.5100, 6031.087
385.9921, 6079.073
386.4742, 6107.468
386.9563, 6112.003
387.4384, 6115.349
387.9206, 6141.112
388.4027, 6187.690
388.8848, 6202.125
389.3669, 6136.368
389.8490, 6092.117
390.3311, 6129.972
390.8133, 6214.791
391.2954, 6281.963
391.7775, 6303.813
392.2596, 6299.528
392.7417, 6306.079
393.2238, 6328.291
393.7060, 6352.599
394.1881, 6384.052
394.6702, 6413.005
395.1523, 6428.551
395.6344, 6434.805
396.1165, 6448.155
396.5987, 6484.693
397.0808, 6538.781
397.5629, 6574.230
398.0450, 6583.545
398.5271, 6586.863
399.0092, 6581.577
399.4914, 6578.320
399.9735, 6593.587
400.4556, 6633.794
400.9377, 6671.113
401.4198, 6670.169
401.9019, 6636.374
402.3841, 6618.624
402.8662, 6635.678
403.3483, 6651.484
403.8304, 6622.672
404.3125, 6560.367
404.7946, 6515.326
405.2768, 6505.098
405.7589, 6513.813
406.2410, 6544.806
406.7231, 6588.841
407.2052, 6591.351
407.6873, 6512.984
408.1695, 6393.601
408.6516, 6342.565
409.1337, 6405.549
409.6158, 6446.484
410.0979, 6430.743
410.5800, 6397.243
411.0622, 6380.094
411.5443, 6384.175
412.0264, 6398.407
412.5085, 6415.749
412.9906, 6436.472
413.4727, 6430.151
413.9549, 6357.719
414.4370, 6300.930
414.9191, 6288.638
415.4012, 6296.177
415.8833, 6290.316
416.3654, 6258.847
416.8476, 6219.846
417.3297, 6196.832
417.8118, 6190.377
418.2939, 6197.273
418.7760, 6239.227
419.2581, 6268.898
419.7403, 6242.591
420.2224, 6176.224
420.7045, 6128.207
421.1866, 6135.523
421.6687, 6168.699
422.1508, 6194.273
422.6330, 6212.109
423.1151, 6209.424
423.5972, 6169.995
424.0793, 6116.065
424.5614, 6098.258
425.0435, 6132.360
425.5257, 6150.155
426.0078, 6120.659
426.4899, 6073.520
426.9720, 6031.508
427.4541, 6001.493
427.9362, 6001.255
428.4184, 6054.375
428.9005, 6157.675
429.3826, 6201.165
429.8647, 6128.537
430.3468, 6063.137
430.8289, 6021.833
431.3111, 6002.424
431.7932, 6005.943
432.2753, 6031.153
432.7574, 6063.444
433.2395, 6082.720
433.7216, 6086.685
434.2038, 6095.790
434.6859, 6120.931
435.1680, 6138.773
435.6501, 6125.803
436.1322, 6098.373
436.6143, 6093.140
437.0965, 6133.668
437.5786, 6191.081
438.0607, 6233.238
438.5428, 6260.491
439.0249, 6271.429
439.5070, 6259.633
439.9892, 6239.597
440.4713, 6233.936
440.9534, 6243.863
441.4355, 6248.108
441.9176, 6227.865
442.3997, 6210.163
442.8819, 6229.508
443.3640, 6278.347
443.8461, 6312.113
444.3282, 6298.917
444.8103, 6255.042
445.2924, 6246.813
445.7746, 6340.005
446.2567, 6382.131
446.7388, 6319.838
447.2209, 6236.041
447.7030, 6197.980
448.1852, 6213.303
448.6673, 6250.814
449.1494, 6286.472
449.6315, 6319.558
450.1136, 6344.509
450.5957, 6363.846
451.0779, 6369.535
451.5600, 6346.381
452.0421, 6313.986
452.5242, 6294.299
453.0063, 6292.507
453.4884, 6301.337
453.9706, 6324.319
454.4527, 6353.890
454.9348, 6360.809
455.4169, 6335.056
455.8990, 6311.231
456.3811, 6327.500
456.8633, 6380.004
457.3454, 6399.909
457.8275, 6367.022
458.3096, 6322.009
458.7917, 6276.751
459.2738, 6233.524
459.7560, 6191.738
460.2381, 6151.694
460.7202, 6123.372
461.2023, 6126.240
461.6844, 6177.045
462.1665, 6199.106
462.6487, 6172.695
463.1308, 6138.745
463.6129, 6114.994
464.0950, 6094.717
464.5771, 6060.054
465.0592, 5998.910
465.5414, 5932.248
466.0235, 5897.258
466.5056, 5896.219
466.9877, 5901.611
467.4698, 5920.163
467.9519, 5928.539
468.4341, 5901.151
468.9162, 5843.048
469.3983, 5788.088
469.8804, 5746.784
470.3625, 5714.753
470.8446, 5687.707
471.3268, 5666.080
471.8089, 5654.046
472.2910, 5655.693
472.7731, 5662.475
473.2552, 5655.674
473.7373, 5621.354
474.2195, 5600.061
474.7016, 5612.466
475.1837, 5620.864
475.6658, 5595.983
476.1479, 5543.528
476.6300, 5485.432
477.1122, 5433.698
477.5943, 5392.154
478.0764, 5380.859
478.5585, 5422.793
479.0406, 5434.904
479.5227, 5361.574
480.0049, 5279.141
480.4870, 5244.157
480.9691, 5255.855
481.4512, 5267.524
481.9333, 5246.154
482.4154, 5209.866
482.8976, 5191.131
483.3797, 5190.939
483.8618, 5190.416
484.3439, 5180.318
484.8260, 5163.844
485.3081, 5149.424
485.7903, 5142.681
486.2724, 5124.720
486.7545, 5081.476
487.2366, 5033.142
487.7187, 4988.796
488.2008, 4954.515
488.6830, 4948.059
489.1651, 4987.489
489.6472, 5057.599
490.1293, 5083.714
490.6114, 5036.787
491.0935, 4996.287
491.5757, 4976.264
492.0578, 4964.529
492.5399, 4950.613
493.0220, 4934.417
493.5041, 4924.774
493.9862, 4929.729
494.4684, 4945.503
494.9505, 4967.028
495.4326, 4996.292
495.9147, 5013.078
496.3968, 5005.010
496.8789, 4979.915
497.3611, 4952.927
497.8432, 4921.528
498.3253, 4895.891
498.8074, 4875.436
499.2895, 4864.164
499.7716, 4872.161
500.2538, 4895.608
500.7359, 4914.922
501.2180, 4915.450
501.7001, 4902.375
502.1822, 4898.971
502.6643, 4910.957
503.1465, 4923.539
503.6286, 4935.992
504.1107, 4947.901
504.5928, 4956.859
505.0749, 4964.175
505.5570, 4976.476
506.0392, 5008.945
506.5213, 5045.522
507.0034, 5036.191
507.4855, 4973.788
507.9676, 4931.602
508.4497, 4948.279
508.9319, 4993.266
509.4140, 5017.969
509.8961, 5020.816
510.3782, 5016.435
510.8603, 5003.736
511.3424, 4988.845
511.8246, 4973.477
512.3067, 4960.317
512.7888, 4958.286
513.2709, 4973.616
513.7531, 4999.302
514.2352, 5014.203
514.7173, 5008.200
515.1994, 5011.143
515.6815, 5042.169
516.1636, 5066.129
516.6458, 5052.292
517.1279, 5011.850
517.6100, 4983.544
518.0921, 4992.855
518.5742, 5022.469
519.0563, 5050.574
519.5385, 5077.042
520.0206, 5075.453
520.5027, 5019.594
520.9848, 4959.417
521.4669, 4968.374
521.9490, 5045.126
522.4312, 5109.929
522.9133, 5147.308
523.3954, 5172.888
523.8775, 5204.753
524.3596, 5232.213
524.8417, 5220.119
525.3239, 5153.610
525.8060, 5075.906
526.2881, 5064.562
526.7702, 5142.769
527.2523, 5205.755
527.7344, 5252.069
528.2166, 5283.225
528.6987, 5289.247
529.1808, 5282.789
529.6629, 5284.634
530.1450, 5302.081
530.6271, 5330.416
531.1093, 5375.716
531.5914, 5429.903
532.0735, 5453.596
532.5556, 5433.313
533.0377, 5409.778
533.5198, 5421.796
534.0020, 5466.113
534.4841, 5489.664
534.9662, 5464.716
535.4483, 5453.213
535.9304, 5488.786
536.4125, 5540.970
536.8947, 5570.499
537.3768, 5571.096
537.8589, 5567.088
538.3410, 5582.930
538.8231, 5617.104
539.3052, 5648.623
539.7874, 5673.114
540.2695, 5703.625
540.7516, 5764.270
541.2337, 5821.523
541.7158, 5833.985
542.1979, 5795.057
542.6801, 5766.240
543.1622, 5799.264
543.6443, 5854.256
544.1264, 5873.537
544.6085, 5855.693
545.0906, 5818.852
545.5728, 5764.803
546.0549, 5713.934
546.5370, 5719.326
547.0191, 5836.335
547.5012, 5913.855
547.9833, 5942.038
548.4655, 5940.634
548.9476, 5911.332
549.4297, 5862.596
549.9117, 5803.363
550.3939, 5732.349
550.8760, 5675.420
551.3581, 5693.255
551.8402, 5789.240
552.3223, 5851.297
552.8044, 5848.969
553.2866, 5824.894
553.7687, 5818.685
554.2508, 5823.096
554.7329, 5808.482
555.2150, 5754.167
555.6971, 5697.345
556.1793, 5641.985
556.6614, 5601.625
557.1435, 5612.175
557.6256, 5677.082
558.1077, 5738.939
558.5898, 5733.030
559.0720, 5660.752
559.5541, 5622.173
560.0362, 5652.082
560.5183, 5662.732
561.0004, 5612.146
561.4825, 5548.184
561.9647, 5519.044
562.4468, 5530.624
562.9289, 5546.633
563.4110, 5549.931
563.8931, 5539.439
564.3752, 5507.513
564.8574, 5455.597
565.3395, 5404.808
565.8216, 5362.762
566.3037, 5332.568
566.7858, 5321.626
567.2679, 5340.709
567.7501, 5354.451
568.2322, 5378.546
568.7143, 5382.129
569.1964, 5329.361
569.6785, 5247.247
570.1606, 5190.752
570.6428, 5185.975
571.1249, 5196.651
571.6070, 5163.719
572.0891, 5088.666
572.5712, 5035.917
573.0533, 5018.126
573.5355, 5009.354
574.0176, 5000.186
574.4997, 4985.799
574.9818, 4952.056
575.4639, 4880.494
575.9460, 4819.574
576.4282, 4800.202
576.9103, 4794.937
577.3924, 4768.976
577.8745, 4721.072
578.3566, 4675.950
578.8387, 4654.051
579.3209, 4646.045
579.8030, 4611.788
580.2851, 4535.973
580.7672, 4470.326
581.2493, 4419.743
581.7314, 4385.475
582.2136, 4383.760
582.6957, 4403.071
583.1778, 4398.000
583.6599, 4337.484
584.1420, 4257.925
584.6241, 4171.873
585.1063, 4094.624
585.5884, 4085.743
586.0705, 4165.371
586.5526, 4252.898
587.0347, 4259.105
587.5168, 4180.793
587.9990, 4107.346
588.4811, 4026.107
588.9632, 3966.100
589.4453, 3944.321
589.9274, 3938.810
590.4095, 3931.420
590.8917, 3918.040
591.3738, 3899.557
591.8559, 3878.388
592.3380, 3851.997
592.8201, 3805.728
593.3022, 3739.528
593.7844, 3700.509
594.2665, 3713.132
594.7486, 3750.188
595.2307, 3773.547
595.7128, 3782.104
596.1949, 3779.358
596.6771, 3750.010
597.1592, 3725.569
597.6413, 3730.639
598.1234, 3746.624
598.6055, 3741.884
599.0876, 3707.136
599.5698, 3665.343
600.0519, 3642.677
600.5340, 3637.329
601.0161, 3635.206
601.4982, 3639.558
601.9803, 3634.583
602.4625, 3608.375
602.9446, 3570.756
603.4267, 3538.668
603.9088, 3511.752
604.3909, 3491.427
604.8730, 3481.388
605.3552, 3475.324
605.8373, 3468.895
606.3194, 3462.351
606.8015, 3455.990
607.2836, 3449.920
607.7657, 3448.233
608.2479, 3459.131
608.7300, 3484.207
609.2121, 3509.121
609.6942, 3540.823
610.1763, 3560.237
610.6584, 3548.562
611.1406, 3521.516
611.6227, 3503.231
612.1048, 3501.558
612.5869, 3490.449
613.0690, 3446.969
613.5511, 3395.323
614.0333, 3359.463
614.5154, 3341.731
614.9975, 3344.110
615.4796, 3369.905
615.9617, 3401.392
616.4438, 3396.097
616.9260, 3338.235
617.4081, 3298.524
617.8902, 3284.970
618.3723, 3284.325
618.8544, 3296.801
619.3365, 3315.647
619.8187, 3329.783
620.3008, 3337.230
620.7829, 3337.788
621.2650, 3321.538
621.7471, 3302.670
622.2292, 3308.867
622.7114, 3338.735
623.1935, 3362.207
623.6756, 3359.863
624.1577, 3341.051
624.6398, 3332.341
625.1219, 3342.863
625.6041, 3341.934
626.0862, 3310.122
626.5683, 3284.682
627.0504, 3286.938
627.5325, 3306.334
628.0146, 3322.851
628.4968, 3332.525
628.9789, 3331.661
629.4610, 3302.019
629.9431, 3264.709
630.4252, 3271.765
630.9073, 3323.908
631.3895, 3359.663
631.8716, 3334.392
632.3537, 3272.465
632.8358, 3249.690
633.3179, 3292.157
633.8000, 3321.499
