##NAMES=Wilkinsonite
##RRUFFID=R060922
##IDEAL CHEMISTRY=Na_4_(Fe^2+^_8_Fe^3+^_4_)O_4_[Si_12_O_36_]
##LOCALITY=Warrumbungle Volcanics, New South Wales, Australia
##OWNER=RRUFF
##SOURCE=
##DESCRIPTION=Black anhedral grains found as inclusions within colorless anorthoclase
##STATUS=The identification of this mineral is confirmed by single-crystal X-ray diffraction and chemical analysis.
##URL=rruff.info/R060922
##MEASURED CHEMISTRY=Na_1.00_(Fe^2+^_1.87_Mn_0.07_Fe^3+^_0.03_)_Σ=2_(Fe^3+^_0.97_Cr_0.03_)_Σ=1_(Si_2.94_Al_0.06_)_Σ=3_O_10_ ; the dark phase is anorthoclase: (Na_0.71_K_0.29_)_Σ=1_(Al_0.95_Fe^3+^_0.05_)_Σ=1_Si_3.00_O_8_
130.4138, 1444.878
130.8959, 1511.542
131.3781, 1568.350
131.8602, 1615.812
132.3423, 1658.677
132.8244, 1698.198
133.3065, 1734.751
133.7886, 1769.019
134.2708, 1802.072
134.7529, 1831.706
135.2350, 1851.696
135.7171, 1860.285
136.1992, 1867.788
136.6814, 1879.546
137.1635, 1895.494
137.6456, 1916.122
138.1277, 1943.530
138.6098, 1975.267
139.0919, 2002.096
139.5741, 2023.891
140.0562, 2041.074
140.5383, 2052.155
141.0204, 2051.984
141.5025, 2059.990
141.9846, 2082.675
142.4668, 2119.942
142.9489, 2148.281
143.4310, 2162.098
143.9131, 2171.687
144.3952, 2187.468
144.8773, 2207.819
145.3595, 2236.864
145.8416, 2278.560
146.3237, 2337.982
146.8058, 2389.414
147.2879, 2431.006
147.7700, 2465.317
148.2522, 2497.549
148.7343, 2530.951
149.2164, 2558.424
149.6985, 2576.891
150.1806, 2576.424
150.6627, 2583.757
151.1449, 2608.771
151.6270, 2642.533
152.1091, 2662.380
152.5912, 2651.734
153.0733, 2638.014
153.5554, 2633.372
154.0376, 2642.745
154.5197, 2656.736
155.0018, 2680.290
155.4839, 2710.118
155.9660, 2729.031
156.4481, 2725.354
156.9303, 2714.220
157.4124, 2705.981
157.8945, 2697.401
158.3766, 2697.232
158.8587, 2712.897
159.3408, 2743.601
159.8230, 2769.611
160.3051, 2788.019
160.7872, 2796.852
161.2693, 2794.424
161.7514, 2759.636
162.2335, 2729.927
162.7157, 2725.318
163.1978, 2748.588
163.6799, 2777.807
164.1620, 2811.287
164.6441, 2842.747
165.1262, 2862.504
165.6084, 2858.199
166.0905, 2846.417
166.5726, 2838.360
167.0547, 2835.822
167.5368, 2834.548
168.0189, 2827.251
168.5011, 2818.716
168.9832, 2819.800
169.4653, 2848.306
169.9474, 2883.544
170.4295, 2905.215
170.9116, 2908.448
171.3938, 2900.941
171.8759, 2881.871
172.3580, 2855.344
172.8401, 2835.408
173.3222, 2841.520
173.8043, 2857.188
174.2865, 2857.630
174.7686, 2830.078
175.2507, 2795.102
175.7328, 2775.084
176.2149, 2769.111
176.6970, 2768.678
177.1792, 2769.363
177.6613, 2770.947
178.1434, 2773.191
178.6255, 2777.338
179.1076, 2781.134
179.5897, 2783.508
180.0719, 2784.390
180.5540, 2777.696
181.0361, 2746.086
181.5182, 2699.953
182.0003, 2671.893
182.4824, 2686.229
182.9646, 2723.216
183.4467, 2735.974
183.9288, 2722.651
184.4109, 2702.807
184.8930, 2701.225
185.3751, 2714.317
185.8573, 2719.522
186.3394, 2698.267
186.8215, 2659.991
187.3036, 2645.604
187.7857, 2659.792
188.2678, 2679.572
188.7500, 2669.216
189.2321, 2629.933
189.7142, 2595.046
190.1963, 2583.659
190.6784, 2592.205
191.1605, 2593.594
191.6427, 2586.078
192.1248, 2573.207
192.6069, 2560.452
193.0890, 2547.835
193.5711, 2534.897
194.0532, 2519.827
194.5354, 2502.909
195.0175, 2492.328
195.4996, 2490.970
195.9817, 2492.927
196.4638, 2484.740
196.9460, 2465.358
197.4281, 2442.666
197.9102, 2417.212
198.3923, 2388.176
198.8744, 2375.682
199.3565, 2387.666
199.8387, 2413.344
200.3208, 2420.020
200.8029, 2404.376
201.2850, 2382.206
201.7671, 2363.716
202.2492, 2349.003
202.7314, 2335.751
203.2135, 2321.903
203.6956, 2309.578
204.1777, 2311.110
204.6598, 2331.888
205.1419, 2352.429
205.6241, 2353.587
206.1062, 2329.680
206.5883, 2315.126
207.0704, 2319.775
207.5525, 2339.895
208.0346, 2345.518
208.5168, 2332.565
208.9989, 2312.922
209.4810, 2295.352
209.9631, 2278.199
210.4452, 2269.899
210.9273, 2275.389
211.4095, 2293.823
211.8916, 2301.963
212.3737, 2294.853
212.8558, 2284.687
213.3379, 2285.884
213.8200, 2304.857
214.3022, 2317.094
214.7843, 2315.310
215.2664, 2298.986
215.7485, 2285.097
216.2306, 2273.845
216.7127, 2264.799
217.1949, 2256.764
217.6770, 2247.930
218.1591, 2244.376
218.6412, 2249.418
219.1233, 2264.486
219.6054, 2273.913
220.0876, 2275.542
220.5697, 2273.493
221.0518, 2273.762
221.5339, 2279.045
222.0160, 2280.895
222.4981, 2273.492
222.9803, 2252.079
223.4624, 2250.788
223.9445, 2282.625
224.4266, 2325.021
224.9087, 2339.509
225.3908, 2303.796
225.8730, 2280.936
226.3551, 2295.123
226.8372, 2359.843
227.3193, 2406.485
227.8014, 2432.323
228.2835, 2442.058
228.7657, 2441.822
229.2478, 2422.096
229.7299, 2408.115
230.2120, 2412.068
230.6941, 2445.561
231.1762, 2457.326
231.6584, 2436.857
232.1405, 2399.675
232.6226, 2376.355
233.1047, 2372.733
233.5868, 2373.934
234.0689, 2375.124
234.5511, 2376.676
235.0332, 2377.711
235.5153, 2381.619
235.9974, 2383.703
236.4795, 2372.504
236.9616, 2338.514
237.4438, 2305.227
237.9259, 2281.568
238.4080, 2268.423
238.8901, 2263.202
239.3722, 2273.045
239.8543, 2288.673
240.3365, 2287.188
240.8186, 2257.709
241.3007, 2226.888
241.7828, 2204.717
242.2649, 2190.983
242.7470, 2188.202
243.2292, 2205.056
243.7113, 2230.551
244.1934, 2234.564
244.6755, 2200.616
245.1576, 2169.345
245.6397, 2159.758
246.1219, 2184.889
246.6040, 2202.044
247.0861, 2209.648
247.5682, 2209.651
248.0503, 2206.863
248.5324, 2200.179
249.0146, 2192.449
249.4967, 2185.991
249.9788, 2185.796
250.4609, 2173.407
250.9430, 2137.244
251.4251, 2092.105
251.9073, 2078.887
252.3894, 2114.891
252.8715, 2155.415
253.3536, 2181.826
253.8357, 2194.256
254.3178, 2189.780
254.8000, 2158.750
255.2821, 2113.492
255.7642, 2090.179
256.2463, 2098.187
256.7284, 2111.715
257.2105, 2118.688
257.6927, 2116.768
258.1748, 2114.745
258.6569, 2112.764
259.1390, 2110.768
259.6211, 2107.473
260.1032, 2099.126
260.5854, 2096.620
261.0675, 2109.552
261.5496, 2150.875
262.0317, 2165.967
262.5138, 2144.510
262.9959, 2101.026
263.4781, 2069.077
263.9602, 2048.222
264.4423, 2040.512
264.9244, 2052.078
265.4065, 2093.013
265.8886, 2113.997
266.3708, 2105.387
266.8529, 2081.828
267.3350, 2080.863
267.8171, 2112.869
268.2992, 2140.333
268.7813, 2142.450
269.2635, 2112.533
269.7456, 2089.456
270.2277, 2075.204
270.7098, 2067.272
271.1919, 2059.398
271.6740, 2049.190
272.1562, 2047.182
272.6383, 2063.285
273.1204, 2101.952
273.6025, 2125.575
274.0846, 2131.083
274.5667, 2124.167
275.0489, 2114.114
275.5310, 2099.868
276.0131, 2087.479
276.4952, 2077.432
276.9773, 2069.105
277.4594, 2075.229
277.9416, 2100.720
278.4237, 2133.384
278.9058, 2148.348
279.3879, 2142.164
279.8700, 2145.020
280.3521, 2182.310
280.8343, 2254.071
281.3164, 2284.629
281.7985, 2262.555
282.2806, 2221.376
282.7627, 2219.270
283.2448, 2258.239
283.7270, 2291.941
284.2091, 2295.896
284.6912, 2273.066
285.1733, 2255.934
285.6554, 2244.500
286.1375, 2239.402
286.6197, 2245.899
287.1018, 2263.332
287.5839, 2275.814
288.0660, 2268.540
288.5481, 2248.358
289.0303, 2252.654
289.5124, 2284.599
289.9945, 2326.200
290.4766, 2358.021
290.9587, 2380.576
291.4409, 2396.239
291.9230, 2401.951
292.4051, 2401.560
292.8872, 2406.839
293.3693, 2418.359
293.8514, 2431.130
294.3336, 2439.090
294.8157, 2443.505
295.2978, 2450.016
295.7799, 2463.300
296.2620, 2479.124
296.7441, 2487.952
297.2263, 2489.504
297.7084, 2489.778
298.1905, 2494.612
298.6726, 2502.587
299.1547, 2492.159
299.6368, 2520.958
300.1190, 2539.019
300.6011, 2546.917
301.0832, 2514.214
301.5653, 2533.938
302.0474, 2532.652
302.5295, 2530.504
303.0117, 2557.608
303.4938, 2530.810
303.9759, 2557.449
304.4580, 2562.758
304.9401, 2577.829
305.4222, 2571.760
305.9044, 2592.378
306.3865, 2626.086
306.8686, 2649.270
307.3507, 2654.710
307.8328, 2631.584
308.3149, 2657.709
308.7971, 2673.095
309.2792, 2678.318
309.7613, 2642.940
310.2434, 2659.990
310.7255, 2656.028
311.2076, 2651.206
311.6898, 2675.635
312.1719, 2646.162
312.6540, 2670.126
313.1361, 2672.760
313.6182, 2685.156
314.1003, 2676.412
314.5825, 2674.197
315.0646, 2693.130
315.5467, 2700.353
316.0288, 2689.175
316.5109, 2702.191
316.9930, 2671.980
317.4752, 2672.297
317.9573, 2661.230
318.4394, 2655.681
318.9215, 2636.717
319.4036, 2659.811
319.8857, 2672.166
320.3679, 2674.359
320.8500, 2635.950
321.3321, 2649.970
321.8142, 2642.978
322.2963, 2635.125
322.7784, 2656.523
323.2606, 2624.021
323.7427, 2644.955
324.2248, 2644.558
324.7069, 2653.923
325.1890, 2642.149
325.6711, 2636.904
326.1533, 2652.806
326.6354, 2656.999
327.1175, 2642.791
327.5996, 2652.777
328.0817, 2619.536
328.5638, 2624.227
329.0460, 2645.285
329.5281, 2613.006
330.0102, 2622.931
330.4923, 2655.153
330.9744, 2662.051
331.4565, 2624.144
331.9387, 2579.715
332.4208, 2556.992
332.9029, 2564.874
333.3850, 2578.165
333.8671, 2599.040
334.3492, 2623.968
334.8314, 2633.289
335.3135, 2617.469
335.7956, 2602.226
336.2777, 2607.672
336.7598, 2645.622
337.2419, 2659.458
337.7241, 2635.366
338.2062, 2590.253
338.6883, 2576.204
339.1704, 2601.091
339.6525, 2627.679
340.1346, 2632.676
340.6168, 2613.752
341.0989, 2611.707
341.5810, 2634.093
342.0631, 2663.520
342.5452, 2663.421
343.0273, 2632.039
343.5095, 2607.904
343.9916, 2615.023
344.4737, 2647.861
344.9558, 2665.518
345.4379, 2665.894
345.9200, 2658.890
346.4022, 2653.622
346.8843, 2650.532
347.3664, 2652.920
347.8485, 2669.674
348.3306, 2690.684
348.8127, 2686.772
349.2949, 2657.087
349.7770, 2628.227
350.2591, 2628.235
350.7412, 2648.321
351.2233, 2668.236
351.7054, 2686.807
352.1876, 2697.436
352.6697, 2687.471
353.1518, 2659.057
353.6339, 2628.686
354.1160, 2595.492
354.5981, 2571.583
355.0803, 2576.733
355.5624, 2630.791
356.0445, 2688.648
356.5266, 2714.882
357.0087, 2715.735
357.4908, 2710.412
357.9730, 2706.699
358.4551, 2702.261
358.9372, 2695.493
359.4193, 2686.457
359.9014, 2674.127
360.3835, 2649.660
360.8657, 2622.526
361.3478, 2608.971
361.8299, 2623.610
362.3120, 2645.736
362.7941, 2667.988
363.2762, 2690.529
363.7584, 2708.011
364.2405, 2718.326
364.7226, 2723.225
365.2047, 2724.584
365.6868, 2716.501
366.1689, 2711.200
366.6511, 2714.810
367.1332, 2727.930
367.6153, 2732.124
368.0974, 2713.683
368.5795, 2694.126
369.0616, 2688.326
369.5438, 2714.803
370.0259, 2728.454
370.5080, 2719.221
370.9901, 2692.566
371.4722, 2677.724
371.9543, 2682.456
372.4365, 2688.214
372.9186, 2684.714
373.4007, 2667.686
373.8828, 2653.454
374.3649, 2623.793
374.8470, 2639.498
375.3292, 2644.460
375.8113, 2639.261
376.2934, 2593.462
376.7755, 2600.090
377.2576, 2585.708
377.7397, 2570.465
378.2219, 2584.470
378.7040, 2544.576
379.1861, 2558.120
379.6682, 2550.332
380.1503, 2552.307
380.6324, 2533.143
381.1146, 2520.505
381.5967, 2529.016
382.0788, 2525.818
382.5609, 2504.219
383.0430, 2506.815
383.5251, 2487.229
384.0073, 2449.381
384.4894, 2463.959
384.9715, 2457.528
385.4536, 2450.235
385.9357, 2472.192
386.4178, 2440.250
386.9000, 2461.743
387.3821, 2461.906
387.8642, 2471.831
388.3463, 2460.616
388.8284, 2455.931
389.3105, 2472.393
389.7927, 2477.145
390.2748, 2463.497
390.7569, 2474.043
391.2390, 2441.361
391.7211, 2446.612
392.2032, 2477.847
392.6854, 2501.987
393.1675, 2506.219
393.6496, 2501.712
394.1317, 2500.352
394.6138, 2511.485
395.0959, 2520.110
395.5781, 2519.599
396.0602, 2510.799
396.5423, 2505.155
397.0244, 2507.195
397.5065, 2511.240
397.9886, 2513.963
398.4708, 2510.708
398.9529, 2511.801
399.4350, 2521.065
399.9171, 2534.720
400.3992, 2541.792
400.8813, 2535.197
401.3635, 2531.268
401.8456, 2537.392
402.3277, 2557.368
402.8098, 2572.357
403.2919, 2582.942
403.7740, 2587.928
404.2562, 2583.368
404.7383, 2565.297
405.2204, 2551.915
405.7025, 2547.734
406.1846, 2552.422
406.6667, 2565.315
407.1489, 2588.291
407.6310, 2611.629
408.1131, 2625.844
408.5952, 2631.603
409.0773, 2635.742
409.5594, 2638.316
410.0416, 2641.631
410.5237, 2656.061
411.0058, 2679.653
411.4879, 2691.493
411.9700, 2657.548
412.4521, 2606.052
412.9343, 2603.276
413.4164, 2663.644
413.8985, 2731.604
414.3806, 2749.885
414.8628, 2735.025
415.3449, 2720.920
415.8270, 2726.701
416.3091, 2737.082
416.7912, 2738.084
417.2733, 2729.729
417.7555, 2723.355
418.2376, 2721.295
418.7197, 2725.852
419.2018, 2739.730
419.6839, 2780.644
420.1660, 2811.254
420.6482, 2814.551
421.1303, 2796.439
421.6124, 2776.964
422.0945, 2752.681
422.5766, 2734.267
423.0587, 2728.681
423.5409, 2747.558
424.0230, 2754.192
424.5051, 2735.282
424.9872, 2707.508
425.4693, 2693.905
425.9514, 2700.539
426.4336, 2712.845
426.9157, 2731.291
427.3978, 2756.008
427.8799, 2765.495
428.3620, 2750.387
428.8441, 2720.780
429.3263, 2751.870
429.8084, 2773.045
430.2905, 2784.839
430.7726, 2759.155
431.2547, 2781.865
431.7368, 2785.182
432.2190, 2787.705
432.7011, 2817.228
433.1832, 2796.995
433.6653, 2826.090
434.1474, 2835.494
434.6295, 2853.910
435.1117, 2852.813
435.5938, 2860.932
436.0759, 2867.690
436.5580, 2870.932
437.0401, 2872.566
437.5222, 2872.377
438.0044, 2868.433
438.4865, 2861.331
438.9686, 2856.454
439.4507, 2858.918
439.9328, 2864.865
440.4149, 2870.314
440.8971, 2874.681
441.3792, 2877.779
441.8613, 2877.560
442.3434, 2876.056
442.8255, 2877.624
443.3076, 2889.965
443.7898, 2900.442
444.2719, 2902.949
444.7540, 2895.849
445.2361, 2887.080
445.7182, 2876.040
446.2003, 2864.835
446.6825, 2855.366
447.1646, 2847.833
447.6467, 2841.841
448.1288, 2838.303
448.6109, 2836.594
449.0930, 2833.007
449.5752, 2827.234
450.0573, 2820.248
450.5394, 2810.907
451.0215, 2796.599
451.5036, 2794.525
451.9857, 2811.835
452.4679, 2831.101
452.9500, 2815.882
453.4321, 2763.203
453.9142, 2729.169
454.3963, 2745.391
454.8784, 2793.994
455.3606, 2810.022
455.8427, 2792.423
456.3248, 2767.781
456.8069, 2757.222
457.2890, 2757.448
457.7711, 2763.911
458.2533, 2783.663
458.7354, 2793.123
459.2175, 2749.869
459.6996, 2673.161
460.1817, 2617.129
460.6638, 2629.645
461.1460, 2662.554
461.6281, 2679.692
462.1102, 2676.690
462.5923, 2668.829
463.0744, 2656.068
463.5565, 2644.990
464.0387, 2642.162
464.5208, 2662.361
465.0029, 2677.109
465.4850, 2676.698
465.9671, 2663.795
466.4492, 2653.306
466.9314, 2653.917
467.4135, 2650.236
467.8956, 2633.847
468.3777, 2594.606
468.8598, 2569.759
469.3419, 2562.070
469.8241, 2566.550
470.3062, 2581.009
470.7883, 2613.090
471.2704, 2627.750
471.7525, 2608.963
472.2346, 2564.795
472.7168, 2541.078
473.1989, 2539.284
473.6810, 2549.235
474.1631, 2573.460
474.6452, 2606.084
475.1273, 2612.231
475.6095, 2580.854
476.0916, 2541.958
476.5737, 2542.507
477.0558, 2570.400
477.5379, 2586.449
478.0201, 2555.958
478.5022, 2513.409
478.9843, 2493.950
479.4664, 2497.935
479.9485, 2513.573
480.4306, 2553.298
480.9128, 2591.657
481.3949, 2602.904
481.8770, 2558.103
482.3591, 2518.755
482.8412, 2510.011
483.3233, 2521.427
483.8055, 2528.823
484.2876, 2524.494
484.7697, 2518.177
485.2518, 2511.846
485.7339, 2504.614
486.2160, 2503.221
486.6982, 2512.903
487.1803, 2523.677
487.6624, 2525.981
488.1445, 2515.076
488.6266, 2509.098
489.1087, 2512.379
489.5909, 2520.926
490.0730, 2522.067
490.5551, 2514.286
491.0372, 2508.484
491.5193, 2514.408
492.0014, 2528.906
492.4836, 2529.638
492.9657, 2514.728
493.4478, 2496.313
493.9299, 2485.231
494.4120, 2480.641
494.8941, 2480.519
495.3763, 2487.302
495.8584, 2494.549
496.3405, 2495.041
496.8226, 2489.917
497.3047, 2483.025
497.7868, 2473.284
498.2690, 2464.694
498.7511, 2460.618
499.2332, 2461.937
499.7153, 2464.894
500.1974, 2466.142
500.6795, 2469.155
501.1617, 2477.644
501.6438, 2503.241
502.1259, 2521.902
502.6080, 2528.385
503.0901, 2524.445
503.5722, 2517.180
504.0544, 2502.754
504.5365, 2490.268
505.0186, 2483.248
505.5007, 2481.754
505.9828, 2486.892
506.4649, 2502.353
506.9471, 2517.642
507.4292, 2515.000
507.9113, 2493.643
508.3934, 2485.338
508.8755, 2504.814
509.3576, 2536.189
509.8398, 2542.172
510.3219, 2524.681
510.8040, 2503.943
511.2861, 2496.394
511.7682, 2493.036
512.2504, 2475.438
512.7325, 2439.243
513.2146, 2410.616
513.6967, 2415.512
514.1788, 2438.191
514.6609, 2456.498
515.1431, 2452.907
515.6252, 2453.374
516.1073, 2477.690
516.5894, 2517.775
517.0715, 2539.339
517.5536, 2515.470
518.0358, 2487.698
518.5179, 2474.710
519.0000, 2481.843
519.4821, 2488.154
519.9642, 2492.732
520.4464, 2497.180
520.9285, 2504.940
521.4106, 2520.417
521.8927, 2524.000
522.3748, 2506.335
522.8569, 2477.593
523.3391, 2470.757
523.8212, 2487.298
524.3033, 2511.366
524.7854, 2537.653
525.2675, 2564.479
525.7496, 2583.534
526.2318, 2593.595
526.7139, 2603.695
527.1960, 2627.187
527.6781, 2656.222
528.1602, 2677.172
528.6423, 2685.216
529.1245, 2684.481
529.6066, 2665.122
530.0887, 2637.839
530.5708, 2632.032
531.0529, 2690.738
531.5350, 2749.218
532.0172, 2767.184
532.4993, 2733.814
532.9814, 2716.160
533.4635, 2737.732
533.9456, 2769.936
534.4277, 2790.497
534.9099, 2786.219
535.3920, 2794.800
535.8741, 2826.957
536.3562, 2869.386
536.8383, 2885.854
537.3204, 2869.243
537.8026, 2856.151
538.2847, 2848.799
538.7668, 2878.186
539.2489, 2897.659
539.7310, 2907.752
540.2131, 2880.366
540.6953, 2901.377
541.1774, 2902.993
541.6595, 2903.812
542.1416, 2931.633
542.6237, 2909.699
543.1058, 2937.091
543.5880, 2944.795
544.0701, 2961.510
544.5522, 2958.709
545.0343, 2961.937
545.5164, 2984.685
545.9985, 2996.623
546.4807, 2991.578
546.9628, 3008.866
547.4449, 2986.249
547.9270, 2998.649
548.4091, 3026.156
548.8912, 3022.091
549.3734, 3019.430
549.8555, 3030.883
550.3376, 3046.299
550.8197, 3067.956
551.3018, 3086.826
551.7839, 3100.693
552.2661, 3110.339
552.7482, 3118.591
553.2303, 3125.571
553.7124, 3129.360
554.1945, 3125.358
554.6766, 3117.208
555.1588, 3117.340
555.6409, 3126.964
556.1230, 3137.604
556.6051, 3139.855
557.0872, 3138.434
557.5693, 3141.070
558.0515, 3153.169
558.5336, 3165.423
559.0157, 3174.231
559.4978, 3178.940
559.9799, 3177.710
560.4620, 3162.095
560.9442, 3147.720
561.4263, 3141.608
561.9084, 3145.290
562.3905, 3145.739
562.8726, 3137.429
563.3547, 3131.268
563.8369, 3135.637
564.3190, 3155.012
564.8011, 3169.525
565.2832, 3177.241
565.7653, 3181.161
566.2474, 3188.008
566.7296, 3197.912
567.2117, 3200.662
567.6938, 3190.323
568.1759, 3172.674
568.6580, 3158.592
569.1401, 3148.030
569.6223, 3139.580
570.1044, 3133.646
570.5865, 3128.769
571.0686, 3105.406
571.5507, 3119.626
572.0328, 3123.107
572.5150, 3116.423
572.9971, 3069.141
573.4792, 3074.286
573.9613, 3058.419
574.4434, 3041.692
574.9255, 3054.217
575.4077, 3012.836
575.8898, 3024.897
576.3719, 3015.625
576.8540, 3016.116
577.3361, 2995.467
577.8182, 2981.349
578.3004, 2988.373
578.7825, 2983.693
579.2646, 2960.610
579.7467, 2961.721
580.2288, 2919.605
580.7109, 2915.423
581.1931, 2927.604
581.6752, 2905.585
582.1573, 2907.083
582.6394, 2899.624
583.1215, 2873.749
583.6036, 2875.145
584.0858, 2873.854
584.5679, 2866.429
585.0500, 2852.717
585.5321, 2832.147
586.0142, 2792.619
586.4963, 2756.107
586.9785, 2737.584
587.4606, 2745.074
587.9427, 2734.698
588.4248, 2683.307
588.9069, 2631.927
589.3890, 2614.522
589.8712, 2647.064
590.3533, 2666.901
590.8354, 2667.545
591.3175, 2656.571
591.7996, 2644.036
592.2817, 2629.876
592.7639, 2624.902
593.2460, 2636.649
593.7281, 2657.961
594.2102, 2678.283
594.6923, 2696.275
595.1744, 2700.928
595.6566, 2671.276
596.1387, 2632.031
596.6208, 2611.706
597.1029, 2616.288
597.5850, 2618.062
598.0671, 2605.132
598.5493, 2582.455
599.0314, 2554.840
599.5135, 2496.931
599.9956, 2467.161
600.4777, 2488.124
600.9598, 2535.578
601.4420, 2561.598
601.9241, 2561.057
602.4062, 2549.611
602.8883, 2529.285
603.3704, 2501.571
603.8525, 2468.731
604.3347, 2428.328
604.8168, 2404.190
605.2989, 2427.499
605.7810, 2479.575
606.2631, 2504.036
606.7452, 2495.239
607.2274, 2476.977
607.7095, 2471.318
608.1916, 2469.114
608.6737, 2457.128
609.1558, 2424.388
609.6379, 2391.954
610.1201, 2365.795
610.6022, 2346.477
611.0843, 2334.513
611.5664, 2336.873
612.0485, 2339.480
612.5306, 2336.906
613.0128, 2330.161
613.4949, 2334.000
613.9770, 2355.634
614.4591, 2372.901
614.9412, 2370.003
615.4233, 2346.394
615.9055, 2332.083
616.3876, 2328.454
616.8697, 2328.953
617.3518, 2329.953
617.8339, 2329.602
618.3160, 2321.780
618.7982, 2302.681
619.2803, 2281.446
619.7624, 2262.182
620.2445, 2247.505
620.7266, 2242.585
621.2087, 2264.399
