##NAMES=Willemite
##RRUFFID=R050652
##IDEAL CHEMISTRY=Zn^2+^_2_SiO_4_
##LOCALITY=Franklin Furnace, Sussex County, New Jersey, USA
##OWNER=RRUFF
##SOURCE=University of Arizona Mineral Museum
##DESCRIPTION=Parallel aggregate of colorless acicular crystals
##STATUS=The identification of this mineral has been confirmed by X-ray diffraction and chemical analysis
##URL=rruff.info/R050652
##MEASURED CHEMISTRY=(Zn_1.99_Mn_0.01_)_Î£=2_Si_1.00_O_4_
89.78156, 0.0000000E+00
90.26367, 352.8823
90.74579, 354.4041
91.22791, 353.5898
91.71002, 350.7340
92.19214, 348.4454
92.67426, 349.0815
93.15638, 351.9755
93.63850, 355.3946
94.12061, 359.3929
94.60273, 363.3981
95.08485, 365.7384
95.56696, 366.1977
96.04908, 366.3061
96.53120, 368.0089
97.01331, 371.2033
97.49543, 374.4277
97.97755, 376.9507
98.45966, 378.8045
98.94178, 381.0279
99.42390, 383.6874
99.90602, 386.6390
100.3881, 389.8418
100.8703, 393.5132
101.3524, 396.7174
101.8345, 398.9684
102.3166, 400.0727
102.7987, 400.8102
103.2808, 400.6268
103.7630, 400.1271
104.2451, 402.2906
104.7272, 408.9632
105.2093, 415.8876
105.6914, 420.0174
106.1735, 418.1151
106.6557, 418.8868
107.1378, 423.3391
107.6199, 431.5577
108.1020, 442.2321
108.5841, 455.8766
109.0662, 471.7954
109.5484, 489.5226
110.0305, 505.5818
110.5126, 527.0818
110.9947, 555.5130
111.4768, 591.8084
111.9590, 631.9717
112.4411, 672.7121
112.9232, 718.1808
113.4053, 772.4904
113.8874, 838.1506
114.3695, 911.7590
114.8517, 991.4870
115.3338, 1076.619
115.8159, 1168.811
116.2980, 1265.670
116.7801, 1370.737
117.2622, 1490.483
117.7444, 1627.421
118.2265, 1780.764
118.7086, 1948.951
119.1907, 2131.623
119.6728, 2332.321
120.1549, 2552.560
120.6371, 2792.506
121.1192, 3053.981
121.6013, 3344.562
122.0834, 3652.661
122.5655, 3964.400
123.0476, 4277.522
123.5298, 4590.924
124.0119, 4905.288
124.4940, 5220.291
124.9761, 5532.725
125.4582, 5844.383
125.9404, 6149.543
126.4225, 6434.116
126.9046, 6686.114
127.3867, 6916.159
127.8688, 7135.151
128.3509, 7341.563
128.8331, 7551.827
129.3152, 7776.908
129.7973, 8019.659
130.2794, 8287.794
130.7615, 8584.432
131.2436, 8909.458
131.7258, 9259.641
132.2079, 9635.678
132.6900, 10034.50
133.1721, 10458.53
133.6542, 10906.25
134.1364, 11358.87
134.6185, 11816.82
135.1006, 12281.07
135.5827, 12723.61
136.0648, 13145.58
136.5469, 13546.00
137.0291, 13923.08
137.5112, 14273.91
137.9933, 14603.14
138.4754, 14920.48
138.9575, 15226.30
139.4396, 15499.44
139.9218, 15729.30
140.4039, 15923.53
140.8860, 16115.45
141.3681, 16307.48
141.8502, 16490.63
142.3323, 16647.86
142.8145, 16763.85
143.2966, 16899.18
143.7787, 17065.04
144.2608, 17262.43
144.7429, 17458.65
145.2250, 17647.43
145.7072, 17843.09
146.1893, 18060.62
146.6714, 18308.28
147.1535, 18564.94
147.6356, 18825.68
148.1178, 19089.14
148.5999, 19359.05
149.0820, 19630.54
149.5641, 19909.61
150.0462, 20200.86
150.5283, 20522.66
151.0105, 20689.66
151.4926, 20936.96
151.9747, 20986.18
152.4568, 21034.99
152.9389, 21094.58
153.4210, 21152.58
153.9032, 21192.29
154.3853, 21207.83
154.8674, 21209.03
155.3495, 21196.46
155.8316, 21161.97
156.3137, 21133.12
156.7959, 21120.09
157.2780, 21114.63
157.7601, 21101.43
158.2422, 21067.18
158.7243, 21031.06
159.2065, 21002.13
159.6886, 20985.30
160.1707, 20968.38
160.6528, 20946.66
161.1349, 20921.63
161.6170, 20897.68
162.0992, 20874.73
162.5813, 20853.95
163.0634, 20835.97
163.5455, 20819.97
164.0276, 20807.65
164.5097, 20799.75
164.9919, 20796.08
165.4740, 20796.04
165.9561, 20806.04
166.4382, 20816.73
166.9203, 20819.26
167.4024, 20801.43
167.8846, 20785.07
168.3667, 20784.94
168.8488, 20799.27
169.3309, 20816.65
169.8130, 20833.04
170.2952, 20847.57
170.7773, 20858.92
171.2594, 20865.71
171.7415, 20869.65
172.2236, 20871.17
172.7057, 20870.23
173.1879, 20869.15
173.6700, 20871.13
174.1521, 20873.60
174.6342, 20872.50
175.1163, 20861.64
175.5984, 20848.16
176.0806, 20843.32
176.5627, 20847.12
177.0448, 20847.27
177.5269, 20831.46
178.0090, 20803.68
178.4911, 20772.93
178.9733, 20743.16
179.4554, 20713.28
179.9375, 20678.17
180.4196, 20637.20
180.9017, 20601.27
181.3838, 20586.63
181.8660, 20588.48
182.3481, 20588.83
182.8302, 20582.66
183.3123, 20569.46
183.7944, 20542.72
184.2766, 20499.26
184.7587, 20458.94
185.2408, 20449.89
185.7229, 20468.03
186.2050, 20487.50
186.6871, 20496.18
187.1693, 20496.04
187.6514, 20492.68
188.1335, 20485.14
188.6156, 20477.36
189.0977, 20474.06
189.5798, 20475.01
190.0620, 20479.92
190.5441, 20491.38
191.0262, 20507.57
191.5083, 20518.33
191.9904, 20523.23
192.4725, 20522.15
192.9547, 20513.21
193.4368, 20496.18
193.9189, 20478.64
194.4010, 20465.18
194.8831, 20455.63
195.3652, 20444.79
195.8474, 20431.18
196.3295, 20418.38
196.8116, 20415.80
197.2937, 20424.79
197.7758, 20431.87
198.2579, 20427.63
198.7401, 20411.72
199.2222, 20397.04
199.7043, 20383.29
200.1864, 20372.39
200.6685, 20370.98
201.1507, 20380.85
201.6328, 20390.79
202.1149, 20393.86
202.5970, 20389.38
203.0791, 20384.41
203.5612, 20381.18
204.0434, 20376.72
204.5255, 20360.91
205.0076, 20330.80
205.4897, 20300.00
205.9718, 20277.02
206.4539, 20263.03
206.9361, 20250.76
207.4182, 20239.51
207.9003, 20229.88
208.3824, 20223.64
208.8645, 20221.59
209.3466, 20221.13
209.8288, 20220.38
210.3109, 20218.65
210.7930, 20220.15
211.2751, 20227.12
211.7572, 20237.10
212.2393, 20241.02
212.7215, 20237.65
213.2036, 20230.68
213.6857, 20221.16
214.1678, 20206.83
214.6499, 20197.08
215.1320, 20193.33
215.6142, 20194.40
216.0963, 20196.68
216.5784, 20202.70
217.0605, 20204.97
217.5426, 20197.15
218.0247, 20174.63
218.5069, 20155.95
218.9890, 20143.10
219.4711, 20135.46
219.9532, 20129.71
220.4353, 20125.90
220.9175, 20124.12
221.3996, 20125.07
221.8817, 20130.86
222.3638, 20134.42
222.8459, 20135.86
223.3280, 20134.68
223.8102, 20127.62
224.2923, 20111.09
224.7744, 20093.76
225.2565, 20080.18
225.7386, 20068.10
226.2207, 20065.42
226.7029, 20078.34
227.1850, 20101.89
227.6671, 20109.07
228.1492, 20091.66
228.6313, 20069.49
229.1134, 20054.78
229.5956, 20051.34
230.0777, 20046.95
230.5598, 20041.84
231.0419, 20035.46
231.5240, 20023.79
232.0062, 20003.01
232.4883, 19982.66
232.9704, 19968.18
233.4525, 19959.92
233.9346, 19957.85
234.4167, 19966.59
234.8989, 19982.19
235.3810, 19984.84
235.8631, 19964.91
236.3452, 19944.29
236.8273, 19935.98
237.3094, 19947.01
237.7916, 19954.32
238.2737, 19956.36
238.7558, 19953.40
239.2379, 19946.81
239.7200, 19934.29
240.2021, 19920.82
240.6843, 19909.22
241.1664, 19901.48
241.6485, 19891.27
242.1306, 19878.01
242.6127, 19862.33
243.0948, 19846.38
243.5770, 19829.13
244.0591, 19813.83
244.5412, 19803.74
245.0233, 19805.53
245.5054, 19797.90
245.9876, 19775.11
246.4697, 19743.58
246.9518, 19723.14
247.4339, 19718.70
247.9160, 19717.98
248.3981, 19714.49
248.8803, 19703.97
249.3624, 19700.63
249.8445, 19707.34
250.3266, 19720.28
250.8087, 19729.31
251.2908, 19732.29
251.7730, 19733.82
252.2551, 19735.58
252.7372, 19737.07
253.2193, 19739.73
253.7014, 19745.11
254.1835, 19750.80
254.6657, 19750.53
255.1478, 19740.32
255.6299, 19731.23
256.1120, 19728.22
256.5941, 19733.61
257.0763, 19739.22
257.5584, 19748.77
258.0405, 19756.58
258.5226, 19749.16
259.0047, 19718.41
259.4868, 19689.32
259.9690, 19672.38
260.4511, 19670.74
260.9332, 19666.89
261.4153, 19659.09
261.8974, 19650.54
262.3795, 19647.00
262.8617, 19649.86
263.3438, 19654.03
263.8259, 19657.09
264.3080, 19658.07
264.7901, 19665.79
265.2722, 19685.46
265.7544, 19705.49
266.2365, 19706.53
266.7186, 19681.62
267.2007, 19658.95
267.6828, 19648.64
268.1649, 19651.58
268.6471, 19649.85
269.1292, 19642.24
269.6113, 19632.03
270.0934, 19623.66
270.5755, 19618.13
271.0576, 19610.33
271.5398, 19597.50
272.0219, 19579.81
272.5040, 19568.10
272.9861, 19563.56
273.4682, 19562.67
273.9503, 19562.13
274.4325, 19561.91
274.9146, 19562.18
275.3967, 19564.15
275.8788, 19566.91
276.3610, 19561.49
276.8431, 19545.19
277.3252, 19529.12
277.8073, 19523.97
278.2894, 19530.50
278.7715, 19541.26
279.2537, 19557.86
279.7358, 19577.26
280.2179, 19586.14
280.7000, 19583.72
281.1821, 19575.19
281.6642, 19562.72
282.1464, 19546.31
282.6285, 19532.35
283.1106, 19521.82
283.5927, 19514.28
284.0748, 19509.48
284.5569, 19507.57
285.0391, 19505.04
285.5212, 19497.22
286.0033, 19484.69
286.4854, 19477.06
286.9675, 19475.84
287.4496, 19478.94
287.9318, 19485.09
288.4139, 19494.34
288.8960, 19498.32
289.3781, 19488.00
289.8602, 19466.89
290.3423, 19453.02
290.8245, 19449.01
291.3066, 19450.46
291.7887, 19454.42
292.2708, 19460.12
292.7529, 19458.28
293.2350, 19437.71
293.7172, 19405.34
294.1993, 19383.54
294.6814, 19374.21
295.1635, 19370.92
295.6456, 19366.86
296.1277, 19362.16
296.6099, 19357.87
297.0920, 19354.03
297.5741, 19350.86
298.0562, 19349.68
298.5383, 19350.63
299.0204, 19351.01
299.5026, 19347.15
299.9847, 19340.50
300.4668, 19334.93
300.9489, 19335.12
301.4311, 19335.91
301.9132, 19328.28
302.3953, 19312.63
302.8774, 19297.93
303.3595, 19293.11
303.8416, 19294.04
304.3238, 19293.06
304.8059, 19285.04
305.2880, 19276.94
305.7701, 19277.81
306.2522, 19286.18
306.7343, 19293.17
307.2165, 19292.20
307.6986, 19286.57
308.1807, 19279.81
308.6628, 19270.19
309.1449, 19263.34
309.6270, 19266.43
310.1092, 19276.31
310.5913, 19283.17
311.0734, 19278.06
311.5555, 19269.20
312.0376, 19263.85
312.5197, 19263.95
313.0019, 19265.40
313.4840, 19266.24
313.9661, 19266.74
314.4482, 19267.50
314.9303, 19270.66
315.4124, 19273.09
315.8946, 19272.79
316.3767, 19269.35
316.8588, 19264.99
317.3409, 19262.34
317.8230, 19259.11
318.3051, 19252.17
318.7873, 19237.32
319.2694, 19221.58
319.7515, 19206.69
320.2336, 19192.61
320.7157, 19182.43
321.1978, 19179.20
321.6800, 19179.25
322.1621, 19179.26
322.6442, 19179.72
323.1263, 19178.63
323.6084, 19174.62
324.0905, 19167.88
324.5727, 19161.99
325.0548, 19154.85
325.5369, 19150.60
326.0190, 19151.85
326.5012, 19173.63
326.9833, 19183.98
327.4654, 19172.20
327.9475, 19145.05
328.4296, 19129.58
328.9117, 19132.47
329.3939, 19141.21
329.8760, 19151.58
330.3581, 19168.79
330.8402, 19177.19
331.3223, 19172.49
331.8044, 19159.67
332.2866, 19148.55
332.7687, 19137.27
333.2508, 19129.71
333.7329, 19128.38
334.2150, 19135.74
334.6971, 19136.18
335.1793, 19128.08
335.6614, 19114.70
336.1435, 19100.22
336.6256, 19084.91
337.1077, 19068.60
337.5898, 19051.23
338.0720, 19033.16
338.5541, 19018.35
339.0362, 19006.71
339.5183, 18999.71
340.0004, 19001.43
340.4825, 19014.29
340.9647, 19020.45
341.4468, 19015.14
341.9289, 19002.15
342.4110, 18993.75
342.8931, 18990.42
343.3752, 18987.58
343.8574, 18980.51
344.3395, 18969.38
344.8216, 18961.69
345.3037, 18957.16
345.7858, 18957.32
346.2679, 18968.41
346.7501, 18989.50
347.2322, 19007.38
347.7143, 19014.22
348.1964, 19012.21
348.6785, 19008.22
349.1607, 19002.22
349.6428, 18995.58
350.1249, 18991.51
350.6070, 18988.53
351.0891, 18981.51
351.5713, 18963.86
352.0534, 18943.55
352.5355, 18935.47
353.0176, 18939.28
353.4997, 18939.67
353.9818, 18918.05
354.4640, 18886.91
354.9461, 18865.94
355.4282, 18867.37
355.9103, 18872.93
356.3924, 18865.85
356.8745, 18848.82
357.3567, 18832.48
357.8388, 18823.17
358.3209, 18816.97
358.8030, 18810.31
359.2851, 18802.16
359.7672, 18794.88
360.2494, 18788.80
360.7315, 18784.52
361.2136, 18783.14
361.6957, 18786.98
362.1778, 18792.13
362.6599, 18798.32
363.1421, 18806.24
363.6242, 18807.87
364.1063, 18790.83
364.5884, 18770.05
365.0705, 18760.91
365.5526, 18778.34
366.0348, 18794.96
366.5169, 18805.64
366.9990, 18810.19
367.4811, 18809.72
367.9632, 18795.84
368.4453, 18782.62
368.9275, 18778.42
369.4096, 18798.82
369.8917, 18806.69
370.3738, 18793.89
370.8559, 18768.38
371.3380, 18752.96
371.8202, 18754.77
372.3023, 18756.90
372.7844, 18752.75
373.2665, 18740.77
373.7487, 18729.26
374.2308, 18718.31
374.7129, 18707.90
375.1950, 18697.37
375.6771, 18685.89
376.1592, 18677.29
376.6414, 18673.05
377.1235, 18672.90
377.6056, 18673.82
378.0877, 18676.54
378.5698, 18678.46
379.0519, 18676.85
379.5341, 18671.78
380.0162, 18667.33
380.4983, 18664.94
380.9804, 18662.75
381.4625, 18656.71
381.9446, 18646.74
382.4268, 18634.76
382.9089, 18619.75
383.3910, 18603.37
383.8731, 18591.76
384.3552, 18586.37
384.8373, 18580.90
385.3195, 18564.01
385.8016, 18540.32
386.2837, 18523.34
386.7658, 18524.24
387.2479, 18532.75
387.7300, 18538.07
388.2122, 18539.99
388.6943, 18536.22
389.1764, 18519.67
389.6585, 18498.23
390.1406, 18482.42
390.6227, 18477.90
391.1049, 18475.74
391.5870, 18470.87
392.0691, 18463.76
392.5512, 18455.97
393.0333, 18450.24
393.5154, 18442.62
393.9976, 18428.39
394.4797, 18402.88
394.9618, 18384.88
395.4439, 18386.74
395.9260, 18397.81
396.4081, 18403.90
396.8903, 18396.38
397.3724, 18389.37
397.8545, 18389.01
398.3366, 18395.96
398.8188, 18395.95
399.3009, 18382.91
399.7830, 18366.00
400.2651, 18350.62
400.7472, 18332.82
401.2293, 18322.76
401.7115, 18325.67
402.1936, 18336.03
402.6757, 18336.66
403.1578, 18322.90
403.6399, 18307.10
404.1220, 18293.56
404.6042, 18281.70
405.0863, 18275.85
405.5684, 18279.17
406.0505, 18283.48
406.5326, 18276.43
407.0147, 18256.20
407.4969, 18238.79
407.9790, 18229.76
408.4611, 18226.63
408.9432, 18218.61
409.4253, 18205.40
409.9074, 18192.11
410.3896, 18183.33
410.8717, 18178.10
411.3538, 18171.61
411.8359, 18162.74
412.3180, 18153.70
412.8001, 18149.17
413.2823, 18147.76
413.7644, 18143.58
414.2465, 18127.09
414.7286, 18108.79
415.2107, 18105.41
415.6928, 18118.11
416.1750, 18129.87
416.6571, 18127.70
417.1392, 18116.63
417.6213, 18103.25
418.1034, 18088.24
418.5855, 18073.28
419.0677, 18058.60
419.5498, 18044.66
420.0319, 18033.58
420.5140, 18025.68
420.9961, 18021.24
421.4782, 18021.75
421.9604, 18031.13
422.4425, 18035.46
422.9246, 18029.87
423.4067, 18018.06
423.8889, 18005.03
424.3710, 17989.78
424.8531, 17975.04
425.3352, 17960.85
425.8173, 17947.18
426.2994, 17937.26
426.7816, 17932.33
427.2637, 17930.00
427.7458, 17929.77
428.2279, 17935.68
428.7100, 17932.84
429.1921, 17916.43
429.6743, 17893.28
430.1564, 17882.53
430.6385, 17889.10
431.1206, 17888.80
431.6027, 17865.64
432.0848, 17821.19
432.5670, 17800.85
433.0491, 17808.90
433.5312, 17823.50
434.0133, 17820.58
434.4954, 17802.65
434.9775, 17786.04
435.4597, 17774.25
435.9418, 17766.78
436.4239, 17764.58
436.9060, 17766.99
437.3881, 17769.35
437.8702, 17770.18
438.3524, 17768.47
438.8345, 17760.73
439.3166, 17745.21
439.7987, 17732.14
440.2808, 17732.03
440.7629, 17739.04
441.2451, 17744.12
441.7272, 17746.60
442.2093, 17743.49
442.6914, 17731.11
443.1735, 17710.60
443.6556, 17689.61
444.1378, 17666.30
444.6199, 17646.71
445.1020, 17635.44
445.5841, 17637.46
446.0662, 17640.03
446.5483, 17646.29
447.0305, 17651.51
447.5126, 17647.07
447.9947, 17616.67
448.4768, 17596.89
448.9590, 17601.87
449.4411, 17632.36
449.9232, 17641.54
450.4053, 17617.98
450.8874, 17589.18
451.3695, 17576.72
451.8517, 17584.99
452.3338, 17588.30
452.8159, 17582.68
453.2980, 17572.53
453.7801, 17567.41
454.2622, 17567.69
454.7444, 17567.00
455.2265, 17560.82
455.7086, 17551.17
456.1907, 17548.21
456.6728, 17552.54
457.1549, 17556.63
457.6371, 17552.69
458.1192, 17543.25
458.6013, 17534.52
459.0834, 17529.23
459.5655, 17523.13
460.0476, 17509.90
460.5298, 17491.70
461.0119, 17475.67
461.4940, 17464.60
461.9761, 17457.40
462.4582, 17455.09
462.9403, 17458.27
463.4225, 17458.28
463.9046, 17450.72
464.3867, 17438.33
464.8688, 17423.92
465.3509, 17405.95
465.8330, 17388.54
466.3152, 17371.31
466.7973, 17355.20
467.2794, 17343.54
467.7615, 17339.30
468.2436, 17336.77
468.7257, 17334.96
469.2079, 17335.13
469.6900, 17329.62
470.1721, 17314.43
470.6542, 17297.79
471.1363, 17289.20
471.6184, 17291.07
472.1006, 17291.09
472.5827, 17286.68
473.0648, 17279.32
473.5469, 17273.64
474.0291, 17269.85
474.5112, 17265.88
474.9933, 17261.65
475.4754, 17256.58
475.9575, 17246.22
476.4396, 17229.62
476.9218, 17214.18
477.4039, 17208.95
477.8860, 17210.92
478.3681, 17213.18
478.8502, 17212.64
479.3323, 17212.33
479.8145, 17217.69
480.2966, 17226.37
480.7787, 17229.94
481.2608, 17221.09
481.7429, 17207.50
482.2250, 17193.70
482.7072, 17179.87
483.1893, 17167.51
483.6714, 17160.12
484.1535, 17153.24
484.6356, 17142.43
485.1177, 17124.63
485.5999, 17105.95
486.0820, 17084.50
486.5641, 17062.73
487.0462, 17049.14
487.5283, 17048.45
488.0104, 17050.25
488.4926, 17051.61
488.9747, 17053.30
489.4568, 17049.43
489.9389, 17037.90
490.4210, 17024.70
490.9031, 17016.90
491.3853, 17014.68
491.8674, 17012.33
492.3495, 17008.25
492.8316, 17003.60
493.3137, 17002.25
493.7958, 17003.60
494.2780, 17002.38
494.7601, 16990.51
495.2422, 16975.09
495.7243, 16971.73
496.2064, 16981.45
496.6885, 16992.45
497.1707, 16997.94
497.6528, 16998.08
498.1349, 16992.29
498.6170, 16973.56
499.0992, 16958.83
499.5813, 16963.77
500.0634, 16979.89
500.5455, 16986.47
501.0276, 16967.70
501.5097, 16946.16
501.9919, 16930.55
502.4740, 16922.21
502.9561, 16915.42
503.4382, 16911.44
503.9203, 16907.67
504.4024, 16902.44
504.8846, 16896.45
505.3667, 16887.94
505.8488, 16876.83
506.3309, 16863.34
506.8130, 16845.96
507.2951, 16822.53
507.7773, 16805.68
508.2594, 16803.13
508.7415, 16811.75
509.2236, 16813.17
509.7057, 16807.09
510.1878, 16798.30
510.6700, 16791.86
511.1521, 16785.95
511.6342, 16773.75
512.1163, 16752.82
512.5984, 16731.22
513.0806, 16714.74
513.5627, 16704.04
514.0448, 16700.49
514.5269, 16714.17
515.0090, 16727.24
515.4911, 16727.79
515.9733, 16716.53
516.4554, 16700.28
516.9375, 16668.54
517.4196, 16641.81
517.9017, 16635.10
518.3839, 16663.19
518.8660, 16678.75
519.3481, 16669.27
519.8302, 16648.13
520.3123, 16629.57
520.7944, 16617.61
521.2766, 16600.29
521.7587, 16570.96
522.2408, 16536.00
522.7229, 16522.43
523.2050, 16536.90
523.6871, 16549.35
524.1693, 16539.33
524.6514, 16509.89
525.1335, 16498.76
525.6156, 16508.10
526.0977, 16522.23
526.5798, 16526.23
527.0620, 16522.23
527.5441, 16516.66
528.0262, 16511.42
528.5083, 16503.94
528.9904, 16486.59
529.4725, 16464.34
529.9547, 16449.75
530.4368, 16453.35
530.9189, 16462.87
531.4010, 16471.75
531.8831, 16479.56
532.3652, 16485.29
532.8474, 16493.04
533.3295, 16495.60
533.8116, 16487.61
534.2937, 16457.50
534.7758, 16436.08
535.2579, 16430.71
535.7401, 16431.44
536.2222, 16423.60
536.7043, 16402.62
537.1864, 16384.28
537.6685, 16372.17
538.1506, 16365.58
538.6328, 16361.37
539.1149, 16359.77
539.5970, 16360.09
540.0791, 16364.83
540.5612, 16371.91
541.0433, 16368.40
541.5255, 16352.61
542.0076, 16337.55
542.4897, 16337.72
542.9718, 16347.48
543.4539, 16355.65
543.9360, 16358.28
544.4182, 16359.30
544.9003, 16362.76
545.3824, 16366.68
545.8645, 16366.88
546.3466, 16358.34
546.8287, 16348.44
547.3109, 16340.49
547.7930, 16334.73
548.2751, 16328.51
548.7572, 16320.19
549.2393, 16312.36
549.7214, 16306.57
550.2036, 16303.94
550.6857, 16301.71
551.1678, 16302.06
551.6499, 16300.94
552.1320, 16292.42
552.6141, 16275.91
553.0963, 16256.51
553.5784, 16234.73
554.0605, 16211.68
554.5426, 16189.58
555.0247, 16168.53
555.5068, 16149.33
555.9890, 16130.89
556.4711, 16115.24
556.9532, 16108.13
557.4353, 16109.63
557.9174, 16110.97
558.3995, 16105.54
558.8817, 16096.21
559.3638, 16085.92
559.8459, 16074.81
560.3281, 16063.91
560.8102, 16054.12
561.2923, 16044.81
561.7744, 16035.08
562.2565, 16022.67
562.7386, 16012.31
563.2208, 16006.51
563.7029, 16004.34
564.1850, 15998.01
564.6671, 15985.51
565.1492, 15972.79
565.6313, 15963.02
566.1135, 15956.62
566.5956, 15948.54
567.0777, 15938.26
567.5598, 15928.26
568.0419, 15921.39
568.5240, 15917.06
569.0062, 15911.87
569.4883, 15904.36
569.9704, 15897.63
570.4525, 15898.98
570.9346, 15904.64
571.4167, 15904.91
571.8989, 15889.63
572.3810, 15872.25
572.8631, 15861.52
573.3452, 15857.09
573.8273, 15854.62
574.3094, 15855.56
574.7916, 15855.77
575.2737, 15853.07
575.7558, 15846.88
576.2379, 15838.93
576.7200, 15828.30
577.2021, 15816.75
577.6843, 15804.63
578.1664, 15789.05
578.6485, 15782.29
579.1306, 15788.55
579.6127, 15800.56
580.0948, 15804.31
580.5770, 15799.75
581.0591, 15790.93
581.5412, 15776.80
582.0233, 15760.94
582.5054, 15754.21
582.9875, 15755.06
583.4697, 15750.92
583.9518, 15722.90
584.4339, 15691.13
584.9160, 15680.99
585.3981, 15697.77
