##NAMES=Willhendersonite
##RRUFFID=R060508
##IDEAL CHEMISTRY=KCa(Si_3_Al_3_)O_12_&#183;5H_2_O
##LOCALITY=San Venzano Quarry, Terni, Umbria, central Italy
##OWNER=RRUFF
##SOURCE=Michael Scott
##DESCRIPTION=Colorless tabular crystals forming a spherical aggregate
##STATUS=The identification of this mineral is confirmed by single-crystal X-ray diffraction and chemical analysis.
##URL=rruff.info/R060508
##MEASURED CHEMISTRY=(K_0.98_Na_0.02_)_Σ=1_Ca_1.00_(Si_3.06_Al_2.93_Fe^3+^_0.01_)_Σ=6_O_12_·5.43H_2_ O ; H_2_O estimated by difference; Fe^3+^ by charge balance
169.740, 3370.747
170.222, 3380.247
170.704, 3377.755
171.186, 3368.545
171.668, 3363.268
172.150, 3368.619
172.632, 3374.572
173.115, 3370.869
173.597, 3357.180
174.079, 3336.883
174.561, 3303.452
175.043, 3266.075
175.525, 3249.222
176.007, 3260.551
176.489, 3265.038
176.971, 3263.053
177.454, 3235.207
177.936, 3240.754
178.418, 3232.918
178.900, 3224.535
179.382, 3234.782
179.864, 3210.698
180.346, 3220.650
180.828, 3217.014
181.311, 3219.598
181.793, 3205.935
182.275, 3202.703
182.757, 3193.707
183.239, 3186.568
183.721, 3187.107
184.203, 3187.224
184.685, 3171.757
185.167, 3135.927
185.650, 3105.378
186.132, 3099.637
186.614, 3106.319
187.096, 3111.453
187.578, 3110.948
188.060, 3107.050
188.542, 3102.667
189.024, 3097.793
189.507, 3092.552
189.989, 3087.701
190.471, 3082.361
190.953, 3075.266
191.435, 3065.787
191.917, 3054.757
192.399, 3044.300
192.881, 3035.686
193.363, 3022.663
193.846, 2992.854
194.328, 2959.727
194.810, 2940.570
195.292, 2947.052
195.774, 2960.573
196.256, 2950.145
196.738, 2908.080
197.220, 2875.026
197.702, 2881.464
198.185, 2902.893
198.667, 2914.339
199.149, 2906.098
199.631, 2890.189
200.113, 2882.145
200.595, 2882.760
201.077, 2887.441
201.559, 2898.779
202.042, 2911.637
202.524, 2920.672
203.006, 2923.641
203.488, 2924.327
203.970, 2926.991
204.452, 2931.621
204.934, 2938.173
205.416, 2943.682
205.898, 2952.644
206.380, 2950.348
206.863, 2967.595
207.345, 2980.096
207.827, 2988.110
208.309, 2978.192
208.791, 2991.428
209.273, 2995.385
209.755, 2998.963
210.238, 3015.459
210.720, 3008.149
211.202, 3024.439
211.684, 3031.309
212.166, 3042.490
212.648, 3044.337
213.130, 3049.065
213.612, 3063.134
214.094, 3072.030
214.577, 3072.800
215.059, 3074.465
215.541, 3090.062
216.023, 3099.224
216.505, 3106.956
216.987, 3116.617
217.469, 3123.367
217.951, 3122.096
218.434, 3111.797
218.916, 3099.375
219.398, 3090.982
219.880, 3086.075
220.362, 3077.199
220.844, 3056.012
221.326, 3040.544
221.808, 3044.609
222.290, 3043.934
222.773, 3038.771
223.255, 3015.685
223.737, 3015.744
224.219, 3006.526
224.701, 2996.929
225.183, 3000.246
225.665, 2979.767
226.147, 2982.879
226.629, 2976.573
227.112, 2974.576
227.594, 2963.248
228.076, 2954.803
228.558, 2947.794
229.040, 2942.451
229.522, 2931.255
230.004, 2915.278
230.486, 2903.610
230.969, 2907.812
231.451, 2918.266
231.933, 2910.653
232.415, 2875.760
232.897, 2839.125
233.379, 2825.389
233.861, 2829.673
234.343, 2837.604
234.825, 2847.789
235.307, 2857.822
235.790, 2864.458
236.272, 2867.538
236.754, 2866.718
237.236, 2857.641
237.718, 2843.464
238.200, 2835.646
238.682, 2843.906
239.165, 2855.564
239.647, 2854.788
240.129, 2840.439
240.611, 2826.087
241.093, 2820.453
241.575, 2822.703
242.057, 2827.734
242.539, 2839.313
243.021, 2850.507
243.503, 2855.131
243.986, 2853.675
244.468, 2852.031
244.950, 2855.816
245.432, 2861.174
245.914, 2855.085
246.396, 2823.638
246.878, 2795.374
247.361, 2791.063
247.843, 2804.339
248.325, 2812.076
248.807, 2802.342
249.289, 2780.198
249.771, 2760.958
250.253, 2746.496
250.735, 2731.718
251.217, 2710.222
251.699, 2687.486
252.182, 2677.973
252.664, 2690.346
253.146, 2710.278
253.628, 2702.870
254.110, 2650.995
254.592, 2610.577
255.074, 2599.770
255.556, 2603.575
256.039, 2602.929
256.521, 2592.087
257.003, 2576.379
257.485, 2563.403
257.967, 2552.635
258.449, 2546.764
258.931, 2552.292
259.413, 2559.101
259.896, 2556.425
260.378, 2543.067
260.860, 2528.211
261.342, 2522.663
261.824, 2530.138
262.306, 2533.559
262.788, 2530.941
263.270, 2526.409
263.752, 2519.400
264.234, 2511.780
264.717, 2509.506
265.199, 2518.767
265.681, 2540.877
266.163, 2558.052
266.645, 2569.485
267.127, 2577.746
267.609, 2582.096
268.091, 2583.974
268.574, 2586.268
269.056, 2591.120
269.538, 2598.011
270.020, 2602.048
270.502, 2597.550
270.984, 2596.303
271.466, 2600.861
271.948, 2609.546
272.431, 2621.427
272.913, 2636.465
273.395, 2651.405
273.877, 2656.123
274.359, 2652.168
274.841, 2664.877
275.323, 2673.541
275.805, 2678.377
276.287, 2667.922
276.770, 2677.214
277.252, 2678.591
277.734, 2679.644
278.216, 2691.714
278.698, 2690.827
279.180, 2687.148
279.662, 2690.666
280.144, 2698.717
280.626, 2709.024
281.109, 2713.389
281.591, 2699.554
282.073, 2666.018
282.555, 2641.105
283.037, 2631.620
283.519, 2626.126
284.001, 2618.703
284.483, 2609.862
284.966, 2602.397
285.448, 2600.853
285.930, 2602.877
286.412, 2597.962
286.894, 2584.786
287.376, 2566.748
287.858, 2537.976
288.340, 2506.445
288.823, 2489.067
289.305, 2501.498
289.787, 2525.273
290.269, 2530.531
290.751, 2514.777
291.233, 2497.915
291.715, 2487.622
292.197, 2483.649
292.679, 2486.857
293.161, 2503.374
293.644, 2517.314
294.126, 2509.803
294.608, 2485.069
295.090, 2473.037
295.572, 2491.723
296.054, 2521.115
296.536, 2523.835
297.018, 2492.116
297.501, 2463.399
297.983, 2452.743
298.465, 2454.864
298.947, 2462.045
299.429, 2473.371
299.911, 2483.888
300.393, 2485.348
300.875, 2474.832
301.358, 2471.562
301.840, 2486.786
302.322, 2504.304
302.804, 2506.155
303.286, 2492.060
303.768, 2479.292
304.250, 2484.575
304.732, 2509.842
305.214, 2523.330
305.697, 2514.818
306.179, 2506.342
306.661, 2506.614
307.143, 2514.838
307.625, 2528.612
308.107, 2547.360
308.589, 2568.852
309.071, 2580.886
309.553, 2576.963
310.036, 2570.626
310.518, 2558.643
311.000, 2546.823
311.482, 2542.973
311.964, 2549.780
312.446, 2561.420
312.928, 2566.609
313.410, 2561.532
313.892, 2557.991
314.375, 2553.634
314.857, 2552.833
315.339, 2561.309
315.821, 2578.137
316.303, 2594.764
316.785, 2600.346
317.267, 2593.502
317.750, 2593.287
318.232, 2602.665
318.714, 2616.332
319.196, 2635.939
319.678, 2658.017
320.160, 2674.395
320.642, 2674.858
321.124, 2667.843
321.606, 2680.141
322.089, 2719.187
322.571, 2758.323
323.053, 2783.656
323.535, 2802.329
324.017, 2822.169
324.499, 2844.566
324.981, 2869.802
325.463, 2899.260
325.945, 2932.891
326.428, 2966.224
326.910, 3000.049
327.392, 3030.304
327.874, 3051.865
328.356, 3064.173
328.838, 3072.169
329.320, 3079.460
329.802, 3083.738
330.284, 3080.416
330.767, 3068.350
331.249, 3049.958
331.731, 3025.627
332.213, 2994.643
332.695, 2968.920
333.177, 2960.573
333.659, 2949.323
334.141, 2913.508
334.624, 2857.343
335.106, 2808.455
335.588, 2788.469
336.070, 2793.095
336.552, 2776.780
337.034, 2714.105
337.516, 2663.017
337.998, 2643.963
338.480, 2643.429
338.963, 2643.010
339.445, 2635.000
339.927, 2621.294
340.409, 2605.400
340.891, 2584.445
341.373, 2566.515
341.855, 2553.037
342.337, 2541.247
342.819, 2528.958
343.302, 2516.083
343.784, 2504.465
344.266, 2496.584
344.748, 2492.864
345.230, 2486.497
345.712, 2478.630
346.194, 2466.296
346.677, 2442.647
347.159, 2414.329
347.641, 2394.379
348.123, 2391.922
348.605, 2399.804
349.087, 2403.095
349.569, 2400.985
350.051, 2397.355
350.533, 2389.157
351.016, 2382.548
351.498, 2385.533
351.980, 2401.227
352.462, 2419.041
352.944, 2431.915
353.426, 2440.365
353.908, 2445.910
354.390, 2448.014
354.872, 2449.205
355.355, 2451.544
355.837, 2454.718
356.319, 2462.381
356.801, 2480.905
357.283, 2500.981
357.765, 2510.385
358.247, 2509.334
358.729, 2510.807
359.211, 2524.208
359.694, 2549.089
360.176, 2578.034
360.658, 2625.789
361.140, 2660.610
361.622, 2664.773
362.104, 2650.690
362.586, 2636.211
363.069, 2628.689
363.551, 2613.288
364.033, 2606.007
364.515, 2596.756
364.997, 2585.639
365.479, 2567.070
365.961, 2558.121
366.443, 2545.319
366.925, 2532.358
367.408, 2524.766
367.890, 2507.281
368.372, 2499.604
368.854, 2488.009
369.336, 2475.510
369.818, 2461.592
370.300, 2462.077
370.782, 2469.689
371.264, 2472.781
371.747, 2464.353
372.229, 2453.037
372.711, 2453.380
373.193, 2466.491
373.675, 2478.503
374.157, 2481.880
374.639, 2484.601
375.121, 2497.580
375.603, 2522.771
376.086, 2544.981
376.568, 2553.079
377.050, 2553.393
377.532, 2558.265
378.014, 2569.858
378.496, 2584.527
378.978, 2601.139
379.460, 2619.409
379.943, 2628.577
380.425, 2620.677
380.907, 2610.965
381.389, 2607.466
381.871, 2609.167
382.353, 2612.899
382.835, 2617.484
383.317, 2621.519
383.799, 2620.988
384.282, 2615.531
384.764, 2605.309
385.246, 2579.584
385.728, 2556.093
386.210, 2553.482
386.692, 2552.341
387.174, 2556.289
387.656, 2559.002
388.138, 2560.546
388.621, 2557.419
389.103, 2560.324
389.585, 2561.369
390.067, 2563.758
390.549, 2575.425
391.031, 2595.138
391.513, 2625.259
391.996, 2657.879
392.478, 2676.333
392.960, 2678.149
393.442, 2687.772
393.924, 2719.601
394.406, 2757.749
394.888, 2784.224
395.370, 2797.832
395.852, 2805.624
396.335, 2806.492
396.817, 2805.066
397.299, 2811.688
397.781, 2828.530
398.263, 2843.564
398.745, 2845.050
399.227, 2833.301
399.709, 2829.180
400.191, 2843.821
400.674, 2854.500
401.156, 2844.348
401.638, 2823.269
402.120, 2811.764
402.602, 2819.128
403.084, 2837.648
403.566, 2850.304
404.048, 2848.193
404.530, 2856.091
405.013, 2883.952
405.495, 2912.738
405.977, 2930.201
406.459, 2936.204
406.941, 2937.952
407.423, 2942.456
407.905, 2948.247
408.387, 2942.355
408.870, 2917.950
409.352, 2894.034
409.834, 2885.237
410.316, 2878.008
410.798, 2853.476
411.280, 2803.042
411.762, 2747.841
412.244, 2709.624
412.727, 2685.601
413.209, 2656.748
413.691, 2614.823
414.173, 2574.066
414.655, 2555.146
415.137, 2556.135
415.619, 2550.920
416.101, 2531.808
416.583, 2506.509
417.065, 2478.147
417.548, 2448.637
418.030, 2424.344
418.512, 2409.252
418.994, 2401.417
419.476, 2393.001
419.958, 2375.241
420.440, 2368.422
420.922, 2385.643
421.405, 2407.217
421.887, 2414.546
422.369, 2404.927
422.851, 2388.719
423.333, 2375.399
423.815, 2364.689
424.297, 2361.609
424.779, 2371.811
425.262, 2382.813
425.744, 2388.193
426.226, 2391.787
426.708, 2400.066
427.190, 2416.282
427.672, 2435.813
428.154, 2453.031
428.636, 2468.002
429.118, 2483.688
429.601, 2503.679
430.083, 2520.803
430.565, 2523.220
431.047, 2511.128
431.529, 2505.500
432.011, 2518.565
432.493, 2536.225
432.975, 2548.073
433.457, 2552.429
433.940, 2544.906
434.422, 2520.617
434.904, 2484.181
435.386, 2457.013
435.868, 2442.275
436.350, 2432.698
436.832, 2431.929
437.314, 2433.725
437.797, 2432.080
438.279, 2426.059
438.761, 2418.418
439.243, 2406.661
439.725, 2389.613
440.207, 2403.061
440.689, 2429.670
441.171, 2439.844
441.654, 2467.716
442.136, 2491.291
442.618, 2510.801
443.100, 2514.066
443.582, 2538.307
444.064, 2556.083
444.546, 2563.904
445.028, 2579.592
445.510, 2571.999
445.992, 2560.623
446.475, 2572.110
446.957, 2605.313
447.439, 2631.200
447.921, 2640.565
448.403, 2644.390
448.885, 2651.570
449.367, 2660.839
449.849, 2666.058
450.332, 2663.549
450.814, 2655.650
451.296, 2649.219
451.778, 2647.633
452.260, 2642.356
452.742, 2630.952
453.224, 2617.820
453.706, 2606.634
454.189, 2597.203
454.671, 2586.137
455.153, 2569.144
455.635, 2548.244
456.117, 2534.973
456.599, 2532.136
457.081, 2530.340
457.563, 2526.970
458.045, 2521.949
458.528, 2514.348
459.010, 2503.208
459.492, 2493.019
459.974, 2485.594
460.456, 2481.395
460.938, 2482.654
461.420, 2490.144
461.902, 2498.509
462.384, 2502.756
462.867, 2502.927
463.349, 2505.874
463.831, 2511.933
464.313, 2520.151
464.795, 2529.109
465.277, 2540.376
465.759, 2548.038
466.241, 2559.798
466.724, 2570.563
467.206, 2580.387
467.688, 2586.451
468.170, 2597.372
468.652, 2606.345
469.134, 2616.282
469.616, 2633.877
470.098, 2664.954
470.580, 2681.712
471.063, 2667.875
471.545, 2640.834
472.027, 2625.199
472.509, 2620.165
472.991, 2609.817
473.473, 2587.543
473.955, 2561.004
474.437, 2541.208
474.919, 2528.456
475.402, 2510.489
475.884, 2478.851
476.366, 2446.192
476.848, 2417.462
477.330, 2393.977
477.812, 2399.892
478.294, 2398.671
478.776, 2390.697
479.259, 2355.742
479.741, 2355.625
480.223, 2344.767
480.705, 2349.800
481.187, 2362.984
481.669, 2362.370
482.151, 2347.970
482.633, 2330.721
483.116, 2316.641
483.598, 2306.077
484.080, 2300.136
484.562, 2298.699
485.044, 2303.187
485.526, 2320.901
486.008, 2340.012
486.490, 2341.043
486.972, 2319.194
487.454, 2305.079
487.937, 2315.852
488.419, 2337.162
488.901, 2354.470
489.383, 2365.731
489.865, 2369.096
490.347, 2360.658
490.829, 2345.450
491.311, 2349.901
491.794, 2393.775
492.276, 2432.746
492.758, 2466.084
493.240, 2491.929
493.722, 2503.335
494.204, 2503.083
494.686, 2508.397
495.168, 2537.985
495.651, 2550.556
496.133, 2611.289
496.615, 2660.331
497.097, 2698.318
497.579, 2692.099
498.061, 2742.952
498.543, 2770.935
499.025, 2797.978
499.507, 2856.864
499.990, 2857.080
500.472, 2912.340
500.954, 2935.118
501.436, 2974.539
501.918, 3026.917
502.400, 3091.202
502.882, 3165.551
503.364, 3234.458
503.846, 3286.869
504.329, 3347.309
504.811, 3419.660
505.293, 3500.110
505.775, 3591.084
506.257, 3689.795
506.739, 3781.447
507.221, 3845.025
507.703, 3887.449
508.185, 3952.083
508.668, 4046.282
509.150, 4142.155
509.632, 4222.190
510.114, 4298.910
510.596, 4363.151
511.078, 4532.623
511.560, 4683.175
512.042, 4813.699
512.525, 4924.242
513.007, 5014.796
513.489, 5085.353
513.971, 5135.931
514.453, 5166.525
514.935, 5177.119
515.417, 5167.727
515.899, 5138.344
516.381, 5088.980
516.864, 5019.623
517.346, 4930.250
517.828, 4820.923
518.310, 4691.594
518.792, 4542.276
519.274, 4374.257
519.756, 4355.563
520.239, 4300.316
520.721, 4199.221
521.203, 4104.794
521.685, 4057.649
522.167, 4020.389
522.649, 3918.692
523.131, 3722.740
523.613, 3568.576
524.095, 3543.492
524.578, 3553.866
525.060, 3505.770
525.542, 3394.529
526.024, 3254.095
526.506, 3101.558
526.988, 2947.856
527.470, 2836.893
527.952, 2795.504
528.434, 2751.608
528.917, 2691.074
529.399, 2631.974
529.881, 2588.669
530.363, 2559.590
530.845, 2531.277
531.327, 2491.123
531.809, 2448.952
532.291, 2426.138
532.773, 2422.585
533.256, 2414.123
533.738, 2389.792
534.220, 2358.490
534.702, 2334.503
535.184, 2318.675
535.666, 2304.479
536.148, 2294.452
536.630, 2282.973
537.112, 2260.891
537.595, 2234.470
538.077, 2219.573
538.559, 2218.311
539.041, 2213.739
539.523, 2206.036
540.005, 2185.818
540.487, 2181.757
540.969, 2171.223
541.452, 2160.423
541.934, 2158.638
542.416, 2140.242
542.898, 2138.314
543.380, 2129.809
543.862, 2119.784
544.344, 2099.265
544.826, 2085.763
545.308, 2081.776
545.791, 2088.832
546.273, 2094.904
546.755, 2085.388
547.237, 2058.188
547.719, 2037.053
548.201, 2022.251
548.683, 2012.395
549.166, 2012.060
549.648, 2014.235
550.130, 2009.921
550.612, 1996.917
551.094, 1981.726
551.576, 1968.859
552.058, 1959.062
552.540, 1959.817
553.022, 1975.174
553.505, 1987.469
553.987, 1984.769
554.469, 1972.780
554.951, 1966.292
555.433, 1969.109
555.915, 1968.896
556.397, 1960.990
556.879, 1948.761
557.362, 1931.641
557.844, 1912.438
558.326, 1901.910
558.808, 1909.025
559.290, 1927.428
559.772, 1932.207
560.254, 1914.347
560.736, 1904.332
561.218, 1914.175
561.701, 1927.817
562.183, 1938.004
562.665, 1943.697
563.147, 1943.297
563.629, 1927.849
564.111, 1912.253
564.593, 1919.166
565.075, 1941.975
565.557, 1951.086
566.040, 1935.084
566.522, 1910.695
567.004, 1901.685
567.486, 1914.038
567.968, 1911.995
568.450, 1901.890
568.932, 1912.796
569.414, 1918.602
569.896, 1919.581
570.379, 1901.281
570.861, 1907.877
571.343, 1904.495
571.825, 1900.704
572.307, 1910.804
572.789, 1904.568
573.271, 1909.548
573.753, 1906.481
574.235, 1892.066
574.718, 1871.948
575.200, 1863.036
575.682, 1871.073
576.164, 1877.955
576.646, 1881.166
577.128, 1880.445
577.610, 1872.485
578.093, 1859.792
578.575, 1850.775
579.057, 1851.383
579.539, 1858.191
580.021, 1861.747
580.503, 1861.211
580.985, 1858.958
581.467, 1851.273
581.949, 1859.028
582.432, 1863.035
582.914, 1863.496
583.396, 1849.787
583.878, 1854.375
584.360, 1851.630
584.842, 1848.585
585.324, 1855.748
585.806, 1844.100
586.289, 1850.100
586.771, 1844.731
587.253, 1841.050
587.735, 1839.193
588.217, 1828.125
588.699, 1793.557
589.181, 1770.896
589.663, 1777.707
590.145, 1793.461
590.628, 1798.125
591.110, 1789.000
591.592, 1777.736
592.074, 1769.367
592.556, 1764.460
593.038, 1766.710
593.520, 1774.851
594.002, 1777.788
594.484, 1769.656
594.967, 1756.162
595.449, 1747.913
595.931, 1748.141
596.413, 1744.679
596.895, 1732.103
597.377, 1721.922
597.859, 1723.698
598.341, 1729.908
598.823, 1726.248
599.306, 1706.739
599.788, 1686.152
600.270, 1683.455
600.752, 1693.575
601.234, 1694.581
601.716, 1683.018
602.198, 1672.587
602.680, 1672.848
603.162, 1680.751
603.645, 1685.112
604.127, 1684.166
604.609, 1682.961
605.091, 1681.488
605.573, 1680.340
606.055, 1680.822
606.537, 1682.080
607.019, 1681.298
607.502, 1676.278
607.984, 1670.185
608.466, 1670.242
608.948, 1676.418
609.430, 1677.048
609.912, 1667.961
610.394, 1657.418
610.876, 1651.756
611.359, 1650.698
611.841, 1651.291
612.323, 1659.445
612.805, 1652.832
613.287, 1660.206
613.769, 1664.184
614.251, 1664.950
614.733, 1652.881
615.216, 1657.385
615.698, 1655.248
616.180, 1652.838
616.662, 1659.675
617.144, 1649.473
617.626, 1656.164
618.108, 1656.111
618.590, 1659.144
619.072, 1655.495
619.555, 1653.910
620.037, 1653.353
620.519, 1659.477
621.001, 1661.782
621.483, 1639.901
621.965, 1609.389
622.447, 1595.116
622.929, 1602.236
623.411, 1617.433
623.894, 1628.348
624.376, 1635.349
624.858, 1642.059
625.340, 1650.223
625.822, 1652.358
626.304, 1640.141
626.786, 1625.585
627.268, 1623.249
627.750, 1633.199
628.233, 1639.680
628.715, 1637.623
629.197, 1631.579
629.679, 1621.010
630.161, 1609.553
630.643, 1605.988
631.125, 1612.423
631.607, 1618.862
632.089, 1611.211
632.572, 1590.051
633.054, 1581.913
633.536, 1593.306
634.018, 1603.013
634.500, 1599.113
634.982, 1592.386
635.464, 1596.799
635.946, 1613.907
636.429, 1625.673
636.911, 1622.160
637.393, 1614.664
637.875, 1613.063
638.357, 1614.657
638.839, 1611.363
639.321, 1600.364
639.803, 1587.288
640.286, 1579.558
640.768, 1577.311
641.250, 1576.097
641.732, 1575.524
642.214, 1576.787
642.696, 1582.584
643.178, 1589.291
643.660, 1592.741
644.143, 1592.541
644.625, 1590.658
645.107, 1585.394
645.589, 1580.695
646.071, 1581.911
646.553, 1586.220
647.035, 1586.052
647.517, 1578.600
647.999, 1572.713
648.482, 1576.537
648.964, 1578.004
649.446, 1577.240
649.928, 1567.563
650.410, 1569.396
650.892, 1566.616
651.374, 1563.647
651.856, 1567.099
652.338, 1558.719
652.821, 1562.069
653.303, 1559.879
653.785, 1552.763
654.267, 1556.030
654.749, 1563.061
655.231, 1571.607
655.713, 1580.656
656.195, 1588.238
656.677, 1591.701
657.160, 1591.067
657.642, 1588.033
658.124, 1581.805
658.606, 1574.387
659.088, 1555.318
659.570, 1546.992
660.052, 1556.333
660.534, 1561.385
661.016, 1562.379
661.499, 1547.161
661.981, 1552.878
662.463, 1550.205
662.945, 1547.188
663.427, 1555.851
663.909, 1550.778
664.391, 1560.359
664.873, 1558.818
665.356, 1547.923
665.838, 1542.911
666.320, 1545.486
666.802, 1545.234
667.284, 1535.669
667.766, 1523.455
668.248, 1520.258
668.730, 1527.855
669.213, 1531.099
669.695, 1520.393
670.177, 1514.086
670.659, 1529.824
671.141, 1551.683
671.623, 1552.449
672.105, 1527.453
672.587, 1502.618
673.070, 1506.940
673.552, 1529.927
674.034, 1537.002
674.516, 1527.637
674.998, 1522.351
675.480, 1530.361
675.962, 1540.866
676.444, 1538.023
676.926, 1518.573
677.409, 1510.126
677.891, 1518.650
678.373, 1529.832
678.855, 1547.619
679.337, 1561.272
679.819, 1555.190
680.301, 1530.151
680.783, 1507.908
681.265, 1504.807
681.748, 1512.274
682.230, 1519.507
682.712, 1525.840
683.194, 1526.766
683.676, 1520.508
684.158, 1512.990
684.640, 1510.642
685.122, 1513.302
685.604, 1514.734
686.087, 1511.079
686.569, 1512.076
687.051, 1525.577
687.533, 1538.795
688.015, 1539.932
688.497, 1530.926
688.979, 1524.465
689.461, 1527.480
