##NAMES=Willemite
##RRUFFID=R060875
##IDEAL CHEMISTRY=Zn^2+^_2_SiO_4_
##LOCALITY=Franklin, Sussex County, New Jersey, USA
##OWNER=RRUFF
##SOURCE=Marcus Origlieri
##DESCRIPTION=Yellowish brown massive
##STATUS=The identification of this mineral is confirmed by single-crystal X-ray diffraction and chemical analysis.
##URL=rruff.info/R060875
##MEASURED CHEMISTRY=(Zn_1.76_Mn_0.23_Mg_0.01_)_Î£=2_Si_1.00_O_4_
95.49310, 128.0395
95.97522, 125.7140
96.45734, 124.2969
96.93945, 123.7840
97.42157, 123.9001
97.90369, 123.0947
98.38580, 118.4542
98.86792, 115.9655
99.35004, 118.6831
99.83215, 124.2603
100.3143, 128.5670
100.7964, 128.4172
101.2785, 123.6502
101.7606, 119.6503
102.2427, 116.5541
102.7249, 113.9703
103.2070, 111.9432
103.6891, 110.3579
104.1712, 108.9461
104.6533, 107.3966
105.1354, 105.5527
105.6176, 104.5456
106.0997, 104.7947
106.5818, 105.4360
107.0639, 106.2686
107.5460, 107.1456
108.0281, 107.4141
108.5103, 105.9128
108.9924, 101.1127
109.4745, 99.63977
109.9566, 103.3536
110.4387, 109.6758
110.9208, 116.3254
111.4030, 122.8186
111.8851, 128.9136
112.3672, 133.8035
112.8493, 136.8473
113.3314, 141.4143
113.8135, 148.2894
114.2957, 157.1608
114.7778, 168.6617
115.2599, 184.3911
115.7420, 199.8149
116.2241, 207.0153
116.7062, 205.5724
117.1884, 200.4979
117.6705, 191.1162
118.1526, 179.1286
118.6347, 171.3637
119.1168, 172.5643
119.5989, 177.5462
120.0811, 177.3047
120.5632, 169.7449
121.0453, 162.2576
121.5274, 159.2585
122.0095, 160.7521
122.4916, 167.3017
122.9738, 180.7261
123.4559, 199.0370
123.9380, 219.7650
124.4201, 242.4983
124.9022, 267.7310
125.3843, 295.5959
125.8665, 325.6105
126.3486, 360.1315
126.8307, 404.9920
127.3128, 453.3118
127.7949, 498.3047
128.2770, 537.4620
128.7592, 573.1761
129.2413, 608.8631
129.7234, 642.4366
130.2055, 681.5959
130.6876, 747.2676
131.1698, 814.8344
131.6519, 853.3630
132.1340, 845.7310
132.6161, 801.9352
133.0982, 750.5974
133.5803, 684.0186
134.0625, 621.9572
134.5446, 568.0348
135.0267, 522.2294
135.5088, 485.1563
135.9909, 457.8688
136.4730, 439.5697
136.9552, 424.2417
137.4373, 410.2101
137.9194, 401.9135
138.4015, 403.0356
138.8836, 410.4798
139.3657, 418.6943
139.8479, 423.6150
140.3300, 425.2899
140.8121, 428.5952
141.2942, 434.0099
141.7763, 440.7778
142.2584, 447.7047
142.7406, 455.7409
143.2227, 467.3613
143.7048, 485.7349
144.1869, 511.9840
144.6690, 532.1655
145.1511, 539.6782
145.6333, 547.4123
146.1154, 562.0774
146.5975, 582.0277
147.0796, 600.6183
147.5617, 611.1601
148.0438, 612.1702
148.5260, 612.9324
149.0081, 619.5284
149.4902, 621.0174
149.9723, 609.3323
150.4544, 585.8648
150.9365, 559.1326
151.4187, 538.3230
151.9008, 525.0255
152.3829, 511.8106
152.8650, 496.6094
153.3471, 482.9372
153.8292, 474.1309
154.3114, 469.9029
154.7935, 466.2930
155.2756, 458.2438
155.7577, 442.5710
156.2398, 432.4039
156.7219, 430.5146
157.2041, 431.7221
157.6862, 431.9454
158.1683, 430.6262
158.6504, 430.4453
159.1325, 434.8857
159.6146, 446.1371
160.0968, 457.4313
160.5789, 470.8643
161.0610, 483.0937
161.5431, 491.7381
162.0252, 496.1915
162.5073, 496.3369
162.9895, 491.4839
163.4716, 478.9946
163.9537, 467.6804
164.4358, 457.6447
164.9179, 448.9362
165.4000, 441.9774
165.8822, 436.8973
166.3643, 432.5424
166.8464, 426.8823
167.3285, 418.4970
167.8106, 413.4834
168.2927, 414.7275
168.7749, 418.7189
169.2570, 422.0566
169.7391, 423.9460
170.2212, 424.0909
170.7033, 421.3098
171.1854, 414.3431
171.6676, 409.3848
172.1497, 406.3285
172.6318, 406.1669
173.1139, 411.5314
173.5960, 423.7554
174.0781, 437.9809
174.5603, 447.5584
175.0424, 453.4776
175.5245, 452.8243
176.0066, 441.0518
176.4887, 423.3378
176.9708, 407.0788
177.4530, 394.0866
177.9351, 382.9159
178.4172, 371.0373
178.8993, 357.5690
179.3814, 347.2194
179.8635, 342.5816
180.3457, 341.4642
180.8278, 339.9567
181.3099, 336.6260
181.7920, 334.2026
182.2741, 337.5802
182.7562, 346.6869
183.2384, 357.0117
183.7205, 367.7292
184.2026, 378.7485
184.6847, 389.8547
185.1668, 400.7476
185.6489, 412.1529
186.1311, 425.3528
186.6132, 440.2582
187.0953, 455.6104
187.5774, 471.7204
188.0595, 487.9400
188.5416, 502.4507
189.0238, 514.2744
189.5059, 526.1008
189.9880, 544.4281
190.4701, 569.9170
190.9522, 587.8075
191.4343, 589.2712
191.9165, 580.8966
192.3986, 576.4470
192.8807, 581.2612
193.3628, 583.3449
193.8449, 562.2601
194.3270, 519.1921
194.8092, 481.6089
195.2913, 460.7669
195.7734, 450.3806
196.2555, 439.6753
196.7376, 426.7057
197.2197, 412.9238
197.7019, 399.5658
198.1840, 386.4718
198.6661, 374.7607
199.1482, 364.3701
199.6303, 355.5977
200.1124, 349.6812
200.5946, 347.4818
201.0767, 345.8156
201.5588, 339.8726
202.0409, 330.3295
202.5230, 323.3041
203.0051, 322.9091
203.4873, 325.4059
203.9694, 324.5869
204.4515, 318.9347
204.9336, 312.5277
205.4157, 310.0544
205.8978, 310.8341
206.3800, 311.0359
206.8621, 310.3717
207.3442, 308.3362
207.8263, 303.4388
208.3084, 295.0114
208.7905, 286.5939
209.2727, 281.2489
209.7548, 278.7023
210.2369, 278.5098
210.7190, 283.2049
211.2011, 289.0343
211.6832, 290.4086
212.1654, 286.3134
212.6475, 282.7155
213.1296, 287.0549
213.6117, 297.2166
214.0938, 301.1578
214.5760, 290.6147
215.0581, 276.5558
215.5402, 271.6854
216.0223, 277.1462
216.5044, 282.8617
216.9865, 279.4209
217.4687, 269.2833
217.9508, 265.2818
218.4329, 275.6720
218.9150, 288.0740
219.3971, 290.4404
219.8792, 282.6405
220.3614, 273.8658
220.8435, 269.5761
221.3256, 269.6772
221.8077, 271.5339
222.2898, 278.3380
222.7719, 284.3593
223.2541, 284.2383
223.7362, 278.6169
224.2183, 273.3172
224.7004, 271.9772
225.1825, 273.7647
225.6646, 274.4413
226.1468, 274.0708
226.6289, 272.5724
227.1110, 268.7847
227.5931, 263.4072
228.0752, 259.4858
228.5573, 258.6984
229.0395, 260.5781
229.5216, 263.2006
230.0037, 267.9598
230.4858, 271.6563
230.9679, 273.1960
231.4500, 272.5970
231.9322, 269.5695
232.4143, 263.4833
232.8964, 255.5417
233.3785, 248.6743
233.8606, 241.0441
234.3427, 237.1010
234.8249, 240.8779
235.3070, 249.0322
235.7891, 255.7347
236.2712, 259.1911
236.7533, 259.2986
237.2354, 254.9702
237.7176, 243.6549
238.1997, 234.2518
238.6818, 230.1279
239.1639, 228.3240
239.6460, 223.8842
240.1281, 215.0837
240.6103, 206.0464
241.0924, 203.9391
241.5745, 212.8245
242.0566, 218.3352
242.5387, 218.5762
243.0208, 215.3883
243.5030, 208.7939
243.9851, 199.1663
244.4672, 190.8817
244.9493, 190.0432
245.4314, 200.6935
245.9135, 206.4269
246.3957, 203.5123
246.8778, 198.4615
247.3599, 195.5694
247.8420, 195.4438
248.3241, 196.9601
248.8062, 199.0677
249.2884, 201.7579
249.7705, 205.3747
250.2526, 212.4341
250.7347, 218.1060
251.2168, 219.0948
251.6989, 216.1227
252.1811, 211.9974
252.6632, 208.5548
253.1453, 205.7313
253.6274, 207.1901
254.1095, 217.6210
254.5916, 226.9060
255.0738, 231.1263
255.5559, 231.6284
256.0380, 231.4295
256.5201, 232.3338
257.0022, 234.2818
257.4843, 236.9304
257.9665, 240.6452
258.4486, 244.6933
258.9307, 250.5006
259.4128, 256.1674
259.8949, 259.0520
260.3770, 257.8262
260.8592, 253.6322
261.3413, 249.6014
261.8234, 245.2129
262.3055, 241.8659
262.7876, 238.7938
263.2697, 237.1342
263.7519, 238.4500
264.2340, 243.1295
264.7161, 249.4752
265.1982, 254.7056
265.6803, 258.8403
266.1624, 261.7455
266.6446, 262.7092
267.1267, 263.1258
267.6088, 263.5306
268.0909, 264.1703
268.5730, 265.4791
269.0551, 267.8920
269.5373, 271.3943
270.0194, 276.0804
270.5015, 286.0897
270.9836, 293.8492
271.4657, 293.9639
271.9478, 287.9936
272.4300, 282.8101
272.9121, 284.5289
273.3942, 292.7121
273.8763, 300.0489
274.3584, 305.4625
274.8405, 311.3442
275.3227, 319.2280
275.8048, 328.2777
276.2869, 336.7787
276.7690, 343.1374
277.2511, 348.4354
277.7332, 355.5989
278.2154, 364.7220
278.6975, 375.5131
279.1796, 387.5662
279.6617, 401.1721
280.1438, 417.7211
280.6259, 440.1498
281.1081, 462.0193
281.5902, 474.1000
282.0723, 475.6064
282.5544, 475.5669
283.0365, 479.4100
283.5186, 482.3456
284.0008, 478.3003
284.4829, 465.5114
284.9650, 449.2137
285.4471, 432.9511
285.9292, 416.5153
286.4113, 398.0989
286.8935, 375.6503
287.3756, 352.9609
287.8577, 334.6279
288.3398, 320.5540
288.8219, 309.9453
289.3040, 302.4582
289.7862, 298.2334
290.2683, 297.7020
290.7504, 301.1342
291.2325, 307.6510
291.7146, 318.3907
292.1967, 333.5925
292.6789, 342.9754
293.1610, 340.7443
293.6431, 334.7863
294.1252, 331.7253
294.6073, 332.1469
295.0894, 334.2612
295.5716, 336.6311
296.0537, 339.3860
296.5358, 344.1800
297.0179, 355.2132
297.5000, 364.0586
297.9821, 365.4065
298.4643, 361.1312
298.9464, 356.7004
299.4285, 355.5197
299.9106, 356.0017
300.3927, 351.0616
300.8748, 333.7498
301.3570, 319.6453
301.8391, 314.1441
302.3212, 311.8063
302.8033, 305.4279
303.2854, 292.4135
303.7675, 276.6626
304.2497, 265.1219
304.7318, 259.0043
305.2139, 255.5252
305.6960, 257.0510
306.1781, 259.1452
306.6602, 258.2041
307.1424, 254.1280
307.6245, 249.9115
308.1066, 249.6343
308.5887, 254.7291
309.0708, 254.3445
309.5529, 239.5316
310.0351, 227.4223
310.5172, 226.1908
310.9993, 232.6216
311.4814, 238.4756
311.9635, 237.7829
312.4456, 232.1713
312.9278, 229.3663
313.4099, 231.0709
313.8920, 232.7348
314.3741, 233.5655
314.8562, 233.2579
315.3383, 230.8523
315.8205, 225.3088
316.3026, 219.6039
316.7847, 218.3312
317.2668, 222.0246
317.7489, 226.5503
318.2310, 231.8188
318.7132, 236.6334
319.1953, 240.1630
319.6774, 242.3418
320.1595, 242.7703
320.6416, 241.1057
321.1237, 237.4266
321.6059, 231.3555
322.0880, 221.1643
322.5701, 211.7003
323.0522, 208.4214
323.5343, 210.5677
324.0164, 214.0614
324.4986, 218.4734
324.9807, 223.2786
325.4628, 228.1619
325.9449, 233.0792
326.4270, 237.0569
326.9091, 239.1009
327.3913, 239.4103
327.8734, 240.3674
328.3555, 241.3710
328.8376, 243.5752
329.3197, 249.7855
329.8018, 257.6986
330.2840, 261.3719
330.7661, 257.4610
331.2482, 248.9365
331.7303, 243.8279
332.2124, 245.4156
332.6945, 245.9459
333.1767, 244.2802
333.6588, 241.6892
334.1409, 239.1366
334.6230, 236.9574
335.1051, 235.3197
335.5872, 234.2850
336.0694, 233.4261
336.5515, 234.8641
337.0336, 242.1652
337.5157, 248.1780
337.9979, 248.7697
338.4800, 245.0624
338.9621, 240.9651
339.4442, 239.3354
339.9263, 239.8349
340.4084, 240.0552
340.8906, 239.9507
341.3727, 239.5998
341.8548, 239.4133
342.3369, 238.8865
342.8190, 236.8705
343.3011, 232.5484
343.7833, 228.4914
344.2654, 229.3689
344.7475, 236.1157
345.2296, 241.1685
345.7117, 241.2530
346.1938, 240.0673
346.6760, 241.0846
347.1581, 244.4879
347.6402, 246.9096
348.1223, 244.7284
348.6044, 239.8853
349.0865, 238.5245
349.5687, 242.3243
350.0508, 246.7700
350.5329, 247.3851
351.0150, 245.1816
351.4971, 244.3013
351.9792, 247.0737
352.4614, 250.2617
352.9435, 250.4543
353.4256, 248.1989
353.9077, 247.3119
354.3898, 250.4555
354.8719, 256.0611
355.3541, 258.0447
355.8362, 250.6333
356.3183, 248.2150
356.8004, 259.8863
357.2825, 276.1521
357.7646, 284.1923
358.2468, 280.4960
358.7289, 271.1785
359.2110, 264.3858
359.6931, 259.9685
360.1752, 259.0690
360.6573, 264.3722
361.1395, 270.2410
361.6216, 272.9334
362.1037, 273.3597
362.5858, 275.2475
363.0679, 281.7392
363.5500, 291.9988
364.0322, 299.9540
364.5143, 304.9882
364.9964, 308.4228
365.4785, 309.1895
365.9606, 309.3311
366.4427, 311.1422
366.9249, 315.4477
367.4070, 321.1923
367.8891, 326.7632
368.3712, 332.0492
368.8533, 338.8026
369.3354, 347.9843
369.8176, 358.2792
370.2997, 368.8192
370.7818, 379.5593
371.2639, 389.9286
371.7460, 399.7450
372.2281, 408.9369
372.7103, 417.1345
373.1924, 424.0589
373.6745, 431.4235
374.1566, 440.1241
374.6387, 450.3170
375.1208, 462.1252
375.6030, 477.7359
376.0851, 492.7902
376.5672, 503.3944
377.0493, 511.6941
377.5314, 523.1610
378.0135, 540.1943
378.4957, 560.4258
378.9778, 579.7326
379.4599, 600.9387
379.9420, 615.0869
380.4241, 616.3539
380.9063, 614.5610
381.3884, 616.3648
381.8705, 622.7059
382.3526, 632.3795
382.8347, 645.4077
383.3168, 661.8486
383.7990, 669.6875
384.2811, 658.1592
384.7632, 649.7225
385.2453, 651.8676
385.7274, 659.2576
386.2095, 665.0424
386.6917, 666.5054
387.1738, 664.1428
387.6559, 657.4530
388.1380, 645.0630
388.6201, 635.8091
389.1022, 634.3699
389.5844, 634.2783
390.0665, 630.4609
390.5486, 623.0020
391.0307, 616.0996
391.5128, 612.7439
391.9949, 611.5374
392.4771, 607.8724
392.9592, 600.3173
393.4413, 597.9022
393.9234, 611.6765
394.4055, 635.7061
394.8876, 647.3702
395.3698, 636.3735
395.8519, 622.8536
396.3340, 617.2343
396.8161, 616.7792
397.2982, 616.0716
397.7803, 613.3322
398.2625, 608.3140
398.7446, 600.5261
399.2267, 589.3473
399.7088, 576.2599
400.1909, 561.0589
400.6730, 544.2074
401.1552, 524.9555
401.6373, 504.1128
402.1194, 483.2578
402.6015, 463.2354
403.0836, 444.5100
403.5657, 431.8535
404.0479, 432.8872
404.5300, 428.5007
405.0121, 411.2720
405.4942, 388.9647
405.9763, 369.2129
406.4584, 354.0435
406.9406, 341.7229
407.4227, 330.2081
407.9048, 319.5269
408.3869, 310.9893
408.8690, 305.4214
409.3511, 301.2028
409.8333, 297.7498
410.3154, 294.7057
410.7975, 290.5483
411.2796, 283.6495
411.7617, 276.0901
412.2438, 270.1705
412.7260, 265.8109
413.2081, 261.8703
413.6902, 257.8262
414.1723, 253.8005
414.6544, 250.2373
415.1365, 247.5296
415.6187, 244.4494
416.1008, 239.9551
416.5829, 235.4070
417.0650, 232.4469
417.5471, 231.2182
418.0292, 230.4112
418.5114, 228.7163
418.9935, 226.0800
419.4756, 223.3628
419.9577, 220.7964
420.4398, 217.8712
420.9219, 213.5577
421.4041, 209.0713
421.8862, 206.5075
422.3683, 206.8858
422.8504, 208.0589
423.3325, 205.4821
423.8146, 198.0723
424.2968, 194.8121
424.7789, 201.6763
425.2610, 208.8471
425.7431, 207.8097
426.2252, 199.7286
426.7073, 193.5585
427.1895, 195.7286
427.6716, 201.3501
428.1537, 202.6461
428.6358, 199.3714
429.1179, 196.2142
429.6000, 195.8354
430.0822, 197.3905
430.5643, 198.1888
431.0464, 197.9003
431.5285, 197.5080
432.0106, 198.0206
432.4927, 198.2300
432.9749, 195.5497
433.4570, 189.9113
433.9391, 185.4603
434.4212, 187.3696
434.9033, 196.8145
435.3854, 200.8459
435.8676, 194.3659
436.3497, 187.9442
436.8318, 183.9956
437.3139, 182.0867
437.7960, 181.7611
438.2781, 183.0280
438.7603, 184.0762
439.2424, 180.5890
439.7245, 171.4617
440.2066, 167.4810
440.6887, 175.3632
441.1708, 183.8184
441.6530, 182.9893
442.1351, 174.4459
442.6172, 167.8680
443.0993, 169.1638
443.5814, 173.6082
444.0635, 174.9710
444.5457, 173.3210
445.0278, 171.8963
445.5099, 172.4164
445.9920, 174.1813
446.4741, 175.2634
446.9562, 175.6413
447.4384, 175.5314
447.9205, 174.3658
448.4026, 173.0938
448.8847, 172.4185
449.3668, 172.5431
449.8489, 173.6465
450.3311, 175.9667
450.8132, 179.4672
451.2953, 183.3036
451.7774, 188.2510
452.2595, 192.5252
452.7416, 195.4760
453.2238, 197.7112
453.7059, 199.9960
454.1880, 202.5492
454.6701, 204.8435
455.1522, 206.1903
455.6343, 206.6625
456.1165, 206.9285
456.5986, 206.5989
457.0807, 206.9504
457.5628, 210.6577
458.0449, 216.1380
458.5270, 218.3153
459.0092, 211.5410
459.4913, 205.3107
459.9734, 208.3174
460.4555, 217.3989
460.9376, 223.3799
461.4197, 222.5563
461.9019, 218.7038
462.3840, 218.1178
462.8661, 222.3424
463.3482, 226.0071
463.8303, 229.3389
464.3124, 231.9429
464.7946, 234.2126
465.2767, 235.5612
465.7588, 234.0664
466.2409, 227.9025
466.7230, 220.0367
467.2051, 219.3421
467.6873, 228.7904
468.1694, 235.9284
468.6515, 235.4723
469.1336, 233.5811
469.6157, 235.1244
470.0978, 240.0805
470.5800, 244.0358
471.0621, 243.4370
471.5442, 240.8075
472.0263, 239.9754
472.5084, 241.1118
472.9905, 243.7582
473.4727, 247.8285
473.9548, 253.1189
474.4369, 259.0974
474.9190, 267.0754
475.4011, 273.4515
475.8832, 276.9563
476.3654, 278.9840
476.8475, 280.8437
477.3296, 282.7101
477.8117, 283.9675
478.2938, 283.8096
478.7759, 282.4630
479.2581, 283.3212
479.7402, 290.2139
480.2223, 293.3982
480.7044, 287.7311
481.1865, 279.2225
481.6686, 273.9745
482.1508, 273.3747
482.6329, 274.2762
483.1150, 274.7836
483.5971, 274.6436
484.0792, 272.6162
484.5613, 268.2372
485.0435, 263.3981
485.5256, 258.5933
486.0077, 254.4591
486.4898, 253.2044
486.9719, 257.7808
487.4540, 261.7923
487.9362, 264.9715
488.4183, 265.2947
488.9004, 257.7507
489.3825, 241.7891
489.8646, 225.0539
490.3467, 216.3420
490.8289, 216.4467
491.3110, 216.8671
491.7931, 218.9345
492.2752, 219.7844
492.7573, 217.8583
493.2394, 214.6202
493.7216, 212.2049
494.2037, 211.3812
494.6858, 210.5620
495.1679, 207.7176
495.6500, 203.1201
496.1321, 198.6291
496.6143, 193.9898
497.0964, 190.8119
497.5785, 191.6958
498.0606, 195.4947
498.5427, 197.0220
499.0248, 195.1635
499.5070, 191.5852
499.9891, 184.7201
500.4712, 177.2579
500.9533, 174.7253
501.4355, 178.6781
501.9176, 184.9585
502.3997, 188.2524
502.8818, 188.1709
503.3639, 187.4568
503.8460, 185.0695
504.3282, 183.1529
504.8103, 182.4958
505.2924, 182.6615
505.7745, 183.2924
506.2566, 184.4101
506.7387, 184.8003
507.2209, 182.1998
507.7030, 177.0821
508.1851, 173.8074
508.6672, 173.4389
509.1493, 174.0828
509.6314, 175.0244
510.1136, 175.8548
510.5957, 174.3893
511.0778, 167.9150
511.5599, 161.7518
512.0420, 159.0772
512.5241, 158.3488
513.0062, 156.2846
513.4883, 152.0525
513.9705, 148.7243
514.4526, 150.9335
514.9347, 160.0201
515.4168, 164.9905
515.8989, 163.4663
516.3810, 160.1897
516.8632, 155.2863
517.3453, 149.8696
517.8274, 144.7086
518.3095, 139.8093
518.7916, 137.4407
519.2737, 142.4344
519.7559, 152.6640
520.2380, 157.7463
520.7201, 155.4575
521.2022, 150.6906
521.6843, 146.2001
522.1664, 142.3804
522.6486, 141.1863
523.1307, 145.7795
523.6128, 149.2740
524.0949, 148.1089
524.5770, 144.9959
525.0591, 143.6478
525.5413, 144.7973
526.0234, 146.3357
526.5055, 145.7342
526.9876, 142.9988
527.4697, 142.4451
527.9518, 144.4414
528.4340, 148.1774
528.9161, 155.9986
529.3982, 163.9727
529.8803, 166.7614
530.3624, 162.8924
530.8445, 159.2917
531.3267, 162.9537
531.8088, 169.9770
532.2909, 170.6161
532.7730, 163.7643
533.2551, 157.8979
533.7372, 158.7735
534.2194, 165.1060
534.7015, 171.0255
535.1836, 175.9122
535.6657, 181.2617
536.1478, 186.7468
536.6299, 193.0910
537.1121, 201.4297
537.5942, 211.4481
538.0763, 221.0916
538.5584, 228.1056
539.0405, 234.0607
539.5226, 245.6168
540.0048, 264.6175
540.4869, 282.8169
540.9690, 297.6002
541.4511, 310.6159
541.9332, 323.4509
542.4153, 336.1650
542.8975, 348.9627
543.3796, 364.6395
543.8617, 378.4528
544.3438, 383.4037
544.8259, 381.6294
545.3080, 383.6576
545.7902, 395.2404
546.2723, 410.0903
546.7544, 414.6878
547.2365, 403.6324
547.7186, 394.2329
548.2007, 390.0196
548.6829, 383.8227
549.1650, 370.7921
549.6471, 353.3307
550.1292, 336.9595
550.6113, 324.5169
551.0934, 313.0966
551.5756, 297.8973
552.0577, 279.6932
552.5398, 264.1981
553.0219, 253.1123
553.5040, 243.6758
553.9861, 232.7369
554.4683, 220.5793
554.9504, 212.4146
555.4325, 211.6568
555.9146, 211.0596
556.3967, 206.5798
556.8788, 201.3032
557.3610, 200.0009
557.8431, 203.4826
558.3252, 207.7925
558.8073, 208.5924
559.2894, 206.0682
559.7715, 203.8050
560.2537, 201.2056
560.7358, 200.0807
561.2179, 202.7805
561.7000, 206.5246
562.1821, 207.7590
562.6642, 205.5714
563.1464, 205.2515
563.6285, 211.8757
564.1106, 220.4228
564.5927, 224.3194
565.0748, 223.5708
565.5569, 221.5345
566.0391, 220.0225
566.5212, 218.8488
567.0033, 217.2674
567.4854, 212.8320
567.9675, 212.6770
568.4496, 221.9315
568.9318, 230.3332
569.4139, 231.0592
569.8960, 226.3272
570.3781, 222.5262
570.8602, 222.7367
571.3423, 225.2514
571.8245, 228.2395
572.3066, 231.6484
572.7887, 235.9922
573.2708, 242.2632
573.7529, 246.0244
574.2350, 240.9835
574.7172, 227.1460
575.1993, 222.1904
575.6814, 234.7341
576.1635, 245.3278
576.6456, 247.0274
577.1277, 244.1212
577.6099, 240.6267
578.0920, 237.9737
578.5741, 237.3075
579.0562, 240.8935
579.5383, 247.5712
580.0204, 249.8089
580.5026, 246.0751
580.9847, 243.3564
581.4668, 244.9680
581.9489, 248.6526
582.4310, 251.2481
582.9132, 252.6790
583.3953, 253.6458
583.8774, 254.8278
584.3596, 255.2418
584.8417, 252.5184
585.3238, 248.2723
585.8059, 246.6482
586.2880, 249.5875
586.7701, 256.5953
587.2523, 268.4249
587.7344, 288.1330
588.2165, 299.4137
588.6986, 296.7533
589.1807, 291.6296
589.6628, 287.6267
590.1450, 285.3708
590.6271, 286.3799
591.1092, 292.3385
591.5913, 297.9220
592.0734, 298.2126
