##NAMES=Willemite
##RRUFFID=R100109
##IDEAL CHEMISTRY=Zn^2+^_2_SiO_4_
##LOCALITY=Franklin, Sussex County, New Jersey, USA
##OWNER=RRUFF
##SOURCE=American Museum of Natural History
##DESCRIPTION=Pale yellow transparent fragments
##STATUS=The identification of this mineral is confirmed by single-crystal X-ray diffraction and chemical analysis.
##URL=rruff.info/R100109
##MEASURED CHEMISTRY=(Zn_1.677_Mn^+2^_0.242_Mg_0.034_Fe^+2^_0.001_)_Î£=1.954_Si_1.023_O_4_
91.53320, 132.5530
92.01532, 139.8857
92.49744, 142.2063
92.97955, 138.9077
93.46167, 131.3537
93.94379, 124.2876
94.42590, 119.0935
94.90802, 114.9968
95.39014, 110.7744
95.87225, 106.2431
96.35437, 102.2962
96.83649, 99.25243
97.31860, 96.92496
97.80072, 95.24048
98.28284, 94.16493
98.76495, 93.47794
99.24707, 92.60102
99.72919, 91.25498
100.2113, 90.07059
100.6934, 89.39304
101.1755, 88.99049
101.6577, 88.39257
102.1398, 87.11897
102.6219, 84.95672
103.1040, 83.25664
103.5861, 82.15077
104.0682, 81.23096
104.5504, 80.25207
105.0325, 79.18456
105.5146, 78.16809
105.9967, 77.38743
106.4788, 76.84151
106.9609, 76.56580
107.4431, 76.64868
107.9252, 76.97299
108.4073, 77.27230
108.8894, 77.33302
109.3715, 77.65615
109.8536, 79.28996
110.3358, 82.52329
110.8179, 85.56424
111.3000, 87.82101
111.7821, 89.25027
112.2642, 89.32806
112.7463, 87.14295
113.2285, 83.80765
113.7106, 80.29418
114.1927, 76.64933
114.6748, 73.18054
115.1569, 70.33285
115.6390, 68.13065
116.1212, 66.49208
116.6033, 65.78169
117.0854, 65.37385
117.5675, 64.59063
118.0496, 63.03320
118.5317, 60.93747
119.0139, 59.45766
119.4960, 59.22542
119.9781, 59.00727
120.4602, 58.53476
120.9423, 57.91401
121.4244, 57.38012
121.9066, 57.13129
122.3887, 57.20097
122.8708, 57.06656
123.3529, 56.52800
123.8350, 56.01089
124.3171, 55.77113
124.7993, 55.78985
125.2814, 55.82052
125.7635, 55.60263
126.2456, 55.06424
126.7277, 54.60441
127.2098, 54.19896
127.6920, 53.88776
128.1741, 53.75937
128.6562, 53.86276
129.1383, 53.99963
129.6204, 53.87142
130.1025, 53.50938
130.5847, 53.20215
131.0668, 53.13444
131.5489, 53.22863
132.0310, 53.19841
132.5131, 52.88243
132.9952, 52.53527
133.4774, 52.40897
133.9595, 52.50519
134.4416, 52.60519
134.9237, 52.37217
135.4058, 51.68736
135.8879, 51.50314
136.3701, 52.73604
136.8522, 54.06278
137.3343, 54.62577
137.8164, 54.23243
138.2985, 53.44929
138.7806, 53.27150
139.2628, 54.15008
139.7449, 54.84099
140.2270, 55.26254
140.7091, 55.46250
141.1912, 55.44607
141.6733, 55.21642
142.1555, 54.83279
142.6376, 54.50126
143.1197, 54.31366
143.6018, 54.07744
144.0839, 53.81269
144.5660, 53.48096
145.0482, 52.99799
145.5303, 52.29214
146.0124, 51.41187
146.4945, 50.71209
146.9766, 50.22691
147.4587, 49.84206
147.9409, 49.52138
148.4230, 49.26350
148.9051, 49.08440
149.3872, 49.04662
149.8693, 49.10016
150.3514, 48.98186
150.8336, 48.48609
151.3157, 47.94075
151.7978, 47.71242
152.2799, 47.85921
152.7620, 47.94221
153.2441, 47.27618
153.7263, 46.32157
154.2084, 45.92054
154.6905, 46.87856
155.1726, 48.50822
155.6547, 49.23504
156.1368, 48.67766
156.6190, 47.84502
157.1011, 47.12706
157.5832, 46.56909
158.0653, 46.26933
158.5474, 46.35802
159.0295, 46.80705
159.5117, 47.25117
159.9938, 47.81743
160.4759, 48.24005
160.9580, 48.38166
161.4401, 48.29293
161.9222, 48.10909
162.4044, 47.93513
162.8865, 47.76204
163.3686, 47.65062
163.8507, 47.67077
164.3328, 47.68726
164.8149, 47.67408
165.2971, 47.61060
165.7792, 47.45463
166.2613, 47.12794
166.7434, 46.48096
167.2255, 46.13106
167.7076, 46.17556
168.1898, 46.39905
168.6719, 46.69086
169.1540, 47.01772
169.6361, 47.35972
170.1182, 47.70861
170.6003, 48.14223
171.0825, 48.34572
171.5646, 48.04159
172.0467, 47.60069
172.5288, 47.51803
173.0109, 47.97178
173.4930, 48.57609
173.9752, 48.60064
174.4573, 47.96070
174.9394, 47.50759
175.4215, 47.67487
175.9036, 48.20521
176.3857, 48.52510
176.8679, 48.45625
177.3500, 48.13253
177.8321, 47.70873
178.3142, 47.16634
178.7963, 46.69158
179.2784, 46.44521
179.7606, 46.39492
180.2427, 46.27406
180.7248, 45.83574
181.2069, 45.47145
181.6890, 45.62017
182.1711, 46.33531
182.6533, 47.04950
183.1354, 47.08834
183.6175, 46.32813
184.0996, 45.87505
184.5817, 46.34066
185.0638, 46.98112
185.5460, 47.33533
186.0281, 47.31096
186.5102, 47.20924
186.9923, 47.48264
187.4744, 48.30363
187.9565, 49.04866
188.4387, 49.57409
188.9208, 50.04653
189.4029, 50.57913
189.8850, 51.20949
190.3671, 51.89175
190.8492, 52.57310
191.3314, 53.40209
191.8135, 53.94471
192.2956, 54.16239
192.7777, 54.13001
193.2598, 53.89899
193.7419, 53.49131
194.2241, 52.91432
194.7062, 52.18600
195.1883, 50.95037
195.6704, 49.97642
196.1525, 49.58448
196.6346, 49.36738
197.1168, 48.75185
197.5989, 47.46820
198.0810, 45.86152
198.5631, 44.95814
199.0452, 45.24115
199.5273, 45.52811
200.0095, 45.78131
200.4916, 45.90179
200.9737, 45.66237
201.4558, 44.89472
201.9379, 43.83464
202.4200, 43.15800
202.9022, 42.95039
203.3843, 42.86644
203.8664, 42.84740
204.3485, 42.86848
204.8306, 42.84178
205.3127, 42.68445
205.7949, 42.51224
206.2770, 42.59836
206.7591, 43.09857
207.2412, 43.50458
207.7233, 43.44098
208.2054, 42.98024
208.6876, 42.57978
209.1697, 42.47821
209.6518, 42.49030
210.1339, 42.31340
210.6160, 41.86848
211.0981, 41.43354
211.5803, 41.22624
212.0624, 41.24676
212.5445, 41.38389
213.0266, 41.73676
213.5087, 42.10463
213.9908, 42.25984
214.4730, 42.13428
214.9551, 41.98473
215.4372, 42.16909
215.9193, 42.77418
216.4014, 43.17638
216.8836, 43.03905
217.3657, 42.71514
217.8478, 42.40133
218.3299, 42.14502
218.8120, 41.92112
219.2941, 41.66161
219.7763, 41.29494
220.2584, 41.13971
220.7405, 41.43092
221.2226, 41.82845
221.7047, 42.13871
222.1868, 42.30300
222.6690, 42.32499
223.1511, 42.16968
223.6332, 41.68534
224.1153, 41.37465
224.5974, 41.47613
225.0795, 41.62153
225.5617, 41.46461
226.0438, 40.93461
226.5259, 40.32617
227.0080, 40.19376
227.4901, 40.97324
227.9722, 41.43796
228.4544, 41.40770
228.9365, 41.18229
229.4186, 40.90760
229.9007, 40.65391
230.3828, 40.51575
230.8649, 40.69037
231.3471, 41.64361
231.8292, 42.14325
232.3113, 41.93251
232.7934, 41.46228
233.2755, 41.04351
233.7576, 40.77950
234.2398, 40.65632
234.7219, 40.67067
235.2040, 41.04240
235.6861, 41.13667
236.1682, 40.76122
236.6503, 40.21972
237.1325, 39.74363
237.6146, 39.40306
238.0967, 39.19879
238.5788, 39.15497
239.0609, 39.39563
239.5430, 39.50740
240.0252, 39.30993
240.5073, 39.05950
240.9894, 39.12247
241.4715, 39.58322
241.9536, 39.99927
242.4357, 39.65960
242.9179, 38.28172
243.4000, 37.43599
243.8821, 37.60004
244.3642, 38.21656
244.8463, 38.78496
245.3284, 39.22049
245.8106, 39.41331
246.2927, 39.10169
246.7748, 38.25780
247.2569, 37.64892
247.7390, 37.56291
248.2211, 37.69298
248.7033, 37.61721
249.1854, 37.24086
249.6675, 36.91793
250.1496, 37.12710
250.6317, 37.77687
251.1138, 38.23013
251.5960, 38.25800
252.0781, 38.06184
252.5602, 37.87759
253.0423, 37.72310
253.5244, 37.60122
254.0065, 37.50862
254.4887, 37.45059
254.9708, 37.45908
255.4529, 37.63044
255.9350, 37.83782
256.4171, 37.87632
256.8992, 37.70533
257.3813, 37.52543
257.8635, 37.44752
258.3456, 37.46057
258.8277, 37.57336
259.3098, 37.82979
259.7919, 38.16229
260.2740, 38.48322
260.7562, 38.79390
261.2383, 39.08564
261.7204, 39.40376
262.2025, 39.68729
262.6846, 39.85474
263.1667, 39.89277
263.6489, 39.79205
264.1310, 39.47264
264.6131, 38.86105
265.0952, 38.35101
265.5773, 38.10726
266.0594, 38.06466
266.5416, 38.22611
267.0237, 38.64211
267.5058, 39.13025
267.9879, 39.40984
268.4700, 39.41360
268.9521, 39.51954
269.4343, 40.06290
269.9164, 40.65403
270.3985, 40.97682
270.8806, 40.94587
271.3627, 40.74487
271.8448, 40.54578
272.3270, 40.31752
272.8091, 40.24995
273.2912, 40.64402
273.7733, 41.05438
274.2554, 41.14248
274.7375, 40.86285
275.2197, 40.53880
275.7018, 40.56249
276.1839, 40.99452
276.6660, 41.37633
277.1481, 41.45001
277.6302, 41.60561
278.1124, 42.09545
278.5945, 42.90970
279.0766, 43.80140
279.5587, 44.55804
280.0408, 45.18069
280.5229, 45.67988
281.0051, 45.98729
281.4872, 46.21474
281.9693, 46.41940
282.4514, 46.58769
282.9335, 46.66734
283.4156, 46.63330
283.8978, 46.48747
284.3799, 46.13167
284.8620, 45.24884
285.3441, 44.46984
285.8262, 44.12312
286.3083, 44.05324
286.7905, 43.88670
287.2726, 43.30012
287.7547, 42.36503
288.2368, 41.80355
288.7189, 42.03056
289.2010, 42.15382
289.6832, 41.85242
290.1653, 41.31126
290.6474, 40.80948
291.1295, 40.50531
291.6116, 40.36660
292.0938, 40.26525
292.5759, 40.17055
293.0580, 40.17100
293.5401, 40.36377
294.0222, 40.62032
294.5043, 40.82661
294.9865, 40.93627
295.4686, 40.91468
295.9507, 40.62566
296.4328, 39.72178
296.9149, 39.19044
297.3970, 39.36422
297.8792, 39.78216
298.3613, 40.05156
298.8434, 40.05305
299.3255, 39.93220
299.8076, 39.94769
300.2897, 40.22689
300.7719, 40.34735
301.2540, 40.35662
301.7361, 40.18355
302.2182, 39.67822
302.7003, 38.87125
303.1824, 38.02397
303.6646, 37.46057
304.1467, 37.26966
304.6288, 37.05392
305.1109, 36.69320
305.5930, 36.41076
306.0751, 36.39362
306.5573, 36.57951
307.0394, 36.72478
307.5215, 36.57594
308.0036, 36.09787
308.4857, 35.83250
308.9678, 36.07737
309.4500, 36.24933
309.9321, 36.07737
310.4142, 35.70361
310.8963, 35.45404
311.3784, 35.57625
311.8605, 36.00027
312.3427, 36.16634
312.8248, 35.71535
313.3069, 35.41888
313.7890, 35.54514
314.2711, 35.86622
314.7532, 36.07740
315.2354, 36.02456
315.7175, 35.79760
316.1996, 35.65310
316.6817, 35.63342
317.1638, 35.63671
317.6459, 35.64368
318.1281, 35.66918
318.6102, 35.75497
319.0923, 35.90642
319.5744, 36.04661
320.0565, 35.99907
320.5386, 35.53077
321.0208, 35.43169
321.5029, 36.16466
321.9850, 36.89325
322.4671, 37.02842
322.9492, 36.54836
323.4313, 35.89537
323.9135, 35.53955
324.3956, 35.53053
324.8777, 35.57781
325.3598, 35.83165
325.8419, 36.00251
326.3240, 35.87288
326.8062, 35.54788
327.2883, 35.33282
327.7704, 35.50897
328.2525, 36.04066
328.7346, 36.28840
329.2167, 35.94700
329.6989, 35.65155
330.1810, 35.60320
330.6631, 35.68825
331.1452, 35.72955
331.6273, 35.63000
332.1094, 35.43189
332.5916, 35.27298
333.0737, 35.22110
333.5558, 35.08720
334.0379, 34.69395
334.5200, 34.29007
335.0021, 34.12537
335.4843, 34.27685
335.9664, 34.60982
336.4485, 34.97216
336.9306, 35.48938
337.4127, 35.65025
337.8948, 35.03811
338.3770, 34.35222
338.8591, 33.96976
339.3412, 33.93521
339.8233, 34.10126
340.3055, 34.38330
340.7876, 34.80565
341.2697, 35.08634
341.7518, 35.15703
342.2339, 35.13568
342.7160, 34.92153
343.1982, 34.64428
343.6803, 34.61551
344.1624, 35.17367
344.6445, 36.12931
345.1266, 36.48011
345.6087, 35.81370
346.0909, 35.19513
346.5730, 34.98687
347.0551, 35.01757
347.5372, 35.10859
348.0193, 35.21364
348.5014, 35.25702
348.9836, 35.03450
349.4657, 34.40920
349.9478, 33.98383
350.4299, 34.11196
350.9120, 34.37937
351.3941, 34.47752
351.8763, 34.35092
352.3584, 34.19281
352.8405, 34.18618
353.3226, 34.33281
353.8047, 34.57243
354.2868, 34.98051
354.7690, 35.39771
355.2511, 35.77648
355.7332, 36.09418
356.2153, 36.27183
356.6974, 36.18143
357.1795, 35.89739
357.6617, 35.68127
358.1438, 35.47509
358.6259, 35.47547
359.1080, 35.97475
359.5901, 36.70673
360.0722, 37.25788
360.5544, 37.49424
361.0365, 37.47041
361.5186, 37.12947
362.0007, 36.40043
362.4828, 35.93804
362.9649, 36.16235
363.4471, 36.72050
363.9292, 37.23407
364.4113, 37.67085
364.8934, 38.04233
365.3755, 38.34515
365.8576, 38.58587
366.3398, 38.80460
366.8219, 39.02559
367.3040, 39.20264
367.7861, 39.20932
368.2682, 39.07070
368.7503, 39.11979
369.2325, 39.67644
369.7146, 40.45164
370.1967, 40.92733
370.6788, 41.02887
371.1609, 41.02198
371.6430, 41.03252
372.1252, 41.09387
372.6073, 41.31551
373.0894, 41.76435
373.5715, 42.33683
374.0536, 43.03030
374.5357, 43.80894
375.0179, 44.46274
375.5000, 44.84816
375.9821, 45.07191
376.4642, 45.39922
376.9463, 45.87030
377.4284, 46.33306
377.9106, 46.70493
378.3927, 47.03644
378.8748, 47.46959
379.3569, 48.06473
379.8390, 48.58491
380.3211, 48.67534
380.8033, 48.23800
381.2854, 47.93224
381.7675, 47.76220
382.2496, 47.77005
382.7317, 48.05067
383.2138, 48.57777
383.6960, 49.19828
384.1781, 49.86376
384.6602, 50.53706
385.1423, 50.72339
385.6244, 50.17849
386.1065, 49.52137
386.5887, 48.75365
387.0708, 48.04675
387.5529, 47.75435
388.0350, 48.05117
388.5171, 48.61343
388.9992, 48.72474
389.4814, 47.95092
389.9635, 47.36779
390.4456, 47.03844
390.9277, 46.85376
391.4098, 46.80100
391.8919, 46.83607
392.3741, 46.80637
392.8562, 46.53242
393.3383, 45.96424
393.8204, 45.52948
394.3025, 45.33743
394.7846, 45.15517
395.2668, 44.90031
395.7489, 44.59685
396.2310, 44.29614
396.7131, 44.02522
397.1952, 43.78686
397.6773, 43.60075
398.1595, 43.56768
398.6416, 43.41156
399.1237, 42.99285
399.6058, 42.51545
400.0879, 42.17009
400.5700, 41.99335
401.0522, 41.85648
401.5343, 41.63207
402.0164, 41.33614
402.4985, 40.85006
402.9806, 39.88223
403.4627, 38.99359
403.9449, 38.51802
404.4270, 38.32632
404.9091, 38.04248
405.3912, 37.33260
405.8733, 36.41193
406.3554, 36.05592
406.8376, 36.58098
407.3197, 36.87043
407.8018, 36.11695
408.2839, 35.07287
408.7660, 34.57299
409.2481, 34.88662
409.7303, 35.33294
410.2124, 35.17894
410.6945, 34.46575
411.1766, 33.82747
411.6587, 33.37415
412.1408, 33.07051
412.6230, 32.92287
413.1051, 32.90747
413.5872, 32.84566
414.0693, 32.60788
414.5514, 32.29776
415.0335, 32.07122
415.5157, 31.93733
415.9978, 31.88939
416.4799, 31.99994
416.9620, 32.18003
417.4441, 32.16032
417.9262, 31.76887
418.4084, 31.39184
418.8905, 31.30787
419.3726, 31.41040
419.8547, 31.43181
420.3368, 31.28374
420.8189, 31.00707
421.3011, 30.61481
421.7832, 30.02326
422.2653, 29.67752
422.7474, 29.84210
423.2295, 30.12606
423.7116, 30.14579
424.1938, 29.90751
424.6759, 29.72228
425.1580, 29.84531
425.6401, 30.25651
426.1222, 30.58662
426.6043, 30.98260
427.0865, 31.14283
427.5686, 30.79834
428.0507, 30.23313
428.5328, 29.83253
429.0149, 29.74390
429.4970, 29.85496
429.9792, 29.98000
430.4613, 30.15689
430.9434, 30.26169
431.4255, 30.31184
431.9076, 30.29053
432.3897, 30.09486
432.8719, 29.80182
433.3540, 29.66126
433.8361, 29.93768
434.3182, 30.52370
434.8003, 30.59395
435.2824, 29.67533
435.7646, 28.96131
436.2467, 28.84921
436.7288, 29.01736
437.2109, 29.11782
437.6930, 29.04047
438.1751, 28.95599
438.6573, 29.16715
439.1394, 29.71536
439.6215, 29.95302
440.1036, 29.60714
440.5857, 29.12507
441.0678, 28.72488
441.5500, 28.42751
442.0321, 28.28584
442.5142, 28.52213
442.9963, 28.85318
443.4784, 28.59962
443.9605, 27.64480
444.4427, 27.03905
444.9248, 27.59730
445.4069, 28.69341
445.8890, 29.20383
446.3711, 28.92222
446.8532, 28.51042
447.3354, 28.18087
447.8175, 28.00108
448.2996, 28.24248
448.7817, 29.03491
449.2638, 29.79356
449.7459, 29.78392
450.2281, 28.94580
450.7102, 28.49517
451.1923, 28.76747
451.6744, 29.17987
452.1565, 29.42709
452.6386, 29.51211
453.1208, 29.49062
453.6029, 29.37958
454.0850, 29.22193
454.5671, 29.13725
455.0492, 29.20014
455.5313, 29.23765
456.0135, 29.20957
456.4956, 29.18106
456.9777, 29.20840
457.4598, 29.29564
457.9419, 29.41660
458.4240, 29.56860
458.9062, 29.75422
459.3883, 29.74984
459.8704, 29.20584
460.3525, 28.86808
460.8346, 29.08853
461.3167, 29.53549
461.7989, 29.75873
462.2810, 29.58411
462.7631, 29.26433
463.2452, 29.22071
463.7273, 29.51942
464.2094, 29.70122
464.6916, 29.68745
465.1737, 29.55170
465.6558, 29.19216
466.1379, 28.71845
466.6200, 28.49742
467.1021, 28.92936
467.5843, 29.65448
468.0664, 29.85558
468.5485, 29.43826
469.0306, 29.20474
469.5127, 29.70198
469.9948, 30.48605
470.4770, 30.84129
470.9591, 30.65560
471.4412, 30.37653
471.9233, 30.15182
472.4054, 30.00317
472.8875, 29.99216
473.3697, 30.13467
473.8518, 30.34526
474.3339, 30.58905
474.8160, 30.85443
475.2981, 30.92700
475.7802, 30.49051
476.2624, 30.19751
476.7445, 30.51467
477.2266, 31.15542
477.7087, 31.56271
478.1908, 31.51664
478.6729, 31.20290
479.1551, 30.94477
479.6372, 30.72676
480.1193, 30.61012
480.6014, 30.58927
481.0835, 30.65870
481.5656, 30.90308
482.0478, 31.24070
482.5299, 31.46533
483.0120, 31.42432
483.4941, 31.20146
483.9762, 31.13873
484.4583, 31.40276
484.9405, 31.48118
485.4226, 31.13258
485.9047, 30.67253
486.3868, 30.34578
486.8689, 30.18126
487.3510, 30.04555
487.8332, 29.79996
488.3153, 29.48115
488.7974, 29.26689
489.2795, 29.18423
489.7616, 29.15648
490.2437, 29.16353
490.7259, 29.18970
491.2080, 29.22552
491.6901, 29.31415
492.1722, 29.32217
492.6543, 29.08650
493.1364, 28.68978
493.6186, 28.36618
494.1007, 28.17141
494.5828, 28.07067
495.0649, 28.04806
495.5470, 28.11449
496.0291, 28.12441
496.5113, 28.07800
496.9934, 27.96951
497.4755, 27.78427
497.9576, 27.53453
498.4397, 27.18633
498.9218, 26.70885
499.4040, 26.28147
499.8861, 26.35559
500.3682, 27.52748
500.8503, 28.08759
501.3324, 27.58798
501.8145, 26.93578
502.2967, 26.66528
502.7788, 26.75207
503.2609, 26.90200
503.7430, 26.91469
504.2251, 26.82850
504.7072, 26.78942
505.1894, 26.80268
505.6715, 26.85209
506.1536, 27.03235
506.6357, 27.18176
507.1178, 27.11859
507.5999, 26.83568
508.0821, 26.58764
508.5642, 26.59223
509.0463, 26.77585
509.5284, 26.94259
510.0105, 27.09534
510.4926, 27.16556
510.9748, 27.06397
511.4569, 26.85872
511.9390, 26.71272
512.4211, 26.64848
512.9032, 26.61981
513.3853, 26.68285
513.8674, 26.74557
514.3495, 26.57066
514.8317, 26.10541
515.3138, 25.71698
515.7959, 25.85387
516.2780, 26.58483
516.7601, 26.74372
517.2422, 25.80742
517.7244, 24.98287
518.2065, 24.67898
518.6886, 24.73872
519.1707, 24.96538
519.6528, 25.27454
520.1349, 25.58220
520.6171, 25.75668
521.0992, 25.77609
521.5813, 25.75243
522.0634, 25.66358
522.5455, 25.55066
523.0276, 25.34006
523.5098, 25.12942
523.9919, 25.12567
524.4740, 25.47335
524.9561, 25.91114
525.4382, 26.04444
525.9203, 25.86713
526.4025, 25.66537
526.8846, 25.45924
527.3667, 25.31119
527.8488, 25.25555
528.3309, 25.29374
528.8130, 25.46693
529.2952, 25.98135
529.7773, 26.48723
530.2594, 26.59229
530.7415, 26.37585
531.2236, 26.22401
531.7057, 26.30952
532.1879, 26.54530
532.6700, 26.78466
533.1521, 27.12456
533.6342, 27.22449
534.1163, 26.81594
534.5984, 26.38870
535.0806, 26.23782
535.5627, 26.35031
536.0448, 26.60214
536.5269, 26.92211
537.0090, 27.30215
537.4911, 27.72820
537.9733, 28.27665
538.4554, 28.70752
538.9375, 28.87880
539.4196, 29.02398
539.9017, 29.26071
540.3839, 29.60245
540.8660, 30.03568
541.3481, 30.61366
541.8302, 31.24349
542.3123, 31.71335
542.7944, 32.01228
543.2766, 32.24175
543.7587, 32.41987
544.2408, 32.56142
544.7229, 32.72358
545.2050, 32.92818
545.6871, 32.97769
546.1693, 32.56049
546.6514, 32.10510
547.1335, 32.12973
547.6156, 32.61370
548.0977, 33.21177
548.5798, 33.75973
549.0620, 34.19725
549.5441, 34.31874
550.0262, 33.87436
550.5083, 33.42599
550.9904, 33.09478
551.4725, 32.66820
551.9547, 31.83211
552.4368, 30.71043
552.9189, 29.79328
553.4010, 29.49016
553.8831, 29.63124
554.3652, 29.50453
554.8474, 28.93077
555.3295, 28.54471
555.8116, 28.85807
556.2937, 29.17437
556.7758, 28.88341
557.2579, 27.99830
557.7401, 27.17850
558.2222, 26.79524
558.7043, 26.73148
559.1864, 26.89269
559.6685, 27.27606
560.1506, 27.45101
560.6328, 27.11480
561.1149, 26.53110
561.5970, 26.28156
562.0791, 26.42263
562.5612, 26.63168
563.0433, 26.98126
563.5255, 27.27732
564.0076, 27.31202
564.4897, 27.12482
564.9718, 26.90312
565.4539, 26.75136
565.9360, 26.70250
566.4182, 26.90034
566.9003, 27.64300
567.3824, 28.06529
567.8645, 27.92801
568.3466, 27.64689
568.8287, 27.38174
569.3109, 27.19694
569.7930, 27.21060
570.2751, 27.58783
570.7572, 28.11248
571.2393, 28.30657
571.7214, 28.14672
572.2036, 27.92885
572.6857, 27.68009
573.1678, 27.48567
573.6499, 27.50331
574.1320, 27.72633
574.6141, 27.80713
575.0963, 27.50607
575.5784, 27.13956
576.0605, 26.95918
576.5426, 26.95081
577.0247, 27.05181
577.5068, 27.24745
577.9890, 27.44788
578.4711, 27.46109
578.9532, 27.09935
579.4353, 27.03975
579.9174, 27.50694
580.3995, 28.01190
580.8817, 28.39388
581.3638, 28.62484
581.8459, 28.66686
582.3280, 28.48851
582.8101, 28.22421
583.2922, 28.12418
583.7744, 28.20907
584.2565, 28.13310
584.7386, 27.69945
585.2207, 27.31241
585.7029, 27.34951
586.1850, 27.65012
586.6671, 27.79393
