##NAMES=Willemite
##RRUFFID=R050652
##IDEAL CHEMISTRY=Zn^2+^_2_SiO_4_
##LOCALITY=Franklin Furnace, Sussex County, New Jersey, USA
##OWNER=RRUFF
##SOURCE=University of Arizona Mineral Museum
##DESCRIPTION=Parallel aggregate of colorless acicular crystals
##STATUS=The identification of this mineral has been confirmed by X-ray diffraction and chemical analysis
##URL=rruff.info/R050652
##MEASURED CHEMISTRY=(Zn_1.99_Mn_0.01_)_Î£=2_Si_1.00_O_4_
92.02539, 243.9175
92.50751, 256.5789
92.98962, 264.3341
93.47174, 259.1360
93.95386, 248.3394
94.43597, 236.7522
94.91809, 226.4487
95.40021, 217.4335
95.88232, 208.9275
96.36444, 200.8353
96.84656, 193.4195
97.32867, 186.9514
97.81078, 181.2243
98.29290, 175.8704
98.77502, 170.4010
99.25713, 164.3725
99.73925, 159.6787
100.2214, 157.4436
100.7035, 155.2156
101.1856, 151.7892
101.6677, 147.1194
102.1498, 142.0088
102.6320, 137.3655
103.1141, 133.1088
103.5962, 129.6591
104.0783, 127.2002
104.5604, 125.4113
105.0425, 123.9574
105.5247, 122.7115
106.0068, 121.8092
106.4889, 121.4312
106.9710, 121.4378
107.4531, 122.0610
107.9352, 123.0299
108.4173, 124.5191
108.8995, 127.6273
109.3816, 133.5878
109.8637, 140.8602
110.3458, 148.4013
110.8279, 156.6390
111.3100, 163.2860
111.7922, 165.5585
112.2743, 162.9039
112.7564, 157.3550
113.2385, 147.4331
113.7206, 136.1410
114.2027, 125.8685
114.6849, 117.7043
115.1670, 111.3305
115.6491, 105.8359
116.1312, 101.9104
116.6133, 98.10068
117.0954, 93.89555
117.5776, 89.65273
118.0597, 85.91821
118.5418, 83.06740
119.0239, 81.10397
119.5060, 79.51936
119.9881, 78.40870
120.4703, 77.49090
120.9524, 76.68515
121.4345, 75.97798
121.9166, 75.38920
122.3987, 75.00575
122.8808, 74.87411
123.3630, 74.34435
123.8451, 72.93054
124.3272, 71.36301
124.8093, 70.42319
125.2914, 70.28321
125.7735, 70.43274
126.2557, 70.23585
126.7378, 69.77939
127.2199, 69.56640
127.7020, 70.07235
128.1841, 71.01856
128.6662, 71.46078
129.1483, 70.95260
129.6305, 70.25014
130.1126, 70.07085
130.5947, 70.35362
131.0768, 70.49236
131.5589, 69.82178
132.0410, 68.20788
132.5232, 66.88535
133.0053, 66.06097
133.4874, 65.53825
133.9695, 65.37269
134.4516, 65.52921
134.9337, 65.75825
135.4159, 65.61275
135.8980, 64.61059
136.3801, 64.17767
136.8622, 64.46681
137.3443, 65.19997
137.8264, 66.29028
138.3086, 67.68159
138.7907, 69.16900
139.2728, 70.15475
139.7549, 70.27113
140.2370, 70.28002
140.7191, 70.24706
141.2013, 70.13870
141.6834, 69.79634
142.1655, 69.05648
142.6476, 68.15599
143.1297, 68.16489
143.6118, 69.76323
144.0939, 71.34863
144.5761, 72.65121
145.0582, 73.54513
145.5403, 73.39864
146.0224, 71.49197
146.5045, 68.26750
146.9866, 65.33198
147.4688, 62.59075
147.9509, 60.29268
148.4330, 58.73878
148.9151, 57.98389
149.3972, 57.62606
149.8793, 57.68520
150.3615, 57.94361
150.8436, 58.16880
151.3257, 58.36745
151.8078, 58.43743
152.2899, 58.06767
152.7720, 56.91053
153.2542, 55.92132
153.7363, 55.38892
154.2184, 55.25029
154.7005, 55.45559
155.1826, 56.10035
155.6647, 57.10493
156.1469, 57.61683
156.6290, 57.00797
157.1111, 56.48264
157.5932, 56.31145
158.0753, 56.47297
158.5574, 56.86793
159.0396, 57.43801
159.5217, 58.20993
160.0038, 58.91169
160.4859, 59.62519
160.9680, 60.21181
161.4501, 60.71539
161.9323, 61.07130
162.4144, 61.05537
162.8965, 60.36102
163.3786, 58.69479
163.8607, 57.66722
164.3428, 57.74310
164.8250, 58.07727
165.3071, 58.05344
165.7892, 57.57881
166.2713, 56.97936
166.7534, 56.64022
167.2355, 56.59976
167.7177, 56.56426
168.1998, 56.35543
168.6819, 56.18671
169.1640, 56.40942
169.6461, 57.16722
170.1282, 58.04824
170.6104, 58.46479
171.0925, 58.47528
171.5746, 58.61189
172.0567, 58.92295
172.5388, 59.49984
173.0209, 60.71348
173.5031, 63.01649
173.9852, 65.44557
174.4673, 67.35403
174.9494, 68.73766
175.4315, 69.53262
175.9136, 69.67310
176.3958, 69.16506
176.8779, 68.08236
177.3600, 65.84160
177.8421, 63.48917
178.3242, 61.59546
178.8063, 60.18436
179.2885, 59.03004
179.7706, 57.85657
180.2527, 56.58127
180.7348, 55.65812
181.2169, 55.28594
181.6990, 55.13620
182.1812, 55.13276
182.6633, 55.22602
183.1454, 55.31983
183.6275, 55.21597
184.1096, 54.57381
184.5917, 54.50083
185.0738, 55.34450
185.5560, 56.41356
186.0381, 57.18553
186.5202, 57.54429
187.0023, 57.78427
187.4844, 58.40314
187.9665, 59.65347
188.4487, 60.93555
188.9308, 62.10327
189.4129, 63.36068
189.8950, 65.06435
190.3771, 67.31098
190.8592, 69.64155
191.3414, 71.14780
191.8235, 71.68298
192.3056, 71.64626
192.7877, 70.96815
193.2698, 69.76508
193.7519, 68.03539
194.2341, 65.68356
194.7162, 63.13928
195.1983, 61.35504
195.6804, 60.43711
196.1625, 59.59297
196.6446, 58.39115
197.1268, 57.08536
197.6089, 56.35052
198.0910, 56.63662
198.5731, 57.23694
199.0552, 56.97609
199.5373, 55.73558
200.0195, 54.45488
200.5016, 53.66310
200.9837, 53.27410
201.4658, 52.85469
201.9479, 52.25560
202.4300, 51.59454
202.9122, 50.95348
203.3943, 50.31598
203.8764, 49.86256
204.3585, 49.71451
204.8406, 49.87041
205.3227, 50.35062
205.8048, 51.85297
206.2870, 53.13708
206.7691, 53.09479
207.2512, 51.62368
207.7333, 49.88231
208.2154, 49.20086
208.6975, 49.80602
209.1797, 50.12357
209.6618, 49.58667
210.1439, 48.88713
210.6260, 48.30079
211.1081, 47.90534
211.5902, 47.75277
212.0724, 47.95898
212.5545, 48.64527
213.0366, 49.32668
213.5187, 49.98219
214.0008, 50.61071
214.4829, 51.27410
214.9651, 51.95540
215.4472, 52.52406
215.9293, 52.78691
216.4114, 52.68351
216.8935, 52.35329
217.3756, 51.63161
217.8578, 50.84518
218.3399, 50.17931
218.8220, 49.69184
219.3041, 49.35952
219.7862, 49.18211
220.2683, 49.42478
220.7505, 49.27371
221.2326, 48.37067
221.7147, 47.34075
222.1968, 46.64421
222.6789, 46.39529
223.1610, 46.44436
223.6432, 46.60038
224.1253, 47.06108
224.6074, 47.17357
225.0895, 46.71114
225.5716, 46.03272
226.0537, 45.32031
226.5358, 44.63696
227.0180, 44.24381
227.5001, 44.63199
227.9822, 46.23896
228.4643, 47.19613
228.9464, 46.89469
229.4285, 46.11870
229.9107, 45.65863
230.3928, 45.69021
230.8749, 45.99829
231.3570, 46.38171
231.8391, 46.85925
232.3212, 47.21767
232.8034, 47.39423
233.2855, 47.44368
233.7676, 47.41158
234.2497, 47.29574
234.7318, 47.15908
235.2139, 47.03953
235.6961, 46.93842
236.1782, 46.94902
236.6603, 47.51842
237.1424, 48.08722
237.6245, 47.55337
238.1066, 45.45989
238.5888, 43.34167
239.0709, 42.91475
239.5530, 43.69910
240.0351, 44.28861
240.5172, 44.12073
240.9993, 43.46708
241.4815, 42.77769
241.9636, 41.99869
242.4457, 41.39433
242.9278, 41.15216
243.4099, 41.20740
243.8920, 41.49153
244.3742, 42.22298
244.8563, 43.12682
245.3384, 43.51632
245.8205, 43.19460
246.3026, 42.79024
246.7847, 42.71539
247.2668, 42.79458
247.7490, 42.72499
248.2311, 42.24411
248.7132, 41.58849
249.1953, 41.42036
249.6774, 42.09089
250.1595, 42.52741
250.6417, 42.21582
251.1238, 41.45757
251.6059, 40.57436
252.0880, 39.63339
252.5701, 38.75348
253.0522, 38.24250
253.5344, 38.22906
254.0165, 38.36341
254.4986, 38.64486
254.9807, 38.95081
255.4628, 39.09819
255.9449, 38.97206
256.4271, 38.77468
256.9092, 39.09688
257.3913, 40.58332
257.8734, 41.31343
258.3555, 40.23214
258.8376, 38.68238
259.3198, 38.02246
259.8019, 38.79381
260.2840, 40.28306
260.7661, 40.97161
261.2482, 40.35966
261.7303, 39.86246
262.2125, 39.54420
262.6946, 39.44231
263.1767, 39.68029
263.6588, 40.27419
264.1409, 40.98181
264.6230, 41.34834
265.1052, 41.08690
265.5873, 41.04225
266.0694, 41.45911
266.5515, 41.93450
267.0336, 42.11415
267.5157, 41.94475
267.9979, 41.69670
268.4800, 41.81452
268.9621, 42.65081
269.4442, 43.06912
269.9263, 42.75612
270.4084, 42.34173
270.8906, 42.24477
271.3727, 42.51147
271.8548, 42.90008
272.3369, 43.11143
272.8190, 43.05947
273.3011, 43.11355
273.7833, 43.39317
274.2654, 43.65900
274.7475, 43.73359
275.2296, 43.64048
275.7117, 43.54197
276.1938, 43.58638
276.6760, 43.76817
277.1581, 44.15804
277.6402, 44.64343
278.1223, 45.38191
278.6044, 46.65615
279.0865, 48.30402
279.5686, 49.80790
280.0508, 50.71357
280.5329, 50.99984
281.0150, 51.64298
281.4971, 53.21230
281.9792, 54.49287
282.4613, 54.85664
282.9435, 54.55635
283.4256, 54.28786
283.9077, 54.54926
284.3898, 55.21194
284.8719, 55.08196
285.3540, 53.74927
285.8362, 52.22623
286.3183, 50.47977
286.8004, 48.75179
287.2825, 47.52140
287.7646, 47.08358
288.2467, 47.16282
288.7289, 46.77619
289.2110, 45.31574
289.6931, 44.17711
290.1752, 43.66627
290.6573, 43.58357
291.1394, 43.71258
291.6216, 43.98143
292.1037, 44.30544
292.5858, 44.50000
293.0679, 44.41225
293.5500, 44.49064
294.0321, 44.83339
294.5143, 45.34061
294.9964, 46.00536
295.4785, 46.82483
295.9606, 47.51575
296.4427, 47.57959
296.9248, 46.58059
297.4070, 46.34556
297.8891, 47.87170
298.3712, 49.62939
298.8533, 50.25217
299.3354, 49.54422
299.8175, 48.14420
300.2997, 46.57225
300.7818, 44.77157
301.2639, 43.37485
301.7460, 42.72868
302.2281, 42.21535
302.7102, 41.35043
303.1924, 40.16063
303.6745, 39.04782
304.1566, 38.33205
304.6387, 38.00177
305.1208, 37.58384
305.6029, 36.92538
306.0851, 36.33190
306.5672, 35.90104
307.0493, 35.65148
307.5314, 35.66273
308.0135, 36.04362
308.4956, 36.66960
308.9778, 36.98765
309.4599, 37.02045
309.9420, 36.79448
310.4241, 36.07146
310.9062, 35.11333
311.3883, 34.45065
311.8705, 34.31956
312.3526, 34.54027
312.8347, 34.76078
313.3168, 35.05886
313.7989, 35.18911
314.2810, 34.99284
314.7632, 34.63942
315.2453, 34.26293
315.7274, 33.88614
316.2095, 33.73212
316.6916, 34.23632
317.1737, 35.66433
317.6559, 36.54371
318.1380, 36.50770
318.6201, 36.02255
319.1022, 35.29859
319.5843, 34.41436
320.0664, 33.86482
320.5485, 34.25844
321.0306, 35.68972
321.5128, 36.42840
321.9949, 36.16042
322.4770, 35.49600
322.9591, 34.53144
323.4412, 33.42240
323.9233, 32.74490
324.4055, 32.99270
324.8876, 33.99577
325.3697, 34.47942
325.8518, 33.99972
326.3339, 33.57026
326.8160, 33.66306
327.2982, 34.08330
327.7803, 34.39339
328.2624, 34.38250
328.7445, 34.16161
329.2266, 34.00290
329.7087, 33.75151
330.1909, 33.81425
330.6730, 34.71613
331.1551, 35.81800
331.6372, 36.13856
332.1193, 35.38147
332.6014, 34.32087
333.0836, 34.14935
333.5657, 35.42609
334.0478, 35.88122
334.5299, 34.57582
335.0120, 32.98826
335.4941, 32.42038
335.9763, 32.97782
336.4584, 33.80503
336.9405, 34.09151
337.4226, 33.77060
337.9047, 33.75566
338.3868, 34.49926
338.8690, 35.09132
339.3511, 34.89139
339.8332, 34.10799
340.3153, 33.45839
340.7974, 33.43305
341.2795, 33.89217
341.7617, 33.92696
342.2438, 32.94414
342.7259, 32.29965
343.2080, 32.44459
343.6901, 33.08023
344.1722, 33.85028
344.6544, 34.61609
345.1365, 35.24334
345.6186, 35.43200
346.1007, 34.58525
346.5828, 34.21097
347.0649, 34.76463
347.5471, 35.53511
348.0292, 35.93935
348.5113, 35.85202
348.9934, 35.43508
349.4755, 34.82416
349.9576, 33.86258
350.4398, 33.40040
350.9219, 33.68771
351.4040, 34.15932
351.8861, 34.53734
352.3682, 34.83520
352.8503, 35.25878
353.3325, 36.02414
353.8146, 37.06773
354.2967, 37.36065
354.7788, 35.93274
355.2609, 34.86519
355.7430, 34.76974
356.2252, 35.25365
356.7073, 35.72664
357.1894, 35.90801
357.6715, 35.96846
358.1536, 36.36943
358.6357, 37.64482
359.1179, 38.43101
359.5999, 38.33954
360.0821, 37.99847
360.5642, 37.91689
361.0463, 38.19309
361.5284, 38.58126
362.0105, 38.74788
362.4926, 38.57020
362.9748, 38.65480
363.4569, 39.19043
363.9390, 39.79237
364.4211, 40.45887
364.9032, 41.06938
365.3853, 41.31788
365.8675, 40.86485
366.3496, 39.84709
366.8317, 39.60475
367.3138, 40.81163
367.7959, 41.98604
368.2780, 42.89198
368.7602, 43.55132
369.2423, 43.92585
369.7244, 43.98074
370.2065, 43.97021
370.6886, 44.49216
371.1707, 45.92345
371.6529, 46.92044
372.1350, 46.90476
372.6171, 46.70535
373.0992, 46.83312
373.5813, 47.36704
374.0634, 48.10548
374.5456, 48.83095
375.0277, 49.53238
375.5098, 50.43969
375.9919, 51.80099
376.4740, 53.10518
376.9561, 54.05106
377.4383, 54.76224
377.9204, 55.53237
378.4025, 56.59553
378.8846, 57.80108
379.3667, 58.74146
379.8488, 59.39117
380.3310, 59.83244
380.8131, 59.91972
381.2952, 59.90038
381.7773, 60.10490
382.2594, 60.69263
382.7415, 61.16107
383.2237, 60.83355
383.7058, 59.71550
384.1879, 58.75366
384.6700, 58.38353
385.1521, 58.01442
385.6342, 56.88858
386.1164, 55.09260
386.5985, 53.75483
387.0806, 53.93204
387.5627, 54.98468
388.0448, 55.34863
388.5269, 54.78239
389.0091, 53.92012
389.4912, 52.98109
389.9733, 52.09319
390.4554, 51.60284
390.9375, 51.93426
391.4196, 52.36375
391.9018, 52.12376
392.3839, 51.29376
392.8660, 50.56498
393.3481, 50.09850
393.8302, 50.06495
394.3123, 50.91858
394.7945, 53.09054
395.2766, 54.69744
395.7587, 54.46207
396.2408, 53.31331
396.7229, 52.94175
397.2050, 53.78124
397.6872, 54.82338
398.1693, 54.94926
398.6514, 54.06139
399.1335, 53.17622
399.6156, 52.21959
400.0977, 51.36402
400.5798, 50.94456
401.0620, 50.80810
401.5441, 50.28462
402.0262, 48.90918
402.5083, 46.85771
402.9904, 45.03758
403.4725, 43.27011
403.9547, 41.90742
404.4368, 41.34788
404.9189, 41.10399
405.4010, 40.52293
405.8831, 39.41578
406.3652, 38.13495
406.8474, 37.20646
407.3295, 36.79841
407.8116, 36.28627
408.2937, 35.52095
408.7758, 34.79737
409.2579, 34.28503
409.7401, 33.96526
410.2222, 33.73102
410.7043, 33.51019
411.1864, 33.29833
411.6685, 33.05159
412.1506, 32.83671
412.6328, 32.49380
413.1149, 31.74107
413.5970, 30.96576
414.0791, 30.69987
414.5612, 31.10118
415.0433, 31.67723
415.5255, 31.55931
416.0076, 30.40906
416.4897, 29.73681
416.9718, 30.19739
417.4539, 30.67948
417.9360, 30.55072
418.4182, 29.94474
418.9003, 29.45984
419.3824, 29.59226
419.8645, 30.18429
420.3466, 30.52330
420.8287, 30.51238
421.3109, 30.44097
421.7930, 30.37986
422.2751, 30.34386
422.7572, 30.40280
423.2393, 30.61932
423.7214, 30.72779
424.2036, 30.30453
424.6857, 29.37955
425.1678, 28.71869
425.6499, 28.52065
426.1320, 28.61850
426.6141, 29.06489
427.0963, 29.77064
427.5784, 29.98431
428.0605, 28.86545
428.5426, 27.27452
429.0247, 26.61332
429.5068, 26.99044
429.9890, 27.57285
430.4711, 27.86806
430.9532, 27.97577
431.4353, 28.25722
431.9174, 28.99135
432.3995, 29.48675
432.8817, 29.33152
433.3638, 28.69412
433.8459, 27.80461
434.3280, 26.68147
434.8101, 25.68319
435.2922, 25.36487
435.7744, 25.93342
436.2565, 26.39562
436.7386, 26.88449
437.2207, 27.12551
437.7028, 26.68434
438.1849, 25.74778
438.6671, 25.03174
439.1492, 25.03129
439.6313, 25.63584
440.1134, 26.20167
440.5955, 27.21778
441.0776, 27.57749
441.5598, 26.48289
442.0418, 25.01571
442.5240, 24.35278
443.0061, 24.76471
443.4882, 25.58416
443.9703, 25.89458
444.4524, 25.47534
444.9345, 25.59192
445.4167, 27.27536
445.8988, 28.47611
446.3809, 28.11038
446.8630, 26.74495
447.3451, 25.48346
447.8272, 24.92822
448.3094, 24.93461
448.7915, 25.24011
449.2736, 26.04829
449.7557, 26.56946
450.2378, 26.31122
450.7199, 25.89551
451.2021, 25.75377
451.6842, 25.93322
452.1663, 26.21061
452.6484, 26.55505
453.1305, 26.88358
453.6126, 26.69263
454.0948, 25.66480
454.5769, 24.81115
455.0590, 25.19248
455.5411, 26.17738
456.0232, 26.62954
456.5053, 26.00143
456.9875, 25.18388
457.4696, 24.85207
457.9517, 24.95947
458.4338, 25.34335
458.9159, 26.04711
459.3980, 26.81756
459.8802, 27.22253
460.3623, 27.23043
460.8444, 27.32062
461.3265, 27.72228
461.8086, 28.14173
462.2907, 28.31803
462.7729, 28.24655
463.2550, 28.03994
463.7371, 27.75116
464.2192, 27.40343
464.7013, 27.12305
465.1834, 26.91891
465.6656, 26.76506
466.1477, 26.66519
466.6298, 26.60901
467.1119, 26.62304
467.5940, 26.69658
468.0761, 26.72106
468.5583, 26.52550
469.0404, 26.02494
469.5225, 25.85042
470.0046, 26.33033
470.4867, 26.80173
470.9688, 27.20002
471.4510, 27.42539
471.9331, 27.23281
472.4152, 26.45098
472.8973, 25.56023
473.3794, 25.55708
473.8615, 26.66298
474.3437, 27.72068
474.8258, 28.89225
475.3079, 29.62057
475.7900, 29.24914
476.2721, 27.97301
476.7542, 26.87644
477.2364, 26.73509
477.7185, 27.21807
478.2006, 27.60023
478.6827, 27.86738
479.1648, 28.09082
479.6469, 28.28510
480.1291, 28.46717
480.6112, 28.69434
481.0933, 29.03824
481.5754, 29.23278
482.0575, 29.14857
482.5396, 28.82171
483.0217, 28.14733
483.5038, 27.07432
483.9860, 26.28916
484.4681, 26.61463
484.9502, 28.10045
485.4323, 28.78529
485.9144, 28.06971
486.3965, 27.24417
486.8787, 26.77983
487.3608, 26.60154
487.8429, 26.54310
488.3250, 26.53669
488.8071, 26.58695
489.2892, 26.71907
489.7714, 27.04325
490.2535, 27.17201
490.7356, 27.07181
491.2177, 26.84307
491.6998, 26.46476
492.1819, 26.00035
492.6641, 25.58440
493.1462, 25.31653
493.6283, 25.12550
494.1104, 24.80939
494.5925, 24.36469
495.0746, 23.80630
495.5568, 22.84629
496.0389, 21.98179
496.5210, 21.57606
497.0031, 21.64944
497.4852, 21.97453
497.9673, 22.64726
498.4495, 23.43373
498.9316, 23.60215
499.4137, 23.01845
499.8958, 22.31861
500.3779, 21.70794
500.8600, 21.28130
501.3422, 21.22474
501.8243, 21.66764
502.3064, 22.21609
502.7885, 22.86619
503.2706, 23.44380
503.7527, 23.58915
504.2349, 23.21973
504.7170, 22.62869
505.1991, 22.02624
505.6812, 21.39771
506.1633, 21.23230
506.6454, 21.97678
507.1276, 22.63416
507.6097, 22.89762
508.0918, 22.82089
508.5739, 22.43312
509.0560, 21.76022
509.5381, 21.00661
510.0203, 20.50172
510.5024, 20.30014
510.9845, 20.15943
511.4666, 20.07219
511.9487, 20.05414
512.4308, 20.05661
512.9130, 20.14068
513.3951, 20.48342
513.8772, 21.25295
514.3593, 22.08962
514.8414, 22.19355
515.3235, 21.41992
515.8057, 21.05179
516.2878, 21.74775
516.7699, 22.57465
517.2520, 22.70074
517.7341, 22.20473
518.2162, 21.71089
518.6984, 21.49825
519.1805, 21.41891
519.6626, 21.30477
520.1447, 21.15183
520.6268, 20.93486
521.1089, 20.57432
521.5911, 20.22125
522.0732, 20.27687
522.5553, 20.87016
523.0374, 21.40431
523.5195, 21.77956
524.0016, 22.05499
524.4838, 22.29638
524.9659, 22.49270
525.4480, 22.56551
525.9301, 22.44922
526.4122, 22.17476
526.8943, 21.88542
527.3765, 21.40045
527.8586, 21.18079
528.3407, 21.40653
528.8228, 21.79650
529.3049, 22.21829
529.7870, 22.59878
530.2692, 22.78429
530.7513, 22.50155
531.2334, 21.89004
531.7155, 21.83440
532.1976, 22.55452
532.6797, 23.31985
533.1619, 23.84412
533.6440, 24.24671
534.1261, 24.64525
534.6082, 25.05932
535.0903, 25.44178
535.5724, 25.86493
536.0546, 26.21588
536.5367, 26.14698
537.0188, 25.58011
537.5009, 25.11151
537.9830, 25.29613
538.4651, 25.94947
538.9473, 26.03776
539.4294, 24.72499
539.9115, 23.94938
540.3936, 24.60457
540.8757, 25.92413
541.3578, 27.15082
541.8400, 28.05203
542.3221, 28.46352
542.8042, 28.11818
543.2863, 26.99632
543.7684, 26.33877
544.2505, 26.27688
544.7326, 26.57070
545.2147, 27.39117
545.6968, 28.43523
546.1790, 29.40592
546.6611, 30.22131
547.1432, 30.93556
547.6253, 31.61843
548.1074, 32.26128
548.5895, 32.69996
549.0717, 32.82621
549.5538, 32.96695
550.0359, 33.55936
550.5180, 34.22713
551.0001, 34.33114
551.4822, 33.57660
551.9644, 32.71891
552.4465, 32.26576
552.9286, 32.03713
553.4107, 31.64767
553.8928, 31.02031
554.3749, 30.35435
554.8571, 29.88222
555.3392, 29.58406
555.8213, 28.83824
556.3034, 27.22763
556.7855, 25.74807
557.2676, 24.52171
557.7498, 23.62082
558.2319, 23.25796
558.7140, 23.41494
559.1961, 23.67376
559.6782, 23.51625
560.1603, 22.93327
560.6425, 22.82380
561.1246, 23.71448
561.6067, 24.30239
562.0888, 24.05897
562.5709, 23.40334
563.0530, 22.74633
563.5352, 22.18089
564.0173, 21.76250
564.4994, 21.53376
564.9815, 21.48984
565.4636, 21.66971
565.9457, 22.12558
566.4279, 22.56667
566.9100, 22.89494
567.3921, 23.02573
567.8742, 22.72035
568.3563, 21.53125
568.8384, 20.65294
569.3206, 20.71001
569.8027, 21.18798
570.2848, 21.50560
570.7669, 21.55839
571.2490, 21.47339
571.7311, 21.32893
572.2133, 21.14834
572.6954, 21.19845
573.1775, 21.69567
573.6596, 22.13473
574.1417, 22.59855
574.6238, 22.88532
575.1060, 22.66415
575.5881, 21.99327
576.0702, 21.44595
576.5523, 21.66189
577.0344, 22.36892
577.5165, 22.43137
577.9987, 21.64073
578.4808, 21.13822
578.9629, 21.65627
579.4450, 22.56349
579.9271, 22.97671
580.4092, 22.83608
580.8914, 22.53336
581.3735, 21.95755
581.8556, 21.45542
582.3377, 21.48831
582.8198, 22.01077
583.3019, 22.64199
583.7841, 23.20376
584.2662, 23.62381
584.7483, 23.68320
585.2304, 22.82266
585.7125, 22.53724
586.1946, 23.42872
586.6768, 24.32602
587.1589, 24.38158
587.6410, 23.81502
