##NAMES=Wiluite
##RRUFFID=R060513
##IDEAL CHEMISTRY=Ca_19_(Al,Mg)_13_(B,[box],Al)_5_(SiO_4_)_10_(Si_2_O_7_)_4_(O,OH)_10_
##LOCALITY=Wilui River, Sakha Republic, Russian Federation
##OWNER=RRUFF
##SOURCE=Michael Scott
##DESCRIPTION=Dark green tetragonal prismatic
##STATUS=The identification of this mineral has been confirmed by X-ray diffraction and chemical analysis
##URL=rruff.info/R060513
##MEASURED CHEMISTRY=Ca_19.00_(Al_7.90_Mg_4.67_Ti_0.43_)_Σ=13_(B_3.00_[box]_2.00_)_Σ=5_Si_18.00_O_68_(O_7.76_(OH)_2.24_)_Σ=10_ ; B not measured but estimated by charge balance.
92.37695, 920.5558
92.85907, 905.1579
93.34119, 908.5713
93.82330, 923.8270
94.30542, 936.3491
94.78754, 942.0200
95.26965, 943.0695
95.75177, 942.3939
96.23389, 941.1680
96.71600, 939.3245
97.19812, 937.5785
97.68024, 936.3632
98.16235, 935.0590
98.64447, 932.6703
99.12659, 928.8607
99.60870, 922.9197
100.0908, 917.0859
100.5729, 911.9519
101.0551, 907.7648
101.5372, 904.5336
102.0193, 901.9920
102.5014, 899.3962
102.9835, 895.3426
103.4656, 892.4909
103.9478, 891.8244
104.4299, 892.6077
104.9120, 893.4697
105.3941, 893.2823
105.8762, 891.8596
106.3583, 891.0168
106.8405, 890.9225
107.3226, 890.8584
107.8047, 890.5409
108.2868, 889.9047
108.7689, 888.8237
109.2510, 886.8688
109.7332, 883.9084
110.2153, 881.7986
110.6974, 881.2369
111.1795, 881.5322
111.6616, 881.5933
112.1437, 881.0388
112.6259, 880.5580
113.1080, 881.0452
113.5901, 882.4155
114.0722, 883.7107
114.5543, 884.3405
115.0364, 884.3257
115.5185, 884.0850
116.0007, 883.5048
116.4828, 882.8434
116.9649, 882.2939
117.4470, 881.8776
117.9291, 881.4086
118.4112, 880.6135
118.8934, 879.3578
119.3755, 878.0688
119.8576, 876.6723
120.3397, 875.3168
120.8218, 874.1055
121.3039, 873.0784
121.7861, 872.2172
122.2682, 871.4704
122.7503, 869.6282
123.2324, 870.2664
123.7145, 870.1611
124.1966, 869.3521
124.6788, 865.7321
125.1609, 865.7419
125.6430, 864.2972
126.1251, 862.7928
126.6072, 863.3135
127.0893, 860.1025
127.5715, 860.5909
128.0536, 859.6027
128.5357, 859.2903
129.0178, 857.5144
129.4999, 856.1906
129.9821, 853.8114
130.4642, 853.9183
130.9463, 854.7891
131.4284, 854.4058
131.9105, 852.3995
132.3926, 850.5668
132.8748, 850.6682
133.3569, 851.9230
133.8390, 853.0165
134.3211, 853.2435
134.8032, 852.8568
135.2853, 852.7370
135.7674, 853.0424
136.2496, 853.4390
136.7317, 853.9828
137.2138, 854.5169
137.6959, 854.6544
138.1780, 853.8275
138.6601, 851.8668
139.1423, 850.7762
139.6244, 851.4163
140.1065, 852.2533
140.5886, 853.1343
141.0707, 853.8038
141.5528, 853.7327
142.0350, 852.0392
142.5171, 847.3242
142.9992, 844.7242
143.4813, 845.6273
143.9634, 847.2648
144.4455, 847.7475
144.9277, 846.6318
145.4098, 844.8601
145.8919, 843.9768
146.3740, 844.6842
146.8561, 845.0231
147.3382, 844.6273
147.8204, 843.9145
148.3025, 843.4647
148.7846, 843.5306
149.2667, 843.7510
149.7488, 843.2565
150.2309, 841.8225
150.7131, 840.6124
151.1952, 840.2335
151.6773, 840.4596
152.1594, 840.5596
152.6415, 840.1737
153.1236, 839.6201
153.6058, 839.4264
154.0879, 839.6998
154.5700, 840.0080
155.0521, 840.0221
155.5342, 839.7362
156.0163, 839.2941
156.4985, 838.1583
156.9806, 837.2065
157.4627, 837.3536
157.9448, 838.9572
158.4269, 841.0748
158.9090, 842.2996
159.3912, 842.3273
159.8733, 842.1533
160.3554, 841.8727
160.8375, 841.5994
161.3196, 841.4151
161.8017, 841.3513
162.2839, 841.4252
162.7660, 841.6921
163.2481, 842.2285
163.7302, 842.8913
164.2123, 843.7004
164.6944, 844.6055
165.1766, 845.5114
165.6587, 846.3588
166.1408, 847.1984
166.6229, 848.3949
167.1050, 850.5842
167.5871, 852.4507
168.0693, 853.7342
168.5514, 854.5020
169.0335, 854.8591
169.5156, 854.8066
169.9977, 854.4011
170.4798, 854.4948
170.9620, 856.0999
171.4441, 857.1595
171.9262, 856.4001
172.4083, 854.1110
172.8904, 851.6650
173.3725, 849.9443
173.8547, 849.0165
174.3368, 848.4749
174.8189, 849.1413
175.3010, 849.6263
175.7831, 848.2576
176.2652, 844.9016
176.7474, 842.1122
177.2295, 842.5505
177.7116, 845.0224
178.1937, 846.6147
178.6758, 845.8846
179.1579, 844.2334
179.6401, 843.7291
180.1222, 844.5854
180.6043, 846.0041
181.0864, 847.9207
181.5685, 849.9928
182.0506, 851.6014
182.5328, 852.3336
183.0149, 852.4125
183.4970, 852.5229
183.9791, 852.6801
184.4612, 852.8490
184.9433, 853.5712
185.4255, 854.2740
185.9076, 853.8871
186.3897, 851.3591
186.8718, 846.9537
187.3539, 843.6490
187.8360, 842.5692
188.3182, 841.4883
188.8003, 839.4335
189.2824, 836.8625
189.7645, 834.7222
190.2466, 833.7462
190.7287, 833.9521
191.2109, 834.8588
191.6930, 837.3932
192.1751, 839.7388
192.6572, 841.4664
193.1393, 842.5110
193.6214, 842.8945
194.1036, 842.5685
194.5857, 841.4205
195.0678, 840.4424
195.5499, 839.1153
196.0320, 838.3521
196.5141, 838.7825
196.9963, 840.2707
197.4784, 842.1691
197.9605, 843.9438
198.4426, 845.5949
198.9247, 846.8508
199.4068, 847.3776
199.8890, 847.7988
200.3711, 848.5639
200.8532, 849.6921
201.3353, 850.8417
201.8174, 851.6840
202.2995, 852.1938
202.7817, 852.7949
203.2638, 853.4218
203.7459, 854.1937
204.2280, 855.4768
204.7101, 857.3592
205.1922, 858.8663
205.6744, 858.6071
206.1565, 857.0301
206.6386, 856.3254
207.1207, 857.7675
207.6028, 860.0018
208.0849, 861.0934
208.5671, 860.7051
209.0492, 859.9747
209.5313, 859.7609
210.0134, 859.8904
210.4955, 860.0298
210.9776, 859.8005
211.4598, 859.5289
211.9419, 860.0876
212.4240, 861.9200
212.9061, 863.6614
213.3882, 864.1934
213.8703, 864.0762
214.3525, 864.3729
214.8346, 865.9883
215.3167, 868.4305
215.7988, 869.7832
216.2809, 869.3094
216.7630, 868.8376
217.2451, 869.1377
217.7273, 869.9775
218.2094, 870.9721
218.6915, 871.9576
219.1736, 872.9035
219.6557, 873.5805
220.1378, 873.5259
220.6200, 873.7813
221.1021, 875.2471
221.5842, 877.1534
222.0663, 878.1589
222.5484, 877.1730
223.0305, 874.4979
223.5127, 873.0621
223.9948, 874.5310
224.4769, 875.5804
224.9590, 875.0206
225.4411, 873.6067
225.9232, 872.6912
226.4054, 873.2150
226.8875, 875.0413
227.3696, 876.6056
227.8517, 878.2744
228.3338, 879.2687
228.8159, 878.6885
229.2981, 877.3524
229.7802, 876.7388
230.2623, 877.8767
230.7444, 880.5618
231.2265, 882.4262
231.7086, 882.5811
232.1908, 882.9540
232.6729, 884.3224
233.1550, 886.2538
233.6371, 887.8036
234.1192, 888.3314
234.6013, 888.0439
235.0835, 888.5221
235.5656, 889.9413
236.0477, 891.7529
236.5298, 893.9178
237.0119, 896.3531
237.4940, 899.0662
237.9762, 902.2110
238.4583, 905.4681
238.9404, 907.3207
239.4225, 907.0502
239.9046, 906.4835
240.3867, 905.9634
240.8689, 905.5858
241.3510, 905.6081
241.8331, 906.1932
242.3152, 907.2442
242.7973, 908.3945
243.2794, 909.2748
243.7616, 910.7745
244.2437, 914.0238
244.7258, 918.3276
245.2079, 921.4676
245.6900, 922.2158
246.1721, 921.6240
246.6543, 921.8270
247.1364, 922.8611
247.6185, 924.4318
248.1006, 926.9906
248.5827, 930.1110
249.0648, 932.2468
249.5470, 932.7006
250.0291, 932.0798
250.5112, 931.2333
250.9933, 930.0510
251.4754, 929.2357
251.9576, 929.6248
252.4397, 930.8480
252.9218, 931.2151
253.4039, 929.9421
253.8860, 928.0582
254.3681, 926.6639
254.8503, 925.7469
255.3324, 925.0792
255.8145, 924.9818
256.2966, 925.1864
256.7787, 924.0964
257.2608, 920.3318
257.7430, 916.6830
258.2251, 915.5408
258.7072, 916.6309
259.1893, 918.1240
259.6714, 918.9695
260.1535, 919.2678
260.6357, 919.5609
261.1178, 919.8903
261.5999, 920.2358
262.0820, 920.5546
262.5641, 920.8717
263.0462, 921.2604
263.5284, 922.0363
264.0105, 923.0295
264.4926, 923.1204
264.9747, 921.5076
265.4568, 920.1268
265.9389, 919.6941
266.4211, 920.1363
266.9032, 921.3376
267.3853, 923.4979
267.8674, 926.3387
268.3495, 928.6386
268.8316, 930.0425
269.3138, 931.4113
269.7959, 933.5116
270.2780, 935.7113
270.7601, 936.9785
271.2422, 936.5756
271.7243, 935.0658
272.2065, 934.3162
272.6886, 934.6197
273.1707, 935.2723
273.6528, 936.1590
274.1349, 937.1937
274.6170, 938.2517
275.0992, 939.2703
275.5813, 940.3372
276.0634, 941.7569
276.5455, 944.0871
277.0276, 945.6869
277.5097, 946.0270
277.9919, 945.7687
278.4740, 945.4064
278.9561, 945.1221
279.4382, 945.0164
279.9203, 945.2978
280.4024, 946.1003
280.8846, 947.0325
281.3667, 948.3407
281.8488, 949.5599
282.3309, 950.2577
282.8130, 950.3601
283.2951, 950.2224
283.7773, 950.4659
284.2594, 951.5599
284.7415, 951.8237
285.2236, 949.6036
285.7057, 947.8694
286.1878, 949.2012
286.6700, 953.4073
287.1521, 957.6890
287.6342, 958.4847
288.1163, 954.3826
288.5984, 952.3260
289.0805, 953.7308
289.5627, 955.7231
290.0448, 957.2713
290.5269, 958.2468
291.0090, 958.9049
291.4911, 959.4982
291.9732, 960.0565
292.4554, 960.1332
292.9375, 958.7984
293.4196, 957.9100
293.9017, 958.3235
294.3838, 959.6777
294.8659, 961.1429
295.3481, 962.1442
295.8302, 962.7123
296.3123, 963.1957
296.7944, 963.1436
297.2765, 963.5067
297.7586, 964.8760
298.2408, 966.7044
298.7229, 968.1879
299.2050, 968.8773
299.6871, 968.9155
300.1692, 968.8314
300.6513, 968.3962
301.1335, 968.1242
301.6156, 968.0588
302.0977, 968.1810
302.5798, 968.4402
303.0619, 968.8206
303.5440, 969.3922
304.0262, 970.3322
304.5083, 971.9863
304.9904, 973.5039
305.4725, 975.0930
305.9546, 976.4208
306.4367, 977.2029
306.9189, 977.3785
307.4010, 977.0881
307.8831, 976.3873
308.3652, 974.5657
308.8473, 974.3147
309.3294, 976.5522
309.8116, 979.3256
310.2937, 981.7699
310.7758, 983.6484
311.2579, 984.8312
311.7400, 985.0663
312.2221, 984.1220
312.7043, 983.9059
313.1864, 984.9099
313.6685, 986.0411
314.1506, 987.0378
314.6327, 987.8178
315.1148, 988.2658
315.5970, 988.2403
316.0791, 987.8088
316.5612, 987.8839
317.0433, 989.4070
317.5254, 990.3985
318.0075, 989.7253
318.4897, 988.4064
318.9718, 988.1393
319.4539, 989.8398
319.9360, 992.7643
320.4181, 994.5384
320.9002, 994.1354
321.3824, 993.7361
321.8645, 993.2657
322.3466, 992.9367
322.8287, 993.0585
323.3108, 993.7015
323.7929, 994.5176
324.2751, 994.9411
324.7572, 995.0845
325.2393, 994.5176
325.7214, 991.9141
326.2035, 989.6551
326.6856, 989.8650
327.1678, 992.4804
327.6499, 995.4329
328.1320, 996.4073
328.6141, 994.9037
329.0962, 993.8559
329.5783, 993.8751
330.0605, 993.7075
330.5426, 992.6689
331.0247, 990.9652
331.5068, 989.1761
331.9889, 987.6686
332.4710, 986.4718
332.9532, 986.0929
333.4353, 987.0021
333.9174, 988.2794
334.3995, 990.6287
334.8816, 993.0316
335.3637, 993.6916
335.8459, 991.6257
336.3280, 988.1980
336.8101, 987.6635
337.2922, 993.1534
337.7743, 996.9470
338.2564, 998.0685
338.7386, 997.6348
339.2206, 996.1735
339.7028, 993.9988
340.1849, 991.8834
340.6670, 991.0596
341.1491, 992.0784
341.6312, 993.0568
342.1133, 993.8847
342.5955, 994.7607
343.0776, 995.8321
343.5597, 997.0743
344.0418, 998.3630
344.5239, 999.6569
345.0060, 1000.989
345.4882, 1001.734
345.9703, 1000.679
346.4524, 1000.216
346.9345, 1001.527
347.4166, 1003.850
347.8987, 1005.758
348.3809, 1006.325
348.8630, 1005.902
349.3451, 1005.895
349.8272, 1006.420
350.3093, 1007.225
350.7914, 1008.756
351.2736, 1010.265
351.7557, 1010.776
352.2378, 1009.965
352.7199, 1008.770
353.2020, 1008.960
353.6841, 1011.283
354.1663, 1012.687
354.6484, 1011.326
355.1305, 1010.127
355.6126, 1011.106
356.0947, 1014.232
356.5768, 1017.790
357.0590, 1020.174
357.5411, 1021.334
358.0232, 1022.407
358.5053, 1023.654
358.9874, 1024.493
359.4695, 1024.141
359.9517, 1023.242
360.4338, 1023.164
360.9159, 1025.016
361.3980, 1028.044
361.8801, 1029.933
362.3622, 1030.365
362.8444, 1030.298
363.3265, 1029.545
363.8086, 1028.740
364.2907, 1028.610
364.7728, 1029.425
365.2549, 1030.649
365.7371, 1031.671
366.2192, 1032.490
366.7013, 1033.125
367.1834, 1033.606
367.6655, 1033.854
368.1476, 1033.542
368.6298, 1032.740
369.1119, 1032.380
369.5940, 1033.932
370.0761, 1036.742
370.5582, 1037.208
371.0403, 1033.527
371.5225, 1030.267
372.0046, 1031.221
372.4867, 1034.917
372.9688, 1038.069
373.4509, 1039.462
373.9330, 1039.608
374.4152, 1039.042
374.8973, 1037.695
375.3794, 1036.229
375.8615, 1034.750
376.3436, 1033.467
376.8257, 1032.756
377.3079, 1032.891
377.7900, 1032.987
378.2721, 1032.316
378.7542, 1031.030
379.2363, 1029.710
379.7184, 1028.323
380.2006, 1027.278
380.6827, 1027.142
381.1648, 1027.862
381.6469, 1028.937
382.1290, 1031.086
382.6111, 1033.147
383.0933, 1033.128
383.5754, 1030.717
384.0575, 1027.958
384.5396, 1026.207
385.0217, 1025.550
385.5038, 1025.704
385.9860, 1027.480
386.4681, 1029.333
386.9502, 1030.593
387.4323, 1031.195
387.9144, 1030.772
388.3965, 1028.839
388.8787, 1026.266
389.3608, 1025.500
389.8429, 1027.341
390.3250, 1028.914
390.8071, 1029.267
391.2892, 1029.200
391.7714, 1029.757
392.2535, 1031.155
392.7356, 1032.749
393.2177, 1033.799
393.6998, 1034.202
394.1819, 1034.414
394.6641, 1034.826
395.1462, 1034.721
395.6283, 1033.041
396.1104, 1030.397
396.5925, 1028.599
397.0746, 1028.894
397.5568, 1030.898
398.0389, 1032.508
398.5210, 1033.676
399.0031, 1034.468
399.4852, 1035.124
399.9673, 1035.305
400.4495, 1034.371
400.9316, 1032.207
401.4137, 1029.677
401.8958, 1028.038
402.3779, 1027.302
402.8600, 1027.511
403.3422, 1030.637
403.8243, 1032.828
404.3064, 1031.188
404.7885, 1026.686
405.2706, 1022.666
405.7527, 1021.907
406.2349, 1023.855
406.7170, 1024.043
407.1991, 1020.791
407.6812, 1018.136
408.1633, 1017.838
408.6454, 1018.234
409.1276, 1017.315
409.6097, 1014.336
410.0918, 1010.559
410.5739, 1007.625
411.0560, 1005.508
411.5381, 1004.504
412.0203, 1006.542
412.5024, 1008.146
412.9845, 1006.722
413.4666, 1002.748
413.9487, 999.0258
414.4308, 998.1834
414.9130, 999.2371
415.3951, 998.1816
415.8772, 994.1179
416.3593, 990.1458
416.8414, 988.3851
417.3235, 987.6348
417.8057, 986.2704
418.2878, 983.6714
418.7699, 980.8138
419.2520, 978.5057
419.7341, 976.7346
420.2162, 975.5413
420.6984, 975.4340
421.1805, 975.2546
421.6626, 973.1672
422.1447, 969.1388
422.6268, 965.8561
423.1089, 965.3369
423.5911, 965.6591
424.0732, 963.7256
424.5553, 959.1929
425.0374, 954.9041
425.5195, 953.2162
426.0016, 953.7615
426.4838, 953.4083
426.9659, 952.1752
427.4480, 950.0722
427.9301, 946.4176
428.4122, 941.9490
428.8943, 938.2285
429.3765, 935.8492
429.8586, 934.3654
430.3407, 932.9935
430.8228, 931.5163
431.3049, 930.7586
431.7870, 931.9746
432.2692, 932.9923
432.7513, 931.9319
433.2334, 928.9756
433.7155, 925.7238
434.1976, 923.4844
434.6797, 922.1699
435.1619, 920.4412
435.6440, 917.5661
436.1261, 915.1037
436.6082, 913.5764
437.0903, 912.4769
437.5724, 911.1310
438.0546, 909.3225
438.5367, 907.4620
439.0188, 906.2823
439.5009, 906.0963
439.9830, 905.5651
440.4651, 904.8002
440.9473, 903.5369
441.4294, 901.0460
441.9115, 897.8792
442.3936, 895.5554
442.8757, 895.4462
443.3578, 896.7049
443.8400, 896.3027
444.3221, 893.4849
444.8042, 890.8939
445.2863, 889.5697
445.7684, 888.8581
446.2505, 888.3624
446.7327, 888.0377
447.2148, 887.5110
447.6969, 886.1984
448.1790, 884.3057
448.6611, 883.1351
449.1432, 883.3639
449.6254, 883.4015
450.1075, 881.2760
450.5896, 877.7330
451.0717, 875.0938
451.5538, 873.8444
452.0359, 873.8613
452.5181, 875.8111
453.0002, 879.3284
453.4823, 881.8802
453.9644, 882.2111
454.4465, 881.0138
454.9286, 879.7902
455.4108, 878.7180
455.8929, 877.1714
456.3750, 874.3825
456.8571, 871.3856
457.3392, 869.3166
457.8214, 868.3224
458.3035, 867.8143
458.7856, 867.2542
459.2677, 866.6352
459.7498, 866.6541
460.2319, 868.2883
460.7141, 869.3366
461.1962, 868.5978
461.6783, 867.0804
462.1604, 866.2706
462.6425, 866.7239
463.1246, 867.8078
463.6068, 868.5389
464.0889, 869.0753
464.5710, 868.7992
465.0531, 866.6803
465.5352, 864.7595
466.0173, 864.2065
466.4995, 864.6882
466.9816, 865.0969
467.4637, 864.6064
467.9458, 863.6582
468.4279, 863.8111
468.9100, 865.6462
469.3922, 867.0778
469.8743, 866.9875
470.3564, 866.5572
470.8385, 866.8450
471.3206, 867.9938
471.8027, 869.0567
472.2849, 869.2714
472.7670, 868.7897
473.2491, 868.1807
473.7312, 867.4927
474.2133, 866.6639
474.6954, 865.4317
475.1776, 864.0281
475.6597, 863.0352
476.1418, 862.6625
476.6239, 862.5805
477.1060, 862.8956
477.5881, 863.3512
478.0703, 863.0071
478.5524, 861.3964
479.0345, 859.4902
479.5166, 858.7753
479.9987, 859.5818
480.4808, 860.0852
480.9630, 860.2072
481.4451, 859.9949
481.9272, 859.2331
482.4093, 858.1305
482.8914, 857.2867
483.3735, 857.0746
483.8557, 857.3361
484.3378, 857.4949
484.8199, 857.3053
485.3020, 857.3691
485.7841, 858.1436
486.2662, 858.8567
486.7484, 858.6827
487.2305, 857.6921
487.7126, 856.8201
488.1947, 857.0753
488.6768, 858.3332
489.1589, 858.5319
489.6411, 856.5847
490.1232, 855.3096
490.6053, 856.1968
491.0874, 857.8536
491.5695, 858.5681
492.0516, 857.8085
492.5338, 856.8419
493.0159, 857.3985
493.4980, 859.2011
493.9801, 859.4561
494.4622, 856.9403
494.9443, 854.3978
495.4265, 854.3939
495.9086, 856.1888
496.3907, 857.8639
496.8728, 859.1000
497.3549, 859.9277
497.8370, 860.3113
498.3192, 860.2914
498.8013, 859.8898
499.2834, 858.9773
499.7655, 858.0790
500.2476, 858.1785
500.7297, 859.7266
501.2119, 860.6210
501.6940, 860.0830
502.1761, 859.3807
502.6582, 859.3410
503.1403, 859.9391
503.6224, 860.9263
504.1045, 862.2258
504.5866, 863.5652
505.0688, 863.9056
505.5509, 862.0214
506.0330, 861.0838
506.5151, 861.8578
506.9972, 863.1215
507.4793, 864.0609
507.9615, 864.5799
508.4436, 864.9553
508.9257, 865.3475
509.4078, 865.7952
509.8899, 866.6637
510.3720, 868.4922
510.8542, 869.5552
511.3363, 868.6474
511.8184, 866.9600
512.3005, 865.3578
512.7827, 863.9161
513.2648, 863.4334
513.7469, 865.8743
514.2290, 869.7386
514.7111, 869.8840
515.1932, 864.8411
515.6754, 860.0990
516.1575, 860.6252
516.6396, 865.0959
517.1217, 866.9551
517.6038, 863.7328
518.0859, 860.4895
518.5681, 860.2197
519.0502, 861.2664
519.5323, 860.4243
520.0144, 856.8255
520.4965, 852.8240
520.9786, 851.3688
521.4608, 852.9813
521.9429, 854.0095
522.4250, 854.2864
522.9071, 854.2729
523.3892, 853.9803
523.8713, 853.5447
524.3535, 853.1681
524.8356, 852.9327
525.3177, 852.6876
525.7998, 852.0634
526.2819, 850.8616
526.7640, 850.2715
527.2462, 850.6448
527.7283, 851.3876
528.2104, 852.6483
528.6925, 854.0256
529.1746, 854.6536
529.6567, 854.0482
530.1389, 852.7165
530.6210, 850.8522
531.1031, 848.5488
531.5852, 847.7051
532.0673, 849.6635
532.5494, 852.0533
533.0316, 851.4114
533.5137, 847.9725
533.9958, 845.5630
534.4779, 845.3723
534.9600, 846.1407
535.4421, 847.2167
535.9243, 848.4303
536.4064, 849.4623
536.8885, 850.1559
537.3706, 850.5790
537.8527, 850.8561
538.3348, 850.8892
538.8170, 850.9711
539.2991, 850.8776
539.7812, 851.0280
540.2633, 851.8111
540.7454, 853.0538
541.2275, 854.4506
541.7097, 855.9526
542.1918, 857.0463
542.6739, 856.0397
543.1560, 851.9784
543.6381, 848.8554
544.1202, 847.9886
544.6024, 847.9034
545.0845, 847.9343
545.5666, 847.9824
546.0487, 847.8937
546.5308, 847.5997
547.0129, 847.1141
547.4951, 846.2621
547.9772, 845.0630
548.4593, 844.3422
548.9414, 844.4796
549.4235, 845.2384
549.9056, 846.5120
550.3878, 848.6004
550.8699, 849.5574
551.3520, 848.0541
551.8341, 846.0109
552.3162, 844.9237
552.7983, 844.7598
553.2805, 844.9300
553.7626, 845.1295
554.2447, 845.2712
554.7268, 845.1125
555.2089, 844.6453
555.6910, 843.8555
556.1732, 842.5812
556.6553, 841.1624
557.1374, 839.6699
557.6195, 838.1990
558.1016, 836.9326
558.5837, 835.9655
559.0659, 835.2899
559.5480, 835.1744
560.0301, 835.8874
560.5122, 835.4707
560.9943, 832.4664
561.4764, 828.9720
561.9586, 827.2951
562.4407, 827.3046
562.9228, 826.8060
563.4049, 824.4459
563.8870, 821.5634
564.3691, 819.5992
564.8513, 818.4595
565.3334, 817.4274
565.8155, 816.2036
566.2976, 814.8463
566.7797, 813.4002
567.2618, 811.5490
567.7440, 810.4434
568.2261, 810.7181
568.7082, 811.1566
569.1903, 811.0287
569.6724, 810.4855
570.1545, 810.0408
570.6367, 809.9772
571.1188, 810.0826
571.6009, 809.9472
572.0830, 809.5840
572.5651, 808.8903
573.0472, 807.4236
573.5294, 806.0427
574.0115, 805.3607
574.4936, 805.1376
574.9757, 804.6757
575.4578, 803.5499
575.9399, 802.2519
576.4221, 801.0450
576.9042, 800.0591
577.3863, 800.2309
577.8684, 802.1059
578.3505, 804.4102
578.8326, 805.7133
579.3148, 805.9394
579.7969, 805.9270
580.2790, 805.3990
580.7611, 804.9512
581.2432, 804.9540
581.7253, 805.2127
582.2075, 805.4062
582.6896, 805.4197
583.1717, 801.5278
583.6538, 804.8688
584.1359, 807.0509
584.6180, 808.1243
