##NAMES=Wiluite
##RRUFFID=R060513
##IDEAL CHEMISTRY=Ca_19_(Al,Mg)_13_(B,[box],Al)_5_(SiO_4_)_10_(Si_2_O_7_)_4_(O,OH)_10_
##LOCALITY=Wilui River, Sakha Republic, Russian Federation
##OWNER=RRUFF
##SOURCE=Michael Scott
##DESCRIPTION=Dark green tetragonal prismatic
##STATUS=The identification of this mineral has been confirmed by X-ray diffraction and chemical analysis
##URL=rruff.info/R060513
##MEASURED CHEMISTRY=Ca_19.00_(Al_7.90_Mg_4.67_Ti_0.43_)_Σ=13_(B_3.00_[box]_2.00_)_Σ=5_Si_18.00_O_68_(O_7.76_(OH)_2.24_)_Σ=10_ ; B not measured but estimated by charge balance.
90.92609, 0.0000000E+00
91.40820, 42.66471
91.89032, 41.03056
92.37244, 41.97024
92.85455, 45.04521
93.33667, 47.63457
93.81879, 47.33345
94.30090, 44.97860
94.78302, 43.08694
95.26514, 42.28084
95.74725, 42.20431
96.22937, 42.24065
96.71149, 42.41177
97.19360, 42.44489
97.67572, 41.91317
98.15784, 40.83836
98.63995, 40.02113
99.12207, 39.70839
99.60419, 39.86235
100.0863, 40.10166
100.5684, 40.37846
101.0505, 40.83998
101.5327, 41.79936
102.0148, 43.45161
102.4969, 44.92907
102.9790, 46.00359
103.4611, 46.67434
103.9432, 46.79591
104.4253, 45.92255
104.9075, 44.74120
105.3896, 44.63438
105.8717, 45.88143
106.3538, 47.82929
106.8359, 50.42979
107.3180, 54.95461
107.8002, 57.81929
108.2823, 57.46406
108.7644, 55.14958
109.2465, 55.52472
109.7286, 60.97875
110.2107, 67.41211
110.6929, 73.15701
111.1750, 76.44920
111.6571, 80.89895
112.1392, 87.07470
112.6213, 94.82175
113.1034, 103.0455
113.5856, 110.9941
114.0677, 119.7857
114.5498, 130.1324
115.0319, 141.7197
115.5140, 155.3913
115.9961, 171.5177
116.4783, 190.0904
116.9604, 210.1322
117.4425, 232.9428
117.9246, 256.7870
118.4067, 279.5461
118.8888, 299.4195
119.3710, 319.0195
119.8531, 340.1653
120.3352, 363.0703
120.8173, 385.6503
121.2994, 405.9136
121.7815, 424.8154
122.2637, 444.0994
122.7458, 464.4486
123.2279, 485.4474
123.7100, 505.9967
124.1921, 525.4034
124.6742, 546.7815
125.1564, 573.7820
125.6385, 605.3559
126.1206, 638.3248
126.6027, 670.6504
127.0848, 702.8913
127.5669, 735.5856
128.0491, 768.5182
128.5312, 802.5400
129.0133, 839.4954
129.4954, 878.8564
129.9775, 918.8326
130.4596, 958.7608
130.9418, 998.1324
131.4239, 1036.708
131.9060, 1075.021
132.3881, 1112.080
132.8702, 1144.709
133.3523, 1172.947
133.8345, 1198.483
134.3166, 1222.982
134.7987, 1246.603
135.2808, 1266.952
135.7629, 1283.395
136.2450, 1296.490
136.7272, 1308.072
137.2093, 1317.711
137.6914, 1327.358
138.1735, 1339.570
138.6556, 1354.964
139.1377, 1369.207
139.6199, 1380.538
140.1020, 1388.885
140.5841, 1400.598
141.0662, 1416.124
141.5483, 1434.214
142.0304, 1453.200
142.5126, 1472.289
142.9947, 1493.137
143.4768, 1511.660
143.9589, 1524.827
144.4410, 1538.080
144.9231, 1551.341
145.4053, 1564.838
145.8874, 1579.419
146.3695, 1596.652
146.8516, 1612.743
147.3337, 1626.105
147.8158, 1635.890
148.2980, 1645.958
148.7801, 1656.939
149.2622, 1668.176
149.7443, 1678.056
150.2264, 1687.039
150.7085, 1694.499
151.1907, 1700.124
151.6728, 1703.647
152.1549, 1706.103
152.6370, 1706.540
153.1191, 1705.849
153.6012, 1706.259
154.0834, 1709.156
154.5655, 1712.155
155.0476, 1714.231
155.5297, 1714.223
156.0118, 1714.589
156.4939, 1715.297
156.9761, 1716.516
157.4582, 1718.867
157.9403, 1723.472
158.4224, 1728.591
158.9045, 1733.211
159.3866, 1736.109
159.8688, 1739.626
160.3509, 1744.203
160.8330, 1749.846
161.3151, 1756.594
161.7972, 1765.238
162.2793, 1774.604
162.7615, 1783.809
163.2436, 1793.388
163.7257, 1802.041
164.2078, 1808.545
164.6899, 1813.260
165.1720, 1818.781
165.6541, 1827.910
166.1363, 1837.839
166.6184, 1845.797
167.1005, 1850.185
167.5826, 1852.831
168.0647, 1854.671
168.5468, 1855.715
169.0290, 1856.088
169.5111, 1855.725
169.9932, 1854.773
170.4753, 1853.423
170.9574, 1851.454
171.4395, 1849.339
171.9217, 1847.856
172.4038, 1847.008
172.8859, 1845.310
173.3680, 1840.474
173.8501, 1834.134
174.3322, 1829.062
174.8144, 1827.494
175.2965, 1827.302
175.7786, 1826.271
176.2607, 1824.373
176.7428, 1821.422
177.2249, 1815.780
177.7071, 1808.800
178.1892, 1803.683
178.6713, 1803.375
179.1534, 1805.385
179.6355, 1805.686
180.1176, 1804.086
180.5998, 1801.440
181.0819, 1797.553
181.5640, 1793.046
182.0461, 1790.042
182.5282, 1791.087
183.0103, 1794.221
183.4925, 1794.731
183.9746, 1792.164
184.4567, 1788.422
184.9388, 1785.508
185.4209, 1783.361
185.9030, 1781.750
186.3852, 1781.234
186.8673, 1781.279
187.3494, 1775.281
187.8315, 1782.240
188.3136, 1786.327
188.7957, 1787.696
189.2779, 1778.206
189.7600, 1782.737
190.2421, 1781.650
190.7242, 1780.332
191.2063, 1786.837
191.6884, 1778.927
192.1706, 1784.069
192.6527, 1785.094
193.1348, 1786.253
193.6169, 1788.440
194.0990, 1793.166
194.5811, 1800.070
195.0633, 1803.980
195.5454, 1803.984
196.0275, 1802.219
196.5096, 1802.504
196.9917, 1804.941
197.4738, 1808.156
197.9560, 1811.788
198.4381, 1815.843
198.9202, 1819.165
199.4023, 1821.348
199.8844, 1823.354
200.3665, 1827.269
200.8487, 1833.424
201.3308, 1839.781
201.8129, 1845.029
202.2950, 1849.010
202.7771, 1854.397
203.2592, 1861.949
203.7414, 1870.305
204.2235, 1876.043
204.7056, 1878.197
205.1877, 1881.166
205.6698, 1888.132
206.1519, 1900.204
206.6341, 1908.440
207.1162, 1911.203
207.5983, 1911.036
208.0804, 1913.604
208.5625, 1919.351
209.0446, 1926.318
209.5268, 1933.944
210.0089, 1942.622
210.4910, 1949.866
210.9731, 1954.734
211.4552, 1958.797
211.9373, 1966.188
212.4195, 1978.309
212.9016, 1990.183
213.3837, 1999.070
213.8658, 2003.852
214.3479, 2010.151
214.8300, 2019.197
215.3121, 2029.230
215.7943, 2035.592
216.2764, 2036.698
216.7585, 2037.297
217.2406, 2039.843
217.7227, 2045.555
218.2048, 2048.992
218.6870, 2049.448
219.1691, 2047.888
219.6512, 2046.560
220.1333, 2045.589
220.6154, 2044.569
221.0975, 2043.305
221.5797, 2041.775
222.0618, 2040.146
222.5439, 2038.467
223.0260, 2036.722
223.5081, 2034.723
223.9902, 2032.170
224.4724, 2030.031
224.9545, 2028.776
225.4366, 2028.563
225.9187, 2028.924
226.4008, 2030.278
226.8829, 2032.052
227.3651, 2032.922
227.8472, 2032.281
228.3293, 2031.738
228.8114, 2031.756
229.2935, 2032.038
229.7757, 2033.743
230.2578, 2037.227
230.7399, 2041.883
231.2220, 2046.729
231.7041, 2052.135
232.1862, 2056.984
232.6684, 2060.644
233.1505, 2062.403
233.6326, 2065.220
234.1147, 2069.441
234.5968, 2074.522
235.0789, 2079.363
235.5611, 2083.552
236.0432, 2088.174
236.5253, 2093.886
237.0074, 2101.200
237.4895, 2107.397
237.9716, 2111.774
238.4538, 2115.487
238.9359, 2120.476
239.4180, 2127.788
239.9001, 2134.768
240.3822, 2140.255
240.8643, 2143.425
241.3465, 2148.779
241.8286, 2157.012
242.3107, 2166.921
242.7928, 2176.990
243.2749, 2187.906
243.7570, 2197.774
244.2392, 2206.102
244.7213, 2212.862
245.2034, 2218.140
245.6855, 2220.787
246.1676, 2222.966
246.6497, 2227.541
247.1319, 2235.861
247.6140, 2244.277
248.0961, 2252.598
248.5782, 2261.250
249.0603, 2265.977
249.5424, 2265.121
250.0246, 2262.023
250.5067, 2260.500
250.9888, 2262.010
251.4709, 2262.228
251.9530, 2260.067
252.4351, 2255.380
252.9173, 2250.152
253.3994, 2243.932
253.8815, 2237.490
254.3636, 2231.655
254.8457, 2227.010
255.3278, 2221.638
255.8100, 2214.918
256.2921, 2206.848
256.7742, 2199.303
257.2563, 2192.384
257.7384, 2185.853
258.2205, 2179.531
258.7026, 2173.093
259.1848, 2167.657
259.6669, 2163.647
260.1490, 2160.918
260.6311, 2158.316
261.1132, 2155.707
261.5953, 2153.533
262.0775, 2152.365
262.5596, 2152.792
263.0417, 2152.332
263.5238, 2149.848
264.0059, 2146.225
264.4880, 2146.058
264.9702, 2150.575
265.4523, 2156.088
265.9344, 2160.183
266.4165, 2162.396
266.8986, 2164.990
267.3807, 2168.444
267.8629, 2172.304
268.3450, 2174.992
268.8271, 2176.109
269.3092, 2177.175
269.7913, 2179.415
270.2734, 2183.418
270.7556, 2185.635
271.2377, 2185.201
271.7198, 2183.594
272.2019, 2184.144
272.6840, 2187.107
273.1661, 2191.519
273.6483, 2197.699
274.1304, 2206.139
274.6125, 2211.839
275.0946, 2213.751
275.5767, 2214.085
276.0588, 2216.799
276.5410, 2222.164
277.0231, 2228.137
277.5052, 2233.971
277.9873, 2239.651
278.4694, 2244.260
278.9515, 2247.223
279.4337, 2250.167
279.9158, 2256.190
280.3979, 2265.694
280.8800, 2273.644
281.3621, 2277.669
281.8442, 2278.224
282.3264, 2279.170
282.8085, 2280.578
283.2906, 2282.305
283.7727, 2283.895
284.2548, 2285.368
284.7369, 2288.164
285.2191, 2293.201
285.7012, 2299.851
286.1833, 2305.601
286.6654, 2310.353
287.1475, 2314.943
287.6296, 2320.007
288.1118, 2325.540
288.5939, 2331.625
289.0760, 2339.048
289.5581, 2346.409
290.0402, 2349.769
290.5223, 2349.009
291.0045, 2347.538
291.4866, 2347.541
291.9687, 2348.958
292.4508, 2351.805
292.9329, 2356.677
293.4150, 2362.096
293.8972, 2365.724
294.3793, 2367.656
294.8614, 2368.781
295.3435, 2369.177
295.8256, 2369.221
296.3077, 2369.927
296.7899, 2371.452
297.2720, 2373.616
297.7541, 2376.712
298.2362, 2380.426
298.7183, 2383.398
299.2004, 2384.555
299.6826, 2384.490
300.1647, 2383.982
300.6468, 2382.901
301.1289, 2382.375
301.6110, 2384.469
302.0931, 2388.122
302.5753, 2390.632
303.0574, 2389.572
303.5395, 2387.133
304.0216, 2386.349
304.5037, 2387.318
304.9858, 2388.429
305.4680, 2388.587
305.9501, 2387.962
306.4322, 2386.820
306.9143, 2384.607
307.3964, 2382.451
307.8785, 2381.676
308.3607, 2382.158
308.8428, 2382.477
309.3249, 2382.003
309.8070, 2380.741
310.2891, 2378.502
310.7712, 2373.677
311.2534, 2369.778
311.7355, 2370.481
312.2176, 2374.517
312.6997, 2377.218
313.1818, 2374.448
313.6639, 2370.169
314.1461, 2367.554
314.6282, 2367.667
315.1103, 2368.607
315.5924, 2370.625
316.0745, 2372.781
316.5566, 2373.128
317.0388, 2368.179
317.5209, 2363.194
318.0030, 2361.898
318.4851, 2366.073
318.9672, 2368.438
319.4493, 2365.091
319.9315, 2358.906
320.4136, 2353.635
320.8957, 2349.375
321.3778, 2347.136
321.8599, 2348.354
322.3420, 2353.513
322.8242, 2356.697
323.3063, 2355.143
323.7884, 2351.808
324.2705, 2349.274
324.7526, 2347.877
325.2347, 2347.359
325.7169, 2347.751
326.1990, 2349.025
326.6811, 2350.954
327.1632, 2355.661
327.6453, 2359.564
328.1274, 2360.671
328.6096, 2356.626
329.0917, 2352.625
329.5738, 2348.254
330.0559, 2343.984
330.5380, 2341.397
331.0201, 2342.669
331.5023, 2343.257
331.9844, 2340.761
332.4665, 2332.104
332.9486, 2328.259
333.4307, 2332.129
333.9128, 2339.313
334.3950, 2341.979
334.8771, 2337.567
335.3592, 2333.468
335.8413, 2332.050
336.3234, 2333.574
336.8055, 2335.074
337.2877, 2336.780
337.7698, 2338.102
338.2519, 2337.969
338.7340, 2335.627
339.2161, 2334.866
339.6982, 2337.026
340.1803, 2341.526
340.6624, 2344.543
341.1446, 2345.842
341.6267, 2346.581
342.1088, 2347.677
342.5909, 2349.145
343.0730, 2350.485
343.5551, 2351.740
344.0373, 2352.676
344.5194, 2352.113
345.0015, 2349.921
345.4836, 2348.802
345.9657, 2351.166
346.4478, 2356.278
346.9300, 2360.391
347.4121, 2363.462
347.8942, 2365.048
348.3763, 2363.505
348.8584, 2359.465
349.3405, 2356.537
349.8227, 2357.350
350.3048, 2360.228
350.7869, 2361.388
351.2690, 2360.813
351.7511, 2360.283
352.2332, 2361.989
352.7154, 2364.955
353.1975, 2367.009
353.6796, 2366.916
354.1617, 2366.148
354.6438, 2366.392
355.1259, 2367.443
355.6081, 2368.348
356.0902, 2368.384
356.5723, 2367.905
357.0544, 2367.268
357.5365, 2366.439
358.0186, 2365.591
358.5008, 2364.102
358.9829, 2362.646
359.4650, 2362.696
359.9471, 2367.403
360.4292, 2372.044
360.9113, 2373.099
361.3935, 2369.723
361.8756, 2366.692
362.3577, 2365.717
362.8398, 2366.269
363.3219, 2367.742
363.8040, 2372.099
364.2862, 2375.363
364.7683, 2376.042
365.2504, 2374.222
365.7325, 2371.832
366.2146, 2369.060
366.6967, 2365.986
367.1789, 2362.661
367.6610, 2357.096
368.1431, 2353.664
368.6252, 2355.134
369.1073, 2359.268
369.5894, 2358.944
370.0716, 2349.414
370.5537, 2340.290
371.0358, 2334.938
371.5179, 2334.441
372.0000, 2334.570
372.4821, 2336.553
372.9643, 2338.285
373.4464, 2336.710
373.9285, 2330.458
374.4106, 2323.622
374.8927, 2316.400
375.3748, 2308.868
375.8570, 2304.981
376.3391, 2306.242
376.8212, 2307.856
377.3033, 2305.309
377.7854, 2297.913
378.2675, 2291.501
378.7497, 2286.885
379.2318, 2283.640
379.7139, 2280.911
380.1960, 2278.823
380.6781, 2276.262
381.1602, 2271.628
381.6424, 2265.596
382.1245, 2263.106
382.6066, 2265.062
383.0887, 2267.731
383.5708, 2265.257
384.0529, 2258.879
384.5351, 2254.471
385.0172, 2255.692
385.4993, 2259.784
385.9814, 2262.149
386.4635, 2262.810
386.9456, 2262.828
387.4278, 2261.986
387.9099, 2261.271
388.3920, 2262.487
388.8741, 2266.856
389.3562, 2271.890
389.8383, 2275.339
390.3205, 2277.699
390.8026, 2280.301
391.2847, 2284.491
391.7668, 2288.754
392.2489, 2291.735
392.7310, 2292.972
393.2132, 2294.469
393.6953, 2297.719
394.1774, 2301.598
394.6595, 2304.773
395.1416, 2306.478
395.6237, 2307.744
396.1059, 2308.523
396.5880, 2308.925
397.0701, 2310.243
397.5522, 2313.722
398.0343, 2317.556
398.5164, 2320.696
398.9986, 2323.701
399.4807, 2325.179
399.9628, 2323.825
400.4449, 2321.035
400.9270, 2320.026
401.4091, 2321.652
401.8913, 2324.031
402.3734, 2327.198
402.8555, 2331.890
403.3376, 2332.774
403.8197, 2327.675
404.3018, 2321.282
404.7840, 2319.181
405.2661, 2323.072
405.7482, 2325.199
406.2303, 2323.781
406.7124, 2319.526
407.1945, 2315.309
407.6767, 2311.129
408.1588, 2306.851
408.6409, 2302.929
409.1230, 2299.198
409.6051, 2292.729
410.0872, 2282.571
410.5694, 2271.563
411.0515, 2264.557
411.5336, 2260.949
412.0157, 2257.159
412.4978, 2251.988
412.9799, 2245.492
413.4621, 2237.671
413.9442, 2228.492
414.4263, 2218.375
414.9084, 2206.728
415.3905, 2194.540
415.8727, 2183.244
416.3548, 2173.507
416.8369, 2164.267
417.3190, 2154.526
417.8011, 2144.569
418.2832, 2134.960
418.7654, 2126.641
419.2475, 2118.372
419.7296, 2109.663
420.2117, 2100.492
420.6938, 2089.936
421.1759, 2075.360
421.6581, 2060.129
422.1402, 2047.641
422.6223, 2042.992
423.1044, 2036.763
423.5865, 2025.436
424.0686, 2009.855
424.5508, 1996.331
425.0329, 1987.003
425.5150, 1978.715
425.9971, 1969.990
426.4792, 1959.848
426.9613, 1951.480
427.4435, 1946.031
427.9256, 1941.817
428.4077, 1936.074
428.8898, 1927.918
429.3719, 1920.087
429.8540, 1913.432
430.3362, 1907.860
430.8183, 1901.359
431.3004, 1893.617
431.7825, 1885.942
432.2646, 1879.589
432.7467, 1874.583
433.2289, 1869.136
433.7110, 1862.804
434.1931, 1856.445
434.6752, 1851.932
435.1573, 1849.111
435.6394, 1846.397
436.1216, 1843.118
436.6036, 1839.309
437.0858, 1834.882
437.5679, 1829.789
438.0500, 1824.913
438.5321, 1821.489
439.0142, 1818.729
439.4963, 1815.145
439.9785, 1809.289
440.4606, 1803.885
440.9427, 1802.413
441.4248, 1803.461
441.9069, 1802.834
442.3890, 1796.978
442.8712, 1789.916
443.3533, 1784.288
443.8354, 1780.685
444.3175, 1777.097
444.7996, 1772.627
445.2817, 1767.966
445.7639, 1763.798
446.2460, 1759.985
446.7281, 1756.896
447.2102, 1755.041
447.6923, 1754.161
448.1744, 1752.614
448.6566, 1749.524
449.1387, 1746.609
449.6208, 1744.706
450.1029, 1744.268
450.5850, 1743.330
451.0671, 1741.598
451.5493, 1739.673
452.0314, 1738.547
452.5135, 1738.492
452.9956, 1738.162
453.4777, 1737.257
453.9598, 1735.825
454.4420, 1733.999
454.9241, 1731.808
455.4062, 1729.193
455.8883, 1725.604
456.3704, 1721.436
456.8525, 1718.658
457.3347, 1717.697
457.8168, 1717.537
458.2989, 1716.717
458.7810, 1715.651
459.2631, 1715.572
459.7452, 1718.215
460.2274, 1721.420
460.7095, 1722.398
461.1916, 1721.464
461.6737, 1720.875
462.1558, 1722.385
462.6379, 1724.668
463.1201, 1726.490
463.6022, 1727.423
464.0843, 1728.327
464.5664, 1729.202
465.0485, 1730.316
465.5306, 1732.101
466.0128, 1736.376
466.4949, 1739.609
466.9770, 1740.239
467.4591, 1738.138
467.9412, 1736.718
468.4233, 1735.859
468.9055, 1735.880
469.3876, 1737.100
469.8697, 1740.408
470.3518, 1743.016
470.8339, 1744.737
471.3160, 1745.887
471.7982, 1746.953
472.2803, 1747.852
472.7624, 1749.071
473.2445, 1750.817
473.7266, 1753.014
474.2087, 1755.528
474.6909, 1758.475
475.1730, 1760.548
475.6551, 1759.840
476.1372, 1757.078
476.6193, 1755.271
477.1014, 1754.816
477.5836, 1755.546
478.0657, 1758.061
478.5478, 1761.720
479.0299, 1764.650
479.5120, 1766.220
479.9941, 1766.535
480.4763, 1765.061
480.9584, 1762.022
481.4405, 1759.480
481.9226, 1758.557
482.4047, 1758.630
482.8868, 1759.262
483.3690, 1760.575
483.8511, 1762.017
484.3332, 1763.717
484.8153, 1765.396
485.2974, 1766.633
485.7795, 1767.488
486.2617, 1767.729
486.7438, 1766.652
487.2259, 1764.320
487.7080, 1764.224
488.1901, 1767.605
488.6722, 1771.618
489.1544, 1774.358
489.6365, 1775.048
490.1186, 1777.734
490.6007, 1783.431
491.0828, 1789.859
491.5649, 1793.148
492.0471, 1793.117
492.5292, 1793.313
493.0113, 1794.829
493.4934, 1797.360
493.9755, 1800.098
494.4576, 1803.022
494.9398, 1806.578
495.4219, 1811.786
495.9040, 1817.669
496.3861, 1822.162
496.8682, 1824.937
497.3503, 1827.163
497.8325, 1829.478
498.3146, 1831.991
498.7967, 1834.920
499.2788, 1839.822
499.7609, 1843.802
500.2430, 1844.481
500.7252, 1842.734
501.2073, 1842.389
501.6894, 1845.781
502.1715, 1849.930
502.6536, 1853.547
503.1357, 1856.452
503.6179, 1859.000
504.1000, 1860.478
504.5821, 1862.087
505.0642, 1865.195
505.5463, 1870.898
506.0284, 1875.582
506.5106, 1878.571
506.9927, 1880.159
507.4748, 1880.911
507.9569, 1880.400
508.4390, 1880.980
508.9211, 1884.782
509.4033, 1891.179
509.8854, 1894.620
510.3675, 1894.820
510.8496, 1894.421
511.3317, 1896.251
511.8138, 1899.574
512.2960, 1902.307
512.7781, 1903.828
513.2602, 1905.062
513.7423, 1907.666
514.2244, 1910.804
514.7065, 1912.426
515.1887, 1910.281
515.6708, 1907.300
516.1529, 1905.334
516.6350, 1904.438
517.1171, 1903.745
517.5992, 1902.483
518.0814, 1901.656
518.5635, 1902.094
519.0456, 1906.158
519.5277, 1907.702
520.0098, 1904.588
520.4919, 1899.608
520.9741, 1896.884
521.4562, 1897.233
521.9383, 1898.295
522.4204, 1899.941
522.9025, 1901.914
523.3846, 1902.518
523.8668, 1901.538
524.3489, 1899.996
524.8310, 1898.378
525.3131, 1896.681
525.7952, 1894.910
526.2773, 1892.991
526.7595, 1891.351
527.2416, 1890.973
527.7237, 1891.297
528.2058, 1890.805
528.6879, 1888.651
529.1700, 1886.120
529.6522, 1884.112
530.1343, 1882.736
530.6164, 1882.209
531.0985, 1883.097
531.5806, 1884.555
532.0627, 1886.191
532.5449, 1887.988
533.0270, 1889.692
533.5091, 1891.882
533.9912, 1893.526
534.4733, 1893.836
534.9554, 1891.311
535.4376, 1889.393
535.9197, 1887.880
536.4018, 1887.039
536.8839, 1887.465
537.3660, 1889.429
537.8481, 1891.937
538.3303, 1895.078
538.8124, 1898.544
539.2945, 1900.676
539.7766, 1901.377
540.2587, 1901.593
540.7408, 1902.131
541.2230, 1902.758
541.7051, 1902.432
542.1872, 1901.028
542.6693, 1899.301
543.1514, 1897.280
543.6335, 1895.603
544.1157, 1895.584
544.5978, 1899.321
545.0799, 1902.451
545.5620, 1900.594
546.0441, 1895.706
546.5262, 1892.614
547.0084, 1895.101
547.4905, 1897.962
547.9726, 1898.625
548.4547, 1896.691
548.9368, 1896.001
549.4189, 1897.757
549.9011, 1900.098
550.3832, 1902.035
550.8653, 1903.596
551.3474, 1904.632
551.8295, 1905.184
552.3116, 1905.102
552.7938, 1904.008
553.2759, 1901.803
553.7580, 1899.520
554.2401, 1897.520
554.7222, 1895.549
555.2043, 1892.957
555.6865, 1889.797
556.1686, 1886.324
556.6507, 1882.300
557.1328, 1878.263
557.6149, 1875.272
558.0970, 1873.415
558.5792, 1871.148
559.0613, 1867.189
559.5434, 1862.426
560.0255, 1857.613
560.5076, 1852.271
560.9897, 1848.223
561.4719, 1847.745
561.9540, 1848.607
562.4361, 1847.106
562.9182, 1840.557
563.4003, 1834.013
563.8824, 1827.903
564.3646, 1822.380
564.8467, 1818.432
565.3288, 1816.617
565.8109, 1815.142
566.2930, 1813.028
566.7751, 1810.237
567.2573, 1807.577
567.7394, 1804.965
568.2215, 1802.692
568.7036, 1801.369
569.1857, 1800.682
569.6678, 1799.292
570.1500, 1796.666
570.6321, 1793.939
571.1142, 1792.572
571.5963, 1792.141
572.0784, 1791.687
572.5605, 1790.794
573.0427, 1789.767
573.5248, 1788.964
574.0069, 1788.304
574.4890, 1787.100
574.9711, 1784.238
575.4532, 1781.576
575.9354, 1779.953
576.4175, 1779.332
576.8996, 1780.198
577.3817, 1783.823
577.8638, 1787.675
578.3459, 1789.266
578.8281, 1787.810
579.3102, 1787.098
579.7923, 1787.495
580.2744, 1788.836
580.7565, 1791.284
581.2386, 1794.730
581.7208, 1797.387
582.2029, 1798.020
582.6850, 1797.842
583.1671, 1799.421
