##NAMES=Winchite
##RRUFFID=R060704
##IDEAL CHEMISTRY=[box]NaCa(Mg_4_Al)Si_8_O_22_(OH)_2_
##LOCALITY=Tirodi mines, Central Provinces, India
##OWNER=RRUFF
##SOURCE=Michael Scott
##DESCRIPTION=Matted group of tan colored bladed crystals, associated with ferriwinchite
##STATUS=The identification of this mineral is confirmed by single-crystal X-ray diffraction and chemical analysis.
##URL=rruff.info/R060704
##MEASURED CHEMISTRY=([box]_0.85_Na_0.09_K_0.06_)_Σ=1_(Ca_1.36_Na_0.64_)_Σ=2_(Mg_4.12_Fe^3+^_0.38_Mn_0.23_Fe^2+^_0.16_Al_0.11_)_Σ=5_Si_8.00_O_22_((OH)_1.90_F_0.10_)_Σ=2_ ; = gray phase. The bright phase is ferriwinchite
198.666, 60600.531
199.148, 60769.359
199.631, 60942.660
200.113, 61118.301
200.595, 61278.809
201.077, 61398.719
201.559, 61458.801
202.041, 61556.051
202.523, 61717.102
203.005, 61897.551
203.488, 62076.969
203.970, 62247.648
204.452, 62381.711
204.934, 62437.750
205.416, 62391.770
205.898, 62408.289
206.380, 62543.449
206.862, 62699.320
207.344, 62809.500
207.827, 62867.039
208.309, 62889.980
208.791, 62886.488
209.273, 62851.859
209.755, 62845.711
210.237, 62893.691
210.719, 62948.070
211.201, 62983.129
211.684, 62996.172
212.166, 62986.949
212.648, 62945.172
213.130, 62871.629
213.612, 62854.238
214.094, 62921.520
214.576, 63014.781
215.058, 63130.020
215.540, 63252.211
216.023, 63325.828
216.505, 63300.371
216.987, 63185.102
217.469, 63127.340
217.951, 63172.051
218.433, 63223.871
218.915, 63241.340
219.397, 63230.410
219.880, 63212.301
220.362, 63197.379
220.844, 63187.578
221.326, 63193.699
221.808, 63226.648
222.290, 63260.828
222.772, 63286.250
223.254, 63306.070
223.736, 63330.828
224.219, 63368.570
224.701, 63410.828
225.183, 63419.980
225.665, 63372.891
226.147, 63324.699
226.629, 63252.789
227.111, 63192.160
227.593, 63208.281
228.076, 63333.781
228.558, 63535.109
229.040, 63721.250
229.522, 63873.871
230.004, 64036.160
230.486, 64216.469
230.968, 64408.320
231.450, 64626.672
231.932, 64879.371
232.415, 65106.520
232.897, 65187.070
233.379, 65014.160
233.861, 64860.672
234.343, 64731.250
234.825, 64628.141
235.307, 64565.730
235.789, 64545.000
236.271, 64535.059
236.754, 64491.309
237.236, 64399.238
237.718, 64299.172
238.200, 64155.520
238.682, 64027.230
239.164, 63976.070
239.646, 64003.820
240.128, 64045.570
240.611, 64023.141
241.093, 63906.250
241.575, 63841.961
242.057, 63856.160
242.539, 63894.488
243.021, 63940.719
243.503, 63986.000
243.985, 64012.879
244.467, 64000.500
244.950, 63940.949
245.432, 63924.809
245.914, 64000.441
246.396, 64066.230
246.878, 64073.238
247.360, 64036.609
247.842, 63996.531
248.324, 63978.141
248.807, 63982.828
249.289, 64039.090
249.771, 64216.488
250.253, 64370.359
250.735, 64461.590
251.217, 64508.020
251.699, 64534.270
252.181, 64550.570
252.663, 64567.781
253.146, 64636.398
253.628, 64828.059
254.110, 64979.320
254.592, 65067.840
255.074, 65108.461
255.556, 65106.660
256.038, 65064.699
256.520, 65007.750
257.003, 64996.910
257.485, 65074.090
257.967, 65120.961
258.449, 65122.801
258.931, 65098.852
259.413, 65050.969
259.895, 64984.559
260.377, 64928.648
260.859, 64936.059
261.342, 65044.211
261.824, 65103.371
262.306, 65058.988
262.788, 65004.379
263.270, 64988.398
263.752, 65015.129
264.234, 65059.840
264.716, 65103.609
265.198, 65148.270
265.681, 65176.672
266.163, 65171.199
266.645, 65165.699
267.127, 65176.750
267.609, 65200.262
268.091, 65223.680
268.573, 65249.680
269.056, 65271.262
269.538, 65228.941
270.020, 65050.738
270.502, 64922.141
270.984, 64956.730
271.466, 65079.672
271.948, 65165.289
272.430, 65151.000
272.912, 65067.359
273.395, 64964.340
273.877, 64816.359
274.359, 64721.750
274.841, 64746.801
275.323, 64836.191
275.805, 64947.539
276.287, 65083.648
276.769, 65202.070
277.251, 65227.289
277.734, 65151.711
278.216, 65123.629
278.698, 65216.641
279.180, 65363.430
279.662, 65492.121
280.144, 65596.633
280.626, 65691.203
281.108, 65785.898
281.591, 65878.797
282.073, 65965.539
282.555, 66051.828
283.037, 66118.320
283.519, 66126.523
284.001, 66079.406
284.483, 66063.906
284.965, 66149.062
285.447, 66277.758
285.930, 66353.906
286.412, 66361.883
286.894, 66336.023
287.376, 66301.219
287.858, 66257.922
288.340, 66204.977
288.822, 66127.789
289.304, 66052.156
289.786, 66007.312
290.269, 65991.422
290.751, 65972.031
291.233, 65923.961
291.715, 65855.422
292.197, 65813.844
292.679, 65793.031
293.161, 65803.273
293.643, 65871.078
294.125, 65973.969
294.608, 66059.648
295.090, 66102.492
295.572, 66116.273
296.054, 66136.227
296.536, 66143.859
297.018, 66182.430
297.500, 66267.078
297.983, 66379.820
298.465, 66512.172
298.947, 66658.406
299.429, 66790.750
299.911, 66864.602
300.393, 66846.289
300.875, 66847.656
301.357, 66876.711
301.839, 66915.633
302.322, 66964.492
302.804, 67015.727
303.286, 67047.797
303.768, 67037.648
304.250, 66981.844
304.732, 66942.094
305.214, 66906.438
305.696, 66900.617
306.178, 66971.469
306.661, 67074.094
307.143, 67125.133
307.625, 67068.883
308.107, 66940.969
308.589, 66870.906
309.071, 66886.578
309.553, 66918.797
310.035, 66989.359
310.517, 67050.133
311.000, 67041.797
311.482, 66944.703
311.964, 66820.891
312.446, 66765.406
312.928, 66793.750
313.410, 66811.047
313.892, 66786.406
314.374, 66759.133
314.857, 66757.508
315.339, 66780.992
315.821, 66802.102
316.303, 66791.500
316.785, 66757.547
317.267, 66750.203
317.749, 66787.500
318.231, 66827.344
318.714, 66834.328
319.196, 66821.328
319.678, 66820.703
320.160, 66857.492
320.642, 66906.500
321.124, 66921.852
321.606, 66898.789
322.088, 66899.711
322.570, 66976.500
323.052, 67093.781
323.535, 67169.641
324.017, 67177.148
324.499, 67176.453
324.981, 67189.719
325.463, 67220.531
325.945, 67289.148
326.427, 67412.453
326.909, 67552.156
327.392, 67637.742
327.874, 67657.852
328.356, 67675.930
328.838, 67715.109
329.320, 67751.297
329.802, 67755.109
330.284, 67723.531
330.766, 67679.547
331.249, 67643.820
331.731, 67616.289
332.213, 67606.539
332.695, 67633.453
333.177, 67658.430
333.659, 67660.758
334.141, 67647.453
334.623, 67640.117
335.105, 67654.227
335.588, 67680.430
336.070, 67673.781
336.552, 67611.844
337.034, 67544.172
337.516, 67453.422
337.998, 67371.117
338.480, 67337.852
338.962, 67363.430
339.444, 67409.156
339.927, 67409.273
340.409, 67337.523
340.891, 67313.461
341.373, 67391.133
341.855, 67478.469
342.337, 67527.594
342.819, 67543.461
343.301, 67562.883
343.784, 67616.859
344.266, 67698.172
344.748, 67764.461
345.230, 67799.750
345.712, 67849.977
346.194, 67957.688
346.676, 68088.523
347.158, 68191.961
347.641, 68249.797
348.123, 68278.961
348.605, 68296.680
349.087, 68302.961
349.569, 68294.758
350.051, 68258.227
350.533, 68218.930
351.015, 68219.594
351.497, 68270.750
351.979, 68307.094
352.462, 68301.977
352.944, 68264.094
353.426, 68203.648
353.908, 68121.547
354.390, 68028.594
354.872, 67928.062
355.354, 67818.891
355.836, 67745.992
356.319, 67742.672
356.801, 67746.719
357.283, 67721.609
357.765, 67671.609
358.247, 67617.156
358.729, 67570.188
359.211, 67527.773
359.693, 67477.609
360.176, 67403.930
360.658, 67342.938
361.140, 67288.719
361.622, 67253.039
362.104, 67243.648
362.586, 67264.156
363.068, 67321.148
363.550, 67435.367
364.032, 67633.297
364.515, 67784.250
364.997, 67833.297
365.479, 67884.891
365.961, 67973.359
366.443, 68098.742
366.925, 68255.883
367.407, 68452.891
367.889, 68670.344
368.371, 68835.094
368.854, 68918.906
369.336, 69017.008
369.818, 69168.594
370.300, 69351.711
370.782, 69557.117
371.264, 69792.797
371.746, 70007.547
372.228, 70153.062
372.711, 70236.211
373.193, 70300.547
373.675, 70368.758
374.157, 70396.742
374.639, 70319.883
375.121, 70148.508
375.603, 69958.797
376.085, 69757.594
376.568, 69554.969
377.050, 69367.023
377.532, 69192.930
378.014, 69001.023
378.496, 68756.789
378.978, 68480.094
379.460, 68297.539
379.942, 68273.422
380.424, 68247.977
380.906, 68181.789
381.389, 68091.844
381.871, 68002.062
382.353, 67920.477
382.835, 67838.594
383.317, 67737.992
383.799, 67591.062
384.281, 67506.703
384.763, 67527.539
385.246, 67563.797
385.728, 67564.523
386.210, 67541.883
386.692, 67543.867
387.174, 67613.273
387.656, 67727.453
388.138, 67777.172
388.620, 67700.727
389.103, 67685.281
389.585, 67851.812
390.067, 68069.172
390.549, 68205.859
391.031, 68225.969
391.513, 68207.906
391.995, 68219.977
392.477, 68258.109
392.959, 68295.508
393.442, 68326.094
393.924, 68356.742
394.406, 68402.969
394.888, 68459.359
395.370, 68491.781
395.852, 68482.812
396.334, 68452.000
396.816, 68408.633
397.298, 68356.273
397.781, 68316.227
398.263, 68304.258
398.745, 68308.727
399.227, 68290.117
399.709, 68252.820
400.191, 68189.133
400.673, 68061.453
401.155, 67925.070
401.638, 67843.281
402.120, 67826.273
402.602, 67833.883
403.084, 67820.180
403.566, 67780.062
404.048, 67759.039
404.530, 67785.469
405.012, 67803.523
405.495, 67785.992
405.977, 67751.648
406.459, 67736.820
406.941, 67763.562
407.423, 67804.727
407.905, 67792.203
408.387, 67703.023
408.869, 67668.523
409.351, 67763.797
409.833, 67893.344
410.316, 67993.453
410.798, 68059.438
411.280, 68101.719
411.762, 68096.219
412.244, 68077.031
412.726, 68132.820
413.208, 68279.594
413.690, 68408.133
414.173, 68432.844
414.655, 68375.148
415.137, 68351.500
415.619, 68405.109
416.101, 68440.938
416.583, 68387.930
417.065, 68296.227
417.547, 68265.930
418.030, 68328.773
418.512, 68416.867
418.994, 68433.250
419.476, 68359.172
419.958, 68269.680
420.440, 68127.789
420.922, 68008.844
421.404, 67956.859
421.886, 67958.602
422.369, 67981.523
422.851, 68009.938
423.333, 68036.477
423.815, 68038.000
424.297, 68009.422
424.779, 67968.469
425.261, 67894.031
425.743, 67825.227
426.225, 67793.523
426.708, 67801.656
427.190, 67826.273
427.672, 67871.828
428.154, 67920.773
428.636, 67906.570
429.118, 67809.117
429.600, 67713.797
430.082, 67673.672
430.565, 67682.617
431.047, 67716.867
431.529, 67826.383
432.011, 67899.148
432.493, 67845.570
432.975, 67719.852
433.457, 67632.648
433.939, 67619.648
434.422, 67634.094
434.904, 67608.461
435.386, 67520.359
435.868, 67472.461
436.350, 67473.547
436.832, 67501.430
437.314, 67588.133
437.796, 67690.773
438.278, 67709.539
438.760, 67575.656
439.243, 67368.648
439.725, 67318.633
440.207, 67507.406
440.689, 67627.906
441.171, 67552.938
441.653, 67438.320
442.135, 67368.633
442.617, 67353.844
443.100, 67384.547
443.582, 67499.773
444.064, 67647.477
444.546, 67685.727
445.028, 67591.938
445.510, 67520.211
445.992, 67587.477
446.474, 67734.523
446.957, 67782.289
447.439, 67681.969
447.921, 67565.711
448.403, 67477.297
448.885, 67404.727
449.367, 67322.703
449.849, 67227.969
450.331, 67159.039
450.813, 67166.383
451.296, 67265.773
451.778, 67297.938
452.260, 67220.156
452.742, 67129.383
453.224, 67027.742
453.706, 66939.406
454.188, 66902.133
454.670, 66931.891
455.152, 66990.891
455.635, 67022.789
456.117, 67024.844
456.599, 67022.344
457.081, 67006.797
457.563, 66999.867
458.045, 67019.203
458.527, 67057.898
459.009, 67093.453
459.492, 67105.281
459.974, 67116.789
460.456, 67158.023
460.938, 67224.602
461.420, 67292.469
461.902, 67354.383
462.384, 67407.062
462.866, 67444.156
463.349, 67466.078
463.831, 67472.547
464.313, 67457.719
464.795, 67432.820
465.277, 67392.711
465.759, 67348.523
466.241, 67336.430
466.723, 67387.562
467.205, 67479.039
467.688, 67506.438
468.170, 67419.883
468.652, 67361.867
469.134, 67377.047
469.616, 67409.844
470.098, 67412.344
470.580, 67381.758
471.062, 67357.891
471.544, 67389.023
472.027, 67449.211
472.509, 67451.500
472.991, 67382.203
473.473, 67311.094
473.955, 67274.602
474.437, 67264.320
474.919, 67255.062
475.401, 67239.906
475.884, 67238.492
476.366, 67280.211
476.848, 67330.656
477.330, 67343.094
477.812, 67309.977
478.294, 67248.031
478.776, 67163.594
479.258, 67057.633
479.741, 67020.797
480.223, 67163.047
480.705, 67250.047
481.187, 67144.047
481.669, 67008.812
482.151, 67067.133
482.633, 67372.219
483.115, 67697.133
483.597, 67775.156
484.079, 67621.547
484.562, 67465.141
485.044, 67291.594
485.526, 67170.141
486.008, 67190.562
486.490, 67289.609
486.972, 67346.656
487.454, 67315.344
487.936, 67275.633
488.419, 67274.289
488.901, 67301.023
489.383, 67338.047
489.865, 67380.500
490.347, 67424.977
490.829, 67474.094
491.311, 67536.148
491.793, 67529.727
492.276, 67369.641
492.758, 67244.633
493.240, 67228.680
493.722, 67282.594
494.204, 67369.203
494.686, 67473.000
495.168, 67540.688
495.650, 67467.797
496.132, 67244.281
496.615, 67098.648
497.097, 67091.461
497.579, 67103.477
498.061, 67049.367
498.543, 66957.719
499.025, 66895.852
499.507, 66902.094
499.989, 66914.891
500.471, 66879.430
500.954, 66814.023
501.436, 66766.438
501.918, 66750.359
502.400, 66753.258
502.882, 66761.969
503.364, 66777.953
503.846, 66791.531
504.328, 66814.383
504.810, 66823.227
505.293, 66787.656
505.775, 66739.852
506.257, 66732.656
506.739, 66786.469
507.221, 66863.094
507.703, 66902.852
508.185, 66901.906
508.668, 66936.453
509.150, 67048.391
509.632, 67142.906
510.114, 67130.289
510.596, 67058.852
511.078, 67041.281
511.560, 67146.422
512.042, 67253.672
512.524, 67268.102
513.006, 67218.008
513.489, 67149.227
513.971, 67070.797
514.453, 67047.383
514.935, 67172.461
515.417, 67475.211
515.899, 67656.273
516.381, 67641.906
516.864, 67603.703
517.346, 67586.562
517.828, 67578.203
518.310, 67555.117
518.792, 67510.148
519.274, 67460.977
519.756, 67425.211
520.238, 67402.969
520.720, 67399.344
521.203, 67410.156
521.685, 67448.383
522.167, 67572.289
522.649, 67721.578
523.131, 67772.273
523.613, 67661.289
524.095, 67531.047
524.577, 67438.078
525.059, 67381.812
525.542, 67371.680
526.024, 67406.570
526.506, 67453.906
526.988, 67484.953
527.470, 67500.141
527.952, 67503.594
528.434, 67436.750
528.916, 67434.102
529.398, 67594.344
529.881, 67783.727
530.363, 67854.180
530.845, 67785.344
531.327, 67704.180
531.809, 67743.891
532.291, 67865.703
532.773, 67906.930
533.255, 67844.703
533.737, 67807.039
534.220, 67868.203
534.702, 67995.094
535.184, 68106.922
535.666, 68193.633
536.148, 68289.203
536.630, 68417.297
537.112, 68547.781
537.594, 68647.102
538.077, 68716.867
538.559, 68782.133
539.041, 68860.477
539.523, 68944.500
540.005, 69007.156
540.487, 69052.820
540.969, 69065.656
541.451, 69015.883
541.933, 68954.633
542.416, 68928.688
542.898, 68927.594
543.380, 68889.547
543.862, 68768.906
544.344, 68603.711
544.826, 68434.180
545.308, 68262.867
545.791, 68100.398
546.273, 67946.711
546.755, 67815.227
547.237, 67713.758
547.719, 67612.062
548.201, 67521.422
548.683, 67464.992
549.165, 67400.281
549.647, 67327.703
550.130, 67223.719
550.612, 67160.297
551.094, 67080.602
551.576, 67000.250
552.058, 66933.594
552.540, 66878.047
553.022, 66831.227
553.504, 66792.938
553.987, 66759.812
554.469, 66733.156
554.951, 66743.078
555.433, 66744.117
555.915, 66736.758
556.397, 66695.836
556.879, 66698.242
557.361, 66683.289
557.843, 66676.938
558.326, 66676.891
558.808, 66711.969
559.290, 66677.023
559.772, 66583.672
560.254, 66548.172
560.736, 66627.281
561.218, 66673.727
561.700, 66632.539
562.182, 66574.633
562.665, 66563.430
563.147, 66600.008
563.629, 66630.648
564.111, 66627.273
564.593, 66592.992
565.075, 66509.523
565.557, 66382.891
566.039, 66311.688
566.521, 66350.078
567.004, 66433.742
567.486, 66456.789
567.968, 66401.781
568.450, 66329.227
568.932, 66214.703
569.414, 66107.828
569.896, 66028.477
570.378, 65977.031
570.860, 65957.023
571.343, 65971.031
571.825, 65992.172
572.307, 65975.727
572.789, 65923.047
573.271, 65896.094
573.753, 65906.398
574.235, 65930.438
574.718, 65966.477
575.200, 66003.727
575.682, 66011.609
576.164, 65959.148
576.646, 65926.992
577.128, 65974.719
577.610, 66043.930
578.092, 66051.203
578.574, 65997.641
579.057, 65958.906
579.539, 65995.828
580.021, 66090.828
580.503, 66170.320
580.985, 66240.102
581.467, 66279.539
581.949, 66261.094
582.431, 66227.906
582.914, 66204.109
583.396, 66189.867
583.878, 66177.828
584.360, 66165.406
584.842, 66152.961
585.324, 66149.883
585.806, 66147.773
586.288, 66105.273
586.770, 66005.758
587.253, 65921.203
587.735, 65954.703
588.217, 66130.312
588.699, 66213.797
589.181, 66136.320
589.663, 66044.891
590.145, 65957.383
590.627, 65880.148
591.109, 65823.297
591.592, 65787.820
592.074, 65750.906
592.556, 65683.227
593.038, 65602.812
593.520, 65552.938
594.002, 65535.211
594.484, 65535.230
594.966, 65547.062
595.448, 65571.133
595.931, 65614.344
596.413, 65713.156
596.895, 65739.617
597.377, 65619.781
597.859, 65496.660
598.341, 65460.691
598.823, 65479.379
599.305, 65475.230
599.787, 65413.352
600.270, 65341.488
600.752, 65331.910
601.234, 65378.270
601.716, 65403.898
602.198, 65399.871
602.680, 65380.238
603.162, 65339.980
603.644, 65293.852
604.127, 65292.102
604.609, 65380.660
605.091, 65433.488
605.573, 65392.102
606.055, 65323.809
606.537, 65285.602
607.019, 65279.559
607.501, 65280.680
607.984, 65272.039
608.466, 65263.160
608.948, 65285.820
609.430, 65347.871
609.912, 65374.109
610.394, 65329.531
610.876, 65276.500
611.358, 65264.070
611.841, 65283.969
612.323, 65313.141
612.805, 65375.660
613.287, 65413.320
613.769, 65382.539
614.251, 65319.461
614.733, 65271.551
615.215, 65246.512
615.697, 65221.891
616.180, 65174.020
616.662, 65116.781
617.144, 65123.859
617.626, 65232.711
618.108, 65296.051
618.590, 65259.621
619.072, 65185.020
619.554, 65114.559
620.036, 65049.398
620.519, 64992.051
621.001, 64925.531
621.483, 64884.238
621.965, 64908.910
622.447, 64970.789
622.929, 65019.289
623.411, 65040.289
623.893, 65039.148
624.375, 65015.371
624.858, 64972.309
625.340, 64969.320
625.822, 65034.961
626.304, 65084.129
626.786, 65068.012
627.268, 65044.969
627.750, 65088.121
628.232, 65191.309
628.714, 65223.840
629.197, 65078.379
629.679, 64889.449
630.161, 64741.430
630.643, 64647.898
631.125, 64656.160
631.607, 64778.961
632.089, 64927.551
632.571, 64995.359
633.054, 64980.641
633.536, 64956.250
634.018, 64910.191
634.500, 64873.789
634.982, 64856.359
635.464, 64851.160
635.946, 64857.020
636.428, 64872.750
636.911, 64880.172
637.393, 64856.461
637.875, 64831.000
638.357, 64841.930
638.839, 64876.059
639.321, 64887.699
639.803, 64860.000
640.285, 64825.922
640.768, 64834.602
641.250, 64892.141
641.732, 64900.609
642.214, 64816.969
642.696, 64750.281
643.178, 64739.930
643.660, 64757.469
644.142, 64782.059
644.624, 64811.320
645.107, 64829.000
645.589, 64813.762
646.071, 64795.012
646.553, 64811.430
647.035, 64851.609
647.517, 64880.539
647.999, 64885.719
648.481, 64869.051
648.963, 64825.230
649.446, 64749.730
649.928, 64723.430
650.410, 64787.590
650.892, 64834.211
651.374, 64787.809
651.856, 64730.961
652.338, 64754.578
652.820, 64867.500
653.302, 64987.949
653.785, 65095.102
654.267, 65181.480
654.749, 65236.090
655.231, 65263.578
655.713, 65270.359
656.195, 65259.148
656.677, 65250.078
657.159, 65274.609
657.641, 65333.379
658.124, 65349.930
658.606, 65278.762
659.088, 65254.379
659.570, 65367.621
660.052, 65522.730
660.534, 65636.469
661.016, 65704.477
661.498, 65725.906
661.981, 65650.906
662.463, 65575.383
662.945, 65575.938
663.427, 65630.523
663.909, 65693.453
664.391, 65749.703
664.873, 65804.648
665.355, 65865.867
665.838, 65932.320
666.320, 65986.039
666.802, 66013.656
667.284, 66071.812
667.766, 66208.703
668.248, 66358.594
668.730, 66436.070
669.212, 66441.547
669.695, 66473.633
670.177, 66570.797
670.659, 66677.844
671.141, 66776.156
671.623, 66860.562
672.105, 66921.727
672.587, 66959.922
673.069, 66992.883
673.551, 67036.180
674.034, 67087.406
674.516, 67144.969
674.998, 67214.547
675.480, 67241.422
675.962, 67200.039
676.444, 67126.578
676.926, 67055.031
677.408, 66985.594
677.890, 66920.922
678.373, 66871.367
678.855, 66814.281
679.337, 66766.422
679.819, 66693.008
680.301, 66536.383
680.783, 66308.883
681.265, 66094.523
681.747, 65963.398
682.229, 65867.141
682.712, 65701.773
683.194, 65475.879
683.676, 65288.059
684.158, 65160.781
684.640, 65066.398
685.122, 64984.789
685.604, 64914.211
686.086, 64840.859
686.568, 64745.078
687.051, 64673.430
687.533, 64635.941
688.015, 64618.461
688.497, 64625.191
688.979, 64643.602
689.461, 64642.129
