##NAMES=Winchite
##RRUFFID=R060704
##IDEAL CHEMISTRY=[box]NaCa(Mg_4_Al)Si_8_O_22_(OH)_2_
##LOCALITY=Tirodi mines, Central Provinces, India
##OWNER=RRUFF
##SOURCE=Michael Scott
##DESCRIPTION=Matted group of tan colored bladed crystals, associated with ferriwinchite
##STATUS=The identification of this mineral is confirmed by single-crystal X-ray diffraction and chemical analysis.
##URL=rruff.info/R060704
##MEASURED CHEMISTRY=([box]_0.85_Na_0.09_K_0.06_)_Σ=1_(Ca_1.36_Na_0.64_)_Σ=2_(Mg_4.12_Fe^3+^_0.38_Mn_0.23_Fe^2+^_0.16_Al_0.11_)_Σ=5_Si_8.00_O_22_((OH)_1.90_F_0.10_)_Σ=2_ ; = gray phase. The bright phase is ferriwinchite
158.164, 43365.410
158.646, 43669.020
159.128, 43973.801
159.610, 44281.219
160.092, 44588.641
160.574, 44900.078
161.057, 45191.910
161.539, 45487.629
162.021, 45825.441
162.503, 46268.289
162.985, 46720.281
163.467, 47126.980
163.949, 47466.988
164.431, 47779.789
164.913, 48071.211
165.396, 48347.699
165.878, 48624.910
166.360, 48874.879
166.842, 49148.500
167.324, 49496.039
167.806, 49972.398
168.288, 50464.250
168.770, 50921.289
169.253, 51342.711
169.735, 51721.559
170.217, 52130.891
170.699, 52470.441
171.181, 52615.621
171.663, 52473.250
172.145, 52174.680
172.627, 51795.809
173.109, 51344.961
173.592, 50881.199
174.074, 50381.500
174.556, 49902.512
175.038, 49550.699
175.520, 49481.641
176.002, 49503.969
176.484, 49351.922
176.966, 49020.641
177.449, 48676.109
177.931, 48464.031
178.413, 48358.770
178.895, 48286.980
179.377, 48227.051
179.859, 48177.352
180.341, 48133.391
180.823, 48093.680
181.305, 48064.449
181.788, 48053.430
182.270, 48059.148
182.752, 48074.711
183.234, 48110.852
183.716, 48154.230
184.198, 48160.789
184.680, 48117.469
185.162, 48063.551
185.645, 48071.172
186.127, 48132.711
186.609, 48170.570
187.091, 48099.480
187.573, 47951.520
188.055, 47885.141
188.537, 47941.301
189.019, 48050.660
189.501, 48074.320
189.984, 48011.219
190.466, 47943.180
190.948, 47925.570
191.430, 47955.371
191.912, 48005.430
192.394, 48078.391
192.876, 48164.141
193.358, 48229.090
193.840, 48269.871
194.323, 48320.352
194.805, 48423.102
195.287, 48577.879
195.769, 48700.051
196.251, 48759.148
196.733, 48776.461
197.215, 48839.891
197.697, 48951.000
198.180, 49104.879
198.662, 49315.391
199.144, 49591.949
199.626, 49841.109
200.108, 50034.449
200.590, 50178.660
201.072, 50312.910
201.554, 50423.629
202.036, 50559.039
202.519, 50784.250
203.001, 51111.289
203.483, 51450.699
203.965, 51784.699
204.447, 52112.949
204.929, 52396.988
205.411, 52626.961
205.893, 52828.570
206.376, 53037.879
206.858, 53258.770
207.340, 53468.430
207.822, 53669.238
208.304, 53866.488
208.786, 53996.090
209.268, 54044.859
209.750, 54043.641
210.232, 54038.750
210.714, 54033.609
211.197, 54023.070
211.679, 53999.359
212.161, 53954.359
212.643, 53950.660
213.125, 54001.121
213.607, 54085.211
214.089, 54166.750
214.572, 54249.672
215.054, 54321.078
215.536, 54369.469
216.018, 54381.750
216.500, 54408.379
216.982, 54443.930
217.464, 54492.422
217.946, 54574.648
218.428, 54713.930
218.911, 54834.559
219.393, 54890.301
219.875, 54843.039
220.357, 54837.059
220.839, 54896.051
221.321, 54994.570
221.803, 55057.180
222.285, 55072.289
222.767, 55073.422
223.250, 55080.070
223.732, 55103.070
224.214, 55108.309
224.696, 55082.059
225.178, 55039.512
225.660, 55039.781
226.142, 55115.160
226.624, 55186.961
227.107, 55201.578
227.589, 55116.531
228.071, 55067.930
228.553, 55078.531
229.035, 55134.480
229.517, 55162.262
229.999, 55146.410
230.481, 55120.719
230.963, 55108.301
231.445, 55123.148
231.928, 55122.160
232.410, 55107.809
232.892, 55076.570
233.374, 55002.191
233.856, 54867.430
234.338, 54712.109
234.820, 54562.090
235.303, 54426.820
235.785, 54281.141
236.267, 54117.059
236.749, 53936.898
237.231, 53775.762
237.713, 53643.180
238.195, 53522.031
238.677, 53396.852
239.159, 53246.891
239.641, 53135.961
240.124, 53078.250
240.606, 53072.000
241.088, 53071.629
241.570, 53060.941
242.052, 53074.430
242.534, 53147.512
243.016, 53330.949
243.498, 53471.359
243.981, 53520.719
244.463, 53485.020
244.945, 53528.301
245.427, 53694.391
245.909, 53888.449
246.391, 54031.941
246.873, 54094.781
247.355, 54159.930
247.837, 54237.512
248.320, 54326.578
248.802, 54423.141
249.284, 54537.422
249.766, 54646.680
250.248, 54730.141
250.730, 54772.270
251.212, 54827.961
251.694, 54925.840
252.176, 55064.340
252.659, 55131.469
253.141, 55098.262
253.623, 55033.160
254.105, 54998.750
254.587, 55019.180
255.069, 55022.781
255.551, 54997.090
256.033, 54943.219
256.516, 54873.539
256.998, 54765.699
257.480, 54667.859
257.962, 54630.039
258.444, 54680.672
258.926, 54716.391
259.408, 54709.520
259.890, 54660.551
260.372, 54633.000
260.855, 54614.730
261.337, 54630.609
261.819, 54718.141
262.301, 54921.070
262.783, 55074.398
263.265, 55135.730
263.747, 55109.570
264.229, 55098.691
264.711, 55103.031
265.194, 55122.109
265.676, 55167.031
266.158, 55258.988
266.640, 55301.770
267.122, 55255.691
267.604, 55133.609
268.086, 55090.891
268.569, 55158.852
269.051, 55250.539
269.533, 55285.660
270.015, 55252.730
270.497, 55214.129
270.979, 55178.910
271.461, 55148.301
271.943, 55132.961
272.425, 55139.949
272.908, 55148.270
273.390, 55129.980
273.872, 55075.262
274.354, 55055.090
274.836, 55092.090
275.318, 55174.879
275.800, 55239.930
276.282, 55284.531
276.764, 55316.762
277.247, 55333.531
277.729, 55328.789
278.211, 55358.141
278.693, 55444.980
279.175, 55568.930
279.657, 55643.289
280.139, 55658.762
280.621, 55659.641
281.103, 55672.910
281.586, 55697.531
282.068, 55756.141
282.550, 55861.078
283.032, 55997.660
283.514, 56134.621
283.996, 56278.520
284.478, 56380.961
284.960, 56368.871
285.443, 56249.898
285.925, 56201.430
286.407, 56272.211
286.889, 56413.301
287.371, 56502.801
287.853, 56538.449
288.335, 56572.352
288.817, 56634.898
289.299, 56726.559
289.782, 56858.340
290.264, 57044.160
290.746, 57248.031
291.228, 57390.160
291.710, 57471.660
292.192, 57549.352
292.674, 57675.672
293.156, 57833.230
293.638, 57947.160
294.121, 57988.910
294.603, 58016.379
295.085, 58135.281
295.567, 58336.449
296.049, 58535.980
296.531, 58668.000
297.013, 58759.000
297.496, 58876.000
297.978, 59035.000
298.460, 59201.461
298.942, 59339.891
299.424, 59449.531
299.906, 59520.961
300.388, 59549.629
300.870, 59533.969
301.352, 59457.000
301.835, 59301.551
302.317, 59134.199
302.799, 59016.730
303.281, 58939.898
303.763, 58876.578
304.245, 58797.680
304.727, 58727.238
305.209, 58706.891
305.691, 58747.090
306.174, 58789.012
306.656, 58774.059
307.138, 58724.430
307.620, 58687.102
308.102, 58687.820
308.584, 58710.828
309.066, 58742.109
309.548, 58782.211
310.030, 58837.789
310.513, 58934.961
310.995, 59048.941
311.477, 59140.051
311.959, 59166.750
312.441, 59184.340
312.923, 59232.129
313.405, 59312.961
313.887, 59392.102
314.370, 59439.641
314.852, 59480.949
315.334, 59545.520
315.816, 59685.578
316.298, 59813.980
316.780, 59881.738
317.262, 59890.441
317.744, 59905.789
318.226, 59964.750
318.709, 60037.520
319.191, 60098.680
319.673, 60130.602
320.155, 60162.711
320.637, 60224.961
321.119, 60307.559
321.601, 60334.051
322.083, 60205.629
322.565, 60061.621
323.048, 59989.660
323.530, 60088.852
324.012, 60163.391
324.494, 60167.961
324.976, 60118.289
325.458, 60087.711
325.940, 60077.910
326.422, 60092.820
326.905, 60134.590
327.387, 60224.898
327.869, 60311.480
328.351, 60391.199
328.833, 60465.730
329.315, 60541.250
329.797, 60598.129
330.279, 60676.660
330.762, 60798.559
331.244, 61001.641
331.726, 61166.691
332.208, 61289.629
332.690, 61378.391
333.172, 61441.320
333.654, 61444.340
334.136, 61477.379
334.618, 61579.469
335.100, 61768.199
335.583, 61932.211
336.065, 62067.398
336.547, 62182.570
337.029, 62289.078
337.511, 62383.570
337.993, 62477.691
338.475, 62579.172
338.957, 62685.711
339.440, 62757.691
339.922, 62785.488
340.404, 62795.789
340.886, 62825.039
341.368, 62879.039
341.850, 62894.488
342.332, 62836.230
342.814, 62731.238
343.297, 62706.230
343.779, 62771.551
344.261, 62863.750
344.743, 62934.570
345.225, 62986.770
345.707, 63042.180
346.189, 63113.719
346.671, 63184.320
347.153, 63207.641
347.635, 63184.809
348.118, 63169.578
348.600, 63221.500
349.082, 63310.578
349.564, 63343.012
350.046, 63294.191
350.528, 63205.859
351.010, 63115.730
351.492, 63027.160
351.975, 62957.398
352.457, 62935.219
352.939, 62931.691
353.421, 62903.340
353.903, 62844.480
354.385, 62772.738
354.867, 62685.961
355.349, 62600.051
355.832, 62546.750
356.314, 62557.551
356.796, 62600.051
357.278, 62646.551
357.760, 62696.879
358.242, 62765.980
358.724, 62883.078
359.206, 63018.941
359.688, 63137.949
360.171, 63190.961
360.653, 63255.660
361.135, 63365.461
361.617, 63519.711
362.099, 63704.629
362.581, 63943.871
363.063, 64194.922
363.545, 64426.160
364.027, 64616.602
364.510, 64800.809
364.992, 64980.840
365.474, 65159.238
365.956, 65346.289
366.438, 65530.520
366.920, 65733.461
367.402, 65970.141
367.884, 66276.742
368.366, 66560.406
368.849, 66794.938
369.331, 67009.609
369.813, 67258.953
370.295, 67622.289
370.777, 67927.008
371.259, 68111.969
371.741, 68147.227
372.224, 68185.906
372.706, 68248.469
373.188, 68295.688
373.670, 68279.289
374.152, 68191.727
374.634, 68052.406
375.116, 67860.453
375.598, 67615.883
376.080, 67338.344
376.562, 67016.477
377.045, 66690.844
377.527, 66404.156
378.009, 66158.273
378.491, 65915.539
378.973, 65664.188
379.455, 65417.949
379.937, 65221.430
380.419, 65075.238
380.902, 64970.930
381.384, 64907.301
381.866, 64883.820
382.348, 64895.539
382.830, 64952.930
383.312, 65019.539
383.794, 65017.449
384.276, 64963.340
384.759, 64948.160
385.241, 65040.500
385.723, 65197.969
386.205, 65344.180
386.687, 65474.230
387.169, 65589.930
387.651, 65671.578
388.133, 65737.141
388.615, 65823.672
389.098, 65973.211
389.580, 66128.461
390.062, 66238.750
390.544, 66307.672
391.026, 66356.773
391.508, 66407.711
391.990, 66443.406
392.472, 66447.203
392.954, 66400.703
393.437, 66345.500
393.919, 66310.523
394.401, 66285.922
394.883, 66236.547
395.365, 66138.094
395.847, 66024.000
396.329, 65907.781
396.811, 65782.406
397.293, 65675.320
397.776, 65583.891
398.258, 65513.238
398.740, 65469.910
399.222, 65474.148
399.704, 65482.730
400.186, 65486.801
400.668, 65485.672
401.151, 65478.988
401.633, 65448.922
402.115, 65429.262
402.597, 65454.961
403.079, 65557.273
403.561, 65636.891
404.043, 65671.430
404.525, 65672.406
405.007, 65698.867
405.490, 65755.570
405.972, 65827.789
406.454, 65908.203
406.936, 65997.492
407.418, 66089.844
407.900, 66186.203
408.382, 66282.500
408.864, 66368.477
409.346, 66443.797
409.828, 66530.391
410.311, 66639.172
410.793, 66766.953
411.275, 66916.688
411.757, 67094.102
412.239, 67251.953
412.721, 67331.156
413.203, 67352.328
413.685, 67374.156
414.168, 67432.703
414.650, 67486.219
415.132, 67472.727
415.614, 67400.023
416.096, 67321.531
416.578, 67259.547
417.060, 67213.258
417.542, 67189.383
418.025, 67209.656
418.507, 67205.117
418.989, 67103.000
419.471, 66948.406
419.953, 66832.000
420.435, 66838.391
420.917, 66853.969
421.399, 66811.898
421.881, 66692.383
422.364, 66609.867
422.846, 66624.031
423.328, 66674.812
423.810, 66702.172
424.292, 66671.547
424.774, 66650.594
425.256, 66664.648
425.738, 66708.297
426.220, 66706.656
426.703, 66603.852
427.185, 66516.906
427.667, 66516.578
428.149, 66641.547
428.631, 66754.594
429.113, 66851.391
429.595, 66933.562
430.077, 67001.242
430.560, 67048.922
431.042, 67101.148
431.524, 67180.211
432.006, 67282.344
432.488, 67317.562
432.970, 67273.062
433.452, 67213.742
433.934, 67220.508
434.417, 67284.227
434.899, 67327.406
435.381, 67321.781
435.863, 67293.227
436.345, 67298.023
436.827, 67331.398
437.309, 67347.352
437.791, 67297.383
438.273, 67214.453
438.755, 67144.812
439.238, 67093.297
439.720, 67061.844
440.202, 67055.438
440.684, 67068.906
441.166, 67093.062
441.648, 67129.727
442.130, 67169.242
442.612, 67210.109
443.095, 67251.922
443.577, 67278.812
444.059, 67267.258
444.541, 67248.203
445.023, 67246.797
445.505, 67304.727
445.987, 67340.477
446.469, 67329.594
446.952, 67285.641
447.434, 67256.688
447.916, 67259.609
448.398, 67263.367
448.880, 67252.648
449.362, 67213.742
449.844, 67207.609
450.326, 67238.227
450.808, 67296.977
451.290, 67379.367
451.773, 67494.078
452.255, 67593.258
452.737, 67657.023
453.219, 67694.406
453.701, 67769.367
454.183, 67890.227
454.665, 67994.359
455.147, 68028.359
455.630, 68000.508
456.112, 67958.242
456.594, 67899.227
457.076, 67852.273
457.558, 67869.844
458.040, 67940.102
458.522, 68013.406
459.004, 68084.094
459.487, 68136.227
459.969, 68133.750
460.451, 68076.594
460.933, 68035.008
461.415, 68079.430
461.897, 68159.820
462.379, 68218.469
462.861, 68201.156
463.343, 68205.312
463.826, 68287.344
464.308, 68427.094
464.790, 68567.602
465.272, 68720.742
465.754, 68845.148
466.236, 68912.227
466.718, 68890.797
467.200, 68903.312
467.682, 68974.898
468.165, 69074.594
468.647, 69171.148
469.129, 69249.812
469.611, 69348.820
470.093, 69493.289
470.575, 69666.992
471.057, 69757.320
471.539, 69727.023
472.022, 69695.922
472.504, 69745.023
472.986, 69879.727
473.468, 70004.297
473.950, 70117.773
474.432, 70207.859
474.914, 70252.141
475.396, 70253.977
475.878, 70234.891
476.361, 70188.383
476.843, 70136.391
477.325, 70128.977
477.807, 70165.352
478.289, 70209.828
478.771, 70245.430
479.253, 70271.477
479.735, 70278.406
480.217, 70244.297
480.700, 70237.711
481.182, 70351.062
481.664, 70522.109
482.146, 70627.391
482.628, 70535.617
483.110, 70431.641
483.592, 70397.797
484.074, 70440.742
484.556, 70498.148
485.039, 70567.273
485.521, 70635.203
486.003, 70692.727
486.485, 70749.477
486.967, 70780.156
487.449, 70782.547
487.931, 70759.477
488.414, 70713.828
488.896, 70637.094
489.378, 70564.148
489.860, 70510.617
490.342, 70479.469
490.824, 70451.719
491.306, 70429.844
491.788, 70411.391
492.270, 70390.656
492.753, 70369.547
493.235, 70359.141
493.717, 70360.094
494.199, 70374.352
494.681, 70424.422
495.163, 70498.672
495.645, 70540.633
496.127, 70463.117
496.609, 70354.562
497.092, 70333.680
497.574, 70412.148
498.056, 70529.883
498.538, 70696.477
499.020, 70863.180
499.502, 70969.562
499.984, 70951.062
500.466, 70919.453
500.948, 70902.922
501.431, 70903.930
501.913, 70930.578
502.395, 70978.609
502.877, 71058.656
503.359, 71187.773
503.841, 71398.047
504.323, 71544.844
504.805, 71589.656
505.288, 71598.289
505.770, 71640.227
506.252, 71721.227
506.734, 71815.594
507.216, 71924.289
507.698, 72039.367
508.180, 72126.203
508.662, 72180.180
509.145, 72250.641
509.627, 72390.328
510.109, 72577.398
510.591, 72712.844
511.073, 72789.422
511.555, 72840.938
512.037, 72885.219
512.519, 72933.109
513.001, 73006.680
513.484, 73117.633
513.966, 73253.797
514.448, 73426.000
514.930, 73619.648
515.412, 73783.438
515.894, 73863.992
516.376, 73925.961
516.858, 74004.359
517.341, 74101.797
517.823, 74217.883
518.305, 74370.656
518.787, 74532.750
519.269, 74675.859
519.751, 74807.672
520.233, 74909.102
520.715, 74972.117
521.197, 75002.359
521.680, 75015.102
522.162, 75001.102
522.644, 74992.656
523.126, 75004.719
523.608, 75038.133
524.090, 75090.102
524.572, 75166.773
525.054, 75243.453
525.536, 75269.094
526.019, 75261.953
526.501, 75328.102
526.983, 75520.680
527.465, 75754.898
527.947, 75904.141
528.429, 75986.531
528.911, 76082.773
529.393, 76245.422
529.875, 76434.977
530.358, 76628.008
530.840, 76822.281
531.322, 76988.328
531.804, 77080.742
532.286, 77153.672
532.768, 77253.461
533.250, 77408.328
533.732, 77572.742
534.214, 77754.930
534.697, 77944.273
535.179, 78116.461
535.661, 78261.594
536.143, 78404.148
536.625, 78538.656
537.107, 78665.492
537.589, 78864.609
538.071, 79164.352
538.554, 79464.758
539.036, 79670.922
539.518, 79784.242
540.000, 79878.711
540.482, 79960.453
540.964, 80027.453
541.446, 80077.523
541.928, 80109.211
542.411, 80121.859
542.893, 80146.047
543.375, 80131.070
543.857, 79999.930
544.339, 79760.750
544.821, 79494.812
545.303, 79210.211
545.785, 78938.781
546.268, 78712.773
546.750, 78563.688
547.232, 78397.922
547.714, 78175.133
548.196, 77928.453
548.678, 77696.852
549.160, 77470.758
549.642, 77282.008
550.124, 77154.273
550.606, 77074.844
551.089, 76953.852
551.571, 76772.453
552.053, 76591.008
552.535, 76440.141
553.017, 76319.227
553.499, 76230.703
553.981, 76181.508
554.463, 76136.961
554.945, 76034.180
555.428, 75893.820
555.910, 75816.047
556.392, 75858.508
556.874, 75927.523
557.356, 75891.578
557.838, 75784.258
558.320, 75710.078
558.802, 75773.156
559.284, 75855.133
559.767, 75859.688
560.249, 75776.680
560.731, 75716.289
561.213, 75719.344
561.695, 75756.133
562.177, 75804.578
562.659, 75896.047
563.141, 75951.656
563.624, 75955.039
564.106, 75925.828
564.588, 75893.398
565.070, 75844.742
565.552, 75823.922
566.034, 75844.633
566.516, 75902.938
566.998, 75993.906
567.481, 76123.000
567.963, 76230.883
568.445, 76268.594
568.927, 76251.977
569.409, 76226.711
569.891, 76195.594
570.373, 76167.719
570.855, 76130.039
571.338, 76106.070
571.820, 76138.750
572.302, 76292.406
572.784, 76447.633
573.266, 76546.617
573.748, 76596.047
574.230, 76619.031
574.712, 76614.750
575.194, 76591.422
575.677, 76533.359
576.159, 76425.383
576.641, 76405.477
577.123, 76553.047
577.605, 76704.328
578.087, 76722.359
578.569, 76558.852
579.051, 76467.633
579.533, 76473.539
580.016, 76550.070
580.498, 76668.141
580.980, 76825.227
581.462, 76982.203
581.944, 77139.031
582.426, 77276.070
582.908, 77339.578
583.390, 77338.352
583.872, 77334.523
584.355, 77364.180
584.837, 77409.141
585.319, 77447.867
585.801, 77472.523
586.283, 77521.211
586.765, 77658.492
587.247, 77802.500
587.729, 77878.609
588.211, 77803.117
588.694, 77748.742
589.176, 77743.680
589.658, 77764.344
590.140, 77761.719
590.622, 77738.203
591.104, 77684.141
591.586, 77580.727
592.068, 77441.094
592.551, 77373.258
593.033, 77386.070
593.515, 77399.977
593.997, 77336.109
594.479, 77226.227
594.961, 77169.703
595.443, 77180.211
595.925, 77209.172
596.407, 77220.773
596.890, 77219.094
597.372, 77207.852
597.854, 77149.672
598.336, 77130.773
598.818, 77248.992
599.300, 77441.562
599.782, 77541.359
600.265, 77399.703
600.747, 77272.203
601.229, 77240.719
601.711, 77306.133
602.193, 77388.578
602.675, 77504.688
603.157, 77608.602
603.639, 77659.062
604.121, 77648.047
604.604, 77684.953
605.086, 77786.898
605.568, 77898.406
606.050, 77940.320
606.532, 77928.156
607.014, 77927.461
607.496, 77953.203
607.978, 78003.789
608.460, 78104.742
608.943, 78232.453
609.425, 78317.602
609.907, 78288.289
610.389, 78239.352
610.871, 78230.852
611.353, 78266.156
611.835, 78280.969
612.317, 78238.961
612.799, 78192.633
613.282, 78167.977
613.764, 78160.359
614.246, 78197.008
614.728, 78301.453
615.210, 78422.906
615.692, 78496.953
616.174, 78522.258
616.656, 78535.156
617.138, 78532.992
617.621, 78538.891
618.103, 78614.242
618.585, 78743.820
619.067, 78854.648
619.549, 78883.781
620.031, 78889.344
620.513, 78941.930
620.995, 79035.000
621.477, 79103.656
621.960, 79082.367
622.442, 79046.023
622.924, 79047.617
623.406, 79110.883
623.888, 79158.039
624.370, 79160.883
624.852, 79156.242
625.334, 79182.047
625.817, 79260.352
626.299, 79309.422
626.781, 79311.477
627.263, 79290.977
627.745, 79300.258
628.227, 79339.750
628.709, 79382.367
629.191, 79431.383
629.674, 79469.648
630.156, 79442.531
630.638, 79362.508
631.120, 79303.453
631.602, 79344.852
632.084, 79409.320
632.566, 79418.789
633.048, 79358.000
633.531, 79316.141
634.013, 79349.523
634.495, 79403.461
634.977, 79433.852
635.459, 79382.617
635.941, 79391.008
636.423, 79498.531
636.905, 79636.359
637.387, 79686.383
637.870, 79623.133
638.352, 79588.094
638.834, 79617.594
639.316, 79692.047
639.798, 79778.289
640.280, 79873.742
640.762, 79949.477
641.244, 79959.383
641.726, 79957.930
642.209, 80033.062
642.691, 80182.961
643.173, 80320.297
643.655, 80389.688
644.137, 80435.781
644.619, 80491.859
645.101, 80564.477
645.583, 80644.711
646.065, 80728.609
646.548, 80821.102
647.030, 80923.688
647.512, 81031.141
647.994, 81157.648
648.476, 81304.289
648.958, 81465.992
