##NAMES=Winchite
##RRUFFID=R061124
##IDEAL CHEMISTRY=[box]NaCa(Mg_4_Al)Si_8_O_22_(OH)_2_
##LOCALITY=Iratuyama, Ehime Prefecture, Japan
##OWNER=RRUFF
##SOURCE=Michael Scott
##DESCRIPTION=Dark green prismatic crystals frozen in a matrix of calcite and mica
##STATUS=The identification of this mineral is confirmed by single-crystal X-ray diffraction and chemical analysis.
##URL=rruff.info/R061124
##MEASURED CHEMISTRY=([box]_0.65_Na_0.31_K_0.04_)_Σ=1_Na_1.00_(Ca_0.97_Mn_0.03_)_Σ=1_[(Mg_3.36_Fe^2+^_0.64_)_Σ=4_(Al_0.55_Fe^3+^_0.35_)_Σ=1_](Si_7.65_Al_0.35_)_Σ=8_O_22_((OH)_1.87_F_0.13_)_Σ=2_
126.9327, 2158.209
127.4148, 2241.313
127.8969, 2328.342
128.3790, 2430.214
128.8611, 2551.883
129.3432, 2691.536
129.8254, 2841.886
130.3075, 3023.485
130.7896, 3192.230
131.2717, 3353.841
131.7538, 3495.529
132.2359, 3590.238
132.7181, 3619.920
133.2002, 3595.822
133.6823, 3569.419
134.1644, 3547.395
134.6465, 3517.017
135.1286, 3470.200
135.6108, 3410.666
136.0929, 3347.772
136.5750, 3285.719
137.0571, 3225.181
137.5392, 3168.452
138.0213, 3108.884
138.5035, 3058.126
138.9856, 3020.820
139.4677, 2997.257
139.9498, 2990.280
140.4319, 3001.089
140.9140, 3032.768
141.3961, 3083.129
141.8783, 3158.282
142.3604, 3247.707
142.8425, 3344.120
143.3246, 3447.525
143.8067, 3557.910
144.2888, 3669.750
144.7710, 3791.400
145.2531, 3940.335
145.7352, 4105.354
146.2173, 4239.383
146.6994, 4329.014
147.1815, 4408.084
147.6637, 4471.833
148.1458, 4516.354
148.6279, 4545.810
149.1100, 4562.379
149.5921, 4567.502
150.0742, 4560.063
150.5564, 4533.833
151.0385, 4482.864
151.5206, 4432.458
152.0027, 4400.405
152.4848, 4376.080
152.9669, 4344.910
153.4491, 4297.751
153.9312, 4240.810
154.4133, 4186.432
154.8954, 4132.755
155.3775, 4083.663
155.8596, 4040.467
156.3418, 4001.702
156.8239, 3966.106
157.3060, 3934.060
157.7881, 3903.914
158.2702, 3870.454
158.7523, 3829.937
159.2345, 3793.281
159.7166, 3764.741
160.1987, 3742.635
160.6808, 3724.405
161.1629, 3708.128
161.6451, 3695.124
162.1272, 3691.601
162.6093, 3707.351
163.0914, 3717.959
163.5735, 3710.383
164.0556, 3693.828
164.5378, 3682.667
165.0199, 3685.541
165.5020, 3700.601
165.9841, 3718.790
166.4662, 3742.738
166.9483, 3767.313
167.4305, 3789.920
167.9126, 3812.222
168.3947, 3836.795
168.8768, 3864.864
169.3589, 3896.538
169.8410, 3933.872
170.3232, 3988.236
170.8053, 4033.889
171.2874, 4068.027
171.7695, 4088.437
172.2516, 4091.469
172.7337, 4071.808
173.2159, 4032.046
173.6980, 3997.906
174.1801, 3980.811
174.6622, 3955.777
175.1443, 3913.770
175.6264, 3859.538
176.1085, 3801.572
176.5907, 3745.834
177.0728, 3691.373
177.5549, 3633.631
178.0370, 3569.748
178.5191, 3505.095
179.0012, 3439.967
179.4834, 3375.090
179.9655, 3311.192
180.4476, 3247.357
180.9297, 3184.746
181.4118, 3134.600
181.8939, 3106.425
182.3761, 3082.597
182.8582, 3061.456
183.3403, 3042.373
183.8224, 3024.553
184.3045, 3007.076
184.7866, 2990.630
185.2688, 2980.710
185.7509, 2988.805
186.2330, 2991.989
186.7151, 2983.810
187.1972, 2968.119
187.6793, 2952.088
188.1615, 2940.438
188.6436, 2931.909
189.1257, 2916.088
189.6078, 2873.595
190.0899, 2844.479
190.5720, 2843.581
191.0542, 2859.349
191.5363, 2873.495
192.0184, 2874.772
192.5005, 2865.912
192.9826, 2863.491
193.4647, 2878.094
193.9469, 2887.920
194.4290, 2887.515
194.9111, 2880.770
195.3932, 2873.713
195.8753, 2869.719
196.3574, 2867.805
196.8396, 2863.264
197.3217, 2848.693
197.8038, 2839.757
198.2859, 2842.928
198.7680, 2851.735
199.2501, 2856.665
199.7323, 2852.519
200.2144, 2842.938
200.6965, 2841.557
201.1786, 2861.423
201.6607, 2875.321
202.1428, 2875.431
202.6250, 2870.148
203.1071, 2870.847
203.5892, 2882.869
204.0713, 2901.527
204.5534, 2912.765
205.0355, 2911.077
205.5177, 2907.520
205.9998, 2899.183
206.4819, 2890.526
206.9640, 2887.009
207.4461, 2890.790
207.9282, 2898.878
208.4104, 2904.373
208.8925, 2907.552
209.3746, 2907.031
209.8567, 2895.485
210.3388, 2883.744
210.8209, 2883.605
211.3030, 2898.812
211.7852, 2922.145
212.2673, 2940.428
212.7494, 2952.057
213.2315, 2960.008
213.7136, 2962.308
214.1957, 2962.458
214.6779, 2963.261
215.1600, 2965.521
215.6421, 2968.310
216.1242, 2969.654
216.6063, 2965.260
217.0884, 2968.562
217.5706, 2983.322
218.0527, 3002.235
218.5348, 3023.261
219.0169, 3044.542
219.4990, 3060.800
219.9811, 3064.014
220.4633, 3046.813
220.9454, 3036.074
221.4275, 3036.321
221.9096, 3038.239
222.3917, 3035.948
222.8738, 3029.100
223.3560, 3021.462
223.8381, 3017.961
224.3202, 3021.616
224.8023, 3016.136
225.2844, 2995.407
225.7665, 2972.473
226.2487, 2953.096
226.7308, 2937.508
227.2129, 2923.216
227.6950, 2908.090
228.1771, 2892.057
228.6592, 2876.155
229.1414, 2861.369
229.6235, 2845.805
230.1056, 2828.304
230.5877, 2809.389
231.0698, 2790.771
231.5519, 2774.130
232.0341, 2759.345
232.5162, 2739.255
232.9983, 2702.250
233.4804, 2671.955
233.9625, 2657.795
234.4446, 2653.763
234.9268, 2648.915
235.4089, 2636.281
235.8910, 2617.458
236.3731, 2601.792
236.8552, 2590.672
237.3373, 2581.549
237.8195, 2577.729
238.3016, 2574.608
238.7837, 2564.932
239.2658, 2544.643
239.7479, 2519.087
240.2300, 2504.800
240.7122, 2510.237
241.1943, 2514.646
241.6764, 2515.803
242.1585, 2514.437
242.6406, 2510.738
243.1227, 2504.811
243.6049, 2497.917
244.0870, 2491.833
244.5691, 2484.488
245.0512, 2482.887
245.5333, 2494.385
246.0154, 2506.760
246.4975, 2509.990
246.9797, 2502.167
247.4618, 2490.044
247.9439, 2481.559
248.4260, 2476.139
248.9081, 2476.542
249.3902, 2486.277
249.8724, 2499.224
250.3545, 2514.555
250.8366, 2530.993
251.3187, 2544.927
251.8008, 2552.205
252.2829, 2552.349
252.7651, 2550.988
253.2472, 2547.230
253.7293, 2542.766
254.2114, 2537.791
254.6935, 2532.667
255.1756, 2528.228
255.6578, 2525.994
256.1399, 2525.477
256.6220, 2522.674
257.1041, 2521.149
257.5862, 2511.524
258.0684, 2483.396
258.5505, 2445.832
259.0326, 2416.340
259.5147, 2407.949
259.9968, 2412.106
260.4789, 2405.284
260.9611, 2382.885
261.4432, 2359.935
261.9253, 2342.142
262.4074, 2327.757
262.8895, 2314.712
263.3716, 2302.151
263.8537, 2290.956
264.3358, 2281.511
264.8180, 2273.313
265.3001, 2270.294
265.7822, 2282.656
266.2643, 2296.499
266.7464, 2295.625
267.2285, 2274.281
267.7107, 2250.545
268.1928, 2243.254
268.6749, 2251.087
269.1570, 2252.815
269.6391, 2237.125
270.1212, 2218.038
270.6034, 2212.744
271.0855, 2222.448
271.5676, 2231.937
272.0497, 2227.370
272.5318, 2215.197
273.0139, 2218.063
273.4961, 2246.566
273.9782, 2277.281
274.4603, 2284.504
274.9424, 2271.058
275.4245, 2253.573
275.9066, 2230.191
276.3888, 2208.482
276.8709, 2199.957
277.3530, 2206.349
277.8351, 2220.555
278.3172, 2240.632
278.7993, 2265.024
279.2815, 2281.889
279.7636, 2289.837
280.2457, 2290.257
280.7278, 2278.997
281.2099, 2258.307
281.6920, 2244.161
282.1742, 2248.335
282.6563, 2266.755
283.1384, 2277.712
283.6205, 2282.530
284.1026, 2279.596
284.5847, 2259.827
285.0669, 2232.045
285.5490, 2217.002
286.0311, 2225.741
286.5132, 2247.525
286.9953, 2254.523
287.4774, 2233.424
287.9596, 2220.414
288.4417, 2218.474
288.9238, 2227.782
289.4059, 2255.259
289.8880, 2301.771
290.3701, 2348.012
290.8523, 2365.350
291.3344, 2337.055
291.8165, 2320.032
292.2986, 2320.492
292.7807, 2326.430
293.2628, 2329.025
293.7450, 2328.476
294.2271, 2331.840
294.7092, 2346.804
295.1913, 2374.937
295.6734, 2395.209
296.1555, 2404.863
296.6377, 2409.902
297.1198, 2409.732
297.6019, 2406.483
298.0840, 2403.535
298.5661, 2403.043
299.0482, 2404.456
299.5304, 2405.171
300.0125, 2405.343
300.4946, 2404.539
300.9767, 2402.028
301.4588, 2398.948
301.9409, 2395.695
302.4231, 2392.420
302.9052, 2391.109
303.3873, 2397.274
303.8694, 2416.397
304.3515, 2426.025
304.8336, 2415.912
305.3158, 2400.802
305.7979, 2388.758
306.2800, 2380.904
306.7621, 2374.354
307.2442, 2364.788
307.7263, 2352.469
308.2085, 2347.865
308.6906, 2359.605
309.1727, 2369.099
309.6548, 2361.199
310.1369, 2341.801
310.6190, 2328.643
311.1012, 2334.603
311.5833, 2352.202
312.0654, 2365.594
312.5475, 2374.735
313.0296, 2379.479
313.5117, 2379.009
313.9939, 2373.976
314.4760, 2363.746
314.9581, 2342.602
315.4402, 2323.901
315.9223, 2323.766
316.4044, 2339.788
316.8866, 2350.752
317.3687, 2347.248
317.8508, 2335.348
318.3329, 2326.029
318.8150, 2319.730
319.2971, 2314.131
319.7793, 2306.779
320.2614, 2299.881
320.7435, 2297.796
321.2256, 2301.839
321.7077, 2308.301
322.1898, 2312.794
322.6720, 2314.820
323.1541, 2318.272
323.6362, 2326.206
324.1183, 2333.492
324.6004, 2331.945
325.0826, 2324.127
325.5647, 2325.014
326.0468, 2348.226
326.5289, 2391.826
327.0110, 2418.078
327.4931, 2417.890
327.9753, 2413.620
328.4574, 2407.483
328.9395, 2401.950
329.4216, 2401.257
329.9037, 2407.406
330.3858, 2416.503
330.8680, 2419.280
331.3501, 2412.484
331.8322, 2404.219
332.3143, 2388.141
332.7964, 2375.405
333.2785, 2378.377
333.7606, 2396.685
334.2427, 2415.629
334.7249, 2417.660
335.2070, 2400.135
335.6891, 2386.353
336.1712, 2378.032
336.6533, 2371.978
337.1354, 2366.730
337.6176, 2362.762
338.0997, 2361.836
338.5818, 2367.090
339.0639, 2374.591
339.5460, 2371.912
340.0281, 2355.088
340.5103, 2338.831
340.9924, 2328.758
341.4745, 2322.328
341.9566, 2318.441
342.4387, 2318.144
342.9208, 2315.490
343.4030, 2300.319
343.8851, 2274.872
344.3672, 2260.996
344.8493, 2268.970
345.3314, 2284.248
345.8135, 2290.725
346.2957, 2288.764
346.7778, 2283.974
347.2599, 2272.403
347.7420, 2261.704
348.2241, 2266.736
348.7062, 2289.330
349.1884, 2308.948
349.6705, 2307.077
350.1526, 2285.134
350.6347, 2273.018
351.1168, 2277.075
351.5989, 2284.280
352.0811, 2289.485
352.5632, 2292.917
353.0453, 2295.347
353.5274, 2296.987
354.0095, 2298.493
354.4916, 2301.565
354.9738, 2308.729
355.4559, 2314.108
355.9380, 2316.925
356.4201, 2318.416
356.9022, 2318.566
357.3843, 2317.940
357.8665, 2318.725
358.3486, 2323.125
358.8307, 2331.089
359.3128, 2343.017
359.7949, 2365.163
360.2770, 2385.267
360.7592, 2394.888
361.2413, 2399.999
361.7234, 2413.206
362.2055, 2443.375
362.6876, 2482.430
363.1697, 2508.122
363.6519, 2516.197
364.1340, 2521.975
364.6161, 2523.657
365.0982, 2528.389
365.5803, 2544.614
366.0624, 2574.292
366.5446, 2604.865
367.0267, 2625.792
367.5088, 2638.185
367.9909, 2648.844
368.4730, 2658.208
368.9551, 2666.925
369.4373, 2675.780
369.9194, 2684.579
370.4015, 2692.327
370.8836, 2698.884
371.3657, 2704.164
371.8478, 2709.697
372.3300, 2714.981
372.8121, 2714.367
373.2942, 2703.773
373.7763, 2685.426
374.2584, 2667.066
374.7405, 2644.831
375.2227, 2628.034
375.7048, 2621.396
376.1869, 2620.504
376.6690, 2620.252
377.1511, 2619.116
377.6332, 2617.013
378.1154, 2613.573
378.5975, 2607.756
379.0796, 2604.269
379.5617, 2606.967
380.0438, 2607.873
380.5259, 2600.526
381.0081, 2588.103
381.4902, 2578.752
381.9723, 2577.938
382.4544, 2583.736
382.9365, 2588.612
383.4186, 2592.768
383.9008, 2595.447
384.3829, 2595.477
384.8650, 2594.753
385.3471, 2594.983
385.8292, 2596.551
386.3113, 2598.513
386.7935, 2601.479
387.2756, 2605.046
387.7577, 2601.519
388.2398, 2583.209
388.7219, 2568.497
389.2040, 2576.694
389.6862, 2600.236
390.1683, 2615.368
390.6504, 2611.334
391.1325, 2596.738
391.6146, 2578.824
392.0967, 2557.921
392.5789, 2537.900
393.0610, 2520.209
393.5431, 2505.012
394.0252, 2492.836
394.5073, 2483.978
394.9894, 2476.956
395.4716, 2474.695
395.9537, 2472.523
396.4358, 2464.227
396.9179, 2448.807
397.4000, 2430.236
397.8821, 2411.918
398.3643, 2393.093
398.8464, 2380.779
399.3285, 2379.531
399.8106, 2378.902
400.2927, 2376.765
400.7748, 2372.418
401.2570, 2364.842
401.7391, 2353.362
402.2212, 2339.740
402.7033, 2326.517
403.1854, 2310.338
403.6675, 2304.043
404.1497, 2319.446
404.6317, 2337.822
405.1139, 2346.586
405.5960, 2345.820
406.0781, 2345.524
406.5602, 2354.939
407.0423, 2370.653
407.5244, 2380.970
408.0066, 2384.593
408.4887, 2386.028
408.9708, 2386.894
409.4529, 2387.592
409.9350, 2388.930
410.4171, 2391.203
410.8993, 2393.848
411.3814, 2395.940
411.8635, 2398.136
412.3456, 2403.467
412.8277, 2413.669
413.3098, 2422.542
413.7920, 2420.720
414.2741, 2403.310
414.7562, 2392.087
415.2383, 2396.204
415.7204, 2398.592
416.2025, 2383.010
416.6847, 2355.864
417.1668, 2338.233
417.6489, 2344.494
418.1310, 2366.765
418.6131, 2373.037
419.0952, 2351.430
419.5774, 2332.705
420.0595, 2322.552
420.5416, 2314.887
421.0237, 2304.412
421.5058, 2290.580
421.9879, 2277.366
422.4701, 2268.964
422.9522, 2264.938
423.4343, 2261.761
423.9164, 2262.944
424.3985, 2257.984
424.8806, 2232.168
425.3628, 2197.858
425.8449, 2176.838
426.3270, 2179.103
426.8091, 2188.641
427.2912, 2195.051
427.7733, 2197.984
428.2555, 2194.919
428.7376, 2183.467
429.2197, 2170.272
429.7018, 2164.739
430.1839, 2168.249
430.6660, 2172.734
431.1482, 2179.518
431.6303, 2185.636
432.1124, 2188.536
432.5945, 2188.847
433.0766, 2188.988
433.5587, 2190.447
434.0409, 2192.853
434.5230, 2194.864
435.0051, 2197.473
435.4872, 2197.995
435.9693, 2193.626
436.4514, 2189.099
436.9336, 2187.997
437.4157, 2190.795
437.8978, 2195.936
438.3799, 2206.422
438.8620, 2220.059
439.3441, 2215.075
439.8263, 2179.747
440.3084, 2150.632
440.7905, 2157.763
441.2726, 2179.835
441.7547, 2186.319
442.2368, 2165.584
442.7190, 2140.791
443.2011, 2128.134
443.6832, 2124.793
444.1653, 2123.794
444.6474, 2123.964
445.1295, 2123.231
445.6117, 2118.349
446.0938, 2108.128
446.5759, 2103.314
447.0580, 2105.756
447.5401, 2111.819
448.0222, 2123.833
448.5044, 2137.617
448.9865, 2144.870
449.4686, 2141.427
449.9507, 2131.115
450.4328, 2122.313
450.9149, 2115.719
451.3971, 2109.043
451.8792, 2097.871
452.3613, 2090.190
452.8434, 2092.936
453.3255, 2103.844
453.8076, 2114.230
454.2898, 2119.780
454.7719, 2120.280
455.2540, 2113.058
455.7361, 2096.152
456.2182, 2083.102
456.7003, 2080.472
457.1825, 2084.122
457.6646, 2088.171
458.1467, 2093.281
458.6288, 2095.552
459.1109, 2085.239
459.5930, 2074.964
460.0752, 2088.657
460.5573, 2126.732
461.0394, 2157.944
461.5215, 2156.300
462.0036, 2125.420
462.4857, 2105.139
462.9679, 2098.471
463.4500, 2098.053
463.9321, 2107.035
464.4142, 2119.412
464.8963, 2131.403
465.3784, 2141.058
465.8606, 2144.258
466.3427, 2131.262
466.8248, 2100.960
467.3069, 2091.177
467.7890, 2118.338
468.2711, 2141.811
468.7533, 2140.404
469.2354, 2125.020
469.7175, 2111.760
470.1996, 2104.463
470.6817, 2101.530
471.1638, 2104.071
471.6460, 2110.202
472.1281, 2112.621
472.6102, 2109.311
473.0923, 2103.103
473.5744, 2095.162
474.0565, 2085.033
474.5387, 2083.706
475.0208, 2102.488
475.5029, 2118.751
475.9850, 2120.979
476.4671, 2112.554
476.9492, 2098.599
477.4313, 2081.329
477.9135, 2065.253
478.3956, 2059.525
478.8777, 2068.828
479.3598, 2074.812
479.8419, 2075.116
480.3240, 2074.043
480.8062, 2073.478
481.2883, 2072.918
481.7704, 2070.709
482.2525, 2065.346
482.7346, 2059.100
483.2167, 2056.205
483.6989, 2056.557
484.1810, 2053.611
484.6631, 2043.342
485.1452, 2032.044
485.6273, 2028.878
486.1094, 2033.725
486.5916, 2037.817
487.0737, 2038.314
487.5558, 2038.489
488.0379, 2042.452
488.5200, 2048.464
489.0021, 2050.756
489.4843, 2046.197
489.9664, 2036.990
490.4485, 2027.902
490.9306, 2015.124
491.4127, 2010.099
491.8948, 2017.054
492.3770, 2027.223
492.8591, 2038.771
493.3412, 2049.452
493.8233, 2054.244
494.3054, 2047.496
494.7875, 2035.908
495.2697, 2033.750
495.7518, 2041.685
496.2339, 2051.667
496.7160, 2061.216
497.1981, 2071.650
497.6802, 2087.125
498.1624, 2108.514
498.6445, 2120.796
499.1266, 2114.316
499.6087, 2101.005
500.0908, 2086.782
500.5729, 2074.719
501.0551, 2074.323
501.5372, 2092.119
502.0193, 2120.590
502.5014, 2139.840
502.9835, 2147.725
503.4656, 2149.387
503.9478, 2132.593
504.4299, 2120.933
504.9120, 2135.706
505.3941, 2169.743
505.8762, 2196.525
506.3583, 2196.462
506.8405, 2182.054
507.3226, 2181.088
507.8047, 2194.830
508.2868, 2209.284
508.7689, 2221.131
509.2510, 2230.589
509.7332, 2235.235
510.2153, 2234.343
510.6974, 2242.714
511.1795, 2277.890
511.6616, 2313.380
512.1437, 2321.803
512.6259, 2308.784
513.1080, 2298.022
513.5901, 2301.737
514.0722, 2315.242
514.5543, 2327.688
515.0364, 2336.434
515.5186, 2349.394
516.0007, 2376.534
516.4828, 2398.482
516.9649, 2398.752
517.4470, 2384.766
517.9291, 2378.102
518.4113, 2392.694
518.8934, 2417.071
519.3755, 2432.418
519.8576, 2438.714
520.3397, 2443.338
520.8218, 2446.895
521.3040, 2451.577
521.7861, 2462.174
522.2682, 2478.444
522.7503, 2489.421
523.2324, 2487.271
523.7145, 2485.072
524.1967, 2491.556
524.6788, 2504.581
525.1609, 2519.220
525.6430, 2533.443
526.1251, 2546.314
526.6072, 2555.499
527.0894, 2558.369
527.5715, 2566.465
528.0536, 2585.730
528.5357, 2604.474
529.0178, 2617.762
529.4999, 2627.479
529.9821, 2637.145
530.4642, 2647.775
530.9463, 2659.564
531.4284, 2674.252
531.9105, 2690.693
532.3926, 2703.000
532.8748, 2708.992
533.3569, 2714.417
533.8390, 2722.843
534.3211, 2734.750
534.8032, 2757.011
535.2853, 2805.640
535.7675, 2845.571
536.2496, 2859.451
536.7317, 2860.136
537.2138, 2865.107
537.6959, 2878.422
538.1780, 2890.802
538.6602, 2890.590
539.1423, 2878.077
539.6244, 2870.238
540.1065, 2869.994
540.5886, 2869.132
541.0707, 2860.263
541.5529, 2850.828
542.0350, 2851.547
542.5171, 2866.251
542.9992, 2877.854
543.4813, 2878.594
543.9634, 2869.219
544.4456, 2844.447
544.9277, 2806.097
545.4098, 2777.905
545.8919, 2778.897
546.3740, 2799.163
546.8561, 2798.120
547.3383, 2751.222
547.8204, 2717.341
548.3025, 2706.416
548.7846, 2702.380
549.2667, 2695.983
549.7488, 2685.936
550.2310, 2673.298
550.7131, 2657.785
551.1952, 2641.462
551.6773, 2629.654
552.1594, 2622.710
552.6415, 2614.017
553.1237, 2599.666
553.6058, 2585.538
554.0879, 2581.113
554.5700, 2586.080
555.0521, 2585.800
555.5342, 2575.675
556.0164, 2562.086
556.4985, 2547.168
556.9806, 2532.032
557.4627, 2518.655
557.9448, 2507.745
558.4269, 2497.539
558.9091, 2484.594
559.3912, 2467.460
559.8733, 2456.909
560.3554, 2458.027
560.8375, 2458.957
561.3196, 2457.414
561.8018, 2451.853
562.2839, 2438.287
562.7660, 2413.249
563.2481, 2390.421
563.7302, 2381.041
564.2123, 2380.294
564.6945, 2381.296
565.1766, 2382.794
565.6587, 2377.787
566.1408, 2358.896
566.6229, 2330.615
567.1050, 2315.761
567.5872, 2326.922
568.0693, 2335.289
568.5514, 2339.593
569.0335, 2340.757
569.5156, 2338.735
569.9977, 2334.131
570.4799, 2328.047
570.9620, 2319.538
571.4441, 2311.956
571.9262, 2317.756
572.4083, 2337.400
572.8904, 2336.760
573.3726, 2296.591
573.8547, 2248.732
574.3368, 2234.041
574.8189, 2253.267
575.3010, 2261.035
575.7831, 2244.227
576.2653, 2225.327
576.7474, 2215.323
577.2295, 2210.757
577.7116, 2206.125
578.1937, 2199.526
578.6758, 2191.242
579.1580, 2182.165
579.6401, 2172.319
580.1222, 2156.768
580.6042, 2129.932
581.0864, 2108.344
581.5685, 2103.136
582.0506, 2105.531
582.5327, 2106.799
583.0148, 2106.453
583.4969, 2102.596
583.9791, 2091.420
584.4612, 2078.078
584.9433, 2069.413
585.4254, 2064.767
585.9075, 2058.721
586.3896, 2048.092
586.8718, 2034.580
587.3539, 2022.271
587.8360, 2011.808
588.3181, 2001.057
588.8002, 1989.333
589.2823, 1977.823
589.7645, 1965.601
590.2466, 1954.184
590.7287, 1947.007
591.2108, 1946.448
591.6929, 1947.494
592.1750, 1946.557
592.6572, 1943.432
593.1393, 1937.021
593.6214, 1927.110
594.1035, 1915.647
594.5856, 1903.410
595.0677, 1891.067
595.5499, 1883.844
596.0320, 1888.083
596.5141, 1889.228
596.9962, 1884.617
597.4783, 1877.593
597.9604, 1870.472
598.4426, 1863.524
598.9247, 1855.674
599.4068, 1844.483
599.8889, 1834.030
600.3710, 1833.849
600.8531, 1843.313
601.3353, 1849.460
601.8174, 1849.063
602.2995, 1843.098
602.7816, 1829.747
603.2637, 1807.899
603.7458, 1798.866
604.2280, 1810.769
604.7101, 1825.598
605.1922, 1841.865
605.6743, 1855.255
606.1564, 1859.279
606.6385, 1853.534
607.1207, 1845.720
607.6028, 1842.037
608.0849, 1842.382
608.5670, 1849.373
609.0491, 1866.275
609.5313, 1870.684
610.0134, 1846.049
610.4955, 1812.626
610.9776, 1802.635
611.4597, 1818.231
611.9418, 1827.348
612.4240, 1822.409
612.9061, 1812.282
613.3882, 1795.142
613.8703, 1778.421
614.3524, 1777.000
614.8345, 1795.543
615.3167, 1820.402
615.7988, 1834.901
616.2809, 1839.119
616.7630, 1840.845
617.2451, 1839.814
617.7272, 1836.865
618.2094, 1831.913
618.6915, 1825.403
