##NAMES=Witherite
##RRUFFID=R050148
##IDEAL CHEMISTRY=BaCO_3_
##LOCALITY=Settlingstones mine, Fourstones, Northumberland, England
##OWNER=RRUFF
##SOURCE=Jim McGlasson
##DESCRIPTION=Tan colored crystal fragment
##STATUS=The identification of this mineral has been confirmed by X-ray diffraction and chemical analysis
##URL=rruff.info/R050148
##MEASURED CHEMISTRY=(Ba_0.96_Sr_0.04_)CO_3_
93.74609, 385.0322
94.22821, 374.2136
94.71033, 378.1398
95.19244, 395.1714
95.67456, 419.4597
96.15668, 450.7727
96.63879, 487.8047
97.12091, 526.3668
97.60303, 566.4412
98.08514, 609.0463
98.56726, 653.7107
99.04938, 700.4895
99.53149, 753.7567
100.0136, 816.1469
100.4957, 887.4342
100.9778, 962.3690
101.4600, 1039.699
101.9421, 1120.983
102.4242, 1207.510
102.9063, 1299.700
103.3884, 1397.724
103.8705, 1501.517
104.3527, 1614.596
104.8348, 1726.559
105.3169, 1838.473
105.7990, 1949.258
106.2811, 2059.060
106.7632, 2167.074
107.2454, 2273.947
107.7275, 2378.533
108.2096, 2481.926
108.6917, 2583.195
109.1738, 2679.114
109.6559, 2768.633
110.1381, 2870.492
110.6202, 2985.571
111.1023, 3113.586
111.5844, 3254.259
112.0665, 3403.657
112.5486, 3571.165
113.0308, 3760.530
113.5129, 3976.244
113.9950, 4204.111
114.4771, 4442.577
114.9592, 4691.019
115.4413, 4952.219
115.9235, 5239.087
116.4056, 5528.591
116.8877, 5807.287
117.3698, 6078.757
117.8519, 6338.877
118.3340, 6584.608
118.8162, 6818.031
119.2983, 7043.147
119.7804, 7267.376
120.2625, 7484.219
120.7446, 7685.900
121.2267, 7865.712
121.7089, 8039.895
122.1910, 8218.299
122.6731, 8399.770
123.1552, 8578.914
123.6373, 8745.669
124.1194, 8909.243
124.6016, 9084.135
125.0837, 9270.939
125.5658, 9470.209
126.0479, 9680.015
126.5300, 9900.600
127.0121, 10137.37
127.4943, 10388.75
127.9764, 10658.14
128.4585, 10960.90
128.9406, 11289.49
129.4227, 11655.58
129.9048, 12077.24
130.3869, 12554.56
130.8691, 13086.88
131.3512, 13669.90
131.8333, 14257.79
132.3154, 14831.52
132.7975, 15461.37
133.2796, 16155.81
133.7618, 16864.05
134.2439, 17609.44
134.7260, 18319.82
135.2081, 18915.16
135.6902, 19407.38
136.1723, 19693.85
136.6545, 19710.45
137.1366, 19460.85
137.6187, 19034.87
138.1008, 18396.42
138.5829, 17630.97
139.0650, 16897.43
139.5472, 16176.79
140.0293, 15538.60
140.5114, 15017.61
140.9935, 14614.98
141.4756, 14302.28
141.9577, 14081.01
142.4399, 13939.99
142.9220, 13836.11
143.4041, 13768.33
143.8862, 13735.35
144.3683, 13736.91
144.8504, 13777.08
145.3326, 13841.16
145.8147, 13922.93
146.2968, 14024.11
146.7789, 14161.42
147.2610, 14338.21
147.7431, 14548.72
148.2253, 14790.90
148.7074, 15055.78
149.1895, 15363.06
149.6716, 15711.77
150.1537, 16101.77
150.6358, 16529.95
151.1180, 17020.64
151.6001, 17537.10
152.0822, 18033.82
152.5643, 18612.45
153.0464, 19073.51
153.5285, 19378.06
154.0107, 19517.68
154.4928, 19522.62
154.9749, 19316.62
155.4570, 19000.11
155.9391, 18701.31
156.4212, 18382.38
156.9034, 18125.34
157.3855, 17966.34
157.8676, 17938.46
158.3497, 17923.53
158.8318, 17967.90
159.3139, 18004.89
159.7961, 17921.23
160.2782, 17699.67
160.7603, 17344.64
161.2424, 16841.27
161.7245, 16134.75
162.2066, 15401.83
162.6888, 14655.13
163.1709, 13921.41
163.6530, 13260.51
164.1351, 12692.64
164.6172, 12205.30
165.0993, 11792.89
165.5815, 11462.77
166.0636, 11189.60
166.5457, 10967.90
167.0278, 10792.16
167.5099, 10646.07
167.9921, 10531.66
168.4742, 10438.15
168.9563, 10356.59
169.4384, 10287.31
169.9205, 10225.60
170.4026, 10169.69
170.8848, 10118.97
171.3669, 10071.68
171.8490, 10022.45
172.3311, 9977.678
172.8132, 9945.053
173.2953, 9928.623
173.7775, 9923.566
174.2596, 9929.688
174.7417, 9945.700
175.2238, 9961.583
175.7059, 9964.200
176.1880, 9962.716
176.6702, 9971.701
177.1523, 9996.367
177.6344, 10033.53
178.1165, 10084.70
178.5986, 10149.47
179.0807, 10211.58
179.5629, 10262.88
180.0450, 10302.21
180.5271, 10326.43
181.0092, 10337.63
181.4913, 10331.76
181.9734, 10296.35
182.4556, 10230.64
182.9377, 10156.08
183.4198, 10085.39
183.9019, 10020.11
184.3840, 9967.494
184.8661, 9933.811
185.3483, 9913.577
185.8304, 9892.722
186.3125, 9870.873
186.7946, 9852.531
187.2767, 9848.007
187.7588, 9854.165
188.2409, 9852.450
188.7231, 9827.048
189.2052, 9787.163
189.6873, 9766.996
190.1694, 9768.346
190.6515, 9780.547
191.1336, 9791.683
191.6158, 9802.009
192.0979, 9813.759
192.5800, 9827.775
193.0621, 9844.081
193.5442, 9863.400
194.0263, 9886.475
194.5085, 9910.924
194.9906, 9935.324
195.4727, 9959.719
195.9548, 9977.607
196.4369, 9980.854
196.9190, 9970.822
197.4012, 9973.146
197.8833, 9990.058
198.3654, 10013.96
198.8475, 10033.02
199.3296, 10047.04
199.8117, 10058.69
200.2939, 10067.77
200.7760, 10074.15
201.2581, 10083.38
201.7402, 10095.17
202.2223, 10110.39
202.7044, 10132.16
203.1866, 10161.62
203.6687, 10190.65
204.1508, 10214.17
204.6329, 10231.28
205.1150, 10254.64
205.5971, 10286.34
206.0793, 10322.12
206.5614, 10353.03
207.0435, 10377.21
207.5256, 10403.00
208.0077, 10433.53
208.4898, 10468.69
208.9720, 10509.43
209.4541, 10556.67
209.9362, 10608.45
210.4183, 10660.15
210.9004, 10709.60
211.3825, 10763.68
211.8647, 10826.49
212.3468, 10899.59
212.8289, 10973.43
213.3110, 11046.82
213.7931, 11121.81
214.2752, 11202.25
214.7574, 11290.54
215.2395, 11380.13
215.7216, 11470.03
216.2037, 11560.59
216.6858, 11648.28
217.1679, 11736.81
217.6501, 11820.76
218.1322, 11885.58
218.6143, 11928.66
219.0964, 11959.64
219.5785, 11981.67
220.0606, 11994.49
220.5428, 11999.63
221.0249, 11993.42
221.5070, 11981.31
221.9891, 11975.76
222.4712, 11976.46
222.9533, 11984.09
223.4355, 12000.92
223.9176, 12033.97
224.3997, 12057.41
224.8818, 12074.00
225.3639, 12079.91
225.8460, 12066.85
226.3282, 12035.33
226.8103, 11983.99
227.2924, 11910.88
227.7745, 11806.04
228.2566, 11703.14
228.7387, 11602.07
229.2209, 11502.88
229.7030, 11408.34
230.1851, 11317.65
230.6672, 11231.44
231.1493, 11149.05
231.6314, 11067.79
232.1136, 10998.38
232.5957, 10944.70
233.0778, 10901.04
233.5599, 10855.88
234.0420, 10805.88
234.5241, 10759.67
235.0063, 10720.86
235.4884, 10690.85
235.9705, 10665.04
236.4526, 10643.75
236.9347, 10626.08
237.4168, 10609.85
237.8990, 10593.62
238.3811, 10580.78
238.8632, 10573.46
239.3453, 10574.26
239.8274, 10572.09
240.3095, 10564.82
240.7917, 10555.69
241.2738, 10551.65
241.7559, 10558.17
242.2380, 10561.03
242.7201, 10553.93
243.2022, 10532.28
243.6844, 10516.58
244.1665, 10508.04
244.6486, 10504.81
245.1307, 10503.94
245.6128, 10506.62
246.0949, 10509.79
246.5771, 10512.35
247.0592, 10513.89
247.5413, 10516.22
248.0234, 10519.05
248.5055, 10522.65
248.9876, 10527.79
249.4697, 10536.23
249.9519, 10542.80
250.4340, 10545.87
250.9161, 10545.08
251.3982, 10542.61
251.8803, 10537.87
252.3624, 10532.11
252.8446, 10526.29
253.3267, 10517.27
253.8088, 10514.72
254.2909, 10523.55
254.7730, 10546.13
255.2551, 10561.89
255.7373, 10568.27
256.2194, 10570.51
256.7015, 10574.37
257.1836, 10579.49
257.6657, 10586.87
258.1479, 10598.04
258.6300, 10613.31
259.1121, 10622.50
259.5942, 10622.85
260.0763, 10619.92
260.5584, 10619.12
261.0406, 10619.85
261.5227, 10624.45
262.0048, 10635.59
262.4869, 10652.97
262.9690, 10663.18
263.4511, 10664.28
263.9333, 10661.28
264.4154, 10657.93
264.8975, 10652.85
265.3796, 10652.60
265.8617, 10660.60
266.3438, 10675.72
266.8260, 10684.97
267.3081, 10686.72
267.7902, 10685.83
268.2723, 10685.73
268.7544, 10685.92
269.2365, 10689.31
269.7187, 10697.63
270.2008, 10709.63
270.6829, 10716.88
271.1650, 10717.09
271.6471, 10717.87
272.1292, 10725.78
272.6114, 10742.24
273.0935, 10756.65
273.5756, 10766.56
274.0577, 10773.44
274.5398, 10784.08
275.0219, 10800.11
275.5041, 10813.63
275.9862, 10816.68
276.4683, 10807.01
276.9504, 10806.48
277.4325, 10820.52
277.9146, 10841.68
278.3968, 10850.00
278.8788, 10843.39
279.3610, 10835.21
279.8431, 10833.40
280.3252, 10838.39
280.8073, 10844.63
281.2894, 10852.75
281.7715, 10861.33
282.2537, 10866.46
282.7358, 10867.74
283.2179, 10871.09
283.7000, 10881.70
284.1821, 10899.06
284.6642, 10909.31
285.1464, 10910.22
285.6285, 10908.46
286.1106, 10915.11
286.5927, 10930.01
287.0748, 10944.35
287.5569, 10953.46
288.0391, 10958.03
288.5212, 10963.24
289.0033, 10968.84
289.4854, 10975.64
289.9675, 10985.54
290.4496, 10998.30
290.9318, 11010.47
291.4139, 11021.37
291.8960, 11030.96
292.3781, 11038.14
292.8602, 11042.90
293.3423, 11047.27
293.8245, 11053.53
294.3066, 11061.34
294.7887, 11069.22
295.2708, 11077.79
295.7529, 11085.37
296.2350, 11086.63
296.7172, 11081.57
297.1993, 11077.08
297.6814, 11080.55
298.1635, 11089.29
298.6456, 11095.52
299.1277, 11096.64
299.6099, 11095.47
300.0920, 11095.47
300.5741, 11096.83
301.0562, 11100.30
301.5383, 11108.98
302.0204, 11120.02
302.5026, 11127.63
302.9847, 11130.04
303.4668, 11130.47
303.9489, 11129.52
304.4310, 11128.70
304.9131, 11133.63
305.3953, 11154.28
305.8774, 11179.98
306.3595, 11195.47
306.8416, 11196.60
307.3237, 11194.79
307.8058, 11199.31
308.2880, 11208.26
308.7701, 11217.42
309.2522, 11226.03
309.7343, 11233.24
310.2164, 11238.45
310.6985, 11241.79
311.1807, 11243.18
311.6628, 11239.76
312.1449, 11235.13
312.6270, 11234.78
313.1091, 11247.66
313.5912, 11260.67
314.0734, 11264.14
314.5555, 11257.90
315.0376, 11252.44
315.5197, 11250.85
316.0018, 11253.74
316.4839, 11261.74
316.9661, 11279.86
317.4482, 11298.43
317.9303, 11313.49
318.4124, 11325.14
318.8945, 11335.39
319.3766, 11341.19
319.8588, 11347.63
320.3409, 11358.80
320.8230, 11385.01
321.3051, 11403.48
321.7872, 11402.16
322.2693, 11387.35
322.7515, 11378.37
323.2336, 11382.30
323.7157, 11391.32
324.1978, 11402.89
324.6799, 11421.87
325.1620, 11433.08
325.6442, 11429.15
326.1263, 11416.93
326.6084, 11408.60
327.0905, 11403.29
327.5726, 11403.99
328.0547, 11414.12
328.5369, 11439.24
329.0190, 11455.60
329.5011, 11457.90
329.9832, 11453.59
330.4653, 11450.82
330.9474, 11448.21
331.4296, 11449.10
331.9117, 11455.57
332.3938, 11468.06
332.8759, 11478.11
333.3580, 11485.76
333.8401, 11491.24
334.3223, 11494.35
334.8044, 11493.59
335.2865, 11493.27
335.7686, 11492.60
336.2507, 11492.39
336.7328, 11498.44
337.2150, 11513.85
337.6971, 11529.46
338.1792, 11539.26
338.6613, 11541.05
339.1434, 11544.52
339.6255, 11550.31
340.1077, 11557.75
340.5898, 11565.47
341.0719, 11573.01
341.5540, 11582.11
342.0361, 11595.81
342.5182, 11614.74
343.0004, 11624.67
343.4825, 11624.12
343.9646, 11618.47
344.4467, 11614.57
344.9288, 11612.60
345.4109, 11611.58
345.8931, 11611.18
346.3752, 11611.60
346.8573, 11614.04
347.3394, 11618.74
347.8215, 11623.32
348.3036, 11622.07
348.7858, 11617.27
349.2679, 11621.70
349.7500, 11643.30
350.2321, 11670.61
350.7142, 11681.01
351.1964, 11675.78
351.6785, 11668.19
352.1606, 11665.70
352.6427, 11668.00
353.1248, 11676.34
353.6069, 11693.85
354.0891, 11709.68
354.5712, 11708.35
355.0533, 11695.24
355.5354, 11685.39
356.0175, 11689.87
356.4996, 11700.64
356.9818, 11708.95
357.4639, 11713.76
357.9460, 11719.80
358.4281, 11733.96
358.9102, 11750.76
359.3923, 11761.95
359.8745, 11757.02
360.3566, 11751.11
360.8387, 11754.25
361.3208, 11765.91
361.8029, 11777.62
362.2850, 11781.97
362.7672, 11786.44
363.2493, 11797.46
363.7314, 11824.29
364.2135, 11848.68
364.6956, 11865.19
365.1777, 11874.84
365.6599, 11880.49
366.1420, 11878.38
366.6241, 11875.93
367.1062, 11876.30
367.5883, 11879.10
368.0704, 11886.25
368.5526, 11901.30
369.0347, 11919.95
369.5168, 11935.79
369.9989, 11945.44
370.4810, 11955.22
370.9631, 11967.59
371.4453, 11983.45
371.9274, 11993.69
372.4095, 11995.53
372.8916, 11993.81
373.3737, 11992.46
373.8558, 11991.15
374.3380, 11990.70
374.8201, 11990.88
375.3022, 11992.02
375.7843, 11996.96
376.2664, 12009.12
376.7485, 12018.31
377.2307, 12017.20
377.7128, 12003.84
378.1949, 11993.05
378.6770, 11985.39
379.1591, 11981.50
379.6412, 11984.27
380.1234, 11994.68
380.6055, 12004.23
381.0876, 12009.42
381.5697, 12010.71
382.0518, 12009.87
382.5339, 12006.40
383.0161, 12003.71
383.4982, 12003.67
383.9803, 12006.87
384.4624, 12018.15
384.9445, 12044.32
385.4266, 12073.81
385.9088, 12083.64
386.3909, 12075.24
386.8730, 12065.42
387.3551, 12066.40
387.8372, 12073.78
388.3193, 12080.08
388.8015, 12083.77
389.2836, 12086.93
389.7657, 12090.64
390.2478, 12095.42
390.7299, 12102.33
391.2120, 12118.02
391.6942, 12132.32
392.1763, 12135.71
392.6584, 12127.24
393.1405, 12116.29
393.6226, 12104.00
394.1047, 12093.38
394.5869, 12087.78
395.0690, 12091.92
395.5511, 12097.70
396.0332, 12102.10
396.5153, 12105.59
396.9974, 12110.74
397.4796, 12120.23
397.9617, 12130.08
398.4438, 12137.69
398.9259, 12138.97
399.4080, 12144.78
399.8901, 12166.39
400.3723, 12191.66
400.8544, 12197.51
401.3365, 12158.91
401.8186, 12130.67
402.3007, 12130.03
402.7828, 12161.03
403.2649, 12183.96
403.7470, 12195.73
404.2292, 12202.69
404.7113, 12210.28
405.1934, 12219.05
405.6755, 12226.34
406.1576, 12230.54
406.6397, 12233.18
407.1219, 12240.54
407.6040, 12253.65
408.0861, 12266.85
408.5682, 12276.16
409.0503, 12281.38
409.5324, 12288.46
410.0146, 12297.78
410.4967, 12308.20
410.9788, 12319.98
411.4609, 12332.48
411.9430, 12340.36
412.4251, 12338.53
412.9073, 12331.97
413.3894, 12332.92
413.8715, 12341.27
414.3536, 12349.25
414.8357, 12349.07
415.3178, 12344.42
415.8000, 12342.56
416.2821, 12346.30
416.7642, 12351.04
417.2463, 12350.85
417.7284, 12348.01
418.2105, 12348.50
418.6927, 12362.28
419.1748, 12376.01
419.6569, 12378.21
420.1390, 12366.66
420.6211, 12354.51
421.1032, 12342.64
421.5854, 12335.39
422.0675, 12337.36
422.5496, 12358.92
423.0317, 12380.48
423.5138, 12396.67
423.9959, 12407.95
424.4781, 12418.83
424.9602, 12429.93
425.4423, 12440.41
425.9244, 12450.06
426.4065, 12460.17
426.8886, 12466.29
427.3708, 12465.42
427.8529, 12461.61
428.3350, 12460.76
428.8171, 12461.23
429.2992, 12467.78
429.7813, 12484.00
430.2635, 12509.33
430.7456, 12528.14
431.2277, 12539.93
431.7098, 12546.03
432.1919, 12545.31
432.6740, 12536.95
433.1562, 12534.00
433.6383, 12540.29
434.1204, 12549.59
434.6025, 12546.14
435.0846, 12530.33
435.5667, 12519.36
436.0489, 12525.99
436.5310, 12544.44
437.0131, 12557.75
437.4952, 12565.78
437.9773, 12568.21
438.4594, 12560.23
438.9416, 12546.84
439.4237, 12538.64
439.9058, 12540.07
440.3879, 12546.81
440.8700, 12558.34
441.3521, 12572.73
441.8343, 12582.93
442.3164, 12577.81
442.7985, 12571.70
443.2806, 12577.74
443.7627, 12600.85
444.2448, 12621.12
444.7270, 12629.70
445.2091, 12630.76
445.6912, 12629.13
446.1733, 12622.01
446.6554, 12615.96
447.1375, 12611.93
447.6197, 12609.90
448.1018, 12610.95
448.5839, 12616.16
449.0660, 12623.51
449.5481, 12632.40
450.0302, 12645.16
450.5124, 12655.28
450.9945, 12663.63
451.4766, 12668.99
451.9587, 12667.92
452.4408, 12656.86
452.9229, 12649.82
453.4051, 12650.88
453.8872, 12659.54
454.3693, 12672.31
454.8514, 12690.39
455.3335, 12707.76
455.8156, 12719.61
456.2978, 12726.18
456.7799, 12730.44
457.2620, 12732.20
457.7441, 12732.77
458.2262, 12731.77
458.7083, 12730.31
459.1905, 12734.09
459.6726, 12751.62
460.1547, 12773.25
460.6368, 12784.40
461.1189, 12785.26
461.6010, 12784.73
462.0832, 12788.12
462.5653, 12794.12
463.0474, 12802.05
463.5295, 12815.99
464.0116, 12824.88
464.4937, 12816.71
464.9759, 12799.84
465.4580, 12791.45
465.9401, 12806.56
466.4222, 12823.20
466.9043, 12832.38
467.3864, 12832.77
467.8686, 12832.23
468.3507, 12827.87
468.8328, 12825.25
469.3149, 12828.48
469.7970, 12841.38
470.2791, 12853.57
470.7613, 12865.08
471.2434, 12874.94
471.7255, 12880.16
472.2076, 12878.74
472.6897, 12877.09
473.1718, 12877.24
473.6540, 12879.13
474.1361, 12883.82
474.6182, 12891.86
475.1003, 12900.88
475.5824, 12910.38
476.0645, 12919.87
476.5467, 12922.46
477.0288, 12914.04
477.5109, 12903.37
477.9930, 12906.36
478.4751, 12920.60
478.9572, 12934.33
479.4394, 12937.40
479.9215, 12937.78
480.4036, 12947.34
480.8857, 12966.79
481.3678, 12984.52
481.8499, 12992.03
482.3321, 12993.52
482.8142, 12993.32
483.2963, 12988.53
483.7784, 12987.36
484.2605, 12996.92
484.7426, 13012.67
485.2248, 13023.33
485.7069, 13021.40
486.1890, 13018.43
486.6711, 13018.94
487.1532, 13024.39
487.6353, 13028.00
488.1175, 13028.76
488.5996, 13028.78
489.0817, 13029.68
489.5638, 13031.73
490.0459, 13033.98
490.5280, 13035.72
491.0102, 13037.92
491.4923, 13044.67
491.9744, 13057.56
492.4565, 13066.37
492.9386, 13064.68
493.4207, 13054.38
493.9029, 13048.71
494.3850, 13047.96
494.8671, 13048.67
495.3492, 13048.58
495.8313, 13047.52
496.3134, 13044.08
496.7956, 13036.40
497.2777, 13030.42
497.7598, 13033.85
498.2419, 13044.42
498.7240, 13056.10
499.2061, 13068.29
499.6883, 13079.07
500.1704, 13085.40
500.6525, 13087.41
501.1346, 13092.49
501.6167, 13107.77
502.0988, 13124.63
502.5810, 13136.77
503.0631, 13141.56
503.5452, 13143.98
504.0273, 13140.67
504.5094, 13135.94
504.9915, 13137.54
505.4737, 13149.48
505.9558, 13161.51
506.4379, 13171.35
506.9200, 13178.93
507.4021, 13184.68
507.8842, 13187.39
508.3664, 13190.87
508.8485, 13199.52
509.3306, 13213.50
509.8127, 13220.47
510.2948, 13217.93
510.7769, 13212.86
511.2591, 13214.23
511.7412, 13221.75
512.2233, 13234.19
512.7054, 13256.85
513.1875, 13279.57
513.6696, 13284.76
514.1517, 13275.12
514.6339, 13265.29
515.1160, 13267.09
515.5981, 13271.82
516.0802, 13269.93
516.5623, 13258.44
517.0444, 13250.25
517.5266, 13252.85
518.0087, 13261.37
518.4908, 13270.50
518.9729, 13287.75
519.4550, 13295.90
519.9371, 13287.00
520.4193, 13264.91
520.9014, 13246.35
521.3835, 13227.30
521.8656, 13217.01
522.3477, 13221.50
522.8298, 13243.56
523.3120, 13257.53
523.7941, 13261.10
524.2762, 13260.77
524.7583, 13261.33
525.2404, 13262.70
525.7225, 13268.64
526.2047, 13281.70
526.6868, 13295.75
527.1689, 13295.71
527.6510, 13284.42
528.1331, 13280.14
528.6152, 13300.37
529.0974, 13328.60
529.5795, 13340.13
530.0616, 13335.96
530.5437, 13329.40
531.0258, 13327.09
531.5079, 13327.88
531.9901, 13330.80
532.4722, 13336.21
532.9543, 13342.71
533.4364, 13354.26
533.9185, 13365.40
534.4006, 13368.86
534.8828, 13346.08
535.3649, 13334.60
535.8470, 13348.90
536.3291, 13383.26
536.8112, 13405.05
537.2933, 13409.81
537.7755, 13408.66
538.2576, 13404.25
538.7397, 13394.91
539.2218, 13395.86
539.7039, 13409.18
540.1860, 13426.61
540.6682, 13440.94
541.1503, 13451.90
541.6324, 13456.29
542.1145, 13451.67
542.5966, 13443.57
543.0787, 13438.47
543.5609, 13436.92
544.0430, 13440.68
544.5251, 13455.64
545.0072, 13473.31
545.4893, 13485.17
545.9714, 13491.26
546.4536, 13495.17
546.9357, 13501.11
547.4178, 13504.07
547.8999, 13498.42
548.3820, 13475.78
548.8641, 13461.68
549.3463, 13465.85
549.8284, 13479.56
550.3105, 13491.54
550.7926, 13502.43
551.2747, 13509.72
551.7568, 13510.78
552.2390, 13508.03
552.7211, 13513.38
553.2032, 13530.54
553.6853, 13544.76
554.1674, 13549.52
554.6495, 13545.21
555.1317, 13531.88
555.6138, 13508.25
556.0959, 13488.88
556.5780, 13492.08
557.0601, 13510.80
557.5422, 13526.37
558.0244, 13535.55
558.5065, 13539.54
558.9886, 13534.18
559.4707, 13524.79
559.9528, 13522.12
560.4349, 13535.11
560.9171, 13551.78
561.3992, 13567.37
561.8813, 13581.45
562.3634, 13592.45
562.8455, 13594.77
563.3276, 13597.94
563.8098, 13608.18
564.2919, 13629.84
564.7740, 13642.62
565.2561, 13642.30
565.7382, 13637.00
566.2203, 13633.66
566.7025, 13631.85
567.1846, 13634.05
567.6667, 13641.91
568.1488, 13652.14
568.6309, 13657.30
569.1130, 13657.74
569.5952, 13658.88
570.0773, 13665.33
570.5594, 13673.18
571.0415, 13673.43
571.5236, 13667.12
572.0057, 13662.74
572.4879, 13669.30
572.9700, 13679.21
573.4521, 13683.89
573.9342, 13681.17
574.4163, 13679.51
574.8984, 13682.48
575.3806, 13688.54
575.8627, 13696.18
576.3448, 13708.44
576.8269, 13717.85
577.3090, 13721.97
577.7911, 13722.74
578.2733, 13724.94
578.7554, 13729.71
579.2375, 13733.17
579.7196, 13734.09
580.2017, 13732.56
580.6838, 13728.46
581.1660, 13720.84
581.6481, 13716.44
582.1302, 13722.35
582.6123, 13736.18
583.0944, 13748.54
583.5765, 13759.17
584.0587, 13766.13
584.5408, 13763.48
585.0229, 13756.63
585.5050, 13755.42
585.9871, 13768.18
586.4692, 13779.04
586.9514, 13774.34
587.4335, 13761.16
587.9156, 13754.18
588.3977, 13760.17
588.8798, 13770.76
589.3619, 13786.90
589.8441, 13808.10
590.3262, 13818.05
590.8083, 13805.91
