##NAMES=Witherite
##RRUFFID=R040040
##IDEAL CHEMISTRY=BaCO_3_
##LOCALITY=Cave-in-Rock, Hardin County, Illinois, USA
##OWNER=RRUFF
##SOURCE=University of Arizona Mineral Museum
##DESCRIPTION=Tan colored prismatic group of columnar crystals
##STATUS=The identification of this mineral has been confirmed by X-ray diffraction and chemical analysis
##URL=rruff.info/R040040
##MEASURED CHEMISTRY=(Ba_0.98_Sr_0.02_)_Î£=1_CO_3_; CO_2_ estimated by difference
116.1486, 38493.24
116.6307, 38420.07
117.1128, 38437.12
117.5950, 38616.20
118.0771, 38827.65
118.5592, 38969.74
119.0413, 39033.77
119.5234, 39084.90
120.0055, 39173.89
120.4877, 39292.54
120.9698, 39425.48
121.4519, 39574.16
121.9340, 39733.68
122.4161, 39888.92
122.8982, 40024.64
123.3804, 40179.63
123.8625, 40400.93
124.3446, 40673.70
124.8267, 40923.69
125.3088, 41067.86
125.7909, 41093.93
126.2731, 41186.00
126.7552, 41449.43
127.2373, 41731.59
127.7194, 41947.38
128.2015, 42086.45
128.6837, 42210.26
129.1658, 42411.41
129.6479, 42716.46
130.1300, 43057.30
130.6121, 43430.34
131.0942, 43825.34
131.5764, 44234.12
132.0585, 44650.73
132.5406, 45081.89
133.0227, 45545.37
133.5048, 46070.76
133.9869, 46599.29
134.4691, 47200.12
134.9512, 47796.33
135.4333, 48269.54
135.9154, 48550.77
136.3975, 48634.83
136.8796, 48513.23
137.3618, 48130.23
137.8439, 47644.44
138.3260, 47099.82
138.8081, 46507.13
139.2902, 45899.25
139.7723, 45281.17
140.2545, 44659.97
140.7366, 44127.53
141.2187, 43696.85
141.7008, 43354.36
142.1829, 43088.16
142.6650, 42901.54
143.1471, 42777.39
143.6293, 42706.56
144.1114, 42681.54
144.5935, 42698.89
145.0756, 42774.61
145.5577, 42894.38
146.0398, 43003.90
146.5220, 43054.14
147.0041, 43147.42
147.4862, 43366.92
147.9683, 43708.09
148.4504, 44085.16
148.9325, 44415.00
149.4147, 44690.74
149.8968, 45013.07
150.3789, 45412.71
150.8610, 45861.08
151.3431, 46368.32
151.8252, 46933.69
152.3074, 47510.16
152.7895, 48046.11
153.2716, 48617.12
153.7537, 48963.45
154.2358, 49086.91
154.7179, 49012.42
155.2001, 48732.36
155.6822, 48241.02
156.1643, 47593.43
156.6464, 46958.79
157.1285, 46356.54
157.6106, 45736.45
158.0928, 45048.49
158.5749, 44348.30
159.0570, 43715.08
159.5391, 43200.66
160.0212, 42791.83
160.5033, 42368.32
160.9855, 41908.61
161.4676, 41457.82
161.9497, 41020.15
162.4318, 40601.17
162.9139, 40210.48
163.3960, 39853.34
163.8782, 39533.26
164.3603, 39263.54
164.8424, 39059.00
165.3245, 38885.27
165.8066, 38726.74
166.2887, 38580.61
166.7709, 38445.94
167.2530, 38322.65
167.7351, 38210.93
168.2172, 38109.68
168.6993, 38021.70
169.1814, 37943.07
169.6636, 37867.11
170.1457, 37791.34
170.6278, 37724.86
171.1099, 37679.88
171.5920, 37652.75
172.0741, 37633.48
172.5563, 37618.90
173.0384, 37609.38
173.5205, 37608.21
174.0026, 37624.16
174.4847, 37636.61
174.9668, 37622.24
175.4490, 37583.50
175.9311, 37551.42
176.4132, 37547.98
176.8953, 37572.68
177.3774, 37608.03
177.8595, 37679.31
178.3417, 37736.87
178.8238, 37740.36
179.3059, 37687.70
179.7880, 37621.38
180.2701, 37588.11
180.7522, 37594.27
181.2344, 37606.67
181.7165, 37658.39
182.1986, 37690.66
182.6807, 37652.98
183.1628, 37533.82
183.6449, 37379.95
184.1271, 37269.61
184.6092, 37221.72
185.0913, 37184.02
185.5734, 37158.00
186.0555, 37134.04
186.5376, 37102.91
187.0198, 37060.82
187.5019, 37012.87
187.9840, 36970.73
188.4661, 36924.34
188.9482, 36899.68
189.4303, 36909.07
189.9125, 36937.04
190.3946, 36969.84
190.8767, 37001.61
191.3588, 37028.09
191.8409, 37029.09
192.3230, 36973.89
192.8052, 36927.33
193.2873, 36895.42
193.7694, 36880.24
194.2515, 36887.76
194.7336, 36924.87
195.2157, 36986.47
195.6979, 37022.23
196.1800, 37041.52
196.6621, 37033.25
197.1442, 36966.73
197.6263, 36862.86
198.1084, 36783.70
198.5906, 36774.97
199.0727, 36833.08
199.5548, 36877.64
200.0369, 36916.55
200.5190, 36937.11
201.0011, 36927.36
201.4833, 36888.98
201.9654, 36837.40
202.4475, 36774.83
202.9296, 36706.96
203.4117, 36668.52
203.8938, 36688.67
204.3760, 36721.45
204.8581, 36716.38
205.3402, 36668.37
205.8223, 36633.52
206.3044, 36679.21
206.7865, 36779.54
207.2687, 36839.26
207.7508, 36807.84
208.2329, 36738.31
208.7150, 36703.68
209.1971, 36714.57
209.6792, 36733.92
210.1614, 36729.42
210.6435, 36710.07
211.1256, 36696.58
211.6077, 36693.06
212.0898, 36700.66
212.5719, 36723.10
213.0541, 36763.32
213.5362, 36813.53
214.0183, 36873.71
214.5004, 36939.34
214.9825, 36998.98
215.4646, 37053.35
215.9468, 37098.40
216.4289, 37108.97
216.9110, 37047.31
217.3931, 37005.26
217.8752, 37050.71
218.3573, 37158.52
218.8395, 37255.55
219.3216, 37285.16
219.8037, 37253.06
220.2858, 37229.47
220.7679, 37217.21
221.2500, 37212.82
221.7322, 37216.72
222.2143, 37227.25
222.6964, 37239.82
223.1785, 37250.52
223.6606, 37259.18
224.1427, 37270.21
224.6249, 37285.80
225.1070, 37301.84
225.5891, 37319.22
226.0712, 37336.15
226.5533, 37348.37
227.0354, 37354.33
227.5176, 37355.73
227.9997, 37336.77
228.4818, 37279.70
228.9639, 37215.86
229.4460, 37157.46
229.9281, 37104.34
230.4103, 37048.54
230.8924, 36978.44
231.3745, 36885.02
231.8566, 36817.64
232.3387, 36798.34
232.8208, 36784.03
233.3030, 36760.09
233.7851, 36723.01
234.2672, 36673.11
234.7493, 36607.91
235.2314, 36519.18
235.7135, 36446.50
236.1957, 36391.65
236.6778, 36348.37
237.1599, 36318.47
237.6420, 36299.51
238.1241, 36283.89
238.6062, 36263.09
239.0884, 36235.56
239.5705, 36207.63
240.0526, 36170.55
240.5347, 36139.75
241.0168, 36125.11
241.4989, 36127.11
241.9811, 36140.95
242.4632, 36165.04
242.9453, 36215.56
243.4274, 36219.32
243.9095, 36135.85
244.3916, 36042.75
244.8738, 35986.85
245.3559, 35974.98
245.8380, 35986.60
246.3201, 36000.39
246.8022, 36021.02
247.2843, 36025.97
247.7665, 35995.96
248.2486, 35965.34
248.7307, 35964.44
249.2128, 35994.50
249.6949, 36028.69
250.1770, 36036.04
250.6592, 36006.54
251.1413, 35981.27
251.6234, 35966.00
252.1055, 35950.86
252.5876, 35919.95
253.0697, 35874.38
253.5519, 35840.04
254.0340, 35849.43
254.5161, 35919.13
254.9982, 35968.53
255.4803, 35985.26
255.9624, 35990.25
256.4445, 35996.06
256.9267, 36005.26
257.4088, 36021.02
257.8909, 36051.71
258.3730, 36104.88
258.8551, 36121.47
259.3372, 36068.91
259.8194, 36000.77
260.3015, 35958.32
260.7836, 35946.58
261.2657, 35950.24
261.7478, 35957.70
262.2299, 35970.08
262.7121, 35973.62
263.1942, 35961.51
263.6763, 35944.94
264.1584, 35925.02
264.6405, 35903.55
265.1227, 35901.48
265.6048, 35947.77
266.0869, 36046.70
266.5690, 36106.70
267.0511, 36104.57
267.5332, 36077.57
268.0154, 36048.27
268.4975, 36019.78
268.9796, 36000.89
269.4617, 36003.52
269.9438, 36027.02
270.4259, 36035.34
270.9081, 36009.71
271.3902, 35980.94
271.8723, 35976.17
272.3544, 35995.64
272.8365, 36018.18
273.3186, 36032.00
273.8008, 36034.66
274.2829, 36021.04
274.7650, 35954.03
275.2471, 35898.39
275.7292, 35924.41
276.2113, 36025.68
276.6935, 36106.96
277.1756, 36093.00
277.6577, 35998.04
278.1398, 35943.63
278.6219, 35970.13
279.1040, 36004.67
279.5862, 35987.55
280.0683, 35925.36
280.5504, 35877.74
281.0325, 35891.57
281.5146, 35947.65
281.9967, 35962.43
282.4789, 35884.88
282.9610, 35812.96
283.4431, 35833.14
283.9252, 35926.10
284.4073, 35974.88
284.8894, 35893.51
285.3716, 35736.16
285.8537, 35673.94
286.3358, 35768.80
286.8179, 35876.23
287.3000, 35921.66
287.7821, 35913.56
288.2643, 35882.39
288.7464, 35835.14
289.2285, 35778.37
289.7106, 35727.50
290.1927, 35677.64
290.6748, 35641.34
291.1570, 35633.08
291.6391, 35644.82
292.1212, 35651.13
292.6033, 35640.60
293.0854, 35621.86
293.5675, 35614.44
294.0497, 35625.75
294.5318, 35627.88
295.0139, 35596.70
295.4960, 35548.36
295.9781, 35523.05
296.4602, 35539.06
296.9424, 35572.18
297.4245, 35573.22
297.9066, 35530.51
298.3887, 35514.13
298.8708, 35579.61
299.3529, 35679.39
299.8351, 35723.50
300.3172, 35680.63
300.7993, 35604.99
301.2814, 35572.83
301.7635, 35586.21
302.2456, 35599.11
302.7278, 35609.34
303.2099, 35610.15
303.6920, 35584.48
304.1741, 35526.09
304.6562, 35466.93
305.1383, 35441.29
305.6205, 35449.65
306.1026, 35479.95
306.5847, 35559.41
307.0668, 35644.91
307.5489, 35696.80
308.0310, 35710.08
308.5132, 35687.46
308.9953, 35618.41
309.4774, 35501.20
309.9595, 35416.57
310.4416, 35375.73
310.9237, 35362.96
311.4059, 35380.84
311.8880, 35424.44
312.3701, 35455.56
312.8522, 35440.04
313.3343, 35380.70
313.8164, 35343.83
314.2986, 35339.18
314.7807, 35347.01
315.2628, 35362.71
315.7449, 35383.00
316.2270, 35396.62
316.7091, 35394.39
317.1913, 35380.20
317.6734, 35377.19
318.1555, 35402.50
318.6376, 35418.96
319.1197, 35409.27
319.6018, 35379.96
320.0840, 35346.76
320.5661, 35317.75
321.0482, 35289.52
321.5303, 35250.19
322.0124, 35179.14
322.4945, 35126.34
322.9767, 35104.05
323.4588, 35106.05
323.9409, 35129.46
324.4230, 35175.07
324.9051, 35227.19
325.3872, 35253.82
325.8694, 35239.33
326.3515, 35226.41
326.8336, 35219.23
327.3157, 35214.40
327.7978, 35210.01
328.2799, 35205.29
328.7621, 35197.41
329.2442, 35182.07
329.7263, 35156.57
330.2084, 35129.26
330.6905, 35080.07
331.1726, 35043.14
331.6548, 35063.86
332.1369, 35135.94
332.6190, 35193.02
333.1011, 35160.92
333.5832, 35015.75
334.0653, 34915.23
334.5475, 34863.86
335.0296, 34843.20
335.5117, 34858.99
335.9938, 34900.31
336.4759, 34942.16
336.9580, 34965.53
337.4402, 34970.68
337.9223, 34971.93
338.4044, 34973.69
338.8865, 34967.02
339.3686, 34939.41
339.8507, 34902.92
340.3329, 34880.45
340.8150, 34886.54
341.2971, 34911.49
341.7792, 34913.42
342.2613, 34883.45
342.7434, 34838.68
343.2256, 34757.27
343.7077, 34672.47
344.1898, 34623.86
344.6719, 34626.57
345.1540, 34657.30
345.6361, 34666.78
346.1183, 34630.70
346.6004, 34621.62
347.0825, 34682.73
347.5646, 34742.41
348.0467, 34738.03
348.5288, 34662.07
349.0110, 34567.85
349.4931, 34527.24
349.9752, 34558.05
350.4573, 34570.73
350.9394, 34526.41
351.4215, 34494.34
351.9037, 34528.57
352.3858, 34612.70
352.8679, 34676.48
353.3500, 34643.50
353.8321, 34518.04
354.3142, 34445.97
354.7964, 34467.47
355.2785, 34497.53
355.7606, 34503.26
356.2427, 34491.88
356.7248, 34480.02
357.2069, 34478.32
357.6891, 34481.75
358.1712, 34476.14
358.6533, 34459.91
359.1354, 34437.54
359.6175, 34414.73
360.0996, 34385.98
360.5818, 34340.93
361.0639, 34270.82
361.5460, 34196.97
362.0281, 34147.26
362.5102, 34122.61
362.9923, 34113.45
363.4745, 34145.18
363.9566, 34171.42
364.4387, 34137.02
364.9208, 34028.62
365.4029, 33920.20
365.8850, 33870.74
366.3672, 33871.19
366.8493, 33869.76
367.3314, 33851.13
367.8135, 33835.13
368.2956, 33847.80
368.7777, 33886.66
369.2599, 33917.59
369.7420, 33935.11
370.2241, 33933.54
370.7062, 33898.75
371.1883, 33825.97
371.6704, 33737.34
372.1526, 33637.40
372.6347, 33532.37
373.1168, 33459.07
373.5989, 33429.33
374.0810, 33427.18
374.5631, 33453.48
375.0453, 33502.81
375.5274, 33539.83
376.0095, 33545.54
376.4916, 33520.75
376.9737, 33475.20
377.4558, 33368.13
377.9380, 33288.36
378.4201, 33288.56
378.9022, 33336.43
379.3843, 33369.43
379.8664, 33362.10
380.3485, 33332.62
380.8307, 33320.71
381.3128, 33359.80
381.7949, 33353.21
382.2770, 33245.77
382.7591, 33116.84
383.2412, 33043.00
383.7234, 33037.83
384.2055, 33068.22
384.6876, 33100.20
385.1697, 33141.40
385.6518, 33148.67
386.1339, 33101.25
386.6161, 33045.54
387.0982, 32999.17
387.5803, 32963.77
388.0624, 32937.94
388.5445, 32922.21
389.0266, 32914.68
389.5088, 32894.84
389.9909, 32846.56
390.4730, 32803.86
390.9551, 32779.21
391.4372, 32761.14
391.9193, 32734.20
392.4015, 32691.45
392.8836, 32640.26
393.3657, 32593.09
393.8478, 32545.45
394.3299, 32514.18
394.8120, 32508.22
395.2942, 32513.11
395.7763, 32528.39
396.2584, 32550.53
396.7405, 32558.83
397.2226, 32526.35
397.7047, 32452.94
398.1869, 32384.28
398.6690, 32316.45
399.1511, 32263.39
399.6332, 32241.46
400.1153, 32240.78
400.5974, 32232.08
401.0796, 32183.45
401.5617, 32121.51
402.0438, 32118.76
402.5259, 32195.84
403.0080, 32251.38
403.4901, 32208.19
403.9723, 32114.16
404.4544, 32038.58
404.9365, 31993.97
405.4186, 31968.29
405.9007, 31957.63
406.3828, 31959.56
406.8650, 31963.64
407.3471, 31971.70
407.8292, 31972.20
408.3113, 31941.78
408.7934, 31874.88
409.2755, 31812.13
409.7577, 31755.57
410.2398, 31714.41
410.7219, 31709.70
411.2040, 31744.98
411.6861, 31788.27
412.1682, 31810.10
412.6504, 31807.77
413.1325, 31791.21
413.6146, 31753.96
414.0967, 31709.17
414.5788, 31660.59
415.0609, 31610.33
415.5431, 31562.48
416.0252, 31519.89
416.5073, 31481.36
416.9894, 31439.82
417.4715, 31358.14
417.9536, 31319.96
418.4358, 31392.35
418.9179, 31485.34
419.4000, 31493.37
419.8821, 31387.80
420.3642, 31234.69
420.8463, 31130.10
421.3285, 31081.44
421.8106, 31064.30
422.2927, 31126.57
422.7748, 31176.61
423.2569, 31154.20
423.7390, 31074.32
424.2212, 31000.65
424.7033, 30988.47
425.1854, 31024.65
425.6675, 31025.48
426.1496, 30970.03
426.6317, 30913.26
427.1139, 30863.68
427.5960, 30828.73
428.0781, 30822.38
428.5602, 30855.86
429.0423, 30901.61
429.5244, 30934.09
430.0066, 30953.81
430.4887, 30936.87
430.9708, 30852.18
431.4529, 30750.01
431.9350, 30689.48
432.4171, 30672.62
432.8993, 30658.50
433.3814, 30622.03
433.8635, 30576.90
434.3456, 30552.51
434.8277, 30555.48
435.3098, 30556.02
435.7920, 30521.67
436.2741, 30456.95
436.7562, 30421.69
437.2383, 30455.94
437.7204, 30485.12
438.2025, 30459.47
438.6847, 30391.89
439.1668, 30322.47
439.6489, 30270.79
440.1310, 30229.72
440.6131, 30179.71
441.0952, 30089.27
441.5774, 30034.57
442.0595, 30044.08
442.5416, 30075.96
443.0237, 30092.38
443.5058, 30086.96
443.9879, 30078.38
444.4701, 30093.03
444.9522, 30141.15
445.4343, 30138.43
445.9164, 30021.88
446.3985, 29917.47
446.8806, 29875.80
447.3628, 29874.33
447.8449, 29867.19
448.3270, 29828.49
448.8091, 29771.32
449.2912, 29727.32
449.7733, 29699.15
450.2555, 29677.08
450.7375, 29668.28
451.2197, 29658.62
451.7018, 29638.82
452.1839, 29607.47
452.6660, 29563.99
453.1481, 29489.60
453.6302, 29397.67
454.1124, 29361.57
454.5945, 29415.59
455.0766, 29468.66
455.5587, 29426.47
456.0408, 29318.99
456.5229, 29231.62
457.0051, 29186.57
457.4872, 29166.20
457.9693, 29170.19
458.4514, 29191.14
458.9335, 29185.77
459.4156, 29125.92
459.8978, 29036.19
460.3799, 28983.35
460.8620, 28975.14
461.3441, 28981.10
461.8262, 29006.69
462.3083, 29038.09
462.7905, 29068.00
463.2726, 29091.99
463.7547, 29094.36
464.2368, 29055.42
464.7189, 28969.10
465.2010, 28893.95
465.6832, 28819.88
466.1653, 28767.20
466.6474, 28757.57
467.1295, 28771.00
467.6116, 28776.55
468.0938, 28759.02
468.5759, 28723.61
469.0580, 28677.44
469.5401, 28609.41
470.0222, 28562.16
470.5043, 28574.69
470.9865, 28587.49
471.4686, 28553.57
471.9507, 28474.01
472.4328, 28398.52
472.9149, 28364.99
473.3970, 28365.70
473.8792, 28378.03
474.3613, 28408.45
474.8434, 28427.98
475.3255, 28406.39
475.8076, 28361.49
476.2897, 28331.48
476.7719, 28345.23
477.2540, 28345.52
477.7361, 28272.09
478.2182, 28151.04
478.7003, 28064.74
479.1824, 28045.71
479.6646, 28057.60
480.1467, 28042.55
480.6288, 27984.62
481.1109, 27951.93
481.5930, 27988.14
482.0751, 28019.41
482.5573, 27974.35
483.0394, 27868.17
483.5215, 27779.00
484.0036, 27766.41
484.4857, 27816.12
484.9678, 27833.85
485.4500, 27802.61
485.9321, 27758.66
486.4142, 27685.87
486.8963, 27614.29
487.3784, 27576.53
487.8605, 27579.39
488.3427, 27596.61
488.8248, 27602.87
489.3069, 27598.32
489.7890, 27575.39
490.2711, 27514.00
490.7532, 27461.13
491.2354, 27452.13
491.7175, 27470.11
492.1996, 27473.29
492.6817, 27428.10
493.1638, 27379.48
493.6459, 27396.76
494.1281, 27473.67
494.6102, 27519.51
495.0923, 27493.09
495.5744, 27426.18
496.0565, 27372.52
496.5386, 27333.93
497.0208, 27294.91
497.5029, 27245.32
497.9850, 27197.22
498.4671, 27162.05
498.9492, 27140.86
499.4313, 27132.21
499.9135, 27139.33
500.3956, 27158.86
500.8777, 27145.81
501.3598, 27052.65
501.8419, 26984.20
502.3240, 26983.38
502.8062, 27004.26
503.2883, 26989.20
503.7704, 26923.25
504.2525, 26846.34
504.7346, 26813.66
505.2167, 26833.41
505.6989, 26840.88
506.1810, 26830.02
506.6631, 26811.35
507.1452, 26785.12
507.6273, 26755.73
508.1094, 26732.86
508.5916, 26724.14
509.0737, 26719.40
509.5558, 26705.00
510.0379, 26681.16
510.5200, 26654.83
511.0021, 26629.25
511.4843, 26600.97
511.9664, 26557.40
512.4485, 26491.91
512.9306, 26455.26
513.4127, 26494.97
513.8948, 26547.24
514.3770, 26544.20
514.8591, 26486.38
515.3412, 26419.29
515.8233, 26374.05
516.3054, 26347.12
516.7875, 26316.84
517.2697, 26269.14
517.7518, 26235.73
518.2339, 26228.15
518.7160, 26231.33
519.1981, 26231.50
519.6802, 26225.49
520.1624, 26217.95
520.6445, 26215.44
521.1266, 26218.29
521.6087, 26213.02
522.0908, 26197.11
522.5729, 26176.38
523.0551, 26149.31
523.5372, 26120.70
524.0193, 26099.57
524.5014, 26091.80
524.9835, 26084.52
525.4656, 26057.98
525.9478, 26018.19
526.4299, 26001.67
526.9120, 26026.94
527.3941, 26054.61
527.8762, 26029.98
528.3583, 25950.21
528.8405, 25894.86
529.3226, 25881.77
529.8047, 25885.74
530.2868, 25909.94
530.7689, 25938.18
531.2510, 25926.57
531.7332, 25850.07
532.2153, 25738.05
532.6974, 25662.75
533.1795, 25643.04
533.6616, 25627.61
534.1437, 25619.79
534.6259, 25611.57
535.1080, 25601.64
535.5901, 25587.48
536.0722, 25561.51
536.5543, 25509.32
537.0364, 25446.69
537.5186, 25428.04
538.0007, 25463.99
538.4828, 25504.34
538.9649, 25543.39
539.4470, 25568.80
539.9291, 25562.46
540.4113, 25519.22
540.8934, 25472.45
541.3755, 25431.41
541.8576, 25399.80
542.3397, 25387.42
542.8218, 25394.67
543.3040, 25407.44
543.7861, 25419.65
544.2682, 25428.50
544.7503, 25408.87
545.2324, 25315.92
545.7145, 25254.17
546.1967, 25270.40
546.6788, 25314.51
547.1609, 25332.56
547.6430, 25313.08
548.1251, 25280.88
548.6072, 25264.95
549.0894, 25266.46
549.5715, 25249.58
550.0536, 25194.43
550.5357, 25149.93
551.0178, 25143.53
551.4999, 25153.84
551.9821, 25147.74
552.4642, 25110.41
552.9463, 25077.35
553.4284, 25092.16
553.9105, 25140.94
554.3926, 25167.73
554.8748, 25160.21
555.3569, 25135.07
555.8390, 25103.41
556.3211, 25065.13
556.8032, 25032.33
557.2853, 24999.39
557.7675, 24977.56
558.2496, 24984.67
558.7317, 25003.45
559.2138, 24995.27
559.6959, 24947.71
560.1780, 24901.85
560.6602, 24932.18
561.1423, 25077.58
561.6244, 25143.94
562.1065, 25051.56
562.5886, 24955.53
563.0707, 24902.24
563.5529, 24884.55
564.0350, 24886.70
564.5171, 24908.13
564.9992, 24929.11
565.4813, 24913.27
565.9634, 24864.17
566.4456, 24843.19
566.9277, 24875.40
567.4098, 24919.30
567.8919, 24929.29
568.3740, 24908.99
568.8561, 24887.67
569.3383, 24872.48
569.8204, 24854.52
570.3025, 24821.91
570.7846, 24781.93
571.2667, 24754.60
571.7488, 24748.57
572.2310, 24750.55
572.7131, 24735.56
573.1952, 24691.71
573.6773, 24663.01
574.1594, 24656.09
574.6415, 24656.87
575.1237, 24662.61
575.6058, 24671.24
576.0879, 24680.74
576.5700, 24691.37
577.0521, 24699.17
577.5342, 24697.81
578.0164, 24687.26
578.4985, 24670.64
578.9806, 24644.76
579.4627, 24619.11
579.9448, 24607.42
580.4269, 24607.64
580.9091, 24599.50
581.3912, 24572.21
581.8733, 24541.71
582.3554, 24514.95
582.8375, 24493.85
583.3196, 24480.11
583.8018, 24474.32
584.2839, 24480.16
584.7660, 24509.57
585.2481, 24588.12
585.7302, 24615.87
586.2123, 24550.36
586.6945, 24479.70
587.1766, 24435.15
587.6587, 24413.40
588.1408, 24401.71
588.6229, 24394.16
589.1050, 24394.44
589.5872, 24416.54
590.0693, 24459.00
590.5514, 24477.63
591.0335, 24458.21
591.5156, 24422.12
591.9977, 24379.71
592.4799, 24333.91
592.9620, 24314.33
593.4441, 24351.66
593.9262, 24389.95
594.4083, 24390.17
594.8904, 24368.45
595.3726, 24360.31
595.8547, 24378.03
596.3368, 24402.80
596.8189, 24405.81
597.3010, 24380.38
597.7831, 24364.95
598.2653, 24368.36
598.7474, 24372.96
599.2295, 24374.35
599.7116, 24373.12
600.1937, 24373.63
600.6758, 24379.89
601.1580, 24375.27
601.6401, 24328.66
602.1222, 24251.90
602.6043, 24207.76
603.0864, 24213.04
603.5685, 24224.89
604.0507, 24200.78
604.5328, 24147.72
605.0149, 24132.27
605.4970, 24200.29
605.9791, 24251.90
606.4612, 24247.32
606.9434, 24209.05
607.4255, 24153.82
607.9076, 24091.46
608.3897, 24047.42
608.8718, 24055.16
609.3539, 24113.09
609.8361, 24147.31
610.3182, 24146.44
610.8003, 24140.14
611.2824, 24133.88
