##NAMES=Witherite
##RRUFFID=R050148
##IDEAL CHEMISTRY=BaCO_3_
##LOCALITY=Settlingstones mine, Fourstones, Northumberland, England
##OWNER=RRUFF
##SOURCE=Jim McGlasson
##DESCRIPTION=Tan colored crystal fragment
##STATUS=The identification of this mineral has been confirmed by X-ray diffraction and chemical analysis
##URL=rruff.info/R050148
##MEASURED CHEMISTRY=(Ba_0.96_Sr_0.04_)CO_3_
93.46680, 2497.924
93.94891, 2468.317
94.43103, 2474.222
94.91315, 2497.422
95.39526, 2515.340
95.87738, 2525.014
96.35950, 2531.049
96.84161, 2533.985
97.32373, 2536.274
97.80585, 2536.091
98.28796, 2533.792
98.77008, 2530.496
99.25220, 2525.121
99.73431, 2515.542
100.2164, 2500.802
100.6985, 2479.165
101.1807, 2454.845
101.6628, 2432.192
102.1449, 2414.709
102.6270, 2403.802
103.1091, 2398.592
103.5912, 2396.122
104.0734, 2395.164
104.5555, 2398.084
105.0376, 2406.084
105.5197, 2418.186
106.0018, 2432.363
106.4839, 2446.680
106.9661, 2460.685
107.4482, 2479.356
107.9303, 2501.462
108.4124, 2527.205
108.8945, 2556.251
109.3766, 2588.597
109.8588, 2625.369
110.3409, 2668.032
110.8230, 2716.810
111.3051, 2770.503
111.7872, 2830.425
112.2693, 2894.740
112.7515, 2962.410
113.2336, 3034.500
113.7157, 3105.822
114.1978, 3172.198
114.6799, 3233.865
115.1620, 3288.157
115.6442, 3330.957
116.1263, 3362.806
116.6084, 3391.718
117.0905, 3416.704
117.5726, 3441.359
118.0547, 3467.441
118.5369, 3495.119
119.0190, 3525.794
119.5011, 3561.605
119.9832, 3602.867
120.4653, 3648.875
120.9474, 3699.569
121.4296, 3753.991
121.9117, 3811.378
122.3938, 3871.383
122.8759, 3934.267
123.3580, 4001.642
123.8401, 4074.551
124.3223, 4151.403
124.8044, 4230.597
125.2865, 4313.952
125.7686, 4403.002
126.2507, 4499.337
126.7328, 4603.173
127.2150, 4717.377
127.6971, 4835.904
128.1792, 4967.305
128.6613, 5115.029
129.1434, 5279.293
129.6255, 5458.224
130.1077, 5654.335
130.5898, 5867.533
131.0719, 6082.752
131.5540, 6307.178
132.0361, 6531.264
132.5182, 6751.018
133.0004, 6969.544
133.4825, 7167.861
133.9646, 7334.479
134.4467, 7472.521
134.9288, 7571.804
135.4109, 7631.193
135.8931, 7649.142
136.3752, 7617.864
136.8573, 7518.156
137.3394, 7387.860
137.8215, 7236.294
138.3036, 7072.248
138.7858, 6920.489
139.2679, 6799.038
139.7500, 6708.977
140.2321, 6641.290
140.7142, 6600.814
141.1963, 6579.948
141.6785, 6579.116
142.1606, 6596.968
142.6427, 6629.684
143.1248, 6672.882
143.6069, 6727.639
144.0890, 6793.083
144.5712, 6869.789
145.0533, 6954.054
145.5354, 7044.423
146.0175, 7139.945
146.4996, 7241.084
146.9817, 7348.657
147.4639, 7461.798
147.9460, 7584.333
148.4281, 7715.528
148.9102, 7856.875
149.3923, 8012.625
149.8744, 8186.058
150.3566, 8369.857
150.8387, 8556.408
151.3208, 8769.594
151.8029, 8938.843
152.2850, 9060.868
152.7671, 9123.579
153.2493, 9083.062
153.7314, 8909.234
154.2135, 8617.210
154.6956, 8262.046
155.1777, 7825.005
155.6598, 7371.952
156.1420, 6946.727
156.6241, 6550.208
157.1062, 6190.610
157.5883, 5890.615
158.0704, 5627.132
158.5525, 5387.865
159.0347, 5173.908
159.5168, 4972.463
159.9989, 4761.654
160.4810, 4536.405
160.9631, 4316.003
161.4452, 4098.335
161.9274, 3890.498
162.4095, 3697.528
162.8916, 3522.130
163.3737, 3364.767
163.8558, 3228.883
164.3379, 3122.627
164.8201, 3030.171
165.3022, 2950.172
165.7843, 2880.683
166.2664, 2820.388
166.7485, 2768.269
167.2306, 2724.226
167.7128, 2686.102
168.1949, 2655.554
168.6770, 2629.007
169.1591, 2607.140
169.6412, 2588.720
170.1233, 2571.122
170.6055, 2552.232
171.0876, 2532.168
171.5697, 2518.456
172.0518, 2514.240
172.5339, 2511.942
173.0160, 2508.256
173.4982, 2503.285
173.9803, 2498.568
174.4624, 2495.073
174.9445, 2493.070
175.4266, 2492.602
175.9087, 2494.253
176.3909, 2497.027
176.8730, 2499.868
177.3551, 2502.685
177.8372, 2506.805
178.3193, 2515.313
178.8014, 2526.208
179.2836, 2533.151
179.7657, 2534.387
180.2478, 2531.082
180.7299, 2524.614
181.2120, 2514.669
181.6941, 2502.482
182.1763, 2487.874
182.6584, 2471.792
183.1405, 2455.952
183.6226, 2439.754
184.1047, 2424.340
184.5868, 2413.726
185.0690, 2410.092
185.5511, 2408.488
186.0332, 2406.416
186.5153, 2404.298
186.9974, 2402.995
187.4795, 2403.202
187.9617, 2404.839
188.4438, 2406.673
188.9259, 2408.696
189.4080, 2410.983
189.8901, 2413.249
190.3722, 2415.771
190.8544, 2419.106
191.3365, 2423.716
191.8186, 2429.675
192.3007, 2436.327
192.7828, 2443.000
193.2649, 2451.062
193.7471, 2462.222
194.2292, 2475.471
194.7113, 2488.303
195.1934, 2498.375
195.6755, 2505.507
196.1576, 2510.956
196.6398, 2514.099
197.1219, 2516.545
197.6040, 2518.830
198.0861, 2521.083
198.5682, 2523.220
199.0503, 2524.848
199.5325, 2525.517
200.0146, 2529.443
200.4967, 2537.982
200.9788, 2548.354
201.4609, 2558.685
201.9430, 2568.816
202.4252, 2579.635
202.9073, 2591.831
203.3894, 2605.580
203.8715, 2621.831
204.3536, 2642.758
204.8357, 2665.052
205.3179, 2686.492
205.8000, 2707.000
206.2821, 2724.708
206.7642, 2736.218
207.2463, 2742.627
207.7284, 2750.396
208.2106, 2761.042
208.6927, 2773.675
209.1748, 2787.161
209.6569, 2801.512
210.1390, 2816.598
210.6211, 2833.128
211.1033, 2850.458
211.5854, 2866.853
212.0675, 2880.068
212.5496, 2892.116
213.0317, 2908.138
213.5138, 2929.947
213.9960, 2952.208
214.4781, 2971.620
214.9602, 2988.954
215.4423, 3005.752
215.9244, 3023.693
216.4065, 3041.806
216.8886, 3055.807
217.3708, 3064.063
217.8529, 3070.326
218.3350, 3076.490
218.8171, 3082.254
219.2992, 3087.065
219.7813, 3090.592
220.2635, 3092.883
220.7456, 3094.107
221.2277, 3093.413
221.7098, 3092.598
222.1919, 3092.010
222.6740, 3091.754
223.1562, 3092.499
223.6383, 3095.750
224.1204, 3100.732
224.6025, 3097.660
225.0846, 3082.185
225.5667, 3062.131
226.0489, 3038.571
226.5310, 3011.681
227.0131, 2981.444
227.4952, 2947.525
227.9773, 2910.249
228.4594, 2871.096
228.9416, 2826.413
229.4237, 2783.847
229.9058, 2745.413
230.3879, 2710.420
230.8700, 2677.742
231.3521, 2646.454
231.8343, 2616.547
232.3164, 2589.132
232.7985, 2563.868
233.2806, 2541.165
233.7627, 2522.001
234.2448, 2505.452
234.7270, 2489.659
235.2091, 2473.418
235.6912, 2456.906
236.1733, 2441.966
236.6554, 2428.664
237.1375, 2416.395
237.6197, 2404.967
238.1018, 2394.460
238.5839, 2385.061
239.0660, 2377.021
239.5481, 2370.113
240.0302, 2362.987
240.5124, 2354.970
240.9945, 2347.526
241.4766, 2341.472
241.9587, 2336.439
242.4408, 2331.568
242.9229, 2326.480
243.4051, 2321.164
243.8872, 2315.565
244.3693, 2309.516
244.8514, 2303.470
245.3335, 2297.366
245.8156, 2291.395
246.2978, 2286.237
246.7799, 2282.385
247.2620, 2279.346
247.7441, 2275.863
248.2262, 2271.554
248.7083, 2267.701
249.1905, 2265.579
249.6726, 2264.617
250.1547, 2262.567
250.6368, 2258.139
251.1189, 2252.745
251.6010, 2248.558
252.0832, 2245.618
252.5653, 2243.416
253.0474, 2242.075
253.5295, 2241.365
254.0116, 2240.246
254.4937, 2238.590
254.9759, 2236.166
255.4580, 2232.325
255.9401, 2226.966
256.4222, 2222.599
256.9043, 2221.507
257.3864, 2223.026
257.8686, 2223.705
258.3507, 2222.547
258.8328, 2220.770
259.3149, 2219.053
259.7970, 2217.496
260.2791, 2216.974
260.7613, 2218.829
261.2434, 2222.508
261.7255, 2224.897
262.2076, 2225.285
262.6897, 2224.662
263.1718, 2223.417
263.6540, 2221.761
264.1361, 2220.415
264.6182, 2220.048
265.1003, 2220.476
265.5824, 2220.566
266.0645, 2220.041
266.5467, 2219.545
267.0288, 2219.311
267.5109, 2219.354
267.9930, 2219.707
268.4751, 2220.487
268.9572, 2221.606
269.4394, 2222.668
269.9215, 2223.743
270.4036, 2224.659
270.8857, 2225.406
271.3678, 2225.981
271.8499, 2226.434
272.3321, 2226.904
272.8142, 2227.180
273.2963, 2226.308
273.7784, 2222.959
274.2605, 2220.728
274.7426, 2221.163
275.2248, 2222.904
275.7069, 2224.357
276.1890, 2224.777
276.6711, 2224.522
277.1532, 2224.608
277.6353, 2225.656
278.1175, 2225.818
278.5996, 2224.176
279.0817, 2221.929
279.5638, 2220.394
280.0459, 2220.055
280.5280, 2220.051
281.0102, 2218.450
281.4923, 2213.828
281.9744, 2210.712
282.4565, 2210.413
282.9386, 2211.064
283.4207, 2211.553
283.9029, 2211.502
284.3850, 2210.822
284.8671, 2209.267
285.3492, 2206.425
285.8313, 2203.705
286.3134, 2200.192
286.7956, 2197.482
287.2777, 2197.218
287.7598, 2199.223
288.2419, 2201.447
288.7240, 2201.230
289.2061, 2197.495
289.6883, 2195.257
290.1704, 2195.122
290.6525, 2195.786
291.1346, 2197.368
291.6167, 2199.386
292.0988, 2200.585
292.5810, 2199.490
293.0631, 2195.697
293.5452, 2193.933
294.0273, 2196.348
294.5094, 2198.628
294.9915, 2198.844
295.4737, 2197.747
295.9558, 2197.380
296.4379, 2199.417
296.9200, 2203.612
297.4021, 2205.852
297.8842, 2203.258
298.3664, 2201.712
298.8485, 2202.815
299.3306, 2205.661
299.8127, 2209.112
300.2948, 2212.623
300.7769, 2215.775
301.2591, 2216.749
301.7412, 2211.565
302.2233, 2209.005
302.7054, 2211.780
303.1875, 2216.796
303.6696, 2220.449
304.1518, 2221.286
304.6339, 2220.836
305.1160, 2222.596
305.5981, 2230.081
306.0802, 2234.381
306.5623, 2232.707
307.0445, 2229.616
307.5266, 2229.082
308.0087, 2231.947
308.4908, 2235.942
308.9729, 2237.714
309.4550, 2235.811
309.9372, 2235.319
310.4193, 2237.452
310.9014, 2239.785
311.3835, 2240.855
311.8656, 2240.583
312.3477, 2239.705
312.8299, 2238.902
313.3120, 2238.136
313.7941, 2237.710
314.2762, 2237.860
314.7583, 2238.059
315.2404, 2238.506
315.7226, 2238.854
316.2047, 2238.263
316.6868, 2235.976
317.1689, 2232.149
317.6510, 2229.347
318.1331, 2228.948
318.6153, 2228.002
319.0974, 2225.706
319.5795, 2222.488
320.0616, 2219.028
320.5437, 2215.672
321.0258, 2212.352
321.5080, 2208.804
321.9901, 2205.074
322.4722, 2201.062
322.9543, 2196.563
323.4364, 2191.905
323.9185, 2187.432
324.4007, 2183.285
324.8828, 2179.191
325.3649, 2174.703
325.8470, 2169.569
326.3291, 2164.510
326.8112, 2158.846
327.2934, 2153.717
327.7755, 2150.297
328.2576, 2148.489
328.7397, 2146.870
329.2218, 2143.777
329.7039, 2138.744
330.1861, 2134.480
330.6682, 2131.094
331.1503, 2128.244
331.6324, 2126.129
332.1145, 2124.458
332.5966, 2122.709
333.0788, 2120.543
333.5609, 2117.930
334.0430, 2114.414
334.5251, 2108.513
335.0072, 2103.230
335.4893, 2099.017
335.9715, 2095.821
336.4536, 2093.543
336.9357, 2092.151
337.4178, 2091.558
337.8999, 2091.651
338.3820, 2093.734
338.8642, 2094.486
339.3463, 2092.816
339.8284, 2090.293
340.3105, 2088.464
340.7926, 2087.696
341.2747, 2087.046
341.7568, 2084.753
342.2390, 2079.202
342.7211, 2076.138
343.2032, 2078.527
343.6853, 2080.636
344.1674, 2078.646
344.6495, 2072.959
345.1317, 2066.846
345.6138, 2063.343
346.0959, 2062.587
346.5780, 2062.181
347.0601, 2062.519
347.5422, 2062.859
348.0244, 2063.506
348.5065, 2063.964
348.9886, 2063.233
349.4707, 2060.514
349.9528, 2056.501
350.4349, 2054.182
350.9171, 2055.195
351.3992, 2055.346
351.8813, 2052.947
352.3634, 2049.826
352.8455, 2047.829
353.3276, 2047.588
353.8098, 2048.405
354.2919, 2049.404
354.7740, 2051.063
355.2561, 2051.387
355.7382, 2049.062
356.2203, 2046.221
356.7025, 2044.052
357.1846, 2042.650
357.6667, 2041.418
358.1488, 2039.650
358.6309, 2037.314
359.1130, 2035.625
359.5952, 2035.144
360.0773, 2034.739
360.5594, 2033.911
361.0415, 2032.809
361.5236, 2031.739
362.0057, 2030.781
362.4879, 2030.050
362.9700, 2030.189
363.4521, 2032.198
363.9342, 2032.801
364.4163, 2029.308
364.8984, 2024.631
365.3806, 2021.926
365.8627, 2022.284
366.3448, 2023.763
366.8269, 2023.942
367.3090, 2022.701
367.7911, 2021.226
368.2733, 2019.445
368.7554, 2017.792
369.2375, 2016.080
369.7196, 2014.452
370.2017, 2014.316
370.6838, 2018.344
371.1660, 2025.216
371.6481, 2028.070
372.1302, 2024.418
372.6123, 2020.292
373.0944, 2019.959
373.5765, 2022.200
374.0587, 2024.490
374.5408, 2026.479
375.0229, 2027.608
375.5050, 2026.504
375.9871, 2022.862
376.4692, 2019.561
376.9514, 2017.473
377.4335, 2016.907
377.9156, 2018.651
378.3977, 2023.809
378.8798, 2028.512
379.3619, 2029.899
379.8441, 2028.434
380.3262, 2025.748
380.8083, 2021.376
381.2904, 2017.445
381.7725, 2017.403
382.2546, 2021.094
382.7368, 2023.582
383.2189, 2022.306
383.7010, 2019.327
384.1831, 2017.499
384.6652, 2017.162
385.1473, 2017.276
385.6295, 2016.970
386.1116, 2016.408
386.5937, 2016.534
387.0758, 2018.727
387.5579, 2020.387
388.0400, 2019.708
388.5222, 2017.128
389.0043, 2013.968
389.4864, 2010.613
389.9685, 2007.446
390.4506, 2005.669
390.9327, 2006.150
391.4149, 2005.798
391.8970, 2003.057
392.3791, 1999.555
392.8612, 1997.554
393.3433, 1997.486
393.8254, 1997.501
394.3076, 1995.188
394.7897, 1989.676
395.2718, 1986.924
395.7539, 1989.666
396.2360, 1992.410
396.7181, 1991.535
397.2003, 1987.962
397.6824, 1985.015
398.1645, 1984.892
398.6466, 1986.899
399.1287, 1987.487
399.6108, 1985.750
400.0930, 1983.632
400.5751, 1980.179
401.0572, 1976.971
401.5393, 1976.186
402.0214, 1978.306
402.5035, 1981.262
402.9857, 1981.858
403.4678, 1978.918
403.9499, 1977.007
404.4320, 1976.287
404.9141, 1976.283
405.3962, 1976.956
405.8784, 1978.167
406.3605, 1979.744
406.8426, 1981.686
407.3247, 1983.833
407.8068, 1984.928
408.2889, 1984.260
408.7711, 1983.482
409.2532, 1982.186
409.7353, 1981.312
410.2174, 1982.172
410.6995, 1985.225
411.1816, 1989.017
411.6638, 1991.618
412.1459, 1992.969
412.6280, 1993.354
413.1101, 1991.824
413.5922, 1990.120
414.0743, 1989.182
414.5565, 1988.954
415.0386, 1988.895
415.5207, 1988.751
416.0028, 1988.498
416.4849, 1987.842
416.9670, 1986.343
417.4492, 1985.571
417.9313, 1987.416
418.4134, 1990.148
418.8955, 1991.457
419.3776, 1990.461
419.8597, 1988.733
420.3419, 1987.594
420.8240, 1987.024
421.3061, 1986.915
421.7882, 1987.590
422.2703, 1988.243
422.7524, 1987.849
423.2346, 1986.452
423.7167, 1984.880
424.1988, 1982.990
424.6809, 1981.291
425.1630, 1981.130
425.6451, 1982.652
426.1273, 1982.884
426.6094, 1978.916
427.0915, 1971.732
427.5736, 1967.187
428.0557, 1967.901
428.5378, 1968.359
429.0200, 1965.730
429.5021, 1961.147
429.9842, 1956.976
430.4663, 1954.086
430.9484, 1951.714
431.4305, 1948.640
431.9127, 1944.646
432.3948, 1940.327
432.8769, 1935.897
433.3590, 1931.000
433.8411, 1924.924
434.3232, 1917.999
434.8054, 1911.423
435.2875, 1906.139
435.7696, 1902.075
436.2517, 1898.451
436.7338, 1896.516
437.2159, 1893.511
437.6981, 1888.018
438.1802, 1881.700
438.6623, 1876.571
439.1444, 1873.247
439.6265, 1870.487
440.1086, 1866.323
440.5908, 1860.200
441.0729, 1854.528
441.5550, 1849.644
442.0371, 1844.882
442.5192, 1839.774
443.0013, 1834.564
443.4835, 1829.929
443.9656, 1826.442
444.4477, 1823.740
444.9298, 1820.756
445.4119, 1817.351
445.8940, 1814.012
446.3762, 1810.770
446.8583, 1807.727
447.3404, 1805.069
447.8225, 1802.836
448.3046, 1800.774
448.7867, 1799.011
449.2689, 1797.358
449.7510, 1794.535
450.2331, 1789.792
450.7152, 1785.042
451.1973, 1781.934
451.6794, 1780.014
452.1616, 1778.219
452.6437, 1776.200
453.1258, 1774.246
453.6079, 1772.850
454.0900, 1771.881
454.5721, 1770.421
455.0543, 1767.881
455.5364, 1764.896
456.0185, 1762.759
456.5006, 1761.533
456.9827, 1760.625
457.4648, 1760.859
457.9470, 1760.811
458.4291, 1758.457
458.9112, 1753.790
459.3933, 1748.973
459.8754, 1745.664
460.3575, 1743.855
460.8397, 1743.187
461.3218, 1745.372
461.8039, 1746.525
462.2860, 1744.471
462.7681, 1741.200
463.2502, 1739.759
463.7324, 1741.129
464.2145, 1743.331
464.6966, 1743.122
465.1787, 1739.500
465.6608, 1736.467
466.1429, 1733.816
466.6251, 1731.895
467.1072, 1731.079
467.5893, 1731.107
468.0714, 1731.490
468.5535, 1732.044
469.0356, 1732.519
469.5178, 1732.247
469.9999, 1731.212
470.4820, 1729.413
470.9641, 1726.064
471.4462, 1722.445
471.9283, 1719.528
472.4105, 1717.421
472.8926, 1715.556
473.3747, 1713.114
473.8568, 1710.514
474.3389, 1709.744
474.8210, 1711.654
475.3032, 1713.236
475.7853, 1712.035
476.2674, 1709.163
476.7495, 1706.713
477.2316, 1705.167
477.7137, 1703.876
478.1959, 1702.060
478.6780, 1700.125
479.1601, 1699.595
479.6422, 1701.267
480.1243, 1703.079
480.6064, 1702.048
481.0886, 1697.578
481.5707, 1694.166
482.0528, 1692.318
482.5349, 1691.357
483.0170, 1691.715
483.4991, 1692.673
483.9813, 1692.198
484.4634, 1689.031
484.9455, 1684.159
485.4276, 1680.473
485.9097, 1678.107
486.3918, 1676.917
486.8740, 1678.131
487.3561, 1679.545
487.8382, 1679.371
488.3203, 1677.649
488.8024, 1675.680
489.2845, 1674.482
489.7667, 1674.031
490.2488, 1674.186
490.7309, 1676.289
491.2130, 1676.737
491.6951, 1672.967
492.1772, 1668.128
492.6594, 1665.800
493.1415, 1666.891
493.6236, 1668.651
494.1057, 1668.456
494.5878, 1666.462
495.0699, 1663.817
495.5521, 1660.060
496.0342, 1656.803
496.5163, 1655.720
496.9984, 1656.008
497.4805, 1655.960
497.9626, 1654.918
498.4448, 1653.697
498.9269, 1652.605
499.4090, 1651.822
499.8911, 1652.438
500.3732, 1655.274
500.8553, 1658.210
501.3375, 1657.948
501.8196, 1653.757
502.3017, 1650.082
502.7838, 1647.306
503.2659, 1645.025
503.7480, 1643.053
504.2302, 1641.345
504.7123, 1639.775
505.1944, 1638.246
505.6765, 1636.943
506.1586, 1636.444
506.6407, 1637.649
507.1228, 1638.226
507.6049, 1637.877
508.0871, 1637.140
508.5692, 1636.506
509.0513, 1635.885
509.5334, 1634.710
510.0155, 1632.361
510.4977, 1629.161
510.9798, 1626.814
511.4619, 1625.659
511.9440, 1624.585
512.4261, 1623.669
512.9083, 1622.420
513.3904, 1619.895
513.8725, 1615.938
514.3546, 1612.790
514.8367, 1613.049
515.3188, 1615.347
515.8010, 1615.445
516.2831, 1612.519
516.7652, 1609.669
517.2473, 1609.470
517.7294, 1610.938
518.2115, 1610.731
518.6937, 1607.724
519.1758, 1604.549
519.6579, 1602.301
520.1400, 1600.674
520.6221, 1599.199
521.1042, 1597.752
521.5864, 1596.420
522.0685, 1595.228
522.5506, 1594.117
523.0327, 1593.812
523.5148, 1596.487
523.9969, 1597.390
524.4791, 1593.535
524.9612, 1587.519
525.4433, 1582.838
525.9254, 1580.788
526.4075, 1580.355
526.8896, 1580.444
527.3718, 1581.385
527.8539, 1581.107
528.3360, 1578.850
528.8181, 1576.108
529.3002, 1572.981
529.7823, 1569.918
530.2645, 1567.708
530.7466, 1566.766
531.2287, 1566.527
531.7108, 1566.493
532.1929, 1566.634
532.6750, 1566.583
533.1572, 1566.618
533.6393, 1565.826
534.1214, 1562.267
534.6035, 1556.518
535.0856, 1552.407
535.5677, 1552.079
536.0499, 1552.474
536.5320, 1550.901
537.0141, 1548.081
537.4962, 1546.617
537.9783, 1547.761
538.4604, 1549.816
538.9426, 1549.758
539.4247, 1546.552
539.9068, 1543.763
540.3889, 1541.147
540.8710, 1539.143
541.3531, 1538.126
541.8353, 1537.883
542.3174, 1538.122
542.7995, 1538.765
543.2816, 1539.208
543.7637, 1537.830
544.2458, 1533.830
544.7280, 1530.635
545.2101, 1529.054
545.6922, 1528.129
546.1743, 1527.662
546.6564, 1527.461
547.1385, 1527.049
547.6207, 1526.210
548.1028, 1525.021
548.5849, 1523.291
549.0670, 1521.070
549.5491, 1519.762
550.0313, 1520.316
550.5134, 1521.396
550.9955, 1520.797
551.4776, 1518.480
551.9597, 1516.558
552.4418, 1515.684
552.9240, 1515.152
553.4061, 1514.404
553.8882, 1513.508
554.3703, 1512.837
554.8524, 1512.594
555.3345, 1512.561
555.8167, 1512.245
556.2988, 1511.471
556.7809, 1510.711
557.2630, 1510.203
557.7451, 1509.461
558.2272, 1508.051
558.7094, 1506.171
559.1915, 1504.253
559.6736, 1502.425
560.1557, 1500.994
560.6378, 1500.936
561.1199, 1502.594
561.6021, 1503.426
562.0842, 1502.769
562.5663, 1501.194
563.0484, 1498.941
563.5305, 1496.172
564.0126, 1493.699
564.4948, 1491.704
564.9769, 1490.237
565.4590, 1489.936
565.9411, 1490.408
566.4232, 1489.503
566.9053, 1486.074
567.3875, 1482.104
567.8696, 1480.851
568.3517, 1483.625
568.8338, 1484.760
569.3159, 1482.756
569.7980, 1480.590
570.2802, 1480.112
570.7623, 1480.608
571.2444, 1480.356
571.7265, 1478.556
572.2086, 1476.095
572.6907, 1474.537
573.1729, 1473.964
573.6550, 1473.944
574.1371, 1475.728
574.6192, 1476.660
575.1013, 1474.852
575.5834, 1471.430
576.0656, 1468.560
576.5477, 1466.808
577.0298, 1466.469
577.5119, 1468.468
577.9940, 1472.369
578.4761, 1476.503
578.9583, 1481.249
579.4404, 1483.627
579.9225, 1479.417
580.4046, 1469.051
580.8867, 1462.069
581.3688, 1460.631
581.8510, 1460.543
582.3331, 1460.904
582.8152, 1461.145
583.2973, 1460.328
583.7794, 1458.264
584.2615, 1455.770
584.7437, 1453.690
585.2258, 1451.987
585.7079, 1451.365
586.1900, 1453.188
586.6721, 1454.373
587.1542, 1454.195
587.6363, 1453.010
588.1184, 1450.847
588.6005, 1447.772
589.0826, 1445.073
589.5648, 1443.995
590.0469, 1444.248
590.5290, 1444.982
