##NAMES=Witherite
##RRUFFID=R040040
##IDEAL CHEMISTRY=BaCO_3_
##LOCALITY=Cave-in-Rock, Hardin County, Illinois, USA
##OWNER=RRUFF
##SOURCE=University of Arizona Mineral Museum
##DESCRIPTION=Tan colored prismatic group of columnar crystals
##STATUS=The identification of this mineral has been confirmed by X-ray diffraction and chemical analysis
##URL=rruff.info/R040040
##MEASURED CHEMISTRY=(Ba_0.98_Sr_0.02_)_Î£=1_CO_3_; CO_2_ estimated by difference
129.7696, 21769.72
130.2518, 22278.76
130.7339, 22796.45
131.2160, 23391.24
131.6981, 24059.98
132.1802, 24801.17
132.6623, 25666.98
133.1445, 26721.12
133.6266, 27937.50
134.1087, 29161.16
134.5908, 30455.96
135.0729, 31633.69
135.5550, 32423.77
136.0372, 32824.39
136.5193, 32848.43
137.0014, 32422.01
137.4835, 31519.15
137.9656, 30562.29
138.4477, 29549.06
138.9299, 28520.13
139.4120, 27577.38
139.8941, 26704.97
140.3762, 25941.88
140.8583, 25294.00
141.3404, 24763.01
141.8226, 24357.01
142.3047, 24091.11
142.7868, 23969.30
143.2689, 23891.43
143.7510, 23850.08
144.2331, 23859.38
144.7152, 23940.45
145.1974, 24119.13
145.6795, 24328.85
146.1616, 24543.19
146.6437, 24718.21
147.1258, 25002.51
147.6079, 25412.77
148.0901, 25933.45
148.5722, 26498.89
149.0543, 27040.84
149.5364, 27689.38
150.0185, 28495.92
150.5006, 29515.65
150.9828, 30625.50
151.4649, 31933.69
151.9470, 33404.30
152.4291, 34620.55
152.9112, 35719.25
153.3933, 36476.30
153.8755, 36743.39
154.3576, 36322.57
154.8397, 35584.80
155.3218, 34515.29
155.8039, 33047.89
156.2860, 31649.00
156.7682, 30379.69
157.2503, 29241.62
157.7324, 28229.02
158.2145, 27396.21
158.6966, 26655.85
159.1787, 25984.78
159.6609, 25412.44
160.1430, 24832.30
160.6251, 24226.38
161.1072, 23596.62
161.5893, 22940.56
162.0714, 22191.74
162.5536, 21460.37
163.0357, 20820.96
163.5178, 20310.54
163.9999, 19871.33
164.4820, 19491.71
164.9641, 19167.34
165.4463, 18884.53
165.9284, 18644.60
166.4105, 18439.35
166.8926, 18259.95
167.3747, 18096.04
167.8568, 17961.00
168.3390, 17875.15
168.8211, 17843.25
169.3032, 17811.33
169.7853, 17728.01
170.2674, 17621.53
170.7495, 17541.40
171.2317, 17533.98
171.7138, 17552.95
172.1959, 17548.79
172.6780, 17509.42
173.1601, 17471.92
173.6422, 17470.78
174.1244, 17499.25
174.6065, 17534.50
175.0886, 17565.95
175.5707, 17595.56
176.0528, 17622.84
176.5349, 17637.06
177.0171, 17663.65
177.4992, 17742.20
177.9813, 17867.04
178.4634, 17997.53
178.9455, 18119.92
179.4276, 18224.06
179.9098, 18289.69
180.3919, 18304.75
180.8740, 18279.49
181.3561, 18226.79
181.8382, 18146.43
182.3203, 18049.74
182.8025, 17936.85
183.2846, 17814.41
183.7667, 17703.97
184.2488, 17620.89
184.7309, 17557.68
185.2130, 17495.00
185.6951, 17430.24
186.1773, 17373.84
186.6594, 17338.99
187.1415, 17325.40
187.6236, 17324.57
188.1057, 17338.72
188.5878, 17363.93
189.0700, 17380.63
189.5521, 17383.90
190.0342, 17381.70
190.5163, 17390.24
190.9984, 17409.32
191.4805, 17427.21
191.9627, 17424.70
192.4448, 17404.94
192.9269, 17416.11
193.4090, 17478.06
193.8911, 17568.74
194.3732, 17618.13
194.8554, 17621.08
195.3375, 17615.15
195.8196, 17645.10
196.3017, 17712.71
196.7838, 17751.99
197.2659, 17739.27
197.7481, 17683.06
198.2302, 17634.34
198.7123, 17592.68
199.1944, 17561.48
199.6765, 17551.09
200.1586, 17565.44
200.6408, 17570.81
201.1229, 17546.39
201.6050, 17491.44
202.0871, 17469.66
202.5692, 17488.15
203.0513, 17528.05
203.5335, 17557.94
204.0156, 17574.64
204.4977, 17592.66
204.9798, 17617.43
205.4619, 17648.38
205.9440, 17688.21
206.4262, 17742.94
206.9083, 17801.47
207.3904, 17831.26
207.8725, 17821.36
208.3546, 17811.51
208.8367, 17828.41
209.3189, 17880.94
209.8010, 17921.18
210.2831, 17938.67
210.7652, 17941.89
211.2473, 17970.49
211.7294, 18033.17
212.2116, 18105.27
212.6937, 18169.34
213.1758, 18226.79
213.6579, 18274.84
214.1400, 18308.33
214.6221, 18330.10
215.1043, 18376.23
215.5864, 18461.83
216.0685, 18552.18
216.5506, 18606.76
217.0327, 18606.31
217.5148, 18621.41
217.9970, 18670.22
218.4791, 18753.84
218.9612, 18843.48
219.4433, 18947.33
219.9254, 19046.72
220.4075, 19110.79
220.8897, 19113.35
221.3718, 19132.08
221.8539, 19194.38
222.3360, 19312.69
222.8181, 19415.33
223.3002, 19499.45
223.7824, 19568.55
224.2645, 19627.71
224.7466, 19680.04
225.2287, 19718.58
225.7108, 19744.72
226.1929, 19769.96
226.6750, 19749.47
227.1572, 19665.28
227.6393, 19541.59
228.1214, 19440.38
228.6035, 19379.73
229.0856, 19316.22
229.5677, 19224.14
230.0499, 19077.77
230.5320, 18966.27
231.0141, 18910.86
231.4962, 18894.41
231.9783, 18841.95
232.4604, 18726.98
232.9426, 18610.54
233.4247, 18529.66
233.9068, 18505.06
234.3889, 18476.13
234.8710, 18435.62
235.3531, 18385.03
235.8353, 18340.72
236.3174, 18305.40
236.7995, 18273.85
237.2816, 18240.03
237.7637, 18192.15
238.2458, 18166.88
238.7280, 18182.93
239.2101, 18239.17
239.6922, 18250.46
240.1743, 18188.60
240.6564, 18109.64
241.1385, 18067.15
241.6207, 18082.82
242.1028, 18094.90
242.5849, 18088.87
243.0670, 18062.27
243.5491, 18046.47
244.0313, 18039.88
244.5134, 18045.37
244.9955, 18070.41
245.4776, 18137.56
245.9597, 18184.92
246.4418, 18191.84
246.9240, 18148.65
247.4061, 18121.69
247.8882, 18114.65
248.3703, 18121.59
248.8524, 18136.31
249.3345, 18168.23
249.8167, 18191.35
250.2988, 18192.65
250.7809, 18159.73
251.2630, 18156.56
251.7451, 18201.18
252.2272, 18264.54
252.7094, 18291.62
253.1915, 18261.41
253.6736, 18230.26
254.1557, 18221.83
254.6378, 18250.13
255.1199, 18253.67
255.6021, 18214.62
256.0842, 18159.42
256.5663, 18151.72
257.0484, 18221.59
257.5305, 18286.96
258.0126, 18307.74
258.4948, 18261.07
258.9769, 18236.84
259.4590, 18244.99
259.9411, 18273.26
260.4232, 18285.16
260.9053, 18267.88
261.3875, 18258.38
261.8696, 18280.02
262.3517, 18346.48
262.8338, 18400.23
263.3159, 18438.60
263.7980, 18462.05
264.2802, 18464.64
264.7623, 18429.05
265.2444, 18406.47
265.7265, 18438.54
266.2086, 18549.96
266.6907, 18619.12
267.1729, 18621.86
267.6550, 18576.29
268.1371, 18553.46
268.6192, 18561.16
269.1013, 18573.68
269.5834, 18571.55
270.0656, 18549.98
270.5477, 18535.77
271.0298, 18532.81
271.5119, 18539.67
271.9940, 18553.13
272.4761, 18577.84
272.9583, 18597.93
273.4404, 18597.98
273.9225, 18573.18
274.4046, 18557.47
274.8867, 18558.67
275.3688, 18572.70
275.8510, 18581.64
276.3331, 18585.94
276.8152, 18584.14
277.2973, 18571.95
277.7794, 18547.72
278.2615, 18528.88
278.7437, 18518.82
279.2258, 18516.67
279.7079, 18518.61
280.1900, 18524.60
280.6721, 18535.13
281.1542, 18556.48
281.6364, 18589.91
282.1185, 18606.59
282.6006, 18594.53
283.0827, 18562.46
283.5648, 18543.12
284.0469, 18536.57
284.5291, 18543.00
285.0112, 18567.29
285.4933, 18608.81
285.9754, 18648.96
286.4575, 18684.64
286.9396, 18714.38
287.4217, 18727.41
287.9038, 18720.63
288.3860, 18716.51
288.8681, 18747.80
289.3502, 18808.39
289.8323, 18847.41
290.3144, 18843.48
290.7965, 18809.43
291.2787, 18775.43
291.7608, 18740.45
292.2429, 18715.61
292.7250, 18717.77
293.2071, 18742.05
293.6892, 18763.82
294.1714, 18777.91
294.6535, 18783.94
295.1356, 18777.12
295.6177, 18757.27
296.0998, 18737.66
296.5819, 18734.14
297.0641, 18742.10
297.5462, 18744.86
298.0283, 18727.91
298.5104, 18707.48
298.9925, 18715.01
299.4746, 18750.71
299.9568, 18789.86
300.4389, 18805.71
300.9210, 18807.96
301.4031, 18820.12
301.8852, 18858.54
302.3673, 18905.70
302.8495, 18942.42
303.3316, 18968.03
303.8137, 18981.44
304.2958, 18967.07
304.7779, 18940.59
305.2600, 18930.58
305.7422, 18963.66
306.2243, 19007.52
306.7064, 19027.93
307.1885, 19026.16
307.6706, 19024.03
308.1527, 19044.83
308.6349, 19073.49
309.1170, 19088.69
309.5991, 19063.66
310.0812, 19036.85
310.5633, 19042.49
311.0454, 19078.80
311.5276, 19111.02
312.0097, 19117.07
312.4918, 19108.42
312.9739, 19097.82
313.4560, 19089.11
313.9381, 19080.34
314.4203, 19069.27
314.9024, 19056.12
315.3845, 19045.90
315.8666, 19040.25
316.3487, 19038.69
316.8308, 19040.73
317.3130, 19049.30
317.7951, 19058.23
318.2772, 19063.24
318.7593, 19064.93
319.2414, 19070.81
319.7235, 19091.54
320.2057, 19113.36
320.6878, 19125.40
321.1699, 19104.81
321.6520, 19095.32
322.1341, 19121.88
322.6162, 19179.18
323.0984, 19210.29
323.5805, 19174.17
324.0626, 19126.50
324.5447, 19104.83
325.0268, 19130.99
325.5089, 19165.03
325.9911, 19208.65
326.4732, 19259.40
326.9553, 19297.34
327.4374, 19315.80
327.9195, 19323.94
328.4016, 19326.95
328.8838, 19313.00
329.3659, 19307.72
329.8480, 19321.27
330.3301, 19347.76
330.8122, 19350.16
331.2943, 19292.48
331.7765, 19245.83
332.2586, 19256.00
332.7407, 19383.64
333.2228, 19455.81
333.7049, 19434.08
334.1870, 19348.78
334.6692, 19332.13
335.1513, 19429.99
335.6334, 19523.51
336.1155, 19536.32
336.5976, 19429.44
337.0797, 19370.08
337.5619, 19385.02
338.0440, 19445.64
338.5261, 19465.85
339.0082, 19433.40
339.4903, 19396.48
339.9724, 19383.41
340.4546, 19397.20
340.9367, 19407.01
341.4188, 19412.90
341.9009, 19412.17
342.3830, 19393.51
342.8651, 19354.52
343.3473, 19323.76
343.8294, 19318.34
344.3115, 19337.29
344.7936, 19365.37
345.2757, 19404.75
345.7578, 19448.31
346.2400, 19492.36
346.7221, 19535.44
347.2042, 19559.87
347.6863, 19541.24
348.1684, 19495.20
348.6505, 19475.19
349.1327, 19485.77
349.6148, 19508.08
350.0969, 19515.59
350.5790, 19513.32
351.0611, 19522.36
351.5432, 19569.62
352.0254, 19627.96
352.5075, 19648.98
352.9896, 19627.29
353.4717, 19601.72
353.9538, 19617.01
354.4359, 19654.35
354.9181, 19676.28
355.4002, 19658.53
355.8823, 19624.10
356.3644, 19587.03
356.8465, 19548.10
357.3286, 19525.18
357.8108, 19544.70
358.2929, 19583.54
358.7750, 19611.60
359.2571, 19615.18
359.7392, 19607.66
360.2213, 19587.93
360.7035, 19557.81
361.1856, 19541.86
361.6677, 19561.77
362.1498, 19595.02
362.6319, 19622.21
363.1140, 19635.31
363.5962, 19644.12
364.0783, 19650.29
364.5604, 19653.92
365.0425, 19656.21
365.5246, 19660.22
366.0067, 19661.17
366.4889, 19656.19
366.9710, 19639.97
367.4531, 19623.91
367.9352, 19603.72
368.4173, 19582.97
368.8994, 19577.40
369.3815, 19607.39
369.8636, 19635.26
370.3458, 19642.85
370.8279, 19602.64
371.3100, 19590.64
371.7921, 19623.13
372.2742, 19680.06
372.7563, 19709.90
373.2385, 19694.76
373.7206, 19681.22
374.2027, 19690.46
374.6848, 19730.66
375.1669, 19758.72
375.6490, 19772.66
376.1312, 19776.37
376.6133, 19774.34
377.0954, 19764.37
377.5775, 19757.68
378.0596, 19757.43
378.5417, 19763.79
379.0239, 19781.86
379.5060, 19815.00
379.9881, 19849.84
380.4702, 19865.72
380.9523, 19863.63
381.4344, 19867.20
381.9166, 19891.13
382.3987, 19924.98
382.8808, 19934.70
383.3629, 19918.73
383.8450, 19897.80
384.3271, 19889.75
384.8093, 19892.16
385.2914, 19899.09
385.7735, 19912.28
386.2556, 19925.26
386.7377, 19932.27
387.2198, 19932.58
387.7020, 19920.38
388.1841, 19877.07
388.6662, 19823.75
389.1483, 19788.72
389.6304, 19783.90
390.1125, 19792.63
390.5947, 19815.98
391.0768, 19846.12
391.5589, 19856.77
392.0410, 19809.27
392.5231, 19753.84
393.0052, 19727.89
393.4874, 19746.02
393.9695, 19774.23
394.4516, 19804.41
394.9337, 19834.89
395.4158, 19862.73
395.8979, 19892.28
396.3801, 19913.81
396.8622, 19921.09
397.3443, 19909.43
397.8264, 19897.03
398.3085, 19875.83
398.7906, 19858.17
399.2728, 19859.50
399.7549, 19894.49
400.2370, 19932.88
400.7191, 19979.94
401.2012, 20039.53
401.6833, 20050.15
402.1655, 19979.58
402.6476, 19892.80
403.1297, 19846.08
403.6118, 19852.66
404.0939, 19869.58
404.5760, 19897.14
405.0582, 19930.70
405.5403, 19940.90
406.0224, 19921.06
406.5045, 19896.72
406.9866, 19883.27
407.4688, 19880.54
407.9509, 19889.92
408.4330, 19915.89
408.9151, 19947.48
409.3972, 19961.01
409.8793, 19956.26
410.3615, 19946.63
410.8436, 19929.76
411.3257, 19912.99
411.8078, 19929.00
412.2899, 19986.66
412.7720, 20047.13
413.2542, 20059.07
413.7363, 20034.86
414.2184, 20010.81
414.7005, 20004.50
415.1826, 20007.28
415.6647, 20010.00
416.1469, 20012.28
416.6290, 20014.68
417.1111, 20011.59
417.5932, 20010.05
418.0753, 20019.31
418.5574, 20056.71
419.0396, 20092.37
419.5217, 20109.81
420.0038, 20110.82
420.4859, 20109.42
420.9680, 20111.66
421.4501, 20113.18
421.9323, 20111.32
422.4144, 20108.99
422.8965, 20099.88
423.3786, 20079.72
423.8607, 20052.62
424.3428, 20029.18
424.8250, 20010.59
425.3071, 19996.72
425.7892, 19987.84
426.2713, 19984.13
426.7534, 19985.11
427.2355, 19988.01
427.7177, 19996.98
428.1998, 20019.10
428.6819, 20058.85
429.1640, 20100.14
429.6461, 20142.76
430.1282, 20185.13
430.6104, 20202.45
431.0925, 20188.00
431.5746, 20163.21
432.0567, 20144.60
432.5388, 20131.61
433.0209, 20136.34
433.5031, 20168.38
433.9852, 20214.06
434.4673, 20238.75
434.9494, 20243.09
435.4315, 20244.87
435.9136, 20267.23
436.3958, 20297.38
436.8779, 20294.38
437.3600, 20241.03
437.8421, 20188.21
438.3242, 20211.78
438.8063, 20284.99
439.2885, 20332.40
439.7706, 20281.88
440.2527, 20207.34
440.7348, 20180.36
441.2169, 20210.31
441.6990, 20243.44
442.1812, 20246.19
442.6633, 20235.73
443.1454, 20232.62
443.6275, 20252.69
444.1096, 20271.26
444.5917, 20275.03
445.0739, 20265.39
445.5560, 20265.74
446.0381, 20308.97
446.5202, 20344.48
447.0023, 20342.26
447.4844, 20237.49
447.9666, 20176.70
448.4487, 20179.29
448.9308, 20225.35
449.4129, 20262.45
449.8950, 20290.14
450.3771, 20308.99
450.8593, 20316.39
451.3413, 20308.97
451.8235, 20313.90
452.3056, 20340.25
452.7877, 20364.82
453.2698, 20348.23
453.7519, 20285.84
454.2340, 20237.21
454.7162, 20225.75
455.1983, 20239.81
455.6804, 20230.61
456.1625, 20195.97
456.6446, 20173.86
457.1267, 20212.55
457.6089, 20289.55
458.0910, 20343.60
458.5731, 20356.23
459.0552, 20350.76
459.5373, 20347.91
460.0194, 20348.44
460.5016, 20354.72
460.9837, 20379.57
461.4658, 20404.21
461.9479, 20410.31
462.4300, 20393.54
462.9121, 20371.69
463.3943, 20342.59
463.8764, 20316.98
464.3585, 20309.26
464.8406, 20344.19
465.3227, 20377.62
465.8048, 20390.68
466.2870, 20383.12
466.7691, 20386.94
467.2512, 20430.88
467.7333, 20469.54
468.2154, 20473.89
468.6975, 20410.58
469.1797, 20366.98
469.6618, 20352.19
470.1439, 20357.97
470.6260, 20365.06
471.1081, 20375.98
471.5902, 20381.43
472.0724, 20375.82
472.5545, 20358.19
473.0366, 20342.38
473.5187, 20328.73
474.0008, 20316.30
474.4829, 20298.72
474.9651, 20277.78
475.4472, 20275.84
475.9293, 20310.00
476.4114, 20360.82
476.8935, 20389.96
477.3756, 20398.36
477.8578, 20396.77
478.3399, 20383.57
478.8220, 20368.58
479.3041, 20367.25
479.7862, 20385.93
480.2683, 20410.81
480.7505, 20438.06
481.2326, 20463.61
481.7147, 20479.09
482.1968, 20464.40
482.6789, 20451.83
483.1610, 20465.06
483.6432, 20510.33
484.1253, 20535.13
484.6074, 20494.52
485.0895, 20442.97
485.5716, 20427.47
486.0537, 20507.46
486.5359, 20556.01
487.0180, 20546.09
487.5001, 20493.15
487.9822, 20471.07
488.4643, 20496.77
488.9464, 20526.29
489.4286, 20540.15
489.9107, 20537.61
490.3928, 20521.25
490.8749, 20484.26
491.3570, 20446.86
491.8391, 20446.01
492.3213, 20481.86
492.8034, 20506.12
493.2855, 20493.76
493.7676, 20461.72
494.2497, 20455.98
494.7318, 20476.25
495.2140, 20496.03
495.6961, 20485.88
496.1782, 20462.13
496.6603, 20455.31
497.1424, 20478.70
497.6245, 20504.08
498.1067, 20505.31
498.5888, 20490.91
499.0709, 20481.28
499.5530, 20488.12
500.0351, 20498.43
500.5172, 20506.97
500.9994, 20513.36
501.4815, 20510.88
501.9636, 20477.40
502.4457, 20444.02
502.9278, 20438.90
503.4099, 20494.47
503.8921, 20540.40
504.3742, 20571.83
504.8563, 20590.19
505.3384, 20600.08
505.8205, 20602.78
506.3026, 20597.22
506.7848, 20580.38
507.2669, 20550.08
507.7490, 20530.39
508.2311, 20524.00
508.7132, 20523.55
509.1953, 20519.17
509.6775, 20511.18
510.1596, 20502.27
510.6417, 20484.60
511.1238, 20471.53
511.6059, 20503.24
512.0880, 20574.39
512.5701, 20630.05
513.0522, 20603.72
513.5344, 20549.52
514.0165, 20542.23
514.4986, 20610.60
514.9807, 20679.42
515.4628, 20710.37
515.9449, 20709.28
516.4271, 20685.97
516.9092, 20607.32
517.3913, 20542.36
517.8734, 20527.36
518.3555, 20566.25
518.8376, 20589.04
519.3198, 20568.25
519.8019, 20544.03
520.2840, 20542.65
520.7661, 20587.85
521.2482, 20607.79
521.7303, 20587.56
522.2125, 20546.87
522.6946, 20531.16
523.1767, 20544.66
523.6588, 20563.78
524.1409, 20580.78
524.6230, 20595.36
525.1052, 20607.43
525.5873, 20616.77
526.0694, 20625.64
526.5515, 20637.94
527.0336, 20651.78
527.5157, 20661.07
527.9979, 20663.13
528.4800, 20662.27
528.9621, 20655.76
529.4442, 20648.86
529.9263, 20656.86
530.4084, 20708.74
530.8906, 20763.08
531.3727, 20788.10
531.8548, 20778.01
532.3369, 20764.92
532.8190, 20743.10
533.3011, 20730.52
533.7833, 20743.86
534.2654, 20832.14
534.7475, 20888.93
535.2296, 20894.26
535.7117, 20860.55
536.1938, 20831.26
536.6760, 20806.81
537.1581, 20785.15
537.6402, 20761.65
538.1223, 20734.74
538.6044, 20736.67
539.0865, 20776.68
539.5687, 20819.46
540.0508, 20816.39
540.5329, 20774.61
541.0150, 20745.44
541.4971, 20745.45
541.9792, 20760.48
542.4614, 20769.14
542.9435, 20773.21
543.4256, 20780.59
543.9077, 20807.04
544.3898, 20832.74
544.8719, 20833.30
545.3541, 20802.15
545.8362, 20777.00
546.3183, 20785.05
546.8004, 20804.55
547.2825, 20811.80
547.7646, 20785.64
548.2468, 20763.77
548.7289, 20760.96
549.2110, 20769.92
549.6931, 20757.76
550.1752, 20699.12
550.6573, 20653.84
551.1395, 20649.35
551.6216, 20693.52
552.1037, 20736.73
552.5858, 20784.16
553.0679, 20820.63
553.5500, 20815.42
554.0322, 20771.36
554.5143, 20758.29
554.9964, 20805.37
555.4785, 20876.71
555.9606, 20909.62
556.4427, 20908.02
556.9249, 20891.26
557.4070, 20856.63
557.8891, 20820.38
558.3712, 20800.87
558.8533, 20800.49
559.3354, 20809.21
559.8176, 20817.00
560.2997, 20832.37
560.7818, 20864.21
561.2639, 20958.07
561.7460, 21018.68
562.2281, 21008.53
562.7103, 20945.64
563.1924, 20899.82
563.6745, 20869.63
564.1566, 20859.85
564.6387, 20880.02
565.1208, 20936.13
565.6030, 20965.94
566.0851, 20966.62
566.5672, 20948.35
567.0493, 20910.54
567.5314, 20855.85
568.0135, 20825.40
568.4957, 20833.16
568.9778, 20858.60
569.4599, 20868.51
569.9420, 20866.50
570.4241, 20867.16
570.9063, 20877.71
571.3884, 20894.99
571.8705, 20924.70
572.3526, 20966.28
572.8347, 20986.78
573.3168, 20940.64
573.7990, 20880.75
574.2811, 20853.15
574.7632, 20895.79
575.2453, 20929.69
575.7274, 20930.31
576.2095, 20916.43
576.6917, 20927.53
577.1738, 20990.88
577.6559, 21033.60
578.1380, 21029.34
578.6201, 20981.54
579.1022, 20942.57
579.5844, 20907.98
580.0665, 20898.13
580.5486, 20954.75
581.0307, 21062.54
581.5128, 21099.83
581.9949, 21039.90
582.4771, 20954.37
582.9592, 20926.61
583.4413, 20942.44
583.9234, 20966.72
584.4055, 20994.91
584.8876, 21017.89
585.3698, 21026.70
585.8519, 21023.47
586.3340, 21019.10
586.8161, 21013.71
587.2982, 21012.18
587.7803, 21017.48
588.2625, 21031.16
588.7446, 21049.41
589.2267, 21084.13
589.7088, 21115.23
590.1909, 21114.12
590.6730, 21055.11
591.1552, 21038.41
591.6373, 21098.83
592.1194, 21200.84
592.6015, 21233.02
593.0836, 21191.38
593.5657, 21142.40
594.0479, 21119.29
594.5300, 21115.63
595.0121, 21112.21
595.4942, 21107.90
595.9763, 21117.04
596.4584, 21178.11
596.9406, 21250.21
597.4227, 21276.13
597.9048, 21210.04
598.3869, 21150.28
598.8690, 21157.26
599.3511, 21200.63
599.8333, 21221.45
600.3154, 21202.01
600.7975, 21163.63
601.2796, 21096.31
601.7617, 21002.11
602.2438, 20965.55
602.7260, 21016.72
603.2081, 21074.85
603.6902, 21085.50
604.1723, 21044.87
604.6544, 21011.96
605.1365, 20989.46
605.6187, 20976.72
606.1008, 20979.38
606.5829, 20993.15
607.0650, 20998.83
607.5471, 20983.31
608.0292, 20964.42
608.5114, 20963.81
608.9935, 20977.66
609.4756, 20993.13
609.9577, 20995.27
610.4398, 21002.50
610.9219, 21033.56
611.4041, 21096.29
611.8862, 21134.81
612.3683, 21108.32
612.8504, 21072.55
613.3325, 21071.80
613.8146, 21135.68
614.2968, 21174.91
614.7789, 21177.76
615.2610, 21160.36
615.7431, 21154.68
616.2252, 21162.29
616.7073, 21165.04
617.1895, 21149.57
617.6716, 21127.60
618.1537, 21137.75
618.6358, 21177.59
619.1179, 21214.94
619.6000, 21232.92
620.0822, 21232.99
620.5643, 21208.45
621.0464, 21151.62
621.5285, 21111.70
622.0106, 21132.04
622.4927, 21176.66
622.9749, 21207.08
623.4570, 21203.22
623.9391, 21198.85
624.4212, 21196.59
624.9033, 21197.24
