##NAMES=Wittichenite
##RRUFFID=R050327
##IDEAL CHEMISTRY=Cu_3_BiS_3_
##LOCALITY=Grube Daniel, Wittichen, Schwarzwald, Germany
##OWNER=RRUFF
##SOURCE=Marcus Origlieri
##DESCRIPTION=Tin-white metallic blebs
##STATUS=The identification of this mineral has been confirmed by X-ray diffraction and chemical analysis
##URL=rruff.info/R050327
##MEASURED CHEMISTRY=Cu_3.00_Bi_1.00_S_3.00_
123.939, 384.069
124.421, 434.564
124.903, 494.925
125.385, 565.977
125.867, 648.122
126.349, 742.116
126.831, 856.740
127.313, 975.691
127.796, 1097.143
128.278, 1220.731
128.760, 1347.872
129.242, 1478.872
129.724, 1614.208
130.206, 1750.269
130.688, 1925.935
131.170, 2065.820
131.652, 2151.658
132.135, 2181.752
132.617, 2154.833
133.099, 2065.747
133.581, 1908.726
134.063, 1748.425
134.545, 1574.211
135.027, 1406.089
135.509, 1252.080
135.992, 1113.421
136.474, 989.284
136.956, 878.329
137.438, 781.532
137.920, 712.544
138.402, 687.094
138.884, 675.454
139.366, 654.303
139.848, 622.501
140.331, 598.913
140.813, 605.026
141.295, 648.517
141.777, 685.069
142.259, 705.477
142.741, 723.118
143.223, 752.102
143.705, 794.865
144.188, 839.806
144.670, 872.668
145.152, 892.023
145.634, 916.187
146.116, 950.723
146.598, 990.119
147.080, 1031.130
147.562, 1075.077
148.044, 1111.303
148.527, 1122.962
149.009, 1111.757
149.491, 1094.656
149.973, 1077.536
150.455, 1056.882
150.937, 1024.242
151.419, 974.356
151.901, 921.280
152.383, 883.281
152.866, 859.413
153.348, 834.872
153.830, 795.570
154.312, 751.554
154.794, 730.010
155.276, 745.192
155.758, 769.773
156.240, 769.688
156.723, 745.325
157.205, 724.650
157.687, 725.983
158.169, 743.365
158.651, 755.422
159.133, 756.956
159.615, 751.988
160.097, 742.688
160.579, 728.766
161.062, 720.069
161.544, 730.377
162.026, 754.896
162.508, 763.268
162.990, 741.327
163.472, 708.082
163.954, 681.175
164.436, 661.140
164.919, 643.457
165.401, 624.028
165.883, 603.251
166.365, 587.208
166.847, 579.200
167.329, 575.050
167.811, 572.420
168.293, 571.163
168.775, 568.427
169.258, 560.367
169.740, 547.027
170.222, 536.875
170.704, 537.102
171.186, 536.363
171.668, 523.826
172.150, 498.815
172.632, 475.008
173.115, 468.118
173.597, 479.427
174.079, 483.990
174.561, 469.282
175.043, 452.193
175.525, 444.716
176.007, 447.939
176.489, 452.730
176.971, 450.089
177.454, 439.384
177.936, 427.356
178.418, 412.968
178.900, 399.135
179.382, 386.677
179.864, 375.870
180.346, 368.341
180.828, 367.349
181.311, 374.126
181.793, 378.382
182.275, 375.366
182.757, 371.398
183.239, 369.519
183.721, 370.214
184.203, 372.571
184.685, 376.694
185.167, 383.387
185.650, 386.796
186.132, 382.942
186.614, 377.619
187.096, 374.044
187.578, 372.489
188.060, 370.595
188.542, 363.307
189.024, 347.978
189.507, 342.499
189.989, 334.239
190.471, 343.099
190.953, 347.803
191.435, 348.575
191.917, 333.636
192.399, 338.984
192.881, 336.202
193.363, 333.086
193.846, 341.290
194.328, 328.636
194.810, 336.660
195.292, 336.429
195.774, 339.977
196.256, 335.344
196.738, 333.238
197.220, 339.314
197.702, 340.860
198.185, 335.286
198.667, 339.073
199.149, 326.134
199.631, 329.232
200.113, 320.379
200.595, 330.619
201.077, 336.225
201.559, 337.444
202.042, 321.143
202.524, 327.467
203.006, 324.723
203.488, 321.608
203.970, 331.116
204.452, 317.363
204.934, 326.671
205.416, 326.773
205.898, 331.089
206.381, 326.281
206.863, 324.291
207.345, 331.428
207.827, 333.511
208.309, 327.653
208.791, 332.236
209.273, 318.165
209.755, 321.979
210.238, 314.746
210.720, 326.233
211.202, 333.176
211.684, 335.819
212.166, 321.284
212.648, 328.931
213.130, 327.688
213.612, 326.081
214.094, 336.850
214.577, 324.813
215.059, 335.386
215.541, 336.934
216.023, 342.612
216.505, 339.346
216.987, 338.842
217.469, 347.286
217.951, 350.775
218.434, 346.479
218.916, 352.420
219.398, 340.071
219.880, 343.771
220.362, 354.397
220.844, 347.475
221.326, 366.227
221.808, 360.261
222.290, 353.281
222.773, 380.715
223.255, 344.734
223.737, 371.622
224.219, 373.414
224.701, 369.389
225.183, 376.694
225.665, 385.003
226.147, 392.004
226.629, 393.596
227.112, 386.060
227.594, 375.557
228.076, 361.085
228.558, 385.747
229.040, 400.910
229.522, 407.084
230.004, 377.344
230.486, 393.979
230.969, 392.029
231.451, 389.317
231.933, 412.479
232.415, 387.963
232.897, 410.715
233.379, 414.598
233.861, 414.108
234.343, 424.681
234.825, 444.955
235.307, 465.151
235.790, 471.651
236.272, 462.347
236.754, 456.225
237.236, 463.576
237.718, 472.578
238.200, 473.055
238.682, 463.187
239.165, 452.163
239.647, 446.844
240.129, 447.220
240.611, 455.148
241.093, 479.685
241.575, 503.967
242.057, 512.132
242.539, 503.932
243.021, 495.725
243.503, 500.938
243.986, 517.065
244.468, 529.560
244.950, 536.203
245.432, 538.484
245.914, 534.527
246.396, 525.775
246.878, 523.549
247.361, 537.712
247.843, 562.799
248.325, 585.835
248.807, 608.400
249.289, 622.218
249.771, 611.435
250.253, 584.270
250.735, 568.656
251.217, 581.013
251.699, 608.825
252.182, 633.269
252.664, 652.871
253.146, 671.371
253.628, 693.712
254.110, 717.095
254.592, 733.391
255.074, 731.583
255.556, 727.749
256.039, 743.223
256.521, 778.275
257.003, 805.552
257.485, 803.404
257.967, 781.606
258.449, 774.252
258.931, 789.531
259.413, 812.393
259.896, 838.391
260.378, 865.612
260.860, 883.877
261.342, 886.867
261.824, 878.843
262.306, 871.304
262.788, 859.120
263.270, 855.387
263.752, 870.361
264.235, 897.357
264.717, 922.049
265.199, 939.325
265.681, 951.946
266.163, 965.773
266.645, 983.737
267.127, 996.034
267.609, 996.626
268.091, 992.125
268.574, 989.723
269.056, 991.257
269.538, 997.260
270.020, 1009.606
270.502, 1033.983
270.984, 1048.317
271.466, 1039.833
271.948, 1029.667
272.431, 1038.746
272.913, 1067.337
273.395, 1095.664
273.877, 1103.329
274.359, 1085.872
274.841, 1076.936
275.323, 1077.398
275.805, 1083.981
276.288, 1096.415
276.770, 1113.789
277.252, 1134.940
277.734, 1160.057
278.216, 1188.495
278.698, 1208.673
279.180, 1211.270
279.662, 1215.954
280.144, 1227.881
280.626, 1244.639
281.109, 1262.549
281.591, 1279.802
282.073, 1296.140
282.555, 1310.579
283.037, 1323.504
283.519, 1333.752
284.001, 1339.916
284.483, 1344.222
284.966, 1348.447
285.448, 1353.217
285.930, 1358.765
286.412, 1367.006
286.894, 1383.047
287.376, 1387.916
287.858, 1367.511
288.340, 1345.816
288.823, 1341.271
289.305, 1353.852
289.787, 1365.685
290.269, 1357.034
290.751, 1326.370
291.233, 1296.826
291.715, 1269.706
292.197, 1243.314
292.679, 1216.566
293.162, 1189.863
293.644, 1164.198
294.126, 1140.386
294.608, 1118.193
295.090, 1097.436
295.572, 1079.576
296.054, 1060.015
296.536, 1037.182
297.018, 1011.097
297.501, 981.226
297.983, 945.331
298.465, 907.530
298.947, 871.341
299.429, 835.677
299.911, 810.838
300.393, 810.447
300.875, 819.188
301.358, 814.929
301.840, 792.046
302.322, 765.135
302.804, 741.263
303.286, 721.220
303.768, 710.567
304.250, 715.843
304.732, 723.740
305.215, 711.089
305.697, 674.752
306.179, 646.582
306.661, 644.069
307.143, 653.135
307.625, 652.754
308.107, 638.832
308.589, 620.786
309.071, 611.057
309.553, 611.599
310.036, 592.502
310.518, 522.247
311.000, 456.068
311.482, 442.404
311.964, 473.547
312.446, 501.878
312.928, 492.100
313.410, 448.440
313.893, 422.629
314.375, 426.331
314.857, 431.141
315.339, 428.445
315.821, 421.918
316.303, 418.763
316.785, 422.411
317.267, 428.992
317.750, 429.014
318.232, 418.296
318.714, 406.484
319.196, 390.928
319.678, 376.370
320.160, 367.285
320.642, 364.274
321.124, 363.518
321.606, 358.848
322.089, 346.779
322.571, 345.700
323.053, 375.037
323.535, 398.048
324.017, 394.470
324.499, 370.599
324.981, 346.890
325.463, 338.210
325.945, 341.787
326.428, 342.419
326.910, 336.364
327.392, 334.073
327.874, 342.763
328.356, 356.087
328.838, 366.598
329.320, 372.990
329.802, 372.635
330.284, 357.230
330.767, 324.812
331.249, 301.446
331.731, 301.062
332.213, 309.931
332.695, 311.720
333.177, 304.406
333.659, 299.737
334.142, 311.655
334.624, 331.830
335.106, 334.839
335.588, 312.323
336.070, 283.430
336.552, 268.869
337.034, 267.310
337.516, 264.624
337.998, 255.301
338.480, 245.928
338.963, 244.471
339.445, 250.223
339.927, 253.512
340.409, 246.753
340.891, 231.777
341.373, 223.471
341.855, 227.659
342.337, 230.718
342.819, 226.355
343.302, 218.540
343.784, 214.481
344.266, 217.144
344.748, 222.837
345.230, 223.894
345.712, 214.600
346.194, 210.184
346.677, 212.871
347.159, 218.391
347.641, 227.368
348.123, 237.609
348.605, 241.179
349.087, 227.073
349.569, 193.064
350.051, 175.010
350.533, 188.706
351.016, 202.700
351.498, 205.155
351.980, 201.594
352.462, 188.456
352.944, 202.424
353.426, 209.811
353.908, 210.973
354.390, 187.262
354.872, 195.670
355.355, 191.205
355.837, 186.213
356.319, 199.141
356.801, 179.048
357.283, 191.691
357.765, 191.267
358.247, 196.823
358.729, 189.429
359.211, 186.035
359.694, 195.595
360.176, 197.983
360.658, 189.097
361.140, 195.034
361.622, 174.488
362.104, 177.181
362.586, 189.901
363.069, 177.214
363.551, 162.706
364.033, 152.119
364.515, 146.037
364.997, 147.265
365.479, 163.693
365.961, 177.042
366.443, 180.444
366.925, 177.923
367.408, 174.791
367.890, 172.887
368.372, 172.103
368.854, 172.503
369.336, 175.554
369.818, 176.227
370.300, 174.632
370.782, 171.013
371.264, 176.322
371.747, 179.465
372.229, 180.556
372.711, 173.454
373.193, 176.932
373.675, 176.170
374.157, 175.235
374.639, 180.202
375.121, 174.292
375.603, 179.165
376.086, 179.734
376.568, 182.273
377.050, 180.546
377.532, 180.137
378.014, 183.994
378.496, 185.489
378.978, 183.271
379.460, 185.935
379.943, 179.876
380.425, 181.472
380.907, 186.371
381.389, 184.367
381.871, 187.109
382.353, 188.044
382.835, 180.764
383.317, 187.770
383.799, 188.598
384.282, 183.082
384.764, 185.417
385.246, 159.788
385.728, 136.275
386.210, 127.272
386.692, 130.093
387.174, 143.491
387.656, 167.810
388.138, 191.865
388.621, 194.597
389.103, 156.722
389.585, 138.246
390.067, 159.862
390.549, 182.721
391.031, 177.514
391.513, 148.310
391.996, 120.760
392.478, 116.908
392.960, 133.486
393.442, 138.227
393.924, 116.168
394.406, 104.581
394.888, 121.306
395.370, 148.649
395.852, 166.370
396.335, 167.698
396.817, 162.327
397.299, 161.822
397.781, 166.225
398.263, 168.570
398.745, 167.959
399.227, 164.416
399.709, 157.152
400.191, 146.767
400.674, 136.999
401.156, 124.810
401.638, 116.438
402.120, 125.693
402.602, 151.803
403.084, 168.404
403.566, 156.607
404.048, 125.170
404.530, 107.626
405.013, 106.477
405.495, 113.066
405.977, 136.805
406.459, 162.311
406.941, 166.265
407.423, 144.131
407.905, 114.779
408.387, 101.667
408.870, 107.942
409.352, 115.973
409.834, 128.813
410.316, 140.198
410.798, 148.682
411.280, 153.735
411.762, 153.666
412.244, 146.558
412.727, 137.000
413.209, 137.589
413.691, 153.179
414.173, 163.694
414.655, 159.355
415.137, 151.351
415.619, 145.479
416.101, 142.658
416.583, 145.123
417.065, 160.895
417.548, 182.427
418.030, 188.831
418.512, 176.186
418.994, 160.493
419.476, 152.105
419.958, 149.960
420.440, 148.227
420.922, 148.135
421.405, 146.922
421.887, 142.039
422.369, 144.204
422.851, 144.659
423.333, 143.494
423.815, 135.861
424.297, 136.581
424.779, 133.953
425.262, 131.188
425.744, 133.084
426.226, 126.391
426.708, 128.212
427.190, 126.635
427.672, 126.614
428.154, 123.224
428.636, 120.874
429.118, 121.894
429.601, 121.048
430.083, 115.558
430.565, 109.386
431.047, 101.132
431.529, 94.421
432.011, 90.102
432.493, 92.277
432.975, 112.628
433.457, 142.029
433.940, 149.148
434.422, 126.402
434.904, 101.482
435.386, 95.847
435.868, 104.358
436.350, 106.162
436.832, 91.157
437.314, 78.668
437.797, 82.685
438.279, 95.302
438.761, 99.340
439.243, 88.936
439.725, 75.720
440.207, 77.000
440.689, 98.132
441.171, 117.427
441.654, 112.931
442.136, 117.250
442.618, 119.429
443.100, 119.584
443.582, 111.650
444.064, 114.160
444.546, 112.485
445.028, 110.638
445.510, 114.619
445.992, 107.861
446.475, 111.750
446.957, 110.610
447.439, 110.457
447.921, 121.891
448.403, 128.198
448.885, 112.729
449.367, 87.514
449.849, 73.942
450.332, 73.344
450.814, 85.904
451.296, 120.291
451.778, 165.458
452.260, 182.254
452.742, 149.370
453.224, 120.899
453.706, 116.393
454.189, 123.429
454.671, 126.788
455.153, 123.185
455.635, 118.391
456.117, 118.385
456.599, 123.295
457.081, 131.562
457.563, 156.270
458.045, 170.052
458.528, 151.534
459.010, 122.672
459.492, 119.351
459.974, 157.316
460.456, 200.078
460.938, 187.011
461.420, 117.001
461.902, 78.633
462.384, 100.030
462.867, 135.133
463.349, 147.304
463.831, 140.957
464.313, 132.342
464.795, 121.426
465.277, 113.701
465.759, 115.991
466.241, 126.165
466.724, 137.133
467.206, 146.815
467.688, 152.532
468.170, 148.335
468.652, 124.392
469.134, 111.151
469.616, 121.581
470.098, 131.493
470.581, 121.203
471.063, 96.298
471.545, 76.617
472.027, 75.609
472.509, 88.596
472.991, 101.386
473.473, 114.942
473.955, 126.003
474.437, 112.499
474.919, 109.215
475.402, 114.153
475.884, 117.095
476.366, 118.149
476.848, 111.659
477.330, 114.910
477.812, 114.257
478.294, 113.444
478.776, 118.067
479.259, 112.674
479.741, 117.210
480.223, 117.783
480.705, 120.169
481.187, 118.628
481.669, 118.300
482.151, 121.901
482.633, 123.326
483.116, 121.333
483.598, 123.835
484.080, 120.095
484.562, 125.331
485.044, 126.283
485.526, 114.346
486.008, 111.877
486.490, 137.240
486.972, 166.504
487.455, 170.896
487.937, 144.257
488.419, 117.395
488.901, 122.262
489.383, 148.440
489.865, 159.997
490.347, 151.799
490.829, 137.571
491.311, 122.646
491.794, 109.584
492.276, 107.741
492.758, 133.604
493.240, 150.071
493.722, 138.258
494.204, 112.644
494.686, 88.989
495.168, 72.054
495.651, 65.386
496.133, 74.910
496.615, 101.863
497.097, 117.942
497.579, 116.294
498.061, 111.668
498.543, 102.020
499.025, 94.054
499.508, 99.513
499.990, 122.506
500.472, 141.995
500.954, 129.443
501.436, 93.733
501.918, 78.169
502.400, 92.015
502.882, 111.242
503.364, 119.087
503.846, 117.098
504.329, 115.303
504.811, 115.719
505.293, 114.281
505.775, 106.650
506.257, 97.269
506.739, 92.248
507.221, 93.123
507.703, 98.267
508.186, 107.141
508.668, 120.488
509.150, 116.884
509.632, 121.016
510.114, 123.269
510.596, 123.746
511.078, 117.125
511.560, 119.670
512.042, 118.541
512.525, 117.261
513.007, 121.096
513.489, 115.507
513.971, 119.261
514.453, 119.285
514.935, 121.016
515.417, 119.051
515.899, 118.228
516.382, 121.102
516.864, 121.929
517.346, 119.538
517.828, 117.502
518.310, 126.953
518.792, 130.476
519.274, 126.996
519.756, 121.098
520.239, 116.355
520.721, 112.921
521.203, 118.130
521.685, 143.023
522.167, 159.138
522.649, 152.877
523.131, 138.005
523.613, 128.583
524.096, 127.490
524.578, 128.991
525.060, 129.853
525.542, 130.075
526.024, 128.994
526.506, 126.443
526.988, 125.491
527.470, 128.637
527.952, 134.756
528.435, 139.233
528.917, 146.752
529.399, 146.351
529.881, 129.232
530.363, 108.478
530.845, 93.624
531.327, 86.780
531.809, 88.718
532.291, 102.722
532.774, 124.037
533.256, 129.602
533.738, 112.809
534.220, 98.870
534.702, 92.873
535.184, 94.536
535.666, 107.724
536.148, 132.292
536.630, 150.842
537.113, 151.828
537.595, 145.190
538.077, 141.900
538.559, 141.946
539.041, 141.981
539.523, 140.571
540.005, 137.445
540.487, 131.610
540.969, 119.443
541.452, 111.991
541.934, 112.772
542.416, 114.547
542.898, 112.115
543.380, 107.584
543.862, 107.440
544.344, 116.455
544.826, 126.969
545.309, 122.306
545.791, 102.676
546.273, 98.304
546.755, 123.061
547.237, 150.837
547.719, 153.255
548.201, 134.111
548.683, 120.744
549.166, 121.476
549.648, 123.223
550.130, 117.264
550.612, 108.428
551.094, 106.722
551.576, 114.541
552.058, 122.705
552.540, 118.524
553.023, 100.658
553.505, 91.026
553.987, 88.630
554.469, 96.754
554.951, 131.044
555.433, 168.375
555.915, 177.622
556.397, 149.602
556.879, 117.589
557.362, 105.314
557.844, 104.694
558.326, 100.706
558.808, 91.899
559.290, 82.126
559.772, 72.442
560.254, 64.778
560.736, 66.357
561.218, 90.431
561.701, 105.994
562.183, 105.597
562.665, 101.988
563.147, 104.812
563.629, 113.031
564.111, 120.095
564.593, 122.835
565.075, 120.372
565.557, 105.907
566.040, 77.921
566.522, 66.550
567.004, 86.744
567.486, 115.396
567.968, 126.371
568.450, 121.510
568.932, 118.722
569.414, 125.493
569.896, 129.705
570.379, 118.366
570.861, 101.598
571.343, 99.702
571.825, 118.237
572.307, 141.385
572.789, 149.027
573.271, 140.416
573.753, 132.329
574.236, 126.405
574.718, 118.387
575.200, 100.695
575.682, 82.991
576.164, 78.333
576.646, 90.634
577.128, 103.521
577.610, 106.018
578.093, 104.419
578.575, 110.082
579.057, 122.341
579.539, 127.773
580.021, 116.993
580.503, 97.369
580.985, 90.961
581.467, 115.322
581.950, 120.836
582.432, 86.865
582.914, 54.887
583.396, 48.711
583.878, 63.066
584.360, 82.705
584.842, 104.603
585.324, 119.566
585.806, 110.282
586.289, 82.030
586.771, 62.287
587.253, 56.949
587.735, 59.930
588.217, 66.956
588.699, 77.865
589.181, 88.798
589.663, 109.193
590.145, 117.737
590.628, 92.514
591.110, 63.802
591.592, 68.375
592.074, 106.183
592.556, 141.851
593.038, 146.289
593.520, 126.476
594.002, 98.159
594.484, 57.219
594.967, 39.387
595.449, 70.100
595.931, 113.831
596.413, 117.681
596.895, 80.697
597.377, 57.960
597.859, 68.570
598.341, 84.848
598.823, 91.232
599.306, 91.509
599.788, 93.734
600.270, 100.761
600.752, 110.622
601.234, 124.129
601.716, 141.559
602.198, 140.652
602.680, 111.458
603.162, 84.170
603.645, 67.807
604.127, 63.504
604.609, 78.741
605.091, 120.805
605.573, 148.568
606.055, 132.079
606.537, 103.430
607.019, 94.591
607.502, 103.928
607.984, 116.601
608.466, 125.395
608.948, 129.176
609.430, 124.662
609.912, 109.075
610.394, 94.941
610.876, 77.443
611.359, 68.115
611.841, 74.750
612.323, 92.029
612.805, 111.867
613.287, 135.748
613.769, 131.225
614.251, 136.529
614.733, 139.447
615.216, 140.108
615.698, 131.751
616.180, 135.039
616.662, 133.660
617.144, 132.090
617.626, 137.017
618.108, 129.972
618.590, 134.796
619.072, 134.882
619.555, 137.136
620.037, 134.695
620.519, 133.704
621.001, 137.410
621.483, 138.516
621.965, 135.534
622.447, 133.003
622.929, 78.753
623.411, 58.121
623.894, 81.457
624.376, 109.732
624.858, 110.405
625.340, 87.857
625.822, 71.051
626.304, 53.364
626.786, 53.009
627.268, 89.458
627.750, 127.307
628.233, 142.410
628.715, 136.423
629.197, 123.913
629.679, 108.323
630.161, 93.684
630.643, 81.269
631.125, 73.398
631.607, 82.778
632.089, 113.245
632.572, 139.395
633.054, 134.053
633.536, 99.852
634.018, 83.255
634.500, 101.380
634.982, 113.576
635.464, 112.378
635.946, 105.439
636.429, 96.698
636.911, 87.642
637.393, 81.124
637.875, 78.308
638.357, 79.204
638.839, 87.258
639.321, 99.639
639.803, 104.624
640.286, 98.799
640.768, 87.899
641.250, 76.840
641.732, 65.694
642.214, 60.440
642.696, 60.722
643.178, 67.929
643.660, 94.802
644.143, 119.450
644.625, 118.078
645.107, 93.397
645.589, 73.911
646.071, 77.969
646.553, 93.716
647.035, 112.395
647.517, 130.835
647.999, 134.166
648.482, 117.252
648.964, 96.373
649.446, 88.601
649.928, 93.943
650.410, 100.574
650.892, 116.992
651.374, 122.500
651.856, 102.687
652.338, 79.310
652.821, 70.896
653.303, 77.766
653.785, 88.282
654.267, 99.666
654.749, 108.860
655.231, 111.009
655.713, 107.958
656.195, 105.007
656.677, 103.585
657.160, 103.751
657.642, 105.715
658.124, 109.415
658.606, 114.015
659.088, 128.517
659.570, 128.907
660.052, 92.386
660.534, 55.502
661.016, 52.466
661.499, 79.253
661.981, 99.325
662.463, 90.722
662.945, 74.992
663.427, 70.885
663.909, 74.482
664.391, 76.815
664.873, 75.841
665.356, 74.776
665.838, 76.207
666.320, 80.414
666.802, 90.739
667.284, 112.815
667.766, 128.490
668.248, 130.939
668.730, 128.292
669.213, 125.840
669.695, 123.278
670.177, 118.016
670.659, 104.148
671.141, 93.218
671.623, 97.129
672.105, 106.887
672.587, 104.448
673.070, 89.396
673.552, 82.913
674.034, 104.781
674.516, 143.669
674.998, 156.769
675.480, 137.828
675.962, 119.985
676.444, 107.673
676.926, 99.561
677.409, 92.943
677.891, 89.301
678.373, 95.036
678.855, 121.206
679.337, 142.556
679.819, 153.987
680.301, 153.359
680.783, 130.010
681.265, 90.602
681.748, 59.347
