##NAMES=Wohlerite
##RRUFFID=R060086
##IDEAL CHEMISTRY=NaCa_2_(Zr^4+^,Nb^5+^)(Si_2_O_7_)(O,F)_2_
##LOCALITY=Langesundfjord, Norway
##OWNER=RRUFF
##SOURCE=University of Arizona Mineral Museum
##DESCRIPTION=Yellowish-brown fragment frozen in matrix
##STATUS=The identification of this mineral has been confirmed by X-ray diffraction and chemical analysis
##URL=rruff.info/R060086
##MEASURED CHEMISTRY=Na_1.00_(Ca_1.87_Fe^2+^_0.08_Mn_0.05_)_Σ=2_(Zr_0.52_Nb_0.41_Ti_0.06_Hf_0.01_)_Σ=1_Si_2.00_O_7_((OH)_1.15_O_0.78_F_0.70_)_Σ=2_
93.46680, 764.0908
93.94891, 756.9621
94.43103, 758.6407
94.91315, 763.3743
95.39526, 765.9764
95.87738, 766.5334
96.35950, 766.3033
96.84161, 764.3323
97.32373, 760.3627
97.80585, 755.0524
98.28796, 749.4469
98.77008, 743.6564
99.25220, 738.2686
99.73431, 734.0900
100.2164, 731.3964
100.6985, 727.4817
101.1807, 723.5074
101.6628, 720.1139
102.1449, 717.7038
102.6270, 716.4200
103.1091, 716.0323
103.5912, 715.6987
104.0734, 714.5486
104.5555, 714.2181
105.0376, 715.0861
105.5197, 716.9568
106.0018, 719.4213
106.4839, 722.1360
106.9661, 725.0979
107.4482, 728.4099
107.9303, 732.2250
108.4124, 735.9766
108.8945, 738.9575
109.3766, 741.1824
109.8588, 743.7678
110.3409, 748.2458
110.8230, 754.8795
111.3051, 761.4017
111.7872, 767.3333
112.2693, 773.0109
112.7515, 778.9402
113.2336, 785.1137
113.7157, 791.7488
114.1978, 799.0491
114.6799, 806.9277
115.1620, 815.3067
115.6442, 824.3594
116.1263, 834.0733
116.6084, 843.2977
117.0905, 851.1085
117.5726, 858.7797
118.0547, 867.3840
118.5369, 877.0709
119.0190, 887.0451
119.5011, 896.1075
119.9832, 903.4904
120.4653, 911.7231
120.9474, 921.6906
121.4296, 932.2802
121.9117, 942.5668
122.3938, 952.1425
122.8759, 961.2756
123.3580, 970.9576
123.8401, 981.3417
124.3223, 992.1598
124.8044, 1003.717
125.2865, 1015.667
125.7686, 1027.406
126.2507, 1038.663
126.7328, 1049.467
127.2150, 1060.323
127.6971, 1071.157
128.1792, 1082.125
128.6613, 1093.090
129.1434, 1104.175
129.6255, 1115.870
130.1077, 1128.996
130.5898, 1143.319
131.0719, 1156.475
131.5540, 1167.354
132.0361, 1177.655
132.5182, 1189.323
133.0004, 1202.690
133.4825, 1216.476
133.9646, 1229.975
134.4467, 1243.217
134.9288, 1255.765
135.4109, 1267.021
135.8931, 1277.355
136.3752, 1288.317
136.8573, 1300.494
137.3394, 1312.611
137.8215, 1323.989
138.3036, 1334.725
138.7858, 1345.064
139.2679, 1355.190
139.7500, 1365.079
140.2321, 1374.951
140.7142, 1384.958
141.1963, 1394.837
141.6785, 1404.765
142.1606, 1414.582
142.6427, 1423.893
143.1248, 1432.108
143.6069, 1438.701
144.0890, 1445.330
144.5712, 1451.979
145.0533, 1458.637
145.5354, 1465.561
146.0175, 1472.724
146.4996, 1479.698
146.9817, 1485.714
147.4639, 1490.393
147.9460, 1494.573
148.4281, 1497.823
148.9102, 1500.732
149.3923, 1504.174
149.8744, 1508.579
150.3566, 1513.351
150.8387, 1517.145
151.3208, 1520.057
151.8029, 1522.286
152.2850, 1523.641
152.7671, 1524.305
153.2493, 1524.918
153.7314, 1525.982
154.2135, 1526.844
154.6956, 1526.487
155.1777, 1524.536
155.6598, 1522.217
156.1420, 1520.834
156.6241, 1520.482
157.1062, 1519.203
157.5883, 1515.305
158.0704, 1510.435
158.5525, 1506.044
159.0347, 1502.602
159.5168, 1499.397
159.9989, 1495.508
160.4810, 1491.250
160.9631, 1485.379
161.4452, 1477.092
161.9274, 1467.505
162.4095, 1457.406
162.8916, 1447.121
163.3737, 1436.791
163.8558, 1427.051
164.3379, 1419.083
164.8201, 1410.066
165.3022, 1398.946
165.7843, 1386.698
166.2664, 1374.579
166.7485, 1363.247
167.2306, 1352.705
167.7128, 1342.615
168.1949, 1333.755
168.6770, 1324.512
169.1591, 1314.271
169.6412, 1303.337
170.1233, 1292.291
170.6055, 1281.547
171.0876, 1271.031
171.5697, 1260.827
172.0518, 1250.987
172.5339, 1241.334
173.0160, 1231.807
173.4982, 1222.415
173.9803, 1213.133
174.4624, 1204.005
174.9445, 1195.065
175.4266, 1186.066
175.9087, 1176.417
176.3909, 1167.050
176.8730, 1158.947
177.3551, 1152.174
177.8372, 1145.710
178.3193, 1139.027
178.8014, 1132.024
179.2836, 1124.567
179.7657, 1115.999
180.2478, 1107.152
180.7299, 1099.255
181.2120, 1092.587
181.6941, 1086.276
182.1763, 1080.081
182.6584, 1073.807
183.1405, 1067.058
183.6226, 1058.884
184.1047, 1050.070
184.5868, 1043.389
185.0690, 1040.334
185.5511, 1037.287
186.0332, 1032.405
186.5153, 1026.305
186.9974, 1020.133
187.4795, 1014.646
187.9617, 1009.795
188.4438, 1005.050
188.9259, 1000.597
189.4080, 996.0438
189.8901, 991.2471
190.3722, 986.2584
190.8544, 981.2053
191.3365, 976.2496
191.8186, 971.4014
192.3007, 966.2726
192.7828, 959.9822
193.2649, 954.2151
193.7471, 949.9899
194.2292, 946.9388
194.7113, 943.9218
195.1934, 939.9308
195.6755, 934.8365
196.1576, 929.3939
196.6398, 922.5969
197.1219, 916.3783
197.6040, 912.2098
198.0861, 909.7913
198.5682, 907.3791
199.0503, 903.2071
199.5325, 896.8309
200.0146, 891.1302
200.4967, 886.7305
200.9788, 882.4643
201.4609, 877.3380
201.9430, 871.3127
202.4252, 865.3925
202.9073, 860.5977
203.3894, 857.0828
203.8715, 853.3536
204.3536, 849.3115
204.8357, 845.0603
205.3179, 840.6481
205.8000, 836.0587
206.2821, 831.4426
206.7642, 826.7198
207.2463, 821.9736
207.7284, 817.9335
208.2106, 814.9962
208.6927, 812.7618
209.1748, 810.8375
209.6569, 809.3077
210.1390, 807.6312
210.6211, 805.2936
211.1033, 802.4554
211.5854, 799.3941
212.0675, 795.6262
212.5496, 791.7523
213.0317, 789.3212
213.5138, 789.0547
213.9960, 788.8799
214.4781, 787.3514
214.9602, 784.9361
215.4423, 782.5426
215.9244, 780.4973
216.4065, 778.8286
216.8886, 777.7474
217.3708, 777.5744
217.8529, 777.5341
218.3350, 777.4397
218.8171, 777.1964
219.2992, 776.6080
219.7813, 775.4211
220.2635, 773.7587
220.7456, 772.4794
221.2277, 771.8370
221.7098, 771.3231
222.1919, 770.5576
222.6740, 769.8073
223.1562, 769.5799
223.6383, 770.3379
224.1204, 771.9736
224.6025, 773.1287
225.0846, 773.3320
225.5667, 773.4941
226.0489, 773.8393
226.5310, 774.2953
227.0131, 774.6834
227.4952, 774.8624
227.9773, 774.8553
228.4594, 775.0602
228.9416, 775.9785
229.4237, 776.5892
229.9058, 776.3704
230.3879, 775.6763
230.8700, 775.1596
231.3521, 775.2625
231.8343, 775.9492
232.3164, 776.6804
232.7985, 777.5146
233.2806, 778.3196
233.7627, 779.1823
234.2448, 779.9880
234.7270, 780.4871
235.2091, 780.4819
235.6912, 780.0485
236.1733, 779.9181
236.6554, 780.6630
237.1375, 781.0463
237.6197, 780.4814
238.1018, 779.2526
238.5839, 777.9659
239.0660, 776.9297
239.5481, 776.1589
240.0302, 775.7309
240.5124, 776.0878
240.9945, 776.2452
241.4766, 775.8256
241.9587, 774.9379
242.4408, 773.7898
242.9229, 772.3696
243.4051, 770.8820
243.8872, 770.0161
244.3693, 770.2911
244.8514, 770.3495
245.3335, 769.4319
245.8156, 767.8001
246.2978, 766.2708
246.7799, 765.2468
247.2620, 764.4823
247.7441, 763.4230
248.2262, 762.0139
248.7083, 760.4926
249.1905, 758.7713
249.6726, 756.9868
250.1547, 755.7288
250.6368, 755.5673
251.1189, 755.6021
251.6010, 754.2923
252.0832, 751.3304
252.5653, 748.5837
253.0474, 747.4101
253.5295, 747.4387
254.0116, 746.9197
254.4937, 745.1393
254.9759, 742.9060
255.4580, 741.1821
255.9401, 739.9730
256.4222, 738.8907
256.9043, 737.7595
257.3864, 736.5752
257.8686, 735.3187
258.3507, 733.9841
258.8328, 732.5670
259.3149, 730.9235
259.7970, 729.1105
260.2791, 727.6228
260.7613, 726.8759
261.2434, 726.7650
261.7255, 726.7342
262.2076, 726.8751
262.6897, 726.8717
263.1718, 726.6981
263.6540, 726.2805
264.1361, 725.3717
264.6182, 723.4037
265.1003, 720.6442
265.5824, 718.7773
266.0645, 718.6292
266.5467, 718.2701
267.0288, 716.2958
267.5109, 713.3891
267.9930, 711.0876
268.4751, 710.6484
268.9572, 711.5757
269.4394, 711.5165
269.9215, 709.7741
270.4036, 708.0529
270.8857, 707.1660
271.3678, 706.7130
271.8499, 706.0130
272.3321, 704.5743
272.8142, 702.7319
273.2963, 701.7179
273.7784, 702.0281
274.2605, 702.3875
274.7426, 702.5428
275.2248, 702.4881
275.7069, 702.1540
276.1890, 701.4645
276.6711, 700.6196
277.1532, 700.1839
277.6353, 700.4698
278.1175, 700.5833
278.5996, 700.1560
279.0817, 699.5989
279.5638, 699.2718
280.0459, 699.3078
280.5280, 699.6552
281.0102, 700.2067
281.4923, 700.9113
281.9744, 701.9738
282.4565, 703.7334
282.9386, 705.6013
283.4207, 707.0546
283.9029, 707.9852
284.3850, 708.7659
284.8671, 710.0539
285.3492, 712.3121
285.8313, 713.9065
286.3134, 713.9974
286.7956, 714.0856
287.2777, 715.2830
287.7598, 717.6025
288.2419, 720.0909
288.7240, 721.4739
289.2061, 721.1279
289.6883, 721.9598
290.1704, 724.9180
290.6525, 728.1019
291.1346, 730.7469
291.6167, 732.7999
292.0988, 734.5121
292.5810, 736.0508
293.0631, 737.3575
293.5452, 739.0785
294.0273, 741.9122
294.5094, 744.4704
294.9915, 746.1541
295.4737, 747.1796
295.9558, 748.0147
296.4379, 748.9145
296.9200, 749.9323
297.4021, 751.8671
297.8842, 755.9753
298.3664, 759.7130
298.8485, 762.6832
299.3306, 764.9321
299.8127, 766.4475
300.2948, 767.1788
300.7769, 767.3690
301.2591, 767.9989
301.7412, 769.5486
302.2233, 770.9955
302.7054, 771.9818
303.1875, 772.9147
303.6696, 774.2922
304.1518, 776.3077
304.6339, 778.7119
305.1160, 781.0247
305.5981, 783.4035
306.0802, 785.3784
306.5623, 786.8096
307.0445, 787.9456
307.5266, 788.8892
308.0087, 789.7051
308.4908, 790.5540
308.9729, 791.6451
309.4550, 792.9269
309.9372, 794.6409
310.4193, 797.3497
310.9014, 799.9860
311.3835, 801.7314
311.8656, 802.6517
312.3477, 803.4888
312.8299, 805.0403
313.3120, 807.5234
313.7941, 809.3399
314.2762, 809.6789
314.7583, 810.2438
315.2404, 811.9261
315.7226, 814.4363
316.2047, 816.9240
316.6868, 818.7327
317.1689, 819.9170
317.6510, 821.3725
318.1331, 823.0110
318.6153, 825.0215
319.0974, 827.8767
319.5795, 831.0394
320.0616, 833.7270
320.5437, 835.5273
321.0258, 836.6064
321.5080, 837.5106
321.9901, 837.4209
322.4722, 838.2341
322.9543, 840.8065
323.4364, 843.9503
323.9185, 846.5504
324.4007, 848.2072
324.8828, 849.2604
325.3649, 850.3167
325.8470, 851.8278
326.3291, 852.4124
326.8112, 850.9854
327.2934, 849.5663
327.7755, 849.7822
328.2576, 851.6804
328.7397, 853.9449
329.2218, 855.0737
329.7039, 854.7062
330.1861, 854.9734
330.6682, 856.4567
331.1503, 857.9321
331.6324, 859.0535
332.1145, 859.7367
332.5966, 859.9091
333.0788, 859.4724
333.5609, 858.4626
334.0430, 857.5203
334.5251, 856.7639
335.0072, 855.9344
335.4893, 854.7933
335.9715, 853.5930
336.4536, 852.7292
336.9357, 852.4162
337.4178, 852.4608
337.8999, 852.2889
338.3820, 851.6765
338.8642, 851.1697
339.3463, 850.6855
339.8284, 850.3807
340.3105, 850.5419
340.7926, 851.1942
341.2747, 851.9067
341.7568, 852.0226
342.2390, 851.3773
342.7211, 850.5112
343.2032, 849.0938
343.6853, 847.7617
344.1674, 846.9160
344.6495, 846.5283
345.1317, 846.2791
345.6138, 845.8350
346.0959, 845.1645
346.5780, 844.8502
347.0601, 845.3016
347.5422, 845.7362
348.0244, 845.7728
348.5065, 845.6620
348.9886, 845.9243
349.4707, 846.9365
349.9528, 848.4492
350.4349, 849.3942
350.9171, 849.2603
351.3992, 849.3557
351.8813, 849.8190
352.3634, 850.6516
352.8455, 851.9692
353.3276, 853.8053
353.8098, 855.8025
354.2919, 857.2798
354.7740, 857.9544
355.2561, 858.9757
355.7382, 860.7153
356.2203, 862.6381
356.7025, 864.2971
357.1846, 865.7410
357.6667, 867.4929
358.1488, 870.2158
358.6309, 873.9385
359.1130, 877.4282
359.5952, 880.8636
360.0773, 883.7986
360.5594, 885.5855
361.0415, 886.7716
361.5236, 888.4285
362.0057, 891.2070
362.4879, 894.8716
362.9700, 898.8524
363.4521, 903.3901
363.9342, 907.6605
364.4163, 911.0096
364.8984, 914.1323
365.3806, 917.7618
365.8627, 922.1575
366.3448, 926.9479
366.8269, 931.8229
367.3090, 936.8597
367.7911, 941.4073
368.2733, 944.7787
368.7554, 948.0418
369.2375, 951.9064
369.7196, 956.4196
370.2017, 961.3148
370.6838, 966.6436
371.1660, 972.2598
371.6481, 977.3680
372.1302, 981.7275
372.6123, 985.8961
373.0944, 990.1710
373.5765, 994.5431
374.0587, 999.0716
374.5408, 1003.864
375.0229, 1008.742
375.5050, 1013.343
375.9871, 1017.587
376.4692, 1022.096
376.9514, 1027.384
377.4335, 1032.988
377.9156, 1038.304
378.3977, 1043.335
378.8798, 1047.933
379.3619, 1051.634
379.8441, 1054.707
380.3262, 1058.362
380.8083, 1063.079
381.2904, 1068.279
381.7725, 1073.306
382.2546, 1078.146
382.7368, 1082.994
383.2189, 1088.341
383.7010, 1093.583
384.1831, 1097.507
384.6652, 1099.924
385.1473, 1102.598
385.6295, 1107.276
386.1116, 1113.577
386.5937, 1118.803
387.0758, 1122.727
387.5579, 1125.672
388.0400, 1127.432
388.5222, 1128.282
389.0043, 1129.109
389.4864, 1130.263
389.9685, 1131.734
390.4506, 1133.688
390.9327, 1136.930
391.4149, 1138.875
391.8970, 1138.203
392.3791, 1136.305
392.8612, 1134.701
393.3433, 1133.746
393.8254, 1133.193
394.3076, 1132.793
394.7897, 1132.573
395.2718, 1132.406
395.7539, 1131.835
396.2360, 1131.718
396.7181, 1133.071
397.2003, 1135.359
397.6824, 1136.971
398.1645, 1136.814
398.6466, 1135.304
399.1287, 1134.551
399.6108, 1135.008
400.0930, 1135.712
400.5751, 1136.603
401.0572, 1137.681
401.5393, 1138.989
402.0214, 1140.529
402.5035, 1142.211
402.9857, 1143.909
403.4678, 1145.640
403.9499, 1147.351
404.4320, 1148.937
404.9141, 1150.616
405.3962, 1152.556
405.8784, 1154.695
406.3605, 1156.851
406.8426, 1158.888
407.3247, 1160.815
407.8068, 1162.583
408.2889, 1163.798
408.7711, 1165.431
409.2532, 1167.359
409.7353, 1169.903
410.2174, 1173.651
410.6995, 1178.800
411.1816, 1184.402
411.6638, 1189.201
412.1459, 1193.131
412.6280, 1196.487
413.1101, 1198.619
413.5922, 1200.734
414.0743, 1203.551
414.5565, 1206.970
415.0386, 1210.425
415.5207, 1213.331
416.0028, 1215.950
416.4849, 1219.199
416.9670, 1223.092
417.4492, 1227.604
417.9313, 1233.608
418.4134, 1239.953
418.8955, 1245.020
419.3776, 1248.098
419.8597, 1250.608
420.3419, 1253.474
420.8240, 1256.790
421.3061, 1261.746
421.7882, 1269.785
422.2703, 1278.054
422.7524, 1282.835
423.2346, 1284.305
423.7167, 1285.569
424.1988, 1287.263
424.6809, 1289.603
425.1630, 1293.147
425.6451, 1297.942
426.1273, 1302.939
426.6094, 1307.436
427.0915, 1311.464
427.5736, 1315.396
428.0557, 1319.030
428.5378, 1322.779
429.0200, 1327.146
429.5021, 1331.721
429.9842, 1335.631
430.4663, 1338.565
430.9484, 1340.796
431.4305, 1342.699
431.9127, 1343.987
432.3948, 1345.690
432.8769, 1348.480
433.3590, 1351.169
433.8411, 1352.746
434.3232, 1353.324
434.8054, 1353.821
435.2875, 1354.985
435.7696, 1356.692
436.2517, 1357.657
436.7338, 1357.962
437.2159, 1357.359
437.6981, 1355.078
438.1802, 1352.183
438.6623, 1349.964
439.1444, 1348.807
439.6265, 1347.887
440.1086, 1345.986
440.5908, 1342.947
441.0729, 1339.448
441.5550, 1335.251
442.0371, 1330.788
442.5192, 1326.103
443.0013, 1321.307
443.4835, 1316.709
443.9656, 1312.764
444.4477, 1308.950
444.9298, 1303.526
445.4119, 1295.749
445.8940, 1288.206
446.3762, 1281.717
446.8583, 1275.826
447.3404, 1270.479
447.8225, 1265.690
448.3046, 1260.667
448.7867, 1254.537
449.2689, 1247.531
449.7510, 1240.926
450.2331, 1235.161
450.7152, 1229.283
451.1973, 1222.563
451.6794, 1215.152
452.1616, 1207.229
452.6437, 1198.117
453.1258, 1189.094
453.6079, 1181.539
454.0900, 1175.276
454.5721, 1169.354
455.0543, 1163.523
455.5364, 1157.607
456.0185, 1151.103
456.5006, 1143.842
456.9827, 1136.884
457.4648, 1130.783
457.9470, 1124.934
458.4291, 1118.495
458.9112, 1111.454
459.3933, 1104.597
459.8754, 1098.619
460.3575, 1093.477
460.8397, 1087.956
461.3218, 1081.575
461.8039, 1075.446
462.2860, 1069.779
462.7681, 1064.560
463.2502, 1059.947
463.7324, 1055.953
464.2145, 1052.131
464.6966, 1047.758
465.1787, 1042.716
465.6608, 1037.539
466.1429, 1031.395
466.6251, 1025.913
467.1072, 1022.177
467.5893, 1019.675
468.0714, 1017.158
468.5535, 1013.835
469.0356, 1009.995
469.5178, 1006.510
469.9999, 1003.540
470.4820, 1000.451
470.9641, 996.7618
471.4462, 993.0725
471.9283, 989.9310
472.4105, 987.3772
472.8926, 984.8686
473.3747, 981.9125
473.8568, 978.6529
474.3389, 975.6746
474.8210, 973.0571
475.3032, 970.6110
475.7853, 968.3795
476.2674, 966.2076
476.7495, 963.7120
477.2316, 960.2511
477.7137, 957.3749
478.1959, 956.8044
478.6780, 957.7244
479.1601, 957.6605
479.6422, 955.7603
480.1243, 953.1359
480.6064, 951.2115
481.0886, 950.0967
481.5707, 948.9290
482.0528, 947.3505
482.5349, 945.9771
483.0170, 945.4570
483.4991, 945.5235
483.9813, 945.3041
484.4634, 944.2756
484.9455, 942.7762
485.4276, 941.8210
485.9097, 942.1056
486.3918, 941.9313
486.8740, 940.6715
487.3561, 939.4177
487.8382, 938.9467
488.3203, 939.3145
488.8024, 940.1561
489.2845, 941.2112
489.7667, 942.4733
490.2488, 943.8020
490.7309, 944.9380
491.2130, 946.6166
491.6951, 949.7791
492.1772, 953.1273
492.6594, 955.1214
493.1415, 955.3699
493.6236, 955.2344
494.1057, 956.1850
494.5878, 958.0622
495.0699, 959.4164
495.5521, 959.8556
496.0342, 960.2162
496.5163, 960.8331
496.9984, 961.8221
497.4805, 963.6063
497.9626, 966.8206
498.4448, 970.2416
498.9269, 972.7579
499.4090, 974.5989
499.8911, 976.6349
500.3732, 979.2002
500.8553, 981.9111
501.3375, 984.1352
501.8196, 985.6688
502.3017, 987.8344
502.7838, 991.3069
503.2659, 994.9300
503.7480, 997.8993
504.2302, 1000.345
504.7123, 1002.829
505.1944, 1005.666
505.6765, 1008.793
506.1586, 1012.036
506.6407, 1015.518
507.1228, 1018.952
507.6049, 1022.292
508.0871, 1025.637
508.5692, 1028.923
509.0513, 1032.250
509.5334, 1035.964
510.0155, 1040.486
510.4977, 1045.566
510.9798, 1049.774
511.4619, 1052.794
511.9440, 1055.675
512.4261, 1058.305
512.9083, 1061.215
513.3904, 1065.137
513.8725, 1070.199
514.3546, 1075.144
514.8367, 1078.515
515.3188, 1081.085
515.8010, 1085.510
516.2831, 1092.479
516.7652, 1099.071
517.2473, 1103.143
517.7294, 1105.259
518.2115, 1107.490
518.6937, 1109.569
519.1758, 1112.240
519.6579, 1116.214
520.1400, 1120.885
520.6221, 1125.266
521.1042, 1129.140
521.5864, 1132.853
522.0685, 1136.836
522.5506, 1141.174
523.0327, 1144.905
523.5148, 1147.585
523.9969, 1150.307
524.4791, 1153.818
524.9612, 1157.432
525.4433, 1159.995
525.9254, 1161.130
526.4075, 1161.817
526.8896, 1163.768
527.3718, 1167.506
527.8539, 1169.712
528.3360, 1168.868
528.8181, 1168.059
529.3002, 1168.709
529.7823, 1170.280
530.2645, 1171.786
530.7466, 1172.958
531.2287, 1173.609
531.7108, 1173.292
532.1929, 1172.070
532.6750, 1171.013
533.1572, 1170.613
533.6393, 1170.046
534.1214, 1168.143
534.6035, 1165.145
535.0856, 1162.438
535.5677, 1160.769
536.0499, 1159.091
536.5320, 1156.617
537.0141, 1153.469
537.4962, 1149.990
537.9783, 1146.328
538.4604, 1142.516
538.9426, 1138.677
539.4247, 1134.938
539.9068, 1130.699
540.3889, 1125.337
540.8710, 1120.121
541.3531, 1115.873
541.8353, 1112.277
542.3174, 1108.521
542.7995, 1104.173
543.2816, 1099.348
543.7637, 1094.155
544.2458, 1088.221
544.7280, 1083.072
545.2101, 1079.934
545.6922, 1076.762
546.1743, 1072.631
546.6564, 1067.512
547.1385, 1061.623
547.6207, 1054.696
548.1028, 1047.356
548.5849, 1040.567
549.0670, 1034.306
549.5491, 1028.093
550.0313, 1021.574
550.5134, 1015.338
550.9955, 1010.735
551.4776, 1007.894
551.9597, 1004.112
552.4418, 997.7429
552.9240, 991.2244
553.4061, 986.7605
553.8882, 983.8668
554.3703, 980.8206
554.8524, 976.7729
555.3345, 971.7599
555.8167, 965.7593
556.2988, 957.8482
556.7809, 950.7548
557.2630, 944.7907
557.7451, 939.1910
558.2272, 933.5494
558.7094, 927.8733
559.1915, 922.3235
559.6736, 916.9363
560.1557, 911.7977
560.6378, 907.2952
561.1199, 903.6511
561.6021, 899.3116
562.0842, 893.7552
562.5663, 887.5972
563.0484, 881.1500
563.5305, 874.5332
564.0126, 868.2822
564.4948, 862.5765
564.9769, 857.3444
565.4590, 852.9198
565.9411, 849.0554
566.4232, 844.4830
566.9053, 838.5862
567.3875, 832.2514
567.8696, 826.7475
568.3517, 822.2113
568.8338, 818.3248
569.3159, 816.0050
569.7980, 813.4649
570.2802, 809.4625
570.7623, 804.5684
571.2444, 799.9951
571.7265, 796.3243
572.2086, 793.0269
572.6907, 789.1119
573.1729, 784.2728
573.6550, 779.9081
574.1371, 776.3596
574.6192, 773.0195
575.1013, 769.5172
575.5834, 766.0112
576.0656, 762.9183
576.5477, 760.5511
577.0298, 758.2734
577.5119, 755.3727
577.9940, 751.9424
578.4761, 748.3479
578.9583, 744.5809
579.4404, 740.9891
579.9225, 737.9959
580.4046, 735.5826
580.8867, 733.0947
581.3688, 730.5527
581.8510, 727.9091
582.3331, 725.0680
582.8152, 722.1389
583.2973, 719.1875
583.7794, 716.2719
584.2615, 713.4885
584.7437, 710.9750
585.2258, 708.7404
585.7079, 706.6027
586.1900, 704.2328
586.6721, 702.3819
587.1542, 702.2399
