##NAMES=Wohlerite
##RRUFFID=R050275
##IDEAL CHEMISTRY=NaCa_2_(Zr^4+^,Nb^5+^)(Si_2_O_7_)(O,F)_2_
##LOCALITY= Langesundsfjord, Norway
##OWNER=RRUFF
##SOURCE=Marcus Origlieri
##DESCRIPTION=Yellowish brown granular
##STATUS=The identification of this mineral has been confirmed by X-ray diffraction.
##URL=rruff.info/R050275
98.94037, 2008.344
99.42249, 2002.836
99.90460, 1993.462
100.3867, 1985.506
100.8688, 1980.501
101.3510, 1976.749
101.8331, 1973.084
102.3152, 1971.304
102.7973, 1973.043
103.2794, 1978.270
103.7615, 1984.540
104.2437, 1990.904
104.7258, 1997.454
105.2079, 2004.133
105.6900, 2010.635
106.1721, 2017.547
106.6542, 2026.100
107.1364, 2035.939
107.6185, 2046.932
108.1006, 2058.724
108.5827, 2071.462
109.0648, 2085.393
109.5469, 2100.786
110.0291, 2117.552
110.5112, 2133.895
110.9933, 2148.414
111.4754, 2163.763
111.9575, 2180.336
112.4396, 2198.278
112.9218, 2218.016
113.4039, 2240.216
113.8860, 2265.723
114.3681, 2289.521
114.8502, 2309.848
115.3323, 2329.773
115.8144, 2351.289
116.2966, 2374.845
116.7787, 2400.026
117.2608, 2427.095
117.7429, 2456.144
118.2250, 2484.146
118.7071, 2509.099
119.1893, 2532.535
119.6714, 2558.213
120.1535, 2587.483
120.6356, 2618.560
121.1177, 2649.022
121.5998, 2678.759
122.0820, 2708.952
122.5641, 2740.337
123.0462, 2772.932
123.5283, 2806.095
124.0104, 2840.291
124.4925, 2874.635
124.9747, 2908.390
125.4568, 2941.397
125.9389, 2974.390
126.4210, 3008.526
126.9031, 3043.631
127.3852, 3079.989
127.8674, 3118.198
128.3495, 3157.160
128.8316, 3196.322
129.3137, 3235.208
129.7958, 3274.047
130.2780, 3312.928
130.7601, 3351.717
131.2422, 3391.038
131.7243, 3430.631
132.2064, 3470.688
132.6885, 3511.964
133.1707, 3554.833
133.6528, 3599.206
134.1349, 3642.388
134.6170, 3683.815
135.0991, 3724.906
135.5812, 3766.304
136.0633, 3807.899
136.5455, 3849.435
137.0276, 3890.297
137.5097, 3930.755
137.9918, 3972.077
138.4739, 4015.585
138.9560, 4059.222
139.4382, 4100.384
139.9203, 4138.505
140.4024, 4175.370
140.8845, 4211.998
141.3666, 4248.192
141.8487, 4284.232
142.3309, 4320.117
142.8130, 4355.643
143.2951, 4390.592
143.7772, 4425.229
144.2593, 4458.386
144.7414, 4490.338
145.2236, 4520.820
145.7057, 4549.511
146.1878, 4575.641
146.6699, 4598.970
147.1520, 4623.037
147.6341, 4650.121
148.1163, 4676.137
148.5984, 4699.678
149.0805, 4720.641
149.5626, 4739.818
150.0447, 4757.803
150.5268, 4774.094
151.0090, 4790.898
151.4911, 4810.281
151.9732, 4828.501
152.4553, 4843.479
152.9374, 4854.653
153.4195, 4862.641
153.9017, 4867.931
154.3838, 4867.667
154.8659, 4870.253
155.3480, 4879.328
155.8301, 4889.696
156.3122, 4896.237
156.7944, 4897.342
157.2765, 4894.105
157.7586, 4887.542
158.2407, 4877.363
158.7228, 4866.359
159.2049, 4855.507
159.6871, 4844.417
160.1692, 4832.267
160.6513, 4818.955
161.1334, 4804.104
161.6155, 4788.026
162.0976, 4771.144
162.5798, 4751.552
163.0619, 4727.375
163.5440, 4698.876
164.0261, 4669.493
164.5082, 4641.140
164.9903, 4611.666
165.4725, 4578.497
165.9546, 4541.193
166.4367, 4502.617
166.9188, 4467.122
167.4009, 4435.758
167.8830, 4402.549
168.3652, 4364.614
168.8473, 4325.094
169.3294, 4285.772
169.8115, 4247.170
170.2936, 4209.011
170.7757, 4170.345
171.2579, 4129.662
171.7400, 4091.591
172.2221, 4057.978
172.7042, 4026.068
173.1863, 3993.508
173.6684, 3959.249
174.1506, 3923.458
174.6327, 3886.703
175.1148, 3846.438
175.5969, 3807.854
176.0790, 3771.510
176.5611, 3737.061
177.0433, 3704.026
177.5254, 3672.272
178.0075, 3641.466
178.4896, 3609.929
178.9717, 3576.724
179.4538, 3544.024
179.9360, 3512.506
180.4181, 3481.952
180.9002, 3452.060
181.3823, 3422.957
181.8644, 3394.338
182.3465, 3365.216
182.8287, 3334.770
183.3108, 3304.771
183.7929, 3276.067
184.2750, 3248.593
184.7571, 3221.618
185.2392, 3194.354
185.7214, 3167.603
186.2035, 3143.021
186.6856, 3122.363
187.1677, 3102.242
187.6498, 3079.576
188.1319, 3054.191
188.6141, 3029.044
189.0962, 3005.466
189.5783, 2983.192
190.0604, 2961.802
190.5425, 2941.462
191.0246, 2921.716
191.5068, 2901.850
191.9889, 2881.873
192.4710, 2861.726
192.9531, 2841.481
193.4352, 2821.141
193.9173, 2800.532
194.3995, 2779.456
194.8816, 2758.295
195.3637, 2737.594
195.8458, 2717.294
196.3279, 2697.827
196.8100, 2679.557
197.2922, 2661.885
197.7743, 2644.113
198.2564, 2625.753
198.7385, 2607.229
199.2206, 2590.235
199.7027, 2576.099
200.1849, 2561.856
200.6670, 2546.511
201.1491, 2530.907
201.6312, 2516.199
202.1133, 2503.158
202.5954, 2491.551
203.0776, 2479.962
203.5597, 2469.028
204.0418, 2457.503
204.5239, 2444.871
205.0060, 2431.550
205.4881, 2418.302
205.9703, 2405.553
206.4524, 2393.295
206.9345, 2381.950
207.4166, 2371.680
207.8987, 2362.020
208.3808, 2353.015
208.8630, 2344.605
209.3451, 2336.821
209.8272, 2329.834
210.3093, 2323.428
210.7914, 2315.811
211.2735, 2305.252
211.7557, 2295.491
212.2378, 2288.487
212.7199, 2283.633
213.2020, 2278.730
213.6841, 2272.198
214.1662, 2264.692
214.6484, 2259.089
215.1305, 2257.261
215.6126, 2255.330
216.0947, 2250.593
216.5768, 2243.492
217.0589, 2236.948
217.5410, 2232.716
218.0232, 2230.196
218.5053, 2227.398
218.9874, 2223.886
219.4695, 2220.579
219.9516, 2218.347
220.4337, 2217.180
220.9159, 2216.098
221.3980, 2214.714
221.8801, 2213.104
222.3622, 2211.299
222.8443, 2209.029
223.3264, 2207.062
223.8086, 2206.507
224.2907, 2207.538
224.7728, 2208.215
225.2549, 2207.134
225.7370, 2205.569
226.2191, 2204.734
226.7013, 2205.029
227.1834, 2205.618
227.6655, 2205.294
228.1476, 2203.740
228.6297, 2202.593
229.1118, 2202.708
229.5940, 2203.222
230.0761, 2203.580
230.5582, 2203.627
231.0403, 2203.453
231.5224, 2203.177
232.0045, 2202.794
232.4867, 2202.335
232.9688, 2201.700
233.4509, 2201.069
233.9330, 2200.696
234.4151, 2200.635
234.8972, 2200.517
235.3794, 2199.572
235.8615, 2197.016
236.3436, 2195.501
236.8257, 2196.515
237.3078, 2197.698
237.7899, 2197.121
238.2721, 2194.384
238.7542, 2190.782
239.2363, 2188.572
239.7184, 2189.048
240.2005, 2188.307
240.6826, 2184.981
241.1648, 2181.457
241.6469, 2179.555
242.1290, 2179.639
242.6111, 2180.736
243.0932, 2181.474
243.5753, 2182.106
244.0575, 2181.705
244.5396, 2179.102
245.0217, 2176.388
245.5038, 2175.265
245.9859, 2175.951
246.4680, 2177.279
246.9502, 2177.720
247.4323, 2177.079
247.9144, 2175.790
248.3965, 2173.070
248.8786, 2170.283
249.3607, 2168.713
249.8429, 2168.423
250.3250, 2168.145
250.8071, 2166.254
251.2892, 2161.968
251.7713, 2158.919
252.2534, 2157.833
252.7356, 2157.414
253.2177, 2156.743
253.6998, 2155.719
254.1819, 2154.834
254.6640, 2154.810
255.1461, 2155.919
255.6283, 2155.375
256.1104, 2152.078
256.5925, 2147.990
257.0746, 2143.970
257.5567, 2140.254
258.0388, 2137.824
258.5210, 2138.026
259.0031, 2140.904
259.4852, 2141.922
259.9673, 2139.451
260.4494, 2136.354
260.9315, 2134.394
261.4137, 2133.693
261.8958, 2134.262
262.3779, 2136.562
262.8600, 2140.280
263.3421, 2143.119
263.8242, 2144.971
264.3064, 2145.962
264.7885, 2145.683
265.2706, 2144.270
265.7527, 2143.172
266.2348, 2143.193
266.7169, 2144.243
267.1991, 2145.720
267.6812, 2147.627
268.1633, 2149.923
268.6454, 2152.737
269.1275, 2156.015
269.6096, 2159.321
270.0918, 2162.635
270.5739, 2165.714
271.0560, 2168.149
271.5381, 2169.648
272.0202, 2171.200
272.5023, 2173.284
272.9845, 2175.944
273.4666, 2179.579
273.9487, 2184.986
274.4308, 2190.916
274.9129, 2195.892
275.3951, 2199.857
275.8772, 2203.012
276.3593, 2204.900
276.8414, 2205.811
277.3235, 2207.648
277.8056, 2211.104
278.2878, 2215.434
278.7699, 2220.002
279.2520, 2224.817
279.7341, 2229.179
280.2162, 2232.120
280.6983, 2234.056
281.1805, 2237.013
281.6626, 2241.418
282.1447, 2246.758
282.6268, 2253.046
283.1089, 2259.960
283.5910, 2266.144
284.0732, 2270.742
284.5553, 2273.969
285.0374, 2276.464
285.5195, 2277.580
286.0016, 2279.124
286.4837, 2282.458
286.9659, 2286.959
287.4480, 2291.328
287.9301, 2294.751
288.4122, 2297.641
288.8943, 2301.173
289.3764, 2305.726
289.8586, 2310.120
290.3407, 2313.039
290.8228, 2315.672
291.3049, 2319.955
291.7870, 2327.302
292.2691, 2335.818
292.7513, 2341.728
293.2334, 2343.960
293.7155, 2346.500
294.1976, 2351.032
294.6797, 2356.435
295.1618, 2361.844
295.6440, 2366.987
296.1261, 2371.942
296.6082, 2376.686
297.0903, 2381.067
297.5724, 2385.914
298.0545, 2391.685
298.5367, 2397.920
299.0188, 2404.499
299.5009, 2411.395
299.9830, 2418.260
300.4651, 2424.577
300.9472, 2430.242
301.4294, 2436.455
301.9115, 2444.389
302.3936, 2452.143
302.8757, 2458.533
303.3578, 2463.644
303.8399, 2468.511
304.3221, 2473.738
304.8042, 2479.300
305.2863, 2486.236
305.7684, 2495.907
306.2505, 2505.664
306.7326, 2514.127
307.2148, 2521.635
307.6969, 2529.229
308.1790, 2537.840
308.6611, 2547.185
309.1432, 2555.475
309.6253, 2561.773
310.1075, 2568.325
310.5896, 2576.657
311.0717, 2585.578
311.5538, 2593.216
312.0359, 2598.327
312.5180, 2601.883
313.0002, 2606.462
313.4823, 2612.065
313.9644, 2618.780
314.4465, 2627.289
314.9286, 2636.489
315.4107, 2645.465
315.8929, 2653.968
316.3750, 2661.869
316.8571, 2669.033
317.3392, 2675.594
317.8213, 2681.094
318.3034, 2683.404
318.7856, 2686.015
319.2677, 2691.690
319.7498, 2700.748
320.2319, 2710.745
320.7140, 2719.210
321.1961, 2726.064
321.6783, 2732.007
322.1604, 2735.474
322.6425, 2739.437
323.1246, 2746.195
323.6067, 2755.027
324.0888, 2763.013
324.5710, 2767.394
325.0531, 2768.415
325.5352, 2770.145
326.0173, 2772.446
326.4994, 2775.780
326.9815, 2780.559
327.4637, 2786.360
327.9458, 2792.532
328.4279, 2798.993
328.9100, 2805.375
329.3921, 2810.467
329.8742, 2813.743
330.3564, 2816.763
330.8385, 2819.937
331.3206, 2823.210
331.8027, 2826.685
332.2848, 2830.485
332.7669, 2834.034
333.2491, 2836.199
333.7312, 2836.546
334.2133, 2837.253
334.6954, 2839.039
335.1775, 2841.238
335.6596, 2843.149
336.1418, 2844.746
336.6239, 2847.128
337.1060, 2852.384
337.5881, 2860.660
338.0702, 2866.133
338.5523, 2865.816
339.0345, 2864.860
339.5165, 2865.393
339.9987, 2867.657
340.4808, 2871.946
340.9629, 2880.040
341.4450, 2890.769
341.9271, 2897.509
342.4092, 2898.159
342.8914, 2898.381
343.3735, 2901.184
343.8556, 2905.397
344.3377, 2909.063
344.8198, 2910.875
345.3019, 2912.328
345.7841, 2916.312
346.2662, 2923.349
346.7483, 2930.796
347.2304, 2937.625
347.7125, 2944.339
348.1946, 2951.474
348.6768, 2959.187
349.1589, 2967.032
349.6410, 2974.675
350.1231, 2982.090
350.6052, 2989.105
351.0873, 2994.817
351.5695, 3001.011
352.0516, 3009.604
352.5337, 3020.390
353.0158, 3030.805
353.4979, 3038.279
353.9800, 3043.967
354.4622, 3051.979
354.9443, 3063.317
355.4264, 3075.722
355.9085, 3088.199
356.3906, 3100.536
356.8727, 3112.189
357.3549, 3121.996
357.8370, 3131.568
358.3191, 3143.646
358.8012, 3158.546
359.2833, 3173.195
359.7654, 3185.467
360.2476, 3196.690
360.7297, 3208.821
361.2118, 3222.208
361.6939, 3236.123
362.1760, 3249.871
362.6581, 3263.581
363.1403, 3278.041
363.6224, 3294.246
364.1045, 3310.271
364.5866, 3323.569
365.0687, 3334.034
365.5508, 3344.155
366.0330, 3353.010
366.5151, 3362.574
366.9972, 3377.285
367.4793, 3398.453
367.9614, 3420.952
368.4435, 3440.118
368.9257, 3456.476
369.4078, 3473.381
369.8899, 3492.161
370.3720, 3510.929
370.8541, 3528.220
371.3362, 3544.112
371.8184, 3558.621
372.3005, 3571.271
372.7826, 3582.944
373.2647, 3596.494
373.7468, 3613.404
374.2289, 3629.889
374.7111, 3644.065
375.1932, 3656.870
375.6753, 3670.241
376.1574, 3684.747
376.6395, 3700.000
377.1216, 3715.341
377.6038, 3730.543
378.0859, 3746.584
378.5680, 3765.050
379.0501, 3783.458
379.5322, 3798.449
380.0143, 3810.103
380.4965, 3822.563
380.9786, 3839.830
381.4607, 3862.140
381.9428, 3881.668
382.4249, 3897.638
382.9070, 3912.115
383.3892, 3925.229
383.8713, 3937.529
384.3534, 3949.817
384.8355, 3962.469
385.3176, 3975.384
385.7997, 3988.183
386.2819, 4001.049
386.7640, 4013.545
387.2461, 4024.926
387.7282, 4036.259
388.2103, 4049.096
388.6924, 4063.532
389.1746, 4077.857
389.6567, 4090.082
390.1388, 4100.100
390.6209, 4108.211
391.1030, 4112.190
391.5851, 4116.650
392.0673, 4123.733
392.5494, 4133.014
393.0315, 4143.182
393.5136, 4153.479
393.9957, 4163.736
394.4778, 4172.855
394.9600, 4180.053
395.4421, 4187.147
395.9242, 4194.248
396.4063, 4201.457
396.8884, 4208.928
397.3705, 4216.705
397.8527, 4224.710
398.3348, 4232.933
398.8169, 4241.733
399.2990, 4249.642
399.7811, 4255.212
400.2632, 4261.100
400.7454, 4268.822
401.2275, 4278.100
401.7096, 4287.626
402.1917, 4296.254
402.6738, 4304.217
403.1559, 4313.207
403.6381, 4324.217
404.1202, 4334.422
404.6023, 4340.316
405.0844, 4345.700
405.5665, 4356.093
406.0486, 4374.297
406.5308, 4394.685
407.0129, 4409.516
407.4950, 4418.355
407.9771, 4427.897
408.4592, 4439.778
408.9413, 4453.204
409.4235, 4467.541
409.9056, 4482.781
410.3877, 4498.303
410.8698, 4513.473
411.3519, 4528.797
411.8340, 4546.180
412.3162, 4566.553
412.7983, 4586.466
413.2804, 4602.298
413.7625, 4615.938
414.2446, 4631.421
414.7267, 4649.616
415.2089, 4669.688
415.6910, 4692.027
416.1731, 4716.039
416.6552, 4738.266
417.1373, 4756.702
417.6194, 4773.536
418.1016, 4792.925
418.5837, 4815.101
419.0658, 4837.686
419.5479, 4859.962
420.0300, 4882.363
420.5121, 4905.608
420.9943, 4929.792
421.4764, 4953.608
421.9585, 4975.788
422.4406, 4996.173
422.9227, 5017.027
423.4048, 5039.717
423.8870, 5061.323
424.3691, 5079.428
424.8512, 5095.423
425.3333, 5112.160
425.8154, 5130.967
426.2975, 5151.177
426.7797, 5171.640
427.2618, 5193.458
427.7439, 5213.561
428.2260, 5233.288
428.7081, 5250.404
429.1902, 5261.541
429.6724, 5267.600
430.1545, 5274.330
430.6366, 5287.879
431.1187, 5308.477
431.6008, 5323.802
432.0829, 5330.445
432.5651, 5335.123
433.0472, 5338.813
433.5293, 5341.513
434.0114, 5343.399
434.4935, 5344.578
434.9756, 5344.079
435.4578, 5339.444
435.9399, 5329.026
436.4220, 5319.856
436.9041, 5316.118
437.3862, 5311.167
437.8683, 5301.005
438.3505, 5285.871
438.8326, 5268.696
439.3147, 5251.365
439.7968, 5233.761
440.2789, 5215.167
440.7610, 5195.530
441.2432, 5175.058
441.7253, 5154.205
442.2074, 5132.580
442.6895, 5109.680
443.1716, 5085.698
443.6537, 5059.644
444.1359, 5029.987
444.6180, 4997.168
445.1001, 4962.950
445.5822, 4927.030
446.0643, 4891.047
446.5464, 4857.489
447.0286, 4826.127
447.5107, 4793.943
447.9928, 4761.891
448.4749, 4727.509
448.9570, 4686.241
449.4391, 4638.521
449.9213, 4592.291
450.4034, 4552.479
450.8855, 4517.579
451.3676, 4482.293
451.8497, 4445.889
452.3318, 4410.280
452.8140, 4377.078
453.2961, 4344.317
453.7782, 4309.268
454.2603, 4271.305
454.7424, 4232.850
455.2245, 4196.412
455.7067, 4162.230
456.1888, 4128.826
456.6709, 4095.533
457.1530, 4063.522
457.6351, 4033.959
458.1172, 4005.850
458.5994, 3976.831
459.0815, 3945.565
459.5636, 3913.517
460.0457, 3884.531
460.5278, 3860.901
461.0099, 3835.772
461.4921, 3806.557
461.9742, 3777.277
462.4563, 3750.913
462.9384, 3727.249
463.4205, 3703.660
463.9026, 3678.055
464.3848, 3650.638
464.8669, 3623.508
465.3490, 3595.727
465.8311, 3570.157
466.3132, 3548.634
466.7953, 3529.412
467.2775, 3510.572
467.7596, 3491.673
468.2417, 3473.218
468.7238, 3456.277
469.2059, 3440.449
469.6880, 3423.863
470.1702, 3406.121
470.6523, 3387.591
471.1344, 3367.910
471.6165, 3347.486
472.0986, 3328.739
472.5807, 3312.934
473.0629, 3298.473
473.5450, 3284.359
474.0271, 3270.446
474.5092, 3255.746
474.9913, 3239.636
475.4734, 3222.825
475.9556, 3207.083
476.4377, 3192.535
476.9198, 3178.502
477.4019, 3165.190
477.8840, 3152.215
478.3661, 3139.078
478.8483, 3125.805
479.3304, 3113.235
479.8125, 3101.949
480.2946, 3091.948
480.7767, 3082.134
481.2589, 3072.190
481.7410, 3062.846
482.2231, 3054.573
482.7052, 3046.768
483.1873, 3038.908
483.6694, 3030.749
484.1516, 3022.164
484.6337, 3012.668
485.1158, 3001.828
485.5979, 2992.406
486.0800, 2984.850
486.5621, 2978.377
487.0443, 2974.217
487.5264, 2970.664
488.0085, 2964.193
488.4906, 2952.194
488.9727, 2939.146
489.4548, 2933.077
489.9370, 2934.578
490.4191, 2934.229
490.9012, 2928.599
491.3833, 2921.203
491.8654, 2915.427
492.3475, 2911.217
492.8297, 2907.331
493.3118, 2902.967
493.7939, 2898.843
494.2760, 2895.899
494.7581, 2894.149
495.2402, 2893.260
495.7224, 2893.251
496.2045, 2893.829
496.6866, 2894.123
497.1687, 2894.110
497.6508, 2893.927
498.1329, 2893.525
498.6151, 2893.008
499.0972, 2892.414
499.5793, 2891.783
500.0614, 2891.317
500.5435, 2891.266
501.0256, 2891.612
501.5078, 2891.417
501.9899, 2889.371
502.4720, 2888.335
502.9541, 2888.467
503.4362, 2890.075
503.9183, 2894.474
504.4004, 2901.716
504.8825, 2908.667
505.3647, 2910.229
505.8468, 2905.228
506.3289, 2904.061
506.8110, 2909.231
507.2931, 2915.512
507.7752, 2920.519
508.2574, 2925.070
508.7395, 2930.819
509.2216, 2938.913
509.7037, 2947.222
510.1858, 2953.005
510.6679, 2956.368
511.1501, 2959.074
511.6322, 2960.782
512.1143, 2963.105
512.5964, 2968.275
513.0786, 2975.867
513.5607, 2983.078
514.0428, 2988.378
514.5249, 2993.560
515.0070, 3000.226
515.4891, 3008.224
515.9713, 3016.819
516.4534, 3025.966
516.9355, 3034.802
517.4176, 3041.291
517.8997, 3044.015
518.3818, 3047.140
518.8640, 3049.901
519.3461, 3053.808
519.8282, 3060.731
520.3103, 3069.965
520.7924, 3079.015
521.2745, 3086.151
521.7567, 3091.786
522.2388, 3097.332
522.7209, 3102.038
523.2030, 3108.133
523.6851, 3118.089
524.1672, 3127.767
524.6494, 3133.527
525.1315, 3135.500
525.6136, 3137.128
526.0957, 3141.071
526.5778, 3146.828
527.0599, 3153.154
527.5421, 3160.686
528.0242, 3166.423
528.5063, 3167.702
528.9884, 3167.019
529.4705, 3167.729
529.9526, 3170.325
530.4348, 3173.159
530.9169, 3175.806
531.3990, 3177.977
531.8811, 3178.977
532.3632, 3178.726
532.8453, 3178.169
533.3275, 3178.014
533.8096, 3178.179
534.2917, 3178.062
534.7738, 3178.481
535.2559, 3177.636
535.7380, 3174.856
536.2202, 3170.739
536.7023, 3165.108
537.1844, 3158.405
537.6665, 3152.859
538.1486, 3151.505
538.6307, 3154.423
539.1129, 3152.981
539.5950, 3143.669
540.0771, 3134.416
540.5592, 3127.148
541.0413, 3120.963
541.5234, 3114.822
542.0056, 3108.462
542.4877, 3102.258
542.9698, 3097.498
543.4519, 3093.665
543.9340, 3086.436
544.4161, 3074.157
544.8983, 3061.733
545.3804, 3052.289
545.8625, 3044.917
546.3446, 3038.284
546.8267, 3033.452
547.3088, 3027.102
547.7910, 3015.867
548.2731, 3002.040
548.7552, 2990.024
549.2373, 2980.849
549.7194, 2972.854
550.2015, 2964.815
550.6837, 2956.826
551.1658, 2946.361
551.6479, 2931.394
552.1300, 2916.901
552.6121, 2903.526
553.0942, 2891.595
553.5764, 2882.044
554.0585, 2874.819
554.5406, 2867.694
555.0227, 2857.965
555.5048, 2845.443
555.9869, 2832.508
556.4691, 2818.600
556.9512, 2805.040
557.4333, 2791.716
557.9154, 2779.128
558.3975, 2768.668
558.8796, 2761.129
559.3618, 2752.667
559.8439, 2738.718
560.3260, 2720.846
560.8081, 2704.954
561.2902, 2691.938
561.7723, 2680.469
562.2545, 2670.274
562.7366, 2660.851
563.2187, 2649.739
563.7008, 2635.769
564.1829, 2621.633
564.6650, 2607.957
565.1472, 2594.961
565.6293, 2583.063
566.1114, 2572.302
566.5935, 2561.993
567.0756, 2551.569
567.5577, 2541.020
568.0399, 2529.638
568.5220, 2516.191
569.0041, 2503.367
569.4862, 2492.445
569.9683, 2481.841
570.4504, 2470.017
570.9326, 2456.583
571.4147, 2442.466
571.8968, 2427.871
572.3789, 2413.125
572.8610, 2400.005
573.3431, 2388.785
573.8253, 2378.639
574.3074, 2370.390
574.7895, 2362.438
575.2716, 2352.378
575.7537, 2339.715
576.2358, 2326.477
576.7180, 2312.527
577.2001, 2299.203
577.6822, 2289.088
578.1643, 2282.149
578.6464, 2275.280
579.1285, 2266.438
579.6107, 2255.906
580.0928, 2244.892
580.5749, 2232.299
581.0570, 2220.710
581.5391, 2210.859
582.0212, 2201.458
582.5034, 2191.428
582.9855, 2180.818
583.4676, 2170.542
583.9497, 2161.260
584.4318, 2152.678
584.9139, 2143.940
585.3961, 2134.956
585.8782, 2125.972
586.3602, 2117.365
586.8423, 2108.469
587.3245, 2098.379
587.8066, 2087.315
588.2887, 2077.226
588.7708, 2069.929
589.2529, 2063.383
589.7350, 2055.002
590.2172, 2045.079
590.6993, 2035.823
591.1814, 2028.297
591.6635, 2021.157
592.1456, 2012.222
592.6277, 2000.906
593.1099, 1989.773
593.5920, 1977.882
594.0741, 1967.138
594.5562, 1959.273
595.0383, 1953.120
595.5204, 1946.475
596.0026, 1938.425
596.4847, 1929.703
596.9668, 1921.031
597.4489, 1912.255
