##NAMES=Wohlerite
##RRUFFID=R050275
##IDEAL CHEMISTRY=NaCa_2_(Zr^4+^,Nb^5+^)(Si_2_O_7_)(O,F)_2_
##LOCALITY= Langesundsfjord, Norway
##OWNER=RRUFF
##SOURCE=Marcus Origlieri
##DESCRIPTION=Yellowish brown granular
##STATUS=The identification of this mineral has been confirmed by X-ray diffraction.
##URL=rruff.info/R050275
139.7887, 1353.030
140.2709, 1357.345
140.7530, 1359.472
141.2351, 1362.702
141.7172, 1367.771
142.1993, 1372.382
142.6814, 1374.767
143.1636, 1374.115
143.6457, 1373.477
144.1278, 1372.725
144.6099, 1372.012
145.0920, 1373.270
145.5741, 1377.597
146.0563, 1382.506
146.5384, 1385.889
147.0205, 1386.123
147.5026, 1387.499
147.9847, 1391.182
148.4668, 1397.318
148.9490, 1401.996
149.4311, 1403.998
149.9132, 1405.323
150.3953, 1407.787
150.8774, 1412.381
151.3595, 1417.065
151.8417, 1421.604
152.3238, 1426.076
152.8059, 1430.121
153.2880, 1433.201
153.7701, 1436.048
154.2522, 1439.489
154.7344, 1443.010
155.2165, 1447.609
155.6986, 1453.780
156.1807, 1462.031
156.6628, 1470.117
157.1449, 1477.070
157.6271, 1483.687
158.1092, 1491.118
158.5913, 1498.810
159.0734, 1507.904
159.5555, 1519.484
160.0376, 1535.041
160.5198, 1549.039
161.0019, 1559.545
161.4840, 1567.469
161.9661, 1574.059
162.4482, 1581.414
162.9303, 1586.477
163.4125, 1587.282
163.8946, 1582.581
164.3767, 1575.844
164.8588, 1568.129
165.3409, 1559.528
165.8230, 1550.068
166.3052, 1539.292
166.7873, 1527.924
167.2694, 1516.390
167.7515, 1504.367
168.2336, 1492.888
168.7157, 1482.542
169.1978, 1473.291
169.6800, 1464.714
170.1621, 1456.699
170.6442, 1449.221
171.1263, 1442.027
171.6084, 1434.480
172.0905, 1428.018
172.5727, 1424.231
173.0548, 1422.785
173.5369, 1421.966
174.0190, 1420.851
174.5011, 1419.637
174.9832, 1418.564
175.4654, 1417.531
175.9475, 1416.854
176.4296, 1416.758
176.9117, 1417.266
177.3938, 1418.535
177.8759, 1421.165
178.3581, 1424.605
178.8402, 1427.828
179.3223, 1430.615
179.8044, 1432.934
180.2865, 1434.338
180.7686, 1434.864
181.2508, 1435.751
181.7329, 1438.336
182.2150, 1442.140
182.6971, 1445.879
183.1792, 1449.110
183.6613, 1452.012
184.1435, 1454.643
184.6256, 1457.000
185.1077, 1459.644
185.5898, 1463.553
186.0719, 1468.338
186.5540, 1472.693
187.0362, 1476.323
187.5183, 1479.155
188.0004, 1480.308
188.4825, 1479.579
188.9646, 1479.113
189.4467, 1481.534
189.9289, 1486.552
190.4110, 1491.762
190.8931, 1496.512
191.3752, 1500.851
191.8573, 1505.090
192.3394, 1509.323
192.8216, 1513.234
193.3037, 1516.374
193.7858, 1518.760
194.2679, 1520.984
194.7500, 1523.323
195.2321, 1525.690
195.7143, 1527.569
196.1964, 1528.885
196.6785, 1529.883
197.1606, 1531.274
197.6427, 1533.179
198.1248, 1533.608
198.6070, 1531.430
199.0891, 1526.825
199.5712, 1522.569
200.0533, 1518.751
200.5354, 1515.082
201.0175, 1510.830
201.4997, 1505.699
201.9818, 1502.003
202.4639, 1501.105
202.9460, 1503.020
203.4281, 1503.641
203.9102, 1502.646
204.3924, 1500.980
204.8745, 1499.891
205.3566, 1499.398
205.8387, 1499.454
206.3208, 1500.239
206.8029, 1501.819
207.2851, 1503.010
207.7672, 1503.844
208.2493, 1504.253
208.7314, 1503.958
209.2135, 1502.686
209.6956, 1501.653
210.1778, 1501.472
210.6599, 1502.303
211.1420, 1502.370
211.6241, 1501.379
212.1062, 1499.945
212.5883, 1499.012
213.0705, 1498.647
213.5526, 1498.565
214.0347, 1498.875
214.5168, 1499.768
214.9989, 1499.692
215.4810, 1498.588
215.9632, 1496.541
216.4453, 1493.330
216.9274, 1487.922
217.4095, 1483.786
217.8916, 1482.953
218.3737, 1486.595
218.8559, 1486.375
219.3380, 1481.046
219.8201, 1472.992
220.3022, 1465.809
220.7843, 1459.748
221.2664, 1454.210
221.7486, 1448.931
222.2307, 1443.911
222.7128, 1439.763
223.1949, 1436.783
223.6770, 1434.500
224.1591, 1432.350
224.6413, 1430.639
225.1234, 1428.454
225.6055, 1425.153
226.0876, 1420.194
226.5697, 1417.082
227.0518, 1416.670
227.5340, 1417.440
228.0161, 1417.042
228.4982, 1414.691
228.9803, 1412.552
229.4624, 1411.228
229.9445, 1410.765
230.4267, 1410.771
230.9088, 1411.324
231.3909, 1412.264
231.8730, 1413.472
232.3551, 1415.452
232.8372, 1416.810
233.3194, 1416.994
233.8015, 1415.718
234.2836, 1414.843
234.7657, 1414.409
235.2478, 1414.337
235.7299, 1414.580
236.2121, 1415.416
236.6942, 1416.110
237.1763, 1416.554
237.6584, 1416.805
238.1405, 1416.323
238.6226, 1414.365
239.1048, 1412.293
239.5869, 1411.899
240.0690, 1414.300
240.5511, 1416.357
241.0332, 1417.100
241.5153, 1416.261
241.9975, 1416.603
242.4796, 1419.223
242.9617, 1422.056
243.4438, 1422.486
243.9259, 1418.430
244.4080, 1415.821
244.8902, 1416.476
245.3723, 1420.703
245.8544, 1423.386
246.3365, 1423.895
246.8186, 1423.469
247.3007, 1423.370
247.7829, 1423.996
248.2650, 1424.117
248.7471, 1422.952
249.2292, 1420.422
249.7113, 1420.392
250.1934, 1424.367
250.6756, 1429.178
251.1577, 1431.877
251.6398, 1431.268
252.1219, 1430.972
252.6040, 1431.533
253.0861, 1432.927
253.5683, 1434.964
254.0504, 1438.313
254.5325, 1441.491
255.0146, 1443.265
255.4967, 1443.267
255.9788, 1442.724
256.4609, 1441.537
256.9431, 1439.848
257.4252, 1438.725
257.9073, 1438.045
258.3894, 1438.113
258.8715, 1439.382
259.3536, 1442.669
259.8358, 1445.002
260.3179, 1445.694
260.8000, 1445.143
261.2821, 1445.586
261.7642, 1447.503
262.2463, 1449.610
262.7285, 1451.082
263.2106, 1451.725
263.6927, 1452.319
264.1748, 1452.710
264.6569, 1453.153
265.1390, 1454.768
265.6212, 1458.158
266.1033, 1461.461
266.5854, 1463.727
267.0675, 1464.837
267.5496, 1465.170
268.0317, 1464.545
268.5139, 1463.257
268.9960, 1462.175
269.4781, 1461.505
269.9602, 1460.478
270.4423, 1458.718
270.9244, 1456.174
271.4066, 1452.943
271.8887, 1448.554
272.3708, 1443.937
272.8529, 1441.186
273.3350, 1440.652
273.8171, 1440.705
274.2993, 1440.893
274.7814, 1441.309
275.2635, 1440.774
275.7456, 1438.997
276.2277, 1436.711
276.7098, 1434.977
277.1920, 1433.757
277.6741, 1433.257
278.1562, 1433.881
278.6383, 1435.621
279.1204, 1436.224
279.6025, 1435.290
280.0847, 1434.190
280.5668, 1435.082
281.0489, 1438.205
281.5310, 1440.733
282.0131, 1441.518
282.4952, 1440.836
282.9774, 1440.718
283.4595, 1441.192
283.9416, 1442.152
284.4237, 1443.201
284.9058, 1444.351
285.3879, 1446.945
285.8701, 1451.733
286.3522, 1458.126
286.8343, 1464.124
287.3164, 1469.670
287.7985, 1474.785
288.2806, 1479.917
288.7628, 1484.893
289.2449, 1487.704
289.7270, 1486.934
290.2091, 1484.581
290.6912, 1485.553
291.1733, 1489.853
291.6555, 1495.730
292.1376, 1502.093
292.6197, 1508.980
293.1018, 1516.793
293.5839, 1525.918
294.0660, 1535.298
294.5482, 1542.610
295.0303, 1548.038
295.5124, 1553.879
295.9945, 1562.298
296.4766, 1572.365
296.9587, 1581.298
297.4409, 1588.809
297.9230, 1595.376
298.4051, 1601.595
298.8872, 1607.354
299.3693, 1612.302
299.8514, 1616.060
300.3336, 1618.857
300.8157, 1621.120
301.2978, 1622.876
301.7799, 1623.840
302.2620, 1623.680
302.7441, 1622.443
303.2263, 1620.296
303.7084, 1616.677
304.1905, 1612.427
304.6726, 1608.334
305.1547, 1604.428
305.6368, 1601.081
306.1190, 1599.264
306.6011, 1598.178
307.0832, 1596.497
307.5653, 1593.824
308.0474, 1590.312
308.5295, 1585.496
309.0117, 1579.578
309.4938, 1574.544
309.9759, 1572.348
310.4580, 1571.557
310.9401, 1570.564
311.4222, 1569.059
311.9044, 1567.067
312.3865, 1564.657
312.8686, 1561.813
313.3507, 1558.391
313.8328, 1554.026
314.3149, 1549.198
314.7971, 1544.322
315.2792, 1539.265
315.7613, 1534.368
316.2434, 1529.710
316.7255, 1525.309
317.2076, 1521.223
317.6898, 1518.422
318.1719, 1515.248
318.6540, 1510.614
319.1361, 1504.104
319.6182, 1497.404
320.1003, 1490.603
320.5825, 1484.079
321.0646, 1478.353
321.5467, 1473.485
322.0288, 1469.521
322.5109, 1466.704
322.9930, 1465.190
323.4752, 1463.677
323.9573, 1461.887
324.4394, 1459.992
324.9215, 1458.150
325.4036, 1455.658
325.8857, 1453.974
326.3679, 1453.434
326.8500, 1454.017
327.3321, 1455.223
327.8142, 1457.544
328.2963, 1460.134
328.7784, 1462.500
329.2606, 1465.420
329.7427, 1467.157
330.2248, 1467.133
330.7069, 1465.797
331.1890, 1464.881
331.6711, 1464.602
332.1533, 1464.523
332.6354, 1464.613
333.1175, 1465.636
333.5996, 1465.100
334.0817, 1462.525
334.5638, 1458.574
335.0460, 1454.453
335.5281, 1450.053
336.0102, 1445.598
336.4923, 1441.234
336.9744, 1437.042
337.4565, 1431.992
337.9387, 1425.727
338.4208, 1418.983
338.9029, 1412.820
339.3850, 1407.524
339.8671, 1401.670
340.3492, 1394.509
340.8313, 1386.345
341.3134, 1379.959
341.7956, 1375.635
342.2777, 1372.091
342.7598, 1368.437
343.2419, 1364.778
343.7240, 1360.443
344.2061, 1355.241
344.6883, 1349.478
345.1704, 1344.058
345.6525, 1338.959
346.1346, 1333.865
346.6167, 1328.262
347.0988, 1322.284
347.5810, 1317.308
348.0631, 1313.398
348.5452, 1310.294
349.0273, 1307.785
349.5094, 1305.775
349.9915, 1303.917
350.4737, 1301.376
350.9558, 1298.919
351.4379, 1298.701
351.9200, 1300.827
352.4021, 1303.532
352.8842, 1305.312
353.3664, 1306.422
353.8485, 1307.460
354.3306, 1308.511
354.8127, 1309.731
355.2948, 1311.188
355.7769, 1312.931
356.2591, 1315.156
356.7412, 1317.818
357.2233, 1321.118
357.7054, 1325.438
358.1875, 1331.249
358.6696, 1337.378
359.1518, 1342.803
359.6339, 1347.857
360.1160, 1353.290
360.5981, 1359.392
361.0802, 1366.025
361.5623, 1373.280
362.0445, 1381.357
362.5266, 1389.121
363.0087, 1394.838
363.4908, 1400.237
363.9729, 1407.499
364.4550, 1419.383
364.9372, 1431.206
365.4193, 1441.089
365.9014, 1448.929
366.3835, 1457.135
366.8656, 1465.861
367.3477, 1475.297
367.8299, 1485.751
368.3120, 1497.977
368.7941, 1510.381
369.2762, 1522.908
369.7583, 1535.519
370.2404, 1548.133
370.7226, 1560.603
371.2047, 1573.067
371.6868, 1585.637
372.1689, 1598.276
372.6510, 1611.242
373.1331, 1624.864
373.6153, 1638.733
374.0974, 1652.166
374.5795, 1664.717
375.0616, 1677.609
375.5437, 1691.706
376.0258, 1707.041
376.5080, 1718.865
376.9901, 1725.719
377.4722, 1731.808
377.9543, 1741.426
378.4364, 1754.867
378.9185, 1769.081
379.4007, 1782.893
379.8828, 1797.174
380.3649, 1815.011
380.8470, 1836.594
381.3291, 1858.561
381.8112, 1877.789
382.2934, 1894.971
382.7755, 1914.014
383.2576, 1935.383
383.7397, 1958.311
384.2218, 1982.115
384.7039, 2006.828
385.1861, 2031.326
385.6682, 2056.025
386.1503, 2080.066
386.6324, 2102.860
387.1145, 2124.118
387.5966, 2142.863
388.0788, 2159.453
388.5609, 2172.839
389.0430, 2181.257
389.5251, 2183.828
390.0072, 2181.785
390.4893, 2176.552
390.9715, 2167.854
391.4536, 2154.267
391.9357, 2132.966
392.4178, 2107.733
392.8999, 2081.596
393.3820, 2054.745
393.8642, 2027.191
394.3463, 1997.202
394.8284, 1966.715
395.3105, 1939.140
395.7926, 1917.589
396.2747, 1896.960
396.7569, 1874.795
397.2390, 1850.842
397.7211, 1829.709
398.2032, 1812.953
398.6853, 1798.916
399.1674, 1786.550
399.6496, 1776.943
400.1317, 1767.397
400.6138, 1757.149
401.0959, 1746.693
401.5780, 1737.736
402.0602, 1729.896
402.5423, 1723.956
403.0244, 1720.775
403.5065, 1721.683
403.9886, 1720.371
404.4707, 1715.560
404.9529, 1709.763
405.4350, 1706.670
405.9171, 1707.233
406.3992, 1707.424
406.8813, 1706.137
407.3634, 1703.607
407.8456, 1701.170
408.3277, 1698.732
408.8098, 1696.810
409.2919, 1696.127
409.7740, 1696.598
410.2561, 1696.515
410.7383, 1695.295
411.2204, 1694.137
411.7025, 1695.446
412.1846, 1698.955
412.6667, 1702.462
413.1488, 1704.561
413.6310, 1705.868
414.1131, 1707.560
414.5952, 1709.671
415.0773, 1712.182
415.5594, 1716.064
416.0415, 1720.209
416.5237, 1722.642
417.0058, 1721.855
417.4879, 1720.021
417.9700, 1719.189
418.4521, 1718.961
418.9342, 1717.750
419.4164, 1713.678
419.8985, 1708.906
420.3806, 1705.183
420.8627, 1703.023
421.3448, 1700.934
421.8269, 1698.094
422.3091, 1694.994
422.7912, 1692.313
423.2733, 1691.232
423.7554, 1689.593
424.2375, 1686.142
424.7196, 1680.855
425.2018, 1677.080
425.6839, 1676.750
426.1660, 1676.949
426.6481, 1675.952
427.1302, 1672.652
427.6123, 1670.049
428.0945, 1668.425
428.5766, 1667.488
429.0587, 1666.426
429.5408, 1664.813
430.0229, 1664.007
430.5050, 1664.769
430.9872, 1667.159
431.4693, 1669.085
431.9514, 1670.797
432.4335, 1671.412
432.9156, 1669.212
433.3977, 1664.086
433.8799, 1660.577
434.3620, 1659.958
434.8441, 1661.027
435.3262, 1661.503
435.8083, 1661.359
436.2904, 1660.224
436.7726, 1657.677
437.2547, 1653.996
437.7368, 1649.952
438.2189, 1645.664
438.7010, 1640.492
439.1831, 1632.739
439.6652, 1623.718
440.1473, 1615.992
440.6295, 1612.381
441.1116, 1608.921
441.5937, 1601.772
442.0758, 1591.603
442.5579, 1581.984
443.0400, 1574.491
443.5222, 1568.311
444.0043, 1562.930
444.4864, 1558.513
444.9685, 1554.335
445.4506, 1550.535
445.9327, 1546.723
446.4149, 1542.322
446.8970, 1535.795
447.3791, 1530.143
447.8612, 1526.254
448.3433, 1524.163
448.8254, 1522.278
449.3076, 1520.641
449.7897, 1519.184
450.2718, 1517.819
450.7539, 1516.305
451.2360, 1515.451
451.7181, 1515.199
452.2003, 1515.688
452.6824, 1517.480
453.1645, 1521.036
453.6466, 1524.111
454.1287, 1525.737
454.6108, 1526.092
455.0930, 1526.529
455.5751, 1527.005
456.0572, 1527.771
456.5393, 1528.948
457.0214, 1530.575
457.5035, 1532.891
457.9857, 1536.082
458.4678, 1539.710
458.9499, 1542.762
459.4320, 1545.595
459.9141, 1549.600
460.3962, 1556.715
460.8784, 1564.777
461.3605, 1570.735
461.8426, 1574.564
462.3247, 1579.008
462.8068, 1586.510
463.2889, 1595.378
463.7711, 1603.753
464.2532, 1611.010
464.7353, 1617.864
465.2174, 1622.715
465.6995, 1627.229
466.1816, 1635.525
466.6638, 1654.984
467.1459, 1672.445
467.6280, 1681.759
468.1101, 1679.926
468.5922, 1682.661
469.0743, 1693.391
469.5565, 1706.521
470.0386, 1717.467
470.5207, 1725.352
471.0028, 1732.449
471.4849, 1737.967
471.9670, 1743.209
472.4492, 1752.668
472.9313, 1767.583
473.4134, 1782.326
473.8955, 1793.633
474.3776, 1801.844
474.8597, 1813.634
475.3419, 1829.563
475.8240, 1846.340
476.3061, 1860.323
476.7882, 1872.099
477.2703, 1884.506
477.7524, 1898.598
478.2346, 1912.939
478.7167, 1925.555
479.1988, 1936.826
479.6809, 1948.170
480.1630, 1961.582
480.6451, 1974.774
481.1273, 1985.586
481.6094, 1993.893
482.0915, 2000.113
482.5736, 2004.028
483.0557, 2006.269
483.5378, 2007.497
484.0200, 2007.836
484.5021, 2007.204
484.9842, 2006.216
485.4663, 2004.248
485.9484, 1999.685
486.4305, 1991.429
486.9127, 1981.332
487.3948, 1969.709
487.8769, 1956.510
488.3590, 1942.935
488.8411, 1929.358
489.3232, 1914.979
489.8054, 1899.041
490.2875, 1881.117
490.7696, 1863.462
491.2517, 1846.402
491.7338, 1829.899
492.2159, 1814.096
492.6981, 1798.885
493.1802, 1785.072
493.6623, 1773.709
494.1444, 1764.065
494.6265, 1753.770
495.1086, 1742.649
495.5908, 1732.087
496.0729, 1722.758
496.5550, 1714.733
497.0371, 1708.503
497.5192, 1704.595
498.0013, 1701.279
498.4835, 1696.608
498.9656, 1691.357
499.4477, 1687.271
499.9298, 1685.328
500.4119, 1684.518
500.8940, 1684.580
501.3762, 1685.463
501.8583, 1686.341
502.3404, 1686.591
502.8225, 1687.074
503.3046, 1688.393
503.7867, 1691.645
504.2689, 1694.121
504.7510, 1695.598
505.2331, 1696.364
505.7152, 1696.737
506.1973, 1696.240
506.6794, 1696.397
507.1616, 1698.038
507.6437, 1700.746
508.1258, 1701.324
508.6079, 1699.452
509.0900, 1696.678
509.5721, 1694.141
510.0543, 1691.723
510.5364, 1687.857
511.0185, 1682.161
511.5006, 1676.324
511.9827, 1672.647
512.4648, 1670.575
512.9470, 1668.306
513.4291, 1664.821
513.9112, 1661.342
514.3933, 1659.328
514.8754, 1658.480
515.3575, 1657.723
515.8397, 1654.655
516.3218, 1652.697
516.8039, 1655.203
517.2860, 1663.283
517.7681, 1670.263
518.2502, 1672.394
518.7324, 1673.190
519.2145, 1675.791
519.6966, 1681.931
520.1787, 1688.319
520.6608, 1694.523
521.1429, 1700.787
521.6251, 1707.861
522.1072, 1716.396
522.5893, 1724.600
523.0714, 1731.513
523.5535, 1737.217
524.0356, 1744.779
524.5178, 1754.378
524.9999, 1765.406
525.4820, 1778.272
525.9641, 1792.488
526.4462, 1804.934
526.9283, 1814.913
527.4105, 1824.125
527.8926, 1834.194
528.3747, 1845.455
528.8568, 1858.827
529.3389, 1876.468
529.8210, 1895.129
530.3032, 1910.600
530.7853, 1923.597
531.2674, 1937.492
531.7495, 1953.820
532.2316, 1971.783
532.7137, 1990.838
533.1959, 2011.479
533.6780, 2031.710
534.1601, 2050.314
534.6422, 2068.815
535.1243, 2089.141
535.6064, 2114.493
536.0886, 2137.369
536.5707, 2155.336
537.0528, 2170.656
537.5349, 2189.392
538.0170, 2212.461
538.4991, 2236.839
538.9813, 2261.038
539.4634, 2285.360
539.9455, 2311.073
540.4276, 2337.992
540.9097, 2367.036
541.3918, 2399.512
541.8740, 2434.417
542.3561, 2467.816
542.8382, 2498.574
543.3203, 2528.717
543.8024, 2562.038
544.2845, 2596.674
544.7667, 2627.788
545.2488, 2651.254
545.7309, 2671.744
546.2130, 2693.787
546.6951, 2716.259
547.1772, 2732.981
547.6594, 2740.723
548.1415, 2742.667
548.6236, 2740.500
549.1057, 2734.630
549.5878, 2723.870
550.0699, 2707.600
550.5521, 2686.730
551.0342, 2661.479
551.5163, 2629.555
551.9984, 2598.369
552.4805, 2569.148
552.9626, 2540.566
553.4448, 2509.480
553.9269, 2475.227
554.4090, 2442.432
554.8911, 2412.814
555.3732, 2386.032
555.8553, 2361.120
556.3375, 2338.253
556.8196, 2316.360
557.3017, 2294.989
557.7838, 2274.207
558.2659, 2254.418
558.7480, 2235.777
559.2302, 2217.431
559.7123, 2199.956
560.1944, 2181.965
560.6765, 2161.669
561.1586, 2138.171
561.6407, 2112.463
562.1229, 2083.241
562.6050, 2052.018
563.0871, 2022.386
563.5692, 1996.261
564.0513, 1970.363
564.5334, 1943.384
565.0156, 1915.492
565.4977, 1888.343
565.9798, 1862.252
566.4619, 1836.867
566.9440, 1811.740
567.4261, 1787.003
567.9083, 1763.707
568.3904, 1742.090
568.8725, 1721.948
569.3546, 1702.606
569.8367, 1684.347
570.3188, 1667.736
570.8010, 1653.787
571.2831, 1640.732
571.7652, 1625.923
572.2473, 1610.026
572.7294, 1596.146
573.2115, 1586.846
573.6937, 1579.031
574.1758, 1570.223
574.6579, 1560.271
575.1400, 1551.720
575.6221, 1545.983
576.1042, 1541.397
576.5864, 1536.852
577.0685, 1531.994
577.5506, 1527.716
578.0327, 1524.241
578.5148, 1521.144
578.9969, 1517.865
579.4791, 1514.324
579.9612, 1510.595
580.4433, 1506.376
580.9254, 1502.257
581.4075, 1500.170
581.8896, 1500.085
582.3718, 1499.966
582.8539, 1498.717
583.3360, 1496.654
583.8181, 1494.192
584.3002, 1491.391
584.7823, 1489.046
585.2645, 1488.403
585.7466, 1488.216
586.2287, 1486.966
586.7108, 1483.916
587.1929, 1481.548
587.6750, 1481.759
588.1571, 1482.958
588.6392, 1483.296
589.1213, 1481.685
589.6035, 1480.178
590.0856, 1478.723
590.5677, 1477.582
591.0498, 1477.458
591.5319, 1478.434
592.0140, 1480.210
592.4962, 1482.703
592.9783, 1485.873
593.4604, 1489.664
593.9425, 1494.126
594.4246, 1498.495
594.9067, 1501.862
595.3889, 1504.648
595.8710, 1508.114
596.3531, 1512.366
596.8352, 1517.302
597.3173, 1523.603
597.7994, 1530.335
598.2816, 1535.895
598.7637, 1538.544
599.2458, 1542.114
599.7279, 1549.383
600.2100, 1558.722
600.6921, 1567.097
601.1743, 1572.919
601.6564, 1578.821
602.1385, 1585.446
602.6206, 1592.741
603.1027, 1600.042
603.5848, 1607.293
604.0670, 1614.539
604.5491, 1621.636
605.0312, 1628.487
605.5133, 1636.991
605.9954, 1647.394
606.4775, 1657.617
606.9597, 1664.759
607.4418, 1669.910
607.9239, 1676.995
608.4060, 1686.825
608.8881, 1697.883
609.3702, 1709.683
609.8524, 1721.406
610.3345, 1731.404
610.8166, 1736.563
611.2987, 1742.541
611.7808, 1753.729
612.2629, 1768.008
612.7451, 1778.865
613.2272, 1781.389
613.7093, 1784.232
614.1914, 1790.761
614.6735, 1801.002
615.1556, 1807.973
615.6378, 1810.192
616.1199, 1812.080
616.6020, 1817.330
617.0841, 1826.120
617.5662, 1830.251
618.0483, 1828.942
618.5305, 1825.692
619.0126, 1824.154
619.4947, 1823.716
619.9768, 1822.827
620.4589, 1821.578
620.9410, 1818.684
621.4232, 1812.035
621.9053, 1803.045
622.3874, 1794.270
622.8695, 1787.485
623.3516, 1780.363
623.8337, 1771.798
624.3159, 1762.049
624.7980, 1752.341
625.2801, 1742.421
625.7622, 1732.835
626.2443, 1723.846
626.7264, 1715.432
627.2086, 1706.652
627.6907, 1697.331
628.1728, 1687.898
628.6549, 1678.790
629.1370, 1669.913
629.6191, 1660.241
630.1013, 1649.519
630.5834, 1638.869
631.0655, 1629.477
631.5476, 1620.990
632.0297, 1612.905
632.5118, 1605.351
632.9940, 1597.641
633.4761, 1588.423
633.9582, 1578.875
634.4403, 1571.075
634.9224, 1566.934
635.4045, 1563.264
635.8867, 1559.532
636.3688, 1555.627
636.8509, 1551.129
637.3330, 1545.006
637.8151, 1539.995
638.2972, 1537.404
