##NAMES=Wolfeite
##RRUFFID=R060545
##IDEAL CHEMISTRY=Fe^2+^_2_PO_4_(OH)
##LOCALITY=Big Fish River, Yukon Territory, Canada
##OWNER=RRUFF
##SOURCE=Michael Scott
##DESCRIPTION=Orange-brown fragment
##STATUS=The identification of this mineral is confirmed by single-crystal X-ray diffraction and chemical analysis.
##URL=rruff.info/R060545
##MEASURED CHEMISTRY=(Fe^2+^_1.72_Mg_0.22_Mn_0.06_)_Σ=2_P_1.00_O_4_((OH)_0.87_F_0.13_)_Σ=1_; (OH) estimated by difference and charge balance
120.558, 1496.533
121.040, 1592.537
121.522, 1679.430
122.004, 1761.019
122.486, 1846.757
122.968, 1956.383
123.450, 2067.982
123.932, 2154.795
124.414, 2203.993
124.897, 2236.258
125.379, 2274.296
125.861, 2316.263
126.343, 2349.473
126.825, 2360.422
127.307, 2355.023
127.789, 2346.817
128.271, 2341.585
128.753, 2336.063
129.236, 2323.536
129.718, 2303.620
130.200, 2280.026
130.682, 2254.506
131.164, 2227.891
131.646, 2204.582
132.128, 2186.495
132.610, 2173.537
133.093, 2163.706
133.575, 2155.956
134.057, 2153.053
134.539, 2159.962
135.021, 2176.876
135.503, 2201.457
135.985, 2232.815
136.467, 2271.340
136.949, 2314.168
137.432, 2362.032
137.914, 2413.575
138.396, 2464.494
138.878, 2516.506
139.360, 2562.417
139.842, 2596.471
140.324, 2618.468
140.806, 2628.521
141.288, 2626.087
141.771, 2611.174
142.253, 2587.625
142.735, 2554.722
143.217, 2514.159
143.699, 2467.753
144.181, 2410.243
144.663, 2355.122
145.145, 2306.361
145.628, 2268.247
146.110, 2224.468
146.592, 2170.507
147.074, 2111.479
147.556, 2060.957
148.038, 2016.064
148.520, 1981.687
149.002, 1960.120
149.484, 1955.454
149.967, 1957.630
150.449, 1968.750
150.931, 1987.849
151.413, 2007.248
151.895, 2024.166
152.377, 2043.289
152.859, 2067.013
153.342, 2102.451
153.824, 2135.518
154.306, 2167.174
154.788, 2197.775
155.270, 2216.248
155.752, 2208.029
156.234, 2192.656
156.716, 2188.879
157.198, 2221.538
157.680, 2247.659
158.163, 2249.732
158.645, 2220.076
159.127, 2195.014
159.609, 2190.960
160.091, 2196.417
160.573, 2193.727
161.055, 2170.304
161.538, 2141.923
162.020, 2117.299
162.502, 2100.545
162.984, 2081.103
163.466, 2050.362
163.948, 2012.774
164.430, 1980.224
164.912, 1959.748
165.394, 1945.939
165.876, 1934.955
166.359, 1927.181
166.841, 1920.448
167.323, 1913.967
167.805, 1907.707
168.287, 1901.236
168.769, 1890.978
169.251, 1881.581
169.733, 1878.224
170.216, 1890.731
170.698, 1904.723
171.180, 1906.628
171.662, 1896.599
172.144, 1887.745
172.626, 1894.043
173.108, 1907.771
173.590, 1915.498
174.072, 1904.869
174.555, 1888.235
175.037, 1879.089
175.519, 1878.433
176.001, 1882.455
176.483, 1886.700
176.965, 1892.516
177.447, 1903.678
177.929, 1927.463
178.412, 1956.580
178.894, 1978.873
179.376, 1991.876
179.858, 2000.561
180.340, 2010.710
180.822, 2021.812
181.304, 2031.268
181.786, 2037.658
182.268, 2041.176
182.751, 2041.389
183.233, 2036.382
183.715, 2030.641
184.197, 2032.683
184.679, 2042.245
185.161, 2052.805
185.643, 2058.873
186.125, 2061.415
186.607, 2065.731
187.090, 2076.273
187.572, 2087.274
188.054, 2081.622
188.536, 2058.060
189.018, 2033.738
189.500, 2027.490
189.982, 2037.405
190.464, 2047.458
190.947, 2054.024
191.429, 2056.903
191.911, 2053.366
192.393, 2042.203
192.875, 2030.009
193.357, 2024.648
193.839, 2026.206
194.321, 2029.833
194.803, 2032.955
195.286, 2036.000
195.768, 2045.054
196.250, 2061.742
196.732, 2080.653
197.214, 2094.088
197.696, 2101.757
198.178, 2106.374
198.661, 2107.901
199.143, 2106.283
199.625, 2108.012
200.107, 2115.066
200.589, 2123.344
201.071, 2122.967
201.553, 2112.046
202.035, 2101.215
202.517, 2098.367
202.999, 2104.991
203.482, 2103.336
203.964, 2089.209
204.446, 2067.684
204.928, 2053.921
205.410, 2049.607
205.892, 2047.630
206.374, 2044.475
206.857, 2040.722
207.339, 2031.762
207.821, 2015.480
208.303, 1993.599
208.785, 1974.725
209.267, 1959.782
209.749, 1945.800
210.231, 1930.511
210.713, 1913.611
211.195, 1896.399
211.678, 1878.216
212.160, 1859.519
212.642, 1846.358
213.124, 1841.399
213.606, 1837.490
214.088, 1827.388
214.570, 1808.809
215.052, 1790.534
215.535, 1773.615
216.017, 1757.954
216.499, 1745.921
216.981, 1737.994
217.463, 1732.831
217.945, 1729.087
218.427, 1727.118
218.909, 1725.732
219.391, 1725.348
219.874, 1726.386
220.356, 1723.635
220.838, 1716.548
221.320, 1706.133
221.802, 1692.921
222.284, 1673.865
222.766, 1658.579
223.248, 1651.023
223.731, 1653.073
224.213, 1654.137
224.695, 1655.706
225.177, 1655.398
225.659, 1647.407
226.141, 1623.988
226.623, 1606.964
227.105, 1607.485
227.587, 1636.119
228.070, 1646.030
228.552, 1629.920
229.034, 1598.185
229.516, 1572.594
229.998, 1553.595
230.480, 1539.932
230.962, 1531.622
231.444, 1530.564
231.926, 1530.193
232.409, 1530.844
232.891, 1532.086
233.373, 1532.853
233.855, 1533.201
234.337, 1532.988
234.819, 1532.300
235.301, 1531.766
235.783, 1529.318
236.266, 1524.372
236.748, 1517.554
237.230, 1510.907
237.712, 1504.328
238.194, 1497.968
238.676, 1491.317
239.158, 1481.325
239.640, 1478.061
240.122, 1485.611
240.605, 1500.623
241.087, 1508.073
241.569, 1505.117
242.051, 1498.318
242.533, 1491.246
243.015, 1483.253
243.497, 1476.175
243.980, 1469.702
244.462, 1464.118
244.944, 1460.771
245.426, 1457.852
245.908, 1459.354
246.390, 1469.177
246.872, 1493.614
247.354, 1512.788
247.836, 1524.141
248.318, 1528.223
248.801, 1528.392
249.283, 1522.438
249.765, 1515.302
250.247, 1510.368
250.729, 1508.005
251.211, 1507.248
251.693, 1508.340
252.176, 1511.162
252.658, 1514.327
253.140, 1518.006
253.622, 1521.982
254.104, 1527.066
254.586, 1536.427
255.068, 1539.017
255.550, 1529.495
256.032, 1509.509
256.514, 1502.299
256.997, 1513.899
257.479, 1530.312
257.961, 1539.459
258.443, 1537.387
258.925, 1537.828
259.407, 1544.548
259.889, 1556.689
260.371, 1562.300
260.854, 1558.180
261.336, 1551.917
261.818, 1550.184
262.300, 1554.201
262.782, 1559.448
263.264, 1565.520
263.746, 1572.345
264.228, 1577.843
264.711, 1581.104
265.193, 1584.521
265.675, 1591.351
266.157, 1603.752
266.639, 1612.331
267.121, 1614.752
267.603, 1611.396
268.085, 1605.191
268.567, 1593.984
269.050, 1584.110
269.532, 1583.225
270.014, 1594.056
270.496, 1602.362
270.978, 1603.350
271.460, 1598.329
271.942, 1601.669
272.424, 1617.450
272.906, 1632.714
273.389, 1631.534
273.871, 1609.385
274.353, 1595.469
274.835, 1598.646
275.317, 1616.248
275.799, 1630.531
276.281, 1641.760
276.763, 1648.615
277.246, 1648.914
277.728, 1642.142
278.210, 1632.827
278.692, 1618.353
279.174, 1601.864
279.656, 1605.634
280.138, 1635.128
280.620, 1664.807
281.103, 1664.715
281.585, 1633.468
282.067, 1610.417
282.549, 1607.259
283.031, 1619.237
283.513, 1627.456
283.995, 1631.752
284.477, 1633.140
284.959, 1630.035
285.441, 1622.846
285.924, 1621.697
286.406, 1632.194
286.888, 1649.443
287.370, 1655.366
287.852, 1648.973
288.334, 1641.594
288.816, 1646.879
289.298, 1662.491
289.781, 1670.143
290.263, 1661.099
290.745, 1643.700
291.227, 1641.488
291.709, 1654.900
292.191, 1668.638
292.673, 1666.611
293.155, 1652.856
293.638, 1645.024
294.120, 1650.357
294.602, 1661.519
295.084, 1664.674
295.566, 1659.958
296.048, 1652.212
296.530, 1644.041
297.012, 1635.722
297.494, 1628.285
297.977, 1622.530
298.459, 1617.083
298.941, 1609.196
299.423, 1599.159
299.905, 1589.969
300.387, 1584.600
300.869, 1581.484
301.351, 1577.536
301.833, 1571.984
302.316, 1565.294
302.798, 1557.123
303.280, 1547.852
303.762, 1539.440
304.244, 1533.134
304.726, 1528.511
305.208, 1525.424
305.690, 1524.771
306.172, 1523.854
306.655, 1520.656
307.137, 1515.186
307.619, 1507.548
308.101, 1495.425
308.583, 1482.207
309.065, 1471.489
309.547, 1463.749
310.030, 1458.948
310.512, 1460.011
310.994, 1464.469
311.476, 1465.597
311.958, 1457.724
312.440, 1446.541
312.922, 1436.234
313.404, 1427.715
313.886, 1419.807
314.369, 1410.386
314.851, 1401.032
315.333, 1395.429
315.815, 1400.508
316.297, 1405.861
316.779, 1404.404
317.261, 1392.741
317.743, 1382.148
318.225, 1377.934
318.708, 1377.449
319.190, 1376.237
319.672, 1372.006
320.154, 1367.568
320.636, 1364.217
321.118, 1362.383
321.600, 1360.477
322.082, 1357.655
322.565, 1354.660
323.047, 1352.524
323.529, 1353.194
324.011, 1353.022
324.493, 1349.912
324.975, 1342.477
325.457, 1338.556
325.939, 1343.136
326.422, 1349.949
326.904, 1352.231
327.386, 1348.295
327.868, 1341.007
328.350, 1328.354
328.832, 1309.052
329.314, 1297.244
329.796, 1297.023
330.278, 1301.718
330.760, 1305.535
331.243, 1307.534
331.725, 1308.415
332.207, 1303.236
332.689, 1305.793
333.171, 1306.472
333.653, 1305.374
334.135, 1297.177
334.617, 1298.147
335.100, 1295.443
335.582, 1292.589
336.064, 1294.849
336.546, 1287.685
337.028, 1289.863
337.510, 1288.312
337.992, 1288.469
338.474, 1284.929
338.957, 1282.531
339.439, 1280.701
339.921, 1287.760
340.403, 1303.808
340.885, 1313.835
341.367, 1317.365
341.849, 1317.519
342.331, 1314.628
342.813, 1308.736
343.296, 1305.919
343.778, 1306.985
344.260, 1310.600
344.742, 1315.042
345.224, 1320.377
345.706, 1324.981
346.188, 1326.989
346.670, 1327.337
347.152, 1331.137
347.635, 1339.453
348.117, 1347.988
348.599, 1348.444
349.081, 1343.005
349.563, 1342.390
350.045, 1359.002
350.527, 1382.249
351.009, 1387.046
351.491, 1371.723
351.974, 1355.661
352.456, 1360.472
352.938, 1378.231
353.420, 1391.393
353.902, 1388.923
354.384, 1380.825
354.866, 1377.511
355.349, 1378.844
355.831, 1381.767
356.313, 1385.121
356.795, 1388.604
357.277, 1391.835
357.759, 1395.010
358.241, 1397.717
358.723, 1395.891
359.205, 1391.720
359.688, 1390.349
360.170, 1398.704
360.652, 1404.698
361.134, 1408.458
361.616, 1403.293
362.098, 1409.652
362.580, 1411.394
363.062, 1412.946
363.544, 1420.927
364.027, 1417.061
364.509, 1424.940
364.991, 1427.272
365.473, 1440.402
365.955, 1453.516
366.437, 1455.612
366.919, 1452.297
367.401, 1453.382
367.884, 1463.007
368.366, 1474.083
368.848, 1483.389
369.330, 1488.034
369.812, 1501.693
370.294, 1508.915
370.776, 1524.130
371.258, 1537.407
371.741, 1548.847
372.223, 1552.950
372.705, 1566.526
373.187, 1576.306
373.669, 1585.930
374.151, 1600.841
374.633, 1606.012
375.115, 1620.837
375.597, 1631.808
376.079, 1644.543
376.562, 1652.670
377.044, 1671.006
377.526, 1690.116
378.008, 1710.882
378.490, 1729.485
378.972, 1742.336
379.454, 1749.349
379.936, 1758.726
380.419, 1772.015
380.901, 1786.719
381.383, 1797.173
381.865, 1803.679
382.347, 1810.769
382.829, 1822.469
383.311, 1836.951
383.793, 1847.781
384.276, 1854.067
384.758, 1859.668
385.240, 1869.020
385.722, 1881.212
386.204, 1893.731
386.686, 1903.785
387.168, 1914.056
387.650, 1929.954
388.132, 1951.361
388.615, 1970.800
389.097, 1982.381
389.579, 1988.661
390.061, 1993.239
390.543, 1994.771
391.025, 1997.391
391.507, 2004.498
391.989, 2015.379
392.471, 2026.417
392.954, 2036.003
393.436, 2045.250
393.918, 2055.329
394.400, 2068.430
394.882, 2079.256
395.364, 2082.250
395.846, 2081.811
396.328, 2087.603
396.810, 2104.246
397.293, 2125.446
397.775, 2149.689
398.257, 2178.825
398.739, 2205.435
399.221, 2225.838
399.703, 2244.387
400.185, 2266.333
400.668, 2296.846
401.150, 2323.558
401.632, 2339.970
402.114, 2345.073
402.596, 2366.017
403.078, 2405.325
403.560, 2457.516
404.042, 2521.579
404.524, 2602.187
405.007, 2676.162
405.489, 2737.598
405.971, 2790.961
406.453, 2851.908
406.935, 2921.133
407.417, 2996.414
407.899, 3074.638
408.381, 3156.436
408.863, 3250.050
409.346, 3357.435
409.828, 3474.381
410.310, 3598.843
410.792, 3730.704
411.274, 3862.996
411.756, 3989.614
412.238, 4114.833
412.720, 4247.711
413.203, 4387.487
413.685, 4531.986
414.167, 4682.614
414.649, 4835.921
415.131, 4985.428
415.613, 5127.635
416.095, 5267.518
416.577, 5417.418
417.060, 5572.906
417.542, 5715.986
418.024, 5829.170
418.506, 5927.520
418.988, 6022.632
419.470, 6125.339
419.952, 6212.705
420.434, 6276.402
420.916, 6318.365
421.398, 6344.485
421.881, 6350.595
422.363, 6345.923
422.845, 6336.658
423.327, 6327.961
423.809, 6297.282
424.291, 6239.884
424.773, 6160.302
425.255, 6064.277
425.738, 5950.132
426.220, 5822.170
426.702, 5677.530
427.184, 5519.131
427.666, 5361.952
428.148, 5210.010
428.630, 5054.929
429.112, 4889.590
429.595, 4707.613
430.077, 4533.168
430.559, 4367.668
431.041, 4211.798
431.523, 4059.705
432.005, 3911.354
432.487, 3772.346
432.969, 3647.482
433.451, 3535.503
433.934, 3426.018
434.416, 3318.498
434.898, 3215.529
435.380, 3120.942
435.862, 3033.796
436.344, 2949.935
436.826, 2864.781
437.308, 2784.346
437.790, 2721.851
438.273, 2675.335
438.755, 2628.141
439.237, 2558.535
439.719, 2484.696
440.201, 2429.926
440.683, 2405.013
441.165, 2388.282
441.647, 2372.067
442.129, 2353.711
442.612, 2327.563
443.094, 2278.462
443.576, 2231.492
444.058, 2200.314
444.540, 2188.422
445.022, 2179.357
445.504, 2171.656
445.987, 2164.085
446.469, 2155.277
446.951, 2143.798
447.433, 2132.646
447.915, 2120.909
448.397, 2109.216
448.879, 2103.034
449.361, 2104.584
449.843, 2108.923
450.326, 2113.080
450.808, 2115.523
451.290, 2123.560
451.772, 2140.436
452.254, 2159.768
452.736, 2167.458
453.218, 2161.320
453.700, 2158.087
454.182, 2158.303
454.665, 2165.552
455.147, 2174.335
455.629, 2200.133
456.111, 2221.802
456.593, 2239.562
457.075, 2241.708
457.557, 2264.016
458.039, 2278.243
458.522, 2292.140
459.004, 2317.288
459.486, 2321.706
459.968, 2346.671
460.450, 2363.436
460.932, 2383.953
461.414, 2396.342
461.896, 2411.244
462.379, 2427.395
462.861, 2441.432
463.343, 2467.693
463.825, 2485.583
464.307, 2484.072
464.789, 2477.215
465.271, 2470.276
465.753, 2463.075
466.235, 2449.726
466.717, 2424.369
467.200, 2396.206
467.682, 2367.776
468.164, 2336.285
468.646, 2319.183
469.128, 2298.587
469.610, 2274.688
470.092, 2237.584
470.574, 2217.525
471.057, 2190.637
471.539, 2163.471
472.021, 2145.816
472.503, 2116.974
472.985, 2074.807
473.467, 2037.840
473.949, 2008.250
474.431, 1985.333
474.914, 1958.982
475.396, 1926.173
475.878, 1890.173
476.360, 1855.168
476.842, 1821.588
477.324, 1792.099
477.806, 1769.978
478.288, 1752.484
478.770, 1735.404
479.253, 1718.393
479.735, 1702.233
480.217, 1688.285
480.699, 1675.393
481.181, 1661.858
481.663, 1645.965
482.145, 1630.384
482.627, 1617.373
483.109, 1606.204
483.592, 1593.313
484.074, 1573.773
484.556, 1555.006
485.038, 1541.408
485.520, 1538.321
486.002, 1530.290
486.484, 1513.026
486.966, 1492.315
487.448, 1476.684
487.931, 1469.216
488.413, 1461.141
488.895, 1449.323
489.377, 1434.340
489.859, 1425.426
490.341, 1423.965
490.823, 1424.592
491.306, 1423.298
491.788, 1420.162
492.270, 1418.865
492.752, 1421.344
493.234, 1422.234
493.716, 1407.919
494.198, 1381.599
494.680, 1363.410
495.162, 1370.811
495.645, 1388.272
496.127, 1392.183
496.609, 1382.595
497.091, 1369.724
497.573, 1357.975
498.055, 1348.292
498.537, 1341.354
499.019, 1335.237
499.501, 1335.464
499.984, 1353.114
500.466, 1379.015
500.948, 1392.495
501.430, 1376.559
501.912, 1357.422
502.394, 1343.884
502.876, 1336.497
503.358, 1334.658
503.841, 1344.861
504.323, 1355.432
504.805, 1356.648
505.287, 1342.882
505.769, 1332.334
506.251, 1327.489
506.733, 1326.534
507.215, 1325.191
507.698, 1323.537
508.180, 1320.979
508.662, 1317.074
509.144, 1311.941
509.626, 1305.517
510.108, 1297.273
510.590, 1291.232
511.072, 1295.676
511.554, 1305.691
512.036, 1306.809
512.519, 1290.171
513.001, 1271.082
513.483, 1269.479
513.965, 1279.648
514.447, 1283.799
514.929, 1263.340
515.411, 1240.407
515.893, 1231.184
516.375, 1238.640
516.858, 1247.176
517.340, 1254.344
517.822, 1258.786
518.304, 1259.353
518.786, 1259.604
519.268, 1250.885
519.750, 1222.690
520.232, 1184.708
520.715, 1170.036
521.197, 1190.535
521.679, 1214.587
522.161, 1230.125
522.643, 1236.677
523.125, 1241.179
523.607, 1243.613
524.089, 1244.091
524.571, 1241.304
525.054, 1235.686
525.536, 1233.107
526.018, 1235.421
526.500, 1240.488
526.982, 1246.301
527.464, 1252.341
527.946, 1255.990
528.429, 1256.338
528.911, 1253.247
529.393, 1243.681
529.875, 1227.069
530.357, 1215.926
530.839, 1223.873
531.321, 1237.901
531.803, 1245.214
532.286, 1236.627
532.768, 1228.250
533.250, 1222.186
533.732, 1219.168
534.214, 1221.045
534.696, 1238.582
535.178, 1249.102
535.660, 1241.529
536.142, 1212.712
536.625, 1204.440
537.107, 1226.209
537.589, 1253.061
538.071, 1261.549
538.553, 1249.627
539.035, 1243.638
539.517, 1247.908
539.999, 1258.028
540.481, 1267.503
540.964, 1276.174
541.446, 1283.102
541.928, 1286.483
542.410, 1288.328
542.892, 1291.737
543.374, 1296.651
543.856, 1302.480
544.338, 1309.539
544.820, 1316.898
545.303, 1323.102
545.785, 1326.421
546.267, 1331.820
546.749, 1343.819
547.231, 1358.675
547.713, 1370.258
548.195, 1373.265
548.677, 1377.179
549.159, 1383.537
549.642, 1392.352
550.124, 1405.354
550.606, 1423.725
551.088, 1444.536
551.570, 1466.556
552.052, 1490.358
552.534, 1511.783
553.016, 1529.783
553.499, 1547.562
553.981, 1570.570
554.463, 1598.297
554.945, 1624.690
555.427, 1647.528
555.909, 1668.316
556.391, 1690.951
556.873, 1714.627
557.356, 1734.148
557.838, 1741.419
558.320, 1762.171
558.802, 1779.647
559.284, 1794.030
559.766, 1796.046
560.248, 1814.031
560.730, 1825.614
561.213, 1836.940
561.695, 1857.171
562.177, 1860.986
562.659, 1881.077
563.141, 1894.670
563.623, 1911.236
564.105, 1921.368
564.587, 1933.483
565.069, 1952.041
565.552, 1967.033
566.034, 1976.420
566.516, 1993.175
566.998, 1996.768
567.480, 2011.910
567.962, 2032.039
568.444, 2041.750
568.926, 2058.622
569.408, 2072.768
569.891, 2074.519
570.373, 2097.827
570.855, 2111.812
571.337, 2116.221
571.819, 2138.791
572.301, 2144.521
572.783, 2156.265
573.265, 2172.528
573.747, 2185.591
574.230, 2188.396
574.712, 2198.466
575.194, 2219.697
575.676, 2231.006
576.158, 2221.076
576.640, 2206.316
577.122, 2204.244
577.604, 2222.876
578.086, 2235.256
578.569, 2235.717
579.051, 2228.599
579.533, 2224.172
580.015, 2221.782
580.497, 2228.599
580.979, 2256.837
581.461, 2297.447
581.943, 2315.760
582.426, 2311.628
582.908, 2304.368
583.390, 2311.311
583.872, 2325.234
584.354, 2334.628
584.836, 2334.947
585.318, 2336.510
585.800, 2346.761
586.282, 2361.909
586.765, 2375.969
587.247, 2383.280
587.729, 2393.315
588.211, 2412.950
588.693, 2440.133
589.175, 2455.898
589.657, 2452.290
590.140, 2447.914
590.622, 2451.377
591.104, 2463.896
591.586, 2475.379
592.068, 2484.846
592.550, 2495.973
593.032, 2516.773
593.514, 2544.945
593.996, 2562.478
594.479, 2562.988
594.961, 2557.574
595.443, 2560.627
595.925, 2570.320
596.407, 2581.069
596.889, 2582.196
597.371, 2589.500
597.853, 2621.181
598.335, 2674.502
598.818, 2719.878
599.300, 2737.818
599.782, 2750.158
600.264, 2770.158
600.746, 2805.085
601.228, 2832.766
601.710, 2849.841
602.192, 2862.073
602.674, 2875.852
603.157, 2892.087
603.639, 2906.540
604.121, 2917.498
604.603, 2927.364
605.085, 2943.071
605.567, 2964.468
606.049, 2983.181
606.531, 2996.506
607.013, 3004.069
607.496, 3003.233
607.978, 2994.514
608.460, 2985.649
608.942, 2986.396
609.424, 2987.109
609.906, 2978.105
610.388, 2955.674
610.870, 2930.073
611.353, 2906.785
611.835, 2881.419
612.317, 2848.021
612.799, 2804.340
613.281, 2754.737
613.763, 2695.369
614.245, 2630.907
614.727, 2575.521
615.209, 2531.471
615.692, 2487.285
616.174, 2438.756
616.656, 2386.210
617.138, 2333.690
617.620, 2281.088
618.102, 2232.079
618.584, 2189.911
619.067, 2152.737
619.549, 2118.521
620.031, 2087.698
620.513, 2054.620
620.995, 2009.776
621.477, 1961.683
621.959, 1921.033
622.441, 1897.595
622.923, 1874.557
623.406, 1848.171
623.888, 1819.086
624.370, 1789.229
624.852, 1755.176
625.334, 1725.615
625.816, 1704.580
626.298, 1691.355
626.780, 1672.865
627.263, 1647.284
627.745, 1623.637
628.227, 1611.221
628.709, 1606.860
629.191, 1592.494
629.673, 1565.505
630.155, 1539.680
630.637, 1532.850
631.119, 1535.772
631.602, 1532.224
632.084, 1512.787
632.566, 1493.723
633.048, 1485.501
633.530, 1484.077
634.012, 1481.745
634.494, 1475.090
634.976, 1468.878
635.458, 1464.855
635.941, 1462.665
636.423, 1459.645
636.905, 1455.337
637.387, 1451.035
637.869, 1448.058
638.351, 1446.477
638.833, 1440.000
639.315, 1427.616
639.797, 1416.387
640.280, 1418.593
640.762, 1427.451
641.244, 1422.823
641.726, 1396.256
642.208, 1369.781
642.690, 1364.687
