##NAMES=Wolfeite
##RRUFFID=R050614
##IDEAL CHEMISTRY=Fe^2+^_2_PO_4_(OH)
##LOCALITY=Hagendorf, Bavaria
##OWNER=RRUFF
##SOURCE=University of Arizona Mineral Museum
##DESCRIPTION=Reddish-brown elongated prismatic crystals
##STATUS=The identification of this mineral has been confirmed by X-ray diffraction and chemical analysis
##URL=rruff.info/R050614
##MEASURED CHEMISTRY=(Fe^2+^_1.49_Mn^2+^_0.49_Mg_0.02_)_Î£=2_(P_1.00_O_4_)(OH)
91.11523, 9.255781
91.59735, 9.420987
92.07947, 9.275077
92.56158, 8.914233
93.04370, 8.641298
93.52582, 8.718089
94.00793, 8.998062
94.49006, 9.149655
94.97218, 9.110020
95.45429, 9.001431
95.93641, 9.056672
96.41853, 9.270336
96.90064, 9.420843
97.38276, 9.249025
97.86488, 8.799123
98.34699, 8.589685
98.82911, 8.786938
99.31123, 9.236335
99.79334, 9.402943
100.2755, 9.232692
100.7576, 8.961843
101.2397, 8.770554
101.7218, 8.649002
102.2039, 8.660526
102.6861, 8.888310
103.1682, 9.329655
103.6503, 9.498635
104.1324, 9.283463
104.6145, 8.921505
105.0966, 8.690358
105.5788, 8.635392
106.0609, 8.638699
106.5430, 8.690950
107.0251, 8.830779
107.5072, 8.874026
107.9893, 8.676684
108.4715, 8.418703
108.9536, 8.422670
109.4357, 8.922611
109.9178, 9.476520
110.3999, 9.949267
110.8820, 10.24891
111.3642, 10.61199
111.8463, 11.00830
112.3284, 11.47008
112.8105, 12.08598
113.2926, 12.85817
113.7747, 13.80365
114.2569, 14.92594
114.7390, 16.35088
115.2211, 17.81695
115.7032, 19.21484
116.1853, 20.57739
116.6674, 22.06457
117.1496, 23.66902
117.6317, 25.47091
118.1138, 27.51894
118.5959, 29.86665
119.0780, 32.44859
119.5602, 35.12346
120.0423, 37.93196
120.5244, 41.20732
121.0065, 45.24199
121.4886, 49.83786
121.9707, 54.75512
122.4529, 60.30513
122.9350, 65.83804
123.4171, 70.83070
123.8992, 75.25581
124.3813, 79.20475
124.8634, 82.67451
125.3456, 85.71763
125.8277, 88.46482
126.3098, 90.79900
126.7919, 92.90572
127.2740, 94.92068
127.7561, 96.76629
128.2383, 98.88112
128.7204, 101.8948
129.2025, 105.7002
129.6846, 109.7341
130.1667, 113.6164
130.6488, 117.4197
131.1310, 121.6297
131.6131, 126.3497
132.0952, 131.4058
132.5773, 136.4201
133.0594, 141.4096
133.5416, 146.6933
134.0237, 152.6853
134.5058, 159.3672
134.9879, 166.0385
135.4700, 172.8163
135.9521, 179.4240
136.4343, 185.1534
136.9164, 189.9403
137.3985, 194.1718
137.8806, 198.2604
138.3627, 202.2903
138.8448, 205.7494
139.3270, 208.5229
139.8091, 210.6692
140.2912, 212.6699
140.7733, 214.6392
141.2554, 216.2944
141.7375, 217.2459
142.2197, 217.2527
142.7018, 217.2065
143.1839, 217.1985
143.6660, 217.1941
144.1481, 217.6792
144.6303, 218.4858
145.1124, 219.9248
145.5945, 222.4026
146.0766, 226.3550
146.5587, 230.7270
147.0408, 235.1852
147.5230, 239.5152
148.0051, 244.6245
148.4872, 249.5551
148.9693, 253.6933
149.4514, 258.1689
149.9335, 263.6537
150.4157, 268.8232
150.8978, 273.2623
151.3799, 277.0470
151.8620, 280.1988
152.3441, 282.6261
152.8262, 284.4868
153.3084, 286.0033
153.7905, 289.1360
154.2726, 290.3765
154.7547, 288.2975
155.2368, 280.8285
155.7189, 273.4806
156.2011, 266.8315
156.6832, 260.6954
157.1653, 254.8143
157.6474, 248.9963
158.1295, 243.4845
158.6117, 238.3534
159.0938, 233.1530
159.5759, 228.9331
160.0580, 226.3884
160.5401, 225.1214
161.0222, 223.7981
161.5044, 221.1694
161.9865, 218.7883
162.4686, 217.7671
162.9507, 219.9137
163.4328, 221.7128
163.9149, 221.5108
164.3971, 219.6545
164.8792, 217.8379
165.3613, 216.8489
165.8434, 216.2591
166.3255, 215.6780
166.8076, 215.0693
167.2898, 214.3725
167.7719, 213.4935
168.2540, 212.4557
168.7361, 211.4553
169.2182, 210.5671
169.7004, 209.7924
170.1825, 209.1324
170.6646, 208.3534
171.1467, 207.8424
171.6288, 208.0597
172.1109, 208.9756
172.5931, 209.9150
173.0752, 210.3727
173.5573, 210.5300
174.0394, 210.6824
174.5215, 210.8600
175.0036, 211.1313
175.4858, 211.6721
175.9679, 212.4962
176.4500, 213.2093
176.9321, 213.5547
177.4142, 213.5477
177.8963, 213.2222
178.3785, 212.2521
178.8606, 211.0768
179.3427, 210.4615
179.8248, 210.4438
180.3069, 210.5969
180.7891, 210.4905
181.2712, 210.1929
181.7533, 209.9209
182.2354, 209.7809
182.7175, 209.7360
183.1996, 209.7222
183.6818, 209.7407
184.1639, 209.7644
184.6460, 209.8010
185.1281, 209.8328
185.6102, 209.7670
186.0923, 209.4610
186.5745, 209.0119
187.0566, 208.7481
187.5387, 208.6978
188.0208, 208.7732
188.5029, 208.8294
188.9850, 208.8797
189.4672, 209.0619
189.9493, 209.5234
190.4314, 210.2041
190.9135, 210.7446
191.3956, 211.0497
191.8778, 211.4095
192.3599, 212.3200
192.8420, 213.7800
193.3241, 215.4506
193.8062, 217.1598
194.2883, 218.9275
194.7705, 220.8533
195.2526, 222.9807
195.7347, 225.1833
196.2168, 227.3766
196.6989, 229.5950
197.1810, 231.3457
197.6632, 231.9480
198.1453, 231.4105
198.6274, 232.1100
199.1095, 234.6228
199.5916, 237.8004
200.0737, 239.1343
200.5559, 238.4371
201.0380, 237.2129
201.5201, 236.1399
202.0022, 235.2041
202.4843, 234.5912
202.9665, 234.4344
203.4486, 234.4891
203.9307, 234.2208
204.4128, 233.6309
204.8949, 232.7464
205.3770, 231.5476
205.8592, 230.0084
206.3413, 228.2807
206.8234, 226.2176
207.3055, 224.0784
207.7876, 222.5992
208.2697, 221.9514
208.7519, 221.4623
209.2340, 220.7685
209.7161, 219.8187
210.1982, 218.9339
210.6803, 218.2166
211.1624, 217.5255
211.6446, 216.3889
212.1267, 214.6144
212.6088, 212.8961
213.0909, 211.5921
213.5730, 210.7740
214.0551, 210.1394
214.5373, 209.7888
215.0194, 209.5710
215.5015, 209.0136
215.9836, 208.0033
216.4657, 206.8825
216.9479, 205.8360
217.4300, 204.9580
217.9121, 203.8189
218.3942, 202.3133
218.8763, 200.5685
219.3584, 199.0155
219.8406, 197.8416
220.3227, 196.5194
220.8048, 194.6952
221.2869, 192.0211
221.7690, 189.8122
222.2511, 188.2475
222.7333, 187.1419
223.2154, 186.0434
223.6975, 185.0262
224.1796, 183.8765
224.6617, 182.4407
225.1438, 180.5336
225.6260, 178.8475
226.1081, 177.4080
226.5902, 176.2076
227.0723, 175.2428
227.5544, 174.4238
228.0366, 173.9718
228.5187, 174.2023
229.0008, 175.9934
229.4829, 176.2220
229.9650, 174.1504
230.4471, 170.6846
230.9293, 168.2160
231.4114, 167.0630
231.8935, 166.3671
232.3756, 165.7905
232.8577, 165.3586
233.3398, 164.9495
233.8220, 164.5467
234.3041, 164.1677
234.7862, 163.8859
235.2683, 163.8069
235.7504, 163.6666
236.2325, 163.3504
236.7147, 162.8191
237.1968, 162.2133
237.6789, 161.3890
238.1610, 160.5554
238.6431, 160.1883
239.1253, 160.4702
239.6074, 160.9455
240.0895, 161.5242
240.5716, 162.4125
241.0537, 162.7215
241.5358, 161.9156
242.0180, 160.7872
242.5001, 161.1130
242.9822, 164.2832
243.4643, 166.6264
243.9464, 166.4976
244.4285, 162.6571
244.9107, 160.4748
245.3928, 160.5910
245.8749, 161.9553
246.3570, 162.7366
246.8391, 162.5845
247.3212, 162.4435
247.8034, 162.6381
248.2855, 163.2680
248.7676, 163.8283
249.2497, 164.3354
249.7318, 164.7697
250.2140, 165.0901
250.6961, 165.2460
251.1782, 165.3892
251.6603, 165.5667
252.1424, 165.7888
252.6245, 166.0072
253.1067, 166.2340
253.5888, 166.4522
254.0709, 166.6492
254.5530, 166.8476
255.0351, 166.9729
255.5172, 166.9526
255.9994, 166.7513
256.4815, 166.7645
256.9636, 166.9933
257.4457, 167.4318
257.9278, 168.1245
258.4099, 169.2269
258.8921, 170.2312
259.3742, 171.0343
259.8563, 171.6287
260.3384, 172.0872
260.8205, 172.3273
261.3026, 172.5358
261.7848, 172.9150
262.2669, 173.5245
262.7490, 174.1221
263.2311, 174.5987
263.7132, 174.9790
264.1953, 175.6433
264.6775, 176.6253
265.1596, 177.8304
265.6417, 179.3172
266.1238, 181.3309
266.6059, 182.6930
267.0880, 182.8642
267.5702, 182.1356
268.0523, 182.6120
268.5344, 184.7341
269.0165, 187.1733
269.4987, 188.9933
269.9808, 190.1575
270.4629, 190.8702
270.9450, 190.9343
271.4271, 190.6211
271.9092, 191.1016
272.3914, 192.5937
272.8735, 194.2586
273.3556, 195.5676
273.8377, 196.4917
274.3198, 197.2121
274.8019, 197.6519
275.2841, 197.9720
275.7662, 198.6312
276.2483, 199.6633
276.7304, 200.8810
277.2125, 202.2541
277.6946, 203.8193
278.1768, 205.0578
278.6589, 205.8343
279.1410, 206.4113
279.6231, 207.4111
280.1052, 208.9310
280.5873, 210.2919
281.0695, 210.9944
281.5516, 211.0555
282.0337, 211.5073
282.5158, 212.4639
282.9979, 213.6274
283.4800, 214.4902
283.9622, 215.0343
284.4443, 215.6299
284.9264, 216.5286
285.4085, 217.6651
285.8906, 218.5030
286.3727, 218.9920
286.8549, 219.3516
287.3370, 219.8900
287.8191, 220.5939
288.3012, 221.2244
288.7833, 221.8101
289.2654, 222.2483
289.7476, 222.0190
290.2297, 221.0525
290.7118, 219.9799
291.1939, 219.7583
291.6761, 220.1738
292.1582, 219.8408
292.6403, 217.9734
293.1224, 215.2999
293.6045, 213.5571
294.0866, 212.7665
294.5688, 212.0600
295.0509, 210.5432
295.5330, 208.4604
296.0151, 206.7047
296.4972, 205.5469
296.9793, 204.7105
297.4615, 203.8710
297.9436, 203.0056
298.4257, 201.9667
298.9078, 200.5827
299.3899, 198.9534
299.8720, 197.3056
300.3542, 195.6252
300.8363, 194.0157
301.3184, 192.6130
301.8005, 191.3833
302.2826, 190.2483
302.7647, 189.1961
303.2469, 188.1883
303.7290, 187.1695
304.2111, 186.1611
304.6932, 185.0552
305.1753, 183.6667
305.6574, 182.1019
306.1396, 180.6668
306.6217, 179.4502
307.1038, 178.4535
307.5859, 177.7718
308.0680, 177.4378
308.5501, 177.0411
309.0323, 176.1309
309.5144, 174.9728
309.9965, 173.9937
310.4786, 173.5553
310.9607, 173.2177
311.4428, 172.6273
311.9250, 171.7897
312.4071, 170.9606
312.8892, 170.2627
313.3713, 169.6823
313.8534, 169.2018
314.3355, 168.9258
314.8177, 168.6544
315.2998, 168.2968
315.7819, 167.8609
316.2640, 167.3769
316.7462, 166.8447
317.2283, 166.2802
317.7104, 165.6868
318.1925, 165.0408
318.6746, 164.4004
319.1567, 163.7666
319.6389, 163.1471
320.1210, 162.5809
320.6031, 162.0764
321.0852, 161.6305
321.5673, 161.2649
322.0494, 161.0761
322.5316, 160.7505
323.0137, 160.0593
323.4958, 159.2209
323.9779, 158.5897
324.4600, 158.4183
324.9421, 158.2909
325.4243, 158.0779
325.9064, 157.7541
326.3885, 157.4302
326.8706, 157.0606
327.3527, 156.7195
327.8348, 156.4791
328.3170, 156.3811
328.7991, 156.3376
329.2812, 156.1599
329.7633, 155.8227
330.2454, 156.2819
330.7275, 158.5172
331.2097, 160.7480
331.6918, 161.6835
332.1739, 160.5114
332.6560, 159.3237
333.1381, 158.1983
333.6202, 157.1863
334.1024, 156.5888
334.5845, 156.4107
335.0666, 156.6429
335.5487, 157.4223
336.0308, 159.1499
336.5129, 160.2485
336.9951, 160.6460
337.4772, 160.4263
337.9593, 159.5900
338.4414, 157.8020
338.9236, 156.3804
339.4057, 155.9477
339.8878, 156.5876
340.3699, 157.1728
340.8520, 157.7570
341.3341, 158.1917
341.8163, 158.2058
342.2984, 157.7500
342.7805, 157.3704
343.2626, 157.1390
343.7447, 157.1108
344.2268, 157.7963
344.7090, 159.3328
345.1911, 160.7793
345.6732, 161.0238
346.1553, 160.2343
346.6374, 159.7981
347.1195, 160.1213
347.6017, 160.7962
348.0838, 160.9303
348.5659, 160.5582
349.0480, 160.2226
349.5301, 160.5241
350.0122, 161.1496
350.4944, 161.1930
350.9765, 160.4256
351.4586, 159.4786
351.9407, 159.2294
352.4228, 159.4847
352.9049, 159.5996
353.3871, 158.9828
353.8692, 158.1496
354.3513, 157.8801
354.8334, 158.2387
355.3155, 158.5607
355.7976, 158.1268
356.2798, 157.3323
356.7619, 156.8105
357.2440, 157.0147
357.7261, 157.4157
358.2082, 157.7130
358.6903, 157.8977
359.1725, 157.9191
359.6546, 157.5253
360.1367, 157.0662
360.6188, 156.8757
361.1009, 157.2303
361.5831, 157.5579
362.0652, 157.5565
362.5473, 157.3414
363.0294, 157.1961
363.5115, 157.1929
363.9937, 157.3050
364.4758, 157.5573
364.9579, 158.0302
365.4400, 158.4001
365.9221, 158.4251
366.4042, 158.3714
366.8864, 158.5756
367.3685, 159.4859
367.8506, 160.2553
368.3327, 160.6394
368.8148, 160.5974
369.2969, 160.6028
369.7791, 160.6526
370.2612, 160.7573
370.7433, 160.9332
371.2254, 161.2913
371.7075, 161.5238
372.1896, 161.4232
372.6718, 161.1596
373.1539, 161.5220
373.6360, 162.9775
374.1181, 164.2938
374.6002, 164.8005
375.0823, 164.2115
375.5645, 163.8267
376.0466, 163.6313
376.5287, 163.6593
377.0108, 164.0550
377.4929, 164.9033
377.9750, 165.6772
378.4572, 166.1498
378.9393, 166.3656
379.4214, 166.7568
379.9035, 167.3684
380.3856, 167.9588
380.8677, 168.1653
381.3499, 168.0334
381.8320, 168.1821
382.3141, 168.8150
382.7962, 169.7216
383.2783, 170.4666
383.7604, 171.0577
384.2426, 171.6948
384.7247, 172.4992
385.2068, 173.4442
385.6889, 174.5661
386.1711, 175.9089
386.6532, 177.2141
387.1353, 178.1136
387.6174, 178.7538
388.0995, 179.5218
388.5816, 180.7566
389.0638, 182.1255
389.5459, 183.1876
390.0280, 183.9617
390.5101, 184.9982
390.9922, 186.8852
391.4743, 189.1425
391.9565, 191.2549
392.4386, 192.8836
392.9207, 194.5453
393.4028, 196.4658
393.8849, 198.6081
394.3670, 200.8855
394.8492, 203.0009
395.3313, 205.4118
395.8134, 208.5026
396.2955, 212.6869
396.7776, 216.5249
397.2597, 219.0965
397.7419, 221.2863
398.2240, 224.2790
398.7061, 228.4725
399.1882, 233.2058
399.6703, 238.7291
400.1524, 245.1196
400.6346, 250.4621
401.1167, 253.6250
401.5988, 256.6629
402.0809, 260.9857
402.5630, 267.3478
403.0451, 273.5434
403.5273, 279.3204
404.0094, 284.8222
404.4915, 290.3018
404.9736, 295.5920
405.4557, 301.2924
405.9378, 307.8797
406.4200, 315.4661
406.9021, 322.5838
407.3842, 329.0676
407.8663, 335.3015
408.3484, 341.7746
408.8306, 348.5243
409.3127, 355.1061
409.7948, 361.4296
410.2769, 367.4931
410.7590, 373.3532
411.2411, 379.0407
411.7233, 384.0146
412.2054, 387.7461
412.6875, 390.5199
413.1696, 393.1268
413.6517, 395.8911
414.1339, 397.9698
414.6160, 398.1060
415.0981, 396.7094
415.5802, 394.8788
416.0623, 393.2694
416.5444, 391.4228
417.0266, 388.8743
417.5087, 385.5914
417.9908, 381.9808
418.4729, 378.5150
418.9550, 374.7823
419.4371, 370.3762
419.9193, 364.5231
420.4014, 358.7076
420.8835, 353.7122
421.3656, 349.2916
421.8477, 344.5995
422.3298, 339.5668
422.8120, 334.1359
423.2941, 328.1984
423.7762, 321.7249
424.2583, 314.9781
424.7404, 307.7285
425.2225, 300.4185
425.7047, 293.3517
426.1868, 286.7471
426.6689, 280.1994
427.1510, 273.5211
427.6331, 266.7729
428.1152, 260.3353
428.5974, 254.0612
429.0795, 248.1994
429.5616, 242.8745
430.0437, 238.2057
430.5258, 233.5936
431.0079, 228.9490
431.4901, 224.4751
431.9722, 220.5361
432.4543, 217.1590
432.9364, 214.1353
433.4185, 211.4338
433.9007, 209.0574
434.3828, 207.2646
434.8649, 206.1105
435.3470, 204.8712
435.8291, 202.5232
436.3112, 199.4990
436.7934, 197.2893
437.2755, 196.3342
437.7576, 195.9538
438.2397, 195.4812
438.7218, 194.9155
439.2039, 194.2481
439.6861, 193.1283
440.1682, 192.0930
440.6503, 191.8530
441.1324, 192.4716
441.6145, 193.0951
442.0966, 193.1759
442.5788, 192.9998
443.0609, 192.8735
443.5430, 192.9020
444.0251, 192.9738
444.5072, 192.8965
444.9893, 192.7926
445.4715, 193.1011
445.9536, 194.5675
446.4357, 195.9301
446.9178, 196.5468
447.3999, 195.9447
447.8820, 195.8030
448.3642, 196.3834
448.8463, 197.3154
449.3284, 198.2199
449.8105, 199.0444
450.2926, 199.9390
450.7747, 200.9829
451.2569, 202.1340
451.7390, 203.0392
452.2211, 203.5650
452.7032, 204.1967
453.1853, 205.3574
453.6674, 207.1098
454.1496, 208.3079
454.6317, 208.7957
455.1138, 209.0183
455.5959, 209.7196
456.0781, 210.8389
456.5602, 211.6402
457.0423, 211.8001
457.5244, 211.5264
458.0065, 211.1266
458.4886, 210.6235
458.9708, 210.2043
459.4529, 210.2414
459.9350, 210.3879
460.4171, 210.0635
460.8992, 209.0755
461.3813, 207.9907
461.8635, 207.3800
462.3456, 206.9489
462.8277, 206.2130
463.3098, 204.9207
463.7919, 203.3099
464.2740, 201.3804
464.7562, 199.1609
465.2383, 197.0063
465.7204, 194.8750
466.2025, 192.9318
466.6846, 191.3167
467.1667, 190.2943
467.6489, 189.1970
468.1310, 188.1392
468.6131, 186.9348
469.0952, 185.1877
469.5773, 182.2698
470.0594, 179.8351
470.5416, 178.4255
471.0237, 178.0020
471.5058, 177.2100
471.9879, 175.9643
472.4700, 174.5390
472.9521, 173.0410
473.4343, 171.4406
473.9164, 170.3041
474.3985, 169.7900
474.8806, 169.5133
475.3627, 168.7780
475.8448, 167.6306
476.3270, 166.5458
476.8091, 165.7040
477.2912, 165.0779
477.7733, 164.7368
478.2554, 164.6570
478.7375, 164.4811
479.2197, 163.7747
479.7018, 162.8602
480.1839, 162.2010
480.6660, 161.9452
481.1482, 161.7974
481.6303, 161.6535
482.1124, 161.4755
482.5945, 161.1991
483.0766, 160.6228
483.5587, 160.1046
484.0409, 159.8551
484.5230, 159.8697
485.0051, 159.8107
485.4872, 159.6300
485.9693, 159.3471
486.4514, 158.9668
486.9336, 158.3941
487.4157, 157.8843
487.8978, 157.3764
488.3799, 156.9674
488.8620, 156.8507
489.3441, 157.2225
489.8263, 157.3936
490.3084, 157.1329
490.7905, 156.5058
491.2726, 155.9888
491.7547, 155.5814
492.2368, 155.2705
492.7190, 155.1920
493.2011, 155.2686
493.6832, 154.8795
494.1653, 153.8682
494.6474, 152.7605
495.1295, 152.1950
495.6117, 152.0710
496.0938, 152.0818
496.5759, 152.3616
497.0580, 152.5089
497.5401, 151.9205
498.0222, 150.7297
498.5044, 149.6470
498.9865, 149.1243
499.4686, 148.8343
499.9507, 148.5128
500.4328, 148.0942
500.9149, 147.7514
501.3971, 147.5772
501.8792, 147.4952
502.3613, 147.4155
502.8434, 147.5840
503.3256, 147.4535
503.8077, 146.7014
504.2898, 145.5141
504.7719, 144.7977
505.2540, 144.9471
505.7361, 144.9804
506.2183, 144.3828
506.7004, 142.9900
507.1825, 142.0945
507.6646, 141.8248
508.1467, 141.7785
508.6288, 141.5211
509.1110, 141.0550
509.5931, 140.5688
510.0752, 140.0384
510.5573, 139.6032
511.0394, 139.7020
511.5215, 140.2324
512.0037, 140.5410
512.4858, 139.9420
512.9679, 139.0456
513.4500, 138.8119
513.9321, 139.2634
514.4142, 139.7134
514.8964, 139.6794
515.3785, 139.3916
515.8606, 139.0436
516.3427, 138.3963
516.8248, 138.1937
517.3069, 139.1543
517.7891, 140.7027
518.2712, 141.7769
518.7533, 142.2691
519.2354, 142.1248
519.7175, 140.9292
520.1996, 138.7163
520.6818, 137.3976
521.1639, 137.4129
521.6460, 137.7809
522.1281, 137.9691
522.6102, 137.9558
523.0923, 137.8441
523.5745, 137.6152
524.0566, 137.3203
524.5387, 136.9675
525.0208, 136.5545
525.5029, 136.2973
525.9850, 136.0755
526.4672, 136.2098
526.9493, 138.1067
527.4314, 141.4865
527.9135, 143.7617
528.3956, 142.4121
528.8777, 139.4247
529.3599, 137.4525
529.8420, 136.7299
530.3241, 136.5335
530.8062, 136.5654
531.2883, 136.7756
531.7704, 137.1140
532.2526, 137.7629
532.7347, 138.2890
533.2168, 138.5351
533.6989, 138.5667
534.1810, 138.5431
534.6631, 138.1530
535.1453, 138.0657
535.6274, 138.5751
536.1095, 139.7108
536.5916, 140.5549
537.0737, 141.0402
537.5558, 141.3517
538.0380, 141.5303
538.5201, 141.5097
539.0023, 141.8896
539.4844, 142.8093
539.9665, 143.8757
540.4486, 144.3928
540.9307, 144.4371
541.4128, 144.6625
541.8950, 145.2234
542.3771, 146.1369
542.8592, 147.6298
543.3413, 149.5822
543.8234, 151.4704
544.3055, 153.0083
544.7877, 154.3039
545.2698, 155.3035
545.7519, 155.9614
546.2340, 156.9041
546.7161, 158.6064
547.1982, 160.6344
547.6804, 162.6459
548.1625, 164.6239
548.6446, 166.4955
549.1267, 168.1946
549.6088, 169.7947
550.0909, 171.4265
550.5731, 173.0286
551.0552, 174.7781
551.5373, 176.6942
552.0194, 178.7879
552.5015, 181.0993
552.9836, 183.6570
553.4658, 186.3371
553.9479, 189.1272
554.4300, 192.0024
554.9121, 194.7549
555.3942, 197.3657
555.8763, 199.7427
556.3585, 201.4403
556.8406, 202.8005
557.3227, 204.8081
557.8048, 208.3424
558.2869, 211.7618
558.7690, 213.4280
559.2512, 213.7776
559.7333, 213.8875
560.2154, 214.2834
560.6975, 214.5348
561.1796, 214.3296
561.6617, 213.6475
562.1439, 213.0870
562.6260, 212.8511
563.1081, 212.7151
563.5902, 212.5489
564.0723, 212.3754
564.5544, 212.0877
565.0366, 211.4891
565.5187, 210.9630
566.0008, 211.0011
566.4829, 211.6147
566.9650, 212.8024
567.4471, 214.7819
567.9293, 217.1201
568.4114, 218.5387
568.8935, 219.1089
569.3756, 219.7619
569.8577, 221.2423
570.3398, 223.0765
570.8220, 224.3589
571.3041, 225.1039
571.7862, 225.6860
572.2683, 226.1418
572.7504, 226.6940
573.2325, 227.6335
573.7147, 229.1917
574.1968, 230.6608
574.6789, 231.6081
575.1610, 232.3740
575.6431, 233.4120
576.1252, 235.0858
576.6074, 236.6755
577.0895, 238.0629
577.5716, 239.3018
578.0537, 240.6042
578.5358, 241.9572
579.0179, 243.4157
579.5001, 245.0964
579.9822, 246.9746
580.4643, 248.3669
580.9464, 249.2237
581.4285, 249.9253
581.9106, 250.7869
582.3928, 251.7652
582.8749, 252.7002
583.3570, 253.5637
583.8391, 254.4367
584.3212, 255.2561
584.8033, 256.1738
585.2855, 257.4581
585.7676, 259.4748
586.2498, 261.5928
586.7319, 263.4633
587.2140, 265.1961
