##NAMES=Wolfeite
##RRUFFID=R050614
##IDEAL CHEMISTRY=Fe^2+^_2_PO_4_(OH)
##LOCALITY=Hagendorf, Bavaria
##OWNER=RRUFF
##SOURCE=University of Arizona Mineral Museum
##DESCRIPTION=Reddish-brown elongated prismatic crystals
##STATUS=The identification of this mineral has been confirmed by X-ray diffraction and chemical analysis
##URL=rruff.info/R050614
##MEASURED CHEMISTRY=(Fe^2+^_1.49_Mn^2+^_0.49_Mg_0.02_)_Î£=2_(P_1.00_O_4_)(OH)
92.06543, 382.3668
92.54755, 383.2439
93.02966, 385.2994
93.51178, 385.4573
93.99390, 382.6823
94.47601, 377.1647
94.95813, 370.0441
95.44025, 362.7771
95.92236, 356.5919
96.40448, 351.5084
96.88660, 345.5196
97.36871, 338.0809
97.85082, 330.6430
98.33294, 324.1278
98.81506, 318.4541
99.29717, 312.7855
99.77929, 307.8789
100.2614, 303.7461
100.7435, 299.4108
101.2256, 293.9942
101.7078, 288.1197
102.1899, 283.3020
102.6720, 279.8153
103.1541, 277.5359
103.6362, 276.2366
104.1183, 275.8796
104.6005, 275.7376
105.0826, 275.2825
105.5647, 274.4973
106.0468, 273.4571
106.5289, 271.7248
107.0110, 269.9168
107.4931, 268.3421
107.9753, 267.0824
108.4574, 266.1348
108.9395, 265.4812
109.4216, 265.0301
109.9037, 265.0780
110.3858, 266.0531
110.8680, 267.3304
111.3501, 268.2332
111.8322, 268.3835
112.3143, 267.9091
112.7964, 267.6308
113.2785, 267.6521
113.7607, 267.7326
114.2428, 267.9140
114.7249, 268.1226
115.2070, 268.1848
115.6891, 267.9550
116.1712, 267.4236
116.6534, 266.9173
117.1355, 266.1899
117.6176, 265.6435
118.0997, 265.6739
118.5818, 266.3345
119.0639, 267.1671
119.5461, 267.8145
120.0282, 268.3098
120.5103, 268.7042
120.9924, 268.9211
121.4745, 269.0482
121.9566, 269.3563
122.4388, 270.1148
122.9209, 270.6417
123.4030, 270.5988
123.8851, 270.0204
124.3672, 269.0080
124.8493, 267.3917
125.3315, 265.0898
125.8136, 263.3138
126.2957, 262.5280
126.7778, 262.0427
127.2599, 261.7828
127.7420, 261.6496
128.2242, 261.3877
128.7063, 260.5915
129.1884, 258.8179
129.6705, 257.4093
130.1526, 256.4824
130.6347, 255.7803
131.1169, 255.1992
131.5990, 254.6844
132.0811, 254.1347
132.5632, 253.3241
133.0453, 251.9378
133.5274, 250.6567
134.0096, 249.3806
134.4917, 248.2573
134.9738, 247.5861
135.4559, 247.5694
135.9380, 247.9570
136.4201, 247.8882
136.9023, 247.2384
137.3844, 246.4277
137.8665, 245.5180
138.3486, 244.5537
138.8307, 243.7470
139.3128, 243.3071
139.7950, 243.0852
140.2771, 242.7172
140.7592, 242.1069
141.2413, 241.4220
141.7234, 240.8773
142.2055, 240.5265
142.6877, 240.0441
143.1698, 239.0269
143.6519, 237.8322
144.1340, 236.8454
144.6161, 236.1566
145.0982, 235.8016
145.5803, 235.9545
146.0625, 237.0574
146.5446, 237.9615
147.0267, 238.0702
147.5088, 237.7639
147.9909, 237.6509
148.4730, 238.2013
148.9552, 239.3659
149.4373, 240.1199
149.9194, 240.0723
150.4015, 239.9406
150.8836, 239.8712
151.3657, 239.8622
151.8479, 239.8868
152.3300, 239.9751
152.8121, 240.2458
153.2942, 239.7599
153.7763, 238.1166
154.2584, 236.2491
154.7406, 234.6337
155.2227, 233.2956
155.7048, 231.9179
156.1869, 230.1155
156.6690, 227.6878
157.1511, 225.5979
157.6333, 224.0260
158.1154, 222.6799
158.5975, 221.2528
159.0796, 219.6716
159.5617, 218.2198
160.0438, 217.3531
160.5260, 217.0798
161.0081, 216.8724
161.4902, 216.7388
161.9723, 216.5826
162.4544, 216.1750
162.9365, 215.3686
163.4187, 214.5002
163.9008, 213.8845
164.3829, 213.5036
164.8650, 213.4210
165.3471, 214.0171
165.8292, 215.1205
166.3113, 215.5360
166.7935, 214.5690
167.2756, 213.2113
167.7577, 212.1349
168.2398, 211.3799
168.7219, 210.8918
169.2040, 210.7532
169.6862, 211.0547
170.1683, 211.0813
170.6504, 210.2355
171.1325, 209.4007
171.6146, 209.0989
172.0967, 209.4192
172.5789, 210.0317
173.0610, 210.4982
173.5431, 210.8359
174.0252, 210.9584
174.5073, 210.7283
174.9894, 210.4087
175.4716, 210.2096
175.9537, 210.1935
176.4358, 210.2490
176.9179, 210.1432
177.4000, 209.6674
177.8821, 209.3164
178.3643, 209.1954
178.8464, 209.1620
179.3285, 209.1215
179.8106, 209.0352
180.2927, 208.8465
180.7748, 208.3877
181.2570, 207.2210
181.7391, 206.3289
182.2212, 206.0350
182.7033, 206.0448
183.1854, 205.8587
183.6675, 205.1975
184.1497, 204.3115
184.6318, 204.0488
185.1139, 204.6925
185.5960, 205.3481
186.0781, 205.8124
186.5602, 206.0654
187.0423, 205.9883
187.5245, 205.3734
188.0066, 204.5276
188.4887, 204.1941
188.9708, 204.6456
189.4529, 205.1180
189.9350, 205.1041
190.4172, 204.6391
190.8993, 204.0823
191.3814, 203.3740
191.8635, 202.8081
192.3456, 202.8107
192.8277, 203.5991
193.3099, 204.6129
193.7920, 205.3424
194.2741, 205.7723
194.7562, 206.0378
195.2383, 206.0319
195.7204, 205.9530
196.2026, 205.9808
196.6847, 206.1868
197.1668, 206.4414
197.6489, 206.5437
198.1310, 206.4526
198.6131, 206.3242
199.0953, 206.2881
199.5774, 206.2036
200.0595, 205.9078
200.5416, 205.3240
201.0237, 204.5918
201.5058, 204.0127
201.9880, 203.5994
202.4701, 203.3392
202.9522, 203.3022
203.4343, 203.3573
203.9164, 202.7249
204.3985, 202.9778
204.8807, 202.9532
205.3628, 202.6662
205.8449, 201.3305
206.3270, 201.3490
206.8091, 200.8247
207.2912, 200.2782
207.7733, 200.4873
208.2555, 199.3040
208.7376, 199.5011
209.2197, 198.9855
209.7018, 198.8284
210.1839, 198.6990
210.6660, 198.5699
211.1482, 198.4493
211.6303, 198.3704
212.1124, 198.3568
212.5945, 198.3712
213.0766, 198.2489
213.5587, 197.7953
214.0409, 197.4444
214.5230, 197.3527
215.0051, 197.4152
215.4872, 197.4560
215.9693, 197.3952
216.4514, 197.2359
216.9336, 196.9783
217.4157, 196.5359
217.8978, 196.1284
218.3799, 195.9156
218.8620, 195.8012
219.3441, 195.4966
219.8263, 194.7832
220.3084, 193.8853
220.7905, 193.4364
221.2726, 193.7410
221.7547, 193.9179
222.2368, 193.4633
222.7190, 192.4917
223.2011, 191.4254
223.6832, 190.3037
224.1653, 189.3316
224.6474, 188.8465
225.1295, 188.9991
225.6117, 189.2631
226.0938, 189.3252
226.5759, 189.1993
227.0580, 188.9865
227.5401, 188.6350
228.0222, 188.2831
228.5043, 188.1058
228.9865, 188.1416
229.4686, 188.2339
229.9507, 188.3087
230.4328, 188.3652
230.9149, 188.2581
231.3970, 187.7865
231.8792, 187.2411
232.3613, 186.8118
232.8434, 186.5143
233.3255, 186.4389
233.8076, 186.8517
234.2897, 187.8280
234.7719, 188.4114
235.2540, 188.0047
235.7361, 187.3730
236.2182, 186.9174
236.7003, 186.7045
237.1824, 186.6990
237.6646, 186.9685
238.1467, 187.6114
238.6288, 187.9751
239.1109, 187.8062
239.5930, 187.4355
240.0751, 186.9055
240.5573, 186.2692
241.0394, 185.7250
241.5215, 185.5632
242.0036, 185.9109
242.4857, 186.1171
242.9678, 185.9837
243.4500, 185.8307
243.9321, 185.7844
244.4142, 185.8731
244.8963, 186.0860
245.3784, 186.5031
245.8605, 187.3188
246.3427, 187.6045
246.8248, 186.7895
247.3069, 185.9625
247.7890, 185.7147
248.2711, 186.0272
248.7532, 186.4596
249.2354, 186.5224
249.7175, 186.0741
250.1996, 185.8727
250.6817, 186.2631
251.1638, 186.5687
251.6459, 186.3678
252.1281, 185.7337
252.6102, 185.0811
253.0923, 184.8293
253.5744, 185.0718
254.0565, 185.1406
254.5386, 184.9328
255.0208, 184.6784
255.5029, 184.4032
255.9850, 184.1564
256.4671, 184.0398
256.9492, 184.1535
257.4313, 184.5179
257.9135, 184.8737
258.3956, 185.4886
258.8777, 185.8491
259.3598, 185.4951
259.8419, 184.6460
260.3240, 183.9833
260.8062, 184.0651
261.2883, 184.8860
261.7704, 185.3196
262.2525, 185.0266
262.7346, 184.7892
263.2167, 185.0451
263.6989, 185.6339
264.1810, 186.0749
264.6631, 186.0374
265.1452, 185.5877
265.6273, 185.3204
266.1094, 185.2319
266.5916, 185.2839
267.0737, 185.5840
267.5558, 186.0227
268.0379, 186.3350
268.5200, 186.3542
269.0021, 186.1631
269.4843, 186.1127
269.9664, 186.2165
270.4485, 186.4043
270.9306, 186.8521
271.4127, 187.3663
271.8948, 187.4702
272.3770, 186.8730
272.8591, 185.8897
273.3412, 185.3219
273.8233, 185.1538
274.3054, 185.2766
274.7875, 186.0168
275.2697, 186.9873
275.7518, 187.3875
276.2339, 186.8571
276.7160, 185.8573
277.1981, 185.2168
277.6802, 184.9165
278.1623, 184.8126
278.6444, 184.9781
279.1266, 185.2910
279.6087, 185.5686
280.0908, 185.7792
280.5729, 185.8943
281.0550, 185.8473
281.5371, 185.6501
282.0193, 185.3855
282.5014, 185.0105
282.9835, 184.6018
283.4656, 184.2776
283.9477, 184.0659
284.4298, 183.8931
284.9120, 183.6848
285.3941, 183.4462
285.8762, 183.2241
286.3583, 183.0591
286.8404, 182.9002
287.3225, 182.6570
287.8047, 182.3082
288.2868, 181.9934
288.7689, 181.8321
289.2510, 181.8006
289.7331, 181.8139
290.2152, 181.9286
290.6974, 182.0411
291.1795, 182.1184
291.6616, 182.1665
292.1437, 181.9299
292.6258, 180.9465
293.1079, 179.6253
293.5901, 178.9456
294.0722, 179.4404
294.5543, 180.1156
295.0364, 180.0988
295.5185, 179.4241
296.0006, 178.7079
296.4828, 178.2054
296.9649, 177.8516
297.4470, 177.4986
297.9291, 177.1125
298.4112, 176.7955
298.8933, 176.7033
299.3755, 176.7844
299.8576, 176.7100
300.3397, 176.3131
300.8218, 175.7666
301.3039, 175.2715
301.7860, 174.8118
302.2682, 174.5129
302.7503, 174.6333
303.2324, 175.0037
303.7145, 174.9811
304.1966, 174.2630
304.6787, 173.3914
305.1609, 173.0457
305.6430, 173.1524
306.1251, 173.0374
306.6072, 171.9798
307.0893, 170.5482
307.5714, 170.1564
308.0536, 171.2940
308.5357, 172.5344
309.0178, 172.5881
309.4999, 171.7783
309.9820, 170.8452
310.4641, 169.8379
310.9463, 168.9202
311.4284, 168.3930
311.9105, 168.3139
312.3926, 168.3523
312.8747, 168.4074
313.3568, 168.4158
313.8390, 168.2368
314.3211, 167.7041
314.8032, 167.1192
315.2853, 166.7080
315.7674, 166.4694
316.2495, 166.6122
316.7317, 167.6707
317.2138, 168.9211
317.6959, 169.2227
318.1780, 168.2334
318.6601, 166.9763
319.1422, 166.1595
319.6243, 165.7338
320.1064, 165.3732
320.5886, 164.9175
321.0707, 164.5709
321.5528, 164.6476
322.0349, 165.1858
322.5170, 165.5976
322.9991, 165.5909
323.4813, 165.2195
323.9634, 164.5618
324.4455, 163.5014
324.9276, 162.4480
325.4097, 161.8183
325.8918, 161.5489
326.3740, 161.4531
326.8561, 161.5953
327.3382, 161.8284
327.8203, 161.9142
328.3024, 161.8218
328.7845, 161.6516
329.2667, 161.3302
329.7488, 160.9884
330.2309, 160.9835
330.7130, 161.8154
331.1951, 162.7035
331.6772, 162.7523
332.1594, 161.9749
332.6415, 161.2175
333.1236, 160.9191
333.6057, 160.9381
334.0878, 160.9162
334.5699, 160.7971
335.0521, 160.7199
335.5342, 160.8554
336.0163, 161.1340
336.4984, 161.2339
336.9805, 160.9718
337.4626, 160.5818
337.9448, 160.4399
338.4269, 160.5661
338.9090, 160.7149
339.3911, 160.8049
339.8732, 160.8494
340.3553, 160.8895
340.8375, 160.9488
341.3196, 160.9401
341.8017, 160.6573
342.2838, 160.1366
342.7659, 159.8648
343.2480, 160.2085
343.7302, 160.6902
344.2123, 160.7391
344.6944, 160.3177
345.1765, 159.8798
345.6586, 159.7715
346.1407, 159.9450
346.6229, 160.0031
347.1050, 159.7005
347.5871, 159.4990
348.0692, 159.4253
348.5513, 159.9814
349.0334, 160.2602
349.5156, 160.2764
349.9977, 159.2439
350.4798, 159.5656
350.9619, 159.3446
351.4440, 159.1014
351.9261, 159.6137
352.4083, 158.7337
352.8904, 159.2341
353.3725, 159.1835
353.8546, 159.3850
354.3367, 159.0405
354.8188, 158.8646
355.3010, 159.2350
355.7831, 159.3029
356.2652, 158.8955
356.7473, 159.1131
357.2294, 158.2141
357.7115, 157.6841
358.1937, 157.1768
358.6758, 156.8677
359.1579, 156.7379
359.6400, 156.9277
360.1221, 157.1404
360.6042, 157.1919
361.0863, 157.1439
361.5685, 157.1835
362.0506, 157.4267
362.5327, 157.8181
363.0148, 158.1304
363.4969, 158.5029
363.9790, 158.6321
364.4612, 158.2439
364.9433, 157.6766
365.4254, 157.3797
365.9075, 157.4943
366.3896, 157.7718
366.8717, 157.7966
367.3539, 157.3236
367.8360, 157.1700
368.3181, 157.5459
368.8002, 158.0545
369.2823, 158.5294
369.7644, 158.8991
370.2466, 159.0611
370.7287, 158.8901
371.2108, 158.3581
371.6929, 157.9687
372.1750, 157.8033
372.6571, 157.6792
373.1393, 157.5148
373.6214, 157.3576
374.1035, 157.3056
374.5856, 157.4187
375.0677, 157.6410
375.5498, 157.7872
376.0320, 157.7385
376.5141, 157.7934
376.9962, 158.0882
377.4783, 158.4239
377.9604, 158.5874
378.4425, 158.5436
378.9247, 158.4704
379.4068, 158.6584
379.8889, 159.2575
380.3710, 159.5898
380.8531, 159.4119
381.3352, 159.1861
381.8174, 159.0538
382.2995, 159.0424
382.7816, 159.1690
383.2637, 159.4972
383.7458, 159.9753
384.2279, 160.2099
384.7101, 159.9296
385.1922, 159.8248
385.6743, 160.0702
386.1564, 160.5910
386.6385, 161.4051
387.1206, 162.5766
387.6028, 163.7152
388.0849, 164.0203
388.5670, 163.2107
389.0491, 162.9173
389.5312, 164.2009
390.0133, 165.6428
390.4955, 166.1282
390.9776, 165.6486
391.4597, 165.3223
391.9418, 166.2790
392.4239, 168.2510
392.9060, 169.5377
393.3882, 169.5905
393.8703, 169.7211
394.3524, 171.0341
394.8345, 173.0428
395.3166, 174.6975
395.7987, 175.4030
396.2809, 175.7222
396.7630, 176.3703
397.2451, 177.3622
397.7272, 178.5479
398.2093, 179.9477
398.6914, 181.4727
399.1736, 182.9314
399.6557, 184.2597
400.1378, 185.7562
400.6199, 187.8041
401.1020, 190.1638
401.5841, 192.0966
402.0662, 193.3079
402.5483, 194.4373
403.0305, 196.4165
403.5126, 199.1816
403.9947, 201.4715
404.4768, 202.5737
404.9589, 203.4300
405.4410, 205.0263
405.9232, 207.3325
406.4053, 209.5544
406.8874, 211.1281
407.3695, 212.1958
407.8516, 213.5801
408.3337, 215.4929
408.8159, 217.4215
409.2980, 219.3407
409.7801, 221.1496
410.2622, 222.6781
410.7443, 223.8797
411.2264, 224.8293
411.7086, 225.6550
412.1907, 226.3712
412.6728, 226.8788
413.1549, 226.9809
413.6370, 227.0379
414.1191, 227.4133
414.6013, 228.0198
415.0834, 228.4375
415.5655, 228.3344
416.0476, 227.7265
416.5297, 226.8961
417.0118, 225.4977
417.4940, 224.2723
417.9761, 223.6021
418.4582, 223.0751
418.9403, 222.1503
419.4224, 220.6229
419.9045, 218.7995
420.3867, 217.2079
420.8688, 215.9788
421.3509, 214.6582
421.8330, 213.4421
422.3151, 211.9663
422.7972, 209.8849
423.2794, 207.3253
423.7615, 204.7652
424.2436, 202.6412
424.7257, 200.8524
425.2078, 198.6570
425.6899, 195.7977
426.1721, 192.9794
426.6542, 190.4099
427.1363, 188.0208
427.6184, 185.7093
428.1005, 183.4277
428.5826, 181.2921
429.0648, 179.5179
429.5469, 178.0994
430.0290, 176.6449
430.5111, 174.9370
430.9932, 173.3396
431.4753, 172.2222
431.9575, 171.5308
432.4396, 170.8200
432.9217, 169.7915
433.4038, 168.6444
433.8859, 167.6999
434.3680, 166.9819
434.8502, 166.4367
435.3323, 166.1809
435.8144, 166.0402
436.2965, 165.5158
436.7786, 164.2157
437.2607, 163.0996
437.7429, 162.8774
438.2250, 163.2152
438.7071, 163.3310
439.1892, 162.9682
439.6713, 162.4088
440.1534, 162.0010
440.6356, 161.7285
441.1177, 161.7393
441.5998, 162.4035
442.0819, 163.0693
442.5640, 163.2140
443.0461, 162.8974
443.5282, 162.5014
444.0103, 162.2665
444.4925, 162.1822
444.9746, 162.1939
445.4567, 162.2330
445.9388, 162.4602
446.4209, 163.1758
446.9030, 163.9401
447.3852, 164.2138
447.8673, 163.9028
448.3494, 163.4783
448.8315, 163.5510
449.3136, 164.2164
449.7957, 164.8978
450.2779, 165.7970
450.7600, 166.5115
451.2421, 166.8707
451.7242, 166.9432
452.2063, 166.8248
452.6884, 166.5181
453.1706, 166.1859
453.6527, 166.2990
454.1348, 167.0727
454.6169, 167.6088
455.0990, 167.4252
455.5811, 167.0927
456.0633, 167.0266
456.5454, 167.2542
457.0275, 167.4540
457.5096, 167.3892
457.9917, 167.1077
458.4738, 166.7696
458.9560, 166.3770
459.4381, 165.9478
459.9202, 165.4911
460.4023, 165.0058
460.8844, 164.4740
461.3665, 163.8365
461.8487, 163.2337
462.3308, 162.9059
462.8129, 162.7246
463.2950, 162.1650
463.7771, 160.9533
464.2592, 159.5775
464.7414, 158.7883
465.2235, 158.6843
465.7056, 158.3962
466.1877, 157.6510
466.6698, 156.8160
467.1519, 156.2053
467.6341, 155.7920
468.1162, 155.3736
468.5983, 154.8311
469.0804, 154.1674
469.5625, 153.4130
470.0446, 152.5022
470.5268, 151.5833
471.0089, 150.4153
471.4910, 149.3929
471.9731, 149.0878
472.4552, 149.4952
472.9373, 149.8998
473.4195, 149.4567
473.9016, 148.0810
474.3837, 147.0199
474.8658, 146.3672
475.3479, 145.9632
475.8300, 145.8851
476.3122, 145.9878
476.7943, 146.1395
477.2764, 146.3142
477.7585, 146.3190
478.2406, 145.7499
478.7227, 144.5267
479.2049, 143.4620
479.6870, 142.6295
480.1691, 142.0908
480.6512, 142.0147
481.1333, 142.2984
481.6154, 142.4693
482.0976, 142.2769
482.5797, 141.8491
483.0618, 141.3139
483.5439, 140.6672
484.0260, 140.1641
484.5081, 140.0234
484.9902, 140.0374
485.4724, 139.7343
485.9545, 138.9850
486.4366, 138.3221
486.9187, 137.8830
487.4008, 137.6504
487.8829, 137.6496
488.3651, 137.8701
488.8472, 138.1818
489.3293, 138.5106
489.8114, 138.8560
490.2935, 138.8836
490.7756, 138.5898
491.2578, 138.0489
491.7399, 136.9372
492.2220, 135.7189
492.7041, 135.0609
493.1862, 135.1698
493.6683, 135.6302
494.1505, 135.8717
494.6326, 135.8905
495.1147, 135.7069
495.5968, 134.9124
496.0789, 134.3181
496.5610, 134.3000
497.0432, 134.6942
497.5253, 135.2529
498.0074, 135.9526
498.4895, 136.4458
498.9716, 135.8902
499.4537, 134.0692
499.9359, 132.5573
500.4180, 131.6953
500.9001, 131.3129
501.3822, 131.3553
501.8643, 131.7769
502.3464, 132.2244
502.8286, 132.5776
503.3107, 132.8383
503.7928, 133.0414
504.2749, 133.1867
504.7570, 133.1553
505.2391, 132.8741
505.7213, 132.3758
506.2034, 131.7244
506.6855, 130.7598
507.1676, 130.0256
507.6497, 129.6884
508.1318, 129.6423
508.6140, 129.8813
509.0961, 130.3526
509.5782, 130.7982
510.0603, 131.0129
510.5424, 130.9968
511.0245, 130.7125
511.5067, 129.6911
511.9888, 128.9710
512.4709, 128.9275
512.9530, 129.1676
513.4351, 129.2655
513.9172, 129.1105
514.3994, 128.8827
514.8815, 128.8348
515.3636, 128.9956
515.8457, 128.9366
516.3278, 128.4682
516.8099, 128.0292
517.2921, 127.8937
517.7742, 127.8753
518.2563, 127.6480
518.7384, 127.0419
519.2205, 126.4088
519.7026, 126.1149
520.1848, 126.1385
520.6669, 126.3516
521.1490, 126.8081
521.6311, 127.2839
522.1132, 127.5608
522.5953, 127.6613
523.0775, 127.6433
523.5596, 127.4129
524.0417, 127.1590
524.5238, 127.1207
525.0059, 127.1748
525.4880, 126.8660
525.9702, 125.9607
526.4523, 124.9522
526.9344, 124.7223
527.4165, 125.7342
527.8986, 126.3378
528.3807, 126.3769
528.8629, 126.1933
529.3450, 125.8918
529.8271, 125.5252
530.3092, 125.1452
530.7913, 124.7771
531.2734, 124.4364
531.7556, 124.1375
532.2377, 123.8261
532.7198, 123.7154
533.2019, 124.0831
533.6840, 124.4603
534.1661, 124.5261
534.6483, 124.3446
535.1304, 124.2577
535.6125, 124.5905
536.0946, 125.0555
536.5767, 125.0336
537.0588, 124.4932
537.5410, 124.1317
538.0231, 124.2634
538.5052, 124.6801
538.9873, 125.0597
539.4694, 125.3965
539.9515, 125.7535
540.4337, 126.2993
540.9158, 126.7748
541.3979, 126.7723
541.8800, 126.3876
542.3621, 126.2282
542.8442, 126.7115
543.3264, 127.6052
543.8085, 128.1133
544.2906, 127.7425
544.7726, 127.6626
545.2548, 128.2636
545.7369, 128.8678
546.2190, 128.8419
546.7011, 128.2957
547.1832, 127.8332
547.6653, 127.8982
548.1475, 128.4193
548.6296, 129.2204
549.1117, 130.5821
549.5938, 131.4810
550.0759, 130.8264
550.5580, 130.1163
551.0402, 130.7105
551.5223, 132.6373
552.0044, 134.4211
552.4865, 135.2074
552.9686, 135.3001
553.4507, 135.0779
553.9329, 134.5556
554.4150, 134.2613
554.8971, 134.5929
555.3792, 135.2374
555.8613, 135.3007
556.3434, 134.3632
556.8256, 133.9985
557.3077, 135.0190
557.7898, 136.3851
558.2719, 137.1363
558.7540, 137.2699
559.2361, 137.3297
559.7183, 137.7130
560.2004, 138.2888
560.6825, 138.4708
561.1646, 137.7722
561.6467, 137.5220
562.1288, 138.3147
562.6110, 139.1742
563.0931, 139.2482
563.5752, 138.6458
564.0573, 138.2480
564.5394, 138.8159
565.0215, 139.9450
565.5037, 140.5942
565.9858, 140.7179
566.4679, 140.6476
566.9500, 140.2917
567.4321, 139.9858
567.9142, 140.1904
568.3964, 140.9351
568.8785, 141.7297
569.3606, 142.4680
569.8427, 143.1388
570.3248, 143.7659
570.8069, 144.3263
571.2891, 144.6902
571.7712, 144.7413
572.2533, 144.6762
572.7354, 145.0016
573.2175, 146.1729
573.6996, 146.9256
574.1818, 146.9885
574.6639, 146.9032
575.1460, 146.9272
575.6281, 147.0876
576.1102, 147.3435
576.5923, 147.6723
577.0745, 148.0791
577.5566, 148.6146
578.0387, 149.3235
578.5208, 149.9102
579.0029, 150.2321
579.4850, 150.4967
579.9672, 150.9333
580.4493, 151.4719
580.9314, 151.8066
581.4135, 151.6217
581.8956, 151.3553
582.3777, 151.4579
582.8599, 151.8512
583.3420, 152.2757
583.8241, 152.6704
584.3062, 152.9337
584.7883, 152.8963
585.2704, 152.4666
585.7526, 152.1823
586.2347, 151.9978
586.7168, 151.9940
587.1989, 152.3310
587.6810, 152.8341
588.1631, 153.2655
