##NAMES=Wollastonite
##RRUFFID=R040008
##IDEAL CHEMISTRY=CaSiO_3_
##LOCALITY=Lake Baikal, Siberia, Russia
##OWNER=RRUFF
##SOURCE=University of Arizona Mineral Museum
##DESCRIPTION=2M polytype. Colorless parallel acicular crystals
##STATUS=The identification of this mineral has been confirmed by X-ray diffraction and chemical analysis
##URL=rruff.info/R040008
##MEASURED CHEMISTRY=Ca_1.00_Si_1.00_O_3_; trace amounts of Fe and Mn
153.8242, 32614.72
154.3063, 32728.61
154.7885, 32865.19
155.2706, 33019.31
155.7527, 33167.41
156.2348, 33280.97
156.7169, 33400.98
157.1990, 33553.12
157.6812, 33768.89
158.1633, 33989.61
158.6454, 34200.51
159.1275, 34396.91
159.6096, 34588.09
160.0917, 34755.62
160.5739, 34921.02
161.0560, 35107.13
161.5381, 35348.33
162.0202, 35587.20
162.5023, 35796.21
162.9844, 35967.06
163.4666, 36126.99
163.9487, 36307.42
164.4308, 36482.90
164.9129, 36611.37
165.3950, 36663.52
165.8771, 36671.43
166.3593, 36651.55
166.8414, 36596.69
167.3235, 36543.59
167.8056, 36514.07
168.2877, 36504.91
168.7698, 36505.76
169.2519, 36510.05
169.7341, 36523.24
170.2162, 36553.80
170.6983, 36618.10
171.1804, 36680.88
171.6625, 36709.56
172.1446, 36708.87
172.6268, 36705.43
173.1089, 36706.04
173.5910, 36717.06
174.0731, 36748.42
174.5552, 36810.82
175.0373, 36889.83
175.5195, 36965.75
176.0016, 37039.17
176.4837, 37120.65
176.9658, 37229.79
177.4479, 37353.68
177.9300, 37462.71
178.4122, 37533.25
178.8943, 37584.45
179.3764, 37643.68
179.8585, 37710.02
180.3406, 37791.18
180.8227, 37908.07
181.3049, 38050.42
181.7870, 38183.38
182.2691, 38277.13
182.7512, 38347.77
183.2333, 38432.68
183.7154, 38534.52
184.1976, 38647.75
184.6797, 38772.13
185.1618, 38906.23
185.6439, 39029.24
186.1260, 39125.13
186.6081, 39198.79
187.0903, 39273.85
187.5724, 39357.18
188.0545, 39437.54
188.5366, 39484.83
189.0187, 39498.48
189.5008, 39530.71
189.9829, 39647.54
190.4651, 39832.99
190.9472, 39962.29
191.4293, 39994.61
191.9114, 39968.87
192.3935, 39998.32
192.8756, 40091.29
193.3578, 40177.34
193.8399, 40177.10
194.3220, 40093.17
194.8041, 40040.69
195.2862, 40056.93
195.7683, 40126.57
196.2505, 40174.95
196.7326, 40197.47
197.2147, 40218.58
197.6968, 40276.34
198.1789, 40375.39
198.6610, 40443.82
199.1432, 40437.57
199.6253, 40365.72
200.1074, 40372.68
200.5895, 40475.28
201.0716, 40616.80
201.5537, 40723.03
202.0359, 40788.76
202.5180, 40843.73
203.0001, 40895.18
203.4822, 40942.22
203.9643, 40985.79
204.4464, 41019.39
204.9286, 41054.25
205.4107, 41115.90
205.8928, 41213.71
206.3749, 41302.47
206.8570, 41359.22
207.3391, 41377.27
207.8212, 41405.15
208.3034, 41447.38
208.7855, 41498.38
209.2676, 41546.24
209.7497, 41594.37
210.2318, 41636.38
210.7139, 41665.46
211.1961, 41675.18
211.6782, 41706.63
212.1603, 41770.25
212.6424, 41855.41
213.1245, 41922.25
213.6066, 41956.45
214.0888, 42000.30
214.5709, 42085.96
215.0530, 42234.27
215.5351, 42354.42
216.0172, 42428.10
216.4993, 42464.63
216.9815, 42517.16
217.4636, 42583.75
217.9457, 42664.37
218.4278, 42764.30
218.9099, 42896.73
219.3920, 43009.47
219.8742, 43096.70
220.3563, 43158.06
220.8384, 43197.77
221.3205, 43204.29
221.8026, 43206.87
222.2847, 43230.44
222.7669, 43283.62
223.2490, 43343.15
223.7311, 43408.09
224.2132, 43479.85
224.6953, 43544.75
225.1774, 43596.52
225.6596, 43650.07
226.1417, 43721.92
226.6238, 43820.10
227.1059, 43917.24
227.5880, 44006.05
228.0701, 44084.08
228.5522, 44173.97
229.0344, 44292.52
229.5165, 44405.18
229.9986, 44468.45
230.4807, 44446.10
230.9628, 44439.49
231.4449, 44480.37
231.9271, 44579.16
232.4092, 44649.13
232.8913, 44667.36
233.3734, 44676.44
233.8555, 44739.21
234.3376, 44905.24
234.8198, 45042.98
235.3019, 45105.82
235.7840, 45070.66
236.2661, 45077.11
236.7482, 45149.02
237.2303, 45248.39
237.7125, 45313.81
238.1946, 45318.40
238.6767, 45334.10
239.1588, 45387.96
239.6409, 45495.31
240.1230, 45588.01
240.6052, 45658.71
241.0873, 45718.10
241.5694, 45781.69
242.0515, 45837.66
242.5336, 45915.56
243.0157, 46031.57
243.4979, 46206.48
243.9800, 46352.79
244.4621, 46465.98
244.9442, 46549.09
245.4263, 46607.69
245.9084, 46620.42
246.3905, 46637.80
246.8727, 46683.14
247.3548, 46777.67
247.8369, 46839.92
248.3190, 46854.52
248.8011, 46842.58
249.2832, 46852.06
249.7654, 46889.09
250.2475, 46941.24
250.7296, 47013.14
251.2117, 47141.54
251.6938, 47204.93
252.1759, 47174.83
252.6581, 47092.22
253.1402, 47058.69
253.6223, 47095.31
254.1044, 47150.47
254.5865, 47205.72
255.0686, 47274.87
255.5508, 47305.43
256.0329, 47264.26
256.5150, 47192.30
256.9971, 47212.25
257.4792, 47369.98
257.9613, 47536.92
258.4435, 47648.27
258.9256, 47678.63
259.4077, 47716.72
259.8898, 47763.73
260.3719, 47818.97
260.8540, 47883.46
261.3362, 47960.32
261.8183, 48038.85
262.3004, 48118.45
262.7825, 48206.91
263.2646, 48262.66
263.7467, 48264.82
264.2289, 48238.22
264.7110, 48268.43
265.1931, 48383.23
265.6752, 48495.83
266.1573, 48556.98
266.6394, 48553.97
267.1216, 48547.37
267.6037, 48535.30
268.0858, 48525.73
268.5679, 48544.61
269.0500, 48599.77
269.5321, 48665.71
270.0143, 48733.21
270.4964, 48806.13
270.9785, 48860.22
271.4606, 48882.32
271.9427, 48892.45
272.4248, 48952.81
272.9070, 49074.13
273.3891, 49213.28
273.8712, 49359.63
274.3533, 49521.27
274.8354, 49615.52
275.3175, 49607.49
275.7997, 49545.58
276.2818, 49566.66
276.7639, 49683.55
277.2460, 49827.95
277.7281, 49961.98
278.2102, 50084.35
278.6924, 50208.71
279.1745, 50344.34
279.6566, 50472.86
280.1387, 50540.49
280.6208, 50537.88
281.1029, 50527.09
281.5851, 50554.55
282.0672, 50620.19
282.5493, 50654.43
283.0314, 50642.53
283.5135, 50607.18
283.9956, 50600.02
284.4778, 50623.79
284.9599, 50651.98
285.4420, 50660.71
285.9241, 50653.94
286.4062, 50675.13
286.8883, 50731.91
287.3705, 50812.63
287.8526, 50905.05
288.3347, 51009.43
288.8168, 51099.08
289.2989, 51149.97
289.7810, 51168.35
290.2632, 51189.80
290.7453, 51220.58
291.2274, 51247.12
291.7095, 51225.05
292.1916, 51160.20
292.6737, 51134.62
293.1558, 51240.24
293.6379, 51429.54
294.1201, 51542.06
294.6022, 51551.05
295.0843, 51519.36
295.5664, 51522.53
296.0485, 51560.41
296.5306, 51624.12
297.0128, 51726.57
297.4949, 51852.13
297.9770, 51960.00
298.4591, 52042.90
298.9412, 52127.54
299.4233, 52253.48
299.9055, 52410.39
300.3876, 52556.41
300.8697, 52642.45
301.3518, 52707.84
301.8339, 52825.61
302.3160, 53010.06
302.7982, 53195.20
303.2803, 53310.69
303.7624, 53372.75
304.2445, 53430.43
304.7266, 53519.45
305.2087, 53609.33
305.6909, 53665.46
306.1730, 53682.66
306.6551, 53683.41
307.1372, 53685.32
307.6193, 53685.60
308.1014, 53677.94
308.5836, 53635.18
309.0657, 53600.88
309.5478, 53628.17
310.0299, 53725.75
310.5120, 53811.88
310.9941, 53814.25
311.4763, 53774.03
311.9584, 53750.71
312.4405, 53758.60
312.9226, 53799.36
313.4047, 53887.52
313.8868, 54025.75
314.3690, 54155.61
314.8511, 54238.30
315.3332, 54299.56
315.8153, 54368.64
316.2974, 54450.28
316.7795, 54548.54
317.2617, 54678.05
317.7438, 54838.56
318.2259, 54979.01
318.7080, 55080.64
319.1901, 55155.01
319.6722, 55212.24
320.1544, 55232.59
320.6365, 55257.79
321.1186, 55301.32
321.6007, 55361.50
322.0828, 55420.37
322.5649, 55487.39
323.0471, 55541.94
323.5292, 55569.48
324.0113, 55519.46
324.4934, 55493.20
324.9755, 55523.98
325.4576, 55601.32
325.9398, 55654.31
326.4219, 55636.15
326.9040, 55619.07
327.3861, 55641.57
327.8682, 55729.86
328.3503, 55828.41
328.8325, 55947.33
329.3146, 56077.51
329.7967, 56191.42
330.2788, 56298.62
330.7609, 56381.71
331.2430, 56428.47
331.7251, 56388.37
332.2072, 56402.51
332.6894, 56492.16
333.1715, 56634.17
333.6536, 56766.66
334.1357, 56900.35
334.6178, 57012.47
335.0999, 57082.91
335.5821, 57080.26
336.0642, 57141.84
336.5463, 57297.01
337.0284, 57492.73
337.5105, 57635.39
337.9926, 57717.87
338.4748, 57762.19
338.9569, 57769.44
339.4390, 57736.48
339.9211, 57693.55
340.4032, 57634.51
340.8853, 57576.86
341.3675, 57554.25
341.8496, 57571.96
342.3317, 57581.27
342.8138, 57574.74
343.2959, 57550.66
343.7780, 57477.85
344.2602, 57350.92
344.7423, 57210.23
345.2244, 57084.49
345.7065, 56977.43
346.1886, 56930.41
346.6707, 56978.23
347.1529, 57083.46
347.6350, 57142.15
348.1171, 57151.54
348.5992, 57152.61
349.0813, 57186.65
349.5634, 57239.94
350.0456, 57270.26
350.5277, 57244.69
351.0098, 57213.17
351.4919, 57278.25
351.9740, 57424.29
352.4561, 57535.02
352.9383, 57492.53
353.4204, 57370.07
353.9025, 57283.48
354.3846, 57261.77
354.8667, 57273.79
355.3488, 57300.79
355.8310, 57341.32
356.3131, 57388.51
356.7952, 57455.01
357.2773, 57519.10
357.7594, 57555.10
358.2415, 57549.46
358.7237, 57550.82
359.2058, 57603.29
359.6879, 57681.25
360.1700, 57738.73
360.6521, 57703.68
361.1342, 57682.02
361.6164, 57748.62
362.0985, 57926.18
362.5806, 58079.95
363.0627, 58166.88
363.5448, 58201.96
364.0269, 58203.04
364.5091, 58116.41
364.9912, 58051.99
365.4733, 58057.73
365.9554, 58138.80
366.4375, 58204.46
366.9196, 58236.54
367.4018, 58252.93
367.8839, 58268.01
368.3660, 58261.98
368.8481, 58279.95
369.3302, 58339.85
369.8123, 58435.60
370.2944, 58508.15
370.7766, 58530.35
371.2587, 58555.56
371.7408, 58616.25
372.2229, 58740.78
372.7050, 58839.88
373.1871, 58900.32
373.6693, 58932.14
374.1514, 58968.83
374.6335, 59011.95
375.1156, 59053.52
375.5977, 59084.00
376.0798, 59094.36
376.5620, 59144.04
377.0441, 59250.68
377.5262, 59375.15
378.0083, 59454.96
378.4904, 59489.31
378.9725, 59498.42
379.4547, 59477.41
379.9368, 59434.43
380.4189, 59432.49
380.9010, 59478.40
381.3831, 59543.70
381.8652, 59583.02
382.3474, 59605.57
382.8295, 59669.99
383.3116, 59809.23
383.7937, 59992.68
384.2758, 60171.93
384.7579, 60345.01
385.2401, 60487.47
385.7222, 60546.24
386.2043, 60563.18
386.6864, 60631.32
387.1685, 60790.48
387.6506, 60974.30
388.1328, 61128.56
388.6149, 61251.52
389.0970, 61332.05
389.5791, 61325.64
390.0612, 61295.25
390.5433, 61311.21
391.0255, 61402.45
391.5076, 61485.77
391.9897, 61496.28
392.4718, 61469.68
392.9539, 61468.63
393.4360, 61531.34
393.9182, 61617.72
394.4003, 61710.76
394.8824, 61808.82
395.3645, 61917.91
395.8466, 62047.34
396.3287, 62185.05
396.8109, 62319.26
397.2930, 62409.96
397.7751, 62532.30
398.2572, 62720.60
398.7393, 62970.76
399.2214, 63182.81
399.7036, 63319.51
400.1857, 63442.33
400.6678, 63585.95
401.1499, 63762.05
401.6320, 63942.36
402.1141, 64131.38
402.5963, 64325.14
403.0784, 64509.00
403.5605, 64676.89
404.0426, 64847.84
404.5247, 65022.66
405.0068, 65192.34
405.4890, 65420.82
405.9711, 65725.56
406.4532, 66065.63
406.9353, 66378.73
407.4174, 66658.63
407.8995, 66963.13
408.3816, 67320.73
408.8637, 67720.90
409.3459, 68117.76
409.8280, 68514.11
410.3101, 68903.50
410.7922, 69313.95
411.2743, 69721.84
411.7564, 70014.87
412.2386, 70165.08
412.7207, 70184.51
413.2028, 70072.47
413.6849, 69836.15
414.1670, 69534.24
414.6491, 69181.54
415.1313, 68792.70
415.6134, 68373.88
416.0955, 67910.79
416.5776, 67457.04
417.0597, 67068.18
417.5418, 66719.70
418.0240, 66356.77
418.5061, 65903.23
418.9882, 65469.48
419.4703, 65134.49
419.9524, 64905.55
420.4345, 64721.89
420.9167, 64573.92
421.3988, 64454.59
421.8809, 64352.27
422.3630, 64292.18
422.8451, 64223.70
423.3272, 64132.85
423.8094, 64022.75
424.2915, 63915.10
424.7736, 63775.75
425.2557, 63668.88
425.7378, 63628.88
426.2199, 63719.14
426.7021, 63770.43
427.1842, 63760.55
427.6663, 63717.70
428.1484, 63708.74
428.6305, 63757.66
429.1126, 63787.07
429.5948, 63750.78
430.0769, 63639.23
430.5590, 63622.82
431.0411, 63731.94
431.5232, 63871.92
432.0053, 63923.66
432.4875, 63883.40
432.9696, 63864.48
433.4517, 63907.52
433.9338, 63985.77
434.4159, 64021.04
434.8980, 64013.93
435.3802, 63996.54
435.8623, 63976.65
436.3444, 63965.59
436.8265, 63999.43
437.3086, 64094.50
437.7907, 64203.09
438.2729, 64270.03
438.7550, 64306.66
439.2371, 64344.85
439.7192, 64415.02
440.2013, 64483.84
440.6834, 64508.75
441.1656, 64483.05
441.6477, 64475.65
442.1298, 64557.88
442.6119, 64665.43
443.0940, 64729.27
443.5761, 64670.66
444.0583, 64623.58
444.5403, 64646.80
445.0225, 64727.36
445.5046, 64789.75
445.9867, 64823.38
446.4688, 64834.36
446.9509, 64822.13
447.4330, 64751.63
447.9152, 64721.91
448.3973, 64751.61
448.8794, 64815.63
449.3615, 64873.92
449.8436, 64919.07
450.3257, 64971.29
450.8079, 65038.77
451.2900, 65121.64
451.7721, 65187.91
452.2542, 65232.44
452.7363, 65267.90
453.2184, 65303.55
453.7006, 65338.64
454.1827, 65378.55
454.6648, 65426.75
455.1469, 65477.07
455.6290, 65518.07
456.1111, 65550.10
456.5933, 65566.22
457.0754, 65545.77
457.5575, 65508.55
458.0396, 65497.77
458.5217, 65516.46
459.0038, 65565.88
459.4860, 65675.23
459.9681, 65815.45
460.4502, 65926.31
460.9323, 65950.34
461.4144, 65960.83
461.8965, 66018.77
462.3787, 66118.34
462.8608, 66210.87
463.3429, 66247.92
463.8250, 66284.16
464.3071, 66364.06
464.7892, 66522.49
465.2714, 66678.94
465.7535, 66815.77
466.2356, 66937.83
466.7177, 67052.11
467.1998, 67207.94
467.6819, 67305.36
468.1641, 67294.20
468.6462, 67146.98
469.1283, 67070.28
469.6104, 67090.41
470.0925, 67149.45
470.5746, 67203.97
471.0568, 67261.60
471.5389, 67282.23
472.0210, 67246.28
472.5031, 67175.77
472.9852, 67154.76
473.4673, 67193.92
473.9495, 67205.08
474.4316, 67108.17
474.9137, 66929.65
475.3958, 66827.59
475.8779, 66815.64
476.3600, 66849.09
476.8422, 66889.09
477.3243, 66934.57
477.8064, 66976.77
478.2885, 66989.68
478.7706, 67018.41
479.2527, 67141.64
479.7349, 67341.47
480.2170, 67510.58
480.6991, 67529.55
481.1812, 67513.54
481.6633, 67571.41
482.1454, 67756.79
482.6275, 67923.18
483.1096, 67977.30
483.5918, 67975.32
484.0739, 68006.99
484.5560, 68106.70
485.0381, 68225.05
485.5202, 68380.09
486.0023, 68581.44
486.4845, 68653.07
486.9666, 68476.54
487.4487, 68280.13
487.9308, 68223.76
488.4129, 68404.77
488.8951, 68497.02
489.3772, 68456.20
489.8593, 68341.68
490.3414, 68283.98
490.8235, 68289.31
491.3056, 68324.23
491.7878, 68381.84
492.2699, 68459.91
492.7520, 68545.23
493.2341, 68639.95
493.7162, 68714.73
494.1983, 68724.73
494.6805, 68687.41
495.1626, 68655.50
495.6447, 68637.32
496.1268, 68633.75
496.6089, 68654.75
497.0910, 68692.74
497.5732, 68724.90
498.0553, 68702.35
498.5374, 68694.39
499.0195, 68782.09
499.5016, 68989.27
499.9837, 69147.27
500.4659, 69110.42
500.9480, 69022.09
501.4301, 69019.70
501.9122, 69254.05
502.3943, 69439.79
502.8764, 69498.01
503.3586, 69457.11
503.8407, 69446.98
504.3228, 69466.97
504.8049, 69515.24
505.2870, 69601.05
505.7691, 69740.37
506.2513, 69824.45
506.7334, 69828.20
507.2155, 69813.41
507.6976, 69865.21
508.1797, 69990.66
508.6618, 70096.80
509.1440, 70164.80
509.6261, 70199.10
510.1082, 70194.79
510.5903, 70155.48
511.0724, 70129.53
511.5545, 70163.02
512.0366, 70229.13
512.5187, 70271.77
513.0009, 70281.38
513.4830, 70307.21
513.9651, 70405.62
514.4472, 70542.48
514.9293, 70666.97
515.4114, 70766.98
515.8936, 70840.92
516.3757, 70876.74
516.8578, 70880.63
517.3399, 70887.30
517.8220, 70859.66
518.3041, 70873.33
518.7863, 70979.35
519.2684, 71252.74
519.7505, 71443.22
520.2326, 71501.77
520.7147, 71506.48
521.1968, 71549.18
521.6790, 71652.27
522.1611, 71743.02
522.6432, 71816.59
523.1253, 71867.52
523.6074, 71852.04
524.0895, 71757.88
524.5717, 71679.11
525.0538, 71681.97
525.5359, 71752.84
526.0180, 71821.60
526.5001, 71883.35
526.9822, 71948.80
527.4644, 72052.73
527.9465, 72169.88
528.4286, 72238.48
528.9107, 72200.54
529.3928, 72146.41
529.8749, 72167.01
530.3571, 72243.33
530.8392, 72302.35
531.3213, 72296.01
531.8034, 72272.77
532.2855, 72259.77
532.7676, 72260.02
533.2498, 72276.36
533.7319, 72333.60
534.2140, 72398.02
534.6961, 72433.66
535.1782, 72398.28
535.6603, 72398.58
536.1425, 72459.85
536.6246, 72564.66
537.1067, 72649.80
537.5888, 72709.75
538.0709, 72763.89
538.5530, 72819.98
539.0352, 72877.05
539.5173, 72930.36
539.9994, 72973.74
540.4815, 73033.15
540.9636, 73138.84
541.4457, 73283.58
541.9279, 73451.29
542.4100, 73669.44
542.8921, 73851.55
543.3742, 73838.13
543.8563, 73689.69
544.3384, 73585.98
544.8206, 73661.52
545.3027, 73785.00
545.7848, 73864.01
546.2669, 73889.81
546.7490, 73918.27
547.2311, 73979.84
547.7133, 74047.02
548.1954, 74100.20
548.6775, 74153.07
549.1596, 74169.57
549.6417, 74107.64
550.1238, 74020.69
550.6060, 74024.93
551.0881, 74162.02
551.5702, 74302.59
552.0523, 74413.95
552.5344, 74496.24
553.0165, 74547.88
553.4987, 74565.79
553.9808, 74567.85
554.4629, 74546.91
554.9450, 74516.66
555.4271, 74555.05
555.9092, 74687.86
556.3914, 74833.93
556.8735, 74891.67
557.3556, 74889.75
557.8377, 74890.26
558.3198, 74938.63
558.8019, 74985.28
559.2841, 74974.63
559.7662, 74920.80
560.2483, 74904.34
560.7304, 74939.07
561.2125, 75032.69
561.6946, 75211.68
562.1768, 75549.13
562.6589, 75773.87
563.1410, 75786.49
563.6231, 75728.18
564.1052, 75745.28
564.5873, 75874.98
565.0695, 75993.98
565.5516, 76090.03
566.0337, 76160.77
566.5158, 76189.15
566.9979, 76170.31
567.4800, 76152.09
567.9622, 76153.06
568.4443, 76174.71
568.9264, 76234.98
569.4085, 76336.87
569.8906, 76427.66
570.3727, 76454.84
570.8549, 76442.23
571.3370, 76422.52
571.8191, 76385.42
572.3012, 76381.16
572.7833, 76474.48
573.2654, 76619.91
573.7476, 76732.10
574.2297, 76751.45
574.7118, 76766.07
575.1939, 76829.03
575.6760, 76941.38
576.1581, 76971.07
576.6403, 76827.13
577.1223, 76697.65
577.6044, 76686.88
578.0865, 76839.62
578.5687, 76970.71
579.0508, 77080.99
579.5329, 77167.66
580.0150, 77205.01
580.4971, 77194.52
580.9792, 77246.39
581.4614, 77423.05
581.9435, 77634.96
582.4256, 77682.36
582.9077, 77597.41
583.3898, 77537.31
583.8719, 77614.93
584.3541, 77747.02
584.8362, 77858.64
585.3183, 77943.34
585.8004, 78013.83
586.2825, 78060.33
586.7646, 78104.08
587.2468, 78164.34
587.7289, 78267.63
588.2110, 78353.89
588.6931, 78416.17
589.1752, 78458.48
589.6573, 78486.77
590.1395, 78506.99
590.6216, 78498.21
591.1037, 78434.05
591.5858, 78336.45
592.0679, 78334.95
592.5500, 78440.06
593.0322, 78577.79
593.5143, 78727.03
593.9964, 78873.71
594.4785, 78950.85
594.9606, 78949.52
595.4427, 78926.78
595.9249, 78919.31
596.4070, 78931.02
596.8891, 78969.47
597.3712, 79046.09
597.8533, 79136.37
598.3354, 79232.23
598.8176, 79330.95
599.2997, 79426.35
599.7818, 79516.44
600.2639, 79600.82
600.7460, 79673.20
601.2281, 79733.52
601.7103, 79809.42
602.1924, 79906.40
602.6745, 80010.87
603.1566, 80110.96
603.6387, 80203.36
604.1208, 80318.98
604.6030, 80463.91
605.0851, 80617.81
605.5672, 80763.28
606.0493, 80898.33
606.5314, 80995.88
607.0135, 81036.09
607.4957, 81059.38
607.9778, 81114.58
608.4599, 81195.35
608.9420, 81285.32
609.4241, 81387.58
609.9063, 81485.37
610.3884, 81552.49
610.8705, 81590.62
611.3526, 81668.84
611.8347, 81886.82
612.3168, 82094.16
612.7990, 82195.48
613.2811, 82140.31
613.7632, 82093.69
614.2453, 82039.06
614.7274, 82013.09
615.2095, 82076.89
615.6917, 82246.26
616.1738, 82399.56
616.6559, 82507.48
617.1380, 82590.06
617.6201, 82690.06
618.1022, 82804.40
618.5844, 82920.79
619.0665, 83028.79
619.5486, 83134.79
620.0307, 83234.59
620.5128, 83330.09
620.9949, 83465.23
621.4771, 83715.89
621.9592, 83980.66
622.4413, 84175.21
622.9234, 84258.06
623.4055, 84350.26
623.8876, 84464.55
624.3698, 84603.69
624.8519, 84773.97
625.3340, 85005.32
625.8161, 85206.88
626.2982, 85356.48
626.7803, 85480.27
627.2625, 85648.23
627.7446, 85864.69
628.2267, 86081.49
628.7088, 86265.52
629.1909, 86441.39
629.6730, 86674.23
630.1552, 86962.77
630.6373, 87275.39
631.1194, 87612.53
631.6015, 87947.14
632.0836, 88228.36
632.5657, 88431.82
633.0479, 88695.69
633.5300, 89160.44
634.0121, 89679.09
634.4942, 90102.72
634.9763, 90473.26
635.4584, 90661.04
635.9406, 90630.33
636.4227, 90425.70
636.9048, 90129.18
637.3869, 89744.88
637.8690, 89255.25
638.3511, 88648.26
638.8333, 87938.09
639.3154, 87154.06
639.7975, 86303.48
640.2796, 85475.45
640.7617, 84715.15
641.2438, 84034.24
641.7260, 83462.38
642.2081, 83008.95
642.6902, 82583.45
643.1723, 82105.12
643.6544, 81639.74
644.1365, 81242.48
644.6187, 80934.97
645.1008, 80685.15
645.5829, 80514.39
646.0650, 80386.72
646.5471, 80251.78
647.0292, 80092.93
647.5114, 79946.13
647.9935, 79809.01
648.4756, 79684.99
648.9577, 79606.86
649.4398, 79576.88
