##NAMES=Wollastonite
##RRUFFID=R040131
##IDEAL CHEMISTRY=CaSiO_3_
##LOCALITY=In-Ne-Koh-Pah Gorge, Jacumba, San Diego County, California, USA
##OWNER=RRUFF
##SOURCE=University of Arizona Mineral Museum
##DESCRIPTION=White coarsely crystalline massive
##STATUS=The identification of this mineral has been confirmed by X-ray diffraction and chemical analysis
##URL=rruff.info/R040131
##MEASURED CHEMISTRY=Ca_1.01_Si_1.00_O_3_
171.8392, 16970.77
172.3213, 17034.00
172.8034, 17068.85
173.2856, 17094.61
173.7677, 17127.22
174.2498, 17165.22
174.7319, 17202.95
175.2140, 17232.16
175.6961, 17260.05
176.1783, 17301.30
176.6604, 17366.87
177.1425, 17430.70
177.6246, 17450.42
178.1067, 17432.56
178.5888, 17420.81
179.0710, 17452.38
179.5531, 17513.25
180.0352, 17573.38
180.5173, 17626.80
180.9994, 17674.29
181.4815, 17712.21
181.9637, 17741.23
182.4458, 17772.54
182.9279, 17818.98
183.4100, 17876.79
183.8921, 17932.39
184.3742, 17980.02
184.8564, 18023.89
185.3385, 18072.84
185.8206, 18127.62
186.3027, 18183.77
186.7848, 18241.11
187.2669, 18298.26
187.7491, 18346.75
188.2312, 18378.73
188.7133, 18399.40
189.1954, 18429.92
189.6775, 18471.69
190.1596, 18516.22
190.6418, 18554.74
191.1239, 18587.11
191.6060, 18615.40
192.0881, 18637.65
192.5702, 18655.05
193.0524, 18676.61
193.5345, 18700.84
194.0166, 18732.83
194.4987, 18786.17
194.9808, 18862.71
195.4629, 18932.74
195.9451, 18981.70
196.4272, 19010.48
196.9093, 19027.85
197.3914, 19030.79
197.8735, 19027.51
198.3556, 19029.35
198.8378, 19034.58
199.3199, 19055.40
199.8020, 19105.96
200.2841, 19188.69
200.7662, 19259.42
201.2483, 19317.01
201.7305, 19359.99
202.2126, 19378.57
202.6947, 19365.49
203.1768, 19355.16
203.6589, 19370.08
204.1410, 19413.37
204.6232, 19459.74
205.1053, 19509.93
205.5874, 19560.48
206.0695, 19598.67
206.5516, 19621.57
207.0337, 19639.77
207.5159, 19657.64
207.9980, 19672.14
208.4801, 19701.13
208.9622, 19754.68
209.4443, 19824.22
209.9264, 19863.58
210.4086, 19860.48
210.8907, 19851.87
211.3728, 19867.12
211.8549, 19912.85
212.3370, 19961.60
212.8191, 20015.88
213.3013, 20071.99
213.7834, 20097.53
214.2655, 20076.78
214.7476, 20050.74
215.2297, 20056.08
215.7118, 20102.60
216.1940, 20154.11
216.6761, 20206.21
217.1582, 20258.90
217.6403, 20307.29
218.1224, 20353.25
218.6045, 20391.74
219.0867, 20415.35
219.5688, 20415.47
220.0509, 20420.39
220.5330, 20434.42
221.0151, 20457.67
221.4972, 20493.13
221.9794, 20546.67
222.4615, 20606.16
222.9436, 20660.33
223.4257, 20710.57
223.9078, 20752.66
224.3899, 20782.44
224.8721, 20798.83
225.3542, 20822.99
225.8363, 20859.89
226.3184, 20900.09
226.8005, 20932.10
227.2827, 20949.60
227.7648, 20970.82
228.2469, 21002.68
228.7290, 21047.72
229.2111, 21080.81
229.6932, 21089.72
230.1754, 21096.18
230.6575, 21133.85
231.1396, 21231.34
231.6217, 21308.42
232.1038, 21336.71
232.5859, 21303.59
233.0681, 21289.87
233.5502, 21302.02
234.0323, 21328.82
234.5144, 21354.42
234.9965, 21376.05
235.4786, 21400.83
235.9608, 21430.45
236.4429, 21463.95
236.9250, 21506.73
237.4071, 21570.79
237.8892, 21636.34
238.3713, 21669.20
238.8535, 21649.10
239.3356, 21630.05
239.8177, 21627.37
240.2998, 21641.42
240.7819, 21671.80
241.2640, 21725.14
241.7462, 21791.43
242.2283, 21856.25
242.7104, 21929.15
243.1925, 21984.63
243.6746, 22009.56
244.1567, 21990.43
244.6389, 21987.58
245.1210, 22006.12
245.6031, 22037.78
246.0852, 22067.07
246.5673, 22087.33
247.0494, 22116.91
247.5316, 22168.71
248.0137, 22260.28
248.4958, 22310.83
248.9779, 22295.46
249.4600, 22252.80
249.9421, 22257.69
250.4243, 22334.63
250.9064, 22415.32
251.3885, 22476.37
251.8706, 22515.73
252.3527, 22540.76
252.8348, 22543.13
253.3170, 22536.33
253.7991, 22549.83
254.2812, 22601.24
254.7633, 22638.67
255.2454, 22634.24
255.7275, 22565.92
256.2097, 22539.91
256.6918, 22570.76
257.1739, 22634.16
257.6560, 22687.38
258.1381, 22730.09
258.6202, 22763.22
259.1024, 22782.63
259.5845, 22779.40
260.0666, 22802.15
260.5487, 22867.23
261.0308, 22945.78
261.5129, 22981.50
261.9951, 22953.61
262.4772, 22931.91
262.9593, 22948.03
263.4414, 23013.45
263.9235, 23061.74
264.4056, 23088.00
264.8878, 23102.20
265.3699, 23121.92
265.8520, 23148.27
266.3341, 23177.49
266.8162, 23209.58
267.2983, 23245.25
267.7805, 23278.36
268.2626, 23310.45
268.7447, 23337.90
269.2268, 23351.36
269.7089, 23345.76
270.1910, 23344.15
270.6732, 23352.66
271.1553, 23370.38
271.6374, 23411.71
272.1195, 23484.97
272.6016, 23569.79
273.0837, 23629.64
273.5659, 23660.83
274.0480, 23687.69
274.5301, 23720.64
275.0122, 23759.95
275.4943, 23792.67
275.9764, 23818.18
276.4586, 23838.30
276.9407, 23852.38
277.4228, 23858.65
277.9049, 23872.66
278.3870, 23904.64
278.8691, 23953.42
279.3513, 23987.20
279.8334, 23999.45
280.3155, 24013.51
280.7976, 24074.43
281.2798, 24184.74
281.7619, 24269.77
282.2440, 24289.25
282.7261, 24253.46
283.2082, 24240.93
283.6903, 24254.25
284.1725, 24281.33
284.6546, 24310.47
285.1367, 24341.34
285.6188, 24370.65
286.1009, 24395.33
286.5830, 24417.30
287.0652, 24446.27
287.5473, 24483.01
288.0294, 24520.54
288.5115, 24549.38
288.9936, 24570.85
289.4757, 24595.32
289.9579, 24634.37
290.4400, 24677.08
290.9221, 24682.99
291.4042, 24648.54
291.8863, 24621.72
292.3684, 24661.15
292.8506, 24753.32
293.3327, 24841.14
293.8148, 24914.39
294.2969, 24968.40
294.7790, 24981.26
295.2611, 24952.96
295.7433, 24933.47
296.2254, 24985.44
296.7075, 25083.29
297.1896, 25150.89
297.6717, 25147.88
298.1538, 25121.10
298.6360, 25146.84
299.1181, 25221.30
299.6002, 25296.68
300.0823, 25331.80
300.5644, 25342.94
301.0465, 25361.37
301.5287, 25397.33
302.0108, 25441.22
302.4929, 25484.92
302.9750, 25528.15
303.4571, 25566.90
303.9392, 25606.62
304.4214, 25638.16
304.9035, 25647.53
305.3856, 25621.76
305.8677, 25588.11
306.3498, 25564.32
306.8319, 25551.13
307.3141, 25550.92
307.7962, 25571.37
308.2783, 25602.64
308.7604, 25637.59
309.2425, 25678.85
309.7246, 25713.03
310.2068, 25721.65
310.6889, 25715.31
311.1710, 25721.55
311.6531, 25760.72
312.1352, 25813.27
312.6173, 25867.28
313.0995, 25923.91
313.5816, 25971.18
314.0637, 25994.88
314.5458, 26006.00
315.0279, 26025.44
315.5100, 26072.26
315.9922, 26121.16
316.4743, 26158.17
316.9564, 26179.54
317.4385, 26197.96
317.9206, 26212.22
318.4027, 26227.26
318.8849, 26249.95
319.3670, 26299.50
319.8491, 26341.75
320.3312, 26355.18
320.8133, 26329.53
321.2954, 26329.40
321.7776, 26400.49
322.2597, 26490.46
322.7418, 26543.53
323.2239, 26519.65
323.7060, 26490.12
324.1881, 26462.85
324.6703, 26436.27
325.1524, 26438.38
325.6345, 26491.21
326.1166, 26562.90
326.5987, 26628.67
327.0808, 26710.90
327.5630, 26760.12
328.0451, 26748.88
328.5272, 26681.85
329.0093, 26663.46
329.4914, 26733.55
329.9735, 26816.37
330.4557, 26860.39
330.9378, 26830.03
331.4199, 26823.15
331.9020, 26852.16
332.3841, 26911.25
332.8662, 26975.44
333.3484, 27055.84
333.8305, 27123.53
334.3126, 27157.98
334.7947, 27142.05
335.2768, 27146.90
335.7589, 27186.36
336.2411, 27242.81
336.7232, 27271.62
337.2053, 27266.42
337.6874, 27251.46
338.1695, 27233.20
338.6516, 27209.54
339.1338, 27203.77
339.6159, 27219.83
340.0980, 27248.38
340.5801, 27274.20
341.0622, 27297.28
341.5443, 27320.69
342.0265, 27352.71
342.5086, 27389.92
342.9907, 27392.45
343.4728, 27350.90
343.9549, 27311.52
344.4370, 27350.99
344.9192, 27458.86
345.4013, 27535.29
345.8834, 27524.21
346.3655, 27461.59
346.8476, 27445.06
347.3297, 27475.79
347.8119, 27518.32
348.2940, 27540.84
348.7761, 27548.63
349.2582, 27556.29
349.7403, 27565.04
350.2225, 27578.86
350.7046, 27610.74
351.1867, 27657.82
351.6688, 27695.73
352.1509, 27688.62
352.6331, 27665.92
353.1152, 27677.73
353.5973, 27755.22
354.0794, 27831.96
354.5615, 27836.47
355.0436, 27788.81
355.5258, 27749.98
356.0079, 27750.67
356.4900, 27776.43
356.9721, 27820.04
357.4542, 27887.59
357.9363, 27948.66
358.4185, 27973.62
358.9006, 27981.88
359.3827, 28007.05
359.8648, 28093.75
360.3469, 28175.73
360.8290, 28211.34
361.3112, 28189.91
361.7933, 28175.69
362.2754, 28194.35
362.7575, 28228.71
363.2396, 28260.30
363.7217, 28294.88
364.2039, 28315.92
364.6860, 28305.16
365.1681, 28262.14
365.6502, 28251.96
366.1323, 28316.08
366.6144, 28394.54
367.0966, 28446.09
367.5787, 28432.31
368.0608, 28436.67
368.5429, 28474.19
369.0250, 28537.22
369.5071, 28585.13
369.9893, 28607.08
370.4714, 28626.35
370.9535, 28656.53
371.4356, 28712.30
371.9177, 28741.79
372.3998, 28726.26
372.8820, 28693.37
373.3641, 28711.79
373.8462, 28805.34
374.3283, 28887.81
374.8104, 28913.83
375.2925, 28875.40
375.7747, 28883.51
376.2568, 28951.43
376.7389, 29039.75
377.2210, 29094.46
377.7031, 29113.59
378.1852, 29127.28
378.6674, 29141.68
379.1495, 29158.21
379.6316, 29181.78
380.1137, 29211.57
380.5958, 29253.90
381.0779, 29332.89
381.5601, 29436.55
382.0422, 29495.26
382.5243, 29476.92
383.0064, 29429.51
383.4885, 29438.29
383.9706, 29496.43
384.4528, 29552.99
384.9349, 29570.38
385.4170, 29564.59
385.8991, 29560.00
386.3812, 29557.79
386.8633, 29565.02
387.3455, 29594.39
387.8276, 29638.43
388.3097, 29680.61
388.7918, 29713.41
389.2739, 29740.06
389.7560, 29761.26
390.2382, 29776.51
390.7203, 29793.23
391.2024, 29809.58
391.6845, 29831.44
392.1666, 29865.89
392.6487, 29937.61
393.1309, 30001.33
393.6130, 30027.41
394.0951, 30020.48
394.5772, 30034.45
395.0593, 30111.10
395.5414, 30195.27
396.0236, 30251.71
396.5057, 30241.90
396.9878, 30244.33
397.4699, 30269.85
397.9520, 30313.24
398.4341, 30357.88
398.9163, 30405.53
399.3984, 30452.45
399.8805, 30495.60
400.3626, 30529.25
400.8447, 30577.34
401.3268, 30649.49
401.8090, 30728.92
402.2911, 30793.47
402.7732, 30840.00
403.2553, 30876.75
403.7374, 30896.38
404.2195, 30901.85
404.7017, 30956.46
405.1838, 31076.74
405.6659, 31202.33
406.1480, 31278.63
406.6301, 31305.60
407.1122, 31310.35
407.5944, 31281.89
408.0765, 31250.51
408.5586, 31303.79
409.0407, 31440.27
409.5228, 31576.38
410.0049, 31661.26
410.4871, 31702.18
410.9692, 31711.90
411.4513, 31684.33
411.9334, 31655.37
412.4155, 31680.26
412.8976, 31739.45
413.3798, 31775.90
413.8619, 31754.38
414.3440, 31703.18
414.8261, 31643.42
415.3082, 31575.77
415.7903, 31518.21
416.2725, 31486.91
416.7546, 31470.01
417.2367, 31453.47
417.7188, 31429.55
418.2009, 31409.37
418.6830, 31404.04
419.1652, 31408.36
419.6473, 31403.51
420.1294, 31354.84
420.6115, 31316.15
421.0937, 31321.21
421.5758, 31402.52
422.0579, 31466.83
422.5400, 31491.46
423.0221, 31494.25
423.5042, 31504.80
423.9864, 31523.77
424.4685, 31551.21
424.9506, 31597.53
425.4327, 31666.65
425.9148, 31693.31
426.3969, 31657.88
426.8791, 31602.44
427.3612, 31556.98
427.8433, 31511.83
428.3254, 31511.28
428.8075, 31578.51
429.2896, 31688.29
429.7718, 31749.80
430.2539, 31755.75
430.7360, 31753.46
431.2181, 31770.19
431.7002, 31804.64
432.1823, 31835.55
432.6645, 31859.53
433.1466, 31887.99
433.6287, 31941.88
434.1108, 32016.07
434.5929, 32085.72
435.0750, 32143.86
435.5572, 32188.99
436.0393, 32220.67
436.5214, 32238.61
437.0035, 32236.38
437.4856, 32179.42
437.9677, 32107.85
438.4499, 32080.46
438.9320, 32127.71
439.4141, 32196.09
439.8962, 32254.64
440.3783, 32305.10
440.8604, 32353.68
441.3426, 32408.44
441.8247, 32457.36
442.3068, 32491.95
442.7889, 32508.83
443.2710, 32523.37
443.7531, 32547.26
444.2353, 32567.87
444.7174, 32571.63
445.1995, 32527.01
445.6816, 32497.73
446.1637, 32492.87
446.6458, 32511.86
447.1280, 32552.26
447.6101, 32625.66
448.0922, 32708.03
448.5743, 32792.16
449.0564, 32900.27
449.5385, 32945.93
450.0207, 32900.55
450.5028, 32815.96
450.9849, 32796.28
451.4670, 32855.04
451.9491, 32910.53
452.4312, 32926.14
452.9134, 32908.85
453.3955, 32913.51
453.8776, 32941.01
454.3597, 32983.36
454.8418, 33040.97
455.3239, 33109.09
455.8061, 33164.48
456.2882, 33198.84
456.7703, 33224.09
457.2524, 33257.83
457.7345, 33297.64
458.2166, 33334.52
458.6988, 33360.58
459.1809, 33381.80
459.6630, 33403.95
460.1451, 33428.00
460.6272, 33452.06
461.1093, 33474.73
461.5915, 33496.72
462.0736, 33518.45
462.5557, 33517.10
463.0378, 33538.04
463.5199, 33626.53
464.0020, 33767.63
464.4842, 33853.19
464.9663, 33791.89
465.4484, 33719.35
465.9305, 33708.84
466.4126, 33808.79
466.8947, 33890.96
467.3769, 33957.45
467.8590, 34005.12
468.3411, 34025.71
468.8232, 34001.69
469.3053, 33985.18
469.7874, 33990.85
470.2696, 34017.61
470.7517, 34049.05
471.2338, 34089.07
471.7159, 34121.54
472.1980, 34121.62
472.6801, 34090.70
473.1623, 34087.70
473.6444, 34123.86
474.1265, 34185.42
474.6086, 34258.45
475.0907, 34340.13
475.5728, 34412.18
476.0550, 34469.07
476.5371, 34508.83
477.0192, 34524.45
477.5013, 34515.65
477.9834, 34496.61
478.4655, 34456.09
478.9477, 34418.75
479.4298, 34419.47
479.9119, 34502.19
480.3940, 34582.74
480.8761, 34604.21
481.3582, 34586.85
481.8404, 34588.61
482.3225, 34642.47
482.8046, 34708.07
483.2867, 34769.44
483.7688, 34826.25
484.2509, 34875.11
484.7331, 34911.81
485.2152, 34942.22
485.6973, 34973.35
486.1794, 35014.18
486.6615, 35039.04
487.1436, 35035.35
487.6258, 35012.62
488.1079, 35019.43
488.5900, 35065.25
489.0721, 35114.38
489.5542, 35144.21
490.0363, 35154.63
490.5185, 35180.61
491.0006, 35227.75
491.4827, 35274.11
491.9648, 35280.45
492.4470, 35255.66
492.9291, 35249.89
493.4112, 35293.95
493.8933, 35354.45
494.3754, 35375.25
494.8575, 35361.92
495.3397, 35348.28
495.8218, 35354.15
496.3039, 35372.52
496.7860, 35395.95
497.2681, 35423.78
497.7502, 35455.90
498.2324, 35493.32
498.7145, 35534.83
499.1966, 35579.55
499.6787, 35640.72
500.1608, 35690.97
500.6429, 35716.68
501.1251, 35719.49
501.6072, 35727.70
502.0893, 35738.29
502.5714, 35759.17
503.0535, 35796.06
503.5356, 35859.99
504.0178, 35913.74
504.4999, 35957.15
504.9820, 35989.95
505.4641, 36010.19
505.9462, 36015.41
506.4283, 36020.21
506.9105, 36027.46
507.3926, 36037.68
507.8747, 36051.40
508.3568, 36068.41
508.8389, 36094.28
509.3210, 36147.80
509.8032, 36213.70
510.2853, 36243.89
510.7674, 36225.00
511.2495, 36202.06
511.7316, 36222.46
512.2137, 36272.98
512.6959, 36326.22
513.1780, 36394.27
513.6601, 36442.09
514.1422, 36425.36
514.6243, 36356.24
515.1064, 36317.61
515.5886, 36366.59
516.0707, 36438.91
516.5528, 36494.63
517.0349, 36517.69
517.5170, 36548.15
517.9991, 36612.71
518.4813, 36677.51
518.9634, 36693.50
519.4455, 36607.11
519.9276, 36566.29
520.4097, 36620.14
520.8918, 36748.60
521.3740, 36819.22
521.8561, 36816.83
522.3382, 36806.79
522.8203, 36835.93
523.3024, 36901.01
523.7845, 36945.21
524.2667, 36959.93
524.7488, 36975.87
525.2309, 37047.66
525.7130, 37156.69
526.1951, 37236.59
526.6772, 37257.07
527.1594, 37245.30
527.6415, 37215.95
528.1236, 37176.28
528.6057, 37157.79
529.0878, 37199.93
529.5699, 37256.35
530.0521, 37288.44
530.5342, 37284.13
531.0163, 37289.40
531.4984, 37340.32
531.9805, 37399.21
532.4626, 37426.36
532.9448, 37344.39
533.4269, 37318.77
533.9090, 37403.30
534.3911, 37561.42
534.8732, 37641.31
535.3553, 37600.27
535.8375, 37562.57
536.3196, 37589.86
536.8017, 37687.04
537.2838, 37749.52
537.7659, 37772.26
538.2480, 37778.73
538.7302, 37789.13
539.2123, 37804.07
539.6944, 37829.07
540.1765, 37869.82
540.6586, 37912.88
541.1407, 37937.96
541.6229, 37949.25
542.1050, 37962.17
542.5871, 37989.23
543.0692, 38018.89
543.5513, 38033.07
544.0334, 38031.17
544.5156, 38049.60
544.9977, 38130.43
545.4798, 38224.26
545.9619, 38291.02
546.4440, 38307.77
546.9261, 38320.23
547.4083, 38326.91
547.8904, 38334.71
548.3725, 38356.19
548.8546, 38398.72
549.3367, 38443.69
549.8188, 38491.68
550.3010, 38540.64
550.7831, 38560.99
551.2652, 38543.98
551.7473, 38527.60
552.2294, 38541.69
552.7115, 38583.23
553.1937, 38624.56
553.6758, 38665.44
554.1579, 38697.91
554.6400, 38698.27
555.1221, 38680.81
555.6042, 38687.50
556.0864, 38753.42
556.5685, 38829.66
557.0506, 38868.20
557.5327, 38876.47
558.0148, 38881.26
558.4969, 38893.45
558.9791, 38907.88
559.4612, 38919.90
559.9433, 38927.15
560.4254, 38941.76
560.9075, 38968.96
561.3896, 39002.86
561.8718, 39039.14
562.3539, 39085.88
562.8360, 39120.51
563.3181, 39135.76
563.8002, 39140.26
564.2823, 39155.58
564.7645, 39183.61
565.2466, 39213.02
565.7287, 39235.90
566.2108, 39256.05
566.6929, 39297.99
567.1750, 39362.51
567.6572, 39422.82
568.1393, 39451.22
568.6214, 39459.30
569.1035, 39467.96
569.5856, 39479.90
570.0677, 39495.39
570.5499, 39507.02
571.0320, 39524.09
571.5141, 39561.30
571.9962, 39670.77
572.4783, 39754.87
572.9604, 39740.98
573.4426, 39654.69
573.9247, 39629.35
574.4068, 39762.42
574.8889, 39890.85
575.3710, 39944.36
575.8531, 39900.84
576.3353, 39899.71
576.8174, 39962.60
577.2995, 40035.79
577.7816, 40063.87
578.2637, 40041.48
578.7458, 40028.09
579.2280, 40030.63
579.7101, 40048.86
580.1922, 40089.28
580.6743, 40148.12
581.1564, 40204.02
581.6385, 40245.02
582.1207, 40278.68
582.6028, 40316.01
583.0849, 40355.52
583.5670, 40388.01
584.0491, 40399.79
584.5313, 40407.57
585.0134, 40427.36
585.4955, 40469.15
585.9776, 40497.64
586.4597, 40481.20
586.9418, 40456.29
587.4240, 40465.83
587.9061, 40546.30
588.3882, 40606.34
588.8703, 40636.14
589.3524, 40639.28
589.8345, 40615.51
590.3167, 40549.82
590.7988, 40516.24
591.2809, 40564.35
591.7630, 40673.73
592.2451, 40732.98
592.7272, 40740.43
593.2094, 40738.75
593.6915, 40766.54
594.1736, 40809.85
594.6557, 40838.87
595.1378, 40843.58
595.6199, 40854.02
596.1021, 40906.81
596.5842, 40975.69
597.0663, 41023.36
597.5485, 40995.50
598.0306, 40988.08
598.5127, 41061.34
598.9948, 41188.40
599.4769, 41251.27
599.9590, 41190.50
600.4412, 41129.73
600.9233, 41109.38
601.4054, 41131.80
601.8875, 41155.95
602.3696, 41182.68
602.8517, 41208.63
603.3339, 41223.38
603.8160, 41229.40
604.2981, 41264.88
604.7802, 41340.09
605.2623, 41423.00
605.7444, 41475.82
606.2266, 41503.02
606.7087, 41513.25
607.1908, 41487.46
607.6729, 41469.75
608.1550, 41510.04
608.6371, 41589.99
609.1193, 41651.32
609.6014, 41648.80
610.0835, 41640.54
610.5656, 41654.10
611.0477, 41693.93
611.5298, 41735.35
612.0120, 41783.95
612.4941, 41827.00
612.9762, 41849.22
613.4583, 41833.64
613.9404, 41867.67
614.4225, 41978.06
614.9047, 42097.38
615.3868, 42107.40
615.8689, 42018.83
616.3510, 41976.47
616.8331, 42044.52
617.3152, 42151.50
617.7974, 42176.68
618.2795, 42141.31
618.7616, 42129.27
619.2437, 42207.54
619.7258, 42310.97
620.2079, 42390.39
620.6901, 42442.99
621.1722, 42503.34
621.6543, 42588.37
622.1364, 42681.91
622.6185, 42773.08
623.1006, 42861.96
623.5828, 42948.47
624.0649, 43034.24
624.5470, 43116.12
625.0291, 43185.19
625.5112, 43235.13
625.9933, 43308.11
626.4755, 43415.36
626.9576, 43543.43
627.4397, 43669.11
627.9218, 43791.68
628.4039, 43905.84
628.8860, 44002.80
629.3682, 44093.45
629.8503, 44187.73
630.3324, 44286.79
630.8145, 44396.27
631.2966, 44533.62
631.7787, 44671.38
632.2609, 44790.09
632.7430, 44885.43
633.2251, 44969.21
633.7072, 45051.97
634.1893, 45117.41
634.6714, 45149.18
635.1536, 45123.11
635.6357, 45122.86
636.1178, 45178.02
636.5999, 45236.91
637.0820, 45196.47
637.5641, 45053.39
638.0463, 44887.97
638.5284, 44713.22
639.0105, 44542.11
639.4926, 44402.95
639.9747, 44290.48
640.4568, 44178.19
640.9390, 44044.66
641.4211, 43905.59
641.9032, 43762.76
642.3853, 43616.99
642.8674, 43513.85
643.3495, 43498.52
643.8317, 43514.60
644.3138, 43523.74
644.7959, 43519.64
645.2780, 43513.05
645.7601, 43507.42
646.2422, 43496.41
646.7244, 43463.52
647.2065, 43397.33
647.6886, 43374.71
648.1707, 43422.50
648.6528, 43501.80
649.1349, 43537.58
649.6171, 43533.43
650.0992, 43516.55
650.5813, 43464.57
651.0634, 43428.53
651.5455, 43506.39
652.0276, 43673.18
652.5098, 43790.84
652.9919, 43723.84
653.4740, 43633.01
653.9561, 43629.34
654.4382, 43743.64
654.9203, 43821.65
655.4025, 43829.79
655.8846, 43808.07
656.3667, 43775.98
656.8488, 43717.69
657.3309, 43702.04
657.8130, 43744.99
658.2952, 43805.94
658.7773, 43813.42
659.2594, 43774.89
659.7415, 43786.31
660.2236, 43896.42
660.7057, 44028.47
661.1879, 44067.61
661.6700, 44037.44
662.1521, 44002.93
662.6342, 43984.03
663.1163, 43980.88
663.5984, 44003.76
664.0806, 44048.05
664.5627, 44078.10
665.0448, 44084.63
665.5269, 44074.41
666.0090, 44044.38
666.4911, 43988.86
666.9733, 43958.23
667.4554, 43956.77
667.9375, 43971.73
