##NAMES=Wollastonite
##RRUFFID=R040008
##IDEAL CHEMISTRY=CaSiO_3_
##LOCALITY=Lake Baikal, Siberia, Russia
##OWNER=RRUFF
##SOURCE=University of Arizona Mineral Museum
##DESCRIPTION=2M polytype. Colorless parallel acicular crystals
##STATUS=The identification of this mineral has been confirmed by X-ray diffraction and chemical analysis
##URL=rruff.info/R040008
##MEASURED CHEMISTRY=Ca_1.00_Si_1.00_O_3_; trace amounts of Fe and Mn
112.904, 2260.546
113.386, 2466.142
113.868, 2699.108
114.351, 2912.195
114.833, 3094.469
115.315, 3268.406
115.797, 3443.210
116.279, 3616.851
116.761, 3785.304
117.243, 3942.770
117.725, 4089.561
118.207, 4238.825
118.690, 4404.032
119.172, 4559.635
119.654, 4687.297
120.136, 4754.083
120.618, 4784.024
121.100, 4831.040
121.582, 4902.321
122.064, 4954.518
122.547, 5010.190
123.029, 5034.432
123.511, 5006.109
123.993, 4928.593
124.475, 4822.961
124.957, 4711.676
125.439, 4594.684
125.921, 4474.091
126.404, 4329.695
126.886, 4196.760
127.368, 4099.212
127.850, 4039.878
128.332, 4005.150
128.814, 3975.580
129.296, 3947.952
129.778, 3932.651
130.260, 3930.726
130.743, 3938.607
131.225, 3951.160
131.707, 3967.088
132.189, 3992.440
132.671, 4039.172
133.153, 4127.311
133.635, 4205.492
134.117, 4266.419
134.600, 4318.747
135.082, 4370.192
135.564, 4423.088
136.046, 4480.266
136.528, 4550.396
137.010, 4646.572
137.492, 4732.278
137.974, 4804.891
138.456, 4862.986
138.939, 4900.449
139.421, 4912.208
139.903, 4909.021
140.385, 4918.688
140.867, 4944.506
141.349, 4972.915
141.831, 5002.844
142.313, 5032.430
142.796, 5056.460
143.278, 5071.491
143.760, 5080.930
144.242, 5093.950
144.724, 5115.045
145.206, 5132.163
145.688, 5132.018
146.170, 5120.478
146.652, 5122.776
147.135, 5156.149
147.617, 5206.574
148.099, 5240.448
148.581, 5246.355
149.063, 5253.971
149.545, 5284.682
150.027, 5336.525
150.509, 5389.318
150.992, 5426.126
151.474, 5464.155
151.956, 5532.375
152.438, 5641.267
152.920, 5767.144
153.402, 5890.511
153.884, 6011.078
154.366, 6135.462
154.848, 6264.812
155.331, 6400.472
155.813, 6547.881
156.295, 6719.609
156.777, 6885.878
157.259, 7018.096
157.741, 7115.890
158.223, 7183.694
158.705, 7207.463
159.187, 7206.631
159.669, 7196.694
160.152, 7168.787
160.634, 7151.028
161.116, 7175.651
161.598, 7242.687
162.080, 7353.420
162.562, 7525.159
163.044, 7736.636
163.527, 7970.966
164.009, 8227.027
164.491, 8501.773
164.973, 8817.177
165.455, 9215.870
165.937, 9519.089
166.419, 9656.658
166.901, 9666.743
167.383, 9556.713
167.865, 9302.246
168.348, 8974.317
168.830, 8687.373
169.312, 8426.582
169.794, 8251.618
170.276, 8240.401
170.758, 8297.524
171.240, 8329.006
171.723, 8301.679
172.205, 8223.204
172.687, 8103.597
173.169, 7928.471
173.651, 7742.510
174.133, 7543.197
174.615, 7349.017
175.097, 7183.149
175.579, 7062.300
176.061, 6964.578
176.544, 6842.167
177.026, 6692.093
177.508, 6521.604
177.990, 6307.990
178.472, 6087.683
178.954, 5896.588
179.436, 5750.593
179.918, 5644.564
180.401, 5567.917
180.883, 5525.339
181.365, 5506.122
181.847, 5518.053
182.329, 5542.903
182.811, 5558.213
183.293, 5551.769
183.775, 5538.714
184.258, 5559.559
184.740, 5635.110
185.222, 5708.884
185.704, 5767.876
186.186, 5819.757
186.668, 5870.829
187.150, 5923.756
187.632, 5979.108
188.114, 6037.988
188.596, 6100.500
189.079, 6166.571
189.561, 6236.315
190.043, 6308.476
190.525, 6382.954
191.007, 6460.147
191.489, 6536.063
191.971, 6607.210
192.454, 6697.045
192.936, 6734.099
193.418, 6703.439
193.900, 6627.430
194.382, 6520.185
194.864, 6386.796
195.346, 6238.969
195.828, 6100.478
196.310, 5969.706
196.792, 5853.233
197.275, 5751.790
197.757, 5662.017
198.239, 5580.061
198.721, 5504.905
199.203, 5439.294
199.685, 5389.829
200.167, 5362.215
200.650, 5340.739
201.132, 5328.639
201.614, 5317.534
202.096, 5297.111
202.578, 5264.626
203.060, 5231.536
203.542, 5220.060
204.024, 5244.657
204.506, 5259.640
204.988, 5251.833
205.471, 5240.226
205.953, 5241.373
206.435, 5258.790
206.917, 5279.967
207.399, 5283.507
207.881, 5257.062
208.363, 5243.288
208.845, 5244.842
209.328, 5258.012
209.810, 5285.498
210.292, 5326.043
210.774, 5368.721
211.256, 5397.185
211.738, 5403.115
212.220, 5419.202
212.702, 5453.704
213.184, 5492.470
213.667, 5530.417
214.149, 5565.594
214.631, 5595.097
215.113, 5615.413
215.595, 5625.620
216.077, 5629.911
216.559, 5623.714
217.041, 5615.512
217.523, 5605.066
218.006, 5594.889
218.488, 5592.201
218.970, 5606.744
219.452, 5641.990
219.934, 5672.492
220.416, 5687.259
220.898, 5706.663
221.380, 5739.695
221.863, 5785.061
222.345, 5835.706
222.827, 5883.847
223.309, 5928.970
223.791, 5986.341
224.273, 6068.106
224.755, 6151.445
225.237, 6228.017
225.719, 6299.709
226.202, 6372.635
226.684, 6455.137
227.166, 6545.391
227.648, 6610.401
228.130, 6628.143
228.612, 6645.063
229.094, 6685.964
229.577, 6736.129
230.059, 6767.331
230.541, 6758.071
231.023, 6718.252
231.505, 6691.686
231.987, 6679.069
232.469, 6680.659
232.951, 6696.309
233.433, 6723.934
233.915, 6761.414
234.398, 6809.271
234.880, 6864.614
235.362, 6922.123
235.844, 6990.548
236.326, 7042.586
236.808, 7073.548
237.290, 7085.448
237.772, 7077.377
238.255, 7047.843
238.737, 7003.411
239.219, 6956.830
239.701, 6912.031
240.183, 6852.652
240.665, 6759.757
241.147, 6658.387
241.629, 6568.180
242.111, 6494.523
242.594, 6429.379
243.076, 6361.280
243.558, 6288.623
244.040, 6224.778
244.522, 6177.792
245.004, 6138.198
245.486, 6100.839
245.968, 6065.066
246.451, 6028.638
246.933, 5989.747
247.415, 5948.217
247.897, 5904.301
248.379, 5847.824
248.861, 5799.287
249.343, 5776.049
249.825, 5776.916
250.307, 5782.808
250.790, 5780.909
251.272, 5773.099
251.754, 5768.080
252.236, 5765.018
252.718, 5768.175
253.200, 5781.339
253.682, 5802.974
254.164, 5827.580
254.646, 5857.006
255.129, 5887.056
255.611, 5908.460
256.093, 5920.341
256.575, 5924.770
257.057, 5919.149
257.539, 5907.089
258.021, 5896.064
258.503, 5898.980
258.986, 5898.898
259.468, 5868.299
259.950, 5803.920
260.432, 5739.588
260.914, 5696.574
261.396, 5668.436
261.878, 5638.510
262.360, 5604.389
262.842, 5568.969
263.325, 5517.765
263.807, 5457.045
264.289, 5446.109
264.771, 5445.035
265.253, 5441.567
265.735, 5435.834
266.217, 5421.052
266.699, 5417.955
267.181, 5410.175
267.664, 5402.202
268.146, 5400.750
268.628, 5387.284
269.110, 5385.729
269.592, 5379.419
270.074, 5375.285
270.556, 5366.438
271.039, 5359.047
271.521, 5356.371
272.003, 5345.841
272.485, 5354.191
272.967, 5366.440
273.449, 5371.662
273.931, 5366.421
274.413, 5367.068
274.895, 5363.683
275.378, 5373.293
275.860, 5383.493
276.342, 5406.640
276.824, 5426.642
277.306, 5443.669
277.788, 5448.820
278.270, 5469.309
278.752, 5483.650
279.234, 5497.743
279.717, 5520.391
280.199, 5532.973
280.681, 5539.598
281.163, 5550.169
281.645, 5563.715
282.127, 5568.652
282.609, 5564.319
283.091, 5552.911
283.573, 5533.784
284.056, 5508.189
284.538, 5474.500
285.020, 5431.612
285.502, 5386.759
285.984, 5360.963
286.466, 5371.455
286.948, 5377.546
287.431, 5373.525
287.913, 5366.083
288.395, 5357.241
288.877, 5348.865
289.359, 5348.460
289.841, 5371.409
290.323, 5432.929
290.805, 5475.480
291.287, 5481.940
291.770, 5483.250
292.252, 5493.704
292.734, 5515.090
293.216, 5543.045
293.698, 5574.428
294.180, 5609.369
294.662, 5645.656
295.144, 5681.842
295.626, 5721.026
296.109, 5763.641
296.591, 5809.993
297.073, 5860.292
297.555, 5917.477
298.037, 5977.549
298.519, 6028.284
299.001, 6065.690
299.483, 6102.434
299.966, 6146.109
300.448, 6191.341
300.930, 6230.395
301.412, 6258.744
301.894, 6285.449
302.376, 6323.454
302.858, 6373.624
303.340, 6420.867
303.822, 6464.351
304.305, 6498.896
304.787, 6519.158
305.269, 6523.814
305.751, 6520.749
306.233, 6512.367
306.715, 6499.930
307.197, 6485.711
307.679, 6467.141
308.161, 6453.175
308.644, 6448.551
309.126, 6452.023
309.608, 6484.247
310.090, 6563.381
310.572, 6668.043
311.054, 6770.699
311.536, 6869.034
312.018, 6980.219
312.500, 7119.558
312.983, 7287.827
313.465, 7464.311
313.947, 7638.275
314.429, 7829.584
314.911, 8052.940
315.393, 8303.596
315.875, 8568.823
316.358, 8842.666
316.840, 9124.752
317.322, 9414.155
317.804, 9718.927
318.286, 10020.660
318.768, 10335.780
319.250, 10638.420
319.732, 10909.730
320.214, 11140.280
320.697, 11318.980
321.179, 11424.070
321.661, 11444.460
322.143, 11406.850
322.625, 11311.780
323.107, 11168.530
323.589, 10959.010
324.071, 10699.630
324.553, 10439.850
325.036, 10217.720
325.518, 10033.360
326.000, 9904.794
326.482, 9842.630
326.964, 9833.201
327.446, 9873.601
327.928, 9963.048
328.410, 10101.600
328.892, 10289.430
329.375, 10525.930
329.857, 10810.170
330.339, 11148.990
330.821, 11520.190
331.303, 11912.670
331.785, 12338.370
332.267, 12815.980
332.749, 13353.250
333.232, 13910.000
333.714, 14457.900
334.196, 14999.640
334.678, 15518.890
335.160, 16040.670
335.642, 16496.660
336.124, 16856.359
336.606, 17119.131
337.089, 17243.211
337.571, 17197.471
338.053, 17006.699
338.535, 16688.381
339.017, 16237.240
339.499, 15729.080
339.981, 15192.430
340.463, 14642.150
340.945, 14134.140
341.427, 13670.900
341.910, 13249.190
342.392, 12897.420
342.874, 12591.510
343.356, 12267.230
343.838, 11893.620
344.320, 11489.390
344.802, 11089.050
345.284, 10699.150
345.767, 10305.810
346.249, 9891.499
346.731, 9484.151
347.213, 9107.700
347.695, 8766.904
348.177, 8454.934
348.659, 8160.990
349.141, 7878.662
349.624, 7652.457
350.106, 7508.541
350.588, 7385.062
351.070, 7258.018
351.552, 7131.620
352.034, 7019.083
352.516, 6930.109
352.998, 6861.593
353.480, 6803.556
353.963, 6765.044
354.445, 6721.946
354.927, 6656.857
355.409, 6592.257
355.891, 6551.441
356.373, 6540.891
356.855, 6541.618
357.337, 6530.746
357.819, 6507.481
358.302, 6489.032
358.784, 6469.837
359.266, 6455.619
359.748, 6474.343
360.230, 6485.070
360.712, 6488.231
361.194, 6461.163
361.676, 6473.129
362.159, 6469.452
362.641, 6465.133
363.123, 6482.594
363.605, 6459.922
364.087, 6477.037
364.569, 6478.270
365.051, 6486.771
365.533, 6479.533
366.016, 6476.742
366.498, 6464.761
366.980, 6457.230
367.462, 6430.229
367.944, 6393.112
368.426, 6360.691
368.908, 6332.455
369.390, 6310.968
369.872, 6307.527
370.354, 6303.164
370.837, 6275.569
371.319, 6228.280
371.801, 6190.241
372.283, 6189.919
372.765, 6226.595
373.247, 6232.352
373.729, 6176.184
374.211, 6122.376
374.694, 6083.130
375.176, 6054.223
375.658, 6029.995
376.140, 6008.313
376.622, 5987.160
377.104, 5961.348
377.586, 5926.971
378.068, 5901.575
378.551, 5898.941
379.033, 5897.696
379.515, 5882.821
379.997, 5855.603
380.479, 5831.995
380.961, 5826.492
381.443, 5833.769
381.925, 5833.919
382.407, 5822.959
382.890, 5814.860
383.372, 5818.901
383.854, 5831.968
384.336, 5849.832
384.818, 5877.131
385.300, 5902.112
385.782, 5906.834
386.264, 5899.910
386.746, 5916.520
387.229, 5975.037
387.711, 6048.438
388.193, 6090.396
388.675, 6091.690
389.157, 6095.374
389.639, 6109.105
390.121, 6125.056
390.603, 6138.397
391.086, 6147.868
391.568, 6150.660
392.050, 6142.554
392.532, 6124.666
393.014, 6122.468
393.496, 6145.826
393.978, 6174.188
394.460, 6200.218
394.943, 6230.875
395.425, 6273.561
395.907, 6331.095
396.389, 6404.064
396.871, 6495.947
397.353, 6611.175
397.835, 6726.926
398.317, 6835.144
398.799, 6949.192
399.281, 7076.513
399.764, 7216.009
400.246, 7362.078
400.728, 7517.723
401.210, 7675.657
401.692, 7823.375
402.174, 7960.666
402.656, 8085.246
403.138, 8200.099
403.621, 8296.878
404.103, 8361.686
404.585, 8387.723
405.067, 8395.070
405.549, 8398.987
406.031, 8390.053
406.513, 8351.962
406.995, 8280.978
407.478, 8175.287
407.960, 8024.911
408.442, 7816.717
408.924, 7636.403
409.406, 7492.833
409.888, 7366.835
410.370, 7254.221
410.852, 7150.824
411.334, 7048.883
411.817, 6944.274
412.299, 6839.745
412.781, 6744.510
413.263, 6663.039
413.745, 6582.868
414.227, 6500.232
414.709, 6420.196
415.191, 6344.623
415.673, 6274.749
416.156, 6214.719
416.638, 6175.698
417.120, 6153.185
417.602, 6113.341
418.084, 6048.726
418.566, 5982.415
419.048, 5926.135
419.530, 5877.061
420.013, 5831.363
420.495, 5787.309
420.977, 5748.168
421.459, 5718.719
421.941, 5696.985
422.423, 5676.371
422.905, 5654.913
423.387, 5634.132
423.870, 5615.384
424.352, 5597.960
424.834, 5587.042
425.316, 5586.659
425.798, 5589.696
426.280, 5592.800
426.762, 5595.222
427.244, 5594.810
427.726, 5589.091
428.208, 5588.030
428.691, 5601.606
429.173, 5611.629
429.655, 5618.291
430.137, 5611.520
430.619, 5622.093
431.101, 5625.716
431.583, 5629.054
432.065, 5642.069
432.548, 5637.252
433.030, 5650.113
433.512, 5654.625
433.994, 5664.982
434.476, 5682.046
434.958, 5697.483
435.440, 5711.379
435.922, 5719.121
436.405, 5734.810
436.887, 5747.312
437.369, 5759.686
437.851, 5776.494
438.333, 5785.132
438.815, 5801.867
439.297, 5815.371
439.779, 5830.353
440.261, 5842.132
440.744, 5854.818
441.226, 5859.203
441.708, 5865.490
442.190, 5867.698
442.672, 5864.949
443.154, 5855.541
443.636, 5837.930
444.118, 5816.571
444.600, 5804.577
445.083, 5810.970
445.565, 5809.537
446.047, 5793.735
446.529, 5774.188
447.011, 5757.571
447.493, 5744.154
447.975, 5730.260
448.457, 5710.025
448.940, 5687.292
449.422, 5678.984
449.904, 5670.365
450.386, 5671.500
450.868, 5670.267
451.350, 5666.794
451.832, 5654.370
452.314, 5653.503
452.797, 5648.005
453.279, 5642.317
453.761, 5643.078
454.243, 5631.956
454.725, 5632.614
455.207, 5628.569
455.689, 5626.677
456.171, 5620.125
456.653, 5615.012
457.135, 5614.562
457.618, 5611.529
458.100, 5604.439
458.582, 5597.797
459.064, 5593.886
459.546, 5609.013
460.028, 5633.440
460.510, 5650.850
460.992, 5656.823
461.474, 5678.322
461.957, 5730.404
462.439, 5783.758
462.921, 5820.168
463.403, 5847.352
463.885, 5884.838
464.367, 5944.434
464.849, 6013.265
465.332, 6081.190
465.814, 6147.134
466.296, 6194.906
466.778, 6217.242
467.260, 6222.645
467.742, 6228.503
468.224, 6241.588
468.706, 6212.498
469.188, 6110.168
469.671, 5982.459
470.153, 5858.493
470.635, 5740.038
471.117, 5618.126
471.599, 5484.559
472.081, 5351.379
472.563, 5256.599
473.045, 5222.438
473.527, 5188.894
474.010, 5153.333
474.492, 5115.358
474.974, 5070.572
475.456, 5021.505
475.938, 4979.746
476.420, 4956.027
476.902, 4945.300
477.384, 4931.066
477.866, 4910.989
478.349, 4900.286
478.831, 4914.557
479.313, 4937.008
479.795, 4937.100
480.277, 4905.098
480.759, 4884.753
481.241, 4906.207
481.723, 4942.190
482.206, 4958.094
482.688, 4950.819
483.170, 4936.775
483.652, 4927.649
484.134, 4923.139
484.616, 4920.568
485.098, 4922.386
485.580, 4923.244
486.062, 4914.269
486.545, 4909.097
487.027, 4923.675
487.509, 4959.074
487.991, 4999.390
488.473, 5029.607
488.955, 5050.884
489.437, 5071.005
489.919, 5086.527
490.402, 5109.118
490.884, 5151.270
491.366, 5202.189
491.848, 5245.442
492.330, 5275.462
492.812, 5307.603
493.294, 5339.750
493.776, 5371.890
494.259, 5404.031
494.741, 5436.171
495.223, 5468.310
495.705, 5500.452
496.187, 5532.599
496.669, 5564.739
497.151, 5596.880
497.633, 5629.020
498.115, 5661.159
498.598, 5693.300
499.080, 5725.448
499.562, 5757.587
500.044, 5789.729
500.526, 5821.868
501.008, 5842.625
501.490, 5871.840
501.972, 5909.772
502.454, 5956.123
502.937, 6016.285
503.419, 6083.280
503.901, 6148.321
504.383, 6210.133
504.865, 6268.160
505.347, 6321.577
505.829, 6370.846
506.311, 6423.124
506.793, 6479.620
507.276, 6513.524
507.758, 6498.285
508.240, 6434.333
508.722, 6367.447
509.204, 6304.637
509.686, 6230.048
510.168, 6137.628
510.651, 6033.269
511.133, 5918.594
511.615, 5795.719
512.097, 5677.567
512.579, 5579.552
513.061, 5500.297
513.543, 5420.427
514.025, 5337.939
514.507, 5260.448
514.990, 5195.847
515.472, 5138.031
515.954, 5078.075
516.436, 5012.879
516.918, 4950.598
517.400, 4891.871
517.882, 4840.008
518.364, 4804.743
518.846, 4785.747
519.329, 4764.386
519.811, 4723.750
520.293, 4666.290
520.775, 4617.960
521.257, 4580.309
521.739, 4551.115
522.221, 4533.963
522.703, 4522.649
523.185, 4513.410
523.668, 4504.708
524.150, 4493.769
524.632, 4475.806
525.114, 4453.380
525.596, 4438.346
526.078, 4432.423
526.560, 4425.428
527.042, 4409.612
527.524, 4391.541
528.007, 4384.691
528.489, 4393.950
528.971, 4398.079
529.453, 4386.182
529.935, 4368.879
530.417, 4356.125
530.899, 4348.703
531.381, 4345.207
531.864, 4346.030
532.346, 4347.067
532.828, 4330.843
533.310, 4281.100
533.792, 4245.932
534.274, 4236.121
534.756, 4236.556
535.238, 4243.420
535.721, 4253.040
536.203, 4255.046
536.685, 4237.382
537.167, 4212.954
537.649, 4202.766
538.131, 4206.076
538.613, 4213.547
539.095, 4223.862
539.578, 4232.807
540.060, 4233.121
540.542, 4222.337
541.024, 4213.150
541.506, 4200.539
541.988, 4194.922
542.470, 4208.321
542.952, 4232.160
543.434, 4248.698
543.917, 4249.859
544.399, 4243.500
544.881, 4244.500
545.363, 4255.292
545.845, 4253.986
546.327, 4227.494
546.809, 4204.295
547.291, 4205.529
547.773, 4221.681
548.256, 4231.838
548.738, 4228.412
549.220, 4222.048
549.702, 4220.695
550.184, 4221.568
550.666, 4216.953
551.148, 4205.454
551.630, 4197.495
552.112, 4205.669
552.595, 4229.611
553.077, 4234.389
553.559, 4187.831
554.041, 4160.413
554.523, 4175.903
555.005, 4206.993
555.487, 4229.875
555.969, 4239.366
556.451, 4240.685
556.934, 4234.330
557.416, 4223.459
557.898, 4217.470
558.380, 4216.677
558.862, 4218.740
559.344, 4223.793
559.826, 4230.118
560.308, 4233.445
560.791, 4231.717
561.273, 4234.268
561.755, 4247.456
562.237, 4261.345
562.719, 4267.884
563.201, 4268.730
563.683, 4269.133
564.165, 4271.598
564.648, 4277.772
565.130, 4291.364
565.612, 4312.951
566.094, 4338.902
566.576, 4371.992
567.058, 4405.462
567.540, 4437.840
568.022, 4467.250
568.505, 4487.561
568.987, 4483.322
569.469, 4487.766
569.951, 4530.758
570.433, 4597.461
570.915, 4658.382
571.397, 4707.221
571.879, 4755.792
572.361, 4816.312
572.844, 4888.382
573.326, 4962.166
573.808, 5033.705
574.290, 5112.916
574.772, 5204.825
575.254, 5302.177
575.736, 5398.165
576.218, 5492.279
576.700, 5589.493
577.183, 5695.170
577.665, 5805.734
578.147, 5915.474
578.629, 6023.981
579.111, 6131.620
579.593, 6242.425
580.075, 6344.456
580.557, 6416.315
581.039, 6451.214
581.522, 6470.431
582.004, 6486.087
582.486, 6474.361
582.968, 6420.909
583.450, 6331.406
583.932, 6212.414
584.414, 6065.310
584.896, 5910.597
585.378, 5775.272
585.861, 5658.769
586.343, 5540.944
586.825, 5416.289
587.307, 5299.520
587.789, 5198.176
588.271, 5113.036
588.753, 5043.234
589.235, 4995.169
589.718, 4951.689
590.200, 4911.765
590.682, 4871.267
591.164, 4820.512
591.646, 4762.925
592.128, 4716.860
592.610, 4696.686
593.092, 4692.775
593.575, 4672.547
594.057, 4627.437
594.539, 4597.921
595.021, 4599.784
595.503, 4611.051
595.985, 4620.486
596.467, 4626.056
596.949, 4618.849
597.432, 4583.524
597.914, 4547.382
598.396, 4526.753
598.878, 4518.769
599.360, 4521.443
599.842, 4533.307
600.324, 4543.936
600.806, 4541.186
601.288, 4525.886
601.771, 4521.732
602.253, 4540.609
602.735, 4551.283
603.217, 4538.210
603.699, 4520.399
604.181, 4514.833
604.663, 4522.696
605.145, 4531.700
605.627, 4532.675
606.110, 4533.208
606.592, 4541.412
607.074, 4557.351
607.556, 4582.716
608.038, 4619.563
608.520, 4656.418
609.002, 4675.306
609.484, 4671.716
609.966, 4672.657
610.449, 4676.392
610.931, 4686.740
611.413, 4705.155
611.895, 4730.613
612.377, 4762.353
612.859, 4800.166
613.341, 4841.846
613.823, 4889.396
614.305, 4938.135
614.788, 4976.841
615.270, 5005.446
615.752, 5035.583
616.234, 5073.112
616.716, 5116.053
617.198, 5160.347
617.680, 5205.476
618.162, 5253.105
618.645, 5292.639
619.127, 5345.066
619.609, 5427.630
620.091, 5528.008
620.573, 5623.927
621.055, 5706.599
621.537, 5789.460
622.019, 5882.062
622.502, 5985.965
622.984, 6103.692
623.466, 6234.094
623.948, 6393.711
624.430, 6598.139
624.912, 6835.643
625.394, 7069.998
625.876, 7265.708
626.359, 7518.829
626.841, 7839.777
627.323, 8211.743
627.805, 8631.877
628.287, 9094.636
628.769, 9596.044
629.251, 10135.130
629.733, 10707.530
630.215, 11303.460
630.698, 11923.960
631.180, 12584.510
631.662, 13286.070
632.144, 14018.080
632.626, 14771.670
633.108, 15546.650
633.590, 16342.790
634.072, 17205.369
634.554, 18023.330
