##NAMES=Wolsendorfite
##RRUFFID=R090051
##IDEAL CHEMISTRY=Pb^2+^_7_(U^6+^O_2_)_14_O_19_(OH)_4_&#183;12H_2_O
##LOCALITY=Shinkolobwe mine, Katanga, Congo
##OWNER=RRUFF
##SOURCE=William W. Pinch
##DESCRIPTION=A crust of orange blocky crystals.  Sample is from the specimen used in the Burns (1999) study. Associated with rutherfordine.
##STATUS=The identification of this mineral has been confirmed by single-crystal X-ray diffraction.
##URL=rruff.info/R090051
92.02539, 21801.45
92.50751, 21661.49
92.98962, 21753.21
93.47174, 21885.26
93.95386, 22090.51
94.43597, 22241.21
94.91809, 22317.59
95.40021, 22350.38
95.88232, 22352.56
96.36444, 22300.64
96.84656, 22252.13
97.32867, 22226.72
97.81078, 22228.78
98.29290, 22260.00
98.77502, 22307.94
99.25713, 22337.13
99.73925, 22388.44
100.2214, 22458.51
100.7035, 22555.76
101.1856, 22684.54
101.6677, 22842.16
102.1498, 23019.53
102.6320, 23206.07
103.1141, 23400.23
103.5962, 23613.53
104.0783, 23854.13
104.5604, 24108.57
105.0425, 24363.52
105.5247, 24617.39
106.0068, 24863.90
106.4889, 25082.91
106.9710, 25272.70
107.4531, 25453.49
107.9352, 25627.54
108.4173, 25796.70
108.8995, 25974.34
109.3816, 26158.46
109.8637, 26359.14
110.3458, 26583.46
110.8279, 26833.57
111.3100, 27105.23
111.7922, 27385.63
112.2743, 27657.64
112.7564, 27993.48
113.2385, 28414.71
113.7206, 28899.87
114.2027, 29438.29
114.6849, 30023.37
115.1670, 30655.88
115.6491, 31326.94
116.1312, 32054.44
116.6133, 32815.57
117.0954, 33619.40
117.5776, 34453.21
118.0597, 35305.07
118.5418, 36173.25
119.0239, 37060.13
119.5060, 37897.52
119.9881, 38722.18
120.4703, 39478.04
120.9524, 40169.44
121.4345, 40780.41
121.9166, 41268.73
122.3987, 41596.00
122.8808, 41730.34
123.3630, 41706.15
123.8451, 41502.69
124.3272, 41151.77
124.8093, 40673.66
125.2914, 40065.06
125.7735, 39359.55
126.2557, 38558.79
126.7378, 37682.98
127.2199, 36792.29
127.7020, 35903.98
128.1841, 35019.51
128.6662, 34156.70
129.1483, 33309.88
129.6305, 32496.45
130.1126, 31712.77
130.5947, 30958.78
131.0768, 30246.03
131.5589, 29587.51
132.0410, 28986.74
132.5232, 28414.51
133.0053, 27855.19
133.4874, 27329.72
133.9695, 26854.54
134.4516, 26431.38
134.9337, 26052.94
135.4159, 25707.72
135.8980, 25404.77
136.3801, 25119.89
136.8622, 24842.12
137.3443, 24582.24
137.8264, 24352.46
138.3086, 24156.63
138.7907, 23987.19
139.2728, 23828.35
139.7549, 23664.90
140.2370, 23530.17
140.7191, 23428.42
141.2013, 23356.31
141.6834, 23308.66
142.1655, 23282.82
142.6476, 23280.71
143.1297, 23310.91
143.6118, 23362.68
144.0939, 23448.13
144.5761, 23577.81
145.0582, 23747.96
145.5403, 23942.56
146.0224, 24155.38
146.5045, 24387.78
146.9866, 24635.59
147.4688, 24901.40
147.9509, 25179.66
148.4330, 25476.75
148.9151, 25799.91
149.3972, 26098.28
149.8793, 26359.39
150.3615, 26575.32
150.8436, 26727.19
151.3257, 26820.09
151.8078, 26838.22
152.2899, 26742.71
152.7720, 26516.03
153.2542, 26187.12
153.7363, 25762.76
154.2184, 25266.87
154.7005, 24726.67
155.1826, 24152.13
155.6647, 23547.02
156.1469, 22960.93
156.6290, 22391.35
157.1111, 21850.26
157.5932, 21339.32
158.0753, 20858.41
158.5574, 20411.60
159.0396, 20001.93
159.5217, 19630.41
160.0038, 19291.21
160.4859, 18990.70
160.9680, 18710.71
161.4501, 18445.62
161.9323, 18195.28
162.4144, 17962.68
162.8965, 17753.01
163.3786, 17568.81
163.8607, 17399.60
164.3428, 17244.54
164.8250, 17103.69
165.3071, 16980.21
165.7892, 16873.80
166.2713, 16778.79
166.7534, 16689.27
167.2355, 16605.45
167.7177, 16529.32
168.1998, 16457.56
168.6819, 16394.58
169.1640, 16345.05
169.6461, 16309.07
170.1282, 16290.15
170.6104, 16296.87
171.0925, 16325.72
171.5746, 16365.69
172.0567, 16414.95
172.5388, 16472.24
173.0209, 16534.65
173.5031, 16604.21
173.9852, 16675.33
174.4673, 16744.76
174.9494, 16812.28
175.4315, 16877.25
175.9136, 16938.71
176.3958, 16996.83
176.8779, 17052.65
177.3600, 17106.44
177.8421, 17157.53
178.3242, 17201.87
178.8063, 17240.88
179.2885, 17283.18
179.7706, 17335.91
180.2527, 17397.93
180.7348, 17477.11
181.2169, 17578.40
181.6990, 17693.24
182.1812, 17819.45
182.6633, 17956.28
183.1454, 18100.79
183.6275, 18249.36
184.1096, 18401.38
184.5917, 18559.53
185.0738, 18717.73
185.5560, 18884.37
186.0381, 19066.96
186.5202, 19266.54
187.0023, 19476.00
187.4844, 19681.52
187.9665, 19874.39
188.4487, 20079.27
188.9308, 20292.20
189.4129, 20516.75
189.8950, 20754.78
190.3771, 21005.92
190.8592, 21273.40
191.3414, 21565.12
191.8235, 21889.13
192.3056, 22220.81
192.7877, 22548.80
193.2698, 22884.04
193.7519, 23243.18
194.2341, 23633.21
194.7162, 24047.17
195.1983, 24473.73
195.6804, 24905.64
196.1625, 25362.14
196.6446, 25864.32
197.1268, 26396.58
197.6089, 26925.97
198.0910, 27440.81
198.5731, 27949.16
199.0552, 28460.47
199.5373, 28974.88
200.0195, 29501.70
200.5016, 30055.39
200.9837, 30632.16
201.4658, 31204.44
201.9479, 31761.70
202.4300, 32318.09
202.9122, 32882.87
203.3943, 33459.50
203.8764, 34036.13
204.3585, 34602.09
204.8406, 35158.61
205.3227, 35717.98
205.8048, 36286.10
206.2870, 36853.85
206.7691, 37416.21
207.2512, 37971.28
207.7333, 38511.62
208.2154, 39026.34
208.6975, 39514.58
209.1797, 39981.62
209.6618, 40420.21
210.1439, 40842.94
210.6260, 41257.93
211.1081, 41665.10
211.5902, 42051.05
212.0724, 42400.51
212.5545, 42711.32
213.0366, 42982.03
213.5187, 43235.81
214.0008, 43437.96
214.4829, 43567.52
214.9651, 43619.33
215.4472, 43602.54
215.9293, 43529.38
216.4114, 43399.79
216.8935, 43202.48
217.3756, 42944.56
217.8578, 42630.45
218.3399, 42259.41
218.8220, 41833.93
219.3041, 41355.20
219.7862, 40825.81
220.2683, 40221.59
220.7505, 39608.37
221.2326, 38985.26
221.7147, 38352.85
222.1968, 37708.12
222.6789, 37051.23
223.1610, 36387.53
223.6432, 35722.61
224.1253, 35039.67
224.6074, 34397.53
225.0895, 33805.98
225.5716, 33247.79
226.0537, 32708.59
226.5358, 32183.65
227.0180, 31684.57
227.5001, 31227.63
227.9822, 30819.28
228.4643, 30447.00
228.9464, 30107.26
229.4285, 29805.31
229.9107, 29553.53
230.3928, 29355.06
230.8749, 29198.29
231.3570, 29075.99
231.8391, 28988.61
232.3212, 28924.30
232.8034, 28884.53
233.2855, 28866.35
233.7676, 28867.79
234.2497, 28889.34
234.7318, 28925.71
235.2139, 28968.18
235.6961, 29016.84
236.1782, 29094.51
236.6603, 29213.98
237.1424, 29363.79
237.6245, 29534.55
238.1066, 29733.45
238.5888, 29928.13
239.0709, 30089.96
239.5530, 30224.55
240.0351, 30343.18
240.5172, 30434.21
240.9993, 30514.61
241.4815, 30616.24
241.9636, 30744.12
242.4457, 30886.57
242.9278, 31045.31
243.4099, 31212.08
243.8920, 31368.65
244.3742, 31502.41
244.8563, 31621.03
245.3384, 31743.98
245.8205, 31877.25
246.3026, 32000.45
246.7847, 32100.51
247.2668, 32184.18
247.7490, 32262.75
248.2311, 32351.96
248.7132, 32434.21
249.1953, 32465.18
249.6774, 32432.48
250.1595, 32369.60
250.6417, 32284.96
251.1238, 32185.06
251.6059, 32077.43
252.0880, 31965.18
252.5701, 31847.63
253.0522, 31721.79
253.5344, 31589.09
254.0165, 31445.38
254.4986, 31282.29
254.9807, 31112.52
255.4628, 30948.60
255.9449, 30796.89
256.4271, 30653.51
256.9092, 30508.97
257.3913, 30365.97
257.8734, 30217.13
258.3555, 30066.67
258.8376, 29908.67
259.3198, 29738.29
259.8019, 29554.24
260.2840, 29354.01
260.7661, 29130.72
261.2482, 28873.84
261.7303, 28611.77
262.2125, 28349.86
262.6946, 28082.01
263.1767, 27804.51
263.6588, 27514.66
264.1409, 27214.59
264.6230, 26901.78
265.1052, 26555.08
265.5873, 26238.26
266.0694, 25962.55
266.5515, 25707.13
267.0336, 25460.09
267.5157, 25218.29
267.9979, 24983.34
268.4800, 24757.32
268.9621, 24538.27
269.4442, 24336.50
269.9263, 24162.43
270.4084, 23994.59
270.8906, 23817.99
271.3727, 23631.86
271.8548, 23447.83
272.3369, 23279.64
272.8190, 23131.29
273.3011, 22991.03
273.7833, 22860.06
274.2654, 22734.77
274.7475, 22611.64
275.2296, 22491.70
275.7117, 22381.19
276.1938, 22287.16
276.6760, 22212.36
277.1581, 22137.55
277.6402, 22055.54
278.1223, 21979.78
278.6044, 21912.41
279.0865, 21855.68
279.5686, 21816.47
280.0508, 21803.38
280.5329, 21817.42
281.0150, 21806.78
281.4971, 21751.40
281.9792, 21696.72
282.4613, 21663.80
282.9435, 21645.26
283.4256, 21621.75
283.9077, 21580.85
284.3898, 21523.71
284.8719, 21463.44
285.3540, 21408.73
285.8362, 21341.48
286.3183, 21246.68
286.8004, 21136.94
287.2825, 21035.19
287.7646, 20953.56
288.2467, 20886.69
288.7289, 20814.59
289.2110, 20734.82
289.6931, 20653.83
290.1752, 20576.48
290.6573, 20497.93
291.1394, 20411.06
291.6216, 20312.92
292.1037, 20208.00
292.5858, 20102.71
293.0679, 19990.20
293.5500, 19891.99
294.0321, 19816.26
294.5143, 19753.40
294.9964, 19690.20
295.4785, 19622.95
295.9606, 19563.71
296.4427, 19531.13
296.9248, 19535.72
297.4070, 19537.94
297.8891, 19524.91
298.3712, 19515.89
298.8533, 19530.85
299.3354, 19571.76
299.8175, 19622.46
300.2997, 19666.43
300.7818, 19701.76
301.2639, 19745.98
301.7460, 19797.86
302.2281, 19858.77
302.7102, 19928.29
303.1924, 20007.08
303.6745, 20100.49
304.1566, 20215.50
304.6387, 20351.23
305.1208, 20483.71
305.6029, 20601.38
306.0851, 20727.53
306.5672, 20874.20
307.0493, 21039.25
307.5314, 21216.87
308.0135, 21406.53
308.4956, 21604.02
308.9778, 21787.49
309.4599, 21940.40
309.9420, 22102.35
310.4241, 22292.71
310.9062, 22500.21
311.3883, 22700.54
311.8705, 22882.36
312.3526, 23054.02
312.8347, 23231.72
313.3168, 23419.23
313.7989, 23604.43
314.2810, 23786.35
314.7632, 23964.01
315.2453, 24138.23
315.7274, 24308.85
316.2095, 24474.65
316.6916, 24639.21
317.1737, 24810.83
317.6559, 24940.93
318.1380, 24999.06
318.6201, 25029.77
319.1022, 25070.97
319.5843, 25128.34
320.0664, 25191.42
320.5485, 25250.31
321.0306, 25304.36
321.5128, 25366.10
321.9949, 25435.41
322.4770, 25512.36
322.9591, 25595.20
323.4412, 25684.81
323.9233, 25785.87
324.4055, 25899.27
324.8876, 26027.64
325.3697, 26178.63
325.8518, 26352.42
326.3339, 26544.46
326.8160, 26753.79
327.2982, 26980.22
327.7803, 27227.37
328.2624, 27498.92
328.7445, 27788.16
329.2266, 28078.62
329.7087, 28359.89
330.1909, 28660.13
330.6730, 28988.56
331.1551, 29336.62
331.6372, 29692.18
332.1193, 30051.61
332.6014, 30421.28
333.0836, 30812.95
333.5657, 31230.24
334.0478, 31663.18
334.5299, 32108.35
335.0120, 32568.25
335.4941, 33046.22
335.9763, 33540.17
336.4584, 34057.95
336.9405, 34610.37
337.4226, 35204.60
337.9047, 35751.11
338.3868, 36239.77
338.8690, 36702.02
339.3511, 37152.61
339.8332, 37592.29
340.3153, 38013.60
340.7974, 38412.01
341.2795, 38788.54
341.7617, 39142.67
342.2438, 39482.66
342.7259, 39794.15
343.2080, 40083.30
343.6901, 40340.26
344.1722, 40549.61
344.6544, 40704.49
345.1365, 40808.05
345.6186, 40866.24
346.1007, 40890.76
346.5828, 40839.69
347.0649, 40688.98
347.5471, 40476.58
348.0292, 40243.09
348.5113, 39994.21
348.9934, 39691.11
349.4755, 39287.66
349.9576, 38759.50
350.4398, 38212.58
350.9219, 37650.40
351.4040, 37069.71
351.8861, 36469.81
352.3682, 35854.41
352.8503, 35227.83
353.3325, 34596.41
353.8146, 33960.87
354.2967, 33311.25
354.7788, 32623.49
355.2609, 31950.72
355.7430, 31301.93
356.2252, 30676.70
356.7073, 30070.87
357.1894, 29483.92
357.6715, 28914.62
358.1536, 28353.27
358.6357, 27801.39
359.1179, 27257.01
359.5999, 26706.73
360.0821, 26170.89
360.5642, 25674.60
361.0463, 25217.60
361.5284, 24779.45
362.0105, 24332.80
362.4926, 23876.51
362.9748, 23415.43
363.4569, 22951.83
363.9390, 22483.04
364.4211, 22003.63
364.9032, 21515.35
365.3853, 21032.61
365.8675, 20564.33
366.3496, 20110.11
366.8317, 19666.21
367.3138, 19228.89
367.7959, 18808.98
368.2780, 18408.36
368.7602, 18026.94
369.2423, 17666.36
369.7244, 17329.48
370.2065, 17008.17
370.6886, 16685.14
371.1707, 16357.40
371.6529, 16037.11
372.1350, 15717.44
372.6171, 15410.31
373.0992, 15122.55
373.5813, 14856.08
374.0634, 14600.42
374.5456, 14343.42
375.0277, 14084.45
375.5098, 13847.96
375.9919, 13647.14
376.4740, 13456.49
376.9561, 13268.28
377.4383, 13080.12
377.9204, 12889.26
378.4025, 12688.11
378.8846, 12485.32
379.3667, 12306.83
379.8488, 12161.92
380.3310, 12017.57
380.8131, 11856.41
381.2952, 11690.64
381.7773, 11531.86
382.2594, 11382.84
382.7415, 11241.67
383.2237, 11107.74
383.7058, 10980.76
384.1879, 10859.19
384.6700, 10743.71
385.1521, 10633.03
385.6342, 10521.50
386.1164, 10410.59
386.5985, 10310.78
387.0806, 10232.63
387.5627, 10170.28
388.0448, 10108.64
388.5269, 10045.39
389.0091, 9987.526
389.4912, 9946.243
389.9733, 9914.090
390.4554, 9873.833
390.9375, 9810.453
391.4196, 9748.365
391.9018, 9709.556
392.3839, 9692.652
392.8660, 9686.607
393.3481, 9687.022
393.8302, 9695.865
394.3123, 9715.442
394.7945, 9745.358
395.2766, 9784.885
395.7587, 9842.213
396.2408, 9906.829
396.7229, 9957.582
397.2050, 9989.014
397.6872, 10017.66
398.1693, 10061.77
398.6514, 10122.78
399.1335, 10187.48
399.6156, 10250.89
400.0977, 10322.00
400.5798, 10410.21
401.0620, 10513.11
401.5441, 10619.52
402.0262, 10722.38
402.5083, 10823.38
402.9904, 10928.90
403.4725, 11031.37
403.9547, 11146.90
404.4368, 11281.44
404.9189, 11429.78
405.4010, 11588.02
405.8831, 11753.73
406.3652, 11920.76
406.8474, 12080.12
407.3295, 12229.46
407.8116, 12374.00
408.2937, 12510.69
408.7758, 12645.28
409.2579, 12777.48
409.7401, 12910.38
410.2222, 13052.11
410.7043, 13211.56
411.1864, 13385.43
411.6685, 13549.82
412.1506, 13700.91
412.6328, 13845.76
413.1149, 13981.52
413.5970, 14113.49
414.0791, 14249.86
414.5612, 14392.97
415.0433, 14534.06
415.5255, 14660.38
416.0076, 14772.61
416.4897, 14869.42
416.9718, 14942.20
417.4539, 15005.95
417.9360, 15065.47
418.4182, 15121.76
418.9003, 15173.67
419.3824, 15218.22
419.8645, 15258.13
420.3466, 15309.06
420.8287, 15380.03
421.3109, 15442.28
421.7930, 15483.70
422.2751, 15510.76
422.7572, 15528.82
423.2393, 15538.89
423.7214, 15542.29
424.2036, 15540.54
424.6857, 15533.58
425.1678, 15519.54
425.6499, 15495.25
426.1320, 15467.10
426.6141, 15443.62
427.0963, 15423.61
427.5784, 15395.84
428.0605, 15354.91
428.5426, 15303.71
429.0247, 15243.58
429.5068, 15173.53
429.9890, 15107.38
430.4711, 15056.76
430.9532, 15016.36
431.4353, 14968.58
431.9174, 14912.43
432.3995, 14850.16
432.8817, 14779.13
433.3638, 14703.35
433.8459, 14631.24
434.3280, 14566.02
434.8101, 14502.97
435.2922, 14434.50
435.7744, 14357.31
436.2565, 14289.52
436.7386, 14232.85
437.2207, 14184.64
437.7028, 14146.88
438.1849, 14117.00
438.6671, 14086.60
439.1492, 14049.47
439.6313, 14007.71
440.1134, 13974.36
440.5955, 13951.77
441.0776, 13935.11
441.5598, 13916.36
442.0418, 13907.35
442.5240, 13925.29
443.0061, 13972.40
443.4882, 14030.28
443.9703, 14072.82
444.4524, 14093.13
444.9345, 14131.73
445.4167, 14193.23
445.8988, 14268.94
446.3809, 14360.76
446.8630, 14463.83
447.3451, 14570.20
447.8272, 14673.20
448.3094, 14779.46
448.7915, 14906.75
449.2736, 15059.38
449.7557, 15220.24
450.2378, 15386.92
450.7199, 15560.06
451.2021, 15737.93
451.6842, 15921.21
452.1663, 16119.17
452.6484, 16342.89
453.1305, 16588.40
453.6126, 16831.82
454.0948, 17067.83
454.5769, 17308.39
455.0590, 17560.17
455.5411, 17822.30
456.0232, 18096.69
456.5053, 18387.63
456.9875, 18683.85
457.4696, 18971.93
457.9517, 19255.69
458.4338, 19559.62
458.9159, 19895.41
459.3980, 20248.73
459.8802, 20601.61
460.3623, 20953.92
460.8444, 21304.64
461.3265, 21640.34
461.8086, 21981.97
462.2907, 22357.08
462.7729, 22761.12
463.2550, 23159.15
463.7371, 23530.25
464.2192, 23875.83
464.7013, 24216.28
465.1834, 24558.60
465.6656, 24887.30
466.1477, 25198.51
466.6298, 25498.92
467.1119, 25794.09
467.5940, 26086.97
468.0761, 26376.86
468.5583, 26667.93
469.0404, 26971.27
469.5225, 27218.00
470.0046, 27385.79
470.4867, 27518.50
470.9688, 27620.93
471.4510, 27697.61
471.9331, 27755.44
472.4152, 27799.01
472.8973, 27817.03
473.3794, 27789.21
473.8615, 27715.05
474.3437, 27597.57
474.8258, 27434.21
475.3079, 27225.93
475.7900, 26965.41
476.2721, 26658.21
476.7542, 26323.15
477.2364, 25955.54
477.7185, 25573.41
478.2006, 25211.76
478.6827, 24872.57
479.1648, 24552.32
479.6469, 24252.29
480.1291, 23970.33
480.6112, 23703.07
481.0933, 23453.82
481.5754, 23211.32
482.0575, 22960.03
482.5396, 22714.12
483.0217, 22499.64
483.5038, 22322.04
483.9860, 22170.00
484.4681, 22033.99
484.9502, 21915.40
485.4323, 21807.52
485.9144, 21701.73
486.3965, 21614.92
486.8787, 21554.61
487.3608, 21517.82
487.8429, 21498.79
488.3250, 21495.04
488.8071, 21508.19
489.2892, 21542.26
489.7714, 21606.23
490.2535, 21670.42
490.7356, 21718.31
491.2177, 21781.31
491.6998, 21880.30
492.1819, 22007.68
492.6641, 22141.22
493.1462, 22265.14
493.6283, 22388.68
494.1104, 22539.43
494.5925, 22721.25
495.0746, 22918.80
495.5568, 23132.67
496.0389, 23357.04
496.5210, 23594.33
497.0031, 23841.91
497.4852, 24084.19
497.9673, 24301.30
498.4495, 24503.63
498.9316, 24718.99
499.4137, 24950.04
499.8958, 25186.43
500.3779, 25419.26
500.8600, 25657.91
501.3422, 25920.25
501.8243, 26217.36
502.3064, 26517.63
502.7885, 26808.16
503.2706, 27092.36
503.7527, 27387.42
504.2349, 27696.73
504.7170, 27990.01
505.1991, 28233.56
505.6812, 28425.84
506.1633, 28623.75
506.6454, 28830.15
507.1276, 29038.30
507.6097, 29249.15
508.0918, 29459.53
508.5739, 29668.24
509.0560, 29874.16
509.5381, 30065.13
510.0203, 30220.50
510.5024, 30336.63
510.9845, 30430.07
511.4666, 30502.84
511.9487, 30550.43
512.4308, 30570.26
512.9130, 30563.38
513.3951, 30529.58
513.8772, 30465.78
514.3593, 30383.47
514.8414, 30312.64
515.3235, 30260.65
515.8057, 30160.92
516.2878, 29988.15
516.7699, 29768.17
517.2520, 29529.84
517.7341, 29271.07
518.2162, 28975.96
518.6984, 28613.20
519.1805, 28222.96
519.6626, 27859.68
520.1447, 27521.62
520.6268, 27171.86
521.1089, 26792.87
521.5911, 26391.18
522.0732, 25988.60
522.5553, 25588.99
523.0374, 25174.47
523.5195, 24747.36
524.0016, 24302.34
524.4838, 23825.05
524.9659, 23324.91
525.4480, 22832.91
525.9301, 22374.31
526.4122, 21944.96
526.8943, 21511.54
527.3765, 21072.98
527.8586, 20636.76
528.3407, 20194.35
528.8228, 19758.71
529.3049, 19345.43
529.7870, 18953.57
530.2692, 18566.69
530.7513, 18166.78
531.2334, 17759.66
531.7155, 17375.79
532.1976, 17022.90
532.6797, 16678.02
533.1619, 16323.18
533.6440, 15976.48
534.1261, 15655.68
534.6082, 15365.68
535.0903, 15086.90
535.5724, 14811.81
536.0546, 14536.90
536.5367, 14245.74
537.0188, 13934.39
537.5009, 13633.84
537.9830, 13370.26
538.4651, 13137.80
538.9473, 12904.94
539.4294, 12663.61
539.9115, 12430.99
540.3936, 12212.45
540.8757, 12003.84
541.3578, 11801.33
541.8400, 11603.70
542.3221, 11406.78
542.8042, 11206.24
543.2863, 11001.82
543.7684, 10810.43
544.2505, 10639.50
544.7326, 10475.16
545.2147, 10318.18
545.6968, 10165.31
546.1790, 10014.33
546.6611, 9864.492
547.1432, 9715.616
547.6253, 9568.119
548.1074, 9421.858
548.5895, 9282.209
549.0717, 9151.310
549.5538, 9023.436
550.0359, 8893.221
550.5180, 8764.604
551.0001, 8642.523
551.4822, 8527.807
551.9644, 8420.770
552.4465, 8324.476
552.9286, 8235.038
553.4107, 8144.712
553.8928, 8052.006
554.3749, 7957.020
554.8571, 7858.796
555.3392, 7757.280
555.8213, 7662.936
556.3034, 7580.275
556.7855, 7498.126
557.2676, 7410.631
557.7498, 7322.956
558.2319, 7242.597
558.7140, 7170.702
559.1961, 7103.900
559.6782, 7038.996
560.1603, 6976.435
560.6425, 6909.373
561.1246, 6835.358
561.6067, 6761.069
562.0888, 6685.159
562.5709, 6611.664
563.0530, 6546.582
563.5352, 6491.870
564.0173, 6436.488
564.4994, 6367.223
564.9815, 6289.565
565.4636, 6222.122
565.9457, 6167.299
566.4279, 6118.216
566.9100, 6073.033
567.3921, 6029.590
567.8742, 5980.272
568.3563, 5919.938
568.8384, 5862.358
569.3206, 5815.013
569.8027, 5771.584
570.2848, 5723.217
570.7669, 5669.390
571.2490, 5615.649
571.7311, 5567.650
572.2133, 5524.565
572.6954, 5479.212
573.1775, 5422.447
573.6596, 5376.272
574.1417, 5353.087
574.6238, 5334.541
575.1060, 5303.665
575.5881, 5259.176
576.0702, 5213.109
576.5523, 5176.513
577.0344, 5146.223
577.5165, 5109.534
577.9987, 5064.769
578.4808, 5021.088
578.9629, 4981.934
579.4450, 4946.862
579.9271, 4915.169
580.4092, 4887.063
580.8914, 4860.760
581.3735, 4839.898
581.8556, 4817.821
582.3377, 4783.394
582.8198, 4738.783
583.3019, 4698.403
583.7841, 4670.714
584.2662, 4652.415
584.7483, 4634.466
585.2304, 4618.083
585.7125, 4599.798
586.1946, 4581.250
586.6768, 4559.408
587.1589, 4529.008
