##NAMES=Wooldridgeite
##RRUFFID=R100005
##IDEAL CHEMISTRY=Na_2_CaCu^2+^_2_(P_2_O_7_)_2_&#183;10H_2_O
##LOCALITY=Judkins Quarry, Nuneaton, Warwickshire, England
##OWNER=RRUFF
##SOURCE=William Pinch
##DESCRIPTION=Pale green equant rhombic-dipyramidal crystals, co-type sample
##STATUS=The identification of this mineral has been confirmed by single-crystal X-ray diffraction.
##URL=rruff.info/R100005
89.60352, 8.811766
90.08563, 7.272058
90.56775, 6.995551
91.04987, 8.875509
91.53198, 11.19962
92.01410, 11.51596
92.49622, 9.922647
92.97833, 8.142585
93.46045, 7.753298
93.94257, 8.460389
94.42468, 9.286196
94.90680, 10.09298
95.38892, 10.75297
95.87103, 10.83160
96.35315, 10.26869
96.83527, 9.357959
97.31738, 8.335807
97.79950, 7.189265
98.28162, 6.252739
98.76373, 5.636897
99.24585, 5.340844
99.72797, 5.469543
100.2101, 6.179490
100.6922, 7.168040
101.1743, 7.727020
101.6564, 7.781491
102.1385, 7.623645
102.6207, 7.350871
103.1028, 6.846640
103.5849, 6.620402
104.0670, 6.839218
104.5491, 7.420949
105.0313, 7.685907
105.5134, 7.269416
105.9955, 6.915689
106.4776, 7.278550
106.9597, 9.367723
107.4418, 10.72555
107.9240, 10.65749
108.4061, 8.888876
108.8882, 7.835155
109.3703, 8.018363
109.8524, 8.721095
110.3345, 9.184882
110.8167, 9.364358
111.2988, 9.334658
111.7809, 9.080816
112.2630, 8.540133
112.7451, 7.961226
113.2272, 7.109919
113.7094, 6.272309
114.1915, 5.912250
114.6736, 6.626235
115.1557, 7.503432
115.6378, 8.061642
116.1199, 7.928686
116.6021, 7.994765
117.0842, 8.771602
117.5663, 10.03603
118.0484, 11.11774
118.5305, 11.90395
119.0126, 12.30815
119.4948, 12.19366
119.9769, 10.70519
120.4590, 9.513565
120.9411, 9.829571
121.4232, 11.51422
121.9053, 13.55230
122.3875, 15.86680
122.8696, 18.02732
123.3517, 19.43628
123.8338, 18.91571
124.3159, 18.01888
124.7980, 18.46985
125.2802, 20.30228
125.7623, 22.65467
126.2444, 24.72559
126.7265, 26.69988
127.2086, 29.07018
127.6907, 32.25230
128.1729, 35.96117
128.6550, 39.57426
129.1371, 43.01535
129.6192, 46.59090
130.1013, 50.62343
130.5834, 55.10351
131.0656, 60.25143
131.5477, 66.26242
132.0298, 73.06931
132.5119, 80.44814
132.9940, 88.63062
133.4761, 97.02717
133.9583, 104.7893
134.4404, 111.8790
134.9225, 118.7868
135.4046, 125.8598
135.8867, 133.1412
136.3688, 139.9709
136.8510, 146.2119
137.3331, 151.9102
137.8152, 157.6906
138.2973, 163.6015
138.7794, 169.5052
139.2615, 175.3256
139.7437, 180.9332
140.2258, 186.7208
140.7079, 192.5522
141.1900, 198.4611
141.6721, 205.8477
142.1542, 215.0806
142.6364, 225.2559
143.1185, 235.5077
143.6006, 245.8907
144.0827, 256.0587
144.5648, 265.7704
145.0469, 275.0658
145.5291, 284.3576
146.0112, 293.8867
146.4933, 303.3856
146.9754, 312.6786
147.4575, 321.7480
147.9396, 330.5102
148.4218, 339.1352
148.9039, 347.9509
149.3860, 355.6682
149.8681, 361.4256
150.3502, 366.0641
150.8323, 371.2945
151.3145, 377.8336
151.7966, 384.3028
152.2787, 390.3076
152.7608, 395.5365
153.2429, 400.6939
153.7250, 405.8618
154.2072, 410.9944
154.6893, 415.9638
155.1714, 417.7273
155.6535, 418.0180
156.1356, 420.5335
156.6177, 428.5240
157.0999, 435.4414
157.5820, 439.4642
158.0641, 441.2841
158.5462, 443.7062
159.0283, 448.2970
159.5104, 453.2272
159.9926, 457.3067
160.4747, 458.8678
160.9568, 460.9180
161.4389, 464.9710
161.9210, 470.6590
162.4031, 475.6337
162.8853, 478.2456
163.3674, 479.9889
163.8495, 482.2299
164.3316, 485.7065
164.8137, 489.5095
165.2958, 493.4251
165.7780, 497.4445
166.2601, 500.9254
166.7422, 503.6367
167.2243, 505.6353
167.7064, 506.9635
168.1885, 506.7958
168.6707, 506.5661
169.1528, 507.2295
169.6349, 508.8386
170.1170, 511.1230
170.5991, 514.6578
171.0812, 518.7125
171.5634, 521.9641
172.0455, 523.3008
172.5276, 523.8778
173.0097, 524.7581
173.4918, 526.0281
173.9739, 527.5914
174.4561, 529.5283
174.9382, 531.7321
175.4203, 533.9548
175.9024, 536.0521
176.3845, 538.0792
176.8666, 540.1439
177.3488, 542.3120
177.8309, 544.3433
178.3130, 545.9747
178.7951, 547.2621
179.2772, 548.3445
179.7593, 549.0490
180.2415, 549.6456
180.7236, 550.7286
181.2057, 552.4669
181.6878, 554.4673
182.1699, 556.3654
182.6520, 558.1141
183.1342, 559.6400
183.6163, 560.6970
184.0984, 561.4578
184.5805, 562.4189
185.0626, 563.7190
185.5447, 565.1436
186.0269, 566.0548
186.5090, 566.4908
186.9911, 567.5637
187.4732, 570.9841
187.9553, 576.0684
188.4374, 579.2607
188.9196, 579.6104
189.4017, 578.1973
189.8838, 576.9310
190.3659, 575.7590
190.8480, 575.5282
191.3301, 577.7067
191.8123, 581.9736
192.2944, 584.7038
192.7765, 584.6941
193.2586, 583.0237
193.7407, 582.9130
194.2228, 584.4975
194.7050, 586.6529
195.1871, 588.6723
195.6692, 590.5558
196.1513, 591.7928
196.6334, 591.9597
197.1155, 591.4771
197.5977, 592.1862
198.0798, 594.3174
198.5619, 596.6995
199.0440, 598.3025
199.5261, 599.1183
200.0082, 599.3498
200.4904, 598.7180
200.9725, 597.4792
201.4546, 597.4472
201.9367, 598.8856
202.4188, 600.7708
202.9009, 602.2512
203.3831, 603.3910
203.8652, 603.6646
204.3473, 602.5067
204.8294, 600.1444
205.3115, 599.4218
205.7936, 600.8602
206.2758, 602.8304
206.7579, 603.4540
207.2400, 602.3728
207.7221, 601.5638
208.2042, 601.6929
208.6863, 602.7333
209.1685, 602.9475
209.6506, 601.8476
210.1327, 600.7734
210.6148, 601.6669
211.0969, 605.4080
211.5790, 608.0792
212.0612, 608.3414
212.5433, 606.1336
213.0254, 604.5880
213.5075, 603.6546
213.9896, 603.4363
214.4717, 604.2175
214.9538, 606.3937
215.4360, 608.4728
215.9181, 609.9852
216.4002, 610.8503
216.8823, 612.2821
217.3644, 614.8498
217.8465, 617.3339
218.3287, 617.9666
218.8108, 615.6483
219.2929, 614.0289
219.7750, 614.3811
220.2571, 617.0624
220.7392, 618.4295
221.2214, 617.9355
221.7035, 616.7017
222.1856, 616.1560
222.6677, 616.5572
223.1498, 617.1310
223.6319, 617.7636
224.1141, 618.5289
224.5962, 618.7623
225.0783, 618.0964
225.5604, 617.2191
226.0425, 617.1596
226.5246, 618.5759
227.0068, 619.5121
227.4889, 619.2122
227.9710, 617.3630
228.4531, 616.3997
228.9352, 616.8281
229.4173, 617.7109
229.8995, 617.7462
230.3816, 616.4394
230.8637, 615.1794
231.3458, 614.4266
231.8279, 614.3084
232.3100, 613.7534
232.7922, 612.3943
233.2743, 610.9044
233.7564, 610.1845
234.2385, 610.6287
234.7206, 611.1638
235.2027, 611.4836
235.6849, 611.5209
236.1670, 611.8646
236.6491, 612.9386
237.1312, 613.9843
237.6133, 613.8984
238.0954, 611.7454
238.5776, 610.1009
239.0597, 609.7728
239.5418, 611.0079
240.0239, 611.8181
240.5060, 612.0545
240.9881, 611.9900
241.4703, 611.9951
241.9524, 612.2861
242.4345, 612.2449
242.9166, 611.5467
243.3987, 610.0175
243.8808, 609.1830
244.3630, 609.2856
244.8451, 609.8669
245.3272, 610.4247
245.8093, 611.0585
246.2914, 611.4778
246.7735, 611.4775
247.2557, 610.9601
247.7378, 611.0974
248.2199, 612.3215
248.7020, 613.7683
249.1841, 614.4079
249.6662, 613.6971
250.1484, 613.2173
250.6305, 613.3731
251.1126, 614.1968
251.5947, 614.9379
252.0768, 615.7955
252.5589, 616.3340
253.0411, 615.9229
253.5232, 613.8375
254.0053, 612.3750
254.4874, 612.1044
254.9695, 613.0494
255.4516, 614.1548
255.9338, 615.8922
256.4159, 617.2285
256.8980, 616.8870
257.3801, 613.8397
257.8622, 611.7075
258.3444, 611.6641
258.8265, 613.5814
259.3086, 613.6241
259.7907, 610.7340
260.2728, 607.5311
260.7549, 606.5424
261.2371, 608.6786
261.7192, 610.4393
262.2013, 611.0420
262.6834, 610.6470
263.1655, 610.9728
263.6476, 612.4144
264.1298, 613.8985
264.6119, 614.5130
265.0940, 613.9379
265.5761, 613.5193
266.0582, 613.4517
266.5403, 613.6891
267.0225, 613.9747
267.5046, 614.2294
267.9867, 614.6791
268.4688, 615.7733
268.9509, 617.9617
269.4330, 618.7928
269.9152, 617.5716
270.3973, 614.8680
270.8794, 612.9312
271.3615, 611.7950
271.8436, 611.3306
272.3257, 611.6673
272.8079, 612.9739
273.2900, 613.9881
273.7721, 614.5671
274.2542, 614.8142
274.7363, 615.0330
275.2184, 615.2490
275.7006, 615.3727
276.1827, 615.3488
276.6648, 615.1788
277.1469, 614.8765
277.6290, 614.3398
278.1111, 613.7934
278.5933, 613.8298
279.0754, 614.5434
279.5575, 615.2653
280.0396, 615.4344
280.5217, 615.0377
281.0038, 615.6047
281.4860, 617.6927
281.9681, 619.8641
282.4502, 618.7943
282.9323, 614.1860
283.4144, 610.5339
283.8965, 610.8069
284.3787, 614.5845
284.8608, 616.8405
285.3429, 617.3210
285.8250, 616.7508
286.3071, 615.9345
286.7892, 614.8835
287.2714, 613.9799
287.7535, 613.3369
288.2356, 612.9694
288.7177, 613.0498
289.1998, 613.6394
289.6819, 614.3689
290.1641, 614.7048
290.6462, 614.7189
291.1283, 614.9742
291.6104, 615.8680
292.0925, 617.1366
292.5746, 617.9120
293.0568, 618.1634
293.5389, 618.3553
294.0210, 619.1611
294.5031, 620.3722
294.9852, 621.0793
295.4673, 620.4316
295.9495, 619.4239
296.4316, 620.2933
296.9137, 622.9793
297.3958, 625.8635
297.8779, 627.8449
298.3600, 628.9678
298.8422, 629.2615
299.3243, 628.1617
299.8064, 626.8809
300.2885, 627.6877
300.7706, 630.2411
301.2527, 632.2200
301.7349, 630.7650
302.2170, 627.8240
302.6991, 626.9656
303.1812, 629.7017
303.6633, 633.2706
304.1454, 634.6860
304.6276, 634.3958
305.1097, 634.0170
305.5918, 634.6605
306.0739, 635.7092
306.5560, 636.4578
307.0381, 636.8217
307.5203, 636.8157
308.0024, 636.0305
308.4845, 634.8544
308.9666, 634.1979
309.4487, 635.1469
309.9308, 636.4510
310.4130, 637.0571
310.8951, 636.8161
311.3772, 636.1240
311.8593, 634.8013
312.3414, 633.2631
312.8235, 632.1439
313.3057, 631.5837
313.7878, 631.5986
314.2699, 632.5070
314.7520, 634.3701
315.2341, 635.8502
315.7162, 636.0941
316.1984, 635.6736
316.6805, 635.2286
317.1626, 634.7702
317.6447, 634.4937
318.1268, 634.5974
318.6089, 635.0516
319.0911, 635.3621
319.5732, 635.2319
320.0553, 634.9679
320.5374, 634.8098
321.0195, 635.4854
321.5016, 635.5579
321.9838, 634.0014
322.4659, 631.3058
322.9480, 629.8481
323.4301, 631.5243
323.9122, 633.5469
324.3943, 634.4014
324.8765, 633.0098
325.3586, 631.7879
325.8407, 631.0168
326.3228, 630.5584
326.8049, 630.0667
327.2870, 629.8598
327.7692, 629.3167
328.2513, 628.0856
328.7334, 625.5087
329.2155, 623.7897
329.6976, 623.4114
330.1797, 623.7294
330.6619, 623.7174
331.1440, 622.8270
331.6261, 622.3578
332.1082, 622.9630
332.5903, 624.9736
333.0724, 625.5578
333.5546, 623.7831
334.0367, 621.4375
334.5188, 620.5243
335.0009, 621.6495
335.4830, 622.8721
335.9651, 624.1080
336.4473, 625.2672
336.9294, 624.7913
337.4115, 621.8870
337.8936, 618.9219
338.3757, 618.0179
338.8578, 619.6582
339.3399, 620.8624
339.8221, 621.0677
340.3042, 620.6814
340.7863, 621.1231
341.2684, 622.6097
341.7505, 623.9072
342.2326, 624.0540
342.7148, 623.0628
343.1969, 622.6064
343.6790, 622.9009
344.1611, 623.5721
344.6432, 623.7344
345.1253, 623.3947
345.6075, 623.7282
346.0896, 626.0946
346.5717, 629.7717
347.0538, 631.3154
347.5359, 630.4420
348.0180, 628.8336
348.5002, 628.3630
348.9823, 628.8242
349.4644, 629.3671
349.9465, 629.5370
350.4286, 629.6818
350.9107, 630.7274
351.3929, 632.6379
351.8750, 634.1772
352.3571, 634.1370
352.8392, 633.0684
353.3213, 631.8806
353.8034, 630.5237
354.2856, 629.5895
354.7677, 630.0463
355.2498, 631.5797
355.7319, 632.8944
356.2140, 632.6020
356.6961, 631.9837
357.1783, 632.4557
357.6604, 634.5683
358.1425, 636.8137
358.6246, 638.1732
359.1067, 638.9888
359.5888, 639.9509
360.0710, 641.8605
360.5531, 643.5989
361.0352, 644.3219
361.5173, 643.8118
361.9994, 643.5565
362.4815, 644.4728
362.9637, 645.8038
363.4458, 646.7387
363.9279, 646.3997
364.4100, 646.3131
364.8921, 646.9660
365.3742, 648.3349
365.8564, 649.9370
366.3385, 652.0247
366.8206, 654.1107
367.3027, 655.9027
367.7848, 657.0691
368.2669, 658.3300
368.7491, 659.4159
369.2312, 660.5928
369.7133, 662.6542
370.1954, 666.4555
370.6775, 670.2451
371.1596, 673.2912
371.6418, 675.2504
372.1239, 677.6059
372.6060, 680.7780
373.0881, 684.0342
373.5702, 686.1548
374.0523, 686.3602
374.5345, 687.2656
375.0166, 689.8923
375.4987, 694.2068
375.9808, 697.2197
376.4629, 698.4166
376.9450, 699.4427
377.4272, 701.8825
377.9093, 705.8561
378.3914, 710.2346
378.8735, 715.1558
379.3556, 720.1181
379.8377, 723.6826
380.3199, 725.7367
380.8020, 727.4990
381.2841, 730.0027
381.7662, 733.0164
382.2483, 735.0422
382.7304, 735.8476
383.2126, 736.0889
383.6947, 736.7693
384.1768, 737.7532
384.6589, 738.3297
385.1410, 738.1592
385.6231, 737.4015
386.1053, 736.4289
386.5874, 735.2616
387.0695, 733.4103
387.5516, 730.3542
388.0337, 726.3113
388.5158, 721.6322
388.9980, 715.7252
389.4801, 709.9393
389.9622, 705.6683
390.4443, 702.6374
390.9264, 699.6139
391.4085, 696.2402
391.8907, 692.4402
392.3728, 687.9980
392.8549, 682.5953
393.3370, 677.4370
393.8191, 672.7908
394.3012, 668.8016
394.7834, 665.7151
395.2655, 664.7098
395.7476, 663.6271
396.2297, 661.4310
396.7118, 657.8676
397.1939, 654.7810
397.6761, 652.9099
398.1582, 651.3955
398.6403, 649.5211
399.1224, 646.2103
399.6045, 643.7543
400.0866, 642.8232
400.5688, 643.0966
401.0509, 642.6740
401.5330, 641.2355
402.0151, 639.5129
402.4972, 637.7902
402.9793, 635.8944
403.4615, 634.4908
403.9436, 633.7145
404.4257, 633.3317
404.9078, 633.0186
405.3899, 632.8319
405.8720, 632.4715
406.3542, 631.7259
406.8363, 630.6403
407.3184, 629.9932
407.8005, 629.8574
408.2826, 629.8010
408.7647, 629.2582
409.2469, 628.2897
409.7290, 627.7860
410.2111, 628.0915
410.6932, 628.7184
411.1753, 628.5702
411.6574, 627.7402
412.1396, 627.0939
412.6217, 627.8347
413.1038, 629.0222
413.5859, 628.5292
414.0680, 625.9041
414.5501, 623.2164
415.0323, 622.4761
415.5144, 623.0854
415.9965, 623.8578
416.4786, 624.7342
416.9607, 625.2325
417.4428, 624.5231
417.9250, 622.7860
418.4071, 621.6787
418.8892, 622.8430
419.3713, 624.6147
419.8534, 625.5659
420.3355, 624.9924
420.8177, 624.2239
421.2998, 623.6074
421.7819, 623.1146
422.2640, 622.6642
422.7461, 622.3624
423.2282, 622.0176
423.7104, 621.4462
424.1925, 620.4577
424.6746, 620.0878
425.1567, 621.2110
425.6388, 622.4685
426.1209, 622.5712
426.6031, 620.2176
427.0852, 618.8406
427.5673, 619.2145
428.0494, 620.9651
428.5315, 621.9947
429.0136, 621.9160
429.4958, 621.8627
429.9779, 622.6834
430.4600, 624.6514
430.9421, 625.3762
431.4242, 624.4540
431.9063, 622.9211
432.3885, 622.4550
432.8706, 623.0736
433.3527, 623.6710
433.8348, 624.0025
434.3169, 623.9995
434.7990, 623.1581
435.2812, 621.4832
435.7633, 620.0399
436.2454, 620.1769
436.7275, 621.2246
437.2096, 621.4025
437.6917, 619.9170
438.1739, 618.5926
438.6560, 619.9329
439.1381, 623.0673
439.6202, 625.6933
440.1023, 626.3664
440.5844, 626.2166
441.0666, 626.2169
441.5487, 626.4521
442.0308, 626.2839
442.5129, 624.8608
442.9950, 623.1198
443.4771, 621.9553
443.9593, 621.6384
444.4414, 621.8901
444.9235, 623.1013
445.4056, 624.9114
445.8877, 626.0902
446.3698, 625.2607
446.8520, 624.7791
447.3341, 625.8363
447.8162, 629.3441
448.2983, 631.5050
448.7804, 631.4854
449.2625, 630.6735
449.7447, 630.6638
450.2268, 631.7605
450.7089, 632.9919
451.1910, 634.3575
451.6731, 635.7205
452.1552, 636.0948
452.6374, 635.1652
453.1195, 634.4136
453.6016, 635.1659
454.0837, 637.3496
454.5658, 638.3203
455.0479, 637.6757
455.5301, 636.5348
456.0122, 636.5612
456.4943, 637.5780
456.9764, 638.4740
457.4585, 638.4645
457.9406, 638.3017
458.4228, 639.3671
458.9049, 641.5627
459.3870, 644.0458
459.8691, 647.0552
460.3512, 649.6381
460.8333, 650.2766
461.3155, 647.9446
461.7976, 645.7089
462.2797, 645.7086
462.7618, 647.1260
463.2439, 648.5416
463.7260, 649.8383
464.2082, 650.6487
464.6903, 650.5638
465.1724, 649.5877
465.6545, 648.8328
466.1366, 649.0909
466.6187, 649.2900
467.1009, 648.7275
467.5830, 646.0811
468.0651, 644.4180
468.5472, 644.2538
469.0293, 644.9420
469.5114, 645.1974
469.9936, 644.9346
470.4757, 644.3864
470.9578, 643.5317
471.4399, 642.3735
471.9220, 641.4003
472.4041, 640.5956
472.8863, 640.0418
473.3684, 639.8793
473.8505, 640.0984
474.3326, 640.5193
474.8147, 641.3314
475.2968, 641.9106
475.7790, 640.8174
476.2611, 638.2911
476.7432, 635.9767
477.2253, 634.9611
477.7074, 634.5693
478.1895, 633.5787
478.6717, 631.9776
479.1538, 630.7050
479.6359, 630.6754
480.1180, 631.3213
480.6001, 631.9617
481.0822, 632.5214
481.5644, 632.8968
482.0465, 632.8615
482.5286, 632.6117
483.0107, 632.5675
483.4928, 633.5004
483.9749, 634.1016
484.4571, 633.6787
484.9392, 632.0380
485.4213, 630.6137
485.9034, 628.8380
486.3855, 627.7762
486.8676, 628.2791
487.3498, 631.8382
487.8319, 634.2090
488.3140, 634.7433
488.7961, 634.1082
489.2782, 633.8992
489.7603, 634.2702
490.2425, 634.5286
490.7246, 634.3165
491.2067, 633.6995
491.6888, 633.4501
492.1709, 633.6283
492.6530, 633.8876
493.1352, 634.1735
493.6173, 634.3487
494.0994, 633.5916
494.5815, 631.4156
495.0636, 629.1164
495.5457, 628.4341
496.0279, 629.0618
496.5100, 630.0699
496.9921, 631.5613
497.4742, 632.8627
497.9563, 633.1632
498.4384, 632.4901
498.9206, 631.9247
499.4027, 631.8717
499.8848, 632.2428
500.3669, 633.0580
500.8490, 635.0817
501.3311, 636.2531
501.8133, 635.2232
502.2954, 633.1662
502.7775, 632.3069
503.2596, 634.0329
503.7417, 635.5894
504.2238, 636.3858
504.7060, 636.4346
505.1881, 636.2217
505.6702, 635.5135
506.1523, 634.9263
506.6344, 635.0859
507.1165, 636.2126
507.5987, 636.2068
508.0808, 634.4280
508.5629, 632.5385
509.0450, 633.6208
509.5271, 637.4380
510.0092, 640.7931
510.4914, 642.6140
510.9735, 643.2443
511.4556, 643.3414
511.9377, 642.8981
512.4199, 641.8293
512.9020, 639.3345
513.3841, 636.5073
513.8662, 634.6495
514.3483, 633.9799
514.8304, 634.0889
515.3126, 635.6241
515.7947, 637.4922
516.2768, 638.3254
516.7589, 636.2909
517.2410, 634.6328
517.7231, 634.8562
518.2053, 636.4748
518.6874, 637.0729
519.1695, 635.1215
519.6516, 633.2573
520.1337, 632.5013
520.6158, 633.1866
521.0980, 633.4303
521.5801, 632.9490
522.0622, 632.4061
522.5443, 632.6636
523.0264, 633.9861
523.5085, 634.4464
523.9907, 633.4269
524.4728, 631.7667
524.9549, 631.4029
525.4370, 632.2890
525.9191, 633.2313
526.4012, 633.5319
526.8834, 633.4869
527.3655, 633.7853
527.8476, 634.4201
528.3297, 635.0172
528.8118, 635.4591
529.2939, 635.6144
529.7761, 635.1883
530.2582, 633.7520
530.7403, 632.5875
531.2224, 632.6534
531.7045, 633.4145
532.1866, 633.9931
532.6688, 633.8318
533.1509, 633.7592
533.6330, 634.1410
534.1151, 634.9467
534.5972, 635.4495
535.0793, 635.6395
535.5615, 635.5068
536.0436, 634.9315
536.5257, 633.6026
537.0078, 632.9982
537.4899, 633.3424
537.9720, 634.0753
538.4542, 634.5417
538.9363, 634.7465
539.4184, 634.8177
539.9005, 634.8139
540.3826, 634.6804
540.8647, 634.1383
541.3469, 633.2635
541.8290, 632.6014
542.3111, 632.5328
542.7932, 632.8348
543.2753, 633.2408
543.7574, 633.7318
544.2396, 634.1741
544.7217, 634.6727
545.2038, 634.9639
545.6859, 634.7119
546.1680, 633.4189
546.6501, 632.3378
547.1323, 631.7223
547.6144, 631.6246
548.0965, 632.1229
548.5786, 634.1827
549.0607, 635.7770
549.5428, 636.3705
550.0250, 636.0616
550.5071, 635.8986
550.9892, 636.0303
551.4713, 636.0500
551.9534, 635.7263
552.4355, 635.0381
552.9177, 634.1614
553.3998, 632.9744
553.8819, 632.0085
554.3640, 632.1184
554.8461, 633.1044
555.3282, 633.8510
555.8104, 634.0584
556.2925, 633.9325
556.7746, 633.5900
557.2567, 633.1138
557.7388, 632.7619
558.2209, 632.9512
558.7031, 633.1188
559.1852, 632.4830
559.6673, 631.0999
560.1494, 630.5601
560.6315, 632.4958
561.1136, 634.8348
561.5958, 636.2332
562.0779, 636.2986
562.5600, 635.8109
563.0421, 634.2321
563.5242, 632.4643
564.0063, 631.6168
564.4885, 631.8300
564.9706, 632.7040
565.4527, 634.4851
565.9348, 636.7386
566.4169, 638.0483
566.8990, 638.3442
567.3812, 638.1435
567.8633, 637.3685
568.3454, 636.2863
568.8275, 636.0641
569.3096, 636.7296
569.7917, 637.3106
570.2739, 636.3583
570.7560, 634.9655
571.2381, 635.0861
571.7202, 637.7845
572.2023, 640.0734
572.6844, 639.3370
573.1666, 637.1707
573.6487, 635.9612
574.1308, 637.6924
574.6129, 639.2040
575.0950, 639.3073
575.5771, 638.2609
576.0593, 637.8361
576.5414, 638.9283
577.0235, 639.5597
577.5056, 638.7031
577.9877, 636.0851
578.4698, 634.7748
578.9520, 635.0838
579.4341, 635.9114
579.9162, 636.3616
580.3983, 636.4434
580.8804, 636.3062
581.3625, 635.9290
581.8447, 635.4551
582.3268, 634.9093
582.8089, 634.4150
583.2910, 634.3213
583.7731, 635.3030
584.2552, 636.2746
584.7373, 635.7937
585.2194, 634.3484
585.7015, 633.7607
586.1837, 636.2347
