##NAMES=Wulfenite
##RRUFFID=R050149
##IDEAL CHEMISTRY=Pb^2+^Mo^6+^O_4_
##LOCALITY=Chapacase mine, Sierra Cerrillias District, Tocopilla, Chile
##OWNER=RRUFF
##SOURCE=Jim McGlasson
##DESCRIPTION=Orange thin tabular crystals
##STATUS=The identification of this mineral has been confirmed by X-ray diffraction.
##URL=rruff.info/R050149
92.96582, 646.1880
93.44794, 641.1188
93.93005, 642.3231
94.41217, 649.1125
94.89429, 651.7166
95.37640, 651.1437
95.85852, 648.8771
96.34064, 646.1678
96.82275, 643.8260
97.30487, 641.4734
97.78699, 638.7731
98.26910, 636.7638
98.75122, 634.0292
99.23334, 629.7171
99.71545, 623.5763
100.1976, 615.5394
100.6797, 607.5926
101.1618, 599.5477
101.6439, 590.5826
102.1260, 580.4528
102.6081, 569.0878
103.0903, 556.4239
103.5724, 541.8748
104.0545, 526.5733
104.5366, 510.4394
105.0187, 493.9274
105.5008, 477.8979
105.9830, 462.6996
106.4651, 448.2194
106.9472, 435.1672
107.4293, 423.5203
107.9114, 413.1366
108.3935, 404.2440
108.8757, 396.7090
109.3578, 390.2354
109.8399, 384.4796
110.3220, 379.6635
110.8041, 375.1562
111.2862, 370.9108
111.7684, 366.9148
112.2505, 363.0462
112.7326, 359.2588
113.2147, 355.8979
113.6968, 353.8974
114.1789, 354.3582
114.6611, 354.0541
115.1432, 351.7745
115.6253, 348.3228
116.1074, 345.2935
116.5895, 343.4223
117.0716, 342.4288
117.5538, 341.4962
118.0359, 340.5252
118.5180, 339.7547
119.0001, 339.4618
119.4822, 339.6597
119.9643, 339.8454
120.4465, 339.6069
120.9286, 339.2682
121.4107, 339.2106
121.8928, 339.6408
122.3749, 340.3006
122.8570, 340.6596
123.3392, 340.4737
123.8213, 340.4402
124.3034, 340.8650
124.7855, 341.5473
125.2676, 342.2149
125.7497, 342.6646
126.2319, 342.9289
126.7140, 343.4631
127.1961, 344.4498
127.6782, 345.5739
128.1603, 346.8755
128.6424, 348.2768
129.1246, 349.6173
129.6067, 350.7469
130.0888, 351.6042
130.5709, 352.5477
131.0530, 353.3722
131.5351, 354.4203
132.0173, 355.9466
132.4994, 357.9677
132.9815, 360.2569
133.4636, 362.5878
133.9457, 365.0640
134.4278, 367.2039
134.9100, 368.4499
135.3921, 369.5345
135.8742, 371.4634
136.3563, 374.6205
136.8384, 378.2237
137.3205, 380.9687
137.8027, 382.8190
138.2848, 384.8280
138.7669, 387.4312
139.2490, 390.5583
139.7311, 393.9915
140.2132, 397.9666
140.6954, 401.9420
141.1775, 405.2360
141.6596, 407.7562
142.1417, 410.2732
142.6238, 413.5318
143.1059, 417.6453
143.5881, 421.8521
144.0702, 425.5910
144.5523, 429.5641
145.0344, 434.5425
145.5165, 440.7804
145.9986, 447.3513
146.4807, 452.3862
146.9629, 454.6100
147.4450, 457.6751
147.9271, 462.8700
148.4092, 468.7461
148.8913, 473.7822
149.3734, 477.2445
149.8556, 479.5956
150.3377, 482.6822
150.8198, 487.2585
151.3019, 491.8768
151.7840, 496.4258
152.2661, 500.9237
152.7483, 505.3714
153.2304, 509.7642
153.7125, 514.1459
154.1946, 518.7821
154.6767, 524.1480
155.1588, 529.2483
155.6410, 533.4924
156.1231, 537.0545
156.6052, 540.5763
157.0873, 544.4729
157.5694, 548.7686
158.0515, 553.2709
158.5337, 557.9858
159.0158, 562.8802
159.4979, 568.0529
159.9800, 573.5245
160.4621, 578.8110
160.9442, 583.4162
161.4264, 587.5107
161.9085, 591.4775
162.3906, 595.3498
162.8727, 599.1549
163.3548, 603.0582
163.8369, 607.2304
164.3191, 611.0780
164.8012, 614.4490
165.2833, 617.2628
165.7654, 619.1569
166.2475, 619.8663
166.7296, 619.4694
167.2118, 618.4205
167.6939, 616.8332
168.1760, 614.3102
168.6581, 610.2582
169.1402, 605.1553
169.6223, 600.1379
170.1045, 596.5681
170.5866, 594.7208
171.0687, 591.1821
171.5508, 584.6149
172.0329, 577.3895
172.5150, 569.7596
172.9972, 562.0682
173.4793, 554.8715
173.9614, 548.7695
174.4435, 543.9025
174.9256, 539.7833
175.4077, 537.0563
175.8899, 534.3870
176.3720, 530.6234
176.8541, 525.8173
177.3362, 521.2462
177.8183, 518.6941
178.3004, 519.3734
178.7826, 519.3365
179.2647, 517.8568
179.7468, 516.1376
180.2289, 515.0739
180.7110, 514.9046
181.1931, 515.4360
181.6752, 516.4357
182.1574, 517.9269
182.6395, 519.8526
183.1216, 522.8121
183.6037, 526.0346
184.0858, 528.4174
184.5679, 529.5895
185.0501, 530.0544
185.5322, 530.5401
186.0143, 531.0705
186.4964, 531.4924
186.9785, 531.6551
187.4606, 531.6616
187.9428, 531.9212
188.4249, 532.9330
188.9070, 533.6091
189.3891, 532.8170
189.8712, 530.5953
190.3533, 527.2596
190.8355, 522.7230
191.3176, 517.0693
191.7997, 511.2409
192.2818, 505.7640
192.7639, 499.7520
193.2460, 492.4177
193.7282, 483.6721
194.2103, 474.3849
194.6924, 465.4432
195.1745, 456.8639
195.6566, 447.7443
196.1387, 437.3348
196.6209, 426.6608
197.1030, 416.0484
197.5851, 405.5681
198.0672, 395.6414
198.5493, 386.8842
199.0314, 379.6177
199.5136, 372.5391
199.9957, 365.6263
200.4778, 358.7540
200.9599, 351.7180
201.4420, 344.4995
201.9241, 337.4494
202.4063, 331.1352
202.8884, 325.9875
203.3705, 320.7072
203.8526, 314.2737
204.3347, 308.2594
204.8168, 304.1354
205.2990, 302.2516
205.7811, 301.4390
206.2632, 299.5410
206.7453, 295.7397
207.2274, 291.9030
207.7095, 287.2489
208.1917, 282.9180
208.6738, 280.2977
209.1559, 279.8101
209.6380, 280.3351
210.1201, 279.6065
210.6022, 276.3041
211.0844, 273.6425
211.5665, 272.1187
212.0486, 271.1713
212.5307, 270.1729
213.0128, 268.8972
213.4949, 267.5074
213.9771, 266.3639
214.4592, 265.7082
214.9413, 264.7780
215.4234, 263.1389
215.9055, 261.2084
216.3876, 259.6191
216.8698, 258.6020
217.3519, 257.9768
217.8340, 257.5020
218.3161, 257.2802
218.7982, 256.8279
219.2803, 255.6015
219.7625, 254.0318
220.2446, 253.2133
220.7267, 253.7405
221.2088, 254.6960
221.6909, 254.6834
222.1730, 253.6424
222.6552, 252.4683
223.1373, 251.3107
223.6194, 250.3087
224.1015, 250.0755
224.5836, 251.2345
225.0657, 252.6252
225.5479, 252.7868
226.0300, 251.6836
226.5121, 250.7049
226.9942, 251.1270
227.4763, 252.6660
227.9584, 253.2344
228.4406, 251.5530
228.9227, 249.6502
229.4048, 249.3190
229.8869, 250.5044
230.3690, 251.8143
230.8511, 251.8504
231.3333, 250.6653
231.8154, 250.5444
232.2975, 253.0095
232.7796, 255.4937
233.2617, 256.5051
233.7438, 256.0590
234.2260, 254.9756
234.7081, 253.6302
235.1902, 251.9460
235.6723, 251.1659
236.1544, 252.2746
236.6365, 253.6048
237.1187, 254.5301
237.6008, 255.0051
238.0829, 255.1875
238.5650, 255.0379
239.0471, 254.4206
239.5292, 254.4781
240.0114, 256.2714
240.4935, 257.8652
240.9756, 258.3017
241.4577, 257.7771
241.9398, 257.1968
242.4219, 257.4595
242.9041, 258.7115
243.3862, 259.7072
243.8683, 260.0898
244.3504, 260.5441
244.8325, 261.4323
245.3146, 262.6481
245.7968, 263.8290
246.2789, 264.6288
246.7610, 265.0052
247.2431, 265.4226
247.7252, 266.1393
248.2073, 266.6563
248.6895, 266.4360
249.1716, 265.7894
249.6537, 265.5594
250.1358, 266.5271
250.6179, 268.8026
251.1000, 270.5497
251.5822, 271.7135
252.0643, 272.4982
252.5464, 272.6263
253.0285, 272.3836
253.5106, 272.4301
253.9927, 273.2915
254.4748, 274.9576
254.9570, 276.5244
255.4391, 278.3009
255.9212, 279.6967
256.4033, 280.2177
256.8854, 280.1608
257.3676, 280.2030
257.8497, 280.7736
258.3318, 281.8546
258.8139, 283.2756
259.2960, 285.5366
259.7781, 287.5307
260.2603, 288.7706
260.7424, 289.4557
261.2245, 290.0336
261.7066, 290.7080
262.1887, 291.5221
262.6708, 292.7309
263.1530, 294.7166
263.6351, 296.5826
264.1172, 297.8901
264.5993, 298.8735
265.0814, 300.1132
265.5635, 301.9588
266.0457, 304.1375
266.5278, 305.6635
267.0099, 305.6918
267.4920, 306.5075
267.9741, 309.4850
268.4562, 313.7166
268.9384, 317.3060
269.4204, 319.3919
269.9026, 320.6456
270.3847, 322.5331
270.8668, 325.1729
271.3489, 327.8648
271.8310, 330.2855
272.3131, 332.6015
272.7953, 335.0892
273.2774, 337.7729
273.7595, 340.8104
274.2416, 344.6445
274.7237, 349.2969
275.2058, 354.0227
275.6880, 358.6638
276.1701, 363.2442
276.6522, 367.6834
277.1343, 371.9280
277.6164, 376.2871
278.0985, 381.2479
278.5807, 386.7115
279.0628, 392.5023
279.5449, 398.5724
280.0270, 404.9288
280.5091, 411.6094
280.9912, 418.5780
281.4734, 425.9685
281.9555, 433.9780
282.4376, 442.5536
282.9197, 451.5375
283.4018, 461.0272
283.8839, 470.8513
284.3661, 480.4219
284.8482, 489.4611
285.3303, 499.6817
285.8124, 512.9354
286.2945, 528.3950
286.7766, 544.2053
287.2588, 559.2556
287.7409, 574.8306
288.2230, 592.3259
288.7051, 611.7327
289.1872, 632.3869
289.6693, 653.4268
290.1515, 675.6878
290.6336, 700.1416
291.1157, 726.9920
291.5978, 756.2268
292.0799, 787.5204
292.5620, 820.9153
293.0442, 857.6135
293.5263, 898.1219
294.0084, 942.5617
294.4905, 990.5285
294.9726, 1042.301
295.4547, 1097.238
295.9369, 1154.616
296.4190, 1214.470
296.9011, 1277.462
297.3832, 1344.056
297.8653, 1413.487
298.3474, 1485.167
298.8296, 1559.178
299.3117, 1633.170
299.7938, 1705.380
300.2759, 1776.047
300.7580, 1845.628
301.2401, 1913.999
301.7223, 1981.583
302.2044, 2048.370
302.6865, 2114.666
303.1686, 2180.872
303.6507, 2247.533
304.1328, 2314.640
304.6150, 2381.412
305.0971, 2447.069
305.5792, 2513.690
306.0613, 2582.634
306.5434, 2653.585
307.0255, 2725.134
307.5077, 2795.928
307.9898, 2867.111
308.4719, 2941.366
308.9540, 3019.271
309.4361, 3098.218
309.9182, 3177.179
310.4004, 3255.620
310.8825, 3333.363
311.3646, 3410.596
311.8467, 3486.961
312.3288, 3561.911
312.8109, 3636.199
313.2931, 3705.529
313.7752, 3769.146
314.2573, 3825.322
314.7394, 3872.126
315.2215, 3909.790
315.7036, 3935.743
316.1858, 3948.770
316.6679, 3948.870
317.1500, 3931.557
317.6321, 3895.353
318.1142, 3838.392
318.5963, 3760.389
319.0785, 3660.781
319.5606, 3546.220
320.0427, 3419.388
320.5248, 3280.541
321.0069, 3133.249
321.4890, 2973.669
321.9712, 2811.654
322.4533, 2654.281
322.9354, 2500.731
323.4175, 2352.957
323.8996, 2209.651
324.3817, 2071.992
324.8639, 1944.382
325.3460, 1827.429
325.8281, 1719.356
326.3102, 1620.359
326.7923, 1529.579
327.2744, 1446.102
327.7566, 1371.314
328.2387, 1303.250
328.7208, 1239.217
329.2029, 1179.260
329.6850, 1124.088
330.1671, 1075.075
330.6493, 1030.967
331.1314, 989.8810
331.6135, 951.7864
332.0956, 916.4918
332.5777, 884.0336
333.0598, 854.4368
333.5420, 826.8611
334.0241, 801.1026
334.5062, 777.5911
334.9883, 756.2523
335.4704, 737.1935
335.9525, 719.8768
336.4347, 704.3087
336.9168, 690.3443
337.3989, 677.8124
337.8810, 666.8563
338.3631, 656.9932
338.8452, 647.3141
339.3274, 637.8992
339.8094, 629.7312
340.2916, 624.0293
340.7737, 619.6522
341.2558, 614.3630
341.7379, 607.6543
342.2200, 601.2630
342.7021, 596.7322
343.1843, 593.6883
343.6664, 591.1715
344.1485, 588.9397
344.6306, 587.1878
345.1127, 585.9218
345.5948, 585.1572
346.0770, 585.5862
346.5591, 588.2983
347.0412, 592.2354
347.5233, 594.4728
348.0054, 594.2010
348.4875, 593.5009
348.9697, 593.9641
349.4518, 595.0718
349.9339, 595.2050
350.4160, 593.9746
350.8981, 591.1455
351.3802, 586.0068
351.8624, 578.4670
352.3445, 570.2861
352.8266, 561.7968
353.3087, 553.0668
353.7908, 543.9552
354.2729, 534.3590
354.7551, 525.1345
355.2372, 517.4313
355.7193, 511.2805
356.2014, 504.5722
356.6835, 497.0270
357.1656, 488.9413
357.6478, 480.5785
358.1299, 471.9196
358.6120, 462.5177
359.0941, 451.9276
359.5762, 440.3124
360.0583, 428.7217
360.5405, 416.7620
361.0226, 405.1682
361.5047, 394.0355
361.9868, 383.4688
362.4689, 373.6026
362.9510, 364.5997
363.4332, 356.2071
363.9153, 348.0400
364.3974, 339.6485
364.8795, 332.2228
365.3616, 326.3033
365.8438, 321.2319
366.3259, 316.4344
366.8080, 311.7395
367.2901, 307.1746
367.7722, 302.7310
368.2543, 298.3632
368.7365, 294.4808
369.2186, 291.2563
369.7007, 288.3428
370.1828, 285.6081
370.6649, 283.0037
371.1470, 280.4616
371.6292, 277.9308
372.1113, 275.4179
372.5934, 272.9963
373.0755, 270.3282
373.5576, 268.1416
374.0397, 267.0421
374.5219, 266.4100
375.0040, 265.3108
375.4861, 263.3383
375.9682, 260.9860
376.4503, 259.3270
376.9324, 258.9204
377.4146, 258.3590
377.8967, 257.5345
378.3788, 256.6358
378.8609, 255.8707
379.3430, 255.2228
379.8251, 254.4260
380.3073, 253.1359
380.7894, 251.2423
381.2715, 249.6357
381.7536, 248.4784
382.2357, 247.4343
382.7178, 246.3374
383.2000, 245.2760
383.6821, 244.5011
384.1642, 244.2411
384.6463, 244.2481
385.1284, 243.4629
385.6105, 241.1110
386.0927, 239.2510
386.5748, 238.7240
387.0569, 238.5444
387.5390, 237.7791
388.0211, 236.1547
388.5032, 234.1045
388.9854, 232.0752
389.4675, 229.9846
389.9496, 228.4022
390.4317, 227.8257
390.9138, 227.4539
391.3959, 226.9652
391.8781, 226.3397
392.3602, 225.6346
392.8423, 224.8432
393.3244, 224.0000
393.8065, 223.2945
394.2886, 222.8219
394.7708, 222.3051
395.2529, 221.4609
395.7350, 220.5331
396.2171, 219.9452
396.6992, 220.0083
397.1813, 220.0723
397.6635, 219.0679
398.1456, 216.9272
398.6277, 215.3699
399.1098, 215.4123
399.5919, 215.8789
400.0740, 215.3734
400.5562, 213.8061
401.0383, 212.4296
401.5204, 212.1954
402.0025, 212.6628
402.4846, 212.6514
402.9667, 211.8886
403.4489, 211.0474
403.9310, 210.8981
404.4131, 211.2014
404.8952, 211.0754
405.3773, 209.9504
405.8594, 208.6404
406.3416, 207.7939
406.8237, 207.3964
407.3058, 207.3671
407.7879, 207.8483
408.2700, 208.5013
408.7521, 208.3820
409.2343, 207.0574
409.7164, 206.0254
410.1985, 205.9885
410.6806, 206.4446
411.1627, 206.7495
411.6448, 206.7486
412.1269, 206.4077
412.6090, 205.5249
413.0912, 203.8334
413.5733, 203.2693
414.0554, 205.0396
414.5375, 206.8059
415.0196, 206.9879
415.5017, 205.9323
415.9839, 205.0312
416.4660, 205.2025
416.9481, 206.1397
417.4302, 206.3756
417.9123, 205.2598
418.3944, 204.2131
418.8766, 203.2810
419.3587, 202.5109
419.8408, 201.9929
420.3229, 201.7325
420.8050, 201.5736
421.2871, 201.2681
421.7693, 200.6669
422.2514, 200.4891
422.7335, 201.3147
423.2156, 201.9806
423.6977, 201.8610
424.1798, 201.1888
424.6620, 200.5863
425.1441, 200.4779
425.6262, 200.7116
426.1083, 200.6624
426.5904, 200.0152
427.0725, 199.7031
427.5547, 200.3868
428.0368, 201.2021
428.5189, 201.2805
429.0010, 200.4436
429.4831, 199.3875
429.9652, 198.8330
430.4474, 198.7801
430.9295, 198.9087
431.4116, 199.4721
431.8937, 199.8283
432.3758, 199.5053
432.8579, 198.6783
433.3401, 197.8262
433.8222, 196.9471
434.3043, 196.2952
434.7864, 196.4876
435.2685, 197.6252
435.7506, 198.4879
436.2328, 198.5009
436.7149, 197.9041
437.1970, 197.0695
437.6791, 195.8746
438.1612, 194.8957
438.6433, 194.3784
439.1255, 194.3009
439.6076, 194.7973
440.0897, 195.9938
440.5718, 197.1238
441.0539, 197.3269
441.5360, 196.5867
442.0182, 195.9767
442.5003, 195.7012
442.9824, 195.4332
443.4645, 194.7516
443.9466, 193.8694
444.4287, 193.5533
444.9109, 194.2777
445.3930, 195.5690
445.8751, 196.1451
446.3572, 195.3349
446.8393, 194.8107
447.3214, 194.9673
447.8036, 195.2397
448.2857, 195.2092
448.7678, 194.7830
449.2499, 193.9337
449.7320, 192.4610
450.2141, 190.2629
450.6963, 189.5470
451.1784, 192.1336
451.6605, 194.2477
452.1426, 194.9361
452.6247, 194.6237
453.1068, 193.8390
453.5890, 192.8010
454.0711, 191.7046
454.5532, 190.8655
455.0353, 190.2246
455.5174, 190.0400
455.9995, 190.9304
456.4817, 191.8232
456.9638, 192.1767
457.4459, 192.0200
457.9280, 191.6562
458.4101, 191.2032
458.8922, 190.7087
459.3744, 190.2922
459.8565, 189.9078
460.3386, 189.7537
460.8207, 190.2460
461.3028, 190.8862
461.7849, 191.0615
462.2671, 190.6165
462.7492, 189.9604
463.2313, 189.2176
463.7134, 188.4877
464.1955, 188.1142
464.6776, 188.2333
465.1598, 188.5111
465.6419, 188.6931
466.1240, 188.7688
466.6061, 188.6004
467.0882, 188.0352
467.5703, 187.3371
468.0525, 186.4570
468.5346, 185.5628
469.0167, 185.2451
469.4988, 185.8746
469.9809, 186.9948
470.4630, 187.5530
470.9452, 187.4087
471.4273, 186.9047
471.9094, 185.4438
472.3915, 184.0523
472.8736, 183.6972
473.3557, 184.3293
473.8379, 185.1819
474.3200, 185.6507
474.8021, 185.7411
475.2842, 185.5040
475.7663, 184.3544
476.2484, 183.6084
476.7306, 183.8214
477.2127, 184.3637
477.6948, 184.5547
478.1769, 184.1989
478.6590, 183.6184
479.1411, 183.1987
479.6233, 182.9497
480.1054, 182.7403
480.5875, 182.5624
481.0696, 182.4312
481.5517, 182.5714
482.0338, 182.7454
482.5159, 182.3877
482.9980, 180.9623
483.4802, 179.3129
483.9623, 178.7461
484.4444, 179.2653
484.9265, 179.7049
485.4086, 179.5674
485.8907, 179.3269
486.3729, 179.7079
486.8550, 180.7427
487.3371, 181.4865
487.8192, 181.5170
488.3013, 181.1460
488.7834, 180.6317
489.2656, 180.0238
489.7477, 179.5502
490.2298, 179.3696
490.7119, 179.4327
491.1940, 179.5139
491.6761, 180.0049
492.1583, 180.0013
492.6404, 178.7121
493.1225, 177.1584
493.6046, 176.6328
494.0867, 177.3068
494.5688, 178.2245
495.0510, 178.3162
495.5331, 177.4863
496.0152, 177.1268
496.4973, 177.7173
496.9794, 178.2644
497.4615, 178.5907
497.9437, 178.7158
498.4258, 178.6139
498.9079, 178.2773
499.3900, 177.9369
499.8721, 178.0585
500.3542, 178.7609
500.8364, 178.9776
501.3185, 178.2000
501.8006, 177.3510
502.2827, 177.0505
502.7648, 177.1002
503.2469, 176.9216
503.7291, 176.0276
504.2112, 175.0269
504.6933, 174.8615
505.1754, 175.5044
505.6575, 176.1546
506.1396, 176.6259
506.6218, 176.8554
507.1039, 176.6811
507.5860, 176.0782
508.0681, 175.5400
508.5502, 175.1589
509.0323, 174.9278
509.5145, 175.0632
509.9966, 175.4451
510.4787, 175.2853
510.9608, 173.9212
511.4429, 171.8434
511.9250, 171.0745
512.4072, 173.2045
512.8893, 174.5314
513.3714, 174.1821
513.8535, 173.3648
514.3356, 173.1462
514.8177, 173.6177
515.2999, 174.1885
515.7820, 174.3298
516.2641, 174.0681
516.7462, 173.7290
517.2283, 173.1078
517.7104, 172.7350
518.1926, 172.9229
518.6747, 173.2895
519.1568, 173.4978
519.6389, 173.4613
520.1210, 173.1988
520.6031, 172.5419
521.0853, 171.5995
521.5674, 171.1062
522.0495, 171.2029
522.5316, 171.5526
523.0137, 172.2437
523.4958, 172.9891
523.9780, 173.1240
524.4601, 172.0857
524.9422, 171.1632
525.4243, 171.4577
525.9064, 172.4807
526.3885, 173.1113
526.8707, 173.0603
527.3528, 172.5759
527.8349, 171.8046
528.3170, 170.6544
528.7991, 170.2294
529.2813, 171.0535
529.7634, 171.9783
530.2455, 172.7652
530.7276, 173.2702
531.2097, 173.1606
531.6918, 172.3295
532.1740, 171.3367
532.6561, 171.1386
533.1382, 172.0054
533.6203, 172.7466
534.1024, 173.5461
534.5845, 174.0240
535.0667, 173.9399
535.5488, 173.4374
536.0309, 172.7529
536.5130, 171.9295
536.9951, 171.1584
537.4772, 170.6701
537.9594, 170.4626
538.4415, 170.7151
538.9236, 171.8590
539.4057, 172.9401
539.8878, 172.9287
540.3699, 172.0150
540.8521, 171.2202
541.3342, 171.0372
541.8163, 170.9210
542.2984, 170.1867
542.7805, 169.0584
543.2626, 168.4363
543.7448, 168.7246
544.2269, 169.5545
544.7090, 170.3477
545.1911, 171.2472
545.6732, 171.6725
546.1553, 171.0736
546.6375, 170.5196
547.1196, 170.9416
547.6017, 171.8885
548.0838, 172.0968
548.5659, 170.8289
549.0480, 168.9446
549.5302, 168.5570
550.0123, 170.3857
550.4944, 171.5646
550.9765, 171.2693
551.4586, 170.6827
551.9407, 170.3056
552.4229, 170.1240
552.9050, 169.9435
553.3871, 169.5421
553.8692, 169.2246
554.3513, 169.5982
554.8334, 170.6464
555.3156, 171.5948
555.7977, 172.3533
556.2798, 172.6991
556.7619, 172.0453
557.2440, 170.4040
557.7261, 169.2399
558.2083, 169.1885
558.6904, 169.4123
559.1725, 169.2571
559.6546, 168.8169
560.1367, 168.4814
560.6188, 168.4396
561.1010, 168.5751
561.5831, 168.6581
562.0652, 168.6912
562.5473, 168.6610
563.0294, 168.5108
563.5115, 168.3622
563.9937, 168.3567
564.4758, 168.3932
564.9579, 168.2188
565.4400, 167.6691
565.9221, 166.9865
566.4042, 166.6282
566.8864, 166.6303
567.3685, 166.6623
567.8506, 166.6327
568.3327, 166.6626
568.8148, 166.9332
569.2969, 167.3549
569.7791, 167.5914
570.2612, 167.5038
570.7433, 167.2117
571.2254, 166.6727
571.7075, 165.9931
572.1896, 165.6062
572.6718, 165.6917
573.1539, 165.9194
573.6360, 165.8551
574.1181, 165.4338
574.6002, 164.9995
575.0823, 164.1565
575.5645, 163.7181
576.0466, 164.4812
576.5287, 165.7657
577.0108, 166.3731
577.4929, 165.8596
577.9750, 164.9307
578.4572, 164.7090
578.9393, 165.3564
579.4214, 165.6012
579.9035, 165.1014
580.3856, 164.6070
580.8677, 164.5733
581.3499, 164.7297
581.8320, 164.5934
582.3141, 163.9317
582.7962, 163.2765
583.2783, 163.2478
583.7604, 163.6172
584.2426, 163.5820
584.7247, 162.9440
585.2068, 162.3303
585.6889, 162.3900
586.1710, 162.9885
586.6531, 162.9327
587.1352, 161.4139
587.6173, 160.2735
588.0994, 160.2314
588.5815, 160.7344
589.0637, 161.1939
589.5458, 161.4782
590.0279, 161.7633
590.5100, 162.2840
590.9921, 162.9714
591.4742, 162.9275
