##NAMES=Wulfenite
##RRUFFID=R050149
##IDEAL CHEMISTRY=Pb^2+^Mo^6+^O_4_
##LOCALITY=Chapacase mine, Sierra Cerrillias District, Tocopilla, Chile
##OWNER=RRUFF
##SOURCE=Jim McGlasson
##DESCRIPTION=Orange thin tabular crystals
##STATUS=The identification of this mineral has been confirmed by X-ray diffraction.
##URL=rruff.info/R050149
93.77539, 88.80550
94.25751, 84.49232
94.73962, 86.61858
95.22174, 94.13682
95.70386, 103.2813
96.18597, 112.9811
96.66809, 123.2273
97.15021, 133.8677
97.63232, 144.8042
98.11444, 156.8032
98.59656, 170.6838
99.07867, 186.5047
99.56079, 203.9683
100.0429, 222.8197
100.5250, 242.9640
101.0071, 264.8686
101.4893, 288.5027
101.9714, 313.7553
102.4535, 340.0221
102.9356, 367.8770
103.4177, 395.6873
103.8998, 422.1099
104.3820, 446.9920
104.8641, 472.0214
105.3462, 498.3080
105.8283, 525.0894
106.3104, 549.4501
106.7925, 570.0584
107.2747, 589.4603
107.7568, 609.0676
108.2389, 629.1105
108.7210, 649.3699
109.2031, 669.3111
109.6852, 688.9734
110.1674, 710.9918
110.6495, 735.7693
111.1316, 762.9297
111.6137, 792.1406
112.0958, 824.7820
112.5779, 858.4986
113.0601, 892.7330
113.5422, 927.5465
114.0243, 964.1203
114.5064, 1003.397
114.9885, 1044.161
115.4706, 1085.458
115.9528, 1128.182
116.4349, 1170.318
116.9170, 1210.634
117.3991, 1249.836
117.8812, 1286.822
118.3633, 1321.576
118.8455, 1353.891
119.3276, 1383.238
119.8097, 1406.953
120.2918, 1429.446
120.7739, 1454.190
121.2560, 1483.994
121.7382, 1512.438
122.2203, 1534.174
122.7024, 1550.864
123.1845, 1568.055
123.6666, 1590.967
124.1487, 1615.430
124.6309, 1636.610
125.1130, 1650.330
125.5951, 1662.802
126.0772, 1679.552
126.5593, 1700.465
127.0414, 1724.480
127.5236, 1752.667
128.0057, 1783.264
128.4878, 1813.106
128.9699, 1839.082
129.4520, 1864.388
129.9341, 1895.443
130.4162, 1932.475
130.8984, 1970.010
131.3805, 2002.105
131.8626, 2029.593
132.3447, 2056.998
132.8268, 2086.007
133.3089, 2116.329
133.7911, 2142.321
134.2732, 2157.876
134.7553, 2165.302
135.2374, 2171.243
135.7195, 2175.765
136.2016, 2180.036
136.6838, 2185.145
137.1659, 2191.052
137.6480, 2194.267
138.1301, 2194.013
138.6122, 2192.472
139.0943, 2194.476
139.5765, 2201.348
140.0586, 2206.197
140.5407, 2204.912
141.0228, 2195.950
141.5049, 2188.833
141.9870, 2183.908
142.4692, 2180.755
142.9513, 2178.344
143.4334, 2176.571
143.9155, 2175.552
144.3976, 2175.701
144.8797, 2178.385
145.3619, 2178.628
145.8440, 2175.093
146.3261, 2168.636
146.8082, 2164.120
147.2903, 2162.817
147.7724, 2161.978
148.2546, 2159.920
148.7367, 2156.244
149.2188, 2152.005
149.7009, 2147.267
150.1830, 2142.074
150.6651, 2136.791
151.1473, 2132.634
151.6294, 2127.716
152.1115, 2120.760
152.5936, 2109.700
153.0757, 2098.910
153.5578, 2088.618
154.0400, 2078.868
154.5221, 2070.398
155.0042, 2064.515
155.4863, 2059.188
155.9684, 2052.654
156.4505, 2044.751
156.9327, 2035.417
157.4148, 2023.983
157.8969, 2010.203
158.3790, 1997.152
158.8611, 1985.584
159.3432, 1974.878
159.8254, 1964.295
160.3075, 1953.504
160.7896, 1942.975
161.2717, 1932.997
161.7538, 1923.712
162.2359, 1914.493
162.7181, 1904.995
163.2002, 1895.519
163.6823, 1886.465
164.1644, 1878.099
164.6465, 1870.133
165.1286, 1862.605
165.6108, 1855.697
166.0929, 1848.347
166.5750, 1839.537
167.0571, 1829.857
167.5392, 1820.397
168.0213, 1811.208
168.5035, 1802.618
168.9856, 1795.045
169.4677, 1788.800
169.9498, 1782.606
170.4319, 1775.603
170.9140, 1767.967
171.3962, 1760.191
171.8783, 1752.977
172.3604, 1745.569
172.8425, 1736.981
173.3246, 1726.519
173.8067, 1716.059
174.2889, 1707.272
174.7710, 1699.851
175.2531, 1692.883
175.7352, 1686.599
176.2173, 1680.294
176.6994, 1672.852
177.1816, 1663.532
177.6637, 1653.932
178.1458, 1646.211
178.6279, 1639.911
179.1100, 1633.217
179.5921, 1624.014
180.0743, 1613.530
180.5564, 1604.367
181.0385, 1597.259
181.5206, 1591.206
182.0027, 1585.312
182.4848, 1579.486
182.9670, 1573.042
183.4491, 1564.881
183.9312, 1555.557
184.4133, 1546.865
184.8954, 1539.352
185.3775, 1532.395
185.8597, 1524.635
186.3418, 1516.117
186.8239, 1507.515
187.3060, 1499.846
187.7881, 1492.684
188.2702, 1484.319
188.7523, 1473.567
189.2345, 1461.838
189.7166, 1452.386
190.1987, 1445.196
190.6808, 1439.301
191.1629, 1434.643
191.6451, 1430.969
192.1272, 1425.929
192.6093, 1418.401
193.0914, 1409.342
193.5735, 1401.738
194.0556, 1395.683
194.5378, 1389.988
195.0199, 1383.309
195.5020, 1375.712
195.9841, 1368.897
196.4662, 1363.470
196.9483, 1359.148
197.4305, 1354.754
197.9126, 1350.214
198.3947, 1345.780
198.8768, 1341.860
199.3589, 1338.420
199.8410, 1335.016
200.3232, 1331.500
200.8053, 1327.902
201.2874, 1324.302
201.7695, 1320.609
202.2516, 1317.216
202.7337, 1314.661
203.2159, 1313.087
203.6980, 1311.532
204.1801, 1310.052
204.6622, 1308.533
205.1443, 1305.478
205.6264, 1300.504
206.1086, 1294.978
206.5907, 1290.320
207.0728, 1286.718
207.5549, 1283.293
208.0370, 1279.856
208.5191, 1276.420
209.0013, 1272.919
209.4834, 1268.964
209.9655, 1265.680
210.4476, 1265.039
210.9297, 1268.354
211.4118, 1269.283
211.8940, 1265.564
212.3761, 1257.362
212.8582, 1251.407
213.3403, 1248.348
213.8224, 1246.525
214.3045, 1244.245
214.7867, 1241.377
215.2688, 1238.345
215.7509, 1234.771
216.2330, 1230.695
216.7151, 1229.126
217.1972, 1231.354
217.6794, 1234.292
218.1615, 1234.453
218.6436, 1230.777
219.1257, 1227.014
219.6078, 1224.085
220.0899, 1221.955
220.5721, 1219.219
221.0542, 1215.085
221.5363, 1211.333
222.0184, 1210.139
222.5005, 1212.750
222.9826, 1215.000
223.4648, 1216.035
223.9469, 1215.866
224.4290, 1215.097
224.9111, 1213.374
225.3932, 1211.472
225.8753, 1210.167
226.3575, 1209.743
226.8396, 1209.333
227.3217, 1208.672
227.8038, 1207.743
228.2859, 1207.531
228.7680, 1208.546
229.2502, 1209.711
229.7323, 1209.965
230.2144, 1208.944
230.6965, 1207.693
231.1786, 1205.912
231.6607, 1203.605
232.1429, 1203.852
232.6250, 1208.619
233.1071, 1213.757
233.5892, 1215.142
234.0713, 1210.330
234.5534, 1206.769
235.0356, 1206.482
235.5177, 1209.290
235.9998, 1209.344
236.4819, 1204.475
236.9640, 1199.210
237.4461, 1197.626
237.9283, 1201.963
238.4104, 1205.485
238.8925, 1206.961
239.3746, 1206.494
239.8567, 1206.425
240.3388, 1207.237
240.8210, 1207.869
241.3031, 1207.369
241.7852, 1204.902
242.2673, 1202.949
242.7494, 1201.600
243.2315, 1200.926
243.7137, 1201.992
244.1958, 1206.234
244.6779, 1210.467
245.1600, 1212.256
245.6421, 1210.166
246.1242, 1208.612
246.6064, 1208.129
247.0885, 1208.602
247.5706, 1209.217
248.0527, 1209.911
248.5348, 1210.846
249.0169, 1212.239
249.4990, 1214.658
249.9812, 1216.253
250.4633, 1216.450
250.9454, 1215.669
251.4275, 1216.015
251.9096, 1218.243
252.3917, 1220.509
252.8739, 1221.477
253.3560, 1219.914
253.8381, 1220.178
254.3202, 1223.362
254.8023, 1228.482
255.2844, 1231.751
255.7666, 1232.231
256.2487, 1232.392
256.7308, 1233.631
257.2129, 1236.673
257.6950, 1238.695
258.1772, 1239.031
258.6593, 1238.469
259.1414, 1239.213
259.6235, 1241.764
260.1056, 1244.715
260.5877, 1247.551
261.0699, 1250.288
261.5520, 1252.763
262.0341, 1254.965
262.5162, 1256.910
262.9983, 1258.532
263.4804, 1259.443
263.9626, 1260.905
264.4447, 1263.733
264.9268, 1268.556
265.4089, 1271.850
265.8910, 1272.793
266.3731, 1273.042
266.8553, 1275.690
267.3374, 1281.460
267.8195, 1287.646
268.3016, 1293.252
268.7837, 1298.327
269.2658, 1303.124
269.7480, 1307.508
270.2301, 1311.812
270.7122, 1316.471
271.1943, 1321.553
271.6764, 1326.660
272.1585, 1331.430
272.6407, 1335.849
273.1228, 1340.984
273.6049, 1346.898
274.0870, 1353.264
274.5691, 1359.846
275.0512, 1366.634
275.5334, 1373.414
276.0155, 1380.114
276.4976, 1386.736
276.9797, 1393.031
277.4618, 1398.543
277.9439, 1404.979
278.4261, 1414.895
278.9081, 1428.754
279.3903, 1440.956
279.8724, 1449.371
280.3545, 1455.151
280.8366, 1464.124
281.3187, 1476.712
281.8008, 1490.730
282.2830, 1504.821
282.7651, 1519.014
283.2472, 1531.957
283.7293, 1542.564
284.2114, 1552.414
284.6935, 1566.444
285.1757, 1585.056
285.6578, 1604.499
286.1399, 1621.435
286.6220, 1636.175
287.1041, 1653.120
287.5862, 1673.055
288.0684, 1695.184
288.5505, 1717.730
289.0326, 1740.774
289.5147, 1764.242
289.9968, 1787.748
290.4789, 1811.598
290.9611, 1836.750
291.4432, 1863.405
291.9253, 1891.574
292.4074, 1921.238
292.8895, 1952.528
293.3716, 1984.026
293.8538, 2014.671
294.3359, 2045.133
294.8180, 2077.911
295.3001, 2113.031
295.7822, 2149.320
296.2643, 2185.094
296.7465, 2220.554
297.2286, 2257.092
297.7107, 2295.739
298.1928, 2336.238
298.6749, 2377.513
299.1570, 2419.767
299.6392, 2462.992
300.1213, 2506.502
300.6034, 2550.573
301.0855, 2594.040
301.5676, 2635.933
302.0497, 2677.988
302.5319, 2722.384
303.0140, 2769.378
303.4961, 2816.747
303.9782, 2864.349
304.4603, 2911.007
304.9424, 2956.474
305.4246, 2999.025
305.9067, 3041.563
306.3888, 3087.435
306.8709, 3135.684
307.3530, 3183.062
307.8351, 3227.056
308.3173, 3268.577
308.7994, 3308.546
309.2815, 3347.591
309.7636, 3385.169
310.2457, 3422.382
310.7278, 3458.322
311.2100, 3489.490
311.6921, 3512.214
312.1742, 3530.674
312.6563, 3547.515
313.1384, 3562.961
313.6205, 3578.062
314.1027, 3598.997
314.5848, 3619.596
315.0669, 3629.329
315.5490, 3620.293
316.0311, 3601.698
316.5132, 3577.928
316.9954, 3548.984
317.4775, 3517.708
317.9596, 3486.004
318.4417, 3452.459
318.9238, 3415.029
319.4059, 3370.629
319.8881, 3324.499
320.3702, 3280.737
320.8523, 3238.898
321.3344, 3191.087
321.8165, 3131.854
322.2986, 3067.442
322.7808, 3002.609
323.2629, 2935.778
323.7450, 2871.374
324.2271, 2810.780
324.7092, 2753.976
325.1913, 2697.782
325.6735, 2641.708
326.1556, 2586.275
326.6377, 2531.645
327.1198, 2475.998
327.6019, 2423.914
328.0840, 2376.569
328.5662, 2333.257
329.0483, 2290.797
329.5304, 2249.424
330.0125, 2209.070
330.4946, 2169.504
330.9767, 2129.916
331.4589, 2093.308
331.9410, 2059.936
332.4231, 2029.341
332.9052, 2000.922
333.3873, 1975.443
333.8694, 1950.488
334.3516, 1925.624
334.8337, 1900.654
335.3158, 1876.425
335.7979, 1852.383
336.2800, 1829.918
336.7621, 1810.938
337.2443, 1796.272
337.7264, 1782.501
338.2085, 1769.352
338.6906, 1756.685
339.1727, 1742.503
339.6548, 1725.794
340.1370, 1709.944
340.6191, 1697.536
341.1012, 1689.358
341.5833, 1680.222
342.0654, 1669.330
342.5475, 1657.739
343.0297, 1647.893
343.5118, 1639.970
343.9939, 1633.106
344.4760, 1627.412
344.9581, 1622.815
345.4402, 1617.154
345.9224, 1610.219
346.4045, 1602.816
346.8866, 1596.468
347.3687, 1590.984
347.8508, 1584.782
348.3329, 1576.596
348.8151, 1567.341
349.2972, 1560.019
349.7793, 1554.752
350.2614, 1549.388
350.7435, 1542.119
351.2256, 1533.239
351.7078, 1523.338
352.1899, 1512.359
352.6720, 1500.811
353.1541, 1489.214
353.6362, 1477.463
354.1183, 1465.552
354.6005, 1453.270
355.0826, 1440.912
355.5647, 1428.798
356.0468, 1417.147
356.5289, 1405.429
357.0110, 1392.378
357.4932, 1378.736
357.9753, 1366.250
358.4574, 1356.620
358.9395, 1347.948
359.4216, 1338.903
359.9037, 1329.345
360.3859, 1319.610
360.8680, 1309.743
361.3501, 1299.937
361.8322, 1290.477
362.3143, 1281.004
362.7964, 1272.303
363.2786, 1265.126
363.7607, 1259.316
364.2428, 1253.180
364.7249, 1245.614
365.2070, 1237.915
365.6891, 1231.018
366.1713, 1226.129
366.6534, 1220.724
367.1355, 1213.619
367.6176, 1205.613
368.0997, 1199.043
368.5818, 1195.579
369.0640, 1192.429
369.5461, 1188.510
370.0282, 1183.387
370.5103, 1178.497
370.9924, 1173.880
371.4745, 1169.473
371.9567, 1165.135
372.4388, 1160.519
372.9209, 1156.579
373.4030, 1153.784
373.8851, 1152.161
374.3672, 1149.623
374.8494, 1145.605
375.3315, 1141.369
375.8136, 1138.048
376.2957, 1135.916
376.7778, 1133.588
377.2599, 1130.806
377.7421, 1127.718
378.2242, 1124.685
378.7063, 1121.557
379.1884, 1119.125
379.6705, 1118.533
380.1526, 1119.794
380.6348, 1118.813
381.1169, 1114.961
381.5990, 1110.117
382.0811, 1107.092
382.5632, 1105.805
383.0453, 1104.355
383.5275, 1101.765
384.0096, 1098.528
384.4917, 1096.455
384.9738, 1095.612
385.4559, 1094.407
385.9380, 1090.646
386.4202, 1085.391
386.9023, 1081.378
387.3844, 1079.566
387.8665, 1078.776
388.3486, 1077.899
388.8307, 1076.874
389.3129, 1075.460
389.7950, 1072.728
390.2771, 1069.885
390.7592, 1068.575
391.2413, 1069.333
391.7234, 1069.965
392.2056, 1068.969
392.6877, 1066.850
393.1698, 1064.392
393.6519, 1061.248
394.1340, 1058.389
394.6161, 1056.427
395.0983, 1055.364
395.5804, 1054.555
396.0625, 1053.529
396.5446, 1052.805
397.0267, 1052.797
397.5089, 1055.092
397.9910, 1056.305
398.4731, 1055.364
398.9552, 1052.840
399.4373, 1050.445
399.9194, 1048.318
400.4016, 1046.367
400.8837, 1044.523
401.3658, 1042.640
401.8479, 1041.273
402.3300, 1040.544
402.8121, 1040.253
403.2942, 1040.226
403.7763, 1040.791
404.2585, 1041.006
404.7406, 1040.661
405.2227, 1039.794
405.7048, 1038.661
406.1869, 1037.114
406.6690, 1035.676
407.1512, 1034.907
407.6333, 1034.965
408.1154, 1034.271
408.5975, 1032.371
409.0796, 1030.082
409.5617, 1029.041
410.0439, 1029.269
410.5260, 1029.600
411.0081, 1029.272
411.4902, 1028.533
411.9723, 1028.810
412.4544, 1030.258
412.9366, 1031.294
413.4187, 1030.001
413.9008, 1026.982
414.3829, 1023.965
414.8650, 1021.180
415.3471, 1018.902
415.8293, 1017.838
416.3114, 1017.752
416.7935, 1017.582
417.2756, 1016.719
417.7577, 1015.412
418.2398, 1013.735
418.7220, 1011.487
419.2041, 1009.822
419.6862, 1010.506
420.1683, 1012.032
420.6504, 1012.067
421.1325, 1007.487
421.6147, 1003.347
422.0968, 1002.544
422.5789, 1004.970
423.0610, 1006.391
423.5431, 1005.136
424.0252, 1002.860
424.5074, 1000.595
424.9895, 997.9423
425.4716, 996.0349
425.9537, 995.3461
426.4358, 995.3958
426.9179, 995.1279
427.4001, 994.3245
427.8822, 993.4168
428.3643, 992.3948
428.8464, 991.1364
429.3285, 990.6527
429.8106, 991.3204
430.2928, 992.2655
430.7749, 992.6936
431.2570, 992.5968
431.7391, 991.9104
432.2212, 990.2962
432.7033, 988.2761
433.1855, 987.7972
433.6676, 989.0644
434.1497, 990.1393
434.6318, 989.7775
435.1139, 988.1682
435.5960, 986.3110
436.0782, 984.1571
436.5603, 982.1297
437.0424, 980.8455
437.5245, 980.1450
438.0066, 979.5201
438.4887, 978.8295
438.9709, 978.0807
439.4530, 977.1464
439.9351, 976.0861
440.4172, 975.3239
440.8993, 975.9462
441.3814, 976.6292
441.8636, 975.7194
442.3457, 972.3620
442.8278, 969.1024
443.3099, 966.8668
443.7920, 965.7985
444.2741, 966.0853
444.7563, 970.5623
445.2384, 973.8502
445.7205, 973.0218
446.2026, 967.9935
446.6847, 963.8806
447.1668, 962.1609
447.6490, 961.3842
448.1311, 960.6506
448.6132, 959.3372
449.0953, 958.8686
449.5774, 959.9671
450.0595, 961.7464
450.5417, 962.2224
451.0238, 960.6660
451.5059, 959.0953
451.9880, 958.0855
452.4701, 957.6449
452.9522, 957.6539
453.4344, 958.3423
453.9165, 958.9375
454.3986, 958.4851
454.8807, 956.9033
455.3628, 956.0619
455.8449, 956.5234
456.3271, 957.4570
456.8092, 957.0795
457.2913, 955.4675
457.7734, 953.7157
458.2555, 952.3658
458.7376, 951.2993
459.2198, 950.1705
459.7019, 948.9654
460.1840, 947.9639
460.6661, 947.3255
461.1482, 947.0811
461.6303, 947.3643
462.1125, 948.7469
462.5946, 949.9572
463.0767, 949.9737
463.5588, 949.0486
464.0409, 947.8947
464.5230, 946.3938
465.0052, 945.1038
465.4873, 944.2374
465.9694, 943.7342
466.4515, 944.1042
466.9336, 946.5071
467.4157, 949.3363
467.8979, 951.0771
468.3800, 951.6600
468.8621, 950.9540
469.3442, 948.0563
469.8263, 943.7366
470.3084, 941.0876
470.7906, 941.0674
471.2727, 941.3223
471.7548, 940.8342
472.2369, 939.4270
472.7190, 938.4719
473.2011, 938.0397
473.6833, 937.9190
474.1654, 937.9056
474.6475, 938.0066
475.1296, 938.1787
475.6117, 938.6073
476.0938, 938.8925
476.5760, 937.8484
477.0581, 935.5562
477.5402, 933.2211
478.0223, 931.1503
478.5044, 929.6348
478.9865, 929.6429
479.4687, 931.3679
479.9508, 932.9923
480.4329, 932.7236
480.9150, 931.3660
481.3971, 930.1135
481.8792, 929.4554
482.3614, 928.9427
482.8435, 928.3624
483.3256, 927.7366
483.8077, 927.1126
484.2898, 926.8496
484.7719, 926.3476
485.2541, 925.1256
485.7362, 922.8536
486.2183, 921.1648
486.7004, 920.5593
487.1825, 920.4769
487.6646, 920.3847
488.1468, 920.1846
488.6289, 920.1287
489.1110, 920.4094
489.5931, 920.8263
490.0752, 920.5656
490.5573, 919.2063
491.0395, 918.2106
491.5216, 918.4485
492.0037, 919.9676
492.4858, 920.7867
492.9679, 920.8863
493.4500, 920.4381
493.9322, 919.2141
494.4143, 917.4160
494.8964, 916.5549
495.3785, 917.3183
495.8606, 918.5020
496.3427, 918.0139
496.8249, 916.2701
497.3070, 914.8498
497.7891, 915.4093
498.2712, 916.2889
498.7533, 915.2676
499.2354, 912.2178
499.7176, 909.8728
500.1997, 910.6943
500.6818, 912.5740
501.1639, 913.5091
501.6460, 912.2846
502.1281, 911.1979
502.6103, 911.2883
503.0924, 911.9504
503.5745, 911.8843
504.0566, 910.1641
504.5387, 908.4866
505.0208, 907.2130
505.5030, 906.3502
505.9851, 905.9163
506.4672, 906.0641
506.9493, 906.4444
507.4314, 906.9408
507.9135, 907.7201
508.3957, 907.7428
508.8778, 906.7302
509.3599, 905.2609
509.8420, 903.9998
510.3241, 902.9577
510.8062, 903.0409
511.2884, 905.0176
511.7705, 908.1585
512.2526, 911.2674
512.7347, 914.2477
513.2168, 915.7391
513.6989, 913.7345
514.1810, 910.0120
514.6631, 906.7783
515.1453, 904.1865
515.6274, 902.9135
516.1095, 904.5797
516.5916, 907.4860
517.0737, 909.3612
517.5558, 908.8254
518.0380, 907.7719
518.5201, 906.7878
519.0022, 905.8274
519.4843, 904.6246
519.9664, 902.3876
520.4485, 900.5856
520.9307, 899.9442
521.4128, 900.8677
521.8949, 901.2405
522.3770, 900.8322
522.8591, 900.1219
523.3412, 899.5193
523.8234, 899.0105
524.3055, 898.7188
524.7876, 898.6882
525.2697, 898.8576
525.7518, 899.1244
526.2339, 899.4912
526.7161, 899.8533
527.1982, 900.2635
527.6803, 900.6194
528.1624, 900.5084
528.6445, 899.9468
529.1266, 899.5370
529.6088, 900.0165
530.0909, 900.8492
530.5730, 901.2844
531.0551, 901.1397
531.5372, 900.6680
532.0193, 899.6618
532.5015, 898.4966
532.9836, 897.7693
533.4657, 897.5154
533.9478, 897.8627
534.4299, 898.9586
534.9120, 900.7494
535.3942, 902.8416
535.8763, 905.8942
536.3584, 908.5396
536.8405, 910.2607
537.3226, 911.1097
537.8047, 910.7601
538.2869, 908.8229
538.7690, 906.2545
539.2511, 904.0906
539.7332, 902.3859
540.2153, 900.7948
540.6974, 899.1457
541.1796, 897.7634
541.6617, 897.6217
542.1438, 898.5865
542.6259, 899.2750
543.1080, 898.5251
543.5901, 897.1971
544.0723, 896.7577
544.5544, 897.1846
545.0365, 897.7787
545.5186, 898.4052
546.0007, 898.7602
546.4828, 898.4088
546.9650, 896.9069
547.4471, 895.6370
547.9292, 895.3431
548.4113, 895.5700
548.8934, 895.6899
549.3755, 895.1135
549.8577, 894.9592
550.3398, 895.9211
550.8219, 897.6400
551.3040, 898.0967
551.7861, 896.5002
552.2682, 894.9380
552.7504, 894.3246
553.2325, 894.7231
553.7146, 895.3009
554.1967, 896.0624
554.6788, 896.9747
555.1609, 897.9493
555.6431, 899.0060
556.1252, 900.4061
556.6073, 902.1884
557.0894, 904.3622
557.5715, 908.0645
558.0536, 912.3377
558.5358, 914.3743
559.0179, 911.1122
559.5000, 906.3041
559.9821, 902.4670
560.4642, 899.6996
560.9464, 898.4879
561.4285, 900.3152
561.9106, 902.8397
562.3927, 904.6645
562.8748, 905.5795
563.3569, 905.9324
563.8391, 905.1885
564.3212, 904.2073
564.8033, 903.7545
565.2854, 904.0959
565.7675, 904.4180
566.2496, 904.6102
566.7318, 904.7620
567.2139, 905.1615
567.6960, 905.8884
568.1781, 906.4081
568.6602, 906.3859
569.1423, 906.0302
569.6245, 906.1715
570.1066, 906.8135
570.5887, 907.3802
571.0708, 907.3780
571.5529, 907.0488
572.0350, 906.7469
572.5172, 906.4969
572.9993, 906.3564
573.4814, 906.2821
573.9635, 906.3542
574.4456, 906.6749
574.9277, 907.5700
575.4099, 908.3632
575.8920, 908.5837
576.3741, 908.5419
576.8562, 909.1266
577.3383, 911.7259
577.8204, 913.3966
578.3026, 912.8217
578.7847, 910.0931
579.2668, 909.6243
579.7489, 912.3364
580.2310, 915.1224
580.7131, 915.5612
581.1953, 913.6996
581.6774, 912.6100
582.1595, 912.4984
582.6416, 912.9703
583.1237, 913.8864
583.6058, 915.0155
584.0880, 915.6555
584.5701, 915.4061
585.0522, 914.9061
585.5343, 914.7028
586.0164, 914.7393
586.4985, 914.8862
586.9807, 915.2491
587.4628, 915.5601
587.9449, 915.3767
588.4270, 914.7627
588.9091, 915.0587
589.3912, 918.2820
589.8734, 921.0118
590.3555, 921.2335
590.8376, 917.5158
591.3197, 916.2053
591.8018, 918.2911
592.2839, 921.4620
