##NAMES=Wulfenite
##RRUFFID=R050501
##IDEAL CHEMISTRY=Pb^2+^Mo^6+^O_4_
##LOCALITY=Los Lamentos, Chihuahua, Mexico
##OWNER=RRUFF
##SOURCE=California Institute of Technology
##DESCRIPTION=Orange tabular crystal
##STATUS=The identification of this mineral has been confirmed by X-ray diffraction and chemical analysis
##URL=rruff.info/R050501
##MEASURED CHEMISTRY=Pb_1.00_Mo_1.00_O_4_
91.72394, 0.0000000E+00
92.20605, 1781.598
92.68817, 1775.583
93.17029, 1785.004
93.65240, 1803.568
94.13452, 1820.952
94.61664, 1817.599
95.09875, 1786.567
95.58087, 1739.944
96.06299, 1705.384
96.54510, 1688.746
97.02721, 1675.484
97.50933, 1661.887
97.99145, 1650.415
98.47356, 1646.158
98.95568, 1653.087
99.43780, 1669.258
99.91991, 1666.772
100.4020, 1642.426
100.8841, 1608.921
101.3663, 1569.385
101.8484, 1524.646
102.3305, 1475.299
102.8126, 1421.348
103.2947, 1360.914
103.7768, 1301.574
104.2590, 1241.349
104.7411, 1182.547
105.2232, 1127.489
105.7053, 1076.054
106.1874, 1029.327
106.6695, 989.5629
107.1517, 955.8345
107.6338, 925.3137
108.1159, 896.4218
108.5980, 869.4291
109.0801, 845.7045
109.5622, 826.4183
110.0444, 810.1419
110.5265, 795.3992
111.0086, 781.9961
111.4907, 770.4610
111.9728, 761.6462
112.4549, 756.1823
112.9371, 751.4861
113.4192, 746.5378
113.9013, 742.3425
114.3834, 739.8549
114.8655, 739.4479
115.3476, 740.5003
115.8298, 741.3889
116.3119, 741.9648
116.7940, 742.5527
117.2761, 742.9470
117.7582, 743.4219
118.2403, 744.2311
118.7225, 745.4907
119.2046, 747.2520
119.6867, 750.2137
120.1688, 755.8165
120.6509, 760.9250
121.1330, 764.0168
121.6152, 765.4590
122.0973, 766.8290
122.5794, 769.2935
123.0615, 772.9161
123.5436, 776.5897
124.0257, 781.2178
124.5079, 785.3879
124.9900, 786.9425
125.4721, 785.2324
125.9542, 783.9944
126.4363, 787.3824
126.9184, 793.9440
127.4006, 800.8735
127.8827, 807.2858
128.3648, 813.2704
128.8469, 818.9516
129.3290, 824.1584
129.8111, 829.3333
130.2932, 834.4119
130.7754, 839.5987
131.2575, 845.5099
131.7396, 852.4344
132.2217, 860.2955
132.7038, 869.9023
133.1859, 881.9341
133.6681, 895.3962
134.1502, 910.0925
134.6323, 925.9586
135.1144, 942.7892
135.5965, 960.3049
136.0786, 978.0981
136.5608, 997.8891
137.0429, 1019.507
137.5250, 1042.816
138.0071, 1067.518
138.4892, 1093.554
138.9713, 1121.293
139.4535, 1151.069
139.9356, 1184.121
140.4177, 1217.888
140.8998, 1250.696
141.3819, 1284.566
141.8640, 1322.844
142.3462, 1367.220
142.8283, 1415.824
143.3104, 1462.771
143.7925, 1506.418
144.2746, 1551.290
144.7567, 1599.849
145.2388, 1651.380
145.7210, 1703.117
146.2031, 1753.152
146.6852, 1803.018
147.1673, 1855.792
147.6494, 1912.673
148.1315, 1970.625
148.6137, 2027.292
149.0958, 2082.838
149.5779, 2136.455
150.0600, 2186.375
150.5421, 2235.076
151.0242, 2285.375
151.5064, 2338.670
151.9885, 2393.076
152.4706, 2443.795
152.9527, 2489.467
153.4348, 2534.611
153.9169, 2580.512
154.3991, 2626.995
154.8812, 2674.522
155.3633, 2723.341
155.8454, 2773.064
156.3275, 2820.858
156.8096, 2866.388
157.2918, 2909.698
157.7739, 2949.483
158.2560, 2987.164
158.7381, 3024.999
159.2202, 3065.039
159.7023, 3107.458
160.1845, 3144.917
160.6666, 3176.915
161.1487, 3205.382
161.6308, 3231.233
162.1129, 3254.150
162.5950, 3273.169
163.0772, 3287.641
163.5593, 3297.305
164.0414, 3299.266
164.5235, 3293.319
165.0056, 3280.849
165.4877, 3263.782
165.9698, 3242.091
166.4520, 3212.652
166.9341, 3170.957
167.4162, 3116.700
167.8983, 3057.642
168.3804, 2995.046
168.8625, 2927.550
169.3447, 2852.915
169.8268, 2770.198
170.3089, 2683.274
170.7910, 2594.629
171.2731, 2505.005
171.7552, 2416.347
172.2374, 2328.743
172.7195, 2242.859
173.2016, 2160.214
173.6837, 2079.523
174.1658, 2005.194
174.6479, 1938.131
175.1301, 1878.053
175.6122, 1823.450
176.0943, 1773.770
176.5764, 1728.896
177.0585, 1688.839
177.5406, 1654.874
178.0228, 1625.277
178.5049, 1599.734
178.9870, 1577.896
179.4691, 1559.232
179.9512, 1543.348
180.4333, 1530.458
180.9155, 1519.432
181.3976, 1509.861
181.8797, 1502.416
182.3618, 1498.057
182.8439, 1496.557
183.3260, 1496.700
183.8082, 1497.075
184.2903, 1497.712
184.7724, 1498.557
185.2545, 1500.165
185.7366, 1501.554
186.2187, 1502.189
186.7009, 1501.934
187.1830, 1500.897
187.6651, 1499.275
188.1472, 1497.300
188.6293, 1493.924
189.1114, 1491.450
189.5936, 1486.475
190.0757, 1475.814
190.5578, 1458.695
191.0399, 1436.812
191.5220, 1412.471
192.0041, 1385.702
192.4863, 1356.408
192.9684, 1324.332
193.4505, 1289.918
193.9326, 1253.043
194.4147, 1213.294
194.8968, 1172.395
195.3790, 1132.814
195.8611, 1094.279
196.3432, 1057.122
196.8253, 1020.944
197.3074, 986.1295
197.7895, 953.3420
198.2717, 922.7637
198.7538, 894.4581
199.2359, 868.3402
199.7180, 844.1376
200.2001, 821.5949
200.6822, 800.4406
201.1644, 780.6730
201.6465, 762.5903
202.1286, 746.5573
202.6107, 732.0079
203.0928, 718.2382
203.5749, 705.1954
204.0571, 693.3201
204.5392, 682.7768
205.0213, 673.5477
205.5034, 666.1759
205.9855, 662.2464
206.4676, 659.1469
206.9497, 656.1052
207.4319, 652.8231
207.9140, 648.0201
208.3961, 639.6223
208.8782, 626.8054
209.3603, 615.6178
209.8424, 606.9587
210.3246, 599.8900
210.8067, 594.5040
211.2888, 590.6157
211.7709, 587.5137
212.2530, 584.3357
212.7351, 580.8994
213.2173, 578.0479
213.6994, 576.1197
214.1815, 574.4697
214.6636, 572.9297
215.1457, 571.3853
215.6278, 569.5969
216.1100, 567.1506
216.5921, 563.4575
217.0742, 560.6100
217.5563, 558.8233
218.0384, 557.5203
218.5205, 556.5753
219.0027, 555.8531
219.4848, 554.9660
219.9669, 553.3163
220.4490, 550.2162
220.9311, 548.1492
221.4132, 547.5604
221.8954, 547.5652
222.3775, 547.6291
222.8596, 547.6158
223.3417, 547.5672
223.8238, 547.5348
224.3059, 547.5232
224.7881, 547.5187
225.2702, 547.5872
225.7523, 547.6229
226.2344, 547.4989
226.7165, 547.1979
227.1986, 546.8644
227.6807, 546.6899
228.1629, 546.7248
228.6450, 546.6546
229.1271, 546.0366
229.6092, 545.5167
230.0913, 545.8688
230.5734, 547.2453
231.0556, 549.0170
231.5377, 550.6364
232.0198, 552.1057
232.5019, 553.1285
232.9840, 553.1217
233.4661, 552.8619
233.9483, 553.4524
234.4304, 555.1536
234.9125, 556.9700
235.3946, 557.6899
235.8767, 557.6000
236.3588, 557.9579
236.8410, 559.4129
237.3231, 561.3870
237.8052, 563.0176
238.2873, 564.1838
238.7694, 565.2396
239.2515, 566.6033
239.7337, 568.0961
240.2158, 569.2897
240.6979, 569.7401
241.1800, 569.8691
241.6621, 570.4681
242.1442, 571.6414
242.6264, 573.0505
243.1085, 574.5129
243.5906, 576.0498
244.0727, 577.7234
244.5548, 579.6488
245.0369, 581.6838
245.5191, 583.4922
246.0012, 584.9604
246.4833, 586.4649
246.9654, 588.2870
247.4475, 590.2242
247.9296, 592.0089
248.4117, 593.5251
248.8939, 594.8190
249.3760, 595.9328
249.8581, 596.6019
250.3402, 597.6769
250.8223, 599.7878
251.3044, 602.2862
251.7866, 604.4713
252.2687, 606.0449
252.7508, 607.1562
253.2329, 608.1298
253.7150, 608.8983
254.1971, 609.6495
254.6793, 610.1151
255.1614, 610.7235
255.6435, 611.9547
256.1256, 614.0148
256.6077, 616.5998
257.0898, 619.1076
257.5720, 621.4935
258.0541, 623.8719
258.5362, 626.6305
259.0183, 629.1996
259.5004, 630.8474
259.9825, 631.3541
260.4647, 631.5549
260.9468, 633.1077
261.4289, 636.8949
261.9110, 640.3541
262.3931, 643.4334
262.8752, 646.1182
263.3574, 648.0761
263.8395, 649.3450
264.3216, 650.6578
264.8037, 653.2353
265.2858, 657.6557
265.7679, 662.2985
266.2501, 667.4443
266.7322, 672.5438
267.2143, 677.0099
267.6964, 680.8312
268.1785, 684.6381
268.6606, 689.3173
269.1428, 695.3008
269.6249, 701.0266
270.1070, 706.0710
270.5891, 711.2299
271.0712, 716.7214
271.5533, 722.6993
272.0355, 729.4625
272.5176, 737.4346
272.9997, 746.8624
273.4818, 756.2752
273.9639, 765.7435
274.4460, 775.1203
274.9282, 783.9579
275.4103, 792.4930
275.8924, 801.4454
276.3745, 811.4249
276.8566, 822.4540
277.3387, 834.6318
277.8208, 848.2562
278.3029, 862.4737
278.7851, 876.6393
279.2672, 891.0930
279.7493, 906.7475
280.2314, 924.3447
280.7135, 943.8051
281.1956, 963.9537
281.6778, 984.0507
282.1599, 1005.495
282.6420, 1029.167
283.1241, 1054.580
283.6062, 1080.461
284.0883, 1105.846
284.5705, 1131.381
285.0526, 1159.982
285.5347, 1191.178
286.0168, 1225.494
286.4989, 1262.588
286.9810, 1302.965
287.4632, 1347.494
287.9453, 1396.703
288.4274, 1449.193
288.9095, 1507.385
289.3916, 1566.930
289.8737, 1631.889
290.3559, 1701.113
290.8380, 1776.284
291.3201, 1858.753
291.8022, 1948.947
292.2843, 2047.076
292.7664, 2155.246
293.2486, 2271.881
293.7307, 2401.552
294.2128, 2545.948
294.6949, 2703.111
295.1770, 2870.945
295.6591, 3049.673
296.1413, 3238.951
296.6234, 3439.726
297.1055, 3654.885
297.5876, 3873.468
298.0697, 4098.147
298.5518, 4324.273
299.0340, 4550.671
299.5161, 4775.617
299.9982, 4994.653
300.4803, 5202.989
300.9624, 5399.135
301.4445, 5591.155
301.9267, 5778.672
302.4088, 5961.002
302.8909, 6136.291
303.3730, 6305.462
303.8551, 6476.622
304.3372, 6655.682
304.8194, 6842.649
305.3015, 7035.982
305.7836, 7238.819
306.2657, 7445.000
306.7478, 7648.817
307.2299, 7853.183
307.7121, 8067.681
308.1942, 8298.168
308.6763, 8541.235
309.1584, 8781.990
309.6405, 9017.035
310.1227, 9255.452
310.6048, 9502.662
311.0869, 9754.688
311.5690, 10003.85
312.0511, 10248.04
312.5332, 10482.56
313.0154, 10696.52
313.4975, 10899.21
313.9796, 11064.28
314.4617, 11201.11
314.9438, 11291.76
315.4259, 11319.73
315.9081, 11281.57
316.3902, 11167.18
316.8723, 10958.22
317.3544, 10646.93
317.8365, 10263.70
318.3186, 9785.969
318.8007, 9252.240
319.2828, 8683.182
319.7650, 8082.390
320.2471, 7477.401
320.7292, 6882.683
321.2113, 6304.300
321.6934, 5770.481
322.1755, 5278.983
322.6577, 4829.303
323.1398, 4421.372
323.6219, 4055.742
324.1040, 3728.162
324.5861, 3440.292
325.0682, 3189.519
325.5504, 2968.561
326.0325, 2779.035
326.5146, 2610.884
326.9967, 2461.736
327.4788, 2331.039
327.9609, 2216.791
328.4431, 2118.592
328.9252, 2035.200
329.4073, 1965.198
329.8894, 1910.358
330.3715, 1862.155
330.8536, 1821.822
331.3358, 1786.488
331.8179, 1752.676
332.3000, 1719.469
332.7821, 1687.803
333.2642, 1658.806
333.7463, 1633.057
334.2285, 1608.759
334.7106, 1584.001
335.1927, 1562.084
335.6748, 1545.268
336.1569, 1533.972
336.6390, 1527.717
337.1212, 1526.474
337.6033, 1530.562
338.0854, 1537.082
338.5675, 1547.494
339.0496, 1558.682
339.5317, 1568.877
340.0139, 1578.559
340.4960, 1589.164
340.9781, 1601.531
341.4602, 1615.489
341.9423, 1630.230
342.4244, 1643.826
342.9066, 1660.283
343.3887, 1680.552
343.8708, 1704.170
344.3529, 1730.432
344.8350, 1758.963
345.3171, 1789.962
345.7993, 1824.073
346.2814, 1867.150
346.7635, 1902.803
347.2456, 1934.631
347.7277, 1956.496
348.2098, 1964.936
348.6920, 1958.594
349.1741, 1934.807
349.6562, 1889.850
350.1383, 1820.229
350.6204, 1742.710
351.1025, 1648.171
351.5847, 1555.469
352.0668, 1471.575
352.5489, 1398.127
353.0310, 1336.161
353.5131, 1287.369
353.9952, 1250.924
354.4774, 1217.779
354.9595, 1191.367
355.4416, 1164.325
355.9237, 1135.740
356.4058, 1105.615
356.8879, 1074.201
357.3701, 1041.656
357.8522, 1007.353
358.3343, 969.2205
358.8164, 923.0400
359.2985, 879.4949
359.7806, 838.6072
360.2627, 800.2372
360.7448, 764.5598
361.2270, 731.3948
361.7091, 700.6807
362.1912, 672.0990
362.6733, 645.5450
363.1554, 621.7455
363.6375, 601.4407
364.1197, 583.0076
364.6018, 565.9116
365.0839, 550.0921
365.5660, 536.0930
366.0481, 524.4271
366.5302, 514.8123
367.0124, 505.0196
367.4945, 493.9695
367.9766, 484.2499
368.4587, 476.8483
368.9408, 470.8228
369.4229, 465.1942
369.9051, 459.5956
370.3872, 453.9855
370.8693, 448.1339
371.3514, 441.6264
371.8335, 436.0177
372.3156, 431.9940
372.7978, 428.4704
373.2799, 424.8838
373.7620, 421.1265
374.2441, 417.1735
374.7262, 412.8979
375.2083, 408.2787
375.6905, 403.9568
376.1726, 399.5741
376.6547, 395.9758
377.1368, 393.9286
377.6189, 392.8640
378.1010, 391.6418
378.5832, 389.5955
379.0653, 386.9823
379.5474, 384.4694
380.0295, 382.0997
380.5116, 379.7159
380.9937, 377.0790
381.4759, 374.4808
381.9580, 372.2803
382.4401, 370.6126
382.9222, 369.0380
383.4043, 366.9200
383.8864, 364.2629
384.3686, 362.1905
384.8507, 361.2224
385.3328, 360.6520
385.8149, 360.1407
386.2970, 359.6031
386.7791, 358.3494
387.2613, 355.5125
387.7434, 351.7518
388.2255, 348.5320
388.7076, 345.9355
389.1897, 343.9599
389.6718, 343.3025
390.1540, 343.2240
390.6361, 342.1133
391.1182, 338.6747
391.6003, 335.1221
392.0824, 333.7952
392.5645, 334.4336
393.0467, 334.7756
393.5288, 333.8795
394.0109, 332.1650
394.4930, 330.3643
394.9751, 328.3877
395.4572, 326.6571
395.9394, 325.5340
396.4215, 324.7152
396.9036, 323.6815
397.3857, 322.2999
397.8678, 320.8610
398.3499, 319.6837
398.8321, 318.7882
399.3142, 317.7505
399.7963, 316.1500
400.2784, 314.7148
400.7605, 314.1721
401.2426, 314.3259
401.7247, 314.2913
402.2068, 313.5271
402.6890, 312.1803
403.1711, 310.9110
403.6532, 309.4507
404.1353, 308.3800
404.6174, 307.9641
405.0995, 307.9282
405.5817, 308.1703
406.0638, 308.6118
406.5459, 308.6886
407.0280, 307.4800
407.5101, 304.2739
407.9922, 302.0844
408.4744, 301.3367
408.9565, 301.0928
409.4386, 301.1608
409.9207, 301.3118
410.4028, 301.0905
410.8849, 300.1049
411.3671, 298.5055
411.8492, 297.4297
412.3313, 297.3965
412.8134, 297.2737
413.2955, 296.9903
413.7776, 296.5058
414.2598, 295.7507
414.7419, 294.7116
415.2240, 293.5079
415.7061, 292.2815
416.1882, 290.9681
416.6703, 289.8371
417.1525, 289.1156
417.6346, 288.4000
418.1167, 287.3876
418.5988, 286.1938
419.0809, 285.2407
419.5630, 284.9219
420.0452, 285.0560
420.5273, 284.9026
421.0094, 284.5400
421.4915, 283.7078
421.9736, 281.7411
422.4557, 279.5370
422.9379, 278.2044
423.4200, 278.1476
423.9021, 278.3720
424.3842, 277.7099
424.8663, 276.2074
425.3484, 275.0174
425.8306, 274.4159
426.3127, 274.1647
426.7948, 274.1118
427.2769, 274.2207
427.7590, 274.2540
428.2411, 274.3374
428.7233, 274.1904
429.2054, 273.0280
429.6875, 270.7146
430.1696, 269.0411
430.6517, 269.5002
431.1339, 271.3211
431.6160, 272.0406
432.0981, 271.1288
432.5802, 269.9450
433.0623, 269.0453
433.5444, 268.3766
434.0266, 267.8027
434.5087, 267.2759
434.9908, 266.9203
435.4729, 267.0188
435.9550, 267.7963
436.4371, 267.9333
436.9193, 266.7753
437.4014, 265.4586
437.8835, 264.7780
438.3656, 264.6794
438.8477, 264.7211
439.3298, 264.6362
439.8120, 264.4267
440.2941, 264.1031
440.7762, 263.4239
441.2583, 262.9300
441.7404, 263.0103
442.2225, 263.1303
442.7046, 262.5913
443.1867, 261.2939
443.6689, 259.9016
444.1510, 259.3274
444.6331, 259.7985
445.1152, 259.9391
445.5973, 259.0656
446.0794, 258.5417
446.5616, 259.4318
447.0437, 260.9574
447.5258, 261.5377
448.0079, 260.1311
448.4900, 257.6653
448.9721, 256.5232
449.4543, 257.2104
449.9364, 257.7728
450.4185, 257.7764
450.9006, 257.4754
451.3827, 256.8980
451.8648, 256.0901
452.3470, 255.3880
452.8291, 255.1631
453.3112, 255.2895
453.7933, 255.2048
454.2754, 254.8144
454.7575, 254.3653
455.2397, 253.9487
455.7218, 253.5935
456.2039, 253.3842
456.6860, 253.4416
457.1681, 253.5034
457.6502, 253.3160
458.1324, 252.9308
458.6145, 252.5677
459.0966, 252.2793
459.5787, 252.0807
460.0608, 252.0743
460.5429, 252.3010
461.0251, 252.2943
461.5072, 252.0347
461.9893, 251.4652
462.4714, 250.2517
462.9535, 248.5485
463.4356, 247.1930
463.9178, 246.7574
464.3999, 247.1151
464.8820, 247.5737
465.3641, 248.6867
465.8462, 249.1905
466.3283, 248.2358
466.8105, 246.9275
467.2926, 246.6469
467.7747, 247.6132
468.2568, 248.7595
468.7389, 248.7708
469.2210, 247.4243
469.7032, 246.4102
470.1853, 246.2401
470.6674, 245.8708
471.1495, 244.4904
471.6316, 242.8140
472.1137, 242.1655
472.5959, 243.2563
473.0780, 245.0484
473.5601, 245.4583
474.0422, 244.0940
474.5243, 243.0351
475.0064, 243.0129
475.4886, 243.1084
475.9707, 242.7389
476.4528, 241.9465
476.9349, 241.1324
477.4170, 240.3679
477.8991, 239.7913
478.3813, 239.8685
478.8634, 240.7367
479.3455, 241.4301
479.8276, 241.3884
480.3097, 240.8796
480.7918, 240.3909
481.2740, 239.9255
481.7561, 239.5314
482.2382, 239.3872
482.7203, 239.2967
483.2024, 238.7429
483.6845, 237.5950
484.1666, 236.5929
484.6487, 236.4928
485.1309, 237.3404
485.6130, 238.0129
486.0951, 238.6268
486.5772, 238.9549
487.0593, 238.7500
487.5414, 238.2183
488.0236, 237.6803
488.5057, 237.2624
488.9878, 237.0030
489.4699, 237.0078
489.9520, 237.5101
490.4341, 237.6900
490.9163, 237.2419
491.3984, 236.8101
491.8805, 236.9130
492.3626, 237.3098
492.8447, 237.3484
493.3268, 236.5697
493.8090, 235.2678
494.2911, 234.2634
494.7732, 233.5531
495.2553, 233.1618
495.7374, 233.2915
496.2195, 233.6161
496.7017, 234.1049
497.1838, 234.6808
497.6659, 234.8657
498.1480, 233.8223
498.6301, 232.1639
499.1122, 231.7885
499.5944, 233.0308
500.0765, 234.2927
500.5586, 234.8245
501.0407, 234.6858
501.5228, 233.9615
502.0049, 232.2107
502.4871, 230.8435
502.9692, 230.9308
503.4513, 231.7771
503.9334, 232.1587
504.4155, 231.8101
504.8976, 231.0375
505.3798, 230.0325
505.8619, 228.7595
506.3440, 228.0417
506.8261, 228.0437
507.3082, 228.3497
507.7903, 229.2020
508.2725, 230.1497
508.7546, 230.4508
509.2367, 229.8455
509.7188, 228.7950
510.2009, 227.9902
510.6830, 227.4122
511.1652, 227.1461
511.6473, 227.7230
512.1294, 228.0870
512.6115, 227.7242
513.0936, 226.8484
513.5757, 225.8753
514.0579, 224.9577
514.5400, 224.2132
515.0221, 223.8979
515.5042, 224.0555
515.9863, 224.3105
516.4684, 224.6786
516.9506, 225.0170
517.4327, 225.3485
517.9148, 225.6155
518.3969, 225.4245
518.8790, 224.1380
519.3611, 222.5694
519.8433, 221.7375
520.3254, 221.6365
520.8075, 221.9574
521.2896, 222.7331
521.7717, 223.6333
522.2538, 223.8159
522.7360, 223.0930
523.2181, 222.3611
523.7002, 221.4429
524.1823, 220.8024
524.6644, 221.2595
525.1465, 222.5603
525.6287, 223.3253
526.1108, 222.4467
526.5929, 220.3339
527.0750, 219.1400
527.5571, 219.6025
528.0392, 219.9952
528.5214, 220.0839
529.0035, 220.0992
529.4856, 220.3097
529.9677, 220.6943
530.4498, 220.9256
530.9319, 220.6170
531.4141, 219.8880
531.8962, 219.5008
532.3783, 219.5966
532.8604, 219.7081
533.3425, 219.7060
533.8246, 219.5806
534.3068, 219.2787
534.7889, 218.7718
535.2710, 218.2374
535.7531, 217.7290
536.2352, 217.2863
536.7173, 217.0330
537.1995, 216.9990
537.6816, 216.9383
538.1637, 216.5473
538.6458, 215.9738
539.1279, 216.0480
539.6100, 217.9179
540.0922, 218.9775
540.5743, 217.6101
541.0564, 215.4449
541.5385, 214.6411
542.0206, 215.5606
542.5027, 216.8980
542.9849, 217.2629
543.4670, 216.6230
543.9491, 216.4352
544.4312, 217.1583
544.9133, 217.8026
545.3954, 218.2229
545.8775, 218.4409
546.3596, 218.4892
546.8417, 218.3778
547.3239, 218.0948
547.8060, 217.4254
548.2881, 216.4455
548.7702, 216.2049
549.2523, 217.1569
549.7344, 217.9792
550.2166, 217.7023
550.6987, 216.8083
551.1808, 215.9711
551.6629, 215.2760
552.1450, 214.7115
552.6271, 214.1533
553.1093, 213.7415
553.5914, 213.9487
554.0735, 214.8879
554.5556, 215.7020
555.0377, 215.5533
555.5198, 214.4569
556.0020, 213.6055
556.4841, 213.0399
556.9662, 212.6273
557.4483, 212.2432
557.9304, 212.0302
558.4125, 212.3304
558.8947, 213.1452
559.3768, 213.8884
559.8589, 213.8091
560.3410, 212.8791
560.8231, 212.4299
561.3052, 212.8535
561.7874, 213.2012
562.2695, 213.2104
562.7516, 212.9723
563.2337, 212.4835
563.7158, 211.7194
564.1979, 211.1356
564.6801, 211.2955
565.1622, 211.9609
565.6443, 212.3511
566.1264, 212.3754
566.6085, 212.1828
567.0906, 211.8203
567.5728, 211.3186
568.0549, 210.8065
568.5370, 210.1159
569.0191, 209.6765
569.5012, 209.6610
569.9833, 209.9629
570.4655, 210.7512
570.9476, 211.8933
571.4297, 212.4640
571.9118, 211.4676
572.3939, 209.1007
572.8760, 207.9727
573.3582, 209.3835
573.8403, 210.2838
574.3224, 209.8083
574.8045, 208.9658
575.2866, 208.6320
575.7687, 208.9253
576.2509, 209.4388
576.7330, 209.9816
577.2151, 210.4656
577.6972, 210.5049
578.1793, 210.0268
578.6614, 209.4101
579.1436, 208.6900
579.6257, 208.0145
580.1078, 207.6077
580.5899, 207.5105
581.0720, 207.4606
581.5541, 207.4025
582.0363, 207.3158
582.5184, 207.0177
583.0005, 206.6000
583.4826, 206.6993
583.9647, 207.8349
584.4468, 209.4158
584.9290, 209.6831
585.4111, 207.2506
585.8932, 205.6501
586.3753, 205.0297
586.8574, 205.0451
587.3395, 205.8337
587.8217, 207.0764
588.3038, 208.0657
588.7859, 208.3581
