##NAMES=Wulfenite
##RRUFFID=R050501
##IDEAL CHEMISTRY=Pb^2+^Mo^6+^O_4_
##LOCALITY=Los Lamentos, Chihuahua, Mexico
##OWNER=RRUFF
##SOURCE=California Institute of Technology
##DESCRIPTION=Orange tabular crystal
##STATUS=The identification of this mineral has been confirmed by X-ray diffraction and chemical analysis
##URL=rruff.info/R050501
##MEASURED CHEMISTRY=Pb_1.00_Mo_1.00_O_4_
91.62726, 0.0000000E+00
92.10938, 38.22872
92.59149, 38.75639
93.07361, 38.58907
93.55573, 37.77760
94.03784, 36.95011
94.51996, 36.78960
95.00208, 37.09388
95.48419, 37.12821
95.96631, 36.44376
96.44843, 35.36914
96.93054, 34.24090
97.41266, 32.76342
97.89478, 32.86294
98.37689, 38.40568
98.85901, 49.38296
99.34113, 58.82828
99.82324, 64.22103
100.3054, 65.52003
100.7875, 63.52565
101.2696, 56.84835
101.7517, 48.66966
102.2338, 45.20687
102.7159, 47.85353
103.1981, 51.31672
103.6802, 52.94691
104.1623, 51.83298
104.6444, 51.91734
105.1265, 53.62096
105.6086, 56.58540
106.0908, 59.40408
106.5729, 61.11236
107.0550, 63.78975
107.5371, 68.79668
108.0192, 78.86954
108.5013, 87.20540
108.9835, 92.15208
109.4656, 93.85716
109.9477, 98.15546
110.4298, 106.1422
110.9119, 116.1397
111.3940, 127.1999
111.8762, 140.0464
112.3583, 153.0695
112.8404, 165.6771
113.3225, 177.5997
113.8046, 191.2486
114.2867, 209.2846
114.7689, 228.6373
115.2510, 245.8097
115.7331, 258.4589
116.2152, 270.2951
116.6973, 282.6474
117.1794, 295.8635
117.6616, 308.6573
118.1437, 319.9021
118.6258, 330.5741
119.1079, 341.9000
119.5900, 356.1288
120.0721, 370.2248
120.5543, 381.6386
121.0364, 388.6237
121.5185, 396.2168
122.0006, 406.9440
122.4827, 420.6971
122.9648, 437.3121
123.4470, 458.4340
123.9291, 481.5880
124.4112, 503.8656
124.8933, 524.2734
125.3754, 544.1194
125.8575, 564.4568
126.3397, 585.2950
126.8218, 606.7855
127.3039, 628.9848
127.7860, 651.7691
128.2681, 674.8407
128.7502, 698.9135
129.2324, 722.7394
129.7145, 743.0522
130.1966, 759.9354
130.6787, 776.6671
131.1608, 798.3010
131.6429, 823.1942
132.1251, 844.0910
132.6072, 856.4359
133.0893, 862.9313
133.5714, 873.3260
134.0535, 887.9825
134.5356, 904.8748
135.0178, 921.0504
135.4999, 936.3738
135.9820, 954.3318
136.4641, 977.8390
136.9462, 1006.771
137.4283, 1031.747
137.9105, 1051.490
138.3926, 1069.945
138.8747, 1093.708
139.3568, 1124.046
139.8389, 1155.433
140.3210, 1185.335
140.8032, 1213.450
141.2853, 1242.247
141.7674, 1270.435
142.2495, 1299.987
142.7316, 1334.057
143.2137, 1369.170
143.6959, 1399.751
144.1780, 1431.200
144.6601, 1465.444
145.1422, 1496.934
145.6243, 1524.162
146.1064, 1548.676
146.5886, 1577.549
147.0707, 1612.555
147.5528, 1649.701
148.0349, 1686.113
148.5170, 1720.421
148.9991, 1756.534
149.4813, 1795.247
149.9634, 1836.475
150.4455, 1876.100
150.9276, 1910.048
151.4097, 1945.370
151.8918, 1985.383
152.3740, 2036.251
152.8561, 2085.572
153.3382, 2131.497
153.8203, 2173.921
154.3024, 2217.389
154.7845, 2262.466
155.2667, 2308.052
155.7488, 2354.058
156.2309, 2394.982
156.7130, 2440.708
157.1951, 2495.637
157.6772, 2560.056
158.1594, 2622.170
158.6415, 2676.119
159.1236, 2727.551
159.6057, 2782.221
160.0878, 2843.775
160.5699, 2905.809
161.0521, 2967.361
161.5342, 3028.266
162.0163, 3086.550
162.4984, 3143.385
162.9805, 3196.839
163.4626, 3244.454
163.9448, 3284.098
164.4269, 3318.746
164.9090, 3350.462
165.3911, 3379.688
165.8732, 3404.909
166.3553, 3432.286
166.8375, 3454.628
167.3196, 3459.969
167.8017, 3434.660
168.2838, 3395.748
168.7659, 3356.435
169.2480, 3320.294
169.7302, 3275.908
170.2123, 3214.369
170.6944, 3138.453
171.1765, 3055.679
171.6586, 2963.142
172.1407, 2868.218
172.6229, 2777.015
173.1050, 2690.828
173.5871, 2606.903
174.0692, 2522.399
174.5513, 2438.417
175.0334, 2359.426
175.5156, 2289.483
175.9977, 2225.144
176.4798, 2162.726
176.9619, 2099.259
177.4440, 2040.255
177.9261, 1992.281
178.4083, 1954.459
178.8904, 1924.121
179.3725, 1903.578
179.8546, 1888.966
180.3367, 1873.041
180.8188, 1853.486
181.3010, 1833.916
181.7831, 1818.330
182.2652, 1806.903
182.7473, 1800.038
183.2294, 1799.641
183.7115, 1804.249
184.1937, 1809.984
184.6758, 1816.472
185.1579, 1823.267
185.6400, 1829.564
186.1221, 1835.353
186.6042, 1841.880
187.0864, 1850.690
187.5685, 1861.282
188.0506, 1871.163
188.5327, 1880.315
189.0148, 1888.135
189.4969, 1893.895
189.9791, 1897.592
190.4612, 1898.941
190.9433, 1898.339
191.4254, 1895.589
191.9075, 1888.709
192.3896, 1877.242
192.8718, 1861.438
193.3539, 1841.778
193.8360, 1818.131
194.3181, 1790.266
194.8002, 1756.586
195.2823, 1716.924
195.7645, 1677.455
196.2466, 1639.340
196.7287, 1602.445
197.2108, 1566.224
197.6929, 1530.561
198.1750, 1495.923
198.6572, 1462.596
199.1393, 1430.670
199.6214, 1400.138
200.1035, 1370.598
200.5856, 1342.445
201.0677, 1319.683
201.5499, 1303.191
202.0320, 1288.746
202.5141, 1271.738
202.9962, 1251.610
203.4783, 1233.581
203.9604, 1219.266
204.4426, 1208.267
204.9247, 1197.054
205.4068, 1185.586
205.8889, 1174.370
206.3710, 1163.779
206.8531, 1153.693
207.3353, 1144.952
207.8174, 1138.040
208.2995, 1132.820
208.7816, 1127.254
209.2637, 1121.024
209.7458, 1115.166
210.2280, 1110.871
210.7101, 1108.432
211.1922, 1106.436
211.6743, 1104.663
212.1564, 1103.110
212.6385, 1101.544
213.1207, 1100.333
213.6028, 1098.533
214.0849, 1094.844
214.5670, 1088.519
215.0491, 1082.625
215.5313, 1077.477
216.0134, 1073.073
216.4955, 1071.185
216.9776, 1072.639
217.4597, 1075.442
217.9418, 1077.796
218.4240, 1079.951
218.9061, 1080.911
219.3882, 1080.184
219.8703, 1077.762
220.3524, 1075.487
220.8345, 1073.228
221.3167, 1071.297
221.7988, 1070.067
222.2809, 1069.865
222.7630, 1069.564
223.2451, 1068.526
223.7272, 1066.710
224.2094, 1067.254
224.6915, 1071.497
225.1736, 1076.613
225.6557, 1079.441
226.1378, 1078.439
226.6199, 1078.680
227.1021, 1082.008
227.5842, 1088.479
228.0663, 1091.170
228.5484, 1087.597
229.0305, 1082.964
229.5126, 1082.345
229.9948, 1087.803
230.4769, 1093.102
230.9590, 1097.602
231.4411, 1101.270
231.9232, 1102.617
232.4053, 1099.906
232.8875, 1096.738
233.3696, 1096.542
233.8517, 1101.351
234.3338, 1105.064
234.8159, 1105.947
235.2980, 1104.116
235.7802, 1105.299
236.2623, 1111.496
236.7444, 1118.554
237.2265, 1122.862
237.7086, 1122.599
238.1907, 1123.223
238.6729, 1126.130
239.1550, 1131.090
239.6371, 1133.801
240.1192, 1132.281
240.6013, 1130.726
241.0834, 1132.669
241.5656, 1140.075
242.0477, 1146.981
242.5298, 1152.429
243.0119, 1156.583
243.4940, 1161.330
243.9761, 1167.374
244.4583, 1173.155
244.9404, 1177.531
245.4225, 1180.045
245.9046, 1181.974
246.3867, 1182.882
246.8688, 1183.127
247.3510, 1185.447
247.8331, 1191.373
248.3152, 1197.416
248.7973, 1201.088
249.2794, 1200.579
249.7615, 1201.660
250.2437, 1205.405
250.7258, 1211.171
251.2079, 1215.714
251.6900, 1218.088
252.1721, 1220.599
252.6542, 1224.873
253.1364, 1232.296
253.6185, 1238.054
254.1006, 1241.225
254.5827, 1242.575
255.0648, 1244.618
255.5469, 1246.949
256.0291, 1250.592
256.5112, 1256.629
256.9933, 1267.206
257.4754, 1274.567
257.9575, 1276.997
258.4396, 1276.535
258.9218, 1279.062
259.4039, 1285.983
259.8860, 1293.376
260.3681, 1299.408
260.8502, 1303.496
261.3323, 1308.080
261.8145, 1313.569
262.2966, 1319.306
262.7787, 1323.740
263.2608, 1326.128
263.7429, 1328.729
264.2250, 1332.591
264.7072, 1337.996
265.1893, 1343.211
265.6714, 1348.033
266.1535, 1352.730
266.6356, 1357.929
267.1177, 1364.055
267.5999, 1369.569
268.0820, 1372.972
268.5641, 1373.411
269.0462, 1379.178
269.5283, 1392.800
270.0104, 1408.765
270.4926, 1418.579
270.9747, 1420.513
271.4568, 1422.902
271.9389, 1428.993
272.4210, 1439.032
272.9031, 1446.107
273.3853, 1448.899
273.8674, 1451.151
274.3495, 1457.514
274.8316, 1468.490
275.3137, 1481.011
275.7958, 1494.807
276.2780, 1509.675
276.7601, 1523.633
277.2422, 1536.364
277.7243, 1548.921
278.2064, 1562.194
278.6885, 1576.120
279.1707, 1591.251
279.6528, 1608.106
280.1349, 1626.268
280.6170, 1643.411
281.0991, 1659.304
281.5812, 1675.257
282.0634, 1691.672
282.5455, 1708.734
283.0276, 1728.026
283.5097, 1750.059
283.9918, 1774.451
284.4739, 1800.485
284.9561, 1828.385
285.4382, 1856.350
285.9203, 1881.513
286.4024, 1904.092
286.8845, 1932.021
287.3666, 1966.730
287.8488, 2006.404
288.3309, 2046.401
288.8130, 2086.615
289.2951, 2130.572
289.7772, 2182.222
290.2593, 2239.992
290.7415, 2296.708
291.2236, 2349.664
291.7057, 2404.653
292.1878, 2471.184
292.6699, 2548.764
293.1520, 2631.616
293.6342, 2713.563
294.1163, 2797.892
294.5984, 2891.777
295.0805, 2996.179
295.5626, 3111.334
296.0447, 3238.202
296.5269, 3377.141
297.0090, 3530.514
297.4911, 3695.729
297.9732, 3876.348
298.4553, 4076.541
298.9374, 4295.513
299.4196, 4533.446
299.9017, 4788.407
300.3838, 5060.111
300.8659, 5346.592
301.3480, 5650.275
301.8301, 5964.339
302.3123, 6278.618
302.7944, 6595.706
303.2765, 6912.501
303.7586, 7231.529
304.2407, 7549.956
304.7228, 7869.706
305.2050, 8183.604
305.6871, 8504.432
306.1692, 8831.590
306.6513, 9170.654
307.1334, 9527.448
307.6155, 9911.303
308.0977, 10317.70
308.5798, 10739.65
309.0619, 11174.80
309.5440, 11635.43
310.0261, 12130.50
310.5082, 12659.77
310.9904, 13220.23
311.4725, 13812.75
311.9546, 14440.47
312.4367, 15113.90
312.9188, 15841.25
313.4009, 16586.23
313.8831, 17349.11
314.3652, 18103.90
314.8473, 18814.05
315.3294, 19506.00
315.8115, 20125.53
316.2936, 20661.15
316.7758, 21122.85
317.2579, 21422.90
317.7400, 21548.90
318.2221, 21485.99
318.7042, 21220.76
319.1863, 20729.15
319.6685, 20052.34
320.1506, 19169.65
320.6327, 18079.64
321.1148, 16928.39
321.5969, 15685.55
322.0790, 14443.69
322.5612, 13251.55
323.0433, 12103.88
323.5254, 11037.32
324.0075, 10057.41
324.4896, 9160.719
324.9717, 8356.992
325.4539, 7659.641
325.9360, 7036.848
326.4181, 6478.128
326.9002, 5985.694
327.3823, 5546.127
327.8644, 5167.778
328.3466, 4843.041
328.8287, 4548.953
329.3108, 4289.539
329.7929, 4054.401
330.2750, 3845.223
330.7571, 3663.643
331.2393, 3498.079
331.7214, 3350.588
332.2035, 3217.797
332.6856, 3096.138
333.1677, 2983.485
333.6498, 2883.742
334.1320, 2799.139
334.6141, 2732.705
335.0962, 2668.864
335.5783, 2606.683
336.0604, 2548.089
336.5425, 2494.090
337.0247, 2444.105
337.5068, 2399.964
337.9889, 2361.617
338.4710, 2329.208
338.9531, 2302.896
339.4352, 2283.523
339.9174, 2267.865
340.3995, 2253.187
340.8816, 2238.757
341.3637, 2229.236
341.8458, 2225.094
342.3279, 2226.188
342.8101, 2231.817
343.2922, 2241.800
343.7743, 2257.213
344.2564, 2278.264
344.7385, 2305.158
345.2206, 2339.267
345.7028, 2382.311
346.1849, 2429.300
346.6670, 2473.053
347.1491, 2513.746
347.6312, 2554.045
348.1133, 2600.365
348.5955, 2647.630
349.0776, 2682.154
349.5597, 2704.763
350.0418, 2708.770
350.5239, 2687.436
351.0060, 2642.003
351.4882, 2575.319
351.9703, 2478.477
352.4524, 2369.151
352.9345, 2271.838
353.4166, 2186.531
353.8987, 2112.802
354.3809, 2053.765
354.8630, 2005.646
355.3451, 1965.032
355.8272, 1932.723
356.3093, 1904.363
356.7914, 1878.624
357.2736, 1853.958
357.7557, 1826.709
358.2378, 1793.853
358.7199, 1758.446
359.2020, 1723.011
359.6841, 1687.870
360.1663, 1652.490
360.6484, 1615.164
361.1305, 1577.728
361.6126, 1542.765
362.0947, 1512.391
362.5768, 1483.721
363.0590, 1454.287
363.5411, 1424.111
364.0232, 1397.716
364.5053, 1378.491
364.9874, 1362.635
365.4695, 1347.196
365.9517, 1330.529
366.4338, 1315.383
366.9159, 1302.471
367.3980, 1291.484
367.8801, 1281.135
368.3622, 1271.283
368.8444, 1262.117
369.3265, 1253.840
369.8086, 1247.346
370.2907, 1239.979
370.7728, 1229.908
371.2549, 1219.520
371.7371, 1213.036
372.2192, 1214.244
372.7013, 1214.088
373.1834, 1209.698
373.6655, 1200.484
374.1476, 1192.730
374.6298, 1186.815
375.1119, 1182.123
375.5940, 1178.259
376.0761, 1175.500
376.5582, 1172.827
377.0403, 1169.971
377.5225, 1167.114
378.0046, 1165.148
378.4867, 1164.428
378.9688, 1163.451
379.4509, 1161.251
379.9330, 1157.835
380.4152, 1153.604
380.8973, 1148.311
381.3794, 1142.832
381.8615, 1138.537
382.3436, 1135.373
382.8257, 1133.520
383.3079, 1134.552
383.7900, 1137.006
384.2721, 1134.953
384.7542, 1127.996
385.2363, 1120.902
385.7184, 1118.807
386.2006, 1120.365
386.6827, 1121.899
387.1648, 1123.103
387.6469, 1122.892
388.1290, 1118.319
388.6111, 1110.298
389.0933, 1103.882
389.5754, 1104.100
390.0575, 1107.008
390.5396, 1107.756
391.0217, 1104.977
391.5038, 1101.644
391.9860, 1100.243
392.4681, 1099.729
392.9502, 1098.165
393.4323, 1092.226
393.9144, 1086.918
394.3965, 1086.198
394.8787, 1090.521
395.3608, 1093.410
395.8429, 1091.776
396.3250, 1088.041
396.8071, 1084.375
397.2892, 1079.815
397.7714, 1076.915
398.2535, 1077.129
398.7356, 1079.808
399.2177, 1081.807
399.6998, 1083.098
400.1819, 1083.417
400.6641, 1082.567
401.1462, 1079.895
401.6283, 1077.420
402.1104, 1075.265
402.5925, 1073.254
403.0746, 1070.922
403.5568, 1067.369
404.0389, 1065.185
404.5210, 1065.679
405.0031, 1068.852
405.4852, 1069.417
405.9673, 1065.978
406.4495, 1062.546
406.9316, 1063.514
407.4137, 1069.836
407.8958, 1072.954
408.3779, 1071.014
408.8600, 1065.834
409.3422, 1061.353
409.8243, 1057.562
410.3064, 1055.173
410.7885, 1054.745
411.2706, 1056.097
411.7527, 1058.874
412.2349, 1063.382
412.7170, 1067.472
413.1991, 1067.561
413.6812, 1064.897
414.1633, 1063.739
414.6454, 1067.434
415.1276, 1072.071
415.6097, 1071.531
416.0918, 1066.481
416.5739, 1061.810
417.0560, 1061.845
417.5381, 1063.708
418.0203, 1063.656
418.5024, 1059.938
418.9845, 1056.875
419.4666, 1058.389
419.9487, 1062.423
420.4308, 1065.072
420.9130, 1065.498
421.3951, 1063.621
421.8772, 1057.849
422.3593, 1047.762
422.8414, 1040.796
423.3235, 1041.352
423.8057, 1044.616
424.2878, 1046.736
424.7699, 1046.135
425.2520, 1045.579
425.7341, 1045.049
426.2162, 1044.739
426.6984, 1045.420
427.1805, 1048.292
427.6626, 1050.777
428.1447, 1052.088
428.6268, 1052.409
429.1089, 1050.428
429.5911, 1044.229
430.0732, 1037.706
430.5553, 1036.193
431.0374, 1041.092
431.5195, 1045.463
432.0016, 1047.917
432.4838, 1048.582
432.9659, 1047.730
433.4480, 1045.096
433.9301, 1042.563
434.4122, 1041.756
434.8943, 1042.403
435.3765, 1042.399
435.8586, 1041.330
436.3407, 1040.234
436.8228, 1040.714
437.3049, 1042.499
437.7870, 1044.384
438.2692, 1046.302
438.7513, 1047.822
439.2334, 1048.095
439.7155, 1047.192
440.1976, 1046.133
440.6797, 1045.881
441.1619, 1045.825
441.6440, 1045.063
442.1261, 1042.679
442.6082, 1040.883
443.0903, 1041.766
443.5724, 1044.166
444.0546, 1045.576
444.5367, 1043.377
445.0188, 1041.353
445.5009, 1041.619
445.9830, 1044.664
446.4651, 1047.112
446.9473, 1048.027
447.4294, 1048.216
447.9115, 1048.346
448.3936, 1047.546
448.8757, 1047.833
449.3578, 1050.069
449.8400, 1053.513
450.3221, 1055.774
450.8042, 1056.586
451.2863, 1056.661
451.7684, 1056.179
452.2505, 1055.052
452.7327, 1054.087
453.2148, 1053.410
453.6969, 1052.728
454.1790, 1051.494
454.6611, 1049.630
455.1432, 1048.588
455.6254, 1049.044
456.1075, 1050.273
456.5896, 1050.203
457.0717, 1048.854
457.5538, 1047.463
458.0359, 1047.151
458.5181, 1047.352
459.0002, 1046.402
459.4823, 1043.937
459.9644, 1041.889
460.4465, 1043.334
460.9286, 1046.489
461.4108, 1047.890
461.8929, 1043.655
462.3750, 1039.396
462.8571, 1039.734
463.3392, 1043.909
463.8214, 1048.353
464.3035, 1052.660
464.7856, 1055.849
465.2677, 1057.170
465.7498, 1056.151
466.2319, 1054.318
466.7141, 1050.387
467.1962, 1046.387
467.6783, 1044.881
468.1604, 1050.552
468.6425, 1053.850
469.1246, 1051.508
469.6068, 1044.258
470.0889, 1041.274
470.5710, 1045.111
471.0531, 1049.708
471.5352, 1051.609
472.0173, 1049.827
472.4995, 1049.082
472.9816, 1049.807
473.4637, 1051.080
473.9458, 1051.005
474.4279, 1049.410
474.9100, 1049.452
475.3922, 1053.204
475.8743, 1058.867
476.3564, 1060.582
476.8385, 1058.386
477.3206, 1055.322
477.8027, 1053.296
478.2849, 1052.138
478.7670, 1051.286
479.2491, 1050.420
479.7312, 1050.893
480.2133, 1056.317
480.6954, 1063.772
481.1776, 1067.838
481.6597, 1062.701
482.1418, 1056.311
482.6239, 1053.804
483.1060, 1054.711
483.5881, 1055.433
484.0703, 1053.519
484.5524, 1051.693
485.0345, 1051.825
485.5166, 1055.356
485.9987, 1058.213
486.4808, 1060.106
486.9630, 1060.932
487.4451, 1060.534
487.9272, 1057.854
488.4093, 1055.435
488.8914, 1053.409
489.3735, 1051.902
489.8557, 1052.362
490.3378, 1055.828
490.8199, 1058.972
491.3020, 1059.150
491.7841, 1055.965
492.2662, 1055.678
492.7484, 1059.359
493.2305, 1063.635
493.7126, 1062.937
494.1947, 1057.985
494.6768, 1054.364
495.1589, 1054.239
495.6411, 1056.142
496.1232, 1057.964
496.6053, 1059.664
497.0874, 1060.870
497.5695, 1060.729
498.0516, 1060.272
498.5338, 1060.925
499.0159, 1063.056
499.4980, 1064.883
499.9801, 1065.330
500.4622, 1064.865
500.9443, 1064.051
501.4265, 1062.510
501.9086, 1061.257
502.3907, 1060.031
502.8728, 1059.200
503.3549, 1060.172
503.8370, 1066.491
504.3192, 1071.574
504.8013, 1072.743
505.2834, 1068.973
505.7655, 1065.842
506.2476, 1063.417
506.7297, 1061.567
507.2119, 1060.153
507.6940, 1059.174
508.1761, 1058.613
508.6582, 1058.372
509.1403, 1058.620
509.6224, 1060.150
510.1046, 1063.000
510.5867, 1065.403
511.0688, 1066.589
511.5509, 1066.635
512.0330, 1065.083
512.5151, 1061.875
512.9973, 1059.523
513.4794, 1061.605
513.9615, 1065.561
514.4436, 1066.856
514.9257, 1062.988
515.4078, 1059.731
515.8900, 1062.885
516.3721, 1069.551
516.8542, 1074.158
517.3363, 1072.982
517.8184, 1070.900
518.3005, 1069.711
518.7827, 1069.497
519.2648, 1069.821
519.7469, 1071.511
520.2290, 1073.033
520.7111, 1073.446
521.1932, 1071.684
521.6754, 1071.011
522.1575, 1071.655
522.6396, 1073.171
523.1217, 1075.362
523.6038, 1078.912
524.0859, 1080.329
524.5681, 1077.837
525.0502, 1072.974
525.5323, 1071.554
526.0144, 1073.757
526.4965, 1076.129
526.9786, 1075.930
527.4608, 1074.199
527.9429, 1074.592
528.4250, 1077.556
528.9071, 1079.905
529.3892, 1077.568
529.8713, 1072.863
530.3535, 1069.595
530.8356, 1069.084
531.3177, 1069.990
531.7998, 1071.994
532.2819, 1074.785
532.7640, 1077.518
533.2462, 1079.044
533.7283, 1081.267
534.2104, 1085.415
534.6925, 1091.735
535.1746, 1097.344
535.6567, 1105.131
536.1389, 1109.589
536.6210, 1106.577
537.1031, 1090.422
537.5852, 1079.676
538.0673, 1075.957
538.5494, 1076.534
539.0316, 1077.405
539.5137, 1078.726
539.9958, 1079.256
540.4779, 1078.211
540.9600, 1076.355
541.4421, 1075.902
541.9243, 1076.828
542.4064, 1078.639
542.8885, 1082.070
543.3706, 1085.861
543.8527, 1087.084
544.3348, 1085.256
544.8170, 1083.860
545.2991, 1086.598
545.7812, 1091.025
546.2633, 1094.112
546.7454, 1094.245
547.2275, 1093.780
547.7097, 1093.969
548.1918, 1094.271
548.6739, 1093.438
549.1560, 1088.686
549.6381, 1085.298
550.1202, 1085.770
550.6024, 1090.276
551.0845, 1092.512
551.5666, 1090.928
552.0487, 1089.163
552.5308, 1089.907
553.0129, 1093.878
553.4951, 1096.207
553.9772, 1096.270
554.4593, 1095.575
554.9414, 1096.647
555.4235, 1099.258
555.9056, 1100.593
556.3878, 1099.188
556.8699, 1096.799
557.3520, 1096.798
557.8341, 1098.601
558.3162, 1099.668
558.7983, 1097.132
559.2805, 1094.021
559.7626, 1093.492
560.2447, 1095.816
560.7268, 1098.296
561.2089, 1100.403
561.6910, 1101.727
562.1732, 1101.818
562.6553, 1098.928
563.1374, 1097.418
563.6195, 1099.245
564.1016, 1102.314
564.5837, 1103.350
565.0659, 1100.500
565.5480, 1099.151
566.0301, 1101.104
566.5122, 1105.462
566.9943, 1107.409
567.4764, 1106.463
567.9586, 1105.365
568.4407, 1105.864
568.9228, 1107.651
569.4049, 1109.166
569.8870, 1110.395
570.3691, 1111.020
570.8513, 1110.370
571.3334, 1108.928
571.8155, 1107.521
572.2976, 1105.997
572.7797, 1105.301
573.2618, 1107.434
573.7440, 1110.696
574.2261, 1112.077
574.7082, 1108.001
575.1903, 1104.226
575.6724, 1103.389
576.1545, 1105.182
576.6367, 1106.483
577.1188, 1106.193
577.6009, 1106.188
578.0830, 1107.172
578.5651, 1109.207
579.0472, 1112.186
579.5294, 1116.837
580.0115, 1121.218
580.4936, 1123.873
580.9757, 1124.841
581.4578, 1122.615
581.9399, 1115.828
582.4221, 1108.506
582.9042, 1107.551
583.3863, 1111.722
583.8684, 1115.898
584.3505, 1117.863
584.8326, 1118.768
585.3148, 1119.389
585.7969, 1119.875
586.2790, 1120.926
586.7611, 1124.006
587.2432, 1126.938
587.7253, 1128.274
588.2075, 1127.755
588.6896, 1126.430
