##NAMES=Wurtzite
##RRUFFID=R060181
##IDEAL CHEMISTRY=Zn^2+^S^2+^
##LOCALITY=Silver Islet mine, Thunder Bay, Ontario, Canada
##OWNER=RRUFF
##SOURCE=Lloyd Twaites
##DESCRIPTION=Dark-brown hexagonal prisms, polytype 2H
##STATUS=The identification of this mineral is confirmed by single-crystal X-ray diffraction and chemical analysis.
##URL=rruff.info/R060181
##MEASURED CHEMISTRY=(Zn_0.88_Fe_0.12_)S_1.00_
92.02539, 197.8060
92.50751, 201.5310
92.98962, 204.7257
93.47174, 204.0388
93.95386, 201.6333
94.43597, 197.8832
94.91809, 193.1513
95.40021, 187.7712
95.88232, 181.9478
96.36444, 174.8285
96.84656, 168.4922
97.32867, 163.9369
97.81078, 160.5398
98.29290, 157.2698
98.77502, 153.2231
99.25713, 148.0996
99.73925, 143.0150
100.2214, 137.8291
100.7035, 132.7923
101.1856, 127.9655
101.6677, 123.3453
102.1498, 118.9146
102.6320, 114.5482
103.1141, 109.6396
103.5962, 106.6219
104.0783, 106.9967
104.5604, 108.6042
105.0425, 108.9618
105.5247, 107.2046
106.0068, 104.4793
106.4889, 102.8643
106.9710, 102.5689
107.4531, 101.8869
107.9352, 99.75725
108.4173, 96.43789
108.8995, 93.32806
109.3816, 90.88494
109.8637, 88.92463
110.3458, 87.27319
110.8279, 85.95698
111.3100, 84.75328
111.7922, 83.26867
112.2743, 81.26016
112.7564, 79.80317
113.2385, 79.43330
113.7206, 79.58243
114.2027, 79.85384
114.6849, 80.09460
115.1670, 80.26595
115.6491, 80.21906
116.1312, 79.69168
116.6133, 79.23249
117.0954, 78.92193
117.5776, 78.73716
118.0597, 78.63297
118.5418, 78.57865
119.0239, 78.57366
119.5060, 78.63710
119.9881, 78.90952
120.4703, 79.10693
120.9524, 79.00922
121.4345, 78.67775
121.9166, 78.43723
122.3987, 78.67789
122.8808, 79.50517
123.3630, 79.72039
123.8451, 78.84057
124.3272, 77.59473
124.8093, 76.71432
125.2914, 76.34303
125.7735, 76.12849
126.2557, 75.60587
126.7378, 74.85061
127.2199, 74.27173
127.7020, 74.07423
128.1841, 74.18353
128.6662, 74.40688
129.1483, 74.89486
129.6305, 75.25120
130.1126, 75.19594
130.5947, 74.74795
131.0768, 74.11436
131.5589, 73.39085
132.0410, 72.54507
132.5232, 71.87955
133.0053, 71.40452
133.4874, 71.14461
133.9695, 71.20019
134.4516, 71.56687
134.9337, 72.07827
135.4159, 72.50392
135.8980, 72.88646
136.3801, 73.07491
136.8622, 72.97852
137.3443, 72.76607
137.8264, 72.54318
138.3086, 72.35543
138.7907, 72.22593
139.2728, 72.22456
139.7549, 72.69496
140.2370, 72.89646
140.7191, 72.56222
141.2013, 71.95883
141.6834, 71.49376
142.1655, 71.39840
142.6476, 71.57301
143.1297, 71.57100
143.6118, 71.26643
144.0939, 70.95924
144.5761, 70.76319
145.0582, 70.66651
145.5403, 70.62050
146.0224, 70.63354
146.5045, 70.66405
146.9866, 70.60470
147.4688, 70.43840
147.9509, 70.19147
148.4330, 69.78795
148.9151, 69.16760
149.3972, 68.76798
149.8793, 69.22501
150.3615, 69.99522
150.8436, 70.36813
151.3257, 69.84999
151.8078, 68.89493
152.2899, 68.59573
152.7720, 69.32742
153.2542, 70.08002
153.7363, 70.52480
154.2184, 70.70792
154.7005, 70.67847
155.1826, 70.40494
155.6647, 69.92442
156.1469, 69.63166
156.6290, 69.73898
157.1111, 69.84399
157.5932, 69.79135
158.0753, 69.64768
158.5574, 69.57724
159.0396, 69.73977
159.5217, 70.17889
160.0038, 70.44434
160.4859, 70.50491
160.9680, 70.45081
161.4501, 70.15401
161.9323, 69.71263
162.4144, 69.46602
162.8965, 69.81847
163.3786, 71.01748
163.8607, 71.71531
164.3428, 71.67201
164.8250, 71.34523
165.3071, 70.96233
165.7892, 70.57937
166.2713, 70.30660
166.7534, 70.32320
167.2355, 70.68024
167.7177, 70.95708
168.1998, 70.98943
168.6819, 70.96114
169.1640, 71.19463
169.6461, 71.83537
170.1282, 72.43993
170.6104, 72.26878
171.0925, 71.42119
171.5746, 70.81093
172.0567, 71.04600
172.5388, 71.82183
173.0209, 72.19951
173.5031, 71.79080
173.9852, 71.24312
174.4673, 71.20698
174.9494, 71.62771
175.4315, 71.98229
175.9136, 71.79395
176.3958, 71.08655
176.8779, 70.59809
177.3600, 70.69216
177.8421, 70.81685
178.3242, 70.60282
178.8063, 70.06037
179.2885, 69.49782
179.7706, 69.29442
180.2527, 69.58314
180.7348, 69.64533
181.2169, 69.24234
181.6990, 68.74746
182.1812, 68.32829
182.6633, 68.02031
183.1454, 67.78392
183.6275, 67.57456
184.1096, 67.43419
184.5917, 67.22685
185.0738, 66.90584
185.5560, 66.56168
186.0381, 66.23515
186.5202, 65.94511
187.0023, 65.71576
187.4844, 65.59911
187.9665, 65.76866
188.4487, 65.76649
188.9308, 65.42949
189.4129, 65.00919
189.8950, 64.75045
190.3771, 64.73390
190.8592, 64.84373
191.3414, 64.84991
191.8235, 64.61941
192.3056, 64.53915
192.7877, 64.87828
193.2698, 65.32764
193.7519, 65.42641
194.2341, 64.97405
194.7162, 64.24929
195.1983, 63.81319
195.6804, 63.67772
196.1625, 63.64376
196.6446, 63.74908
197.1268, 63.91346
197.6089, 63.92110
198.0910, 63.62682
198.5731, 63.26278
199.0552, 63.22057
199.5373, 63.54662
200.0195, 63.87560
200.5016, 64.03281
200.9837, 64.03274
201.4658, 63.92870
201.9479, 63.63616
202.4300, 63.34727
202.9122, 63.24890
203.3943, 63.34969
203.8764, 63.59367
204.3585, 64.00179
204.8406, 64.57349
205.3227, 65.07006
205.8048, 65.43052
206.2870, 65.68626
206.7691, 65.79140
207.2512, 65.74673
207.7333, 65.75264
208.2154, 66.15184
208.6975, 67.08189
209.1797, 67.58187
209.6618, 66.87498
210.1439, 66.10070
210.6260, 65.93727
211.1081, 66.47885
211.5902, 67.28765
212.0724, 67.78948
212.5545, 67.84598
213.0366, 68.00446
213.5187, 68.56748
214.0008, 69.05203
214.4829, 69.08523
214.9651, 68.62813
215.4472, 67.99345
215.9293, 67.65044
216.4114, 67.79743
216.8935, 67.83468
217.3756, 67.78879
217.8578, 67.63716
218.3399, 67.27010
218.8220, 66.70606
219.3041, 66.16209
219.7862, 66.01474
220.2683, 66.74333
220.7505, 66.90822
221.2326, 66.14426
221.7147, 65.11185
222.1968, 64.23714
222.6789, 63.64728
223.1610, 63.32888
223.6432, 63.30164
224.1253, 63.92090
224.6074, 64.05421
225.0895, 63.39641
225.5716, 62.43113
226.0537, 61.50434
226.5358, 60.70897
227.0180, 60.11100
227.5001, 59.85386
227.9822, 60.10406
228.4643, 60.16883
228.9464, 59.82816
229.4285, 59.36523
229.9107, 59.09386
230.3928, 59.08699
230.8749, 59.18754
231.3570, 59.22988
231.8391, 59.22348
232.3212, 59.08892
232.8034, 58.67711
233.2855, 58.18230
233.7676, 57.87457
234.2497, 57.82241
234.7318, 57.83836
235.2139, 57.73915
235.6961, 57.53714
236.1782, 57.23256
236.6603, 56.61235
237.1424, 55.95316
237.6245, 55.77008
238.1066, 56.25233
238.5888, 56.78131
239.0709, 56.70718
239.5530, 56.19243
240.0351, 55.68779
240.5172, 55.33486
240.9993, 55.09156
241.4815, 54.86419
241.9636, 54.61335
242.4457, 54.46949
242.9278, 54.61229
243.4099, 54.92867
243.8920, 55.18975
244.3742, 55.28838
244.8563, 55.26781
245.3384, 55.22689
245.8205, 55.17518
246.3026, 55.07859
246.7847, 54.90693
247.2668, 54.68496
247.7490, 54.43899
248.2311, 54.12870
248.7132, 53.82824
249.1953, 53.76782
249.6774, 54.13627
250.1595, 54.35398
250.6417, 54.07093
251.1238, 53.54350
251.6059, 53.11521
252.0880, 52.99141
252.5701, 52.99871
253.0522, 52.63795
253.5344, 51.60416
254.0165, 50.81451
254.4986, 50.54130
254.9807, 50.61400
255.4628, 50.91786
255.9449, 51.44275
256.4271, 52.02797
256.9092, 52.26664
257.3913, 51.92369
257.8734, 51.67129
258.3555, 51.68208
258.8376, 51.81232
259.3198, 51.96261
259.8019, 52.09567
260.2840, 52.16487
260.7661, 52.04865
261.2482, 51.59475
261.7303, 51.24423
262.2125, 51.06408
262.6946, 50.97622
263.1767, 50.92431
263.6588, 50.88799
264.1409, 50.87172
264.6230, 50.89531
265.1052, 51.02877
265.5873, 51.05689
266.0694, 50.76688
266.5515, 50.51608
267.0336, 50.62996
267.5157, 51.15240
267.9979, 51.81916
268.4800, 52.23338
268.9621, 52.25552
269.4442, 52.31162
269.9263, 52.45380
270.4084, 52.58577
270.8906, 52.61147
271.3727, 52.53708
271.8548, 52.47044
272.3369, 52.54284
272.8190, 52.78201
273.3011, 53.08075
273.7833, 53.54050
274.2654, 53.96501
274.7475, 54.18824
275.2296, 54.24171
275.7117, 54.30404
276.1938, 54.54781
276.6760, 54.98775
277.1581, 55.54387
277.6402, 56.39144
278.1223, 57.16915
278.6044, 57.61818
279.0865, 57.82475
279.5686, 58.09886
280.0508, 58.70406
280.5329, 59.64756
281.0150, 60.49877
281.4971, 61.25264
281.9792, 61.94314
282.4613, 62.51647
282.9435, 63.03202
283.4256, 63.60433
283.9077, 64.29671
284.3898, 65.11829
284.8719, 66.12286
285.3540, 67.53209
285.8362, 68.85041
286.3183, 69.90610
286.8004, 70.78492
287.2825, 71.64724
287.7646, 72.57763
288.2467, 73.54422
288.7289, 74.44859
289.2110, 75.17236
289.6931, 75.98072
290.1752, 77.01937
290.6573, 78.13634
291.1394, 79.05505
291.6216, 79.65548
292.1037, 80.15807
292.5858, 81.06332
293.0679, 82.72572
293.5500, 84.09627
294.0321, 85.01877
294.5143, 85.62351
294.9964, 85.98998
295.4785, 86.14368
295.9606, 86.22046
296.4427, 86.43024
296.9248, 86.87810
297.4070, 87.11765
297.8891, 87.12527
298.3712, 86.92336
298.8533, 86.45652
299.3354, 85.73933
299.8175, 84.97806
300.2997, 84.40826
300.7818, 84.08078
301.2639, 83.52044
301.7460, 82.53307
302.2281, 81.47499
302.7102, 80.58437
303.1924, 79.86350
303.6745, 79.15603
304.1566, 78.32664
304.6387, 77.38916
305.1208, 76.56833
305.6029, 75.81219
306.0851, 75.20158
306.5672, 74.89211
307.0493, 74.78609
307.5314, 74.55561
308.0135, 73.97534
308.4956, 73.16189
308.9778, 72.64214
309.4599, 72.61423
309.9420, 72.57404
310.4241, 72.36266
310.9062, 72.02761
311.3883, 71.66431
311.8705, 71.31597
312.3526, 70.95058
312.8347, 70.49198
313.3168, 69.91485
313.7989, 69.32151
314.2810, 68.63903
314.7632, 67.98399
315.2453, 67.54478
315.7274, 67.38226
316.2095, 67.30507
316.6916, 66.97752
317.1737, 66.23048
317.6559, 66.04089
318.1380, 66.93924
318.6201, 68.16002
319.1022, 69.03275
319.5843, 69.46824
320.0664, 69.66497
320.5485, 69.72377
321.0306, 69.63358
321.5128, 69.92590
321.9949, 70.85441
322.4770, 71.93852
322.9591, 72.96095
323.4412, 73.88439
323.9233, 74.65807
324.4055, 75.21935
324.8876, 75.59939
325.3697, 76.01234
325.8518, 76.50729
326.3339, 76.97815
326.8160, 77.45911
327.2982, 77.88693
327.7803, 78.09533
328.2624, 77.97469
328.7445, 77.66862
329.2266, 77.57859
329.7087, 77.89438
330.1909, 78.05514
330.6730, 77.82211
331.1551, 77.42428
331.6372, 77.15872
332.1193, 77.11241
332.6014, 77.18521
333.0836, 77.26192
333.5657, 77.40315
334.0478, 77.32584
334.5299, 76.89574
335.0120, 76.32644
335.4941, 75.75671
335.9763, 75.21838
336.4584, 74.70149
336.9405, 74.17329
337.4226, 73.62071
337.9047, 73.35526
338.3868, 73.48988
338.8690, 73.76418
339.3511, 74.02853
339.8332, 74.31451
340.3153, 74.76972
340.7974, 75.51949
341.2795, 76.49193
341.7617, 77.20645
342.2438, 77.30681
342.7259, 77.60638
343.2080, 78.41215
343.6901, 79.50118
344.1722, 80.49936
344.6544, 81.24373
345.1365, 81.92953
345.6186, 82.97110
346.1007, 84.89839
346.5828, 86.36869
347.0649, 87.21371
347.5471, 87.68283
348.0292, 88.17478
348.5113, 88.68362
348.9934, 88.61975
349.4755, 87.20660
349.9576, 84.06076
350.4398, 81.02148
350.9219, 78.15311
351.4040, 75.31409
351.8861, 72.35143
352.3682, 69.35961
352.8503, 66.57378
353.3325, 64.17451
353.8146, 62.16303
354.2967, 60.52641
354.7788, 59.42470
355.2609, 58.51433
355.7430, 57.84887
356.2252, 57.30281
356.7073, 56.66012
357.1894, 55.81579
357.6715, 54.94170
358.1536, 54.48552
358.6357, 54.91751
359.1179, 55.05957
359.5999, 54.66814
360.0821, 54.12257
360.5642, 53.69027
361.0463, 53.44215
361.5284, 53.34076
362.0105, 53.35705
362.4926, 53.53449
362.9748, 53.66299
363.4569, 53.69274
363.9390, 53.72368
364.4211, 53.83297
364.9032, 53.98518
365.3853, 54.07380
365.8675, 54.00481
366.3496, 53.80041
366.8317, 53.67868
367.3138, 53.75587
367.7959, 53.76738
368.2780, 53.60501
368.7602, 53.36575
369.2423, 53.17294
369.7244, 53.08171
370.2065, 53.04236
370.6886, 52.94990
371.1707, 52.76631
371.6529, 52.62680
372.1350, 52.59789
372.6171, 52.58167
373.0992, 52.47298
373.5813, 52.27752
374.0634, 52.13771
374.5456, 52.28819
375.0277, 52.75504
375.5098, 52.92934
375.9919, 52.56720
376.4740, 52.14594
376.9561, 51.83725
377.4383, 51.64198
377.9204, 51.54649
378.4025, 51.55899
378.8846, 51.65586
379.3667, 51.76661
379.8488, 51.87520
380.3310, 52.04128
380.8131, 52.46684
381.2952, 52.88336
381.7773, 52.95516
382.2594, 52.54389
382.7415, 52.02565
383.2237, 51.84021
383.7058, 51.98462
384.1879, 52.05880
384.6700, 51.87879
385.1521, 51.69325
385.6342, 51.74037
386.1164, 52.00702
386.5985, 52.29022
387.0806, 52.51767
387.5627, 52.67574
388.0448, 52.71608
388.5269, 52.61176
389.0091, 52.46641
389.4912, 52.32789
389.9733, 52.20514
390.4554, 52.12696
390.9375, 52.16699
391.4196, 52.19171
391.9018, 52.02193
392.3839, 51.68588
392.8660, 51.44855
393.3481, 51.42923
393.8302, 51.57844
394.3123, 51.82828
394.7945, 52.26524
395.2766, 52.52775
395.7587, 52.36809
396.2408, 51.96741
396.7229, 51.65666
397.2050, 51.51825
397.6872, 51.35033
398.1693, 50.85543
398.6514, 49.99003
399.1335, 49.45766
399.6156, 49.53265
400.0977, 49.74834
400.5798, 49.78377
401.0620, 49.65413
401.5441, 49.52882
402.0262, 49.52217
402.5083, 49.59544
402.9904, 49.54919
403.4725, 49.26946
403.9547, 49.03046
404.4368, 48.90385
404.9189, 48.83820
405.4010, 48.73609
405.8831, 48.57433
406.3652, 48.47914
406.8474, 48.67388
407.3295, 49.38615
407.8116, 49.70261
408.2937, 49.32954
408.7758, 48.87095
409.2579, 48.62261
409.7401, 48.59266
410.2222, 48.68547
410.7043, 48.85066
411.1864, 49.06692
411.6685, 49.15059
412.1506, 48.96008
412.6328, 48.80465
413.1149, 48.72735
413.5970, 48.70866
414.0791, 48.71766
414.5612, 48.74508
415.0433, 48.81787
415.5255, 49.05085
416.0076, 49.60615
416.4897, 49.75772
416.9718, 48.94521
417.4539, 48.15655
417.9360, 47.87055
418.4182, 48.03444
418.9003, 48.33929
419.3824, 48.62947
419.8645, 48.87391
420.3466, 48.94090
420.8287, 48.82576
421.3109, 48.53143
421.7930, 47.73617
422.2751, 46.90819
422.7572, 46.68046
423.2393, 47.32133
423.7214, 48.12879
424.2036, 48.32665
424.6857, 47.93603
425.1678, 47.50605
425.6499, 47.04796
426.1320, 46.73210
426.6141, 46.82865
427.0963, 47.26844
427.5784, 47.49133
428.0605, 47.09578
428.5426, 46.40855
429.0247, 45.90613
429.5068, 45.61202
429.9890, 45.47050
430.4711, 45.56263
430.9532, 45.75304
431.4353, 45.61112
431.9174, 44.78145
432.3995, 44.14523
432.8817, 44.33427
433.3638, 45.01725
433.8459, 45.51595
434.3280, 45.62241
434.8101, 45.47205
435.2922, 45.22737
435.7744, 44.86849
436.2565, 44.47894
436.7386, 43.86908
437.2207, 43.38200
437.7028, 43.35255
438.1849, 43.69973
438.6671, 44.07521
439.1492, 44.26099
439.6313, 44.26377
440.1134, 44.11421
440.5955, 43.46994
441.0776, 43.09875
441.5598, 43.31811
442.0418, 43.73275
442.5240, 43.93810
443.0061, 43.83093
443.4882, 43.58236
443.9703, 43.40583
444.4524, 43.31351
444.9345, 43.23574
445.4167, 43.10909
445.8988, 43.06144
446.3809, 43.29322
446.8630, 43.62347
447.3451, 43.70026
447.8272, 43.29545
448.3094, 42.58114
448.7915, 41.96058
449.2736, 41.41151
449.7557, 41.02277
450.2378, 40.95441
450.7199, 40.96103
451.2021, 40.88408
451.6842, 40.70263
452.1663, 40.46725
452.6484, 40.18610
453.1305, 39.87703
453.6126, 39.62686
454.0948, 39.44693
454.5769, 39.31482
455.0590, 39.21546
455.5411, 39.15388
456.0232, 39.16463
456.5053, 39.36550
456.9875, 39.48886
457.4696, 39.19566
457.9517, 38.59235
458.4338, 38.17799
458.9159, 38.15173
459.3980, 38.31598
459.8802, 38.39458
460.3623, 38.38786
460.8444, 38.34690
461.3265, 38.18262
461.8086, 38.05451
462.2907, 38.16468
462.7729, 38.48312
463.2550, 38.76927
463.7371, 38.86010
464.2192, 38.78348
464.7013, 38.70074
465.1834, 38.43674
465.6656, 38.38784
466.1477, 38.88802
466.6298, 39.49232
467.1119, 39.68632
467.5940, 39.36969
468.0761, 38.84058
468.5583, 38.42920
469.0404, 38.12420
469.5225, 37.99591
470.0046, 38.26751
470.4867, 38.48646
470.9688, 38.48938
471.4510, 38.35239
471.9331, 38.17065
472.4152, 37.97134
472.8973, 37.86442
473.3794, 38.16493
473.8615, 39.05136
474.3437, 39.58015
474.8258, 39.32019
475.3079, 38.84215
475.7900, 38.41117
476.2721, 38.06386
476.7542, 37.83025
477.2364, 37.78314
477.7185, 37.85421
478.2006, 37.84847
478.6827, 37.72838
479.1648, 37.76726
479.6469, 38.26242
480.1291, 38.93518
480.6112, 39.29320
481.0933, 39.27219
481.5754, 39.06030
482.0575, 38.58389
482.5396, 38.01881
483.0217, 37.66459
483.5038, 37.57800
483.9860, 37.75919
484.4681, 38.29518
484.9502, 39.19988
485.4323, 39.79567
485.9144, 39.96918
486.3965, 39.97591
486.8787, 39.87086
487.3608, 39.68442
487.8429, 39.44240
488.3250, 39.15471
488.8071, 38.86000
489.2892, 38.61631
489.7714, 38.35992
490.2535, 38.32205
490.7356, 38.76590
491.2177, 39.14656
491.6998, 39.11255
492.1819, 38.78120
492.6641, 38.49051
493.1462, 38.46241
493.6283, 38.60040
494.1104, 38.59482
494.5925, 38.33789
495.0746, 38.23101
495.5568, 38.66816
496.0389, 39.07869
496.5210, 38.95097
497.0031, 38.29605
497.4852, 37.69298
497.9673, 37.57258
498.4495, 37.81311
498.9316, 38.13256
499.4137, 38.56036
499.8958, 38.88262
500.3779, 38.92780
500.8600, 38.79743
501.3422, 38.70694
501.8243, 38.67241
502.3064, 38.66647
502.7885, 38.70568
503.2706, 38.75661
503.7527, 38.73259
504.2349, 38.61327
504.7170, 38.52098
505.1991, 38.57609
505.6812, 38.78803
506.1633, 39.03739
506.6454, 39.43771
507.1276, 39.74646
507.6097, 39.89617
508.0918, 39.89108
508.5739, 39.68745
509.0560, 39.27950
509.5381, 38.83202
510.0203, 38.62182
510.5024, 38.72992
510.9845, 38.79738
511.4666, 38.74036
511.9487, 38.72581
512.4308, 38.86443
512.9130, 39.08897
513.3951, 39.27468
513.8772, 39.36816
514.3593, 39.36256
514.8414, 39.15627
515.3235, 38.68291
515.8057, 38.53484
516.2878, 39.13129
516.7699, 39.81467
517.2520, 40.02050
517.7341, 39.79377
518.2162, 39.50293
518.6984, 39.25210
519.1805, 39.04891
519.6626, 38.89023
520.1447, 38.77939
520.6268, 38.76398
521.1089, 38.88354
521.5911, 39.09278
522.0732, 39.30647
522.5553, 39.57208
523.0374, 39.71653
523.5195, 39.69014
524.0016, 39.54539
524.4838, 39.22929
524.9659, 38.80807
525.4480, 38.53126
525.9301, 38.59678
526.4122, 38.93245
526.8943, 39.17739
527.3765, 39.43107
527.8586, 39.42511
528.3407, 38.76910
528.8228, 38.11438
529.3049, 38.09631
529.7870, 38.70707
530.2692, 39.36078
530.7513, 39.49876
531.2334, 39.23072
531.7155, 39.28970
532.1976, 39.95386
532.6797, 40.29263
533.1619, 39.40265
533.6440, 38.23677
534.1261, 37.85230
534.6082, 38.49462
535.0903, 39.18488
535.5724, 39.26957
536.0546, 38.95300
536.5367, 38.58940
537.0188, 38.20290
537.5009, 38.05180
537.9830, 38.47468
538.4651, 39.29571
538.9473, 39.53997
539.4294, 38.73182
539.9115, 38.00286
540.3936, 37.64605
540.8757, 37.54854
541.3578, 37.62996
541.8400, 37.84641
542.3221, 38.08729
542.8042, 38.24250
543.2863, 38.31134
543.7684, 38.33705
544.2505, 38.18224
544.7326, 38.15500
545.2147, 38.38709
545.6968, 38.73847
546.1790, 39.08080
546.6611, 39.37453
547.1432, 39.60283
547.6253, 39.75396
548.1074, 39.82614
548.5895, 39.78170
549.0717, 39.59074
549.5538, 39.34554
550.0359, 38.98722
550.5180, 38.63930
551.0001, 38.51339
551.4822, 38.70131
551.9644, 38.97377
552.4465, 39.26117
552.9286, 39.51731
553.4107, 39.63498
553.8928, 39.59176
554.3749, 39.46951
554.8571, 39.32316
555.3392, 39.15478
555.8213, 39.05354
556.3034, 39.07838
556.7855, 39.08780
557.2676, 38.95946
557.7498, 38.83682
558.2319, 38.95129
558.7140, 39.32518
559.1961, 39.70131
559.6782, 39.78683
560.1603, 39.57817
560.6425, 39.38106
561.1246, 39.10754
561.6067, 38.98778
562.0888, 39.17734
562.5709, 39.49536
563.0530, 39.77138
563.5352, 39.96759
564.0173, 40.03450
564.4994, 39.89427
564.9815, 39.58934
565.4636, 39.19917
565.9457, 38.68110
566.4279, 38.34166
566.9100, 38.43876
567.3921, 38.87934
567.8742, 39.28188
568.3563, 39.67178
568.8384, 39.98246
569.3206, 40.19741
569.8027, 40.31749
570.2848, 40.32314
570.7669, 40.22327
571.2490, 40.06124
571.7311, 39.84479
572.2133, 39.60255
572.6954, 39.67122
573.1775, 40.52121
573.6596, 41.03084
574.1417, 40.84806
574.6238, 40.42504
575.1060, 40.08413
575.5881, 39.90102
576.0702, 39.87595
576.5523, 40.05851
577.0344, 40.39492
577.5165, 40.71709
577.9987, 41.05482
578.4808, 41.24154
578.9629, 41.13013
579.4450, 40.87209
579.9271, 40.65919
580.4092, 40.48483
580.8914, 40.42456
581.3735, 40.57387
581.8556, 40.80981
582.3377, 41.04226
582.8198, 41.24347
583.3019, 41.31871
583.7841, 41.19047
584.2662, 40.95606
584.7483, 40.89042
585.2304, 41.22029
585.7125, 41.34182
586.1946, 40.98151
586.6768, 40.66741
587.1589, 40.81680
587.6410, 41.29582
588.1231, 41.66475
588.6052, 41.63835
