##NAMES=Wyartite II
##RRUFFID=R090061
##IDEAL CHEMISTRY=CaU^5+^(U^6+^O_2_)_2_O_4_(OH)&#183;3H_2_O
##LOCALITY=Shinkolobwe mine, Katanga, Congo
##OWNER=RRUFF
##SOURCE=William W. Pinch
##DESCRIPTION=Elongated and striated platy translucent black crystals. This is the material known as the dehydrated phase of wyartite, sometimes known as wyartite II (Hawthorne et al, 2006)
##STATUS=The identification of this mineral has been confirmed by single-crystal X-ray diffraction.
##URL=rruff.info/R090061
91.82715, 417.9366
92.30927, 416.8995
92.79138, 415.4398
93.27350, 407.5643
93.75562, 405.4114
94.23773, 422.8802
94.71985, 456.1392
95.20197, 476.1619
95.68408, 466.0242
96.16620, 445.1514
96.64832, 430.1111
97.13043, 422.7654
97.61255, 421.7769
98.09467, 426.1498
98.57678, 436.9991
99.05890, 448.9003
99.54102, 466.2744
100.0231, 483.3305
100.5052, 493.9961
100.9874, 495.0769
101.4695, 488.1236
101.9516, 480.8747
102.4337, 466.4713
102.9158, 458.7584
103.3979, 465.6687
103.8801, 481.0103
104.3622, 492.5821
104.8443, 489.7423
105.3264, 470.1898
105.8085, 463.7061
106.2906, 475.3586
106.7728, 492.6212
107.2549, 511.3330
107.7370, 530.2070
108.2191, 545.7472
108.7012, 552.0109
109.1833, 548.1577
109.6655, 548.6711
110.1476, 558.9712
110.6297, 573.7952
111.1118, 585.1993
111.5939, 590.8074
112.0760, 594.0314
112.5582, 597.4160
113.0403, 600.9622
113.5224, 607.1783
114.0045, 618.1679
114.4866, 633.7991
114.9688, 650.6469
115.4509, 671.6306
115.9330, 690.8365
116.4151, 703.8531
116.8972, 710.1183
117.3793, 713.9823
117.8615, 722.5367
118.3436, 741.0460
118.8257, 750.6597
119.3078, 744.3010
119.7899, 732.6282
120.2720, 724.2131
120.7542, 722.4408
121.2363, 724.1133
121.7184, 720.0104
122.2005, 699.3586
122.6826, 684.4005
123.1647, 680.8801
123.6468, 683.2499
124.1290, 682.8724
124.6111, 674.1857
125.0932, 658.9674
125.5753, 652.4342
126.0574, 658.3480
126.5395, 666.7106
127.0217, 675.1226
127.5038, 683.0748
127.9859, 688.6445
128.4680, 688.9312
128.9501, 685.4276
129.4323, 686.5995
129.9144, 695.9464
130.3965, 708.4445
130.8786, 718.3726
131.3607, 724.7379
131.8428, 732.3856
132.3250, 745.1338
132.8071, 761.7182
133.2892, 780.5321
133.7713, 802.5585
134.2534, 826.5130
134.7355, 847.8129
135.2177, 863.2539
135.6998, 880.4904
136.1819, 904.6611
136.6640, 933.6321
137.1461, 961.9147
137.6282, 985.6871
138.1104, 1004.805
138.5925, 1020.890
139.0746, 1031.918
139.5567, 1041.464
140.0388, 1052.118
140.5209, 1063.132
141.0031, 1071.392
141.4852, 1073.275
141.9673, 1067.941
142.4494, 1057.025
142.9315, 1032.928
143.4136, 1009.501
143.8958, 996.9079
144.3779, 997.3008
144.8600, 1003.962
145.3421, 1006.128
145.8242, 1000.093
146.3063, 996.3109
146.7885, 994.2098
147.2706, 994.8534
147.7527, 1000.505
148.2348, 1012.585
148.7169, 1027.670
149.1990, 1038.241
149.6812, 1042.697
150.1633, 1049.256
150.6454, 1058.824
151.1275, 1072.449
151.6096, 1094.741
152.0917, 1132.779
152.5739, 1175.319
153.0560, 1206.385
153.5381, 1224.803
154.0202, 1235.060
154.5023, 1241.619
154.9844, 1244.792
155.4665, 1238.066
155.9487, 1220.764
156.4308, 1190.274
156.9129, 1138.096
157.3950, 1058.712
157.8771, 973.0536
158.3592, 913.3795
158.8414, 889.8992
159.3235, 868.2606
159.8056, 838.1917
160.2877, 806.6630
160.7698, 778.8138
161.2519, 756.8163
161.7341, 740.8613
162.2162, 732.1016
162.6983, 737.1169
163.1804, 741.0433
163.6625, 741.6907
164.1446, 740.1061
164.6268, 737.7581
165.1089, 735.4928
165.5910, 733.0743
166.0731, 728.8130
166.5552, 725.0667
167.0373, 716.9764
167.5195, 702.0399
168.0016, 681.9596
168.4837, 659.9816
168.9658, 638.3239
169.4479, 616.6069
169.9300, 592.1490
170.4122, 559.9042
170.8943, 530.2467
171.3764, 508.5137
171.8585, 493.9080
172.3406, 481.9905
172.8227, 470.2206
173.3049, 458.6323
173.7870, 446.9918
174.2691, 433.1430
174.7512, 420.6373
175.2333, 412.7487
175.7154, 409.6420
176.1976, 408.6082
176.6797, 409.7236
177.1618, 411.4207
177.6439, 409.7001
178.1260, 399.1872
178.6081, 386.4409
179.0903, 381.8286
179.5724, 387.5093
180.0545, 395.1743
180.5366, 402.0576
181.0187, 407.1819
181.5008, 408.0927
181.9830, 400.8380
182.4651, 388.9149
182.9472, 384.1631
183.4293, 393.0642
183.9114, 399.0917
184.3935, 391.5899
184.8757, 377.0196
185.3578, 366.8333
185.8399, 370.3621
186.3220, 385.7903
186.8041, 393.3300
187.2862, 383.7675
187.7684, 375.5302
188.2505, 374.0675
188.7326, 378.0142
189.2147, 384.1421
189.6968, 390.3428
190.1789, 396.7285
190.6611, 400.5794
191.1432, 399.2466
191.6253, 397.9744
192.1074, 399.0665
192.5895, 401.7788
193.0716, 403.8134
193.5538, 403.0648
194.0359, 399.1400
194.5180, 395.5559
195.0001, 392.5620
195.4822, 389.5922
195.9643, 385.5466
196.4465, 380.9480
196.9286, 377.9272
197.4107, 378.8474
197.8928, 384.4660
198.3749, 387.7987
198.8570, 387.5695
199.3392, 386.2828
199.8213, 384.3673
200.3034, 382.2380
200.7855, 382.5679
201.2676, 389.3326
201.7497, 402.8268
202.2319, 410.2370
202.7140, 406.5182
203.1961, 399.1771
203.6782, 395.7988
204.1603, 397.3554
204.6424, 398.3993
205.1246, 391.9347
205.6067, 380.0142
206.0888, 372.6186
206.5709, 374.8229
207.0530, 381.4317
207.5351, 385.2463
208.0173, 385.2145
208.4994, 384.6700
208.9815, 386.5846
209.4636, 389.9778
209.9457, 392.8772
210.4278, 393.0297
210.9100, 392.3839
211.3921, 397.0742
211.8742, 411.9994
212.3563, 421.5633
212.8384, 409.6279
213.3205, 386.7011
213.8027, 372.4533
214.2848, 382.2215
214.7669, 408.1703
215.2490, 421.0857
215.7311, 413.0838
216.2132, 403.5889
216.6954, 400.5245
217.1775, 401.9498
217.6596, 404.7616
218.1417, 408.0886
218.6238, 411.2465
219.1059, 409.5941
219.5881, 396.8650
220.0702, 387.0411
220.5523, 384.9788
221.0344, 388.3445
221.5165, 393.5944
221.9986, 398.9438
222.4808, 404.0792
222.9629, 405.9766
223.4450, 401.0519
223.9271, 396.3867
224.4092, 393.3030
224.8913, 391.4962
225.3735, 389.8775
225.8556, 387.4262
226.3377, 384.5810
226.8198, 386.5287
227.3019, 401.3283
227.7840, 412.5613
228.2662, 415.4230
228.7483, 412.3053
229.2304, 407.7481
229.7125, 404.7014
230.1946, 402.8164
230.6767, 398.2764
231.1589, 388.3127
231.6410, 378.9578
232.1231, 370.1431
232.6052, 363.0417
233.0873, 359.6996
233.5694, 361.5139
234.0516, 367.9854
234.5337, 375.8236
235.0158, 390.2431
235.4979, 400.2422
235.9800, 400.8678
236.4621, 394.5893
236.9443, 386.2433
237.4264, 377.8320
237.9085, 370.0685
238.3906, 366.3169
238.8727, 368.5202
239.3548, 371.6208
239.8370, 375.2762
240.3191, 378.6774
240.8012, 379.2971
241.2833, 375.0415
241.7654, 368.1380
242.2475, 365.2825
242.7297, 368.5573
243.2118, 371.7463
243.6939, 372.9289
244.1760, 372.0532
244.6581, 368.1990
245.1402, 359.3037
245.6224, 349.3206
246.1045, 346.7134
246.5866, 354.3749
247.0687, 360.6347
247.5508, 358.2393
248.0329, 349.2984
248.5151, 341.0798
248.9972, 335.3528
249.4793, 332.3248
249.9614, 332.2139
250.4435, 335.3427
250.9256, 338.8723
251.4078, 340.8569
251.8899, 341.7926
252.3720, 344.6362
252.8541, 352.8867
253.3362, 359.5064
253.8183, 355.3870
254.3005, 340.6305
254.7826, 327.7707
255.2647, 326.3036
255.7468, 334.0099
256.2289, 339.3478
256.7110, 338.6368
257.1931, 337.4286
257.6753, 341.6759
258.1574, 350.3289
258.6395, 356.6687
259.1216, 354.9520
259.6037, 346.6908
260.0858, 340.1436
260.5680, 335.9426
261.0501, 333.9100
261.5322, 335.1517
262.0143, 338.4222
262.4964, 339.9791
262.9785, 335.3860
263.4607, 326.2459
263.9428, 322.1151
264.4249, 325.0681
264.9070, 330.5588
265.3891, 338.0790
265.8712, 346.1258
266.3534, 351.6781
266.8355, 352.5533
267.3176, 349.5817
267.7997, 345.7230
268.2818, 337.9854
268.7639, 334.3327
269.2461, 341.5463
269.7282, 353.2312
270.2103, 359.2978
270.6924, 352.9408
271.1745, 339.0643
271.6566, 334.4670
272.1388, 345.6841
272.6209, 355.4600
273.1030, 359.9966
273.5851, 360.5629
274.0672, 357.2617
274.5493, 349.5157
275.0315, 340.8541
275.5136, 340.9207
275.9957, 356.2032
276.4778, 368.1302
276.9599, 371.8169
277.4420, 372.0539
277.9242, 373.5061
278.4063, 377.8177
278.8884, 382.6491
279.3705, 383.3977
279.8526, 377.9503
280.3347, 372.7469
280.8169, 364.6556
281.2990, 359.3308
281.7811, 362.7165
282.2632, 375.5817
282.7453, 391.8777
283.2274, 402.2446
283.7096, 402.9212
284.1917, 407.0686
284.6738, 422.4980
285.1559, 435.3322
285.6380, 435.3948
286.1201, 422.7703
286.6023, 406.0811
287.0844, 393.9565
287.5665, 385.4581
288.0486, 386.3464
288.5307, 405.9789
289.0128, 425.8036
289.4950, 438.3691
289.9771, 443.4052
290.4592, 443.5246
290.9413, 439.9496
291.4234, 431.8372
291.9055, 431.3768
292.3877, 446.5614
292.8698, 461.2948
293.3519, 471.3751
293.8340, 476.9076
294.3161, 478.6778
294.7982, 476.5820
295.2804, 471.3000
295.7625, 471.7908
296.2446, 486.0437
296.7267, 497.7309
297.2088, 503.0146
297.6909, 503.9346
298.1731, 503.8050
298.6552, 504.4827
299.1373, 505.1848
299.6194, 502.7061
300.1015, 486.0619
300.5836, 480.1561
301.0658, 497.0212
301.5479, 521.3959
302.0300, 535.7164
302.5121, 533.2339
302.9942, 522.1989
303.4763, 519.9539
303.9585, 535.7212
304.4406, 546.7731
304.9227, 550.6829
305.4048, 551.5319
305.8869, 550.6980
306.3690, 549.3129
306.8512, 550.7067
307.3333, 560.5608
307.8154, 585.6825
308.2975, 600.8138
308.7796, 602.7309
309.2617, 599.2531
309.7439, 592.5452
310.2260, 584.3035
310.7081, 577.9173
311.1902, 577.4203
311.6723, 584.3622
312.1544, 585.5637
312.6366, 574.3483
313.1187, 564.8037
313.6008, 564.7789
314.0829, 571.2376
314.5650, 575.7073
315.0471, 571.6640
315.5293, 559.9872
316.0114, 552.3312
316.4935, 553.3226
316.9756, 553.1302
317.4577, 547.5219
317.9398, 539.9324
318.4220, 536.0036
318.9041, 538.7254
319.3862, 545.8571
319.8683, 550.2777
320.3504, 547.0190
320.8326, 547.2974
321.3147, 554.7432
321.7968, 564.3983
322.2789, 571.8220
322.7610, 575.4240
323.2431, 576.0809
323.7253, 574.6780
324.2074, 566.8876
324.6895, 566.0519
325.1716, 578.0817
325.6537, 591.6815
326.1358, 598.5844
326.6180, 598.2789
327.1001, 596.2717
327.5822, 598.3860
328.0643, 605.1400
328.5464, 613.6964
329.0285, 629.2587
329.5107, 641.4882
329.9928, 644.6786
330.4749, 640.6702
330.9570, 634.4521
331.4391, 629.3371
331.9212, 625.4608
332.4034, 624.9210
332.8855, 632.4173
333.3676, 638.2832
333.8497, 640.3617
334.3318, 639.7654
334.8139, 638.3652
335.2961, 637.1361
335.7782, 635.2890
336.2603, 630.3591
336.7424, 618.8204
337.2245, 609.3875
337.7066, 604.1223
338.1888, 600.2018
338.6709, 595.3276
339.1530, 588.7946
339.6351, 581.2510
340.1172, 573.7133
340.5993, 566.6579
341.0815, 558.3724
341.5636, 548.1599
342.0457, 537.5229
342.5278, 525.3859
343.0099, 513.0199
343.4920, 504.5984
343.9742, 505.5732
344.4563, 516.8907
344.9384, 519.9207
345.4205, 507.8281
345.9026, 493.4235
346.3847, 477.2137
346.8669, 461.3156
347.3490, 448.7683
347.8311, 441.6346
348.3132, 438.9231
348.7953, 436.9687
349.2774, 436.4743
349.7596, 435.6232
350.2417, 436.6669
350.7238, 436.0361
351.2059, 427.9193
351.6880, 410.5338
352.1701, 391.9202
352.6523, 387.1575
353.1344, 402.6074
353.6165, 412.3902
354.0986, 413.1699
354.5807, 408.2596
355.0628, 395.1219
355.5450, 375.9072
356.0271, 360.0497
356.5092, 359.8503
356.9913, 376.1634
357.4734, 382.9166
357.9555, 372.9436
358.4377, 360.6528
358.9198, 348.2830
359.4019, 338.2983
359.8840, 336.0019
360.3661, 347.7976
360.8482, 366.9925
361.3304, 371.8472
361.8125, 355.1304
362.2946, 339.8710
362.7767, 336.6164
363.2588, 337.6104
363.7409, 333.9245
364.2231, 322.1270
364.7052, 309.8154
365.1873, 308.2398
365.6694, 318.8251
366.1515, 326.8407
366.6336, 327.0782
367.1158, 325.0358
367.5979, 324.5797
368.0800, 325.8503
368.5621, 327.1939
369.0442, 326.9888
369.5263, 325.7127
370.0085, 325.8776
370.4906, 328.4984
370.9727, 331.0683
371.4548, 333.7674
371.9369, 335.2599
372.4190, 331.8538
372.9012, 318.2404
373.3833, 301.5164
373.8654, 292.4065
374.3475, 291.5453
374.8296, 293.2294
375.3117, 295.4131
375.7939, 298.3307
376.2760, 302.4906
376.7581, 308.4655
377.2402, 314.3304
377.7223, 320.5137
378.2044, 325.9533
378.6866, 324.8423
379.1687, 312.6637
379.6508, 298.2465
380.1329, 293.4718
380.6150, 297.9094
381.0971, 302.3504
381.5793, 303.8061
382.0614, 303.6016
382.5435, 303.7965
383.0256, 304.6794
383.5077, 304.5494
383.9898, 300.8222
384.4720, 294.5467
384.9541, 292.6008
385.4362, 300.1569
385.9183, 307.5901
386.4004, 307.3269
386.8825, 301.6497
387.3647, 298.9829
387.8468, 304.0108
388.3289, 313.2902
388.8110, 317.6537
389.2931, 314.6200
389.7752, 313.1262
390.2574, 316.6370
390.7395, 321.9297
391.2216, 325.5556
391.7037, 326.6868
392.1858, 325.3134
392.6679, 320.2619
393.1501, 309.3900
393.6322, 307.9012
394.1143, 327.7086
394.5964, 345.3119
395.0785, 343.6265
395.5606, 327.7785
396.0428, 315.2282
396.5249, 317.6048
397.0070, 331.7590
397.4891, 340.8545
397.9712, 338.4112
398.4533, 338.5630
398.9355, 347.6812
399.4176, 357.9199
399.8997, 359.6230
400.3818, 350.1956
400.8639, 336.1014
401.3460, 326.5591
401.8282, 321.3566
402.3103, 321.8105
402.7924, 333.1494
403.2745, 344.6486
403.7566, 350.0432
404.2387, 350.6284
404.7209, 351.7957
405.2030, 357.7978
405.6851, 367.9147
406.1672, 376.4223
406.6493, 382.6236
407.1314, 387.9975
407.6136, 393.6540
408.0957, 398.4363
408.5778, 400.5381
409.0599, 399.2756
409.5420, 396.9850
410.0241, 396.7442
410.5063, 398.5224
410.9884, 402.5734
411.4705, 411.4073
411.9526, 420.5294
412.4347, 427.5036
412.9168, 432.3876
413.3990, 436.4086
413.8811, 439.7612
414.3632, 442.8432
414.8453, 447.2123
415.3274, 453.1414
415.8095, 459.6977
416.2917, 465.2371
416.7738, 471.4161
417.2559, 481.1884
417.7380, 496.7423
418.2201, 512.9335
418.7022, 524.6614
419.1844, 532.3146
419.6665, 539.6886
420.1486, 548.1582
420.6307, 556.3355
421.1128, 560.7729
421.5949, 561.3767
422.0771, 566.8424
422.5592, 583.3884
423.0413, 605.1917
423.5234, 625.1244
424.0055, 642.3771
424.4876, 657.3499
424.9698, 669.1072
425.4519, 678.5665
425.9340, 691.4852
426.4161, 710.9150
426.8982, 730.4380
427.3803, 746.8001
427.8625, 761.1830
428.3446, 775.5883
428.8267, 790.6923
429.3088, 807.0565
429.7909, 825.8035
430.2730, 848.4388
430.7552, 870.2753
431.2373, 893.7693
431.7194, 914.4911
432.2015, 927.7337
432.6836, 934.4155
433.1657, 939.5632
433.6479, 946.5961
434.1300, 955.7098
434.6121, 970.0356
435.0942, 998.2996
435.5763, 1021.761
436.0584, 1033.997
436.5406, 1041.328
437.0227, 1050.655
437.5048, 1064.437
437.9869, 1081.390
438.4690, 1099.573
438.9511, 1118.785
439.4333, 1139.881
439.9154, 1169.990
440.3975, 1195.707
440.8796, 1208.534
441.3617, 1211.490
441.8438, 1213.368
442.3260, 1219.681
442.8081, 1229.294
443.2902, 1239.382
443.7723, 1252.681
444.2544, 1259.534
444.7365, 1256.685
445.2187, 1245.900
445.7008, 1227.107
446.1829, 1200.114
446.6650, 1168.701
447.1471, 1135.730
447.6292, 1101.205
448.1114, 1063.575
448.5935, 1019.933
449.0756, 978.7563
449.5577, 951.3663
450.0398, 932.9252
450.5219, 908.4658
451.0041, 867.7357
451.4862, 823.9154
451.9683, 789.3899
452.4504, 763.3954
452.9325, 741.5031
453.4146, 722.9068
453.8968, 705.8522
454.3789, 685.6098
454.8610, 659.9523
455.3431, 638.7674
455.8252, 626.8356
456.3073, 619.1252
456.7895, 609.9484
457.2716, 598.6719
457.7537, 588.3630
458.2358, 581.9305
458.7179, 579.3693
459.2000, 575.1888
459.6822, 568.3751
460.1643, 561.3962
460.6464, 552.8009
461.1285, 545.1343
461.6106, 543.3718
462.0927, 549.0784
462.5748, 556.7000
463.0569, 556.6171
463.5391, 545.6771
464.0212, 535.4688
464.5033, 525.4212
464.9854, 516.5939
465.4675, 509.4929
465.9496, 504.0176
466.4318, 500.0533
466.9139, 497.9810
467.3960, 496.7880
467.8781, 494.0622
468.3602, 491.5379
468.8423, 482.8004
469.3245, 454.9438
469.8066, 426.9513
470.2887, 417.0170
470.7708, 427.3193
471.2529, 438.7777
471.7350, 434.5746
472.2172, 419.1198
472.6993, 409.8387
473.1814, 409.9782
473.6635, 411.0893
474.1456, 406.4513
474.6277, 398.3961
475.1099, 392.2267
475.5920, 390.9158
476.0741, 388.9374
476.5562, 383.1425
477.0383, 373.6889
477.5204, 358.8444
478.0026, 336.4536
478.4847, 315.1171
478.9668, 308.2019
479.4489, 319.1236
479.9310, 328.3303
480.4131, 336.5905
480.8953, 341.3622
481.3774, 338.6626
481.8595, 330.5934
482.3416, 323.8688
482.8237, 322.6599
483.3058, 324.8965
483.7880, 323.5077
484.2701, 317.5767
484.7522, 308.8963
485.2343, 291.5951
485.7164, 275.8672
486.1985, 271.1567
486.6807, 277.1369
487.1628, 285.4064
487.6449, 288.5807
488.1270, 287.0213
488.6091, 286.2540
489.0912, 288.3315
489.5734, 287.7750
490.0555, 278.8548
490.5376, 268.6711
491.0197, 266.8034
491.5018, 276.3139
491.9839, 286.8616
492.4661, 287.9256
492.9482, 280.2402
493.4303, 269.0126
493.9124, 251.4154
494.3945, 237.1360
494.8766, 236.1329
495.3588, 244.6614
495.8409, 253.7754
496.3230, 262.7486
496.8051, 270.2467
497.2872, 277.3853
497.7693, 282.6099
498.2515, 278.0547
498.7336, 258.5603
499.2157, 234.4937
499.6978, 222.4559
500.1799, 225.4795
500.6620, 229.3055
501.1442, 235.5487
501.6263, 240.3186
502.1084, 239.9729
502.5905, 235.5946
503.0726, 230.4286
503.5547, 226.0856
504.0369, 223.6198
504.5190, 227.1788
505.0011, 245.7899
505.4832, 255.9169
505.9653, 250.3047
506.4474, 241.1858
506.9296, 236.5329
507.4117, 237.2849
507.8938, 240.9083
508.3759, 246.2797
508.8580, 252.7218
509.3401, 256.0190
509.8223, 255.5509
510.3044, 253.2606
510.7865, 248.3141
511.2686, 242.7409
511.7507, 238.2860
512.2328, 235.2282
512.7150, 233.6069
513.1971, 232.7029
513.6792, 233.2469
514.1613, 239.2706
514.6434, 253.0570
515.1255, 263.3999
515.6077, 259.1783
516.0898, 244.2066
516.5719, 236.1314
517.0540, 240.8021
517.5361, 246.0713
518.0182, 245.8227
518.5004, 242.7238
518.9825, 241.5651
519.4646, 243.6234
519.9467, 246.1727
520.4288, 245.6313
520.9109, 241.0564
521.3931, 239.8388
521.8752, 247.8850
522.3573, 252.2883
522.8394, 244.3802
523.3215, 231.1720
523.8036, 223.9037
524.2858, 227.0161
524.7679, 234.5971
525.2500, 235.8699
525.7321, 228.1242
526.2142, 228.1535
526.6964, 248.4020
527.1785, 264.1452
527.6606, 260.9017
528.1427, 244.7509
528.6248, 229.0677
529.1069, 217.9528
529.5891, 212.4171
530.0712, 216.6833
530.5533, 230.0294
531.0354, 240.2751
531.5175, 244.4283
531.9996, 243.7116
532.4818, 235.5829
532.9639, 220.8421
533.4460, 215.0478
533.9281, 229.1806
534.4102, 246.8336
534.8923, 256.8854
535.3745, 259.5807
535.8566, 257.2305
536.3387, 250.4502
536.8208, 241.6104
537.3029, 235.7284
537.7850, 234.9503
538.2672, 232.6476
538.7493, 227.5408
539.2314, 222.2074
539.7135, 216.2423
540.1956, 211.2799
540.6777, 211.4199
541.1599, 219.8148
541.6420, 232.2148
542.1241, 237.3970
542.6062, 233.1726
543.0883, 228.7823
543.5704, 223.6766
544.0526, 220.8053
544.5347, 224.4615
545.0168, 232.9340
545.4989, 238.0164
545.9810, 232.7479
546.4631, 223.0591
546.9453, 217.4092
547.4274, 215.7650
547.9095, 218.6027
548.3916, 228.7816
548.8737, 240.2985
549.3558, 240.9596
549.8380, 229.2459
550.3201, 220.0485
550.8022, 217.0916
551.2843, 216.9823
551.7664, 218.4104
552.2485, 220.3771
552.7307, 220.1219
553.2128, 215.7526
553.6949, 209.5036
554.1770, 207.7178
554.6591, 212.8471
555.1412, 218.2639
555.6234, 224.1344
556.1055, 229.9503
556.5876, 236.7816
557.0697, 243.4408
557.5518, 246.6653
558.0339, 243.9534
558.5161, 237.3978
558.9982, 231.3071
559.4803, 225.5374
559.9624, 221.3206
560.4445, 219.8466
560.9266, 219.3130
561.4088, 216.6807
561.8909, 212.4551
562.3730, 212.3703
562.8551, 223.3381
563.3372, 236.1084
563.8193, 240.4646
564.3015, 237.3647
564.7836, 233.1598
565.2657, 230.7594
565.7478, 228.2472
566.2299, 221.4792
566.7120, 206.1962
567.1942, 197.5818
567.6763, 201.1666
568.1584, 206.2788
568.6405, 206.2735
569.1226, 202.8689
569.6047, 201.0288
570.0869, 203.3500
570.5690, 208.5371
571.0511, 214.4441
571.5332, 221.8855
572.0153, 227.1128
572.4974, 230.1641
572.9796, 230.2984
573.4617, 224.9110
573.9438, 216.3437
574.4259, 210.6153
574.9080, 210.9767
575.3901, 213.9611
575.8723, 217.5820
576.3544, 221.0189
576.8365, 217.6933
577.3186, 203.1457
577.8007, 189.5987
578.2828, 193.8140
578.7650, 217.0893
579.2471, 228.3595
579.7292, 215.1419
580.2113, 202.0239
580.6934, 202.7246
581.1755, 210.7521
581.6577, 213.8916
582.1398, 208.3281
582.6219, 201.5090
583.1040, 204.8488
583.5861, 220.8441
584.0682, 226.9438
584.5504, 211.3604
585.0325, 199.9879
585.5146, 203.3124
585.9967, 214.0289
