##NAMES=Wyartite II
##RRUFFID=R090061
##IDEAL CHEMISTRY=CaU^5+^(U^6+^O_2_)_2_O_4_(OH)&#183;3H_2_O
##LOCALITY=Shinkolobwe mine, Katanga, Congo
##OWNER=RRUFF
##SOURCE=William W. Pinch
##DESCRIPTION=Elongated and striated platy translucent black crystals. This is the material known as the dehydrated phase of wyartite, sometimes known as wyartite II (Hawthorne et al, 2006)
##STATUS=The identification of this mineral has been confirmed by single-crystal X-ray diffraction.
##URL=rruff.info/R090061
92.07813, 91.55944
92.56024, 106.9503
93.04236, 89.58635
93.52448, 50.24505
94.00659, 28.76596
94.48871, 75.95862
94.97083, 159.3686
95.45294, 188.2305
95.93506, 142.0084
96.41718, 58.21390
96.89929, -9.927912
97.38141, -61.97446
97.86353, -89.08207
98.34564, -77.92599
98.82776, -30.07577
99.30988, 27.66301
99.79199, 101.2082
100.2741, 178.1480
100.7562, 209.2073
101.2383, 185.6779
101.7205, 140.2881
102.2026, 95.12720
102.6847, 44.70048
103.1668, 19.24256
103.6489, 37.77372
104.1310, 102.0845
104.6132, 116.4083
105.0953, 49.93009
105.5774, -37.60419
106.0595, -70.41908
106.5416, -21.42766
107.0237, 41.03561
107.5059, 106.9158
107.9880, 188.3208
108.4701, 232.8506
108.9522, 212.3855
109.4343, 160.5649
109.9164, 138.2179
110.3986, 186.2043
110.8807, 229.7280
111.3628, 246.6578
111.8449, 224.9340
112.3270, 195.1754
112.8091, 147.9044
113.2913, 92.25911
113.7734, 53.39141
114.2555, 31.88591
114.7376, 30.00050
115.2197, 49.90051
115.7018, 123.5006
116.1840, 183.0146
116.6661, 200.4839
117.1482, 183.8630
117.6303, 174.5341
118.1124, 202.4483
118.5945, 237.7800
119.0767, 254.7570
119.5588, 221.6514
120.0409, 187.9776
120.5230, 184.0237
121.0051, 208.3481
121.4872, 229.8510
121.9694, 222.3940
122.4515, 201.9598
122.9336, 190.6620
123.4157, 214.7944
123.8978, 242.5898
124.3799, 236.1076
124.8621, 190.7446
125.3442, 152.1407
125.8263, 162.6160
126.3084, 210.6837
126.7905, 268.4997
127.2726, 342.3029
127.7548, 411.8432
128.2369, 434.5467
128.7190, 398.6155
129.2011, 349.8733
129.6832, 348.6513
130.1653, 388.4875
130.6474, 430.5509
131.1296, 453.3564
131.6117, 459.9767
132.0938, 458.5180
132.5759, 444.5803
133.0580, 432.0982
133.5401, 454.0978
134.0223, 511.5399
134.5044, 569.6678
134.9865, 596.9212
135.4686, 594.9019
135.9507, 613.9824
136.4328, 667.1792
136.9150, 743.2833
137.3971, 804.7399
137.8792, 850.4091
138.3613, 887.3488
138.8434, 916.1984
139.3255, 932.8382
139.8077, 966.3203
140.2898, 1028.963
140.7719, 1115.552
141.2540, 1186.245
141.7361, 1245.567
142.2182, 1280.408
142.7004, 1270.044
143.1825, 1191.059
143.6646, 1125.108
144.1467, 1096.760
144.6288, 1109.306
145.1109, 1097.973
145.5931, 1044.490
146.0752, 981.6663
146.5573, 947.3226
147.0394, 949.2990
147.5215, 969.4724
148.0036, 1007.746
148.4858, 1072.097
148.9679, 1124.805
149.4500, 1157.291
149.9321, 1181.044
150.4142, 1212.199
150.8963, 1238.469
151.3785, 1284.475
151.8606, 1362.815
152.3427, 1502.172
152.8248, 1609.770
153.3069, 1651.603
153.7890, 1664.267
154.2712, 1706.294
154.7533, 1811.415
155.2354, 1918.642
155.7175, 2013.586
156.1996, 2128.980
156.6817, 2165.135
157.1639, 2058.744
157.6460, 1865.790
158.1281, 1707.996
158.6102, 1649.954
159.0923, 1604.290
159.5744, 1525.245
160.0566, 1379.273
160.5387, 1243.711
161.0208, 1133.900
161.5029, 1049.677
161.9850, 991.6989
162.4671, 983.4338
162.9493, 986.9888
163.4314, 975.9994
163.9135, 928.5656
164.3956, 885.9339
164.8777, 864.4886
165.3598, 861.8877
165.8420, 869.0974
166.3241, 897.0356
166.8062, 925.8706
167.2883, 937.0752
167.7704, 907.1891
168.2525, 877.0101
168.7346, 879.3704
169.2168, 908.3812
169.6989, 926.3708
170.1810, 897.8623
170.6631, 849.6592
171.1452, 813.7061
171.6273, 809.0120
172.1095, 814.3265
172.5916, 815.6201
173.0737, 812.7513
173.5558, 803.4263
174.0379, 777.6487
174.5201, 745.5723
175.0022, 723.0927
175.4843, 720.1118
175.9664, 727.3583
176.4485, 738.0540
176.9306, 752.1756
177.4128, 760.4672
177.8949, 744.4108
178.3770, 716.1786
178.8591, 702.4865
179.3412, 726.0145
179.8233, 766.5316
180.3055, 794.6400
180.7876, 810.6760
181.2697, 814.5389
181.7518, 796.0842
182.2339, 763.1964
182.7160, 740.7819
183.1982, 754.5106
183.6803, 784.3750
184.1624, 779.3731
184.6445, 735.0782
185.1266, 685.5538
185.6087, 674.6716
186.0909, 695.4910
186.5730, 711.7360
187.0551, 699.0905
187.5372, 668.5989
188.0193, 657.9854
188.5014, 669.4673
188.9836, 693.2578
189.4657, 725.6227
189.9478, 764.5678
190.4299, 790.2527
190.9120, 782.4232
191.3941, 749.3469
191.8763, 740.4983
192.3584, 762.4158
192.8405, 791.6074
193.3226, 792.1222
193.8047, 763.8076
194.2868, 735.1501
194.7690, 722.3688
195.2511, 723.7493
195.7332, 711.1949
196.2153, 679.0707
196.6974, 644.2548
197.1795, 640.5726
197.6617, 670.4367
198.1438, 698.9178
198.6259, 706.8986
199.1080, 694.4655
199.5901, 688.4186
200.0722, 689.0437
200.5544, 696.7318
201.0365, 716.5677
201.5186, 751.7040
202.0007, 779.6173
202.4828, 785.2446
202.9649, 766.2507
203.4471, 759.7958
203.9292, 772.1653
204.4113, 790.3715
204.8934, 784.3139
205.3755, 746.6911
205.8576, 714.4992
206.3398, 709.3474
206.8219, 736.9504
207.3040, 751.9459
207.7861, 749.9164
208.2682, 738.5417
208.7503, 733.7448
209.2325, 737.1554
209.7146, 742.0774
210.1967, 742.5917
210.6788, 734.3903
211.1609, 747.7743
211.6430, 799.7981
212.1252, 861.1367
212.6073, 853.1801
213.0894, 743.6266
213.5715, 649.2531
214.0536, 634.3466
214.5357, 732.0645
215.0179, 781.9121
215.5000, 765.6273
215.9821, 712.8438
216.4642, 691.1216
216.9463, 711.8615
217.4284, 739.5299
217.9105, 761.0969
218.3927, 777.8260
218.8748, 782.2611
219.3569, 767.9017
219.8390, 744.8563
220.3211, 734.8371
220.8032, 739.9729
221.2854, 754.2778
221.7675, 778.9135
222.2496, 822.3075
222.7317, 848.7248
223.2138, 854.1738
223.6959, 844.6097
224.1781, 831.5378
224.6602, 811.1137
225.1423, 794.0122
225.6244, 783.0092
226.1065, 773.6282
226.5886, 785.1040
227.0708, 830.2800
227.5529, 890.0618
228.0350, 924.4351
228.5171, 923.6078
228.9992, 914.3449
229.4813, 906.4665
229.9635, 901.6224
230.4456, 893.1262
230.9277, 880.3825
231.4098, 864.4296
231.8919, 845.1815
232.3740, 814.0637
232.8562, 793.7581
233.3383, 793.2682
233.8204, 817.1727
234.3025, 847.6158
234.7846, 893.7694
235.2667, 941.6180
235.7489, 963.8239
236.2310, 949.7917
236.7131, 927.3447
237.1952, 902.8540
237.6773, 872.9294
238.1594, 855.1439
238.6416, 853.1788
239.1237, 861.0817
239.6058, 870.8864
240.0879, 890.0114
240.5700, 898.8651
241.0521, 886.5768
241.5343, 843.8508
242.0164, 822.9826
242.4985, 835.6820
242.9806, 862.2028
243.4627, 873.8838
243.9448, 865.5427
244.4270, 850.7903
244.9091, 829.7209
245.3912, 797.9966
245.8733, 784.9387
246.3554, 802.5621
246.8375, 829.1700
247.3197, 834.8418
247.8018, 806.7095
248.2839, 780.6448
248.7660, 765.1069
249.2481, 760.6815
249.7302, 762.6577
250.2124, 773.7151
250.6945, 788.7070
251.1766, 801.6597
251.6587, 810.4105
252.1408, 821.9445
252.6229, 842.5059
253.1051, 874.2067
253.5872, 880.5519
254.0693, 847.4561
254.5514, 804.9339
255.0335, 785.0531
255.5156, 798.9757
255.9978, 811.0495
256.4799, 811.4454
256.9620, 800.3782
257.4441, 806.2491
257.9262, 841.1307
258.4083, 877.2423
258.8904, 887.2852
259.3726, 859.8884
259.8547, 834.5829
260.3368, 817.3741
260.8189, 807.8376
261.3010, 803.9221
261.7831, 808.9991
262.2653, 814.3913
262.7474, 811.3313
263.2295, 793.5850
263.7116, 785.8976
264.1937, 794.4522
264.6758, 816.0342
265.1580, 834.0145
265.6401, 849.9907
266.1222, 859.1221
266.6043, 856.2493
267.0864, 837.2101
267.5685, 820.0355
268.0507, 802.9265
268.5328, 789.6539
269.0149, 799.5953
269.4970, 845.9757
269.9791, 884.4207
270.4612, 880.7541
270.9434, 820.0309
271.4255, 791.8984
271.9076, 813.5383
272.3897, 863.1732
272.8718, 883.5732
273.3539, 869.0726
273.8361, 843.8522
274.3182, 814.0887
274.8003, 776.2549
275.2824, 764.3391
275.7645, 786.5732
276.2466, 827.1019
276.7288, 855.4866
277.2109, 870.0423
277.6930, 880.5299
278.1751, 892.9774
278.6572, 908.1285
279.1393, 911.0311
279.6215, 900.0521
280.1036, 880.0503
280.5857, 850.5511
281.0678, 808.3635
281.5499, 788.1493
282.0320, 814.7009
282.5142, 883.2632
282.9963, 924.8226
283.4784, 933.7734
283.9605, 932.9764
284.4426, 958.8076
284.9247, 1012.226
285.4069, 1042.661
285.8890, 1024.097
286.3711, 968.0848
286.8532, 927.6994
287.3353, 902.8558
287.8174, 893.9432
288.2996, 907.4022
288.7817, 941.3292
289.2638, 974.3039
289.7459, 1003.252
290.2280, 1026.010
290.7101, 1031.505
291.1923, 1018.465
291.6744, 1009.742
292.1565, 1030.206
292.6386, 1074.081
293.1207, 1113.278
293.6028, 1144.635
294.0850, 1164.934
294.5671, 1159.278
295.0492, 1129.690
295.5313, 1110.135
296.0134, 1136.020
296.4955, 1192.204
296.9777, 1234.877
297.4598, 1255.836
297.9419, 1263.146
298.4240, 1268.109
298.9061, 1269.652
299.3882, 1261.996
299.8704, 1222.249
300.3525, 1174.294
300.8346, 1171.655
301.3167, 1228.413
301.7988, 1294.268
302.2809, 1309.202
302.7631, 1287.629
303.2452, 1272.855
303.7273, 1293.727
304.2094, 1331.671
304.6915, 1364.082
305.1736, 1390.329
305.6558, 1407.892
306.1379, 1397.049
306.6200, 1377.077
307.1021, 1384.181
307.5842, 1469.367
308.0663, 1566.252
308.5485, 1610.071
309.0306, 1601.120
309.5127, 1577.565
309.9948, 1553.667
310.4769, 1534.166
310.9590, 1525.774
311.4412, 1544.261
311.9233, 1561.190
312.4054, 1551.167
312.8875, 1519.344
313.3696, 1492.963
313.8517, 1500.201
314.3339, 1513.211
314.8160, 1506.359
315.2981, 1461.263
315.7802, 1414.646
316.2623, 1388.444
316.7444, 1375.537
317.2266, 1356.284
317.7087, 1309.629
318.1908, 1263.077
318.6729, 1235.192
319.1550, 1235.781
319.6371, 1236.202
320.1193, 1221.119
320.6014, 1200.494
321.0835, 1190.451
321.5656, 1212.080
322.0477, 1231.335
322.5298, 1232.952
323.0120, 1212.697
323.4941, 1190.930
323.9762, 1163.735
324.4583, 1140.102
324.9404, 1129.753
325.4225, 1148.088
325.9047, 1166.017
326.3868, 1175.284
326.8689, 1175.536
327.3510, 1178.185
327.8331, 1182.826
328.3152, 1190.843
328.7974, 1203.272
329.2795, 1237.893
329.7616, 1255.677
330.2437, 1244.145
330.7258, 1209.888
331.2079, 1188.888
331.6901, 1184.815
332.1722, 1190.322
332.6543, 1203.433
333.1364, 1235.519
333.6185, 1253.244
334.1006, 1247.785
334.5828, 1230.240
335.0649, 1229.184
335.5470, 1259.581
336.0291, 1279.854
336.5112, 1268.704
336.9933, 1215.211
337.4755, 1188.382
337.9576, 1198.223
338.4397, 1223.454
338.9218, 1235.678
339.4039, 1232.026
339.8860, 1225.287
340.3681, 1218.718
340.8503, 1212.156
341.3324, 1204.750
341.8145, 1197.214
342.2966, 1186.585
342.7787, 1163.349
343.2608, 1126.135
343.7430, 1111.757
344.2251, 1136.644
344.7072, 1182.667
345.1893, 1195.364
345.6714, 1173.201
346.1535, 1138.201
346.6357, 1095.987
347.1178, 1050.573
347.5999, 1029.716
348.0820, 1041.385
348.5641, 1066.213
349.0462, 1073.544
349.5284, 1065.505
350.0105, 1058.496
350.4926, 1072.471
350.9747, 1092.133
351.4568, 1073.426
351.9389, 1010.343
352.4211, 950.5329
352.9032, 954.1952
353.3853, 1000.236
353.8674, 1037.777
354.3495, 1048.476
354.8316, 1039.453
355.3138, 1006.941
355.7959, 954.1883
356.2780, 915.5214
356.7601, 932.3078
357.2422, 971.2635
357.7243, 988.8005
358.2065, 964.0280
358.6886, 928.8210
359.1707, 893.9822
359.6528, 864.3737
360.1349, 854.6882
360.6170, 899.0919
361.0992, 948.6094
361.5813, 965.4388
362.0634, 934.7391
362.5455, 901.6603
363.0276, 885.2949
363.5097, 877.6317
363.9919, 866.7546
364.4740, 835.4470
364.9561, 812.6353
365.4382, 814.2455
365.9203, 843.3968
366.4024, 866.0080
366.8846, 871.6356
367.3667, 870.2198
367.8488, 869.8123
368.3309, 873.1290
368.8130, 875.4926
369.2951, 875.0286
369.7773, 872.4919
370.2594, 872.9600
370.7415, 877.6940
371.2236, 884.3039
371.7057, 893.5792
372.1878, 919.6818
372.6700, 919.5851
373.1521, 877.1503
373.6342, 815.5729
374.1163, 780.3523
374.5984, 780.7792
375.0805, 790.1296
375.5627, 801.0388
376.0448, 813.5631
376.5269, 828.0521
377.0090, 845.9229
377.4911, 863.4831
377.9732, 880.0977
378.4554, 897.8978
378.9375, 897.7020
379.4196, 866.7343
379.9017, 818.2719
380.3838, 805.5277
380.8659, 832.8499
381.3481, 862.6006
381.8302, 862.6828
382.3123, 837.9312
382.7944, 825.0731
383.2765, 830.3093
383.7586, 842.5537
384.2408, 842.9471
384.7229, 833.7988
385.2050, 829.3685
385.6871, 844.7752
386.1692, 867.8400
386.6513, 871.6271
387.1335, 854.5728
387.6156, 838.5089
388.0977, 846.6942
388.5798, 869.5779
389.0619, 889.7551
389.5440, 899.6976
390.0262, 905.9259
390.5083, 916.1761
390.9904, 928.8517
391.4725, 936.0328
391.9546, 930.4110
392.4367, 918.7990
392.9189, 903.6570
393.4010, 878.1183
393.8831, 868.5809
394.3652, 911.7958
394.8473, 975.9427
395.3294, 1008.647
395.8116, 949.5739
396.2937, 892.8192
396.7758, 883.9748
397.2579, 931.4375
397.7400, 968.2559
398.2221, 969.1795
398.7043, 960.0850
399.1864, 961.9502
399.6685, 1003.507
400.1506, 1024.800
400.6327, 1010.022
401.1148, 967.3829
401.5970, 934.9264
402.0791, 909.9601
402.5612, 898.6763
403.0433, 906.9174
403.5254, 946.5676
404.0075, 971.7303
404.4897, 976.3422
404.9718, 971.7847
405.4539, 975.5861
405.9360, 990.2059
406.4181, 1005.559
406.9002, 1018.576
407.3824, 1029.655
407.8645, 1045.531
408.3466, 1068.329
408.8287, 1087.833
409.3108, 1091.719
409.7929, 1080.861
410.2751, 1075.323
410.7572, 1078.057
411.2393, 1087.605
411.7214, 1103.324
412.2035, 1124.618
412.6856, 1145.505
413.1678, 1163.756
413.6499, 1178.970
414.1320, 1189.396
414.6141, 1194.703
415.0962, 1199.271
415.5783, 1204.768
416.0605, 1212.774
416.5426, 1226.557
417.0247, 1251.541
417.5068, 1279.015
417.9889, 1300.575
418.4710, 1317.523
418.9532, 1336.459
419.4353, 1365.693
419.9174, 1395.423
420.3995, 1416.773
420.8816, 1425.695
421.3637, 1433.309
421.8459, 1437.248
422.3280, 1443.911
422.8101, 1463.214
423.2922, 1509.955
423.7743, 1557.775
424.2564, 1599.207
424.7386, 1633.649
425.2207, 1663.267
425.7028, 1677.309
426.1849, 1693.597
426.6670, 1724.172
427.1491, 1781.421
427.6313, 1833.305
428.1134, 1876.918
428.5955, 1914.237
429.0776, 1948.900
429.5597, 1976.288
430.0418, 2011.462
430.5240, 2064.096
431.0061, 2136.121
431.4882, 2195.324
431.9703, 2237.775
432.4524, 2275.221
432.9345, 2323.357
433.4167, 2382.479
433.8988, 2432.024
434.3809, 2460.845
434.8630, 2481.484
435.3451, 2529.531
435.8272, 2603.996
436.3094, 2675.718
436.7915, 2715.236
437.2736, 2738.445
437.7557, 2784.763
438.2378, 2859.713
438.7199, 2946.229
439.2020, 3027.056
439.6841, 3106.717
440.1663, 3194.472
440.6484, 3313.357
441.1305, 3428.283
441.6126, 3504.497
442.0947, 3547.184
442.5768, 3585.563
443.0590, 3628.501
443.5411, 3677.107
444.0232, 3735.371
444.5053, 3815.422
444.9874, 3879.842
445.4695, 3927.221
445.9517, 3948.688
446.4338, 3930.311
446.9159, 3842.287
447.3980, 3740.741
447.8801, 3639.694
448.3622, 3539.159
448.8444, 3435.614
449.3265, 3317.596
449.8086, 3206.367
450.2907, 3119.758
450.7728, 3082.057
451.2549, 3011.232
451.7371, 2891.974
452.2192, 2745.034
452.7013, 2613.451
453.1834, 2497.661
453.6655, 2399.970
454.1476, 2326.452
454.6298, 2275.215
455.1119, 2221.296
455.5940, 2164.201
456.0761, 2109.316
456.5582, 2062.296
457.0403, 2022.545
457.5225, 1986.987
458.0046, 1953.715
458.4867, 1928.185
458.9688, 1928.007
459.4509, 1946.406
459.9330, 1955.503
460.4152, 1928.901
460.8973, 1889.912
461.3794, 1863.431
461.8615, 1850.394
462.3436, 1853.034
462.8257, 1892.858
463.3079, 1941.258
463.7900, 1965.949
464.2721, 1947.082
464.7542, 1916.091
465.2363, 1877.360
465.7184, 1835.277
466.2006, 1802.291
466.6827, 1788.647
467.1648, 1778.397
467.6469, 1765.606
468.1290, 1749.168
468.6111, 1733.599
469.0933, 1731.038
469.5754, 1721.187
470.0575, 1682.024
470.5396, 1585.106
471.0217, 1517.687
471.5038, 1498.494
471.9860, 1513.236
472.4681, 1512.201
472.9502, 1491.091
473.4323, 1468.587
473.9144, 1456.166
474.3965, 1453.144
474.8787, 1438.548
475.3608, 1410.827
475.8429, 1379.110
476.3250, 1356.960
476.8071, 1341.220
477.2892, 1315.203
477.7714, 1272.487
478.2535, 1221.180
478.7356, 1163.314
479.2177, 1103.681
479.6998, 1064.043
480.1819, 1068.250
480.6641, 1091.975
481.1462, 1115.264
481.6283, 1137.335
482.1104, 1145.688
482.5925, 1120.401
483.0746, 1083.074
483.5568, 1055.891
484.0389, 1057.256
484.5210, 1056.778
485.0031, 1048.834
485.4852, 1033.061
485.9673, 1008.091
486.4495, 950.1735
486.9316, 905.5895
487.4137, 894.0721
487.8958, 924.7344
488.3779, 942.7010
488.8600, 943.1576
489.3422, 936.0782
489.8243, 930.8361
490.3064, 929.7462
490.7885, 920.7355
491.2706, 896.2002
491.7527, 867.8312
492.2349, 870.9872
492.7170, 908.9525
493.1991, 939.9672
493.6812, 943.6694
494.1633, 923.5783
494.6454, 884.5471
495.1276, 825.3859
495.6097, 776.7523
496.0918, 773.9601
496.5739, 802.1833
497.0560, 831.5570
497.5381, 857.8477
498.0203, 878.8071
498.5024, 899.7798
498.9845, 914.1327
499.4666, 907.6296
499.9487, 848.1461
500.4308, 786.7566
500.9130, 752.6392
501.3951, 747.2094
501.8772, 751.6510
502.3593, 772.7075
502.8414, 793.7020
503.3235, 803.8112
503.8057, 795.9012
504.2878, 784.8126
504.7699, 760.2182
505.2520, 736.6027
505.7341, 742.0544
506.2162, 799.6501
506.6984, 839.5981
507.1805, 837.3263
507.6626, 798.5216
508.1447, 777.5101
508.6268, 776.7214
509.1089, 784.6541
509.5911, 796.6575
510.0732, 811.9198
510.5553, 821.3893
511.0374, 824.3011
511.5195, 821.5786
512.0016, 811.2340
512.4838, 795.6173
512.9659, 782.7524
513.4480, 775.2537
513.9301, 771.7794
514.4122, 767.7814
514.8943, 765.3643
515.3765, 773.4513
515.8586, 818.2985
516.3407, 861.6279
516.8228, 867.0542
517.3049, 821.9020
517.7870, 787.7443
518.2692, 798.3342
518.7513, 824.3409
519.2334, 837.6117
519.7155, 818.0840
520.1976, 804.8153
520.6797, 804.8907
521.1619, 813.8137
521.6440, 818.5603
522.1261, 815.7366
522.6082, 815.1245
523.0903, 824.3304
523.5724, 843.9303
524.0546, 837.0156
524.5367, 795.1832
525.0188, 753.1681
525.5009, 747.2989
525.9830, 773.8875
526.4651, 786.1013
526.9473, 772.2028
527.4294, 756.4241
527.9115, 789.2946
528.3936, 853.2264
528.8757, 890.2788
529.3578, 853.8455
529.8400, 790.1563
530.3221, 735.3599
530.8042, 692.1285
531.2863, 673.2855
531.7684, 707.2775
532.2505, 755.0717
532.7327, 789.1663
533.2148, 805.6189
533.6969, 807.4181
534.1790, 772.3241
534.6611, 732.0983
535.1432, 723.2236
535.6254, 784.8523
536.1075, 832.3444
536.5896, 856.4489
537.0717, 860.3948
537.5538, 851.9301
538.0359, 825.3851
538.5181, 799.4915
539.0002, 782.0338
539.4823, 772.9391
539.9644, 764.7272
540.4465, 757.8044
540.9286, 749.7318
541.4108, 730.5616
541.8929, 706.1792
542.3750, 707.9750
542.8571, 748.7660
543.3392, 794.8365
543.8214, 803.1667
544.3035, 785.1449
544.7856, 769.0786
545.2677, 766.5792
545.7498, 771.5016
546.2319, 786.5579
546.7141, 808.2896
547.1962, 817.0259
547.6783, 788.3235
548.1604, 756.9770
548.6425, 741.9445
549.1246, 748.5162
549.6068, 762.3903
550.0889, 798.3533
550.5710, 831.3011
551.0531, 835.9730
551.5352, 794.4266
552.0173, 762.9706
552.4995, 749.8942
552.9816, 749.6411
553.4637, 750.7430
553.9458, 754.0008
554.4279, 752.7451
554.9100, 739.9061
555.3922, 720.5093
555.8743, 714.8373
556.3564, 722.9336
556.8385, 738.2469
557.3206, 758.7496
557.8027, 782.0382
558.2849, 806.9229
558.7670, 835.5142
559.2491, 854.5347
559.7312, 849.5079
560.2133, 829.7687
560.6954, 807.8932
561.1776, 780.9730
561.6597, 760.4373
562.1418, 753.5779
562.6239, 756.9233
563.1060, 757.9396
563.5881, 741.9412
564.0703, 736.8916
564.5524, 758.1610
565.0345, 809.5702
565.5166, 833.3285
565.9987, 819.2584
566.4808, 794.8635
566.9630, 782.7498
567.4451, 784.6384
567.9272, 773.2924
568.4093, 742.1150
568.8914, 709.0482
569.3735, 702.2747
569.8557, 717.1385
570.3378, 730.8613
570.8199, 733.5822
571.3020, 733.2184
571.7841, 739.5985
572.2662, 751.6034
572.7484, 765.0524
573.2305, 782.2557
573.7126, 796.7853
574.1947, 805.1512
574.6768, 807.0127
575.1589, 801.2803
575.6411, 775.8080
576.1232, 750.2079
576.6053, 738.9884
577.0874, 755.0168
577.5695, 766.5986
578.0516, 777.3777
578.5338, 781.2192
579.0159, 762.4615
579.4980, 707.5967
579.9801, 682.2057
580.4622, 712.2787
580.9443, 774.5309
581.4265, 791.5170
581.9086, 763.3635
582.3907, 734.8927
582.8728, 736.6439
583.3549, 754.7748
583.8370, 755.6529
584.3192, 739.1890
584.8013, 729.4941
585.2834, 760.8634
585.7655, 801.1427
586.2476, 808.9497
