##NAMES=Xanthoconite
##RRUFFID=R070746
##IDEAL CHEMISTRY=Ag^1+^_3_As^3+^S^2-^_3_
##LOCALITY=Freiberg District, Erzgebirge, Saxony, Germany
##OWNER=RRUFF
##SOURCE=Michael Scott
##DESCRIPTION=Light brown to yellow bladed crystals, associated with red prismatic proustite
##STATUS=The identification of this mineral is confirmed by single-crystal X-ray diffraction and chemical analysis.
##URL=rruff.info/R070746
##MEASURED CHEMISTRY=Ag_3.00_As_1.00_S_3.00_
127.8412, 2806.181
128.3233, 2887.122
128.8054, 2962.921
129.2875, 3026.835
129.7696, 3079.408
130.2518, 3117.139
130.7339, 3142.320
131.2160, 3173.664
131.6981, 3224.133
132.1802, 3291.236
132.6623, 3359.677
133.1445, 3423.276
133.6266, 3483.380
134.1087, 3547.907
134.5908, 3618.661
135.0729, 3690.120
135.5550, 3758.102
136.0372, 3824.085
136.5193, 3872.715
137.0014, 3893.783
137.4835, 3885.685
137.9656, 3870.255
138.4477, 3849.532
138.9299, 3822.747
139.4120, 3785.465
139.8941, 3735.688
140.3762, 3679.725
140.8583, 3618.982
141.3404, 3550.424
141.8226, 3489.078
142.3047, 3440.595
142.7868, 3406.079
143.2689, 3360.549
143.7510, 3296.877
144.2331, 3228.850
144.7152, 3175.184
145.1974, 3144.678
145.6795, 3113.841
146.1616, 3072.997
146.6437, 3010.672
147.1258, 2968.419
147.6079, 2957.951
148.0901, 2967.084
148.5722, 2963.595
149.0543, 2937.554
149.5364, 2907.698
150.0185, 2882.235
150.5006, 2856.427
150.9828, 2840.427
151.4649, 2840.031
151.9470, 2853.443
152.4291, 2860.387
152.9112, 2850.698
153.3933, 2839.292
153.8755, 2836.598
154.3576, 2852.715
154.8397, 2868.666
155.3218, 2882.938
155.8039, 2896.843
156.2860, 2900.096
156.7682, 2880.546
157.2503, 2852.084
157.7324, 2831.876
158.2145, 2830.713
158.6966, 2833.401
159.1787, 2833.397
159.6609, 2827.809
160.1430, 2824.240
160.6251, 2826.853
161.1072, 2833.381
161.5893, 2838.571
162.0714, 2837.443
162.5536, 2836.145
163.0357, 2838.953
163.5178, 2849.635
163.9999, 2861.674
164.4820, 2872.031
164.9641, 2881.054
165.4463, 2890.563
165.9284, 2901.914
166.4105, 2914.051
166.8926, 2925.825
167.3747, 2936.601
167.8568, 2946.954
168.3390, 2956.668
168.8211, 2965.397
169.3032, 2975.612
169.7853, 2988.191
170.2674, 3003.296
170.7495, 3021.249
171.2317, 3047.614
171.7138, 3074.428
172.1959, 3092.374
172.6780, 3098.566
173.1601, 3102.632
173.6422, 3111.653
174.1244, 3125.185
174.6065, 3141.400
175.0886, 3163.289
175.5707, 3186.408
176.0528, 3202.786
176.5349, 3205.586
177.0171, 3208.361
177.4992, 3234.766
177.9813, 3281.157
178.4634, 3318.494
178.9455, 3308.889
179.4276, 3272.677
179.9098, 3257.458
180.3919, 3292.987
180.8740, 3350.081
181.3561, 3379.442
181.8382, 3379.861
182.3203, 3371.443
182.8025, 3371.685
183.2846, 3379.376
183.7667, 3389.597
184.2488, 3405.261
184.7309, 3422.275
185.2130, 3425.268
185.6951, 3411.375
186.1773, 3394.772
186.6594, 3396.170
187.1415, 3414.146
187.6236, 3432.494
188.1057, 3443.196
188.5878, 3447.103
189.0700, 3448.817
189.5521, 3448.895
190.0342, 3446.437
190.5163, 3440.673
190.9984, 3431.651
191.4805, 3416.549
191.9627, 3386.442
192.4448, 3343.453
192.9269, 3316.517
193.4090, 3315.796
193.8911, 3331.079
194.3732, 3331.410
194.8554, 3315.114
195.3375, 3293.572
195.8196, 3277.998
196.3017, 3268.677
196.7838, 3255.527
197.2659, 3234.342
197.7481, 3206.865
198.2302, 3184.933
198.7123, 3169.854
199.1944, 3156.880
199.6765, 3139.735
200.1586, 3117.564
200.6408, 3096.855
201.1229, 3079.018
201.6050, 3064.148
202.0871, 3055.342
202.5692, 3055.129
203.0513, 3056.956
203.5335, 3046.349
204.0156, 3018.470
204.4977, 2998.097
204.9798, 3002.563
205.4619, 3037.764
205.9440, 3052.800
206.4262, 3040.854
206.9083, 3011.611
207.3904, 2989.320
207.8725, 2975.703
208.3546, 2964.127
208.8367, 2949.437
209.3189, 2929.065
209.8010, 2917.009
210.2831, 2917.926
210.7652, 2927.574
211.2473, 2925.252
211.7294, 2905.185
212.2116, 2884.637
212.6937, 2879.956
213.1758, 2899.583
213.6579, 2906.824
214.1400, 2891.010
214.6221, 2854.588
215.1043, 2834.545
215.5864, 2835.230
216.0685, 2845.821
216.5506, 2856.872
217.0327, 2870.263
217.5148, 2879.630
217.9970, 2882.946
218.4791, 2879.823
218.9612, 2876.189
219.4433, 2871.961
219.9254, 2867.172
220.4075, 2860.653
220.8897, 2848.336
221.3718, 2842.726
221.8539, 2850.187
222.3360, 2875.471
222.8181, 2890.110
223.3002, 2888.787
223.7824, 2879.980
224.2645, 2879.500
224.7466, 2892.073
225.2287, 2904.890
225.7108, 2912.825
226.1929, 2913.603
226.6750, 2915.944
227.1572, 2920.183
227.6393, 2925.930
228.1214, 2932.532
228.6035, 2941.179
229.0856, 2948.872
229.5677, 2952.844
230.0499, 2947.264
230.5320, 2951.962
231.0141, 2973.945
231.4962, 3007.009
231.9783, 3025.185
232.4604, 3020.499
232.9426, 3010.916
233.4247, 3006.827
233.9068, 3010.135
234.3889, 3015.348
234.8710, 3023.096
235.3531, 3032.923
235.8353, 3039.145
236.3174, 3036.867
236.7995, 3036.610
237.2816, 3047.953
237.7637, 3081.637
238.2458, 3106.149
238.7280, 3114.981
239.2101, 3099.607
239.6922, 3108.576
240.1743, 3112.908
240.6564, 3112.853
241.1385, 3095.268
241.6207, 3100.318
242.1028, 3096.297
242.5849, 3091.905
243.0670, 3100.142
243.5491, 3085.106
244.0313, 3093.142
244.5134, 3091.969
244.9955, 3095.010
245.4776, 3088.924
245.9597, 3085.657
246.4418, 3091.521
246.9240, 3092.329
247.4061, 3085.192
247.8882, 3088.502
248.3703, 3073.147
248.8524, 3074.170
249.3345, 3082.260
249.8167, 3039.554
250.2988, 3032.745
250.7809, 3063.989
251.2630, 3083.396
251.7451, 3087.483
252.2272, 3081.594
252.7094, 3074.829
253.1915, 3066.975
253.6736, 3058.462
254.1557, 3049.904
254.6378, 3042.480
255.1199, 3030.427
255.6021, 3010.268
256.0842, 2987.262
256.5663, 2973.269
257.0484, 2970.737
257.5305, 2973.005
258.0126, 2978.438
258.4948, 2990.247
258.9769, 2996.119
259.4590, 2993.960
259.9411, 2986.621
260.4232, 2981.835
260.9053, 2980.707
261.3875, 2980.189
261.8696, 2979.337
262.3517, 2979.340
262.8338, 2974.847
263.3159, 2963.395
263.7980, 2947.761
264.2802, 2938.430
264.7623, 2937.936
265.2444, 2938.407
265.7265, 2933.440
266.2086, 2919.276
266.6907, 2913.967
267.1729, 2921.188
267.6550, 2937.873
268.1371, 2954.297
268.6192, 2972.633
269.1013, 2985.350
269.5834, 2985.937
270.0656, 2972.207
270.5477, 2955.213
271.0298, 2931.255
271.5119, 2905.826
271.9940, 2907.846
272.4761, 2948.236
272.9583, 2988.328
273.4404, 2993.632
273.9225, 2955.236
274.4046, 2932.537
274.8867, 2938.136
275.3688, 2965.549
275.8510, 2987.843
276.3331, 3006.079
276.8152, 3015.633
277.2973, 3007.178
277.7794, 2977.640
278.2615, 2959.923
278.7437, 2962.706
279.2258, 2981.755
279.7079, 2998.414
280.1900, 3012.283
280.6721, 3025.391
281.1542, 3042.570
281.6364, 3064.497
282.1185, 3074.806
282.6006, 3065.560
283.0827, 3042.986
283.5648, 3032.139
284.0469, 3033.984
284.5291, 3042.593
285.0112, 3054.300
285.4933, 3068.967
285.9754, 3082.161
286.4575, 3091.748
286.9396, 3099.121
287.4217, 3108.531
287.9038, 3119.840
288.3860, 3133.700
288.8681, 3153.858
289.3502, 3178.898
289.8323, 3197.766
290.3144, 3204.471
290.7965, 3203.509
291.2787, 3207.615
291.7608, 3217.182
292.2429, 3227.625
292.7250, 3232.187
293.2071, 3232.881
293.6892, 3239.917
294.1714, 3259.251
294.6535, 3285.887
295.1356, 3311.316
295.6177, 3335.894
296.0998, 3355.147
296.5819, 3357.015
297.0641, 3348.639
297.5462, 3354.359
298.0283, 3394.665
298.5104, 3447.312
298.9925, 3471.310
299.4746, 3466.494
299.9568, 3459.378
300.4389, 3474.638
300.9210, 3505.344
301.4031, 3535.956
301.8852, 3559.710
302.3673, 3580.628
302.8495, 3602.976
303.3316, 3626.547
303.8137, 3653.620
304.2958, 3688.874
304.7779, 3728.486
305.2600, 3765.010
305.7422, 3794.274
306.2243, 3820.110
306.7064, 3847.883
307.1885, 3877.473
307.6706, 3901.545
308.1527, 3904.024
308.6349, 3900.357
309.1170, 3911.833
309.5991, 3959.281
310.0812, 4015.512
310.5633, 4060.620
311.0454, 4095.618
311.5276, 4131.038
312.0097, 4174.156
312.4918, 4220.759
312.9739, 4266.720
313.4560, 4299.353
313.9381, 4340.035
314.4203, 4403.322
314.9024, 4488.463
315.3845, 4576.160
315.8666, 4656.894
316.3487, 4736.155
316.8308, 4819.121
317.3130, 4900.501
317.7951, 4992.516
318.2772, 5096.307
318.7593, 5212.597
319.2414, 5345.381
319.7235, 5514.600
320.2057, 5691.346
320.6878, 5852.731
321.1699, 5972.581
321.6520, 6098.586
322.1341, 6242.439
322.6162, 6403.616
323.0984, 6569.324
323.5805, 6742.895
324.0626, 6917.055
324.5447, 7086.930
325.0268, 7232.023
325.5089, 7394.795
325.9911, 7586.106
326.4732, 7802.511
326.9553, 8023.823
327.4374, 8252.924
327.9195, 8483.359
328.4016, 8713.599
328.8838, 8938.936
329.3659, 9169.106
329.8480, 9404.953
330.3301, 9645.521
330.8122, 9892.052
331.2943, 10160.65
331.7765, 10420.92
332.2586, 10657.45
332.7407, 10876.43
333.2228, 11061.92
333.7049, 11221.85
334.1870, 11348.98
334.6692, 11414.55
335.1513, 11408.84
335.6334, 11359.01
336.1155, 11278.89
336.5976, 11167.12
337.0797, 11030.58
337.5619, 10878.96
338.0440, 10699.03
338.5261, 10449.17
339.0082, 10114.64
339.4903, 9756.816
339.9724, 9415.356
340.4546, 9091.276
340.9367, 8744.842
341.4188, 8360.775
341.9009, 7964.241
342.3830, 7600.805
342.8651, 7272.148
343.3473, 6972.468
343.8294, 6706.407
344.3115, 6470.717
344.7936, 6250.675
345.2757, 6040.258
345.7578, 5853.327
346.2400, 5711.907
346.7221, 5616.314
347.2042, 5539.884
347.6863, 5468.021
348.1684, 5404.316
348.6505, 5360.159
349.1327, 5336.237
349.6148, 5328.214
350.0969, 5333.738
350.5790, 5351.278
351.0611, 5375.341
351.5432, 5399.202
352.0254, 5428.854
352.5075, 5475.222
352.9896, 5539.005
353.4717, 5614.132
353.9538, 5687.450
354.4359, 5768.017
354.9181, 5871.805
355.4002, 6015.289
355.8823, 6179.402
356.3644, 6342.781
356.8465, 6505.023
357.3286, 6687.261
357.8108, 6904.182
358.2929, 7150.291
358.7750, 7422.442
359.2571, 7714.478
359.7392, 8036.209
360.2213, 8392.622
360.7035, 8783.656
361.1856, 9207.359
361.6677, 9680.637
362.1498, 10176.67
362.6319, 10677.48
363.1140, 11166.23
363.5962, 11670.58
364.0783, 12204.04
364.5604, 12763.09
365.0425, 13323.55
365.5246, 13931.18
366.0067, 14507.02
366.4889, 15002.15
366.9710, 15253.09
367.4531, 15612.25
367.9352, 16136.57
368.4173, 16801.30
368.8994, 17500.69
369.3815, 18231.87
369.8636, 18993.22
370.3458, 19770.69
370.8279, 20520.23
371.3100, 21375.58
371.7921, 22377.94
372.2742, 23481.16
372.7563, 24576.42
373.2385, 25640.40
373.7206, 26720.19
374.2027, 27856.95
374.6848, 29106.36
375.1669, 30185.17
375.6490, 31146.96
376.1312, 31881.21
376.6133, 32227.49
377.0954, 32177.22
377.5775, 31767.80
378.0596, 30974.07
378.5417, 29815.04
379.0239, 28397.57
379.5060, 26700.05
379.9881, 24844.45
380.4702, 22938.17
380.9523, 20972.24
381.4344, 19166.77
381.9166, 17606.62
382.3987, 16255.25
382.8808, 14888.30
383.3629, 13510.94
383.8450, 12214.03
384.3271, 11104.14
384.8093, 10154.45
385.2914, 9315.590
385.7735, 8597.162
386.2556, 7968.359
386.7377, 7411.492
387.2198, 6927.104
387.7020, 6499.818
388.1841, 6140.213
388.6662, 5831.399
389.1483, 5547.059
389.6304, 5283.373
390.1125, 5042.961
390.5947, 4829.430
391.0768, 4638.138
391.5589, 4461.116
392.0410, 4290.302
392.5231, 4134.865
393.0052, 4002.667
393.4874, 3904.048
393.9695, 3808.024
394.4516, 3690.226
394.9337, 3567.090
395.4158, 3468.773
395.8979, 3424.952
396.3801, 3389.157
396.8622, 3344.347
397.3443, 3287.674
397.8264, 3226.307
398.3085, 3151.546
398.7906, 3076.197
399.2728, 3016.407
399.7549, 2989.895
400.2370, 2959.297
400.7191, 2913.696
401.2012, 2851.131
401.6833, 2804.324
402.1655, 2782.782
402.6476, 2768.236
403.1297, 2745.043
403.6118, 2709.649
404.0939, 2673.933
404.5760, 2638.567
405.0582, 2604.310
405.5403, 2576.856
406.0224, 2557.967
406.5045, 2541.445
406.9866, 2522.809
407.4688, 2501.732
407.9509, 2482.961
408.4330, 2467.513
408.9151, 2453.588
409.3972, 2439.438
409.8793, 2425.087
410.3615, 2404.516
410.8436, 2365.183
411.3257, 2315.613
411.8078, 2287.942
412.2899, 2286.728
412.7720, 2295.159
413.2542, 2293.124
413.7363, 2284.315
414.2184, 2279.644
414.7005, 2295.620
415.1826, 2312.740
415.6647, 2302.819
416.1469, 2264.803
416.6290, 2227.470
417.1111, 2214.551
417.5932, 2214.021
418.0753, 2210.542
418.5574, 2193.429
419.0396, 2176.656
419.5217, 2167.963
420.0038, 2166.405
420.4859, 2165.094
420.9680, 2167.764
421.4501, 2165.904
421.9323, 2153.438
422.4144, 2121.680
422.8965, 2089.806
423.3786, 2053.546
423.8607, 2018.736
424.3428, 2001.486
424.8250, 2023.864
425.3071, 2045.473
425.7892, 2051.645
426.2713, 2035.664
426.7534, 2022.208
427.2355, 2009.436
427.7177, 2000.254
428.1998, 2000.439
428.6819, 2015.331
429.1640, 2027.553
429.6461, 2033.106
430.1282, 2031.842
430.6104, 2022.624
431.0925, 2003.086
431.5746, 1981.496
432.0567, 1965.040
432.5388, 1953.674
433.0209, 1948.758
433.5031, 1952.318
433.9852, 1961.118
434.4673, 1968.664
434.9494, 1974.928
435.4315, 1977.823
435.9136, 1974.078
436.3958, 1965.852
436.8779, 1958.739
437.3600, 1954.074
437.8421, 1949.513
438.3242, 1939.200
438.8063, 1926.396
439.2885, 1920.210
439.7706, 1938.118
440.2527, 1948.326
440.7348, 1953.750
441.2169, 1954.536
441.6990, 1950.935
442.1812, 1929.802
442.6633, 1931.308
443.1454, 1923.741
443.6275, 1915.803
444.1096, 1920.494
444.5917, 1901.912
445.0739, 1906.402
445.5560, 1901.683
446.0381, 1901.179
446.5202, 1891.547
447.0023, 1884.735
447.4844, 1887.053
447.9666, 1884.314
448.4487, 1873.632
448.9308, 1873.396
449.4129, 1854.495
449.8950, 1851.973
450.3771, 1856.517
450.8593, 1846.292
451.3413, 1846.224
451.8235, 1842.287
452.3056, 1820.728
452.7877, 1806.928
453.2698, 1807.313
453.7519, 1823.171
454.2340, 1839.205
454.7162, 1855.245
455.1983, 1867.149
455.6804, 1853.859
456.1625, 1813.705
456.6446, 1776.308
457.1267, 1772.544
457.6089, 1791.485
458.0910, 1802.006
458.5731, 1794.981
459.0552, 1781.942
459.5373, 1776.166
460.0194, 1775.870
460.5016, 1775.025
460.9837, 1766.893
461.4658, 1758.647
461.9479, 1758.733
462.4300, 1770.237
462.9121, 1778.053
463.3943, 1769.112
463.8764, 1753.431
464.3585, 1744.078
464.8406, 1749.153
465.3227, 1756.998
465.8048, 1767.234
466.2870, 1779.639
466.7691, 1782.685
467.2512, 1767.815
467.7333, 1748.165
468.2154, 1731.265
468.6975, 1713.102
469.1797, 1704.751
469.6618, 1711.712
470.1439, 1727.513
470.6260, 1734.960
471.1081, 1731.750
471.5902, 1725.650
472.0724, 1718.990
472.5545, 1711.530
473.0366, 1706.444
473.5187, 1703.841
474.0008, 1703.421
474.4829, 1706.523
474.9651, 1712.657
475.4472, 1715.519
475.9293, 1711.327
476.4114, 1704.017
476.8935, 1702.235
477.3756, 1705.624
477.8578, 1709.207
478.3399, 1710.134
478.8220, 1708.757
479.3041, 1705.485
479.7862, 1700.238
480.2683, 1693.565
480.7505, 1679.235
481.2326, 1663.905
481.7147, 1661.384
482.1968, 1696.333
482.6789, 1729.878
483.1610, 1739.690
483.6432, 1721.537
484.1253, 1702.691
484.6074, 1682.751
485.0895, 1668.677
485.5716, 1666.364
486.0537, 1696.933
486.5359, 1714.392
487.0180, 1709.104
487.5001, 1686.592
487.9822, 1672.534
488.4643, 1670.076
488.9464, 1671.152
489.4286, 1672.177
489.9107, 1673.044
490.3928, 1674.698
490.8749, 1677.567
491.3570, 1680.577
491.8391, 1683.409
492.3213, 1686.059
492.8034, 1683.827
493.2855, 1671.499
493.7676, 1654.621
494.2497, 1648.274
494.7318, 1652.337
495.2140, 1658.027
495.6961, 1657.143
496.1782, 1653.265
496.6603, 1653.554
497.1424, 1662.392
497.6245, 1669.271
498.1067, 1663.976
498.5888, 1650.301
499.0709, 1637.161
499.5530, 1623.967
500.0351, 1615.729
500.5172, 1617.687
500.9994, 1632.060
501.4815, 1641.636
501.9636, 1638.460
502.4457, 1630.802
502.9278, 1626.130
503.4099, 1627.558
503.8921, 1628.814
504.3742, 1630.867
504.8563, 1632.613
505.3384, 1627.913
505.8205, 1611.128
506.3026, 1598.818
506.7848, 1603.343
507.2669, 1629.525
507.7490, 1634.249
508.2311, 1610.773
508.7132, 1581.482
509.1953, 1577.670
509.6775, 1597.317
510.1596, 1618.632
510.6417, 1637.980
511.1238, 1652.028
511.6059, 1651.647
512.0880, 1637.730
512.5701, 1621.171
513.0522, 1605.371
513.5344, 1592.953
514.0165, 1587.915
514.4986, 1592.406
514.9807, 1599.936
515.4628, 1609.288
515.9449, 1618.596
516.4271, 1624.573
516.9092, 1628.250
517.3913, 1626.612
517.8734, 1613.779
518.3555, 1588.912
518.8376, 1576.013
519.3198, 1589.397
519.8019, 1607.354
520.2840, 1616.897
520.7661, 1613.701
521.2482, 1610.687
521.7303, 1609.776
522.2125, 1608.536
522.6946, 1598.751
523.1767, 1576.297
523.6588, 1562.627
524.1409, 1572.459
524.6230, 1600.915
525.1052, 1609.426
525.5873, 1595.873
526.0694, 1579.181
526.5515, 1580.659
527.0336, 1594.120
527.5157, 1601.455
527.9979, 1596.488
528.4800, 1586.934
528.9621, 1577.802
529.4442, 1570.318
529.9263, 1567.819
530.4084, 1578.349
530.8906, 1590.008
531.3727, 1593.319
531.8548, 1586.371
532.3369, 1580.805
532.8190, 1583.081
533.3011, 1587.176
533.7833, 1587.578
534.2654, 1573.448
534.7475, 1568.026
535.2296, 1578.787
535.7117, 1600.057
536.1938, 1611.321
536.6760, 1607.981
537.1581, 1603.746
537.6402, 1605.956
538.1223, 1615.763
538.6044, 1615.177
539.0865, 1601.298
539.5687, 1585.566
540.0508, 1583.053
540.5329, 1591.857
541.0150, 1598.305
541.4971, 1598.730
541.9792, 1595.372
542.4614, 1589.117
542.9435, 1581.185
543.4256, 1577.249
543.9077, 1587.098
544.3898, 1598.908
544.8719, 1599.020
545.3541, 1584.159
545.8362, 1572.115
546.3183, 1574.230
546.8004, 1582.424
547.2825, 1587.906
547.7646, 1589.146
548.2468, 1586.824
548.7289, 1575.261
549.2110, 1558.712
549.6931, 1556.013
550.1752, 1577.000
550.6573, 1598.406
551.1395, 1610.726
551.6216, 1612.342
552.1037, 1614.590
552.5858, 1618.588
553.0679, 1620.890
553.5500, 1614.691
554.0322, 1600.622
554.5143, 1593.375
554.9964, 1598.566
555.4785, 1609.758
555.9606, 1615.775
556.4427, 1617.279
556.9249, 1617.625
557.4070, 1616.275
557.8891, 1616.163
558.3712, 1622.889
558.8533, 1638.013
559.3354, 1648.644
559.8176, 1642.740
560.2997, 1630.878
560.7818, 1623.891
561.2639, 1631.394
561.7460, 1636.341
562.2281, 1634.354
562.7103, 1626.866
563.1924, 1619.164
563.6745, 1605.679
564.1566, 1599.716
564.6387, 1609.708
565.1208, 1638.864
565.6030, 1651.948
566.0851, 1645.519
566.5672, 1630.892
567.0493, 1616.765
567.5314, 1603.555
568.0135, 1595.128
568.4957, 1592.401
568.9778, 1594.654
569.4599, 1604.396
569.9420, 1619.426
570.4241, 1629.943
570.9063, 1627.840
571.3884, 1620.510
571.8705, 1614.477
572.3526, 1610.118
572.8347, 1607.458
573.3168, 1605.520
573.7990, 1605.852
574.2811, 1609.946
574.7632, 1621.708
575.2453, 1632.172
575.7274, 1641.879
576.2095, 1649.167
576.6917, 1650.263
577.1738, 1641.720
577.6559, 1632.477
578.1380, 1623.833
578.6201, 1616.040
579.1022, 1615.170
579.5844, 1623.574
580.0665, 1630.136
580.5486, 1622.340
581.0307, 1603.084
581.5128, 1594.829
581.9949, 1602.035
582.4771, 1613.653
582.9592, 1617.850
583.4413, 1615.857
583.9234, 1610.704
584.4055, 1598.629
584.8876, 1587.942
585.3698, 1587.611
585.8519, 1595.480
586.3340, 1599.655
586.8161, 1575.624
587.2982, 1586.261
587.7803, 1592.261
588.2625, 1593.873
588.7446, 1577.955
589.2267, 1584.673
589.7088, 1582.320
590.1909, 1579.595
590.6730, 1589.499
591.1552, 1576.131
591.6373, 1585.835
592.1194, 1586.329
592.6015, 1591.038
593.0836, 1586.620
593.5657, 1585.021
594.0479, 1592.552
594.5300, 1595.028
595.0121, 1589.559
595.4942, 1594.536
595.9763, 1580.849
596.4584, 1575.125
596.9406, 1586.143
597.4227, 1592.522
597.9048, 1594.515
598.3869, 1578.977
598.8690, 1586.075
599.3511, 1584.102
599.8333, 1581.757
600.3154, 1592.042
600.7975, 1579.053
601.2796, 1589.137
601.7617, 1590.012
602.2438, 1595.101
602.7260, 1591.063
603.2081, 1589.844
603.6902, 1597.755
604.1723, 1600.611
604.6544, 1595.522
605.1365, 1600.879
605.6187, 1587.572
606.1008, 1590.643
606.5829, 1600.781
607.0650, 1596.151
607.5471, 1601.675
608.0292, 1603.332
608.5114, 1587.413
608.9935, 1602.060
609.4756, 1603.488
609.9577, 1591.344
610.4398, 1604.944
610.9219, 1594.671
611.4041, 1592.919
611.8862, 1597.579
612.3683, 1595.555
612.8504, 1604.070
613.3325, 1602.432
613.8146, 1599.886
614.2968, 1601.300
614.7789, 1591.495
615.2610, 1602.503
615.7431, 1599.293
616.2252, 1603.151
616.7073, 1608.610
617.1895, 1601.805
617.6716, 1607.984
618.1537, 1594.027
618.6358, 1596.919
619.1179, 1597.996
619.6000, 1609.843
620.0822, 1595.984
620.5643, 1598.408
621.0464, 1607.764
621.5285, 1607.420
622.0106, 1611.132
622.4927, 1602.836
622.9749, 1605.821
