##NAMES=Xenotime-(Y)
##RRUFFID=R120080
##IDEAL CHEMISTRY=Y^3+^PO_4_
##LOCALITY=Clora May mine, Chaffee County, Colorado, USA
##OWNER=RRUFF
##SOURCE=Rudy Bolona
##DESCRIPTION=Yellow-brown massive
##STATUS=The identification of this mineral has been confirmed only by single crystal X-ray diffraction.
##URL=rruff.info/R120080
9.001007e+001, 0.000000e+000
9.049219e+001, 3.979232e+001
9.097430e+001, 4.027129e+001
9.145642e+001, 4.008467e+001
9.193854e+001, 3.930467e+001
9.242065e+001, 3.853307e+001
9.290277e+001, 3.835858e+001
9.338489e+001, 3.856209e+001
9.386700e+001, 3.863804e+001
9.434912e+001, 3.840742e+001
9.483124e+001, 3.793987e+001
9.531335e+001, 3.740065e+001
9.579547e+001, 3.679966e+001
9.627759e+001, 3.603291e+001
9.675970e+001, 3.487389e+001
9.724182e+001, 3.335421e+001
9.772394e+001, 3.185443e+001
9.820605e+001, 3.042815e+001
9.868817e+001, 2.909283e+001
9.917029e+001, 2.814369e+001
9.965240e+001, 2.761080e+001
1.001345e+002, 2.740546e+001
1.006166e+002, 2.747509e+001
1.010988e+002, 2.791432e+001
1.015809e+002, 2.821646e+001
1.020630e+002, 2.799233e+001
1.025451e+002, 2.706102e+001
1.030272e+002, 2.652391e+001
1.035093e+002, 2.656767e+001
1.039915e+002, 2.704269e+001
1.044736e+002, 2.733132e+001
1.049557e+002, 2.740043e+001
1.054378e+002, 2.732623e+001
1.059199e+002, 2.714568e+001
1.064020e+002, 2.678650e+001
1.068842e+002, 2.645130e+001
1.073663e+002, 2.615954e+001
1.078484e+002, 2.591389e+001
1.083305e+002, 2.568828e+001
1.088126e+002, 2.539937e+001
1.092947e+002, 2.517997e+001
1.097769e+002, 2.515364e+001
1.102590e+002, 2.559622e+001
1.107411e+002, 2.595237e+001
1.112232e+002, 2.609505e+001
1.117053e+002, 2.596279e+001
1.121874e+002, 2.588202e+001
1.126696e+002, 2.599570e+001
1.131517e+002, 2.614151e+001
1.136338e+002, 2.610915e+001
1.141159e+002, 2.570733e+001
1.145980e+002, 2.525473e+001
1.150801e+002, 2.484107e+001
1.155623e+002, 2.444872e+001
1.160444e+002, 2.417417e+001
1.165265e+002, 2.404977e+001
1.170086e+002, 2.406016e+001
1.174907e+002, 2.417765e+001
1.179728e+002, 2.455871e+001
1.184550e+002, 2.494159e+001
1.189371e+002, 2.514663e+001
1.194192e+002, 2.503058e+001
1.199013e+002, 2.489443e+001
1.203834e+002, 2.485683e+001
1.208655e+002, 2.491650e+001
1.213477e+002, 2.506913e+001
1.218298e+002, 2.548587e+001
1.223119e+002, 2.593167e+001
1.227940e+002, 2.614720e+001
1.232761e+002, 2.590551e+001
1.237582e+002, 2.553801e+001
1.242404e+002, 2.530973e+001
1.247225e+002, 2.521353e+001
1.252046e+002, 2.516089e+001
1.256867e+002, 2.508943e+001
1.261688e+002, 2.501436e+001
1.266509e+002, 2.496394e+001
1.271331e+002, 2.491187e+001
1.276152e+002, 2.490356e+001
1.280973e+002, 2.504904e+001
1.285794e+002, 2.536094e+001
1.290615e+002, 2.567338e+001
1.295436e+002, 2.577425e+001
1.300258e+002, 2.570971e+001
1.305079e+002, 2.567974e+001
1.309900e+002, 2.580319e+001
1.314721e+002, 2.603425e+001
1.319542e+002, 2.624377e+001
1.324363e+002, 2.643106e+001
1.329185e+002, 2.658506e+001
1.334006e+002, 2.669167e+001
1.338827e+002, 2.675112e+001
1.343648e+002, 2.676260e+001
1.348469e+002, 2.669827e+001
1.353290e+002, 2.656594e+001
1.358112e+002, 2.647205e+001
1.362933e+002, 2.641457e+001
1.367754e+002, 2.641191e+001
1.372575e+002, 2.652357e+001
1.377396e+002, 2.676824e+001
1.382217e+002, 2.704912e+001
1.387039e+002, 2.735011e+001
1.391860e+002, 2.769616e+001
1.396681e+002, 2.787170e+001
1.401502e+002, 2.779624e+001
1.406323e+002, 2.754249e+001
1.411144e+002, 2.744194e+001
1.415966e+002, 2.755985e+001
1.420787e+002, 2.770632e+001
1.425608e+002, 2.769847e+001
1.430429e+002, 2.741466e+001
1.435250e+002, 2.732666e+001
1.440071e+002, 2.756442e+001
1.444893e+002, 2.810984e+001
1.449714e+002, 2.856971e+001
1.454535e+002, 2.896982e+001
1.459356e+002, 2.925510e+001
1.464177e+002, 2.933805e+001
1.468998e+002, 2.899025e+001
1.473820e+002, 2.880759e+001
1.478641e+002, 2.899182e+001
1.483462e+002, 2.963925e+001
1.488283e+002, 2.996304e+001
1.493104e+002, 2.973255e+001
1.497925e+002, 2.928863e+001
1.502747e+002, 2.901678e+001
1.507568e+002, 2.882829e+001
1.512389e+002, 2.890796e+001
1.517210e+002, 2.944702e+001
1.522031e+002, 3.076954e+001
1.526852e+002, 3.151285e+001
1.531674e+002, 3.123017e+001
1.536495e+002, 3.045449e+001
1.541316e+002, 2.995762e+001
1.546137e+002, 3.002722e+001
1.550958e+002, 3.018570e+001
1.555779e+002, 3.023688e+001
1.560601e+002, 2.997082e+001
1.565422e+002, 3.005634e+001
1.570243e+002, 3.078390e+001
1.575064e+002, 3.191885e+001
1.579885e+002, 3.300690e+001
1.584706e+002, 3.379293e+001
1.589528e+002, 3.462547e+001
1.594349e+002, 3.568038e+001
1.599170e+002, 3.709928e+001
1.603991e+002, 3.853775e+001
1.608812e+002, 3.968316e+001
1.613633e+002, 4.074754e+001
1.618455e+002, 4.228746e+001
1.623276e+002, 4.473519e+001
1.628097e+002, 4.756181e+001
1.632918e+002, 5.047018e+001
1.637739e+002, 5.319949e+001
1.642560e+002, 5.623303e+001
1.647382e+002, 5.972640e+001
1.652203e+002, 6.368028e+001
1.657024e+002, 6.809714e+001
1.661845e+002, 7.307946e+001
1.666666e+002, 7.850340e+001
1.671487e+002, 8.419057e+001
1.676309e+002, 9.006741e+001
1.681130e+002, 9.630846e+001
1.685951e+002, 1.030559e+002
1.690772e+002, 1.102796e+002
1.695593e+002, 1.176332e+002
1.700414e+002, 1.249623e+002
1.705236e+002, 1.323222e+002
1.710057e+002, 1.396759e+002
1.714878e+002, 1.470074e+002
1.719699e+002, 1.544429e+002
1.724520e+002, 1.621806e+002
1.729341e+002, 1.702075e+002
1.734163e+002, 1.779249e+002
1.738984e+002, 1.848094e+002
1.743805e+002, 1.911596e+002
1.748626e+002, 1.972671e+002
1.753447e+002, 2.033467e+002
1.758268e+002, 2.093092e+002
1.763090e+002, 2.150632e+002
1.767911e+002, 2.205585e+002
1.772732e+002, 2.259124e+002
1.777553e+002, 2.302368e+002
1.782374e+002, 2.334105e+002
1.787195e+002, 2.362439e+002
1.792017e+002, 2.388161e+002
1.796838e+002, 2.414156e+002
1.801659e+002, 2.444377e+002
1.806480e+002, 2.479224e+002
1.811301e+002, 2.516657e+002
1.816122e+002, 2.554480e+002
1.820944e+002, 2.593644e+002
1.825765e+002, 2.636324e+002
1.830586e+002, 2.685642e+002
1.835407e+002, 2.738775e+002
1.840228e+002, 2.792033e+002
1.845049e+002, 2.844725e+002
1.849871e+002, 2.898482e+002
1.854692e+002, 2.953230e+002
1.859513e+002, 3.009762e+002
1.864334e+002, 3.069589e+002
1.869155e+002, 3.138069e+002
1.873976e+002, 3.211225e+002
1.878798e+002, 3.275866e+002
1.883619e+002, 3.330232e+002
1.888440e+002, 3.380542e+002
1.893261e+002, 3.434850e+002
1.898082e+002, 3.493164e+002
1.902903e+002, 3.549214e+002
1.907725e+002, 3.601288e+002
1.912546e+002, 3.649557e+002
1.917367e+002, 3.689503e+002
1.922188e+002, 3.720046e+002
1.927009e+002, 3.745424e+002
1.931830e+002, 3.769606e+002
1.936652e+002, 3.792407e+002
1.941473e+002, 3.819653e+002
1.946294e+002, 3.858212e+002
1.951115e+002, 3.906650e+002
1.955936e+002, 3.945586e+002
1.960757e+002, 3.972203e+002
1.965579e+002, 3.992003e+002
1.970400e+002, 4.015953e+002
1.975221e+002, 4.044627e+002
1.980042e+002, 4.071327e+002
1.984863e+002, 4.091649e+002
1.989684e+002, 4.105445e+002
1.994506e+002, 4.120049e+002
1.999327e+002, 4.135381e+002
2.004148e+002, 4.152275e+002
2.008969e+002, 4.173144e+002
2.013790e+002, 4.198906e+002
2.018611e+002, 4.224918e+002
2.023433e+002, 4.248539e+002
2.028254e+002, 4.269629e+002
2.033075e+002, 4.289982e+002
2.037896e+002, 4.308306e+002
2.042717e+002, 4.326913e+002
2.047538e+002, 4.353086e+002
2.052360e+002, 4.388990e+002
2.057181e+002, 4.424160e+002
2.062002e+002, 4.451332e+002
2.066823e+002, 4.468904e+002
2.071644e+002, 4.488701e+002
2.076465e+002, 4.512491e+002
2.081287e+002, 4.538475e+002
2.086108e+002, 4.561718e+002
2.090929e+002, 4.581217e+002
2.095750e+002, 4.600716e+002
2.100571e+002, 4.623553e+002
2.105392e+002, 4.651822e+002
2.110214e+002, 4.673830e+002
2.115035e+002, 4.686912e+002
2.119856e+002, 4.693674e+002
2.124677e+002, 4.704290e+002
2.129498e+002, 4.721477e+002
2.134319e+002, 4.736812e+002
2.139140e+002, 4.743330e+002
2.143962e+002, 4.736373e+002
2.148783e+002, 4.738155e+002
2.153604e+002, 4.752969e+002
2.158425e+002, 4.777616e+002
2.163246e+002, 4.798743e+002
2.168067e+002, 4.815714e+002
2.172889e+002, 4.830717e+002
2.177710e+002, 4.845287e+002
2.182531e+002, 4.859855e+002
2.187352e+002, 4.872370e+002
2.192173e+002, 4.881634e+002
2.196994e+002, 4.888712e+002
2.201816e+002, 4.898597e+002
2.206637e+002, 4.912741e+002
2.211458e+002, 4.927171e+002
2.216279e+002, 4.939088e+002
2.221100e+002, 4.947503e+002
2.225921e+002, 4.955974e+002
2.230743e+002, 4.963955e+002
2.235564e+002, 4.972173e+002
2.240385e+002, 4.985158e+002
2.245206e+002, 5.005505e+002
2.250027e+002, 5.026258e+002
2.254848e+002, 5.042650e+002
2.259670e+002, 5.051628e+002
2.264491e+002, 5.063983e+002
2.269312e+002, 5.082954e+002
2.274133e+002, 5.106254e+002
2.278954e+002, 5.123025e+002
2.283775e+002, 5.129705e+002
2.288597e+002, 5.134695e+002
2.293418e+002, 5.142479e+002
2.298239e+002, 5.152415e+002
2.303060e+002, 5.166882e+002
2.307881e+002, 5.188836e+002
2.312702e+002, 5.215709e+002
2.317524e+002, 5.233804e+002
2.322345e+002, 5.237340e+002
2.327166e+002, 5.239737e+002
2.331987e+002, 5.249482e+002
2.336808e+002, 5.272267e+002
2.341629e+002, 5.289357e+002
2.346451e+002, 5.298475e+002
2.351272e+002, 5.300903e+002
2.356093e+002, 5.302476e+002
2.360914e+002, 5.303040e+002
2.365735e+002, 5.302973e+002
2.370556e+002, 5.302103e+002
2.375378e+002, 5.298652e+002
2.380199e+002, 5.298671e+002
2.385020e+002, 5.304028e+002
2.389841e+002, 5.313294e+002
2.394662e+002, 5.320161e+002
2.399483e+002, 5.323436e+002
2.404305e+002, 5.326288e+002
2.409126e+002, 5.330594e+002
2.413947e+002, 5.337596e+002
2.418768e+002, 5.343971e+002
2.423589e+002, 5.351678e+002
2.428410e+002, 5.358644e+002
2.433232e+002, 5.356096e+002
2.438053e+002, 5.336145e+002
2.442874e+002, 5.317476e+002
2.447695e+002, 5.309971e+002
2.452516e+002, 5.318217e+002
2.457337e+002, 5.327048e+002
2.462159e+002, 5.336819e+002
2.466980e+002, 5.346629e+002
2.471801e+002, 5.353520e+002
2.476622e+002, 5.356602e+002
2.481443e+002, 5.358005e+002
2.486264e+002, 5.358864e+002
2.491086e+002, 5.360070e+002
2.495907e+002, 5.358429e+002
2.500728e+002, 5.353035e+002
2.505549e+002, 5.345064e+002
2.510370e+002, 5.337262e+002
2.515191e+002, 5.328492e+002
2.520013e+002, 5.321887e+002
2.524834e+002, 5.319844e+002
2.529655e+002, 5.326622e+002
2.534476e+002, 5.326754e+002
2.539297e+002, 5.317303e+002
2.544118e+002, 5.302628e+002
2.548940e+002, 5.292394e+002
2.553761e+002, 5.288616e+002
2.558582e+002, 5.285651e+002
2.563403e+002, 5.281010e+002
2.568224e+002, 5.273749e+002
2.573046e+002, 5.267469e+002
2.577867e+002, 5.261365e+002
2.582688e+002, 5.256620e+002
2.587509e+002, 5.256897e+002
2.592330e+002, 5.266427e+002
2.597151e+002, 5.272079e+002
2.601973e+002, 5.267130e+002
2.606794e+002, 5.247992e+002
2.611615e+002, 5.234921e+002
2.616436e+002, 5.229940e+002
2.621257e+002, 5.229461e+002
2.626078e+002, 5.227355e+002
2.630900e+002, 5.222505e+002
2.635721e+002, 5.219089e+002
2.640542e+002, 5.219016e+002
2.645363e+002, 5.222988e+002
2.650184e+002, 5.226614e+002
2.655005e+002, 5.230501e+002
2.659827e+002, 5.233654e+002
2.664648e+002, 5.233433e+002
2.669469e+002, 5.227189e+002
2.674290e+002, 5.225626e+002
2.679111e+002, 5.234623e+002
2.683932e+002, 5.255317e+002
2.688754e+002, 5.265146e+002
2.693575e+002, 5.260263e+002
2.698396e+002, 5.250231e+002
2.703217e+002, 5.247364e+002
2.708038e+002, 5.253211e+002
2.712859e+002, 5.259587e+002
2.717681e+002, 5.263381e+002
2.722502e+002, 5.264731e+002
2.727323e+002, 5.270984e+002
2.732144e+002, 5.282866e+002
2.736965e+002, 5.297890e+002
2.741786e+002, 5.314884e+002
2.746608e+002, 5.335272e+002
2.751429e+002, 5.350446e+002
2.756250e+002, 5.356464e+002
2.761071e+002, 5.354962e+002
2.765892e+002, 5.358665e+002
2.770714e+002, 5.368336e+002
2.775535e+002, 5.380916e+002
2.780356e+002, 5.394219e+002
2.785177e+002, 5.408388e+002
2.789998e+002, 5.421501e+002
2.794819e+002, 5.433058e+002
2.799641e+002, 5.443280e+002
2.804462e+002, 5.452416e+002
2.809283e+002, 5.460234e+002
2.814104e+002, 5.467977e+002
2.818925e+002, 5.477379e+002
2.823746e+002, 5.488512e+002
2.828568e+002, 5.497158e+002
2.833389e+002, 5.500920e+002
2.838210e+002, 5.503309e+002
2.843031e+002, 5.515446e+002
2.847852e+002, 5.538508e+002
2.852673e+002, 5.563004e+002
2.857495e+002, 5.582773e+002
2.862316e+002, 5.598174e+002
2.867137e+002, 5.612264e+002
2.871958e+002, 5.624782e+002
2.876779e+002, 5.637302e+002
2.881600e+002, 5.652986e+002
2.886422e+002, 5.671838e+002
2.891243e+002, 5.692670e+002
2.896064e+002, 5.713342e+002
2.900885e+002, 5.734623e+002
2.905706e+002, 5.761511e+002
2.910527e+002, 5.796262e+002
2.915349e+002, 5.831867e+002
2.920170e+002, 5.856327e+002
2.924991e+002, 5.870101e+002
2.929812e+002, 5.881775e+002
2.934633e+002, 5.895595e+002
2.939454e+002, 5.910801e+002
2.944276e+002, 5.926154e+002
2.949097e+002, 5.942312e+002
2.953918e+002, 5.954828e+002
2.958739e+002, 5.955670e+002
2.963560e+002, 5.946879e+002
2.968381e+002, 5.938018e+002
2.973203e+002, 5.933448e+002
2.978024e+002, 5.932045e+002
2.982845e+002, 5.933792e+002
2.987666e+002, 5.939430e+002
2.992487e+002, 5.940746e+002
2.997308e+002, 5.924581e+002
3.002130e+002, 5.896599e+002
3.006951e+002, 5.873377e+002
3.011772e+002, 5.865182e+002
3.016593e+002, 5.863737e+002
3.021414e+002, 5.857565e+002
3.026235e+002, 5.846757e+002
3.031057e+002, 5.833734e+002
3.035878e+002, 5.820372e+002
3.040699e+002, 5.806278e+002
3.045520e+002, 5.790654e+002
3.050341e+002, 5.769705e+002
3.055162e+002, 5.750458e+002
3.059984e+002, 5.742140e+002
3.064805e+002, 5.743471e+002
3.069626e+002, 5.745101e+002
3.074447e+002, 5.742050e+002
3.079268e+002, 5.735093e+002
3.084089e+002, 5.724393e+002
3.088911e+002, 5.706212e+002
3.093732e+002, 5.690181e+002
3.098553e+002, 5.686125e+002
3.103374e+002, 5.691269e+002
3.108195e+002, 5.696180e+002
3.113016e+002, 5.696431e+002
3.117838e+002, 5.693535e+002
3.122659e+002, 5.687889e+002
3.127480e+002, 5.677422e+002
3.132301e+002, 5.669372e+002
3.137122e+002, 5.669175e+002
3.141943e+002, 5.674435e+002
3.146765e+002, 5.680153e+002
3.151586e+002, 5.686435e+002
3.156407e+002, 5.690827e+002
3.161228e+002, 5.691170e+002
3.166049e+002, 5.686269e+002
3.170870e+002, 5.681355e+002
3.175692e+002, 5.679335e+002
3.180513e+002, 5.678633e+002
3.185334e+002, 5.677052e+002
3.190155e+002, 5.674789e+002
3.194976e+002, 5.670754e+002
3.199797e+002, 5.662333e+002
3.204619e+002, 5.648599e+002
3.209440e+002, 5.640466e+002
3.214261e+002, 5.648021e+002
3.219082e+002, 5.659728e+002
3.223903e+002, 5.664618e+002
3.228724e+002, 5.652568e+002
3.233546e+002, 5.641204e+002
3.238367e+002, 5.636601e+002
3.243188e+002, 5.638470e+002
3.248009e+002, 5.636609e+002
3.252830e+002, 5.621151e+002
3.257651e+002, 5.606631e+002
3.262473e+002, 5.602538e+002
3.267294e+002, 5.621785e+002
3.272115e+002, 5.637811e+002
3.276936e+002, 5.647037e+002
3.281757e+002, 5.650769e+002
3.286578e+002, 5.655624e+002
3.291400e+002, 5.662024e+002
3.296221e+002, 5.669517e+002
3.301042e+002, 5.678156e+002
3.305863e+002, 5.689913e+002
3.310684e+002, 5.699786e+002
3.315505e+002, 5.708907e+002
3.320327e+002, 5.715793e+002
3.325148e+002, 5.716701e+002
3.329969e+002, 5.707367e+002
3.334790e+002, 5.697272e+002
3.339611e+002, 5.688956e+002
3.344432e+002, 5.682049e+002
3.349254e+002, 5.677575e+002
3.354075e+002, 5.675527e+002
3.358896e+002, 5.675650e+002
3.363717e+002, 5.678551e+002
3.368538e+002, 5.686685e+002
3.373359e+002, 5.691066e+002
3.378180e+002, 5.686914e+002
3.383001e+002, 5.674522e+002
3.387823e+002, 5.671871e+002
3.392644e+002, 5.681514e+002
3.397465e+002, 5.696133e+002
3.402286e+002, 5.709554e+002
3.407107e+002, 5.721915e+002
3.411928e+002, 5.732191e+002
3.416750e+002, 5.739266e+002
3.421571e+002, 5.744433e+002
3.426392e+002, 5.752667e+002
3.431213e+002, 5.764726e+002
3.436034e+002, 5.776530e+002
3.440855e+002, 5.784631e+002
3.445677e+002, 5.789176e+002
3.450498e+002, 5.794313e+002
3.455319e+002, 5.799232e+002
3.460140e+002, 5.807064e+002
3.464961e+002, 5.827615e+002
3.469782e+002, 5.860169e+002
3.474604e+002, 5.888866e+002
3.479425e+002, 5.897944e+002
3.484246e+002, 5.894740e+002
3.489067e+002, 5.907646e+002
3.493888e+002, 5.940175e+002
3.498709e+002, 5.978746e+002
3.503531e+002, 6.006535e+002
3.508352e+002, 6.026211e+002
3.513173e+002, 6.047598e+002
3.517994e+002, 6.075643e+002
3.522815e+002, 6.107942e+002
3.527636e+002, 6.140062e+002
3.532458e+002, 6.171949e+002
3.537279e+002, 6.206794e+002
3.542100e+002, 6.251934e+002
3.546921e+002, 6.301110e+002
3.551742e+002, 6.342836e+002
3.556563e+002, 6.368483e+002
3.561385e+002, 6.391193e+002
3.566206e+002, 6.422852e+002
3.571027e+002, 6.462675e+002
3.575848e+002, 6.505786e+002
3.580669e+002, 6.552686e+002
3.585490e+002, 6.600216e+002
3.590312e+002, 6.644296e+002
3.595133e+002, 6.681806e+002
3.599954e+002, 6.722423e+002
3.604775e+002, 6.778606e+002
3.609596e+002, 6.842357e+002
3.614417e+002, 6.895737e+002
3.619239e+002, 6.916561e+002
3.624060e+002, 6.937258e+002
3.628881e+002, 6.976641e+002
3.633702e+002, 7.039298e+002
3.638523e+002, 7.106620e+002
3.643344e+002, 7.175286e+002
3.648166e+002, 7.244505e+002
3.652987e+002, 7.313958e+002
3.657808e+002, 7.383603e+002
3.662629e+002, 7.451599e+002
3.667450e+002, 7.517334e+002
3.672271e+002, 7.580784e+002
3.677093e+002, 7.642373e+002
3.681914e+002, 7.699056e+002
3.686735e+002, 7.755726e+002
3.691556e+002, 7.816010e+002
3.696377e+002, 7.879518e+002
3.701198e+002, 7.945749e+002
3.706020e+002, 8.023207e+002
3.710841e+002, 8.104485e+002
3.715662e+002, 8.162162e+002
3.720483e+002, 8.182018e+002
3.725304e+002, 8.194717e+002
3.730125e+002, 8.214955e+002
3.734947e+002, 8.253143e+002
3.739768e+002, 8.267187e+002
3.744589e+002, 8.249484e+002
3.749410e+002, 8.213883e+002
3.754231e+002, 8.183426e+002
3.759052e+002, 8.162008e+002
3.763874e+002, 8.134514e+002
3.768695e+002, 8.095505e+002
3.773516e+002, 8.044901e+002
3.778337e+002, 7.996417e+002
3.783158e+002, 7.949888e+002
3.787979e+002, 7.904686e+002
3.792801e+002, 7.860938e+002
3.797622e+002, 7.818369e+002
3.802443e+002, 7.776436e+002
3.807264e+002, 7.733914e+002
3.812085e+002, 7.692308e+002
3.816906e+002, 7.653919e+002
3.821728e+002, 7.618725e+002
3.826549e+002, 7.589711e+002
3.831370e+002, 7.571262e+002
3.836191e+002, 7.561132e+002
3.841012e+002, 7.550718e+002
3.845833e+002, 7.537891e+002
3.850655e+002, 7.527899e+002
3.855476e+002, 7.529721e+002
3.860297e+002, 7.540833e+002
3.865118e+002, 7.552257e+002
3.869939e+002, 7.559015e+002
3.874760e+002, 7.563896e+002
3.879582e+002, 7.571219e+002
3.884403e+002, 7.581215e+002
3.889224e+002, 7.591673e+002
3.894045e+002, 7.599831e+002
3.898866e+002, 7.607608e+002
3.903687e+002, 7.618044e+002
3.908509e+002, 7.635856e+002
3.913330e+002, 7.652670e+002
3.918151e+002, 7.659764e+002
3.922972e+002, 7.659964e+002
3.927793e+002, 7.664694e+002
3.932614e+002, 7.683847e+002
3.937436e+002, 7.706891e+002
3.942257e+002, 7.725705e+002
3.947078e+002, 7.734979e+002
3.951899e+002, 7.749106e+002
3.956720e+002, 7.776390e+002
3.961541e+002, 7.811070e+002
3.966363e+002, 7.843916e+002
3.971184e+002, 7.872045e+002
3.976005e+002, 7.898486e+002
3.980826e+002, 7.925215e+002
3.985647e+002, 7.952959e+002
3.990468e+002, 7.975204e+002
3.995290e+002, 7.983720e+002
4.000111e+002, 7.990734e+002
4.004932e+002, 8.006185e+002
4.009753e+002, 8.038583e+002
4.014574e+002, 8.068321e+002
4.019395e+002, 8.094619e+002
4.024217e+002, 8.117155e+002
4.029038e+002, 8.132880e+002
4.033859e+002, 8.137166e+002
4.038680e+002, 8.141528e+002
4.043501e+002, 8.152753e+002
4.048322e+002, 8.174722e+002
4.053144e+002, 8.188837e+002
4.057965e+002, 8.191937e+002
4.062786e+002, 8.190739e+002
4.067607e+002, 8.196541e+002
4.072428e+002, 8.210702e+002
4.077249e+002, 8.224852e+002
4.082071e+002, 8.239305e+002
4.086892e+002, 8.252010e+002
4.091713e+002, 8.244598e+002
4.096534e+002, 8.213583e+002
4.101355e+002, 8.182250e+002
4.106176e+002, 8.174233e+002
4.110998e+002, 8.185789e+002
4.115819e+002, 8.194511e+002
4.120640e+002, 8.193112e+002
4.125461e+002, 8.191909e+002
4.130282e+002, 8.212147e+002
4.135103e+002, 8.250280e+002
4.139925e+002, 8.285777e+002
4.144746e+002, 8.301402e+002
4.149567e+002, 8.308803e+002
4.154388e+002, 8.323608e+002
4.159209e+002, 8.346666e+002
4.164030e+002, 8.381686e+002
