##NAMES=Xenotime-(Y)
##RRUFFID=R050178
##IDEAL CHEMISTRY=Y^3+^PO_4_
##LOCALITY=Novo Horizonte, Bahia, Brazil
##OWNER=RRUFF
##SOURCE=Marcus Origlieri
##DESCRIPTION=Brown crystal fragments
##STATUS=The identification of this mineral has been confirmed by X-ray diffraction and chemical analysis
##URL=rruff.info/R050178
##MEASURED CHEMISTRY=(Y_0.74_Dy_0.09_Gd_0.06_Er_0.04_Yb_0.02_Ho_0.01_Tb_0.01_Sm_0.01_Eu_0.01_)_Σ=1.00_(P_0.97_As_0.02_Si_0.01_)_Σ=1.00_O_4_
115.4706, 1024.723
115.9528, 1067.576
116.4349, 1109.583
116.9170, 1153.858
117.3991, 1202.812
117.8812, 1250.185
118.3633, 1293.954
118.8455, 1334.664
119.3276, 1373.216
119.8097, 1411.156
120.2918, 1446.970
120.7739, 1478.799
121.2560, 1504.813
121.7382, 1530.189
122.2203, 1560.934
122.7024, 1594.519
123.1845, 1622.489
123.6666, 1632.837
124.1487, 1637.074
124.6309, 1649.266
125.1130, 1676.680
125.5951, 1709.432
126.0772, 1737.872
126.5593, 1762.406
127.0414, 1786.694
127.5236, 1812.571
128.0057, 1840.178
128.4878, 1870.527
128.9699, 1903.559
129.4520, 1939.372
129.9341, 1978.630
130.4162, 2021.427
130.8984, 2065.492
131.3805, 2110.422
131.8626, 2155.452
132.3447, 2196.585
132.8268, 2228.283
133.3089, 2254.214
133.7911, 2285.169
134.2732, 2315.965
134.7553, 2341.845
135.2374, 2359.168
135.7195, 2368.049
136.2016, 2378.899
136.6838, 2398.835
137.1659, 2427.535
137.6480, 2448.087
138.1301, 2459.109
138.6122, 2464.828
139.0943, 2473.208
139.5765, 2485.191
140.0586, 2495.975
140.5407, 2502.743
141.0228, 2504.476
141.5049, 2507.730
141.9870, 2512.837
142.4692, 2519.494
142.9513, 2526.974
143.4334, 2535.849
143.9155, 2544.473
144.3976, 2551.333
144.8797, 2553.526
145.3619, 2560.795
145.8440, 2574.441
146.3261, 2593.667
146.8082, 2613.910
147.2903, 2637.097
147.7724, 2659.408
148.2546, 2678.766
148.7367, 2693.625
149.2188, 2707.751
149.7009, 2721.144
150.1830, 2733.856
150.6651, 2746.337
151.1473, 2755.433
151.6294, 2766.247
152.1115, 2782.273
152.5936, 2813.928
153.0757, 2839.550
153.5578, 2853.580
154.0400, 2855.045
154.5221, 2861.046
155.0042, 2876.976
155.4863, 2895.727
155.9684, 2911.112
156.4505, 2921.463
156.9327, 2929.406
157.4148, 2935.556
157.8969, 2939.897
158.3790, 2942.146
158.8611, 2941.502
159.3432, 2939.009
159.8254, 2935.849
160.3075, 2930.736
160.7896, 2926.416
161.2717, 2924.039
161.7538, 2923.899
162.2359, 2924.820
162.7181, 2925.555
163.2002, 2927.352
163.6823, 2931.920
164.1644, 2945.225
164.6465, 2957.630
165.1286, 2962.919
165.6108, 2958.739
166.0929, 2954.188
166.5750, 2952.833
167.0571, 2954.142
167.5392, 2957.181
168.0213, 2963.104
168.5035, 2969.558
168.9856, 2974.473
169.4677, 2976.930
169.9498, 2979.625
170.4319, 2986.923
170.9140, 2996.114
171.3962, 3000.742
171.8783, 2991.066
172.3604, 2977.940
172.8425, 2973.572
173.3246, 2983.259
173.8067, 2994.592
174.2889, 2997.790
174.7710, 2993.966
175.2531, 2986.369
175.7352, 2975.670
176.2173, 2962.885
176.6994, 2949.758
177.1816, 2937.447
177.6637, 2923.269
178.1458, 2903.042
178.6279, 2877.550
179.1100, 2851.688
179.5921, 2827.651
180.0743, 2805.294
180.5564, 2785.005
181.0385, 2767.464
181.5206, 2750.694
182.0027, 2730.027
182.4848, 2706.212
182.9670, 2686.352
183.4491, 2676.545
183.9312, 2674.723
184.4133, 2675.695
184.8954, 2679.646
185.3775, 2684.309
185.8596, 2685.120
186.3418, 2682.131
186.8239, 2678.771
187.3060, 2678.491
187.7881, 2680.467
188.2702, 2680.996
188.7523, 2678.731
189.2345, 2674.867
189.7166, 2672.049
190.1987, 2670.294
190.6808, 2669.328
191.1629, 2669.174
191.6451, 2669.780
192.1272, 2670.080
192.6093, 2668.426
193.0914, 2666.961
193.5735, 2673.925
194.0556, 2690.443
194.5378, 2708.128
195.0199, 2717.681
195.5020, 2719.525
195.9841, 2723.641
196.4662, 2733.397
196.9483, 2747.172
197.4305, 2757.740
197.9126, 2764.445
198.3947, 2770.416
198.8768, 2778.194
199.3589, 2787.731
199.8410, 2799.076
200.3232, 2812.667
200.8053, 2827.994
201.2874, 2842.722
201.7695, 2856.647
202.2516, 2870.221
202.7337, 2884.388
203.2159, 2899.318
203.6980, 2912.346
204.1801, 2921.482
204.6622, 2927.586
205.1443, 2939.907
205.6264, 2960.501
206.1086, 2982.571
206.5907, 2997.936
207.0728, 3004.749
207.5549, 3014.056
208.0370, 3028.897
208.5191, 3048.979
209.0013, 3069.611
209.4834, 3091.331
209.9655, 3112.606
210.4476, 3130.639
210.9297, 3143.292
211.4118, 3160.580
211.8940, 3186.309
212.3761, 3220.237
212.8582, 3250.986
213.3403, 3277.412
213.8224, 3302.676
214.3045, 3329.711
214.7867, 3358.987
215.2688, 3389.490
215.7509, 3421.949
216.2330, 3456.063
216.7151, 3487.331
217.1972, 3513.022
217.6794, 3539.677
218.1615, 3575.409
218.6436, 3625.600
219.1257, 3671.286
219.6078, 3705.696
220.0899, 3729.034
220.5721, 3757.550
221.0542, 3792.668
221.5363, 3830.794
222.0184, 3867.351
222.5005, 3900.913
222.9826, 3937.228
223.4648, 3978.173
223.9469, 4024.411
224.4290, 4065.479
224.9111, 4100.554
225.3932, 4131.913
225.8753, 4162.028
226.3575, 4189.834
226.8396, 4218.458
227.3217, 4248.790
227.8038, 4281.308
228.2859, 4309.732
228.7680, 4331.788
229.2502, 4352.378
229.7323, 4376.557
230.2144, 4408.964
230.6965, 4435.919
231.1786, 4453.083
231.6607, 4460.486
232.1429, 4472.734
232.6250, 4493.284
233.1071, 4514.845
233.5892, 4529.824
234.0713, 4532.939
234.5534, 4540.094
235.0356, 4554.660
235.5177, 4576.278
235.9998, 4598.575
236.4819, 4622.920
236.9640, 4646.674
237.4461, 4667.392
237.9283, 4682.975
238.4104, 4699.479
238.8925, 4717.604
239.3746, 4737.383
239.8567, 4757.911
240.3388, 4778.452
240.8210, 4800.708
241.3031, 4826.729
241.7852, 4860.253
242.2673, 4889.603
242.7494, 4911.360
243.2315, 4926.514
243.7137, 4945.648
244.1958, 4971.459
244.6779, 4998.134
245.1600, 5021.550
245.6421, 5040.633
246.1242, 5058.677
246.6064, 5075.774
247.0885, 5092.059
247.5706, 5108.382
248.0527, 5124.481
248.5348, 5140.886
249.0169, 5158.524
249.4990, 5180.979
249.9812, 5196.818
250.4633, 5203.458
250.9454, 5202.629
251.4275, 5202.500
251.9096, 5203.987
252.3917, 5204.899
252.8739, 5204.150
253.3560, 5202.096
253.8381, 5197.235
254.3202, 5187.951
254.8023, 5175.843
255.2844, 5167.684
255.7666, 5166.783
256.2487, 5164.226
256.7308, 5154.582
257.2129, 5133.966
257.6950, 5116.769
258.1772, 5105.099
258.6593, 5096.562
259.1414, 5083.649
259.6235, 5062.667
260.1056, 5043.945
260.5877, 5033.209
261.0699, 5035.111
261.5520, 5030.262
262.0341, 5016.339
262.5162, 4996.996
262.9983, 4979.357
263.4804, 4963.720
263.9626, 4949.456
264.4447, 4936.307
264.9268, 4924.034
265.4089, 4913.513
265.8910, 4904.474
266.3731, 4897.430
266.8553, 4893.375
267.3374, 4893.087
267.8195, 4893.913
268.3016, 4895.019
268.7837, 4896.436
269.2658, 4898.546
269.7480, 4901.915
270.2301, 4905.262
270.7122, 4906.684
271.1943, 4905.960
271.6764, 4903.672
272.1585, 4897.215
272.6407, 4886.451
273.1228, 4890.243
273.6049, 4912.649
274.0870, 4941.700
274.5691, 4962.193
275.0512, 4971.177
275.5334, 4985.833
276.0155, 5012.247
276.4976, 5049.160
276.9797, 5082.931
277.4618, 5112.759
277.9439, 5141.651
278.4260, 5172.636
278.9081, 5205.787
279.3903, 5239.172
279.8724, 5270.914
280.3545, 5302.486
280.8366, 5343.094
281.3187, 5394.163
281.8008, 5448.370
282.2830, 5499.430
282.7651, 5547.309
283.2472, 5596.386
283.7293, 5647.089
284.2114, 5699.983
284.6935, 5755.423
285.1757, 5813.576
285.6578, 5874.776
286.1399, 5940.915
286.6220, 6011.449
287.1041, 6078.893
287.5862, 6141.010
288.0684, 6201.609
288.5505, 6267.236
289.0326, 6338.113
289.5147, 6412.081
289.9968, 6489.099
290.4789, 6568.839
290.9611, 6646.927
291.4432, 6723.189
291.9253, 6798.805
292.4074, 6877.249
292.8895, 6958.229
293.3716, 7031.557
293.8538, 7096.598
294.3359, 7150.794
294.8180, 7186.341
295.3001, 7202.605
295.7822, 7200.437
296.2643, 7173.419
296.7465, 7125.886
297.2286, 7077.392
297.7107, 7037.190
298.1928, 7001.438
298.6749, 6962.184
299.1570, 6919.076
299.6392, 6875.612
300.1213, 6833.381
300.6034, 6793.702
301.0855, 6761.753
301.5676, 6739.968
302.0497, 6726.087
302.5319, 6718.196
303.0140, 6716.052
303.4961, 6717.289
303.9782, 6720.760
304.4603, 6726.120
304.9424, 6732.785
305.4246, 6739.588
305.9067, 6748.650
306.3888, 6762.957
306.8709, 6781.712
307.3530, 6801.680
307.8351, 6821.706
308.3173, 6841.152
308.7994, 6858.669
309.2815, 6872.698
309.7636, 6887.854
310.2457, 6908.978
310.7278, 6934.489
311.2100, 6959.534
311.6921, 6978.923
312.1742, 6998.479
312.6563, 7024.271
313.1384, 7059.569
313.6205, 7092.323
314.1027, 7114.922
314.5848, 7130.587
315.0669, 7145.076
315.5490, 7160.212
316.0311, 7175.467
316.5132, 7190.292
316.9954, 7204.711
317.4775, 7218.577
317.9596, 7234.687
318.4417, 7249.042
318.9238, 7257.290
319.4059, 7251.196
319.8881, 7244.579
320.3702, 7244.415
320.8523, 7250.380
321.3344, 7252.155
321.8165, 7248.276
322.2986, 7238.103
322.7808, 7221.163
323.2629, 7188.804
323.7450, 7158.958
324.2271, 7137.534
324.7092, 7122.814
325.1913, 7104.573
325.6735, 7076.446
326.1556, 7048.202
326.6377, 7024.957
327.1198, 7011.789
327.6019, 6997.145
328.0840, 6978.426
328.5662, 6957.899
329.0483, 6940.620
329.5304, 6926.341
330.0125, 6915.838
330.4946, 6910.250
330.9767, 6912.443
331.4589, 6911.600
331.9410, 6907.745
332.4231, 6900.703
332.9052, 6889.552
333.3873, 6867.943
333.8694, 6851.667
334.3516, 6846.146
334.8337, 6852.240
335.3158, 6854.357
335.7979, 6849.069
336.2800, 6843.558
336.7621, 6844.590
337.2443, 6853.485
337.7264, 6865.327
338.2085, 6879.722
338.6906, 6896.448
339.1727, 6915.435
339.6548, 6937.772
340.1370, 6960.039
340.6191, 6979.353
341.1012, 6994.540
341.5833, 7013.410
342.0654, 7036.392
342.5475, 7063.513
343.0297, 7094.584
343.5118, 7129.245
343.9939, 7168.772
344.4760, 7213.862
344.9581, 7263.831
345.4402, 7318.103
345.9224, 7375.901
346.4045, 7438.746
346.8866, 7508.910
347.3687, 7586.484
347.8508, 7665.333
348.3329, 7740.048
348.8151, 7814.870
349.2972, 7901.394
349.7793, 7999.262
350.2614, 8107.897
350.7435, 8228.756
351.2256, 8358.771
351.7078, 8491.218
352.1899, 8621.595
352.6720, 8755.025
353.1541, 8899.808
353.6362, 9056.664
354.1183, 9221.943
354.6005, 9396.633
355.0826, 9576.743
355.5647, 9757.743
356.0468, 9935.865
356.5289, 10120.80
357.0110, 10327.59
357.4932, 10549.66
357.9753, 10771.66
358.4574, 10981.46
358.9395, 11191.22
359.4216, 11407.12
359.9037, 11629.60
360.3859, 11861.18
360.8680, 12103.59
361.3501, 12353.75
361.8322, 12606.77
362.3143, 12851.20
362.7964, 13106.90
363.2786, 13385.00
363.7607, 13684.23
364.2428, 13991.09
364.7249, 14291.45
365.2070, 14600.35
365.6891, 14927.36
366.1713, 15281.34
366.6534, 15646.02
367.1355, 16013.43
367.6176, 16387.53
368.0997, 16775.32
368.5818, 17197.10
369.0640, 17616.14
369.5461, 18025.37
370.0282, 18437.28
370.5103, 18813.11
370.9924, 19165.84
371.4745, 19480.05
371.9567, 19736.15
372.4388, 19927.69
372.9209, 20068.11
373.4030, 20168.57
373.8851, 20229.96
374.3672, 20202.50
374.8494, 20078.86
375.3315, 19875.23
375.8136, 19600.02
376.2957, 19236.85
376.7778, 18843.80
377.2599, 18422.79
377.7421, 17979.18
378.2242, 17531.81
378.7063, 17082.68
379.1884, 16636.07
379.6705, 16196.44
380.1526, 15760.02
380.6348, 15344.26
381.1169, 14949.22
381.5990, 14578.25
382.0811, 14228.16
382.5632, 13902.53
383.0453, 13607.98
383.5275, 13354.89
384.0096, 13135.39
384.4917, 12935.49
384.9738, 12755.42
385.4559, 12593.90
385.9380, 12450.02
386.4202, 12322.85
386.9023, 12209.06
387.3844, 12108.12
387.8665, 12017.59
388.3486, 11934.04
388.8307, 11857.72
389.3129, 11789.78
389.7950, 11728.61
390.2771, 11676.94
390.7592, 11638.49
391.2413, 11613.82
391.7234, 11601.66
392.2056, 11604.30
392.6877, 11618.56
393.1698, 11639.51
393.6519, 11660.05
394.1340, 11691.08
394.6161, 11739.17
395.0983, 11804.28
395.5804, 11878.95
396.0625, 11965.27
396.5446, 12057.43
397.0267, 12150.94
397.5089, 12233.79
397.9910, 12331.27
398.4731, 12449.58
398.9552, 12586.01
399.4373, 12732.42
399.9194, 12894.89
400.4016, 13061.76
400.8837, 13228.76
401.3658, 13399.11
401.8479, 13562.28
402.3300, 13719.46
402.8121, 13868.70
403.2942, 14007.34
403.7763, 14132.89
404.2585, 14253.77
404.7406, 14374.66
405.2227, 14493.96
405.7048, 14586.56
406.1869, 14646.02
406.6690, 14691.52
407.1512, 14737.70
407.6333, 14786.51
408.1154, 14819.33
408.5975, 14832.60
409.0796, 14831.65
409.5617, 14822.69
410.0439, 14805.29
410.5260, 14794.03
411.0081, 14795.65
411.4902, 14808.90
411.9723, 14824.21
412.4544, 14839.65
412.9366, 14874.29
413.4187, 14949.98
413.9008, 15061.23
414.3829, 15190.46
414.8650, 15333.92
415.3471, 15493.24
415.8293, 15663.81
416.3114, 15849.54
416.7935, 16061.70
417.2756, 16303.74
417.7577, 16578.53
418.2398, 16887.25
418.7220, 17235.82
419.2041, 17606.18
419.6862, 17992.33
420.1683, 18399.13
420.6504, 18821.99
421.1325, 19281.52
421.6147, 19747.95
422.0968, 20219.11
422.5789, 20697.04
423.0610, 21140.07
423.5431, 21567.10
424.0252, 21940.23
424.5074, 22242.62
424.9895, 22510.41
425.4716, 22646.50
425.9537, 22618.65
426.4358, 22455.91
426.9179, 22222.89
427.4001, 21911.73
427.8822, 21534.24
428.3643, 21082.70
428.8464, 20546.56
429.3285, 20005.90
429.8106, 19450.83
430.2928, 18906.64
430.7749, 18391.08
431.2570, 17908.10
431.7391, 17449.88
432.2212, 17016.38
432.7033, 16606.21
433.1855, 16210.74
433.6676, 15827.96
434.1497, 15477.75
434.6318, 15175.68
435.1139, 14918.11
435.5960, 14686.21
436.0782, 14478.40
436.5603, 14288.44
437.0424, 14106.71
437.5245, 13936.22
438.0066, 13791.03
438.4887, 13686.11
438.9709, 13601.51
439.4530, 13506.03
439.9351, 13403.00
440.4172, 13318.33
440.8993, 13276.60
441.3814, 13257.48
441.8636, 13237.68
442.3457, 13208.33
442.8278, 13192.36
443.3099, 13206.65
443.7920, 13242.47
444.2741, 13285.90
444.7563, 13333.60
445.2384, 13386.03
445.7205, 13440.81
446.2026, 13497.95
446.6847, 13568.43
447.1668, 13649.05
447.6490, 13746.37
448.1311, 13864.97
448.6132, 14013.43
449.0953, 14170.74
449.5774, 14327.05
450.0595, 14493.35
450.5417, 14693.68
451.0238, 14934.45
451.5059, 15194.19
451.9880, 15469.07
452.4701, 15762.09
452.9522, 16052.28
453.4344, 16339.83
453.9165, 16633.51
454.3986, 16948.97
454.8807, 17288.77
455.3628, 17625.42
455.8449, 17965.00
456.3271, 18290.17
456.8092, 18570.47
457.2913, 18808.55
457.7734, 19007.31
458.2555, 19169.50
458.7376, 19294.89
459.2198, 19380.91
459.7019, 19426.01
460.1840, 19452.89
460.6661, 19465.64
461.1482, 19477.13
461.6303, 19506.35
462.1125, 19548.76
462.5946, 19624.82
463.0767, 19748.35
463.5588, 19917.75
464.0409, 20125.92
464.5230, 20364.31
465.0052, 20642.26
465.4873, 20964.16
465.9694, 21330.54
466.4515, 21732.02
466.9336, 22167.18
467.4157, 22632.76
467.8979, 23125.60
468.3800, 23644.64
468.8621, 24192.06
469.3442, 24774.40
469.8263, 25382.95
470.3084, 25999.70
470.7906, 26626.04
471.2727, 27252.59
471.7548, 27878.39
472.2369, 28508.90
472.7190, 29121.94
473.2011, 29735.47
473.6833, 30318.08
474.1654, 30839.32
474.6475, 31299.26
475.1296, 31703.95
475.6117, 32066.23
476.0938, 32363.24
476.5760, 32540.68
477.0581, 32600.27
477.5402, 32550.39
478.0223, 32382.76
478.5044, 32111.71
478.9865, 31759.49
479.4687, 31326.13
479.9508, 30826.63
480.4329, 30263.52
480.9150, 29650.51
481.3971, 29009.95
481.8792, 28333.05
482.3614, 27647.33
482.8435, 26961.96
483.3256, 26283.21
483.8077, 25636.65
484.2898, 25046.65
484.7719, 24487.87
485.2541, 23947.51
485.7362, 23428.50
486.2183, 22932.49
486.7004, 22446.78
487.1825, 21991.65
487.6646, 21581.27
488.1468, 21238.00
488.6289, 20917.80
489.1110, 20616.88
489.5931, 20336.95
490.0752, 20073.13
490.5573, 19820.80
491.0395, 19594.65
491.5216, 19400.58
492.0037, 19237.63
492.4858, 19094.59
492.9679, 18968.79
493.4500, 18866.21
493.9322, 18797.75
494.4143, 18760.45
494.8964, 18738.26
495.3785, 18725.20
495.8606, 18729.47
496.3427, 18764.84
496.8249, 18828.24
497.3070, 18909.91
497.7891, 19002.90
498.2712, 19111.45
498.7533, 19240.48
499.2354, 19391.22
499.7176, 19552.80
500.1997, 19712.70
500.6818, 19883.70
501.1639, 20077.07
501.6460, 20300.89
502.1281, 20543.13
502.6103, 20803.20
503.0924, 21080.65
503.5745, 21370.01
504.0566, 21666.77
504.5387, 21976.33
505.0208, 22297.99
505.5030, 22630.56
505.9851, 22974.56
506.4672, 23328.36
506.9493, 23692.74
507.4314, 24069.09
507.9135, 24465.94
508.3957, 24856.13
508.8778, 25238.21
509.3599, 25616.69
509.8420, 26001.17
510.3241, 26389.68
510.8062, 26774.50
511.2884, 27150.66
511.7705, 27519.74
512.2526, 27880.48
512.7347, 28234.00
513.2168, 28575.32
513.6989, 28914.54
514.1810, 29234.37
514.6631, 29516.12
515.1453, 29762.13
515.6274, 29948.62
516.1095, 30040.62
516.5916, 30071.57
517.0737, 30086.07
517.5558, 30143.69
518.0380, 30142.07
518.5201, 30030.18
519.0022, 29823.11
519.4843, 29593.42
519.9664, 29379.03
520.4485, 29121.42
520.9307, 28799.86
521.4128, 28404.78
521.8949, 27978.40
522.3770, 27515.90
522.8591, 27027.31
523.3412, 26511.79
523.8234, 25969.77
524.3055, 25443.98
524.7876, 24947.89
525.2697, 24462.02
525.7518, 23941.60
526.2339, 23384.84
526.7161, 22843.89
527.1982, 22343.95
527.6803, 21878.57
528.1624, 21425.73
528.6445, 20981.96
529.1266, 20561.68
529.6088, 20179.59
530.0909, 19820.07
530.5730, 19465.00
531.0551, 19101.63
531.5372, 18755.06
532.0193, 18432.12
532.5015, 18129.75
532.9836, 17847.71
533.4657, 17595.47
533.9478, 17350.18
534.4299, 17097.30
534.9120, 16841.07
535.3942, 16600.64
535.8763, 16384.60
536.3584, 16182.91
536.8405, 15996.22
537.3226, 15830.66
537.8047, 15658.00
538.2869, 15475.83
538.7690, 15292.27
539.2511, 15118.01
539.7332, 14955.66
540.2153, 14798.17
540.6974, 14645.13
541.1796, 14498.08
541.6617, 14357.47
542.1438, 14223.88
542.6259, 14097.28
543.1080, 13978.87
543.5901, 13866.83
544.0723, 13754.92
544.5544, 13644.13
545.0365, 13545.92
545.5186, 13474.68
546.0007, 13418.34
546.4828, 13365.34
546.9650, 13314.52
547.4471, 13263.79
547.9292, 13199.65
548.4113, 13138.78
548.8934, 13104.24
549.3755, 13120.58
549.8577, 13141.43
550.3398, 13155.67
550.8219, 13166.23
551.3040, 13189.63
551.7861, 13233.96
552.2682, 13278.27
552.7504, 13309.10
553.2325, 13323.27
553.7146, 13364.29
554.1967, 13437.49
554.6788, 13521.11
555.1609, 13588.67
555.6431, 13643.15
556.1252, 13716.82
556.6073, 13817.70
557.0894, 13934.28
557.5715, 14052.26
558.0536, 14173.15
558.5358, 14301.75
559.0179, 14436.39
559.5000, 14581.78
559.9821, 14741.28
560.4642, 14914.50
560.9464, 15094.85
561.4285, 15282.06
561.9106, 15474.08
562.3927, 15668.82
562.8748, 15870.47
563.3569, 16065.48
563.8391, 16251.16
564.3212, 16430.64
564.8033, 16608.54
565.2854, 16786.76
565.7675, 16960.10
566.2496, 17129.81
566.7318, 17296.01
567.2139, 17457.95
567.6960, 17620.66
568.1781, 17757.18
568.6602, 17849.56
569.1423, 17908.42
569.6245, 17972.88
570.1066, 18043.50
570.5887, 18093.67
571.0708, 18098.73
571.5529, 18073.22
572.0350, 18039.97
572.5172, 18001.63
572.9993, 17954.96
573.4814, 17895.10
573.9635, 17825.94
574.4456, 17753.11
574.9277, 17670.76
575.4099, 17593.19
575.8920, 17521.49
576.3741, 17456.85
576.8562, 17402.10
577.3383, 17352.86
577.8204, 17318.47
578.3026, 17307.29
578.7847, 17318.83
579.2668, 17314.66
579.7489, 17292.33
580.2310, 17260.89
580.7131, 17218.28
581.1953, 17165.16
581.6774, 17140.60
582.1595, 17147.70
582.6416, 17179.80
583.1237, 17229.30
583.6058, 17296.58
584.0880, 17384.12
584.5701, 17492.11
585.0522, 17620.14
585.5343, 17770.04
586.0164, 17940.34
586.4985, 18124.56
586.9807, 18325.44
587.4628, 18536.39
587.9449, 18746.21
588.4270, 18956.17
588.9091, 19194.65
589.3912, 19497.64
589.8734, 19805.61
590.3555, 20086.31
590.8376, 20319.60
591.3197, 20586.65
591.8018, 20901.93
592.2839, 21231.85
592.7661, 21537.30
593.2482, 21814.38
593.7303, 22109.83
594.2124, 22440.34
594.6945, 22777.41
595.1766, 23083.06
595.6588, 23361.04
596.1409, 23631.61
596.6230, 23906.76
597.1051, 24177.01
597.5872, 24433.21
598.0693, 24671.76
598.5515, 24898.36
599.0336, 25120.22
599.5157, 25326.85
599.9978, 25510.22
600.4799, 25665.99
600.9620, 25810.34
601.4442, 25954.27
601.9263, 26083.13
602.4084, 26186.92
602.8905, 26263.57
603.3726, 26320.74
603.8547, 26355.14
604.3369, 26373.29
604.8190, 26385.63
605.3011, 26393.36
605.7832, 26387.67
606.2653, 26364.27
606.7474, 26328.05
607.2296, 26299.20
607.7117, 26273.75
608.1938, 26220.86
608.6759, 26093.69
609.1580, 25943.20
609.6401, 25851.00
610.1223, 25815.07
610.6044, 25757.63
