##NAMES=Xenotime-(Y)
##RRUFFID=R060428
##IDEAL CHEMISTRY=Y^3+^PO_4_
##LOCALITY=Zagi Mountain, near Hammedabad, Khaffor Dehri, North-West Frontier Province, Pakistan
##OWNER=RRUFF
##SOURCE=Herb Obodda
##DESCRIPTION=Brown prismatic crystals
##STATUS=The identification of this mineral is confirmed by single-crystal X-ray diffraction and chemical analysis.
##URL=rruff.info/R060428
##MEASURED CHEMISTRY=(Y_0.85_Dy_0.11_Yb_0.04_)_Î£=1_P_1.00_O_4_
37.633, 0.000
38.116, 0.000
38.598, 0.000
39.080, 0.000
39.562, 0.000
40.044, 0.000
40.526, 0.000
41.008, 0.000
41.490, 0.000
41.972, 0.000
42.455, 0.000
42.937, 0.000
43.419, 0.000
43.901, 0.000
44.383, 0.000
44.865, 0.000
45.347, 0.000
45.829, 0.000
46.311, 0.000
46.794, 0.000
47.276, 0.000
47.758, 0.000
48.240, 0.000
48.722, 0.000
49.204, 0.000
49.686, 0.000
50.168, 0.000
50.651, 0.000
51.133, 0.000
51.615, 0.000
52.097, 0.000
52.579, 0.000
53.061, 0.000
53.543, 0.000
54.025, 0.000
54.507, 0.000
54.990, 0.000
55.472, 0.000
55.954, 0.000
56.436, 0.000
56.918, 0.000
57.400, 0.000
57.882, 0.000
58.364, 0.000
58.847, 0.000
59.329, 0.000
59.811, 0.000
60.293, 0.000
60.775, 0.000
61.257, 0.000
61.739, 0.000
62.221, 0.000
62.703, 0.000
63.186, 0.000
63.668, 0.000
64.150, 0.000
64.632, 0.000
65.114, 0.000
65.596, 0.000
66.078, 0.000
66.560, 0.000
67.043, 0.000
67.525, 0.000
68.007, 0.000
68.489, 0.000
68.971, 0.000
69.453, 0.000
69.935, 0.000
70.417, 0.000
70.899, 0.000
71.382, 0.000
71.864, 0.000
72.346, 0.000
72.828, 0.000
73.310, 0.000
73.792, 0.000
74.274, 0.000
74.756, 0.000
75.239, 0.000
75.721, 0.000
76.203, 0.000
76.685, 0.000
77.167, 0.000
77.649, 0.000
78.131, 0.000
78.613, 0.000
79.095, 0.000
79.578, 0.000
80.060, 0.000
80.542, 0.000
81.024, 0.000
81.506, 0.000
81.988, 0.000
82.470, 0.000
82.952, 0.000
83.435, 0.000
83.917, 0.000
84.399, 0.000
84.881, 150.225
85.363, 159.470
85.845, 159.826
86.327, 151.255
86.809, 143.790
87.291, 144.577
87.774, 149.841
88.256, 153.913
88.738, 153.982
89.220, 151.769
89.702, 148.257
90.184, 142.721
90.666, 138.204
91.148, 138.015
91.631, 141.656
92.113, 147.124
92.595, 156.013
93.077, 165.918
93.559, 170.440
94.041, 165.123
94.523, 155.162
95.005, 151.425
95.487, 154.293
95.970, 160.266
96.452, 167.032
96.934, 174.400
97.416, 180.071
97.898, 181.804
98.380, 179.910
98.862, 180.136
99.344, 181.725
99.826, 186.583
100.309, 201.107
100.791, 228.738
101.273, 254.283
101.755, 265.638
102.237, 256.118
102.719, 259.472
103.201, 282.741
103.683, 323.474
104.165, 359.159
104.648, 385.488
105.130, 411.874
105.612, 448.245
106.094, 500.548
106.576, 553.240
107.058, 602.703
107.540, 648.923
108.022, 693.771
108.505, 733.431
108.987, 772.794
109.469, 820.778
109.951, 889.907
110.433, 957.830
110.915, 1016.517
111.397, 1053.005
111.879, 1098.582
112.362, 1160.066
112.844, 1234.544
113.326, 1307.505
113.808, 1375.277
114.290, 1441.570
114.772, 1508.187
115.254, 1576.586
115.736, 1644.610
116.218, 1714.253
116.701, 1785.920
117.183, 1849.494
117.665, 1897.516
118.147, 1936.051
118.629, 1972.699
119.111, 2016.428
119.593, 2055.910
120.075, 2080.855
120.558, 2085.902
121.040, 2090.408
121.522, 2109.738
122.004, 2138.830
122.486, 2164.322
122.968, 2175.229
123.450, 2179.428
123.932, 2186.052
124.414, 2196.862
124.897, 2211.190
125.379, 2226.540
125.861, 2243.435
126.343, 2267.329
126.825, 2305.442
127.307, 2354.204
127.789, 2405.216
128.271, 2455.608
128.753, 2505.872
129.236, 2557.313
129.718, 2610.375
130.200, 2662.297
130.682, 2706.785
131.164, 2745.154
131.646, 2786.084
132.128, 2835.617
132.611, 2892.453
133.093, 2947.975
133.575, 3002.028
134.057, 3053.422
134.539, 3096.526
135.021, 3130.104
135.503, 3166.182
135.985, 3216.417
136.467, 3282.118
136.949, 3341.982
137.432, 3391.786
137.914, 3433.283
138.396, 3474.293
138.878, 3514.993
139.360, 3554.115
139.842, 3587.622
140.324, 3612.225
140.806, 3644.073
141.289, 3687.487
141.771, 3743.525
142.253, 3805.099
142.735, 3876.609
143.217, 3950.950
143.699, 4014.180
144.181, 4056.922
144.663, 4105.144
145.145, 4169.425
145.628, 4259.491
146.110, 4342.612
146.592, 4414.304
147.074, 4478.593
147.556, 4546.991
148.038, 4624.811
148.520, 4701.732
149.002, 4770.734
149.484, 4825.964
149.967, 4882.059
150.449, 4942.986
150.931, 5008.437
151.413, 5063.294
151.895, 5102.892
152.377, 5134.808
152.859, 5164.125
153.342, 5193.420
153.824, 5218.159
154.306, 5238.120
154.788, 5253.824
155.270, 5263.260
155.752, 5253.621
156.234, 5241.818
156.716, 5247.662
157.198, 5299.467
157.680, 5349.212
158.163, 5377.960
158.645, 5374.305
159.127, 5374.075
159.609, 5377.568
160.091, 5390.665
160.573, 5425.243
161.055, 5449.699
161.538, 5519.229
162.020, 5682.895
162.502, 6070.369
162.984, 6375.144
163.466, 6418.698
163.948, 6254.405
164.430, 6098.893
164.912, 6045.651
165.394, 6049.771
165.876, 6070.924
166.359, 6112.297
166.841, 6154.583
167.323, 6185.872
167.805, 6206.644
168.287, 6226.968
168.769, 6254.866
169.251, 6285.665
169.734, 6313.489
170.216, 6343.300
170.698, 6365.135
171.180, 6366.201
171.662, 6344.348
172.144, 6321.589
172.626, 6323.441
173.108, 6337.370
173.590, 6336.556
174.072, 6305.225
174.555, 6253.199
175.037, 6188.223
175.519, 6107.106
176.001, 6025.404
176.483, 5959.271
176.965, 5905.218
177.447, 5851.652
177.930, 5785.293
178.412, 5715.496
178.894, 5660.206
179.376, 5627.255
179.858, 5603.088
180.340, 5571.894
180.822, 5533.974
181.304, 5492.577
181.786, 5443.719
182.268, 5392.837
182.751, 5357.066
183.233, 5343.427
183.715, 5344.887
184.197, 5349.193
184.679, 5356.265
185.161, 5366.815
185.643, 5384.368
186.125, 5407.049
186.608, 5425.804
187.090, 5434.677
187.572, 5437.693
188.054, 5445.423
188.536, 5457.131
189.018, 5477.108
189.500, 5513.631
189.982, 5565.622
190.464, 5619.183
190.947, 5669.565
191.429, 5716.713
191.911, 5760.386
192.393, 5798.890
192.875, 5837.577
193.357, 5890.122
193.839, 5957.443
194.321, 6015.996
194.804, 6044.639
195.286, 6046.388
195.768, 6072.512
196.250, 6129.647
196.732, 6207.188
197.214, 6288.332
197.696, 6375.827
198.178, 6454.125
198.661, 6506.331
199.143, 6531.648
199.625, 6570.595
200.107, 6630.453
200.589, 6705.168
201.071, 6773.405
201.553, 6833.363
202.035, 6893.905
202.517, 6958.844
202.999, 7027.600
203.482, 7107.957
203.964, 7204.178
204.446, 7313.041
204.928, 7416.210
205.410, 7511.502
205.892, 7605.859
206.374, 7700.659
206.857, 7792.514
207.339, 7902.518
207.821, 8038.224
208.303, 8198.321
208.785, 8361.738
209.267, 8527.925
209.749, 8695.244
210.231, 8854.393
210.713, 8991.685
211.195, 9163.453
211.678, 9391.423
212.160, 9680.852
212.642, 9969.093
213.124, 10254.450
213.606, 10544.270
214.088, 10850.880
214.570, 11168.880
215.053, 11502.160
215.535, 11847.160
216.017, 12200.260
216.499, 12591.530
216.981, 13022.910
217.463, 13495.340
217.945, 14005.320
218.427, 14564.790
218.909, 15147.080
219.391, 15737.420
219.874, 16330.150
220.356, 16961.820
220.838, 17635.439
221.320, 18343.840
221.802, 19050.070
222.284, 19759.609
222.766, 20470.180
223.249, 21196.850
223.731, 21939.109
224.213, 22682.760
224.695, 23440.359
225.177, 24198.711
225.659, 24919.680
226.141, 25604.039
226.623, 26263.740
227.105, 26912.141
227.587, 27568.350
228.070, 28166.020
228.552, 28698.619
229.034, 29164.199
229.516, 29566.619
229.998, 29900.961
230.480, 30172.961
230.962, 30381.949
231.445, 30535.779
231.927, 30608.430
232.409, 30574.160
232.891, 30445.221
233.373, 30329.670
233.855, 30233.221
234.337, 30141.840
234.819, 30039.670
235.301, 29896.020
235.783, 29804.801
236.266, 29788.160
236.748, 29843.900
237.230, 29908.170
237.712, 29953.949
238.194, 30037.529
238.676, 30210.029
239.158, 30489.961
239.640, 30819.961
240.123, 31192.461
240.605, 31607.721
241.087, 32069.561
241.569, 32595.670
242.051, 33149.500
242.533, 33708.379
243.015, 34276.430
243.497, 34824.449
243.980, 35346.570
244.462, 35842.199
244.944, 36317.910
245.426, 36790.469
245.908, 37227.629
246.390, 37588.949
246.872, 37873.750
247.354, 38086.172
247.836, 38234.750
248.319, 38323.789
248.801, 38299.391
249.283, 38149.121
249.765, 37894.828
250.247, 37562.828
250.729, 37149.289
251.211, 36662.852
251.693, 36095.070
252.176, 35440.840
252.658, 34751.398
253.140, 34025.988
253.622, 33270.320
254.104, 32480.369
254.586, 31658.391
255.068, 30793.131
255.550, 29889.539
256.032, 28928.971
256.515, 27983.850
256.997, 27057.211
257.479, 26153.221
257.961, 25282.641
258.443, 24460.020
258.925, 23652.830
259.407, 22854.500
259.889, 22064.551
260.371, 21290.721
260.854, 20523.109
261.336, 19787.471
261.818, 19136.051
262.300, 18599.529
262.782, 18088.000
263.264, 17570.029
263.746, 17036.230
264.228, 16549.631
264.711, 16110.300
265.193, 15714.040
265.675, 15347.500
266.157, 15018.040
266.639, 14706.540
267.121, 14398.250
267.603, 14093.850
268.085, 13824.300
268.568, 13597.900
269.050, 13400.690
269.532, 13212.330
270.014, 13031.320
270.496, 12866.490
270.978, 12723.910
271.460, 12607.080
271.942, 12500.070
272.424, 12403.780
272.906, 12317.790
273.389, 12238.820
273.871, 12163.030
274.353, 12107.480
274.835, 12079.280
275.317, 12078.980
275.799, 12101.140
276.281, 12147.270
276.763, 12213.430
277.246, 12291.720
277.728, 12380.800
278.210, 12489.230
278.692, 12623.130
279.174, 12784.860
279.656, 12949.620
280.138, 13111.290
280.620, 13288.050
281.103, 13509.000
281.585, 13774.800
282.067, 14075.810
282.549, 14415.120
283.031, 14791.180
283.513, 15167.390
283.995, 15529.360
284.477, 15913.790
284.959, 16385.980
285.442, 16946.971
285.924, 17528.119
286.406, 18102.670
286.888, 18671.320
287.370, 19230.820
287.852, 19765.859
288.334, 20323.170
288.816, 20961.721
289.298, 21681.141
289.781, 22440.230
290.263, 23209.020
290.745, 23998.711
291.227, 24873.350
291.709, 25843.221
292.191, 26842.641
292.673, 27810.080
293.155, 28745.480
293.638, 29653.520
294.120, 30575.840
294.602, 31466.930
295.084, 32204.039
295.566, 32780.961
296.048, 33194.762
296.530, 33411.469
297.012, 33454.461
297.495, 33420.488
297.977, 33300.691
298.459, 33146.719
298.941, 33035.129
299.423, 32965.148
299.905, 32978.391
300.387, 33114.059
300.869, 33365.281
301.351, 33717.980
301.834, 34201.961
302.316, 34767.621
302.798, 35345.051
303.280, 35939.301
303.762, 36533.941
304.244, 37123.469
304.726, 37710.191
305.208, 38314.699
305.690, 39000.371
306.173, 39670.012
306.655, 40210.230
307.137, 40623.250
307.619, 40961.340
308.101, 41278.879
308.583, 41550.699
309.065, 41733.922
309.547, 41803.129
310.030, 41786.879
310.512, 41695.930
310.994, 41533.238
311.476, 41321.340
311.958, 41100.762
312.440, 40834.109
312.922, 40480.359
313.404, 39993.961
313.887, 39438.738
314.369, 38840.711
314.851, 38203.590
315.333, 37524.891
315.815, 36810.289
316.297, 36063.328
316.779, 35289.672
317.261, 34476.109
317.743, 33650.551
318.225, 32826.602
318.708, 31996.631
319.190, 31157.449
319.672, 30293.680
320.154, 29429.350
320.636, 28572.770
321.118, 27685.109
321.600, 26849.289
322.082, 26094.381
322.565, 25410.801
323.047, 24749.400
323.529, 24092.260
324.011, 23460.160
324.493, 22858.631
324.975, 22307.230
325.457, 21763.590
325.939, 21205.369
326.422, 20646.881
326.904, 20140.980
327.386, 19717.699
327.868, 19331.010
328.350, 18966.600
328.832, 18635.381
329.314, 18306.650
329.796, 17981.369
330.278, 17657.330
330.761, 17333.301
331.243, 16988.109
331.725, 16663.859
332.207, 16380.370
332.689, 16149.950
333.171, 15932.260
333.653, 15728.470
334.135, 15536.360
334.617, 15357.940
335.100, 15205.230
335.582, 15039.690
336.064, 14843.240
336.546, 14602.170
337.028, 14399.260
337.510, 14246.440
337.992, 14119.840
338.474, 13986.520
338.957, 13841.620
339.439, 13703.470
339.921, 13573.820
340.403, 13452.910
340.885, 13368.160
341.367, 13326.070
341.849, 13301.510
342.331, 13261.710
342.814, 13205.790
343.296, 13160.200
343.778, 13134.010
344.260, 13125.150
344.742, 13120.770
345.224, 13119.350
345.706, 13135.440
346.188, 13189.320
346.670, 13277.350
347.153, 13368.440
347.635, 13450.190
348.117, 13535.300
348.599, 13653.070
349.081, 13804.030
349.563, 13966.180
350.045, 14111.510
350.527, 14253.540
351.009, 14431.850
351.492, 14665.610
351.974, 14918.990
352.456, 15152.860
352.938, 15370.220
353.420, 15592.860
353.902, 15829.920
354.384, 16080.920
354.866, 16347.360
355.349, 16625.211
355.831, 16926.551
356.313, 17258.279
356.795, 17619.770
357.277, 18006.109
357.759, 18426.711
358.241, 18862.949
358.723, 19296.221
359.206, 19711.449
359.688, 20173.000
360.170, 20728.830
360.652, 21347.539
361.134, 21977.619
361.616, 22594.859
362.098, 23223.381
362.580, 23866.529
363.062, 24521.039
363.544, 25223.170
364.027, 26012.760
364.509, 26840.590
364.991, 27642.660
365.473, 28344.580
365.955, 29089.650
366.437, 29916.010
366.919, 30825.439
367.401, 31769.461
367.884, 32747.180
368.366, 33759.340
368.848, 34807.051
369.330, 35943.781
369.812, 37059.398
370.294, 38185.809
370.776, 39304.480
371.258, 40274.328
371.741, 41135.051
372.223, 41813.590
372.705, 42279.500
373.187, 42558.410
373.669, 42572.559
374.151, 42319.859
374.633, 41798.059
375.115, 40960.961
375.598, 39726.719
376.080, 38367.180
376.562, 36986.262
377.044, 35588.270
377.526, 34165.340
378.008, 32682.789
378.490, 31233.939
378.972, 29921.250
379.454, 28757.359
379.936, 27706.631
380.419, 26781.439
380.901, 25968.920
381.383, 25276.859
381.865, 24703.221
382.347, 24228.881
382.829, 23832.689
383.311, 23516.221
383.793, 23267.600
384.276, 23086.699
384.758, 22973.461
385.240, 22925.141
385.722, 22941.480
386.204, 23015.689
386.686, 23135.240
387.168, 23308.990
387.650, 23555.990
388.133, 23877.910
388.615, 24270.010
389.097, 24720.430
389.579, 25236.561
390.061, 25829.760
390.543, 26500.779
391.025, 27255.570
391.507, 28090.381
391.989, 29006.311
392.472, 30006.961
392.954, 31102.170
393.436, 32293.420
393.918, 33563.949
394.400, 34914.039
394.882, 36340.391
395.364, 37833.422
395.846, 39394.352
396.328, 41054.359
396.811, 42875.859
397.293, 44801.750
397.775, 46783.590
398.257, 48772.328
398.739, 50863.051
399.221, 53085.609
399.703, 55447.750
400.185, 57851.129
400.668, 60318.852
401.150, 62823.340
401.632, 65360.461
402.114, 68009.227
402.596, 70542.969
403.078, 72987.297
403.560, 75309.180
404.042, 77412.609
404.525, 79384.453
405.007, 80918.773
405.489, 81869.562
405.971, 82223.758
406.453, 82077.977
406.935, 81396.156
407.417, 80275.477
407.899, 78737.711
408.381, 76782.781
408.864, 74785.219
409.346, 72804.148
409.828, 70899.141
410.310, 69171.562
410.792, 67605.297
411.274, 66392.352
411.756, 65693.359
412.238, 65501.891
412.720, 65832.047
413.203, 66744.391
413.685, 68104.367
414.167, 69745.344
414.649, 71664.609
415.131, 73937.344
415.613, 76602.797
416.095, 79619.508
416.577, 82975.523
417.060, 86628.133
417.542, 90643.617
418.024, 94919.352
418.506, 99579.461
418.988, 104762.000
419.470, 110741.398
419.952, 117157.000
420.434, 123886.203
420.917, 130912.500
421.399, 138070.000
421.881, 145883.703
422.363, 153521.797
422.845, 160061.094
423.327, 166118.094
423.809, 170270.594
424.291, 172316.500
424.773, 172247.703
425.255, 169697.594
425.738, 164027.703
426.220, 156483.594
426.702, 147629.703
427.184, 136635.797
427.666, 125925.398
428.148, 115419.703
428.630, 105297.500
429.112, 95961.680
429.595, 87257.000
430.077, 79508.523
430.559, 72911.008
431.041, 67486.180
431.523, 62674.641
432.005, 58435.020
432.487, 54771.379
432.969, 51692.488
433.452, 49184.219
433.934, 46928.270
434.416, 44830.969
434.898, 42927.449
435.380, 41337.301
435.862, 40038.480
436.344, 38918.148
436.826, 37914.512
437.308, 37006.141
437.791, 36146.961
438.273, 35321.059
438.755, 34560.078
439.237, 33905.590
439.719, 33339.781
440.201, 32826.969
440.683, 32338.850
441.165, 31894.381
441.647, 31512.539
442.130, 31192.801
442.612, 30928.510
443.094, 30704.430
443.576, 30537.770
444.058, 30449.529
444.540, 30515.189
445.022, 30585.391
445.504, 30593.980
445.987, 30554.180
446.469, 30593.311
446.951, 30783.590
447.433, 31013.840
447.915, 31227.439
448.397, 31406.520
448.879, 31597.580
449.361, 31786.910
449.844, 31994.211
450.326, 32260.930
450.808, 32591.330
451.290, 32975.012
451.772, 33422.641
452.254, 33932.629
452.736, 34422.020
453.218, 34863.512
453.700, 35370.461
454.183, 36121.648
454.665, 37112.148
455.147, 37974.141
455.629, 38613.570
456.111, 39103.391
456.593, 39617.102
457.075, 40143.172
457.557, 40584.102
458.039, 40811.070
458.522, 40919.871
459.004, 41058.262
459.486, 41235.801
459.968, 41491.660
460.450, 41829.051
460.932, 42274.480
461.414, 42884.871
461.896, 43706.730
462.379, 44675.430
462.861, 45750.410
463.343, 46935.789
463.825, 48279.301
464.307, 49894.309
464.789, 51643.840
465.271, 53423.121
465.753, 55162.641
466.236, 57026.250
466.718, 59095.148
467.200, 61298.359
467.682, 63500.871
468.164, 65573.453
468.646, 67738.219
469.128, 70069.227
469.610, 72622.320
470.092, 75160.219
470.574, 77705.391
471.057, 80203.758
471.539, 82593.953
472.021, 84834.500
472.503, 87068.906
472.985, 89405.141
473.467, 91727.750
473.949, 93733.297
474.431, 95423.656
474.914, 96758.148
475.396, 97761.383
475.878, 98397.453
476.360, 98516.062
476.842, 98102.883
477.324, 97217.727
477.806, 95842.797
478.288, 94047.320
478.771, 91996.188
479.253, 89652.469
479.735, 87164.781
480.217, 84566.859
480.699, 81896.922
481.181, 79289.461
481.663, 76778.453
482.145, 74384.102
482.627, 72115.547
483.110, 69933.273
483.592, 67925.898
484.074, 66155.188
484.556, 64591.770
485.038, 63215.621
485.520, 62129.441
486.002, 61120.422
486.484, 60116.750
486.966, 59094.801
487.449, 58235.988
487.931, 57575.730
488.413, 57060.680
488.895, 56648.078
489.377, 56321.711
489.859, 56170.961
490.341, 56245.789
490.823, 56473.559
491.306, 56637.840
491.788, 56722.781
492.270, 56929.922
492.752, 57390.801
493.234, 58065.500
493.716, 58795.820
494.198, 59577.871
494.680, 60449.801
495.163, 61473.961
495.645, 62616.711
496.127, 63853.191
496.609, 65153.859
497.091, 66550.531
497.573, 68050.773
498.055, 69649.000
498.537, 71365.133
499.019, 73170.781
499.502, 75107.023
499.984, 77200.391
500.466, 79487.133
500.948, 81886.641
501.430, 84366.523
501.912, 86961.023
502.394, 89676.188
502.876, 92484.797
503.358, 95465.961
503.841, 98608.992
504.323, 101912.797
504.805, 105264.102
505.287, 108687.398
505.769, 112174.797
506.251, 115726.703
506.733, 119339.000
507.215, 123028.898
507.698, 126807.297
508.180, 130635.102
508.662, 134442.297
509.144, 138230.797
509.626, 142097.406
510.108, 146096.406
510.590, 150186.906
511.072, 154226.203
511.555, 158181.500
512.037, 162054.000
512.519, 165900.297
513.001, 169637.500
513.483, 173155.094
513.965, 176441.500
514.447, 179495.500
514.929, 182452.906
515.411, 185139.500
515.894, 187337.297
516.376, 189001.906
516.858, 190120.094
517.340, 190652.500
517.822, 190604.906
518.304, 190099.203
518.786, 189289.594
519.268, 187892.594
519.750, 185781.500
520.233, 182786.797
520.715, 179397.500
521.197, 175609.500
521.679, 171411.594
522.161, 166809.406
522.643, 161717.094
523.125, 156428.797
523.607, 151032.703
524.089, 145516.500
524.572, 140029.297
525.054, 134539.703
525.536, 129153.703
526.018, 123951.398
526.500, 118947.203
526.982, 114234.000
527.464, 109921.797
527.946, 105864.102
528.429, 101912.797
528.911, 98151.273
529.393, 94666.211
529.875, 91529.867
530.357, 88664.203
530.839, 85994.469
531.321, 83556.094
531.803, 81261.992
532.286, 79161.469
532.768, 77164.133
533.250, 75250.430
533.732, 73418.719
534.214, 71634.547
534.696, 69880.898
535.178, 68175.703
535.660, 66484.758
536.143, 64824.980
536.625, 63175.590
537.107, 61539.230
537.589, 59925.879
538.071, 58340.309
538.553, 56797.121
539.035, 55268.750
539.517, 53755.930
539.999, 52265.000
540.482, 50832.539
540.964, 49464.441
541.446, 48171.480
541.928, 46975.391
542.410, 45854.129
542.892, 44803.512
543.374, 43814.219
543.856, 42888.551
544.338, 42031.461
544.821, 41236.691
545.303, 40466.672
545.785, 39672.980
546.267, 38923.320
546.749, 38248.352
547.231, 37666.301
547.713, 37144.641
548.195, 36695.770
548.677, 36297.070
549.160, 35925.512
549.642, 35573.219
550.124, 35261.059
550.606, 34996.738
551.088, 34773.879
551.570, 34566.551
552.052, 34374.660
552.534, 34198.422
