##NAMES=Xonotlite
##RRUFFID=R120029
##IDEAL CHEMISTRY=Ca_6_Si_6_O_17_(OH)_2_
##LOCALITY=Kalahari manganese field, Northern Cape Province, South Africa
##OWNER=RRUFF
##SOURCE=Donald Doell
##DESCRIPTION=Colorless lathlike crystals
##STATUS=The identification of this mineral has been confirmed by single-crystal X-ray diffraction.
##URL=rruff.info/R120029
157.0243, 15.11906
157.5064, 16.32279
157.9885, 17.93145
158.4706, 20.40639
158.9528, 22.91895
159.4349, 25.10315
159.9170, 26.90219
160.3991, 28.37051
160.8812, 28.89539
161.3633, 29.01598
161.8455, 30.14759
162.3276, 33.47242
162.8097, 37.53033
163.2918, 41.54107
163.7739, 45.72909
164.2560, 49.24141
164.7382, 51.66951
165.2203, 53.10106
165.7024, 53.87175
166.1845, 53.43911
166.6666, 52.72988
167.1487, 52.59219
167.6309, 53.69860
168.1130, 54.97813
168.5951, 55.69299
169.0772, 55.94112
169.5593, 56.29417
170.0414, 57.12980
170.5236, 58.25450
171.0057, 59.43270
171.4878, 60.83565
171.9699, 62.08556
172.4520, 62.59768
172.9341, 62.44802
173.4163, 62.57580
173.8984, 63.66369
174.3805, 65.49844
174.8626, 67.67500
175.3447, 70.28561
175.8268, 73.06831
176.3090, 75.79571
176.7911, 78.44502
177.2732, 80.96285
177.7553, 82.94788
178.2374, 84.37183
178.7195, 85.56288
179.2017, 86.39209
179.6838, 87.19299
180.1659, 88.43582
180.6480, 90.13418
181.1301, 92.18020
181.6122, 95.01358
182.0944, 98.27562
182.5765, 100.6970
183.0586, 100.5165
183.5407, 99.31062
184.0228, 100.8682
184.5049, 105.5406
184.9871, 111.0919
185.4692, 114.6955
185.9513, 116.7161
186.4334, 118.8943
186.9155, 122.4923
187.3976, 126.9564
187.8798, 130.4849
188.3619, 132.9576
188.8440, 134.7249
189.3261, 135.8254
189.8082, 136.3462
190.2903, 137.3545
190.7725, 139.6669
191.2546, 143.0674
191.7367, 146.0837
192.2188, 148.5940
192.7009, 150.8898
193.1830, 153.5027
193.6652, 156.4276
194.1473, 159.1005
194.6294, 160.7985
195.1115, 161.6618
195.5936, 163.6261
196.0757, 166.9648
196.5579, 171.1422
197.0400, 175.0659
197.5221, 178.6686
198.0042, 182.6859
198.4863, 187.6436
198.9684, 193.5274
199.4506, 199.7610
199.9327, 206.3728
200.4148, 213.1376
200.8969, 219.5006
201.3790, 225.5061
201.8611, 231.2277
202.3433, 236.8317
202.8254, 242.3733
203.3075, 247.3606
203.7896, 251.9999
204.2717, 255.8217
204.7538, 257.4703
205.2360, 256.7651
205.7181, 254.5926
206.2002, 251.4112
206.6823, 247.2192
207.1644, 241.9240
207.6465, 235.1391
208.1287, 227.4638
208.6108, 220.6047
209.0929, 214.8820
209.5750, 209.0594
210.0571, 202.3920
210.5392, 194.6754
211.0214, 186.8204
211.5035, 178.4641
211.9856, 170.1827
212.4677, 163.7766
212.9498, 159.5158
213.4319, 156.4877
213.9140, 154.3759
214.3962, 153.6113
214.8783, 152.1482
215.3604, 149.4995
215.8425, 146.0707
216.3246, 143.6940
216.8067, 142.7729
217.2889, 142.0764
217.7710, 140.6723
218.2531, 137.9787
218.7352, 136.3216
219.2173, 136.1127
219.6994, 137.0800
220.1816, 137.9617
220.6637, 138.7448
221.1458, 139.4828
221.6279, 140.2036
222.1100, 140.9298
222.5921, 141.5633
223.0743, 141.9531
223.5564, 142.2353
224.0385, 143.1172
224.5206, 144.7782
225.0027, 146.7209
225.4848, 148.6309
225.9670, 150.3725
226.4491, 152.3823
226.9312, 154.7290
227.4133, 157.3709
227.8954, 160.2942
228.3775, 163.6728
228.8597, 166.9986
229.3418, 169.8340
229.8239, 171.7119
230.3060, 174.1680
230.7881, 177.3622
231.2702, 181.2268
231.7524, 185.4127
232.2345, 190.2406
232.7166, 194.8536
233.1987, 198.8584
233.6808, 202.8202
234.1629, 204.8930
234.6451, 204.7396
235.1272, 202.5984
235.6093, 199.4233
236.0914, 194.7447
236.5735, 189.6838
237.0556, 184.8510
237.5378, 180.3687
238.0199, 175.8602
238.5020, 171.3336
238.9841, 166.7536
239.4662, 162.1015
239.9483, 157.1351
240.4305, 152.4288
240.9126, 148.2705
241.3947, 144.8696
241.8768, 141.5704
242.3589, 138.4102
242.8410, 135.3421
243.3232, 132.0632
243.8053, 128.2328
244.2874, 124.6785
244.7695, 121.8736
245.2516, 120.0462
245.7337, 118.4270
246.2159, 117.1360
246.6980, 116.0094
247.1801, 114.4484
247.6622, 111.8374
248.1443, 109.6925
248.6264, 108.8342
249.1086, 109.8389
249.5907, 110.7392
250.0728, 111.5250
250.5549, 112.1838
251.0370, 112.6815
251.5191, 113.0158
252.0013, 113.1983
252.4834, 113.2441
252.9655, 113.1810
253.4476, 112.8560
253.9297, 111.9472
254.4118, 110.9221
254.8940, 110.9208
255.3761, 112.5269
255.8582, 114.1231
256.3403, 114.8472
256.8224, 114.0684
257.3046, 114.6293
257.7867, 117.2711
258.2688, 120.7696
258.7509, 122.6154
259.2330, 122.0706
259.7151, 121.3391
260.1973, 121.2304
260.6794, 121.8529
261.1615, 122.6565
261.6436, 123.7866
262.1257, 124.9647
262.6078, 125.6184
263.0900, 125.4241
263.5721, 125.4857
264.0542, 126.3550
264.5363, 128.2807
265.0184, 129.4137
265.5005, 129.6391
265.9827, 129.2470
266.4648, 128.5952
266.9469, 127.6232
267.4290, 126.5926
267.9111, 125.6751
268.3932, 124.9169
268.8754, 123.3511
269.3575, 120.5210
269.8396, 117.5827
270.3217, 116.2228
270.8038, 116.8785
271.2859, 117.4068
271.7681, 117.1534
272.2502, 116.1521
272.7323, 115.4123
273.2144, 115.0316
273.6965, 114.7384
274.1786, 114.2011
274.6608, 113.3435
275.1429, 112.6286
275.6250, 112.1669
276.1071, 111.9447
276.5892, 111.8294
277.0714, 111.7904
277.5535, 111.9526
278.0356, 112.7103
278.5177, 114.2010
278.9998, 114.7717
279.4819, 113.7459
279.9641, 111.6088
280.4462, 110.7485
280.9283, 111.4781
281.4104, 112.1258
281.8925, 111.0962
282.3746, 108.3633
282.8568, 105.9562
283.3389, 104.2216
283.8210, 103.0128
284.3031, 101.9989
284.7852, 101.1984
285.2673, 100.4274
285.7495, 99.52889
286.2316, 98.51712
286.7137, 97.46143
287.1958, 96.18696
287.6779, 95.14452
288.1600, 95.63158
288.6422, 97.67583
289.1243, 99.52230
289.6064, 99.75761
290.0885, 98.71974
290.5706, 98.16175
291.0527, 98.30878
291.5349, 98.81165
292.0170, 99.30528
292.4991, 99.75426
292.9812, 99.82323
293.4633, 99.10818
293.9454, 97.84793
294.4276, 96.71696
294.9097, 95.71565
295.3918, 95.05186
295.8739, 95.19164
296.3560, 95.98875
296.8381, 96.75783
297.3203, 97.08096
297.8024, 97.16459
298.2845, 97.46328
298.7666, 98.00490
299.2487, 98.58179
299.7308, 98.98182
300.2130, 99.25317
300.6951, 99.52359
301.1772, 99.69231
301.6593, 99.96167
302.1414, 100.7677
302.6235, 102.0900
303.1057, 103.3782
303.5878, 104.0551
304.0699, 104.3779
304.5520, 104.7983
305.0341, 105.4192
305.5162, 106.2404
305.9984, 107.6166
306.4805, 109.3924
306.9626, 110.5908
307.4447, 110.0551
307.9268, 108.6830
308.4089, 107.6140
308.8911, 107.1208
309.3732, 107.0383
309.8553, 107.5556
310.3374, 108.4586
310.8195, 109.0305
311.3016, 108.2324
311.7838, 107.2401
312.2659, 107.2105
312.7480, 108.7338
313.2301, 110.3587
313.7122, 111.1382
314.1943, 111.4007
314.6765, 111.8197
315.1586, 113.0868
315.6407, 114.3322
316.1228, 114.8259
316.6049, 114.1947
317.0870, 114.0208
317.5692, 115.0994
318.0513, 117.0349
318.5334, 119.2739
319.0155, 121.9892
319.4976, 124.6692
319.9797, 127.1061
320.4619, 129.2858
320.9440, 131.2283
321.4261, 133.0030
321.9082, 134.4977
322.3903, 135.5970
322.8724, 135.1195
323.3546, 135.4059
323.8367, 137.4468
324.3188, 141.1764
324.8009, 144.5328
325.2830, 146.7940
325.7651, 148.7920
326.2473, 151.0588
326.7294, 153.9771
327.2115, 156.7868
327.6936, 159.2495
328.1757, 161.4757
328.6578, 164.1201
329.1400, 167.7321
329.6221, 171.3192
330.1042, 174.5046
330.5863, 177.2688
331.0684, 179.6692
331.5505, 181.5347
332.0327, 183.0535
332.5148, 184.6577
332.9969, 186.7394
333.4790, 188.3733
333.9611, 189.3001
334.4432, 189.5108
334.9254, 189.0141
335.4075, 187.8095
335.8896, 185.8969
336.3717, 183.1866
336.8538, 179.4615
337.3359, 175.4965
337.8180, 171.4191
338.3001, 167.2539
338.7823, 163.4010
339.2644, 159.9185
339.7465, 156.7213
340.2286, 153.7597
340.7107, 151.0808
341.1928, 148.5216
341.6750, 146.1289
342.1571, 143.8444
342.6392, 141.4651
343.1213, 138.8840
343.6034, 136.6720
344.0855, 135.4191
344.5677, 135.0889
345.0498, 134.5101
345.5319, 133.5529
346.0140, 132.2810
346.4961, 130.7395
346.9782, 128.9438
347.4604, 127.0932
347.9425, 125.1967
348.4246, 123.3234
348.9067, 121.8066
349.3888, 120.6798
349.8709, 119.8252
350.3531, 119.3296
350.8352, 119.0502
351.3173, 118.4610
351.7994, 117.1408
352.2815, 115.4262
352.7636, 113.6067
353.2458, 111.6836
353.7279, 110.3934
354.2100, 110.7176
354.6921, 112.0458
355.1742, 113.3700
355.6563, 114.7463
356.1385, 115.6118
356.6206, 114.9295
357.1027, 113.0370
357.5848, 111.6331
358.0669, 112.1243
358.5490, 113.3763
359.0312, 114.3136
359.5133, 114.6435
359.9954, 114.8419
360.4775, 115.1326
360.9596, 115.4964
361.4417, 115.8859
361.9239, 116.5724
362.4060, 117.0641
362.8881, 116.8826
363.3702, 115.7576
363.8523, 115.1709
364.3344, 115.7897
364.8166, 117.1350
365.2987, 118.6737
365.7808, 120.5676
366.2629, 122.3167
366.7450, 123.5681
367.2271, 124.3283
367.7093, 125.6434
368.1914, 127.8947
368.6735, 130.5718
369.1556, 133.3706
369.6377, 136.5438
370.1198, 139.4306
370.6020, 142.1944
371.0841, 144.6790
371.5662, 146.3434
372.0483, 147.2686
372.5304, 147.2491
373.0125, 145.9713
373.4947, 142.6797
373.9768, 140.4138
374.4589, 139.7430
374.9410, 139.6161
375.4231, 138.2307
375.9052, 135.0466
376.3874, 132.1047
376.8695, 130.1001
377.3516, 128.9889
377.8337, 127.7342
378.3158, 126.2123
378.7979, 124.8476
379.2801, 124.2416
379.7622, 124.4389
380.2443, 124.2881
380.7264, 123.4444
381.2085, 122.2085
381.6906, 121.2022
382.1728, 120.4174
382.6549, 120.2256
383.1370, 121.4324
383.6191, 123.5640
384.1012, 124.5369
384.5833, 123.9222
385.0655, 122.8903
385.5476, 122.9752
386.0297, 123.9682
386.5118, 125.1153
386.9939, 126.0028
387.4760, 126.8586
387.9582, 128.1405
388.4403, 129.8731
388.9224, 131.4784
389.4045, 132.1615
389.8866, 132.4946
390.3687, 133.3294
390.8509, 135.4832
391.3330, 137.6311
391.8151, 138.7603
392.2972, 139.0602
392.7793, 139.3248
393.2614, 140.1525
393.7436, 140.9603
394.2257, 141.4372
394.7078, 141.7222
395.1899, 141.1667
395.6720, 138.9959
396.1541, 135.9312
396.6363, 133.1333
397.1184, 130.6245
397.6005, 128.6656
398.0826, 127.4375
398.5647, 127.0094
399.0468, 126.7660
399.5290, 127.0796
400.0111, 127.3143
400.4932, 126.9581
400.9753, 125.6006
401.4574, 124.1825
401.9395, 122.6068
402.4217, 120.9982
402.9038, 120.0160
403.3859, 119.9369
403.8680, 120.0792
404.3501, 120.1427
404.8322, 120.1214
405.3144, 120.0113
405.7965, 119.7308
406.2786, 119.4596
406.7607, 119.4401
407.2428, 119.6498
407.7249, 120.2651
408.2071, 121.5424
408.6892, 123.3160
409.1713, 124.4454
409.6534, 124.8680
410.1355, 125.0206
410.6176, 125.1365
411.0998, 125.2701
411.5819, 125.7863
412.0640, 126.8520
412.5461, 128.1701
413.0282, 129.0639
413.5103, 129.6741
413.9925, 130.8366
414.4746, 133.7236
414.9567, 137.2655
415.4388, 139.6774
415.9209, 140.7637
416.4030, 141.4420
416.8852, 142.4198
417.3673, 143.5308
417.8494, 144.5070
418.3315, 145.0881
418.8136, 145.6416
419.2957, 146.2205
419.7779, 146.8929
420.2600, 148.1203
420.7421, 151.0986
421.2242, 154.1147
421.7063, 155.8573
422.1884, 155.8532
422.6706, 155.1134
423.1527, 153.5037
423.6348, 151.3650
424.1169, 149.3372
424.5990, 147.8053
425.0811, 146.0899
425.5633, 143.8706
426.0454, 141.0271
426.5275, 138.5078
427.0096, 136.3918
427.4917, 134.5068
427.9738, 132.6804
428.4560, 130.7608
428.9381, 129.2188
429.4202, 128.1284
429.9023, 127.4621
430.3844, 127.1335
430.8665, 127.2298
431.3487, 127.4226
431.8308, 127.5742
432.3129, 127.6858
432.7950, 127.7206
433.2771, 127.6565
433.7592, 127.5769
434.2414, 127.5299
434.7235, 127.5296
435.2056, 127.7346
435.6877, 128.1857
436.1698, 128.8781
436.6519, 129.8848
437.1341, 131.1949
437.6162, 132.5679
438.0983, 133.8507
438.5804, 135.0851
439.0625, 136.2072
439.5446, 137.0304
440.0268, 138.3451
440.5089, 141.3354
440.9910, 145.3367
441.4731, 148.9375
441.9552, 150.9804
442.4373, 152.8652
442.9195, 155.7229
443.4016, 159.5493
443.8837, 162.9671
444.3658, 165.6509
444.8479, 167.5650
445.3300, 168.6496
445.8122, 168.6924
446.2943, 168.1888
446.7764, 167.0953
447.2585, 165.5112
447.7406, 163.6902
448.2227, 161.4320
448.7049, 159.1500
449.1870, 156.8841
449.6691, 154.6082
450.1512, 152.6355
450.6333, 151.0693
451.1154, 149.7221
451.5976, 148.3295
452.0797, 146.6836
452.5618, 145.8156
453.0439, 146.1987
453.5260, 147.3035
454.0081, 147.3775
454.4903, 146.2637
454.9724, 145.1448
455.4545, 144.9732
455.9366, 145.5158
456.4187, 144.9578
456.9008, 143.1319
457.3830, 140.8317
457.8651, 138.9429
458.3472, 137.3532
458.8293, 135.7798
459.3114, 133.9759
459.7935, 132.2776
460.2757, 131.1125
460.7578, 130.4292
461.2399, 129.9389
461.7220, 129.7137
462.2041, 129.4590
462.6862, 128.7931
463.1684, 127.5289
463.6505, 126.4747
464.1326, 126.1576
464.6147, 126.2735
465.0968, 126.4270
465.5789, 127.0690
466.0611, 127.1595
466.5432, 125.9869
467.0253, 123.7105
467.5074, 122.0838
467.9895, 121.7790
468.4716, 121.7922
468.9538, 121.6626
469.4359, 121.2997
469.9180, 120.9657
470.4001, 120.4541
470.8822, 120.1090
471.3643, 120.5529
471.8465, 122.1189
472.3286, 123.4956
472.8107, 124.3062
473.2928, 124.6377
473.7749, 125.0422
474.2570, 125.5233
474.7392, 126.0452
475.2213, 126.4966
475.7034, 126.9264
476.1855, 127.7430
476.6676, 129.0730
477.1497, 130.5148
477.6319, 131.3139
478.1140, 131.7221
478.5961, 132.5520
479.0782, 134.4775
479.5603, 136.8125
480.0424, 138.8654
480.5246, 140.6467
481.0067, 142.1747
481.4888, 143.2286
481.9709, 144.1647
482.4530, 145.3930
482.9352, 147.3048
483.4173, 148.7202
483.8994, 149.3762
484.3815, 149.1968
484.8636, 148.0637
485.3457, 145.8322
485.8279, 142.7828
486.3100, 138.0979
486.7921, 131.8041
487.2742, 128.0695
487.7563, 128.5228
488.2384, 129.8475
488.7206, 130.2516
489.2027, 129.4459
489.6848, 128.4632
490.1669, 127.1609
490.6490, 125.8546
491.1311, 125.1171
491.6133, 125.0551
492.0954, 124.8599
492.5775, 124.2206
493.0596, 123.2738
493.5417, 122.3342
494.0238, 121.3924
494.5060, 121.0133
494.9881, 122.1580
495.4702, 124.1579
495.9523, 125.3077
496.4344, 125.2772
496.9165, 124.8491
497.3987, 124.6312
497.8808, 124.5898
498.3629, 124.6667
498.8450, 124.7173
499.3271, 124.9797
499.8092, 125.6453
500.2914, 126.6854
500.7735, 127.8732
501.2556, 129.6803
501.7377, 131.2233
502.2198, 131.8076
502.7019, 130.6938
503.1841, 130.3842
503.6662, 132.4122
504.1483, 134.8923
504.6304, 135.5381
505.1125, 132.7801
505.5946, 130.7481
506.0768, 130.3175
506.5589, 131.1238
507.0410, 131.2874
507.5231, 130.6227
508.0052, 129.8356
508.4873, 129.5229
508.9695, 129.6983
509.4516, 128.5004
509.9337, 125.6330
510.4158, 122.5805
510.8979, 121.1646
511.3800, 121.0796
511.8622, 120.9979
512.3443, 120.4672
512.8264, 119.9225
513.3085, 120.1744
513.7906, 120.9735
514.2728, 121.4230
514.7549, 120.6564
515.2370, 119.5596
515.7191, 118.7540
516.2012, 118.2781
516.6833, 118.3577
517.1655, 120.0026
517.6476, 121.7656
518.1297, 122.3952
518.6118, 120.3414
519.0939, 118.7521
519.5760, 118.2847
520.0582, 118.6078
520.5403, 118.8920
521.0224, 119.1137
521.5045, 119.3249
521.9866, 119.5483
522.4688, 119.7838
522.9509, 119.9361
523.4330, 119.9628
523.9151, 120.0022
524.3972, 120.1953
524.8793, 120.5455
525.3615, 120.7728
525.8436, 120.8225
526.3257, 120.8267
526.8078, 121.1147
527.2899, 121.5814
527.7720, 121.7102
528.2542, 121.1531
528.7363, 120.2613
529.2184, 119.2527
529.7005, 118.2286
530.1826, 117.6895
530.6647, 118.1910
531.1469, 119.1652
531.6290, 120.3044
532.1111, 121.7103
532.5932, 122.5236
533.0753, 121.9123
533.5574, 120.7564
534.0396, 119.9782
534.5217, 119.9787
535.0038, 120.0799
535.4859, 120.2746
535.9680, 120.5070
536.4501, 120.5539
536.9323, 120.0992
537.4144, 120.0089
537.8965, 120.7803
538.3786, 122.4440
538.8607, 123.4058
539.3428, 123.5306
539.8250, 123.3409
540.3071, 123.4127
540.7892, 123.6744
541.2713, 123.2965
541.7534, 121.9525
542.2355, 120.4948
542.7177, 120.0114
543.1998, 120.3893
543.6819, 121.2894
544.1640, 123.1425
544.6461, 125.0193
545.1282, 126.0615
545.6104, 126.3305
546.0925, 126.2620
546.5746, 125.9888
547.0567, 125.5244
547.5388, 124.7524
548.0209, 123.4248
548.5031, 122.6024
548.9852, 122.6978
549.4673, 123.3076
549.9494, 124.0329
550.4315, 125.2720
550.9136, 125.9681
551.3958, 125.8333
551.8779, 125.1273
552.3600, 124.6208
552.8421, 124.3508
553.3242, 124.1317
553.8063, 123.8207
554.2885, 123.4677
554.7706, 123.5174
555.2527, 123.9939
555.7348, 124.6216
556.2169, 125.3202
556.6990, 125.9777
557.1812, 126.3001
557.6633, 126.2107
558.1454, 125.9034
558.6275, 125.4039
559.1096, 124.8423
559.5917, 124.4363
560.0739, 124.4265
560.5560, 124.4557
561.0381, 124.1213
561.5202, 123.6044
562.0023, 123.6855
562.4844, 125.4398
562.9666, 127.0812
563.4487, 127.6981
563.9308, 127.0297
564.4129, 126.5837
564.8950, 126.2273
565.3771, 126.2371
565.8593, 127.0166
566.3414, 128.8953
566.8235, 130.0821
567.3056, 130.2587
567.7877, 129.9107
568.2698, 129.9250
568.7520, 130.2784
569.2341, 130.5471
569.7162, 130.3410
570.1983, 130.1082
570.6804, 130.9457
571.1625, 132.6833
571.6447, 134.1481
572.1268, 134.3559
572.6089, 134.0515
573.0910, 133.8840
573.5731, 133.9186
574.0552, 134.1666
574.5374, 134.4794
575.0195, 135.0863
575.5016, 136.1997
575.9837, 138.6156
576.4658, 140.5911
576.9479, 141.6568
577.4301, 142.2641
577.9122, 143.2617
578.3943, 144.5947
578.8764, 146.4660
579.3585, 149.0667
579.8406, 152.2792
580.3228, 155.2146
580.8049, 157.7968
581.2870, 160.5714
581.7691, 164.0757
582.2512, 168.1214
582.7333, 171.9032
583.2155, 175.3469
583.6975, 178.9635
584.1796, 183.1824
584.6617, 187.9978
585.1439, 193.4823
585.6260, 199.9395
586.1081, 206.5610
586.5902, 212.4415
587.0723, 218.2088
587.5544, 224.9391
588.0366, 232.8546
588.5187, 242.0238
589.0008, 252.7517
589.4829, 265.0012
589.9650, 277.4643
590.4471, 289.5840
590.9293, 302.6782
591.4114, 317.1844
591.8935, 333.1752
592.3756, 350.8212
592.8577, 370.7935
593.3398, 390.7088
593.8220, 409.5899
594.3041, 426.9969
594.7862, 439.9842
595.2683, 448.7909
595.7504, 450.9874
596.2325, 441.9305
596.7147, 423.6776
597.1968, 401.8457
597.6789, 376.2820
598.1610, 350.0752
598.6431, 324.3884
599.1252, 299.6904
599.6074, 277.5987
600.0895, 258.5688
600.5716, 242.1413
601.0537, 228.3916
601.5358, 217.9390
602.0179, 207.9774
602.5001, 197.7479
602.9822, 188.6891
603.4643, 182.0191
603.9464, 178.1855
604.4285, 174.8071
604.9106, 171.7637
605.3928, 169.0358
605.8749, 166.5944
606.3570, 164.4173
606.8391, 162.3478
607.3212, 160.3378
607.8033, 158.4109
608.2855, 156.2814
608.7676, 154.1764
609.2497, 152.8586
609.7318, 153.8266
610.2139, 154.9756
610.6960, 154.3323
611.1782, 151.8833
611.6603, 149.9480
612.1424, 150.2039
612.6245, 150.5825
613.1066, 149.6636
613.5887, 146.2771
614.0709, 144.0749
614.5530, 143.4223
615.0351, 143.6107
615.5172, 144.0263
615.9993, 144.8124
616.4814, 145.1514
616.9636, 144.8097
617.4457, 144.1448
617.9278, 143.6939
618.4099, 143.4808
618.8920, 143.7421
619.3741, 145.0170
619.8563, 146.4987
620.3384, 146.7364
620.8205, 145.9793
621.3026, 145.4809
621.7847, 146.2927
622.2668, 147.4033
622.7490, 148.0551
623.2311, 148.1508
623.7132, 148.1694
624.1953, 148.1353
624.6774, 148.1416
625.1595, 148.2417
625.6417, 148.3350
626.1238, 148.7724
626.6059, 149.7914
627.0880, 150.8949
627.5701, 151.4572
628.0522, 151.4677
628.5344, 150.9812
629.0165, 149.8311
629.4986, 148.4556
629.9807, 147.6347
630.4628, 147.3356
630.9449, 147.3951
631.4271, 148.1151
631.9092, 148.8975
632.3913, 149.1096
632.8734, 148.7846
633.3555, 148.1792
633.8376, 146.9087
634.3198, 145.7921
634.8019, 145.3935
635.2840, 145.9153
635.7661, 146.3680
636.2482, 146.4976
636.7303, 146.6526
637.2125, 147.2543
637.6946, 148.9935
638.1767, 148.9510
638.6588, 146.4533
639.1409, 143.1447
639.6230, 141.5021
640.1052, 141.4072
640.5873, 141.1488
641.0694, 140.1727
641.5515, 139.0507
642.0336, 138.5941
642.5157, 138.7101
642.9979, 139.1275
643.4800, 140.1653
643.9621, 141.0785
644.4442, 141.0398
644.9263, 140.2648
645.4084, 140.0419
645.8906, 141.7006
646.3727, 143.2063
646.8548, 143.4545
647.3369, 142.2460
647.8190, 141.3548
648.3011, 140.8612
648.7833, 140.5766
649.2654, 140.3547
649.7475, 140.1806
650.2296, 140.2777
650.7117, 140.7017
651.1938, 141.2239
651.6760, 141.4701
652.1581, 141.5700
652.6402, 141.9515
653.1223, 142.8432
653.6044, 143.8005
654.0865, 144.6292
654.5687, 145.2231
655.0508, 145.3887
