##NAMES=Yangite
##RRUFFID=R090031
##IDEAL CHEMISTRY=Pb^2+^Mn^2+^Si_3_O_8_&#183;H_2_O
##LOCALITY=Kombat, Namibia
##OWNER=RRUFF
##SOURCE=William W. Pinch
##DESCRIPTION=Colorless to pale brown bladed crystals associated with black massive melanotekite, R090032, and brown rhodochrosite. Sample is from the John Innes collection. Type sample.
##STATUS=The identification of this mineral is confirmed by single-crystal X-ray diffraction and chemical analysis.
##URL=rruff.info/R090031
##MEASURED CHEMISTRY=Pb_1.00_Mn_1.00_Si_3.00_O_8.00_Â·H_2_O
90.92609, 0.0000000E+00
91.40820, 38.34481
91.89032, 38.54315
92.37244, 38.44719
92.85455, 38.10311
93.33667, 37.78731
93.81879, 37.65393
94.30090, 37.69891
94.78302, 37.95878
95.26514, 38.60051
95.74725, 39.32775
96.22937, 39.37361
96.71149, 38.69064
97.19360, 37.86125
97.67572, 37.37327
98.15784, 37.23244
98.63995, 37.31983
99.12207, 37.70497
99.60419, 38.33220
100.0863, 38.72702
100.5684, 38.85527
101.0505, 38.81929
101.5327, 38.69956
102.0148, 38.43429
102.4969, 38.29900
102.9790, 38.41914
103.4611, 38.85260
103.9432, 39.19281
104.4253, 39.31739
104.9075, 39.41389
105.3896, 39.76152
105.8717, 39.89091
106.3538, 40.91544
106.8359, 43.27449
107.3180, 47.13784
107.8002, 52.01978
108.2823, 58.28541
108.7644, 65.62400
109.2465, 73.16431
109.7286, 81.08032
110.2107, 88.96655
110.6929, 96.79211
111.1750, 103.6989
111.6571, 111.3912
112.1392, 120.1665
112.6213, 129.9374
113.1034, 140.2226
113.5856, 150.5744
114.0677, 161.7587
114.5498, 174.2182
115.0319, 187.4808
115.5140, 202.6630
115.9961, 220.0440
116.4783, 239.6266
116.9604, 260.9624
117.4425, 284.5842
117.9246, 309.9447
118.4067, 336.2068
118.8888, 364.2472
119.3710, 392.5043
119.8531, 419.8053
120.3352, 445.8131
120.8173, 472.4849
121.2994, 498.9879
121.7815, 526.8674
122.2637, 558.9540
122.7458, 593.2352
123.2279, 633.6530
123.7100, 684.4259
124.1921, 746.6243
124.6742, 816.5612
125.1564, 896.0939
125.6385, 981.9801
126.1206, 1064.294
126.6027, 1152.211
127.0848, 1229.664
127.5669, 1266.533
128.0491, 1255.261
128.5312, 1208.453
129.0133, 1130.794
129.4954, 1025.975
129.9775, 921.5912
130.4596, 833.3776
130.9418, 761.4865
131.4239, 703.7706
131.9060, 661.4504
132.3881, 631.5886
132.8702, 608.8711
133.3523, 593.2526
133.8345, 583.4818
134.3166, 579.3202
134.7987, 580.7627
135.2808, 585.2443
135.7629, 592.6074
136.2450, 602.6113
136.7272, 613.6706
137.2093, 625.6563
137.6914, 639.2513
138.1735, 655.4156
138.6556, 674.3304
139.1377, 694.4901
139.6199, 716.2175
140.1020, 739.3145
140.5841, 761.4827
141.0662, 783.0155
141.5483, 802.8864
142.0304, 819.9665
142.5126, 834.5216
142.9947, 844.9570
143.4768, 848.0856
143.9589, 841.8273
144.4410, 832.2332
144.9231, 817.5204
145.4053, 800.7379
145.8874, 786.2231
146.3695, 774.8635
146.8516, 764.5034
147.3337, 754.3982
147.8158, 743.0394
148.2980, 735.2110
148.7801, 731.2321
149.2622, 730.5547
149.7443, 732.1963
150.2264, 736.2842
150.7085, 742.5310
151.1907, 750.8483
151.6728, 762.4939
152.1549, 774.2292
152.6370, 786.8842
153.1191, 799.7063
153.6012, 810.4774
154.0834, 821.3986
154.5655, 828.4901
155.0476, 830.0755
155.5297, 823.5700
156.0118, 814.8179
156.4939, 802.8691
156.9761, 788.8326
157.4582, 776.8355
157.9403, 766.6825
158.4224, 759.4532
158.9045, 755.7816
159.3866, 756.9867
159.8688, 760.3398
160.3509, 766.4792
160.8330, 774.6966
161.3151, 781.6625
161.7972, 786.9376
162.2793, 790.1712
162.7615, 791.1241
163.2436, 791.8498
163.7257, 788.3439
164.2078, 777.7019
164.6899, 760.6302
165.1720, 741.9991
165.6541, 723.1028
166.1363, 704.2125
166.6184, 685.5963
167.1005, 666.1592
167.5826, 647.9362
168.0647, 631.8383
168.5468, 617.8369
169.0290, 605.7346
169.5111, 595.3701
169.9932, 586.8146
170.4753, 580.1430
170.9574, 576.2467
171.4395, 573.7614
171.9217, 571.7523
172.4038, 570.2069
172.8859, 568.8392
173.3680, 566.9233
173.8501, 565.0823
174.3322, 564.3754
174.8144, 565.4440
175.2965, 567.8009
175.7786, 570.5825
176.2607, 573.7447
176.7428, 578.2602
177.2249, 584.7930
177.7071, 593.2936
178.1892, 603.8170
178.6713, 616.1149
179.1534, 630.5301
179.6355, 647.4125
180.1176, 666.8414
180.5998, 689.2123
181.0819, 715.1889
181.5640, 744.5237
182.0461, 777.4279
182.5282, 815.5350
183.0103, 856.8696
183.4925, 897.2803
183.9746, 936.6336
184.4567, 973.9180
184.9388, 1011.496
185.4209, 1048.051
185.9030, 1073.227
186.3852, 1081.701
186.8673, 1075.004
187.3494, 1057.369
187.8315, 1028.022
188.3136, 991.2089
188.7957, 948.8211
189.2779, 901.7141
189.7600, 856.3441
190.2421, 815.3800
190.7242, 779.0764
191.2063, 748.3092
191.6884, 723.6688
192.1706, 703.6190
192.6527, 684.9417
193.1348, 667.6852
193.6169, 653.5974
194.0990, 643.4621
194.5811, 637.2643
195.0633, 634.3143
195.5454, 634.8754
196.0275, 638.0704
196.5096, 642.4866
196.9917, 648.1568
197.4738, 654.7840
197.9560, 662.3609
198.4381, 670.8553
198.9202, 679.9157
199.4023, 689.7256
199.8844, 699.7891
200.3665, 709.1933
200.8487, 718.0994
201.3308, 725.8261
201.8129, 732.1194
202.2950, 737.0056
202.7771, 739.9352
203.2592, 740.1578
203.7414, 739.2557
204.2235, 740.7689
204.7056, 745.0836
205.1877, 750.1998
205.6698, 755.2017
206.1519, 760.0560
206.6341, 765.1156
207.1162, 770.7338
207.5983, 776.1833
208.0804, 780.1318
208.5625, 782.9295
209.0446, 783.0597
209.5268, 779.8259
210.0089, 773.1851
210.4910, 763.1891
210.9731, 749.0772
211.4552, 732.0859
211.9373, 715.0977
212.4195, 697.9473
212.9016, 681.4099
213.3837, 665.5821
213.8658, 649.8835
214.3479, 636.8471
214.8300, 626.4144
215.3121, 618.6082
215.7943, 613.4842
216.2764, 611.0912
216.7585, 611.3425
217.2406, 614.1384
217.7227, 619.2657
218.2048, 627.5018
218.6870, 639.1571
219.1691, 653.7263
219.6512, 670.2260
220.1333, 688.3152
220.6154, 709.1008
221.0975, 733.6672
221.5797, 762.5580
222.0618, 792.9335
222.5439, 825.1048
223.0260, 858.5477
223.5081, 893.0798
223.9902, 928.6813
224.4724, 965.0927
224.9545, 1001.211
225.4366, 1036.806
225.9187, 1074.246
226.4008, 1113.615
226.8829, 1155.137
227.3651, 1199.455
227.8472, 1247.280
228.3293, 1297.566
228.8114, 1349.766
229.2935, 1402.937
229.7757, 1460.423
230.2578, 1522.378
230.7399, 1587.921
231.2220, 1656.462
231.7041, 1727.509
232.1862, 1801.521
232.6684, 1878.151
233.1505, 1956.093
233.6326, 2041.141
234.1147, 2135.424
234.5968, 2235.792
235.0789, 2334.839
235.5611, 2432.106
236.0432, 2528.488
236.5253, 2627.239
237.0074, 2730.731
237.4895, 2823.057
237.9716, 2906.311
238.4538, 2977.190
238.9359, 3031.345
239.4180, 3074.542
239.9001, 3092.524
240.3822, 3080.124
240.8643, 3035.457
241.3465, 2969.591
241.8286, 2878.374
242.3107, 2768.914
242.7928, 2649.716
243.2749, 2514.547
243.7570, 2380.138
244.2392, 2249.237
244.7213, 2119.979
245.2034, 2002.963
245.6855, 1897.753
246.1676, 1804.117
246.6497, 1721.941
247.1319, 1652.012
247.6140, 1592.155
248.0961, 1542.249
248.5782, 1502.381
249.0603, 1470.612
249.5424, 1447.219
250.0246, 1431.363
250.5067, 1421.846
250.9888, 1418.530
251.4709, 1421.861
251.9530, 1432.288
252.4351, 1450.092
252.9173, 1472.329
253.3994, 1498.184
253.8815, 1529.639
254.3636, 1569.606
254.8457, 1621.124
255.3278, 1673.486
255.8100, 1725.048
256.2921, 1776.005
256.7742, 1827.558
257.2563, 1884.554
257.7384, 1935.562
258.2205, 1971.145
258.7026, 1992.389
259.1848, 1996.261
259.6669, 1981.869
260.1490, 1949.441
260.6311, 1901.218
261.1132, 1834.813
261.5953, 1756.875
262.0775, 1670.807
262.5596, 1570.335
263.0417, 1477.997
263.5238, 1395.787
264.0059, 1323.531
264.4880, 1256.345
264.9702, 1193.696
265.4523, 1138.023
265.9344, 1091.233
266.4165, 1053.558
266.8986, 1022.682
267.3807, 999.0926
267.8629, 981.6966
268.3450, 966.5027
268.8271, 952.8098
269.3092, 942.6863
269.7913, 937.1782
270.2734, 936.6787
270.7556, 939.2521
271.2377, 945.0938
271.7198, 953.8073
272.2019, 964.3929
272.6840, 976.6638
273.1661, 991.5272
273.6483, 1009.674
274.1304, 1031.238
274.6125, 1054.585
275.0946, 1080.021
275.5767, 1106.572
276.0588, 1132.947
276.5410, 1159.276
277.0231, 1184.329
277.5052, 1208.013
277.9873, 1230.482
278.4694, 1247.678
278.9515, 1260.009
279.4337, 1266.063
279.9158, 1264.541
280.3979, 1255.689
280.8800, 1237.035
281.3621, 1207.001
281.8442, 1166.115
282.3264, 1118.957
282.8085, 1064.688
283.2906, 1007.190
283.7727, 949.6287
284.2548, 891.9900
284.7369, 837.1815
285.2191, 785.6568
285.7012, 737.8561
286.1833, 693.3912
286.6654, 652.1549
287.1475, 614.7767
287.6296, 583.2350
288.1118, 556.9960
288.5939, 532.1185
289.0760, 507.2899
289.5581, 483.5757
290.0402, 463.0162
290.5223, 445.5585
291.0045, 430.6523
291.4866, 418.3974
291.9687, 408.3898
292.4508, 398.6662
292.9329, 388.6714
293.4150, 379.1015
293.8972, 370.8061
294.3793, 363.7492
294.8614, 357.4604
295.3435, 351.7481
295.8256, 346.6048
296.3077, 342.1068
296.7899, 338.3538
297.2720, 335.1078
297.7541, 332.0356
298.2362, 329.2213
298.7183, 326.9860
299.2004, 325.5840
299.6826, 324.8746
300.1647, 324.5858
300.6468, 324.7027
301.1289, 325.2147
301.6110, 326.2715
302.0931, 327.7287
302.5753, 329.2448
303.0574, 330.6426
303.5395, 332.0053
304.0216, 333.4007
304.5037, 334.8429
304.9858, 336.3448
305.4680, 337.3449
305.9501, 338.4912
306.4322, 340.9014
306.9143, 346.0341
307.3964, 351.8534
307.8785, 356.3456
308.3607, 359.6530
308.8428, 363.2917
309.3249, 368.8359
309.8070, 375.0734
310.2891, 380.4508
310.7712, 383.6112
311.2534, 387.0650
311.7355, 392.8506
312.2176, 400.5261
312.6997, 408.2872
313.1818, 414.7058
313.6639, 420.9604
314.1461, 428.0697
314.6282, 436.3534
315.1103, 445.1439
315.5924, 454.1388
316.0745, 463.3576
316.5566, 473.0040
317.0388, 483.2992
317.5209, 493.8374
318.0030, 504.4396
318.4851, 515.0089
318.9672, 525.9503
319.4493, 537.6968
319.9315, 549.7760
320.4136, 561.7256
320.8957, 573.2709
321.3778, 584.6718
321.8599, 596.3096
322.3420, 608.2809
322.8242, 619.4542
323.3063, 629.8793
323.7884, 639.2690
324.2705, 647.3724
324.7526, 652.6824
325.2347, 658.3098
325.7169, 664.7818
326.1990, 672.1022
326.6811, 679.6125
327.1632, 686.4136
327.6453, 693.9708
328.1274, 703.0926
328.6096, 713.5569
329.0917, 725.9349
329.5738, 739.6520
330.0559, 755.1095
330.5380, 773.9098
331.0201, 796.2122
331.5023, 821.6766
331.9844, 850.1199
332.4665, 880.4597
332.9486, 915.9706
333.4307, 957.5383
333.9128, 1003.676
334.3950, 1051.021
334.8771, 1099.899
335.3592, 1150.253
335.8413, 1202.640
336.3234, 1258.001
336.8055, 1309.571
337.2877, 1359.968
337.7698, 1402.212
338.2519, 1430.359
338.7340, 1445.324
339.2161, 1441.338
339.6982, 1415.269
340.1803, 1368.832
340.6624, 1311.707
341.1446, 1240.262
341.6267, 1167.992
342.1088, 1101.654
342.5909, 1041.685
343.0730, 991.0481
343.5551, 951.3290
344.0373, 920.3978
344.5194, 894.6805
345.0015, 873.9377
345.4836, 858.7490
345.9657, 850.4172
346.4478, 848.2345
346.9300, 848.7056
347.4121, 851.8650
347.8942, 856.7791
348.3763, 862.0579
348.8584, 867.9055
349.3405, 875.5829
349.8227, 886.0943
350.3048, 898.7502
350.7869, 912.3359
351.2690, 926.8123
351.7511, 941.8458
352.2332, 956.6497
352.7154, 971.6574
353.1975, 987.9571
353.6796, 1007.178
354.1617, 1026.503
354.6438, 1042.768
355.1259, 1056.237
355.6081, 1068.344
356.0902, 1081.696
356.5723, 1093.586
357.0544, 1100.828
357.5365, 1102.045
358.0186, 1100.029
358.5008, 1097.240
358.9829, 1092.614
359.4650, 1083.874
359.9471, 1068.964
360.4292, 1050.358
360.9113, 1029.548
361.3935, 1006.976
361.8756, 981.5790
362.3577, 950.8465
362.8398, 917.8517
363.3219, 886.0849
363.8040, 856.5662
364.2862, 828.3926
364.7683, 801.3087
365.2504, 775.2058
365.7325, 750.4198
366.2146, 726.9999
366.6967, 704.6970
367.1789, 683.3549
367.6610, 662.5107
368.1431, 643.1348
368.6252, 624.7917
369.1073, 607.7666
369.5894, 593.2082
370.0716, 582.7771
370.5537, 572.9686
371.0358, 562.1439
371.5179, 548.9835
372.0000, 538.8351
372.4821, 532.5782
372.9643, 528.8068
373.4464, 525.8087
373.9285, 523.7946
374.4106, 522.1349
374.8927, 520.5979
375.3748, 519.1961
375.8570, 518.4119
376.3391, 518.0354
376.8212, 518.6812
377.3033, 521.0688
377.7854, 525.3768
378.2675, 529.9498
378.7497, 534.4192
379.2318, 539.1953
379.7139, 545.2291
380.1960, 552.4205
380.6781, 561.4529
381.1602, 573.2430
381.6424, 587.4094
382.1245, 601.0453
382.6066, 613.7705
383.0887, 627.5242
383.5708, 645.5222
384.0529, 667.0341
384.5351, 689.4105
385.0172, 711.3082
385.4993, 733.1962
385.9814, 757.0683
386.4635, 782.6415
386.9456, 808.3354
387.4278, 834.9691
387.9099, 860.0515
388.3920, 880.1570
388.8741, 894.9456
389.3562, 903.1672
389.8383, 904.8723
390.3205, 899.4708
390.8026, 885.2066
391.2847, 858.9238
391.7668, 825.0118
392.2489, 785.0042
392.7310, 738.2283
393.2132, 691.1439
393.6953, 645.4731
394.1774, 602.2920
394.6595, 562.5820
395.1416, 526.2919
395.6237, 494.3626
396.1059, 467.6859
396.5880, 446.1129
397.0701, 427.1684
397.5522, 411.2049
398.0343, 397.3487
398.5164, 385.1422
398.9986, 374.8517
399.4807, 365.8319
399.9628, 357.8747
400.4449, 351.1649
400.9270, 346.1755
401.4091, 343.7196
401.8913, 341.9902
402.3734, 340.3130
402.8555, 338.4599
403.3376, 337.9742
403.8197, 339.0575
404.3018, 341.2682
404.7840, 344.1532
405.2661, 347.7054
405.7482, 351.9535
406.2303, 356.8023
406.7124, 362.3721
407.1945, 369.5484
407.6767, 378.5010
408.1588, 388.1939
408.6409, 397.9763
409.1230, 407.8352
409.6051, 418.1988
410.0872, 429.1711
410.5694, 440.6558
411.0515, 452.0677
411.5336, 463.6041
412.0157, 476.2292
412.4978, 490.5395
412.9799, 506.2054
413.4621, 522.6335
413.9442, 539.9657
414.4263, 558.1221
414.9084, 576.4078
415.3905, 595.7486
415.8727, 618.1150
416.3548, 644.8324
416.8369, 673.5197
417.3190, 702.3255
417.8011, 731.4523
418.2832, 762.0120
418.7654, 793.8903
419.2475, 827.5589
419.7296, 863.5697
420.2117, 902.8235
420.6938, 941.1012
421.1759, 978.0509
421.6581, 1012.546
422.1402, 1043.834
422.6223, 1073.674
423.1044, 1097.847
423.5865, 1115.729
424.0686, 1127.102
424.5508, 1130.952
425.0329, 1127.354
425.5150, 1115.814
425.9971, 1095.779
426.4792, 1064.665
426.9613, 1030.413
427.4435, 991.8380
427.9256, 951.0179
428.4077, 910.7505
428.8898, 868.6802
429.3719, 831.4332
429.8540, 801.1319
430.3362, 777.4889
430.8183, 754.3357
431.3004, 731.0544
431.7825, 710.4431
432.2646, 695.3790
432.7467, 685.9128
433.2289, 677.7155
433.7110, 670.3818
434.1931, 664.0494
434.6752, 659.2430
435.1573, 655.8824
435.6394, 653.1315
436.1216, 650.6161
436.6036, 648.3795
437.0858, 646.6312
437.5679, 645.3718
438.0500, 644.2958
438.5321, 642.9487
439.0142, 641.6374
439.4963, 640.8190
439.9785, 640.2943
440.4606, 640.7858
440.9427, 643.6497
441.4248, 648.1486
441.9069, 652.0563
442.3890, 654.7429
442.8712, 656.1816
443.3533, 656.4794
443.8354, 655.7748
444.3175, 653.2808
444.7996, 648.8499
445.2817, 642.4753
445.7639, 634.1070
446.2460, 622.3314
446.7281, 610.0325
447.2102, 597.6736
447.6923, 585.2041
448.1744, 572.6902
448.6566, 559.5718
449.1387, 546.9264
449.6208, 535.2397
450.1029, 524.5404
450.5850, 514.4417
451.0671, 504.9594
451.5493, 496.1871
452.0314, 488.1864
452.5135, 480.9039
452.9956, 474.9626
453.4777, 470.7264
453.9598, 467.9893
454.4420, 465.9366
454.9241, 464.6315
455.4062, 463.6044
455.8883, 462.2535
456.3704, 460.8219
456.8525, 460.5215
457.3347, 461.5758
457.8168, 463.4385
458.2989, 465.3456
458.7810, 467.4919
459.2631, 470.3838
459.7452, 474.8397
460.2274, 479.8528
460.7095, 484.0381
461.1916, 487.6004
461.6737, 491.6802
462.1558, 497.3501
462.6379, 503.7114
463.1201, 509.8835
463.6022, 515.5035
464.0843, 521.5281
464.5664, 528.6136
465.0485, 536.3012
465.5306, 543.8608
466.0128, 550.6159
466.4949, 557.7133
466.9770, 565.8870
467.4591, 575.2045
467.9412, 583.1173
468.4233, 587.9583
468.9055, 592.8768
469.3876, 599.9608
469.8697, 611.0477
470.3518, 620.2783
470.8339, 627.4070
471.3160, 632.7939
471.7982, 637.0248
472.2803, 639.9578
472.7624, 642.3700
473.2445, 644.7203
473.7266, 646.7889
474.2087, 647.1358
474.6909, 645.7083
475.1730, 643.0124
475.6551, 639.7785
476.1372, 635.7115
476.6193, 629.2801
477.1014, 619.9183
477.5836, 609.3936
478.0657, 600.0840
478.5478, 591.4089
479.0299, 581.9044
479.5120, 570.2924
479.9941, 557.7861
480.4763, 545.6249
480.9584, 533.7395
481.4405, 521.7035
481.9226, 508.6883
482.4047, 495.7802
482.8868, 483.7969
483.3690, 473.0968
483.8511, 463.2034
484.3332, 454.4171
484.8153, 446.3133
485.2974, 438.0063
485.7795, 428.5716
486.2617, 419.9047
486.7438, 412.3366
487.2259, 405.8451
487.7080, 400.4391
488.1901, 396.6581
488.6722, 393.2035
489.1544, 389.0782
489.6365, 383.8493
490.1186, 379.8564
490.6007, 377.4029
491.0828, 375.8604
491.5649, 374.0058
492.0471, 371.7936
492.5292, 370.6343
493.0113, 371.2169
493.4934, 373.0597
493.9755, 375.1382
494.4576, 377.4131
494.9398, 379.4950
495.4219, 380.7082
495.9040, 381.6053
496.3861, 383.1140
496.8682, 385.3748
497.3503, 388.1779
497.8325, 391.5505
498.3146, 395.3224
498.7967, 399.3039
499.2788, 403.1012
499.7609, 407.3564
500.2430, 412.2682
500.7252, 417.8533
501.2073, 424.3105
501.6894, 432.5678
502.1715, 440.9354
502.6536, 448.5143
503.1357, 454.4852
503.6179, 461.7203
504.1000, 470.8179
504.5821, 480.8424
505.0642, 490.9142
505.5463, 501.0214
506.0284, 511.1230
506.5106, 521.0656
506.9927, 530.9697
507.4748, 541.1674
507.9569, 551.5986
508.4390, 562.5743
508.9211, 574.4738
509.4033, 587.1600
509.8854, 599.4377
510.3675, 611.2475
510.8496, 623.1152
511.3317, 635.5041
511.8138, 648.4142
512.2960, 661.7031
512.7781, 675.9225
513.2602, 689.8145
513.7423, 701.8503
514.2244, 712.5617
514.7065, 723.2389
515.1887, 735.2724
515.6708, 746.9231
516.1529, 757.2343
516.6350, 766.1910
517.1171, 773.3669
517.5992, 778.5102
518.0814, 781.8181
518.5635, 783.3845
519.0456, 783.1066
519.5277, 781.2768
520.0098, 779.4567
520.4919, 775.5441
520.9741, 766.1140
521.4562, 749.3810
521.9383, 730.8699
522.4204, 711.5986
522.9025, 691.5360
523.3846, 670.2324
523.8668, 647.5617
524.3489, 624.6961
524.8310, 601.9789
525.3131, 579.3740
525.7952, 557.2014
526.2773, 535.1613
526.7595, 514.6125
527.2416, 497.6697
527.7237, 483.6776
528.2058, 470.7556
528.6879, 458.8042
529.1700, 447.3235
529.6522, 435.2593
530.1343, 423.2769
530.6164, 412.9180
531.0985, 406.4201
531.5806, 400.7581
532.0627, 394.1808
532.5449, 386.5322
533.0270, 378.8570
533.5091, 370.7953
533.9912, 363.2616
534.4733, 357.0292
534.9554, 353.0298
535.4376, 348.9850
535.9197, 345.0103
536.4018, 340.9510
536.8839, 336.5310
537.3660, 331.3215
537.8481, 326.8560
538.3303, 323.8239
538.8124, 321.8398
539.2945, 318.6033
539.7766, 313.9796
540.2587, 309.2608
540.7408, 304.9633
541.2230, 301.2339
541.7051, 299.1858
542.1872, 299.1053
542.6693, 298.9988
543.1514, 296.6061
543.6335, 292.8177
544.1157, 289.1789
544.5978, 286.0156
545.0799, 283.3700
545.5620, 281.4704
546.0441, 280.1479
546.5262, 278.9843
547.0084, 278.0075
547.4905, 276.9922
547.9726, 275.7270
548.4547, 274.1681
548.9368, 272.9230
549.4189, 272.5981
549.9011, 272.1389
550.3832, 270.8730
550.8653, 268.2379
551.3474, 266.1073
551.8295, 264.6378
552.3116, 263.5410
552.7938, 262.3926
553.2759, 261.1651
553.7580, 260.1704
554.2401, 259.5850
554.7222, 259.2068
555.2043, 258.5500
555.6865, 257.6315
556.1686, 256.5580
556.6507, 255.2338
557.1328, 253.8686
557.6149, 252.7389
558.0970, 251.8627
558.5792, 251.1994
559.0613, 250.9414
559.5434, 250.7873
560.0255, 250.3883
560.5076, 249.3709
560.9897, 248.6485
561.4719, 249.0528
561.9540, 249.8352
562.4361, 249.7470
562.9182, 247.5387
563.4003, 245.6680
563.8824, 244.5147
564.3646, 244.0499
564.8467, 244.1289
565.3288, 245.0886
565.8109, 245.8851
566.2930, 245.8380
566.7751, 244.8983
567.2573, 244.5206
567.7394, 244.8189
568.2215, 245.1308
568.7036, 244.5359
569.1857, 243.3303
569.6678, 242.6420
570.1500, 242.8164
570.6321, 243.3234
571.1142, 243.8068
571.5963, 244.1596
572.0784, 244.1398
572.5605, 243.2456
573.0427, 242.2978
573.5248, 241.7071
574.0069, 241.4813
574.4890, 241.5452
574.9711, 242.4085
575.4532, 243.1279
575.9354, 243.1419
576.4175, 242.1439
576.8996, 241.4366
577.3817, 241.0197
577.8638, 240.9005
578.3459, 241.1238
578.8281, 241.7527
579.3102, 242.4940
579.7923, 243.4084
580.2744, 244.2771
580.7565, 244.5088
581.2386, 244.1488
581.7208, 244.0307
582.2029, 244.6050
582.6850, 245.5241
583.1671, 246.0650
583.6492, 246.3235
