##NAMES=Yangite
##RRUFFID=R090031
##IDEAL CHEMISTRY=Pb^2+^Mn^2+^Si_3_O_8_&#183;H_2_O
##LOCALITY=Kombat, Namibia
##OWNER=RRUFF
##SOURCE=William W. Pinch
##DESCRIPTION=Colorless to pale brown bladed crystals associated with black massive melanotekite, R090032, and brown rhodochrosite. Sample is from the John Innes collection. Type sample.
##STATUS=The identification of this mineral is confirmed by single-crystal X-ray diffraction and chemical analysis.
##URL=rruff.info/R090031
##MEASURED CHEMISTRY=Pb_1.00_Mn_1.00_Si_3.00_O_8.00_Â·H_2_O
92.37695, 439.1879
92.85907, 440.9915
93.34119, 441.1519
93.82330, 435.6276
94.30542, 427.8626
94.78754, 420.1190
95.26965, 413.0930
95.75177, 406.6221
96.23389, 401.3711
96.71600, 396.4366
97.19812, 391.1372
97.68024, 385.3229
98.16235, 379.7189
98.64447, 375.1773
99.12659, 371.6507
99.60870, 368.3892
100.0908, 365.9844
100.5729, 364.6649
101.0551, 364.3004
101.5372, 364.6064
102.0193, 365.9091
102.5014, 370.2831
102.9835, 378.4607
103.4656, 389.3896
103.9478, 403.5771
104.4299, 420.4307
104.9120, 439.2183
105.3941, 459.6850
105.8762, 482.4397
106.3583, 501.2142
106.8405, 517.1463
107.3226, 529.1870
107.8047, 535.5916
108.2868, 536.5670
108.7689, 535.3008
109.2510, 534.8525
109.7332, 535.2352
110.2153, 536.2927
110.6974, 536.8281
111.1795, 538.2886
111.6616, 543.0300
112.1437, 551.8485
112.6259, 563.5068
113.1080, 576.7155
113.5901, 591.2672
114.0722, 606.8225
114.5543, 623.4418
115.0364, 641.1259
115.5185, 658.3559
116.0007, 673.6033
116.4828, 689.3051
116.9649, 706.9543
117.4470, 726.7205
117.9291, 748.2545
118.4112, 771.0628
118.8934, 794.4743
119.3755, 820.9721
119.8576, 849.7239
120.3397, 881.6677
120.8218, 917.3076
121.3039, 956.8766
121.7861, 1000.682
122.2682, 1050.083
122.7503, 1105.499
123.2324, 1167.131
123.7145, 1243.510
124.1966, 1324.925
124.6788, 1401.832
125.1609, 1472.146
125.6430, 1531.119
126.1251, 1536.491
126.6072, 1483.625
127.0893, 1398.259
127.5715, 1275.621
128.0536, 1122.598
128.5357, 969.4003
129.0178, 832.3657
129.4999, 714.8295
129.9821, 617.0954
130.4642, 543.0441
130.9463, 486.0180
131.4284, 440.4825
131.9105, 407.1102
132.3926, 381.4647
132.8748, 362.6767
133.3569, 348.8404
133.8390, 338.0317
134.3211, 329.9579
134.8032, 324.3572
135.2853, 320.2990
135.7674, 318.2489
136.2496, 317.3340
136.7317, 317.0464
137.2138, 317.3753
137.6959, 318.3344
138.1780, 320.0513
138.6601, 322.5919
139.1423, 325.2110
139.6244, 328.2586
140.1065, 331.0982
140.5886, 333.4098
141.0707, 335.2256
141.5528, 336.8725
142.0350, 338.8340
142.5171, 341.7027
142.9992, 343.1993
143.4813, 342.5360
143.9634, 341.3186
144.4455, 340.4550
144.9277, 340.2170
145.4098, 340.4620
145.8919, 340.9760
146.3740, 341.7981
146.8561, 342.8734
147.3382, 343.8999
147.8204, 345.2749
148.3025, 347.4732
148.7846, 350.6699
149.2667, 354.7489
149.7488, 359.6970
150.2309, 365.5537
150.7131, 371.7700
151.1952, 378.5378
151.6773, 385.5977
152.1594, 391.9092
152.6415, 396.7003
153.1236, 400.9426
153.6058, 406.3843
154.0879, 413.4761
154.5700, 420.3143
155.0521, 424.9056
155.5342, 427.1109
156.0163, 429.8284
156.4985, 434.2237
156.9806, 439.5888
157.4627, 445.4649
157.9448, 451.7601
158.4269, 458.4779
158.9090, 465.8309
159.3912, 474.2095
159.8733, 482.1613
160.3554, 489.6109
160.8375, 496.4143
161.3196, 502.6596
161.8017, 508.4197
162.2839, 513.2548
162.7660, 515.7935
163.2481, 515.0661
163.7302, 512.9734
164.2123, 509.2796
164.6944, 504.6405
165.1766, 499.8016
165.6587, 495.1544
166.1408, 490.6656
166.6229, 485.9729
167.1050, 481.0902
167.5871, 475.9916
168.0693, 470.0569
168.5514, 463.8849
169.0335, 458.5259
169.5156, 454.6669
169.9977, 452.2779
170.4798, 450.8758
170.9620, 450.7200
171.4441, 451.0603
171.9262, 451.4508
172.4083, 451.9818
172.8904, 453.0596
173.3725, 454.7653
173.8547, 457.4059
174.3368, 461.7725
174.8189, 468.7756
175.3010, 476.8796
175.7831, 484.3769
176.2652, 491.1573
176.7474, 499.4370
177.2295, 511.4857
177.7116, 526.3867
178.1937, 541.6874
178.6758, 556.4459
179.1579, 571.5143
179.6401, 588.0413
180.1222, 605.7053
180.6043, 625.7196
181.0864, 649.2950
181.5685, 675.4671
182.0506, 702.9371
182.5328, 732.1923
183.0149, 762.1693
183.4970, 790.6786
183.9791, 821.3473
184.4612, 843.6378
184.9433, 856.3541
185.4255, 859.0277
185.9076, 850.5714
186.3897, 828.9001
186.8718, 794.7877
187.3539, 757.3766
187.8360, 713.2402
188.3182, 668.9643
188.8003, 624.9247
189.2824, 582.1990
189.7645, 542.2818
190.2466, 506.5044
190.7287, 474.7530
191.2109, 446.7839
191.6930, 423.2586
192.1751, 402.6035
192.6572, 384.8919
193.1393, 369.8619
193.6214, 356.9760
194.1036, 345.9220
194.5857, 336.7097
195.0678, 329.1702
195.5499, 323.4266
196.0320, 318.7682
196.5141, 315.2343
196.9963, 312.6097
197.4784, 310.2813
197.9605, 307.7062
198.4426, 304.8327
198.9247, 302.1491
199.4068, 299.3208
199.8890, 296.9037
200.3711, 295.4968
200.8532, 295.0654
201.3353, 294.7711
201.8174, 293.7719
202.2995, 292.0192
202.7817, 290.7115
203.2638, 289.9417
203.7459, 289.6057
204.2280, 289.5567
204.7101, 289.7702
205.1922, 290.4859
205.6744, 292.4868
206.1565, 295.3903
206.6386, 297.2273
207.1207, 296.9747
207.6028, 295.6866
208.0849, 295.1469
208.5671, 295.9253
209.0492, 295.7405
209.5313, 291.5656
210.0134, 284.9865
210.4955, 279.3085
210.9776, 276.6988
211.4598, 275.6867
211.9419, 272.7805
212.4240, 267.1385
212.9061, 261.2913
213.3882, 256.4528
213.8703, 252.4847
214.3525, 249.1986
214.8346, 246.2973
215.3167, 244.0099
215.7988, 243.3566
216.2809, 245.1458
216.7630, 247.4438
217.2451, 249.3400
217.7273, 251.0799
218.2094, 253.0815
218.6915, 255.5308
219.1736, 258.4484
219.6557, 261.9885
220.1378, 266.6186
220.6200, 271.3346
221.1021, 275.6242
221.5842, 279.7899
222.0663, 284.3694
222.5484, 289.7173
223.0305, 295.7759
223.5127, 302.0060
223.9948, 308.5083
224.4769, 315.0451
224.9590, 321.7211
225.4411, 328.4083
225.9232, 334.7970
226.4054, 340.6459
226.8875, 346.0324
227.3696, 352.3691
227.8517, 359.6943
228.3338, 367.9433
228.8159, 377.5775
229.2981, 388.1122
229.7802, 398.7146
230.2623, 408.9226
230.7444, 418.7571
231.2265, 428.1717
231.7086, 436.5378
232.1908, 445.1954
232.6729, 454.8054
233.1550, 464.9677
233.6371, 474.8391
234.1192, 483.8336
234.6013, 492.1625
235.0835, 501.4414
235.5656, 512.5440
236.0477, 523.5058
236.5298, 533.2966
237.0119, 542.4773
237.4940, 552.6365
237.9762, 564.9278
238.4583, 578.5751
238.9404, 589.9196
239.4225, 599.5723
239.9046, 606.8334
240.3867, 611.0287
240.8689, 612.5901
241.3510, 612.3983
241.8331, 610.6695
242.3152, 607.6357
242.7973, 603.9559
243.2794, 598.7607
243.7616, 594.3744
244.2437, 591.3293
244.7258, 589.8209
245.2079, 590.5899
245.6900, 594.2913
246.1721, 600.1586
246.6543, 606.4009
247.1364, 612.7425
247.6185, 619.9980
248.1006, 628.5294
248.5827, 638.2789
249.0648, 649.0771
249.5470, 660.6949
250.0291, 673.8245
250.5112, 689.0090
250.9933, 706.2530
251.4754, 725.1877
251.9576, 746.5212
252.4397, 769.6744
252.9218, 792.6183
253.4039, 814.2379
253.8860, 836.1367
254.3681, 859.9916
254.8503, 885.8188
255.3324, 911.8862
255.8145, 938.9905
256.2966, 966.0680
256.7787, 988.0115
257.2608, 1005.084
257.7430, 1014.318
258.2251, 1015.746
258.7072, 1009.329
259.1893, 994.6353
259.6714, 969.9577
260.1535, 936.2883
260.6357, 898.0402
261.1178, 852.8268
261.5999, 806.6829
262.0820, 762.1297
262.5641, 719.4706
263.0462, 679.5582
263.5284, 642.3394
264.0105, 608.1940
264.4926, 578.5225
264.9747, 554.1404
265.4568, 533.9261
265.9389, 516.8976
266.4211, 502.9178
266.9032, 491.8604
267.3853, 483.8238
267.8674, 478.6234
268.3495, 475.5460
268.8316, 475.3146
269.3138, 476.3512
269.7959, 477.7451
270.2780, 479.8465
270.7601, 483.2201
271.2422, 488.2318
271.7243, 494.6486
272.2065, 501.6086
272.6886, 508.7835
273.1707, 517.1417
273.6528, 526.8654
274.1349, 537.7247
274.6170, 549.6465
275.0992, 562.8023
275.5813, 576.3700
276.0634, 588.2145
276.5455, 597.9921
277.0276, 606.5619
277.5097, 615.7350
277.9919, 623.2662
278.4740, 627.3407
278.9561, 627.3146
279.4382, 623.2908
279.9203, 615.3118
280.4024, 602.8983
280.8846, 587.1407
281.3667, 567.9060
281.8488, 546.2572
282.3309, 522.3860
282.8130, 496.5731
283.2951, 470.0453
283.7773, 444.4937
284.2594, 419.9072
284.7415, 396.4546
285.2236, 373.3334
285.7057, 351.7202
286.1878, 332.2268
286.6700, 315.0412
287.1521, 299.9655
287.6342, 286.9048
288.1163, 276.3693
288.5984, 266.2714
289.0805, 256.4600
289.5627, 247.2044
290.0448, 238.3999
290.5269, 230.2089
291.0090, 223.1553
291.4911, 217.8674
291.9732, 214.5307
292.4554, 210.7163
292.9375, 205.2787
293.4196, 200.4948
293.9017, 197.3199
294.3838, 195.4026
294.8659, 193.9240
295.3481, 192.3478
295.8302, 190.6662
296.3123, 188.8569
296.7944, 186.1352
297.2765, 184.1414
297.7586, 183.5908
298.2408, 183.9031
298.7229, 184.1763
299.2050, 183.8939
299.6871, 183.3116
300.1692, 183.4296
300.6513, 185.1472
301.1335, 186.5160
301.6156, 186.7695
302.0977, 186.8324
302.5798, 187.8401
303.0619, 190.2225
303.5440, 193.3376
304.0262, 195.8847
304.5083, 197.6174
304.9904, 199.0391
305.4725, 199.9917
305.9546, 200.7647
306.4367, 201.2748
306.9189, 201.6375
307.4010, 202.5524
307.8831, 205.1792
308.3652, 210.7254
308.8473, 214.7931
309.3294, 215.9965
309.8116, 217.1091
310.2937, 219.9826
310.7758, 224.5777
311.2579, 229.5346
311.7400, 233.4062
312.2221, 235.9505
312.7043, 239.3834
313.1864, 244.1133
313.6685, 249.1969
314.1506, 254.1015
314.6327, 259.0502
315.1148, 264.6025
315.5970, 271.1160
316.0791, 278.5958
316.5612, 287.1369
317.0433, 297.3998
317.5254, 308.0596
318.0075, 318.7128
318.4897, 329.6014
318.9718, 341.4208
319.4539, 354.5926
319.9360, 368.3062
320.4181, 380.0882
320.9002, 388.5157
321.3824, 396.4295
321.8645, 404.3441
322.3466, 411.6352
322.8287, 417.5376
323.3108, 421.8035
323.7929, 425.1457
324.2751, 428.6587
324.7572, 431.9987
325.2393, 436.2970
325.7214, 441.6279
326.2035, 447.7283
326.6856, 454.4177
327.1678, 461.6874
327.6499, 469.6509
328.1320, 478.3194
328.6141, 487.3826
329.0962, 498.9998
329.5783, 514.5233
330.0605, 530.9366
330.5426, 546.6590
331.0247, 562.1811
331.5068, 578.7322
331.9889, 597.1412
332.4710, 617.4467
332.9532, 640.3098
333.4353, 666.4358
333.9174, 694.8069
334.3995, 727.1865
334.8816, 761.1761
335.3637, 794.2795
335.8459, 825.1438
336.3280, 853.0062
336.8101, 874.9752
337.2922, 892.9111
337.7743, 900.9320
338.2564, 900.0814
338.7386, 889.4659
339.2206, 866.3282
339.7028, 830.5784
340.1849, 787.6935
340.6670, 744.9226
341.1491, 700.5829
341.6312, 661.1038
342.1133, 626.0710
342.5955, 595.6542
343.0776, 570.3467
343.5597, 549.9259
344.0418, 533.6169
344.5239, 520.8967
345.0060, 511.8339
345.4882, 505.1241
345.9703, 501.6346
346.4524, 499.9163
346.9345, 500.2340
347.4166, 502.0342
347.8987, 504.4365
348.3809, 506.8632
348.8630, 509.5405
349.3451, 513.4070
349.8272, 519.3171
350.3093, 525.2233
350.7914, 530.4477
351.2736, 535.6057
351.7557, 541.4012
352.2378, 548.0869
352.7199, 555.0768
353.2020, 561.3111
353.6841, 566.4987
354.1663, 571.7988
354.6484, 578.8449
355.1305, 584.9044
355.6126, 588.3145
356.0947, 588.9645
356.5768, 587.7764
357.0590, 585.5865
357.5411, 582.4333
358.0232, 577.8614
358.5053, 572.0225
358.9874, 564.3601
359.4695, 554.5504
359.9517, 542.8932
360.4338, 529.9330
360.9159, 515.6970
361.3980, 500.5828
361.8801, 485.6603
362.3622, 471.3267
362.8444, 456.4387
363.3265, 439.7268
363.8086, 422.6616
364.2907, 406.6674
364.7728, 392.0763
365.2549, 378.7423
365.7371, 366.6591
366.2192, 355.8731
366.7013, 345.4354
367.1834, 334.8592
367.6655, 324.8422
368.1476, 316.1607
368.6298, 308.7294
369.1119, 301.4098
369.5940, 292.9753
370.0761, 283.8377
370.5582, 276.2539
371.0403, 271.1640
371.5225, 266.2836
372.0046, 259.5547
372.4867, 251.8318
372.9688, 245.0535
373.4509, 240.4748
373.9330, 236.9590
374.4152, 232.8427
374.8973, 228.0706
375.3794, 223.2662
375.8615, 218.4563
376.3436, 213.9861
376.8257, 210.3438
377.3079, 207.6853
377.7900, 205.5698
378.2721, 203.6558
378.7542, 202.0025
379.2363, 200.9652
379.7184, 200.8625
380.2006, 201.0428
380.6827, 200.4395
381.1648, 199.0501
381.6469, 198.3493
382.1290, 199.3434
382.6111, 201.0835
383.0933, 202.0515
383.5754, 202.0300
384.0575, 202.2769
384.5396, 203.9704
385.0217, 206.9416
385.5038, 209.5150
385.9860, 211.3897
386.4681, 213.0738
386.9502, 214.9451
387.4323, 216.8966
387.9144, 218.7552
388.3965, 220.6623
388.8787, 222.0521
389.3608, 221.2437
389.8429, 217.9565
390.3250, 213.6366
390.8071, 208.1638
391.2892, 201.9880
391.7714, 195.4487
392.2535, 188.6698
392.7356, 182.0038
393.2177, 175.8769
393.6998, 170.3259
394.1819, 165.3337
394.6641, 161.2130
395.1462, 157.2916
395.6283, 152.9196
396.1104, 148.3951
396.5925, 144.7252
397.0746, 142.5992
397.5568, 141.7806
398.0389, 140.8881
398.5210, 139.8523
399.0031, 138.8329
399.4852, 137.5478
399.9673, 136.4209
400.4495, 135.8642
400.9316, 136.0201
401.4137, 136.8175
401.8958, 138.2679
402.3779, 140.8628
402.8600, 142.7515
403.3422, 142.5499
403.8243, 142.9749
404.3064, 145.9660
404.7885, 150.9249
405.2706, 155.7418
405.7527, 158.6696
406.2349, 160.0410
406.7170, 162.4039
407.1991, 166.4353
407.6812, 170.5267
408.1633, 174.5525
408.6454, 178.3186
409.1276, 181.4662
409.6097, 183.8387
410.0918, 186.0756
410.5739, 189.1554
411.0560, 193.1741
411.5381, 197.4669
412.0203, 202.1607
412.5024, 206.9174
412.9845, 211.4037
413.4666, 215.6952
413.9487, 220.2471
414.4308, 225.3715
414.9130, 230.9934
415.3951, 236.7724
415.8772, 242.5603
416.3593, 248.8770
416.8414, 256.3351
417.3235, 264.4036
417.8057, 272.3873
418.2878, 280.0194
418.7699, 287.7397
419.2520, 296.3927
419.7341, 305.8083
420.2162, 314.3814
420.6984, 321.6513
421.1805, 327.7457
421.6626, 332.8893
422.1447, 337.1855
422.6268, 340.3962
423.1089, 343.1158
423.5911, 344.4155
424.0732, 342.9362
424.5553, 338.5355
425.0374, 331.9815
425.5195, 323.5459
426.0016, 313.2845
426.4838, 302.4756
426.9659, 290.1921
427.4480, 278.3618
427.9301, 268.1793
428.4122, 259.0824
428.8943, 249.7560
429.3765, 239.5838
429.8586, 229.5674
430.3407, 221.4758
430.8228, 216.0742
431.3049, 211.1906
431.7870, 206.9672
432.2692, 203.1653
432.7513, 199.6725
433.2334, 196.4604
433.7155, 193.4894
434.1976, 190.7789
434.6797, 188.3050
435.1619, 185.6394
435.6440, 182.4740
436.1261, 179.4577
436.6082, 176.6173
437.0903, 174.0162
437.5724, 171.7630
438.0546, 169.8888
438.5367, 168.1968
439.0188, 166.3432
439.5009, 164.1899
439.9830, 162.3256
440.4651, 160.9541
440.9473, 159.6932
441.4294, 158.2863
441.9115, 156.8365
442.3936, 155.6919
442.8757, 155.2092
443.3578, 155.1271
443.8400, 154.5947
444.3221, 153.5641
444.8042, 152.1868
445.2863, 150.0472
445.7684, 147.8338
446.2505, 146.1806
446.7327, 145.2173
447.2148, 144.7392
447.6969, 144.8248
448.1790, 145.3375
448.6611, 145.4337
449.1432, 144.7606
449.6254, 144.0966
450.1075, 144.2345
450.5896, 144.9462
451.0717, 145.5703
451.5538, 145.7311
452.0359, 145.8741
452.5181, 146.4716
453.0002, 147.4732
453.4823, 148.4543
453.9644, 149.0978
454.4465, 149.7569
454.9286, 151.3821
455.4108, 154.3117
455.8929, 156.9493
456.3750, 158.6470
456.8571, 160.0243
457.3392, 161.6391
457.8214, 163.6141
458.3035, 166.0644
458.7856, 169.1717
459.2677, 172.9518
459.7498, 176.5172
460.2319, 180.0129
460.7141, 183.1748
461.1962, 185.5046
461.6783, 187.5929
462.1604, 190.3748
462.6425, 194.1837
463.1246, 198.3434
463.6068, 201.6168
464.0889, 203.3998
464.5710, 205.8569
465.0531, 209.5534
465.5352, 213.3476
466.0173, 216.7923
466.4995, 219.8909
466.9816, 222.7824
467.4637, 225.5122
467.9458, 228.1590
468.4279, 230.9885
468.9100, 234.0541
469.3922, 237.1946
469.8743, 240.8743
470.3564, 244.3171
470.8385, 246.7210
471.3206, 247.9827
471.8027, 248.9706
472.2849, 250.6773
472.7670, 252.7141
473.2491, 253.4940
473.7312, 252.6749
474.2133, 251.1769
474.6954, 249.6547
475.1776, 247.9293
475.6597, 245.5294
476.1418, 242.1935
476.6239, 238.4081
477.1060, 234.4530
477.5881, 230.3341
478.0703, 225.8762
478.5524, 220.9777
479.0345, 216.0378
479.5166, 211.7301
479.9987, 208.2206
480.4808, 204.5196
480.9630, 200.7882
481.4451, 196.6888
481.9272, 191.5481
482.4093, 185.7791
482.8914, 180.6839
483.3735, 177.0646
483.8557, 174.5534
484.3378, 171.8171
484.8199, 168.7800
485.3020, 165.6039
485.7841, 161.9262
486.2662, 158.3630
486.7484, 155.2954
487.2305, 152.8122
487.7126, 150.9481
488.1947, 149.8901
488.6768, 149.5531
489.1589, 148.5175
489.6411, 146.1240
490.1232, 144.0734
490.6053, 142.9083
491.0874, 142.3084
491.5695, 141.8210
492.0516, 141.2868
492.5338, 141.2755
493.0159, 142.5960
493.4980, 145.1124
493.9801, 147.6769
494.4622, 150.4328
494.9443, 152.6284
495.4265, 152.8258
495.9086, 151.8718
496.3907, 152.2459
496.8728, 155.4614
497.3549, 159.4136
497.8370, 162.2672
498.3192, 164.3339
498.8013, 166.7946
499.2834, 170.1121
499.7655, 173.9557
500.2476, 177.7974
500.7297, 181.5003
501.2119, 185.7380
501.6940, 190.8995
502.1761, 196.3217
502.6582, 201.6404
503.1403, 206.8150
503.6224, 211.9656
504.1045, 217.1787
504.5866, 222.3913
505.0688, 227.3835
505.5509, 231.8415
506.0330, 236.6132
506.5151, 241.9754
506.9972, 247.4892
507.4793, 252.9075
507.9615, 258.1720
508.4436, 263.2609
508.9257, 268.0240
509.4078, 272.6098
509.8899, 277.7691
510.3720, 283.7119
510.8542, 289.8048
511.3363, 295.8807
511.8184, 301.9551
512.3005, 308.2696
512.7827, 314.9614
513.2648, 320.9182
513.7469, 324.9752
514.2290, 327.6592
514.7111, 330.5259
515.1932, 333.7791
515.6754, 337.2546
516.1575, 341.4845
516.6396, 345.8525
517.1217, 347.8331
517.6038, 345.9160
518.0859, 343.2394
518.5681, 341.5498
519.0502, 339.9581
519.5323, 337.0071
520.0144, 332.2709
520.4965, 326.1310
520.9786, 318.9972
521.4608, 310.8141
521.9429, 301.8332
522.4250, 291.1144
522.9071, 280.6389
523.3892, 271.2113
523.8713, 262.4831
524.3535, 253.9040
524.8356, 245.3006
525.3177, 236.7036
525.7998, 228.0915
526.2819, 219.2090
526.7640, 211.6570
527.2462, 206.2171
527.7283, 201.5369
528.2104, 197.0807
528.6925, 192.8586
529.1746, 188.9454
529.6567, 185.4076
530.1389, 182.1405
530.6210, 179.1537
531.1031, 176.4221
531.5852, 173.4483
532.0673, 169.9346
532.5494, 166.3737
533.0316, 163.4626
533.5137, 161.1687
533.9958, 158.6773
534.4779, 155.5580
534.9600, 152.4101
535.4421, 149.6333
535.9243, 147.2188
536.4064, 145.0164
536.8885, 142.9798
537.3706, 141.0593
537.8527, 139.1917
538.3348, 137.4997
538.8170, 135.5627
539.2991, 133.2354
539.7812, 130.8235
540.2633, 128.2153
540.7454, 125.6577
541.2275, 123.7237
541.7097, 122.8347
542.1918, 122.5541
542.6739, 121.7434
543.1560, 120.2746
543.6381, 118.6633
544.1202, 116.6160
544.6024, 114.7888
545.0845, 113.7513
545.5666, 113.3838
546.0487, 113.0044
546.5308, 112.3907
547.0129, 111.4718
547.4951, 109.9217
547.9772, 107.7624
548.4593, 106.0065
548.9414, 105.2392
549.4235, 104.9133
549.9056, 103.9778
550.3878, 102.3080
550.8699, 100.9191
551.3520, 100.2489
551.8341, 99.74986
552.3162, 98.91343
552.7983, 97.81492
553.2805, 96.89339
553.7626, 96.42416
554.2447, 96.20399
554.7268, 95.60600
555.2089, 94.14317
555.6910, 93.18240
556.1732, 93.14277
556.6553, 93.21529
557.1374, 92.92578
557.6195, 92.29635
558.1016, 91.56982
558.5837, 90.87251
559.0659, 90.20859
559.5480, 89.51878
560.0301, 88.74148
560.5122, 88.36987
560.9943, 89.04826
561.4764, 89.69913
561.9586, 89.12249
562.4407, 87.40309
562.9228, 85.88145
563.4049, 85.22964
563.8870, 84.89212
564.3691, 84.18460
564.8513, 83.20713
565.3334, 82.62360
565.8155, 82.79369
566.2976, 83.34347
566.7797, 83.59047
567.2618, 83.51585
567.7440, 83.11053
568.2261, 81.80660
568.7082, 80.69913
569.1903, 80.76645
569.6724, 81.53149
570.1545, 81.69681
570.6367, 80.52216
571.1188, 78.81601
571.6009, 78.43959
572.0830, 79.85660
572.5651, 80.82473
573.0472, 81.07558
573.5294, 80.81921
574.0115, 79.90134
574.4936, 78.56792
574.9757, 77.45541
575.4578, 76.83789
575.9399, 76.53310
576.4221, 76.39275
576.9042, 76.39971
577.3863, 76.47179
577.8684, 76.60670
578.3505, 76.73666
578.8326, 76.75330
579.3148, 76.64355
579.7969, 76.67764
580.2790, 77.02921
580.7611, 77.35291
581.2432, 77.47095
581.7253, 77.45223
582.2075, 77.42276
582.6896, 77.42597
583.1717, 77.42661
583.6538, 77.43192
584.1359, 77.51069
584.6180, 77.06923
585.1002, 75.04993
585.5823, 73.79194
