##NAMES=Yedlinite
##RRUFFID=R050338
##IDEAL CHEMISTRY=Pb^2+^_6_Cr^3+^Cl_6_O(OH)_7_
##LOCALITY=Tiger, Pinal County, Arizona, USA
##OWNER=RRUFF
##SOURCE=University of Arizona Mineral Museum
##DESCRIPTION=Pale purple prismatic crystals associated with blue diaboleite
##STATUS=The identification of this mineral is confirmed by single-crystal X-ray diffraction and chemical analysis.
##URL=rruff.info/R050338
##MEASURED CHEMISTRY=Pb_6_Cr_0.99_Cl_6.01_(OH)_7_O
187.0630, 9829.357
188.9914, 9807.434
190.9199, 9809.670
192.8484, 9840.487
194.7768, 9883.063
196.7053, 9893.511
198.6338, 9871.712
200.5622, 9869.234
202.4907, 9919.363
204.4192, 9949.043
206.3476, 9933.643
208.2761, 9891.973
210.2046, 9828.291
212.1330, 9753.125
214.0615, 9702.475
215.9900, 9675.060
217.9184, 9686.488
219.8469, 9789.025
221.7754, 9873.817
223.7038, 9885.768
225.6323, 9856.137
227.5608, 9829.068
229.4892, 9804.714
231.4177, 9783.275
233.3462, 9754.661
235.2746, 9753.679
237.2031, 9809.083
239.1315, 9868.373
241.0600, 9899.389
242.9885, 9908.439
244.9169, 9907.304
246.8454, 9895.873
248.7739, 9894.267
250.7023, 9911.044
252.6308, 9930.390
254.5593, 9948.027
256.4878, 9967.747
258.4162, 9995.852
260.3447, 10027.83
262.2732, 10053.88
264.2016, 10073.92
266.1301, 10083.75
268.0585, 10067.59
269.9870, 10060.64
271.9155, 10073.49
273.8439, 10096.91
275.7724, 10127.04
277.7009, 10160.71
279.6293, 10184.46
281.5578, 10193.05
283.4863, 10228.77
285.4147, 10323.57
287.3432, 10413.84
289.2717, 10494.87
291.2001, 10556.17
293.1286, 10568.49
295.0571, 10557.07
296.9855, 10582.08
298.9140, 10648.04
300.8425, 10730.99
302.7709, 10816.14
304.6994, 10935.22
306.6279, 11078.51
308.5563, 11273.85
310.4848, 11526.60
312.4133, 11856.75
314.3417, 12287.20
316.2702, 12916.93
318.1987, 13520.05
320.1271, 14528.35
322.0556, 15567.82
323.9841, 16721.38
325.9125, 17765.89
327.8410, 18580.72
329.7695, 19163.10
331.6979, 19552.42
333.6264, 19742.15
335.5549, 19621.10
337.4833, 19125.11
339.4118, 18396.05
341.3403, 17277.73
343.2687, 16156.33
345.1972, 15126.38
347.1257, 14258.72
349.0541, 13621.49
350.9826, 13202.99
352.9111, 12994.05
354.8395, 13052.98
356.7680, 13120.40
358.6965, 13248.93
360.6249, 13274.70
362.5534, 13069.05
364.4819, 12823.25
366.4103, 12631.00
368.3388, 12530.23
370.2673, 12650.22
372.1957, 13005.03
374.1242, 13200.56
376.0527, 13225.78
377.9811, 13047.75
379.9096, 12554.62
381.8381, 11997.90
383.7665, 11413.27
385.6950, 10882.16
387.6235, 10485.48
389.5519, 10204.20
391.4804, 9986.836
393.4088, 9840.570
395.3373, 9722.184
397.2658, 9642.292
399.1942, 9570.249
401.1227, 9504.849
403.0512, 9442.630
404.9796, 9377.909
406.9081, 9317.451
408.8366, 9268.631
410.7650, 9230.168
412.6935, 9196.858
414.6220, 9169.284
416.5504, 9143.533
418.4789, 9119.974
420.4074, 9097.894
422.3358, 9082.188
424.2643, 9063.489
426.1928, 9025.760
428.1212, 8990.138
430.0497, 8986.104
431.9782, 9008.134
433.9066, 9016.297
435.8351, 9000.327
437.7636, 8998.639
439.6920, 9023.839
441.6205, 9041.932
443.5490, 9050.912
445.4774, 9047.541
447.4059, 9025.662
449.3344, 8994.170
451.2628, 8963.529
453.1913, 8931.259
455.1198, 8881.849
457.0482, 8803.304
458.9767, 8763.494
460.9052, 8785.287
462.8336, 8797.825
464.7621, 8796.798
466.6906, 8779.448
468.6190, 8738.576
470.5475, 8686.287
472.4760, 8630.840
474.4044, 8572.782
476.3329, 8514.515
478.2614, 8456.574
480.1898, 8388.396
482.1183, 8296.524
484.0468, 8229.467
485.9753, 8198.474
487.9037, 8169.713
489.8322, 8135.538
491.7607, 8097.744
493.6891, 8061.929
495.6176, 8017.957
497.5461, 7940.820
499.4745, 7850.238
501.4030, 7814.324
503.3315, 7841.719
505.2599, 7833.625
507.1884, 7772.666
509.1169, 7736.294
511.0453, 7747.623
512.9738, 7748.770
514.9022, 7715.031
516.8307, 7672.223
518.7592, 7628.948
520.6876, 7589.853
522.6161, 7564.378
524.5446, 7546.267
526.4730, 7512.692
528.4015, 7461.527
530.3300, 7436.979
532.2584, 7446.992
534.1869, 7449.533
536.1154, 7438.590
538.0438, 7426.306
539.9723, 7411.594
541.9008, 7404.087
543.8292, 7420.729
545.7577, 7434.755
547.6862, 7417.997
549.6146, 7384.413
551.5431, 7362.283
553.4716, 7350.465
555.4000, 7337.650
557.3285, 7324.629
559.2570, 7304.396
561.1854, 7273.685
563.1139, 7248.178
565.0424, 7232.682
566.9708, 7220.068
568.8993, 7201.782
570.8278, 7193.119
572.7562, 7211.585
574.6847, 7236.305
576.6132, 7243.457
578.5416, 7238.983
580.4701, 7236.185
582.3986, 7235.385
584.3270, 7243.133
586.2555, 7260.775
588.1840, 7271.366
590.1124, 7271.668
592.0409, 7273.228
593.9694, 7282.025
595.8978, 7284.481
597.8263, 7265.301
599.7548, 7249.758
601.6832, 7255.022
603.6117, 7265.795
605.5402, 7277.429
607.4686, 7278.875
609.3971, 7234.805
611.3256, 7157.296
613.2540, 7127.741
615.1825, 7145.049
617.1110, 7136.165
619.0394, 7091.249
620.9679, 7069.266
622.8964, 7088.766
624.8248, 7103.722
626.7533, 7091.629
628.6818, 7085.930
630.6102, 7097.974
632.5387, 7121.656
634.4672, 7168.508
636.3956, 7211.448
638.3241, 7209.853
640.2526, 7185.903
642.1810, 7191.343
644.1095, 7217.918
646.0380, 7220.886
647.9664, 7201.740
649.8949, 7182.993
651.8234, 7165.774
653.7518, 7157.754
655.6803, 7164.546
657.6088, 7166.928
659.5372, 7162.292
661.4657, 7148.861
663.3942, 7117.663
665.3226, 7088.608
667.2511, 7065.933
669.1796, 7054.188
671.1080, 7068.693
673.0365, 7087.501
674.9650, 7077.469
676.8934, 7049.873
678.8219, 7028.382
680.7504, 7013.997
682.6788, 7013.079
684.6073, 7024.759
686.5358, 7029.607
688.4642, 7023.518
690.3927, 7043.533
692.3212, 7108.855
694.2496, 7149.728
696.1781, 7131.654
698.1066, 7124.263
700.0350, 7155.188
701.9634, 7183.892
703.8919, 7185.750
705.8204, 7192.369
707.7488, 7236.213
709.6773, 7282.156
711.6058, 7281.680
713.5342, 7332.146
715.4627, 7317.057
717.3912, 7389.517
719.3196, 7421.943
721.2481, 7425.277
723.1766, 7437.223
725.1050, 7458.800
727.0335, 7489.707
728.9620, 7530.876
730.8904, 7566.384
732.8189, 7590.191
734.7474, 7628.176
736.6758, 7694.045
738.6043, 7754.380
740.5328, 7795.386
742.4612, 7844.797
744.3897, 7914.683
746.3182, 7985.547
748.2466, 8047.121
750.1751, 8109.210
752.1036, 8180.086
754.0320, 8251.385
755.9605, 8308.138
757.8890, 8368.854
759.8174, 8454.130
761.7459, 8559.688
763.6744, 8674.391
765.6028, 8804.224
767.5313, 8963.552
769.4598, 9149.699
771.3882, 9355.201
773.3167, 9578.305
775.2452, 9797.721
777.1736, 10008.74
779.1021, 10264.33
781.0306, 10572.91
782.9590, 10905.55
784.8875, 11245.77
786.8160, 11646.61
788.7444, 12096.41
790.6729, 12633.29
792.6014, 13264.92
794.5298, 13978.68
796.4583, 14753.83
798.3868, 15635.64
800.3152, 16606.21
802.2437, 17733.91
804.1722, 19010.58
806.1006, 20510.11
808.0291, 22288.46
809.9576, 24303.80
811.8860, 26605.64
813.8145, 29045.43
815.7430, 31672.80
817.6714, 34182.43
819.5999, 36468.41
821.5284, 38214.38
823.4568, 38900.39
825.3853, 38601.15
827.3138, 37341.73
829.2422, 35276.67
831.1707, 32941.87
833.0992, 30375.06
835.0276, 27923.50
836.9561, 25585.76
838.8846, 23338.65
840.8130, 21165.63
842.7415, 19205.08
844.6700, 17448.52
846.5984, 15931.63
848.5269, 14685.71
850.4554, 13598.62
852.3839, 12674.38
854.3123, 11902.96
856.2408, 11313.87
858.1693, 10797.15
860.0977, 10347.42
862.0262, 9952.581
863.9547, 9613.758
865.8831, 9325.495
867.8116, 9097.159
869.7401, 8897.828
871.6685, 8728.361
873.5970, 8565.472
875.5255, 8400.889
877.4539, 8240.153
879.3824, 8076.957
881.3109, 7934.248
883.2393, 7832.397
885.1678, 7739.151
887.0963, 7634.222
889.0247, 7533.830
890.9532, 7436.925
892.8817, 7361.355
894.8101, 7337.504
896.7386, 7317.468
898.6671, 7268.117
900.5955, 7202.602
902.5240, 7128.897
904.4525, 7049.896
906.3809, 6955.969
908.3094, 6871.250
910.2379, 6832.964
912.1663, 6813.217
914.0948, 6777.088
916.0233, 6732.039
917.9517, 6685.758
919.8802, 6640.893
921.8087, 6603.361
923.7371, 6569.936
925.6656, 6524.624
927.5941, 6484.596
929.5225, 6504.001
931.4510, 6550.856
933.3795, 6550.104
935.3079, 6510.987
937.2364, 6459.803
939.1649, 6391.004
941.0933, 6263.385
943.0218, 6209.641
944.9503, 6129.190
946.8787, 6048.551
948.8071, 6000.866
950.7356, 5918.420
952.6641, 5864.007
954.5925, 5833.548
956.5210, 5814.409
958.4495, 5803.002
960.3779, 5780.356
962.3064, 5750.174
964.2349, 5742.271
966.1633, 5747.396
968.0918, 5701.251
970.0203, 5618.105
971.9487, 5579.765
973.8772, 5578.492
975.8057, 5573.582
977.7341, 5563.556
979.6626, 5537.464
981.5911, 5520.857
983.5195, 5474.691
985.4480, 5458.663
987.3765, 5416.783
989.3049, 5395.610
991.2334, 5374.995
993.1619, 5352.458
995.0903, 5344.989
997.0188, 5323.586
998.9473, 5324.960
1000.876, 5341.438
1002.804, 5336.082
1004.733, 5312.126
1006.661, 5283.815
1008.590, 5252.678
1010.518, 5224.558
1012.447, 5197.938
1014.375, 5162.651
1016.303, 5125.179
1018.232, 5108.181
1020.160, 5107.474
1022.089, 5112.582
1024.017, 5120.125
1025.946, 5123.453
1027.874, 5120.162
1029.803, 5098.500
1031.731, 5092.271
1033.660, 5057.790
1035.588, 5055.266
1037.517, 5031.519
1039.445, 4999.915
1041.374, 4985.796
1043.302, 4983.546
1045.230, 4987.067
1047.159, 4992.085
1049.087, 4998.215
1051.016, 4995.271
1052.944, 4950.455
1054.873, 4904.382
1056.801, 4926.967
1058.730, 4963.058
1060.658, 4940.985
1062.587, 4950.038
1064.515, 4910.030
1066.444, 4917.243
1068.372, 4884.142
1070.301, 4844.465
1072.229, 4821.693
1074.157, 4810.823
1076.086, 4810.649
1078.014, 4817.098
1079.943, 4841.584
1081.871, 4851.042
1083.800, 4807.483
1085.728, 4771.969
1087.657, 4790.831
1089.585, 4800.025
1091.514, 4758.777
1093.442, 4725.028
1095.371, 4722.129
1097.299, 4724.521
1099.228, 4725.399
1101.156, 4730.357
1103.084, 4743.721
1105.013, 4755.932
1106.941, 4775.771
1108.870, 4770.667
1110.798, 4719.215
1112.727, 4687.538
1114.655, 4685.235
1116.584, 4687.443
1118.512, 4693.200
1120.441, 4705.881
1122.369, 4730.735
1124.298, 4720.114
1126.226, 4725.199
1128.155, 4726.690
1130.083, 4705.862
1132.011, 4712.031
1133.940, 4689.795
1135.868, 4662.235
1137.797, 4637.692
1139.725, 4665.084
1141.654, 4708.099
1143.582, 4651.458
1145.511, 4676.989
1147.439, 4594.626
1149.368, 4661.086
1151.296, 4676.920
1153.225, 4672.706
1155.153, 4665.735
1157.082, 4669.255
1159.010, 4711.536
1160.938, 4740.001
1162.867, 4718.590
1164.795, 4690.421
1166.724, 4670.450
1168.652, 4657.869
1170.581, 4654.377
1172.509, 4652.850
1174.438, 4651.862
1176.366, 4650.896
1178.295, 4650.603
1180.223, 4642.249
1182.152, 4639.037
1184.080, 4636.278
1186.009, 4626.939
1187.937, 4630.604
1189.865, 4626.640
1191.794, 4623.693
1193.722, 4620.505
1195.651, 4605.159
1197.579, 4583.415
1199.508, 4574.124
1201.436, 4572.163
1203.365, 4570.185
1205.293, 4566.126
1207.222, 4559.127
1209.150, 4546.292
1211.079, 4516.859
1213.007, 4491.532
1214.936, 4486.706
1216.864, 4486.524
1218.792, 4484.705
1220.721, 4484.471
1222.649, 4495.527
1224.578, 4479.328
1226.506, 4414.202
1228.435, 4390.282
1230.363, 4425.908
1232.292, 4441.578
1234.220, 4430.158
1236.149, 4418.864
1238.077, 4409.679
1240.006, 4400.146
1241.934, 4393.376
1243.863, 4410.249
1245.791, 4430.564
1247.719, 4399.721
1249.648, 4359.077
1251.576, 4369.444
1253.505, 4392.204
1255.433, 4397.691
1257.362, 4392.433
1259.290, 4373.634
1261.219, 4356.524
1263.147, 4345.806
1265.076, 4341.084
1267.004, 4350.019
1268.933, 4342.358
1270.861, 4311.063
1272.790, 4287.406
1274.718, 4273.319
1276.646, 4266.936
1278.575, 4265.494
1280.503, 4251.827
1282.432, 4232.836
1284.360, 4226.521
1286.289, 4229.174
1288.217, 4243.549
1290.146, 4253.172
1292.074, 4237.794
1294.003, 4217.808
1295.931, 4201.405
1297.860, 4191.263
1299.788, 4189.733
1301.717, 4191.302
1303.645, 4204.786
1305.573, 4195.981
1307.502, 4202.624
1309.430, 4196.287
1311.359, 4186.059
1313.287, 4171.488
1315.216, 4119.941
1317.144, 4083.871
1319.073, 4064.108
1321.001, 4072.916
1322.930, 4085.922
1324.858, 4079.498
1326.786, 4070.081
1328.715, 4065.139
1330.643, 4066.043
1332.572, 4082.927
1334.500, 4080.155
1336.429, 4082.582
1338.357, 4080.246
1340.286, 4069.437
1342.214, 4073.533
1344.143, 4045.042
1346.071, 4055.066
1348.000, 4041.172
1349.928, 4060.430
1351.857, 4026.992
1353.785, 4026.088
1355.714, 4026.350
1357.642, 4004.152
1359.570, 3986.985
1361.499, 3985.520
1363.427, 3992.820
1365.356, 4012.709
1367.284, 4010.201
1369.213, 3980.036
1371.141, 3936.021
1373.070, 3889.064
1374.998, 3918.151
1376.927, 3980.312
1378.855, 3990.646
1380.784, 3974.751
1382.712, 3940.362
1384.641, 3920.571
1386.569, 3939.787
1388.497, 3953.341
1390.426, 3947.868
1392.354, 3936.791
1394.283, 3922.115
1396.211, 3904.369
1398.140, 3885.912
1400.068, 3891.208
1401.997, 3906.720
1403.925, 3896.364
1405.854, 3876.929
1407.782, 3860.828
1409.711, 3856.605
1411.639, 3883.219
1413.568, 3893.262
1415.496, 3869.593
1417.424, 3854.137
1419.353, 3853.096
1421.281, 3853.192
1423.210, 3853.666
1425.138, 3860.635
1427.067, 3865.634
1428.995, 3837.143
1430.924, 3813.806
1432.852, 3851.267
1434.781, 3885.462
1436.709, 3875.609
1438.638, 3870.880
1440.566, 3884.144
1442.495, 3870.212
1444.423, 3828.084
1446.351, 3814.814
1448.280, 3822.512
1450.208, 3819.368
1452.137, 3809.458
1454.065, 3794.947
1455.994, 3782.356
1457.922, 3781.410
1459.851, 3774.259
1461.779, 3750.119
1463.708, 3736.394
1465.636, 3735.538
1467.565, 3732.516
1469.493, 3729.936
1471.422, 3756.459
1473.350, 3779.939
1475.278, 3731.124
1477.207, 3687.351
1479.135, 3724.875
1481.064, 3754.344
1482.992, 3743.889
1484.921, 3719.315
1486.849, 3679.945
1488.778, 3653.696
1490.706, 3639.637
1492.635, 3625.370
1494.563, 3622.614
1496.492, 3659.463
1498.420, 3693.757
1500.349, 3692.802
1502.277, 3688.095
1504.205, 3696.047
1506.134, 3680.611
1508.062, 3681.089
1509.991, 3637.942
1511.919, 3668.027
1513.848, 3657.142
1515.776, 3643.124
1517.705, 3682.123
1519.633, 3699.585
1521.562, 3631.176
1523.490, 3608.343
1525.419, 3688.102
1527.347, 3683.522
1529.276, 3605.673
1531.204, 3605.650
1533.132, 3640.521
1535.061, 3629.204
1536.989, 3612.168
1538.918, 3614.675
1540.846, 3622.639
1542.775, 3634.616
1544.703, 3635.682
1546.632, 3634.869
1548.560, 3621.619
1550.489, 3622.922
1552.417, 3612.820
1554.346, 3602.814
1556.274, 3606.741
1558.203, 3606.987
1560.131, 3597.299
1562.059, 3580.454
1563.988, 3588.969
1565.916, 3565.800
1567.845, 3594.848
1569.773, 3602.148
1571.702, 3597.066
1573.630, 3584.285
1575.559, 3573.177
1577.487, 3565.957
1579.416, 3570.613
1581.344, 3554.720
1583.273, 3571.557
1585.201, 3534.443
1587.130, 3512.342
1589.058, 3506.261
1590.986, 3524.685
1592.915, 3548.879
1594.843, 3581.369
1596.772, 3571.078
1598.700, 3515.770
1600.629, 3487.316
1602.557, 3485.691
1604.486, 3517.665
1606.414, 3547.753
1608.343, 3536.297
1610.271, 3522.682
1612.200, 3516.655
1614.128, 3513.903
1616.057, 3513.798
1617.985, 3514.504
1619.913, 3518.894
1621.842, 3532.666
1623.770, 3552.175
1625.699, 3583.246
1627.627, 3601.831
1629.556, 3604.241
1631.484, 3585.117
1633.413, 3553.294
1635.341, 3551.658
1637.270, 3558.850
1639.198, 3550.112
1641.127, 3538.741
1643.055, 3527.341
1644.984, 3524.497
1646.912, 3530.577
1648.840, 3536.853
1650.769, 3542.283
1652.697, 3550.431
1654.626, 3549.648
1656.554, 3540.863
1658.483, 3531.889
1660.411, 3510.060
1662.340, 3499.579
1664.268, 3475.532
1666.197, 3457.796
1668.125, 3447.481
1670.054, 3455.419
1671.982, 3450.708
1673.911, 3410.718
1675.839, 3383.762
1677.767, 3372.179
1679.696, 3375.205
1681.624, 3379.491
1683.553, 3357.688
1685.481, 3337.856
1687.410, 3336.382
1689.338, 3332.457
1691.267, 3322.001
1693.195, 3324.203
1695.124, 3328.730
1697.052, 3309.036
1698.981, 3280.195
1700.909, 3244.418
1702.838, 3227.762
1704.766, 3217.431
1706.694, 3233.726
1708.623, 3218.650
1710.551, 3228.677
1712.480, 3242.984
1714.408, 3252.046
1716.337, 3238.389
1718.265, 3244.312
1720.194, 3196.354
1722.122, 3228.010
1724.051, 3203.402
1725.979, 3178.481
1727.908, 3211.424
1729.836, 3225.703
1731.765, 3202.550
1733.693, 3183.494
1735.621, 3171.557
1737.550, 3173.832
1739.478, 3172.114
1741.407, 3139.913
1743.335, 3125.612
1745.264, 3139.466
1747.192, 3141.772
1749.121, 3138.315
1751.049, 3167.114
1752.978, 3183.644
1754.906, 3181.063
1756.835, 3186.468
1758.763, 3167.336
1760.692, 3169.469
1762.620, 3134.870
1764.548, 3118.330
1766.477, 3111.385
1768.405, 3117.838
1770.334, 3104.819
1772.262, 3105.559
1774.191, 3107.715
1776.119, 3101.436
1778.048, 3110.790
1779.976, 3112.577
1781.905, 3109.148
1783.833, 3102.169
1785.762, 3092.020
1787.690, 3080.863
1789.619, 3071.714
1791.547, 3072.351
1793.475, 3067.969
1795.404, 3048.135
1797.332, 3049.280
1799.261, 3028.960
1801.189, 3031.679
1803.118, 2997.542
1805.046, 2997.809
1806.975, 2992.441
1808.903, 2971.784
1810.832, 2960.208
1812.760, 2956.927
1814.688, 2964.301
1816.617, 2969.344
1818.545, 2969.026
1820.474, 2947.050
1822.402, 2950.066
1824.331, 2913.583
1826.259, 2939.226
1828.188, 2959.869
1830.116, 2960.759
1832.045, 2928.603
1833.973, 2917.472
1835.902, 2920.046
1837.830, 2906.519
1839.759, 2902.881
1841.687, 2932.937
1843.615, 2938.880
1845.544, 2913.657
1847.472, 2881.692
1849.401, 2858.713
1851.329, 2871.243
1853.258, 2881.350
1855.186, 2877.302
1857.115, 2879.495
1859.043, 2887.110
1860.972, 2904.871
1862.900, 2905.085
1864.829, 2868.581
1866.757, 2841.735
1868.686, 2832.668
1870.614, 2857.560
1872.542, 2885.990
1874.471, 2891.100
1876.399, 2867.157
1878.328, 2813.857
1880.256, 2806.707
1882.185, 2822.322
1884.113, 2817.632
1886.042, 2808.607
1887.970, 2800.406
1889.899, 2798.820
1891.827, 2799.332
1893.756, 2804.096
1895.684, 2816.880
1897.613, 2815.063
1899.541, 2819.056
1901.469, 2817.247
1903.398, 2818.781
1905.326, 2804.544
1907.255, 2801.949
1909.183, 2787.937
1911.112, 2782.618
1913.040, 2777.972
1914.969, 2769.250
1916.897, 2765.974
1918.826, 2756.625
1920.754, 2741.825
1922.683, 2737.825
1924.611, 2741.318
1926.540, 2751.535
1928.468, 2748.269
1930.396, 2752.954
1932.325, 2746.994
1934.253, 2747.565
1936.182, 2732.994
1938.110, 2712.128
1940.039, 2707.677
1941.967, 2718.640
1943.896, 2737.344
1945.824, 2713.801
1947.753, 2687.150
1949.681, 2693.783
1951.610, 2678.135
1953.538, 2640.195
1955.467, 2639.595
1957.395, 2649.857
1959.323, 2646.008
1961.252, 2658.816
1963.180, 2652.070
1965.109, 2671.499
1967.037, 2644.871
1968.966, 2652.589
1970.894, 2658.903
1972.823, 2656.259
1974.751, 2642.482
1976.680, 2632.506
1978.608, 2649.806
1980.537, 2647.232
1982.465, 2613.312
1984.394, 2586.147
1986.322, 2573.609
1988.250, 2588.892
1990.179, 2610.511
1992.107, 2632.832
1994.036, 2631.688
1995.964, 2618.487
1997.893, 2608.304
1999.821, 2585.092
2001.750, 2548.072
2003.678, 2538.064
2005.607, 2545.775
2007.535, 2566.967
2009.464, 2582.411
2011.392, 2588.579
2013.321, 2590.468
2015.249, 2582.537
2017.177, 2578.024
2019.106, 2533.947
2021.034, 2550.929
2022.963, 2529.783
2024.891, 2501.772
2026.820, 2501.080
2028.748, 2498.064
2030.677, 2491.476
2032.605, 2504.711
2034.534, 2504.979
2036.462, 2493.629
2038.391, 2482.263
2040.319, 2464.569
2042.248, 2448.110
2044.176, 2425.211
2046.104, 2426.781
2048.033, 2432.736
2049.961, 2437.160
2051.890, 2424.443
2053.818, 2408.750
2055.747, 2392.341
2057.675, 2406.347
2059.604, 2431.524
2061.532, 2431.302
2063.461, 2409.178
2065.389, 2415.859
2067.318, 2366.515
2069.246, 2397.575
2071.175, 2381.741
2073.103, 2371.487
2075.031, 2379.224
2076.960, 2393.813
2078.888, 2400.043
2080.817, 2375.148
2082.745, 2370.705
2084.674, 2388.550
2086.602, 2402.124
2088.531, 2395.213
2090.459, 2382.909
2092.388, 2333.491
2094.316, 2333.149
2096.245, 2279.218
2098.173, 2250.581
2100.102, 2280.730
2102.030, 2307.819
2103.958, 2321.324
2105.887, 2298.446
2107.815, 2291.225
2109.744, 2311.453
2111.672, 2329.925
2113.601, 2343.701
2115.529, 2353.021
2117.458, 2337.955
2119.386, 2337.902
2121.315, 2304.442
2123.243, 2306.337
2125.172, 2302.549
2127.100, 2270.154
2129.029, 2231.571
2130.957, 2222.498
2132.885, 2246.013
2134.814, 2294.239
2136.742, 2268.876
2138.671, 2235.410
2140.599, 2267.914
2142.528, 2252.130
2144.456, 2200.594
2146.385, 2191.884
2148.313, 2197.693
2150.242, 2206.399
2152.170, 2209.158
2154.099, 2208.106
2156.027, 2193.149
2157.956, 2210.102
2159.884, 2268.632
2161.813, 2448.425
2163.741, 2552.999
2165.669, 2398.885
2167.598, 2285.558
