##NAMES=Yoderite
##RRUFFID=R050277
##IDEAL CHEMISTRY=(MgAl_3_)(MgAl)Al_2_O_2_(SiO_4_)_4_(OH)_2_
##LOCALITY=Mautia Hill, Kongwa, Central Province, Tanzania
##OWNER=RRUFF
##SOURCE=Marcus Origlieri
##DESCRIPTION=Blue anhedral lathlike grains
##STATUS=The identification of this mineral has been confirmed by X-ray diffraction and chemical analysis
##URL=rruff.info/R050277
##MEASURED CHEMISTRY=(Mg_1.95_Mn_0.05_)_Σ=2_(Al_5.54_Fe^3+^_0.46_)_Σ=6_Si_4.00_O_18_(OH)_2_
144.7414, 26164.23
145.2236, 26181.76
145.7057, 26197.58
146.1878, 26208.48
146.6699, 26214.25
147.1520, 26219.45
147.6341, 26220.13
148.1163, 26223.71
148.5984, 26235.17
149.0805, 26253.08
149.5626, 26271.55
150.0447, 26283.43
150.5268, 26284.67
151.0090, 26291.68
151.4911, 26309.23
151.9732, 26327.51
152.4553, 26340.34
152.9374, 26346.55
153.4195, 26349.20
153.9017, 26352.66
154.3838, 26357.35
154.8659, 26361.72
155.3480, 26364.66
155.8301, 26367.68
156.3122, 26372.77
156.7944, 26380.71
157.2765, 26389.69
157.7586, 26396.13
158.2407, 26399.42
158.7228, 26403.58
159.2049, 26410.86
159.6871, 26419.89
160.1692, 26427.41
160.6513, 26432.06
161.1334, 26435.20
161.6155, 26438.65
162.0976, 26442.29
162.5798, 26446.86
163.0619, 26453.77
163.5440, 26462.75
164.0261, 26470.15
164.5082, 26473.97
164.9903, 26476.04
165.4725, 26476.51
165.9546, 26474.89
166.4367, 26475.91
166.9188, 26487.63
167.4009, 26514.25
167.8830, 26534.43
168.3652, 26538.74
168.8473, 26537.65
169.3294, 26539.22
169.8115, 26546.14
170.2936, 26553.25
170.7757, 26548.75
171.2579, 26520.13
171.7400, 26503.41
172.2221, 26509.88
172.7042, 26525.15
173.1863, 26537.46
173.6684, 26541.56
174.1506, 26537.86
174.6327, 26527.47
175.1148, 26492.23
175.5969, 26471.10
176.0790, 26475.20
176.5611, 26492.79
177.0433, 26509.90
177.5254, 26519.43
178.0075, 26522.05
178.4896, 26520.54
178.9717, 26509.85
179.4538, 26501.29
179.9360, 26497.11
180.4181, 26497.03
180.9002, 26501.36
181.3823, 26511.74
181.8644, 26525.68
182.3465, 26531.28
182.8287, 26521.23
183.3108, 26511.46
183.7929, 26510.35
184.2750, 26516.58
184.7571, 26522.63
185.2392, 26522.05
185.7214, 26519.06
186.2035, 26525.34
186.6856, 26546.75
187.1677, 26571.78
187.6498, 26589.85
188.1319, 26600.57
188.6141, 26612.44
189.0962, 26635.66
189.5783, 26661.06
190.0604, 26675.24
190.5425, 26670.90
191.0246, 26659.03
191.5068, 26655.15
191.9889, 26661.61
192.4710, 26668.45
192.9531, 26670.13
193.4352, 26670.28
193.9173, 26673.29
194.3995, 26682.02
194.8816, 26693.16
195.3637, 26697.64
195.8458, 26688.10
196.3279, 26686.26
196.8100, 26703.85
197.2922, 26729.39
197.7743, 26749.60
198.2564, 26757.50
198.7385, 26755.66
199.2206, 26753.78
199.7027, 26751.37
200.1849, 26749.21
200.6670, 26747.33
201.1491, 26745.66
201.6312, 26744.20
202.1133, 26742.96
202.5954, 26741.82
203.0776, 26739.95
203.5597, 26740.38
204.0418, 26736.72
204.5239, 26724.30
205.0060, 26707.58
205.4881, 26693.57
205.9703, 26686.64
206.4524, 26686.19
206.9345, 26686.99
207.4166, 26694.84
207.8987, 26697.91
208.3808, 26688.99
208.8630, 26672.79
209.3451, 26659.27
209.8272, 26654.61
210.3093, 26657.83
210.7914, 26661.36
211.2735, 26665.93
211.7557, 26669.71
212.2378, 26674.14
212.7199, 26677.54
213.2020, 26673.64
213.6841, 26655.26
214.1662, 26627.81
214.6484, 26615.42
215.1305, 26627.05
215.6126, 26643.41
216.0947, 26655.71
216.5768, 26664.14
217.0589, 26669.54
217.5410, 26671.88
218.0232, 26671.59
218.5053, 26670.64
218.9874, 26669.14
219.4695, 26667.21
219.9516, 26663.48
220.4337, 26658.15
220.9159, 26656.63
221.3980, 26661.63
221.8801, 26672.60
222.3622, 26689.70
222.8443, 26716.82
223.3264, 26742.99
223.8086, 26753.63
224.2907, 26746.73
224.7728, 26743.60
225.2549, 26756.37
225.7370, 26775.56
226.2191, 26793.40
226.7013, 26807.97
227.1834, 26820.88
227.6655, 26834.38
228.1476, 26848.93
228.6297, 26861.61
229.1118, 26871.26
229.5940, 26878.64
230.0761, 26883.63
230.5582, 26886.05
231.0403, 26887.59
231.5224, 26890.98
232.0045, 26897.20
232.4867, 26902.59
232.9688, 26901.33
233.4509, 26902.30
233.9330, 26914.95
234.4151, 26941.45
234.8972, 26971.75
235.3794, 26988.11
235.8615, 26981.37
236.3436, 26982.25
236.8257, 26998.24
237.3078, 27018.65
237.7899, 27035.33
238.2721, 27046.52
238.7542, 27057.00
239.2363, 27075.72
239.7184, 27111.42
240.2005, 27137.83
240.6826, 27151.34
241.1648, 27159.09
241.6469, 27163.35
242.1290, 27165.79
242.6111, 27170.21
243.0932, 27183.69
243.5753, 27218.38
244.0575, 27236.32
244.5396, 27232.03
245.0217, 27217.13
245.5038, 27198.50
245.9859, 27177.98
246.4680, 27155.13
246.9502, 27129.60
247.4323, 27103.25
247.9144, 27067.45
248.3965, 27010.99
248.8786, 26953.46
249.3607, 26910.99
249.8429, 26885.09
250.3250, 26863.63
250.8071, 26831.36
251.2892, 26782.44
251.7713, 26745.15
252.2534, 26725.23
252.7356, 26712.40
253.2177, 26701.60
253.6998, 26691.45
254.1819, 26679.30
254.6640, 26661.63
255.1461, 26637.16
255.6283, 26617.92
256.1104, 26605.38
256.5925, 26597.22
257.0746, 26593.50
257.5567, 26593.78
258.0388, 26594.07
258.5210, 26590.64
259.0031, 26583.57
259.4852, 26578.87
259.9673, 26576.94
260.4494, 26577.22
260.9315, 26580.66
261.4137, 26586.90
261.8958, 26591.95
262.3779, 26592.34
262.8600, 26588.77
263.3421, 26587.11
263.8242, 26587.64
264.3064, 26589.72
264.7885, 26594.99
265.2706, 26602.74
265.7527, 26605.60
266.2348, 26595.68
266.7169, 26578.55
267.1991, 26570.42
267.6812, 26575.46
268.1633, 26584.87
268.6454, 26592.53
269.1275, 26598.76
269.6096, 26607.82
270.0918, 26626.49
270.5739, 26645.65
271.0560, 26649.33
271.5381, 26632.23
272.0202, 26611.45
272.5023, 26599.52
272.9845, 26595.38
273.4666, 26590.33
273.9487, 26580.30
274.4308, 26569.21
274.9129, 26561.45
275.3951, 26557.16
275.8772, 26556.34
276.3593, 26562.71
276.8414, 26574.38
277.3235, 26578.01
277.8056, 26565.24
278.2878, 26549.17
278.7699, 26542.35
279.2520, 26544.46
279.7341, 26550.23
280.2162, 26558.27
280.6983, 26567.72
281.1805, 26573.63
281.6626, 26571.91
282.1447, 26571.29
282.6268, 26581.75
283.1089, 26600.04
283.5910, 26612.67
284.0732, 26608.49
284.5553, 26591.87
285.0374, 26579.44
285.5195, 26574.63
286.0016, 26569.27
286.4837, 26553.49
286.9659, 26533.46
287.4480, 26522.87
287.9301, 26533.28
288.4122, 26556.79
288.8943, 26572.06
289.3764, 26577.52
289.8586, 26577.88
290.3407, 26573.00
290.8228, 26565.58
291.3049, 26559.36
291.7870, 26556.30
292.2691, 26554.63
292.7513, 26550.54
293.2334, 26542.91
293.7155, 26536.16
294.1976, 26531.97
294.6797, 26529.41
295.1618, 26527.44
295.6440, 26525.65
296.1261, 26525.22
296.6082, 26529.22
297.0903, 26539.66
297.5724, 26546.27
298.0545, 26541.51
298.5367, 26535.10
299.0188, 26534.52
299.5009, 26541.13
299.9830, 26548.69
300.4651, 26548.42
300.9472, 26538.42
301.4294, 26535.14
301.9115, 26547.72
302.3936, 26562.55
302.8757, 26572.86
303.3578, 26578.33
303.8399, 26581.95
304.3221, 26585.80
304.8042, 26589.88
305.2863, 26594.99
305.7684, 26603.56
306.2505, 26610.65
306.7326, 26612.16
307.2148, 26610.24
307.6969, 26610.57
308.1790, 26618.34
308.6611, 26632.03
309.1432, 26641.36
309.6253, 26641.33
310.1075, 26644.35
310.5896, 26657.94
311.0717, 26676.50
311.5538, 26691.82
312.0359, 26699.55
312.5180, 26701.42
313.0002, 26700.23
313.4823, 26689.12
313.9644, 26689.65
314.4465, 26716.64
314.9286, 26752.33
315.4107, 26778.95
315.8929, 26790.16
316.3750, 26793.65
316.8571, 26802.98
317.3392, 26822.21
317.8213, 26833.63
318.3034, 26826.45
318.7856, 26815.39
319.2677, 26810.07
319.7498, 26811.95
320.2319, 26815.81
320.7140, 26816.11
321.1961, 26812.50
321.6783, 26808.24
322.1604, 26807.03
322.6425, 26801.96
323.1246, 26787.55
323.6067, 26765.53
324.0888, 26742.95
324.5710, 26725.49
325.0531, 26712.92
325.5352, 26699.71
326.0173, 26684.08
326.4994, 26670.27
326.9815, 26659.14
327.4637, 26650.92
327.9458, 26646.78
328.4279, 26649.54
328.9100, 26655.20
329.3921, 26649.96
329.8742, 26627.41
330.3564, 26607.22
330.8385, 26597.04
331.3206, 26591.79
331.8027, 26586.50
332.2848, 26579.61
332.7669, 26571.49
333.2491, 26562.03
333.7312, 26550.24
334.2133, 26540.79
334.6954, 26533.21
335.1775, 26529.48
335.6596, 26532.78
336.1418, 26543.21
336.6239, 26555.15
337.1060, 26562.70
337.5881, 26565.62
338.0702, 26570.27
338.5523, 26582.08
339.0345, 26590.50
339.5165, 26586.57
339.9987, 26573.34
340.4808, 26562.20
340.9629, 26563.73
341.4450, 26574.58
341.9271, 26576.74
342.4092, 26564.59
342.8914, 26553.50
343.3735, 26550.72
343.8556, 26553.74
344.3377, 26559.67
344.8198, 26569.44
345.3019, 26578.78
345.7841, 26578.80
346.2662, 26567.17
346.7483, 26555.39
347.2304, 26548.74
347.7125, 26543.79
348.1946, 26537.44
348.6768, 26528.91
349.1589, 26520.15
349.6410, 26513.27
350.1231, 26508.33
350.6052, 26503.60
351.0873, 26499.39
351.5695, 26494.68
352.0516, 26488.44
352.5337, 26480.83
353.0158, 26473.13
353.4979, 26466.35
353.9800, 26460.18
354.4622, 26452.92
354.9443, 26442.65
355.4264, 26435.07
355.9085, 26434.16
356.3906, 26438.68
356.8727, 26446.88
357.3549, 26462.13
357.8370, 26478.38
358.3191, 26487.70
358.8012, 26490.02
359.2833, 26485.11
359.7654, 26465.79
360.2476, 26442.01
360.7297, 26430.42
361.2118, 26437.16
361.6939, 26446.82
362.1760, 26447.53
362.6581, 26440.73
363.1403, 26434.30
363.6224, 26430.76
364.1045, 26428.54
364.5866, 26424.31
365.0687, 26417.64
365.5508, 26415.04
366.0330, 26421.13
366.5151, 26432.47
366.9972, 26444.21
367.4793, 26456.14
367.9614, 26464.86
368.4435, 26462.88
368.9257, 26453.07
369.4078, 26453.64
369.8899, 26480.16
370.3720, 26508.39
370.8541, 26517.33
371.3362, 26507.87
371.8184, 26492.08
372.3005, 26474.58
372.7826, 26456.91
373.2647, 26443.84
373.7468, 26436.49
374.2289, 26431.45
374.7111, 26427.96
375.1932, 26425.80
375.6753, 26424.60
376.1574, 26424.30
376.6395, 26424.65
377.1216, 26425.91
377.6038, 26429.37
378.0859, 26428.20
378.5680, 26417.74
379.0501, 26404.60
379.5322, 26393.86
380.0143, 26386.33
380.4965, 26381.98
380.9786, 26381.74
381.4607, 26385.70
381.9428, 26384.25
382.4249, 26373.23
382.9070, 26361.96
383.3892, 26354.79
383.8713, 26350.40
384.3534, 26345.08
384.8355, 26336.72
385.3176, 26327.58
385.7997, 26324.26
386.2819, 26334.34
386.7640, 26341.33
387.2461, 26345.50
387.7282, 26346.07
388.2103, 26340.37
388.6924, 26328.65
389.1746, 26316.46
389.6567, 26311.08
390.1388, 26315.22
390.6209, 26314.92
391.1030, 26301.39
391.5851, 26292.16
392.0673, 26299.39
392.5494, 26317.49
393.0315, 26331.47
393.5136, 26330.31
393.9957, 26317.26
394.4778, 26312.34
394.9600, 26323.63
395.4421, 26332.30
395.9242, 26332.55
396.4063, 26330.38
396.8884, 26333.50
397.3705, 26344.10
397.8527, 26355.51
398.3348, 26356.13
398.8169, 26341.68
399.2990, 26332.12
399.7811, 26334.62
400.2632, 26337.49
400.7454, 26333.24
401.2275, 26323.79
401.7096, 26317.20
402.1917, 26320.18
402.6738, 26331.35
403.1559, 26343.08
403.6381, 26357.57
404.1202, 26368.38
404.6023, 26370.25
405.0844, 26368.46
405.5665, 26369.35
406.0486, 26375.21
406.5308, 26383.87
407.0129, 26393.68
407.4950, 26404.94
407.9771, 26412.90
408.4592, 26413.52
408.9413, 26412.98
409.4235, 26416.02
409.9056, 26422.77
410.3877, 26432.34
410.8698, 26445.81
411.3519, 26461.71
411.8340, 26476.86
412.3162, 26491.65
412.7983, 26503.95
413.2804, 26509.50
413.7625, 26511.61
414.2446, 26517.81
414.7267, 26531.76
415.2089, 26547.69
415.6910, 26561.98
416.1731, 26574.46
416.6552, 26583.81
417.1373, 26588.40
417.6194, 26591.12
418.1016, 26597.37
418.5837, 26607.29
419.0658, 26618.32
419.5479, 26627.78
420.0300, 26638.83
420.5121, 26657.52
420.9943, 26684.32
421.4764, 26710.00
421.9585, 26726.04
422.4406, 26731.94
422.9227, 26736.77
423.4048, 26741.28
423.8870, 26743.97
424.3691, 26745.00
424.8512, 26743.61
425.3333, 26737.80
425.8154, 26726.46
426.2975, 26711.81
426.7797, 26698.66
427.2618, 26685.36
427.7439, 26676.88
428.2260, 26677.31
428.7081, 26679.67
429.1902, 26679.44
429.6724, 26675.86
430.1545, 26669.76
430.6366, 26661.51
431.1187, 26651.13
431.6008, 26642.99
432.0829, 26637.12
432.5651, 26633.91
433.0472, 26638.10
433.5293, 26643.59
434.0114, 26640.86
434.4935, 26625.60
434.9756, 26605.34
435.4578, 26594.34
435.9399, 26595.34
436.4220, 26596.66
436.9041, 26596.65
437.3862, 26596.60
437.8683, 26597.82
438.3505, 26599.90
438.8326, 26600.68
439.3147, 26598.08
439.7968, 26592.81
440.2789, 26587.18
440.7610, 26579.62
441.2432, 26575.37
441.7253, 26577.88
442.2074, 26584.81
442.6895, 26594.94
443.1716, 26609.90
443.6537, 26622.49
444.1359, 26627.06
444.6180, 26623.75
445.1001, 26612.04
445.5822, 26587.37
446.0643, 26561.58
446.5464, 26549.46
447.0286, 26549.47
447.5107, 26550.60
447.9928, 26553.45
448.4749, 26553.82
448.9570, 26545.00
449.4391, 26527.63
449.9213, 26511.62
450.4034, 26503.04
450.8855, 26500.25
451.3676, 26497.00
451.8497, 26493.24
452.3318, 26489.33
452.8140, 26485.15
453.2961, 26481.00
453.7782, 26477.49
454.2603, 26474.70
454.7424, 26471.86
455.2245, 26468.21
455.7067, 26463.82
456.1888, 26457.43
456.6709, 26443.80
457.1530, 26433.66
457.6351, 26433.74
458.1172, 26440.05
458.5994, 26443.93
459.0815, 26440.62
459.5636, 26434.80
460.0457, 26439.62
460.5278, 26464.74
461.0099, 26480.57
461.4921, 26481.65
461.9742, 26477.00
462.4563, 26471.83
462.9384, 26466.73
463.4205, 26459.75
463.9026, 26447.82
464.3848, 26432.35
464.8669, 26424.00
465.3490, 26428.10
465.8311, 26429.25
466.3132, 26414.79
466.7953, 26396.95
467.2775, 26391.17
467.7596, 26402.81
468.2417, 26418.99
468.7238, 26426.13
469.2059, 26425.78
469.6880, 26431.19
470.1702, 26449.54
470.6523, 26465.22
471.1344, 26459.11
471.6165, 26436.28
472.0986, 26417.22
472.5807, 26409.50
473.0629, 26405.85
473.5450, 26400.27
474.0271, 26392.89
474.5092, 26385.05
474.9913, 26377.62
475.4734, 26370.08
475.9556, 26361.35
476.4377, 26352.50
476.9198, 26340.82
477.4019, 26323.44
477.8840, 26304.81
478.3661, 26290.00
478.8483, 26278.92
479.3304, 26266.68
479.8125, 26247.78
480.2946, 26223.30
480.7767, 26211.31
481.2589, 26227.53
481.7410, 26237.34
482.2231, 26228.06
482.7052, 26212.75
483.1873, 26208.38
483.6694, 26218.81
484.1516, 26231.21
484.6337, 26227.07
485.1158, 26202.55
485.5979, 26183.82
486.0800, 26173.02
486.5621, 26166.29
487.0443, 26165.70
487.5264, 26167.54
488.0085, 26165.06
488.4906, 26154.43
488.9727, 26140.29
489.4548, 26129.96
489.9370, 26123.85
490.4191, 26116.89
490.9012, 26105.85
491.3833, 26095.77
491.8654, 26093.30
492.3475, 26097.68
492.8297, 26098.12
493.3118, 26085.59
493.7939, 26069.06
494.2760, 26060.98
494.7581, 26061.50
495.2402, 26062.83
495.7224, 26060.63
496.2045, 26056.13
496.6866, 26053.70
497.1687, 26057.52
497.6508, 26054.91
498.1329, 26036.78
498.6151, 26014.04
499.0972, 25998.61
499.5793, 25992.14
500.0614, 25989.57
500.5435, 25986.96
501.0256, 25984.22
501.5078, 25977.03
501.9899, 25957.10
502.4720, 25942.46
502.9541, 25938.53
503.4362, 25940.78
503.9183, 25945.42
504.4004, 25950.84
504.8825, 25954.92
505.3647, 25955.11
505.8468, 25951.32
506.3289, 25944.12
506.8110, 25928.52
507.2931, 25915.72
507.7752, 25912.09
508.2574, 25914.05
508.7395, 25915.98
509.2216, 25916.63
509.7037, 25914.27
510.1858, 25902.84
510.6679, 25883.30
511.1501, 25874.39
511.6322, 25885.06
512.1143, 25901.44
512.5964, 25910.09
513.0786, 25911.68
513.5607, 25908.06
514.0428, 25892.01
514.5249, 25876.70
515.0070, 25877.49
515.4891, 25890.81
515.9713, 25899.26
516.4534, 25893.95
516.9355, 25880.97
517.4176, 25873.60
517.8997, 25874.76
518.3818, 25875.82
518.8640, 25875.11
519.3461, 25875.35
519.8282, 25881.94
520.3103, 25891.92
520.7924, 25894.38
521.2745, 25880.59
521.7567, 25856.12
522.2388, 25845.66
522.7209, 25859.24
523.2030, 25868.57
523.6851, 25869.54
524.1672, 25865.72
524.6494, 25857.35
525.1315, 25845.77
525.6136, 25836.09
526.0957, 25831.07
526.5778, 25831.16
527.0599, 25842.23
527.5421, 25871.17
528.0242, 25886.54
528.5063, 25861.19
528.9884, 25820.37
529.4705, 25798.87
529.9526, 25803.32
530.4348, 25808.73
530.9169, 25799.96
531.3990, 25784.40
531.8811, 25775.41
532.3632, 25774.67
532.8453, 25772.87
533.3275, 25761.26
533.8096, 25742.09
534.2917, 25733.87
534.7738, 25743.66
535.2559, 25753.24
535.7380, 25763.12
536.2202, 25768.26
536.7023, 25758.09
537.1844, 25733.34
537.6665, 25711.21
538.1486, 25712.05
538.6307, 25736.20
539.1129, 25747.12
539.5950, 25733.29
540.0771, 25720.91
540.5592, 25716.72
541.0413, 25716.98
541.5234, 25718.14
542.0056, 25719.19
542.4877, 25719.13
542.9698, 25717.07
543.4519, 25713.00
543.9340, 25706.20
544.4161, 25694.53
544.8983, 25685.08
545.3804, 25686.96
545.8625, 25693.45
546.3446, 25690.78
546.8267, 25671.50
547.3088, 25653.21
547.7910, 25647.95
548.2731, 25650.51
548.7552, 25650.06
549.2373, 25644.24
549.7194, 25638.93
550.2015, 25640.68
550.6837, 25649.89
551.1658, 25653.51
551.6479, 25647.98
552.1300, 25642.26
552.6121, 25637.64
553.0942, 25634.67
553.5764, 25633.42
554.0585, 25634.03
554.5406, 25637.67
555.0227, 25647.52
555.5048, 25664.42
555.9869, 25672.35
556.4691, 25664.83
556.9512, 25656.79
557.4333, 25652.35
557.9154, 25650.91
558.3975, 25653.03
558.8796, 25659.51
559.3618, 25664.10
559.8439, 25660.25
560.3260, 25649.73
560.8081, 25638.19
561.2902, 25625.63
561.7723, 25615.82
562.2545, 25613.18
562.7366, 25616.03
563.2187, 25615.21
563.7008, 25606.71
564.1829, 25599.68
564.6650, 25598.21
565.1472, 25600.01
565.6293, 25602.59
566.1114, 25605.13
566.5935, 25606.29
567.0756, 25603.91
567.5577, 25597.95
568.0399, 25599.69
568.5220, 25615.12
569.0041, 25631.28
569.4862, 25652.72
569.9683, 25670.17
570.4504, 25671.08
570.9326, 25654.50
571.4147, 25635.49
571.8968, 25630.67
572.3789, 25637.12
572.8610, 25634.25
573.3431, 25618.47
573.8253, 25603.94
574.3074, 25598.93
574.7895, 25598.90
575.2716, 25596.66
575.7537, 25590.37
576.2358, 25587.81
576.7180, 25595.44
577.2001, 25607.90
577.6822, 25620.27
578.1643, 25631.17
578.6464, 25634.03
579.1285, 25622.56
579.6107, 25601.12
580.0928, 25588.55
580.5749, 25590.52
581.0570, 25594.25
581.5391, 25601.28
582.0212, 25608.45
582.5034, 25613.64
582.9855, 25616.60
583.4676, 25617.13
583.9497, 25613.76
584.4318, 25609.58
584.9139, 25616.72
585.3961, 25639.50
585.8782, 25658.60
586.3602, 25670.97
586.8423, 25675.77
587.3245, 25668.38
587.8066, 25650.53
588.2887, 25636.59
588.7708, 25634.72
589.2529, 25638.57
589.7350, 25641.28
590.2172, 25643.05
590.6993, 25646.56
591.1814, 25653.54
591.6635, 25660.80
592.1456, 25663.53
592.6277, 25661.76
593.1099, 25654.45
593.5920, 25637.96
594.0741, 25620.05
594.5562, 25601.61
595.0383, 25585.47
595.5204, 25577.38
596.0026, 25579.79
596.4847, 25585.17
596.9668, 25579.54
597.4489, 25560.16
597.9310, 25550.75
598.4131, 25559.05
598.8953, 25568.45
599.3774, 25573.92
599.8595, 25574.07
600.3416, 25564.75
600.8237, 25541.22
601.3058, 25518.86
601.7880, 25509.76
602.2701, 25510.60
602.7522, 25514.52
603.2343, 25520.43
603.7164, 25525.67
604.1985, 25528.47
604.6807, 25528.68
605.1628, 25525.11
605.6449, 25514.94
606.1270, 25505.17
606.6091, 25499.02
607.0912, 25492.45
607.5734, 25479.91
608.0555, 25462.44
608.5376, 25447.26
609.0197, 25440.83
609.5018, 25440.99
609.9839, 25437.87
610.4661, 25429.37
610.9482, 25424.48
611.4303, 25431.18
611.9124, 25438.07
612.3945, 25435.46
612.8766, 25424.06
613.3588, 25412.55
613.8409, 25403.75
614.3230, 25397.32
614.8051, 25392.42
615.2872, 25389.35
615.7693, 25390.38
616.2515, 25396.78
616.7336, 25405.14
617.2157, 25410.87
617.6978, 25413.67
618.1799, 25414.16
618.6620, 25412.78
619.1442, 25408.58
619.6263, 25395.67
620.1084, 25381.66
620.5905, 25379.28
621.0726, 25391.82
621.5547, 25407.34
622.0369, 25409.95
622.5190, 25400.44
623.0011, 25398.36
623.4832, 25408.00
623.9653, 25415.77
624.4474, 25414.33
624.9296, 25407.42
625.4117, 25399.20
625.8938, 25389.60
626.3759, 25381.08
626.8580, 25372.35
627.3401, 25366.76
627.8223, 25372.61
628.3044, 25387.51
628.7865, 25395.16
629.2686, 25385.31
629.7507, 25365.46
630.2328, 25355.37
630.7150, 25364.31
631.1971, 25364.41
631.6792, 25348.63
632.1613, 25332.01
632.6434, 25321.28
633.1255, 25315.49
633.6077, 25311.95
634.0898, 25309.84
634.5719, 25307.54
635.0540, 25303.43
635.5361, 25297.43
636.0182, 25287.71
636.5004, 25272.20
636.9825, 25258.70
637.4646, 25252.90
637.9467, 25254.06
638.4288, 25258.04
638.9109, 25270.61
639.3931, 25276.97
639.8752, 25266.00
