##NAMES=Yoderite
##RRUFFID=R050277
##IDEAL CHEMISTRY=(MgAl_3_)(MgAl)Al_2_O_2_(SiO_4_)_4_(OH)_2_
##LOCALITY=Mautia Hill, Kongwa, Central Province, Tanzania
##OWNER=RRUFF
##SOURCE=Marcus Origlieri
##DESCRIPTION=Blue anhedral lathlike grains
##STATUS=The identification of this mineral has been confirmed by X-ray diffraction and chemical analysis
##URL=rruff.info/R050277
##MEASURED CHEMISTRY=(Mg_1.95_Mn_0.05_)_Σ=2_(Al_5.54_Fe^3+^_0.46_)_Σ=6_Si_4.00_O_18_(OH)_2_
145.5741, 1135.860
146.0563, 1136.235
146.5384, 1136.457
147.0205, 1136.824
147.5026, 1136.509
147.9847, 1135.219
148.4668, 1132.912
148.9490, 1130.658
149.4311, 1127.937
149.9132, 1125.578
150.3953, 1124.398
150.8774, 1125.762
151.3595, 1126.834
151.8417, 1127.228
152.3238, 1126.963
152.8059, 1126.080
153.2880, 1123.612
153.7701, 1120.901
154.2522, 1119.356
154.7344, 1120.721
155.2165, 1121.749
155.6986, 1121.463
156.1807, 1119.467
156.6628, 1117.432
157.1449, 1115.476
157.6271, 1113.657
158.1092, 1112.048
158.5913, 1110.956
159.0734, 1109.841
159.5555, 1108.413
160.0376, 1106.453
160.5198, 1104.731
161.0019, 1103.449
161.4840, 1102.563
161.9661, 1102.033
162.4482, 1102.471
162.9303, 1102.849
163.4125, 1102.505
163.8946, 1101.011
164.3767, 1099.550
164.8588, 1098.715
165.3409, 1098.317
165.8230, 1097.878
166.3052, 1097.201
166.7873, 1096.383
167.2694, 1095.401
167.7515, 1093.904
168.2336, 1092.834
168.7157, 1093.334
169.1978, 1094.878
169.6800, 1095.798
170.1621, 1094.619
170.6442, 1092.567
171.1263, 1090.942
171.6084, 1090.388
172.0905, 1089.872
172.5727, 1088.282
173.0548, 1085.853
173.5369, 1083.704
174.0190, 1082.875
174.5011, 1082.668
174.9832, 1082.088
175.4654, 1080.627
175.9475, 1078.957
176.4296, 1077.656
176.9117, 1076.728
177.3938, 1076.223
177.8759, 1076.691
178.3581, 1077.574
178.8402, 1077.773
179.3223, 1076.664
179.8044, 1074.953
180.2865, 1073.532
180.7686, 1072.405
181.2508, 1071.532
181.7329, 1071.089
182.2150, 1070.893
182.6971, 1070.446
183.1792, 1069.433
183.6613, 1068.144
184.1435, 1067.140
184.6256, 1066.412
185.1077, 1065.850
185.5898, 1065.114
186.0719, 1064.364
186.5540, 1064.280
187.0362, 1065.377
187.5183, 1067.235
188.0004, 1068.870
188.4825, 1070.334
188.9646, 1071.290
189.4467, 1071.124
189.9289, 1069.969
190.4110, 1068.880
190.8931, 1068.141
191.3752, 1067.751
191.8573, 1067.795
192.3394, 1068.358
192.8216, 1068.971
193.3037, 1068.699
193.7858, 1067.592
194.2679, 1067.467
194.7500, 1069.618
195.2321, 1073.509
195.7143, 1075.620
196.1964, 1075.658
196.6785, 1074.770
197.1606, 1074.326
197.6427, 1074.342
198.1248, 1074.374
198.6070, 1074.109
199.0891, 1073.604
199.5712, 1073.920
200.0533, 1075.302
200.5354, 1076.903
201.0175, 1077.464
201.4997, 1076.855
201.9818, 1076.146
202.4639, 1075.950
202.9460, 1076.278
203.4281, 1075.275
203.9102, 1072.543
204.3924, 1069.231
204.8745, 1067.015
205.3566, 1066.082
205.8387, 1065.424
206.3208, 1064.924
206.8029, 1064.643
207.2851, 1063.234
207.7672, 1060.215
208.2493, 1056.766
208.7314, 1054.810
209.2135, 1054.734
209.6956, 1054.812
210.1778, 1054.375
210.6599, 1053.314
211.1420, 1052.725
211.6241, 1052.814
212.1062, 1053.120
212.5883, 1052.739
213.0705, 1051.191
213.5526, 1050.266
214.0347, 1050.877
214.5168, 1053.379
214.9989, 1054.887
215.4810, 1055.231
215.9632, 1054.728
216.4453, 1053.662
216.9274, 1051.461
217.4095, 1050.026
217.8916, 1050.206
218.3737, 1052.328
218.8559, 1054.224
219.3380, 1056.240
219.8201, 1057.710
220.3022, 1057.272
220.7843, 1053.856
221.2664, 1050.849
221.7486, 1049.400
222.2307, 1049.782
222.7128, 1050.480
223.1949, 1051.701
223.6770, 1053.089
224.1591, 1054.013
224.6413, 1054.196
225.1234, 1054.495
225.6055, 1055.166
226.0876, 1056.235
226.5697, 1057.635
227.0518, 1059.674
227.5340, 1061.810
228.0161, 1063.078
228.4982, 1062.807
228.9803, 1062.889
229.4624, 1063.915
229.9445, 1066.063
230.4267, 1068.302
230.9088, 1070.719
231.3909, 1073.186
231.8730, 1075.580
232.3551, 1078.128
232.8372, 1080.221
233.3194, 1081.538
233.8015, 1081.869
234.2836, 1082.661
234.7657, 1083.899
235.2478, 1085.608
235.7299, 1087.875
236.2121, 1090.837
236.6942, 1094.123
237.1763, 1097.747
237.6584, 1101.790
238.1405, 1105.508
238.6226, 1108.531
239.1048, 1111.463
239.5869, 1115.057
240.0690, 1119.726
240.5511, 1124.288
241.0332, 1128.369
241.5153, 1131.818
241.9975, 1136.057
242.4796, 1141.688
242.9617, 1147.534
243.4438, 1152.334
243.9259, 1156.176
244.4080, 1158.829
244.8902, 1160.304
245.3723, 1160.623
245.8544, 1159.461
246.3365, 1156.692
246.8186, 1152.564
247.3007, 1147.233
247.7829, 1140.484
248.2650, 1132.885
248.7471, 1124.152
249.2292, 1114.196
249.7113, 1105.311
250.1934, 1097.306
250.6756, 1090.476
251.1577, 1085.175
251.6398, 1082.222
252.1219, 1079.050
252.6040, 1074.875
253.0861, 1069.829
253.5683, 1066.297
254.0504, 1064.790
254.5325, 1064.163
255.0146, 1063.508
255.4967, 1062.726
255.9788, 1062.166
256.4609, 1062.012
256.9431, 1062.182
257.4252, 1061.965
257.9073, 1061.330
258.3894, 1060.346
258.8715, 1058.993
259.3536, 1057.046
259.8358, 1055.301
260.3179, 1053.870
260.8000, 1052.706
261.2821, 1051.494
261.7642, 1049.911
262.2463, 1048.818
262.7285, 1048.956
263.2106, 1050.898
263.6927, 1052.294
264.1748, 1052.990
264.6569, 1053.008
265.1390, 1052.168
265.6212, 1049.809
266.1033, 1047.983
266.5854, 1048.149
267.0675, 1051.069
267.5496, 1052.915
268.0317, 1053.128
268.5139, 1052.342
268.9960, 1052.098
269.4781, 1052.337
269.9602, 1053.261
270.4423, 1055.275
270.9244, 1058.779
271.4066, 1061.230
271.8887, 1062.323
272.3708, 1062.589
272.8529, 1063.126
273.3350, 1064.108
273.8171, 1064.726
274.2993, 1064.357
274.7814, 1062.805
275.2635, 1062.234
275.7456, 1062.823
276.2277, 1064.089
276.7098, 1065.547
277.1920, 1067.385
277.6741, 1068.293
278.1562, 1067.204
278.6383, 1064.123
279.1204, 1063.146
279.6025, 1064.805
280.0847, 1067.272
280.5668, 1068.070
281.0489, 1067.056
281.5310, 1066.033
282.0131, 1065.635
282.4952, 1065.763
282.9774, 1065.679
283.4595, 1065.402
283.9416, 1064.874
284.4237, 1063.876
284.9058, 1062.415
285.3879, 1061.218
285.8701, 1060.559
286.3522, 1060.288
286.8343, 1059.773
287.3164, 1058.969
287.7985, 1058.283
288.2806, 1058.120
288.7628, 1058.436
289.2449, 1058.900
289.7270, 1059.648
290.2091, 1060.316
290.6912, 1059.729
291.1733, 1057.880
291.6555, 1056.053
292.1376, 1055.544
292.6197, 1055.996
293.1018, 1055.581
293.5839, 1053.678
294.0660, 1051.379
294.5482, 1050.731
295.0303, 1051.626
295.5124, 1052.716
295.9945, 1053.312
296.4766, 1053.475
296.9587, 1053.262
297.4409, 1052.578
297.9230, 1051.879
298.4051, 1051.687
298.8872, 1051.983
299.3693, 1052.696
299.8514, 1054.224
300.3336, 1056.034
300.8157, 1056.958
301.2978, 1056.777
301.7799, 1056.553
302.2620, 1057.557
302.7441, 1059.400
303.2263, 1061.082
303.7084, 1061.930
304.1905, 1062.448
304.6726, 1063.220
305.1547, 1064.242
305.6368, 1065.551
306.1190, 1067.429
306.6011, 1069.596
307.0832, 1071.501
307.5653, 1072.944
308.0474, 1074.096
308.5295, 1075.124
309.0117, 1076.033
309.4938, 1076.686
309.9759, 1076.491
310.4580, 1076.188
310.9401, 1076.708
311.4222, 1078.785
311.9044, 1081.151
312.3865, 1083.134
312.8686, 1084.718
313.3507, 1085.870
313.8328, 1085.959
314.3149, 1085.913
314.7971, 1086.534
315.2792, 1088.181
315.7613, 1090.051
316.2434, 1091.948
316.7255, 1093.765
317.2076, 1095.279
317.6898, 1096.503
318.1719, 1097.326
318.6540, 1097.468
319.1361, 1096.594
319.6182, 1096.225
320.1003, 1098.055
320.5825, 1100.422
321.0646, 1101.035
321.5467, 1097.234
322.0288, 1093.416
322.5109, 1091.341
322.9930, 1091.336
323.4752, 1091.189
323.9573, 1090.553
324.4394, 1089.539
324.9215, 1088.251
325.4036, 1085.941
325.8857, 1084.151
326.3679, 1083.367
326.8500, 1083.539
327.3321, 1083.638
327.8142, 1083.578
328.2963, 1083.436
328.7784, 1083.261
329.2606, 1083.408
329.7427, 1083.099
330.2248, 1082.209
330.7069, 1080.827
331.1890, 1079.293
331.6711, 1077.245
332.1533, 1075.429
332.6354, 1074.169
333.1175, 1073.719
333.5996, 1073.266
334.0817, 1072.801
334.5638, 1072.328
335.0460, 1071.805
335.5281, 1070.986
336.0102, 1070.542
336.4923, 1070.799
336.9744, 1071.887
337.4565, 1072.604
337.9387, 1072.897
338.4208, 1072.884
338.9029, 1072.712
339.3850, 1072.398
339.8671, 1071.835
340.3492, 1070.836
340.8313, 1069.525
341.3134, 1068.987
341.7956, 1069.444
342.2777, 1070.021
342.7598, 1069.773
343.2419, 1068.658
343.7240, 1068.383
344.2061, 1069.555
344.6883, 1071.413
345.1704, 1071.994
345.6525, 1071.261
346.1346, 1070.024
346.6167, 1068.421
347.0988, 1066.592
347.5810, 1065.660
348.0631, 1065.833
348.5452, 1066.420
349.0273, 1066.559
349.5094, 1066.245
349.9915, 1065.550
350.4737, 1063.957
350.9558, 1062.052
351.4379, 1061.409
351.9200, 1062.093
352.4021, 1063.003
352.8842, 1063.235
353.3664, 1062.909
353.8485, 1062.289
354.3306, 1061.259
354.8127, 1060.177
355.2948, 1059.419
355.7769, 1058.995
356.2591, 1058.927
356.7412, 1059.797
357.2233, 1060.838
357.7054, 1061.108
358.1875, 1060.111
358.6696, 1058.827
359.1518, 1057.461
359.6339, 1056.304
360.1160, 1056.085
360.5981, 1058.349
361.0802, 1060.839
361.5623, 1061.789
362.0445, 1060.570
362.5266, 1059.666
363.0087, 1060.113
363.4908, 1061.461
363.9729, 1063.145
364.4550, 1065.620
364.9372, 1067.813
365.4193, 1069.194
365.9014, 1069.733
366.3835, 1070.411
366.8656, 1071.784
367.3477, 1073.160
367.8299, 1074.071
368.3120, 1073.703
368.7941, 1073.752
369.2762, 1074.721
369.7583, 1076.347
370.2404, 1077.451
370.7226, 1077.717
371.2047, 1077.763
371.6868, 1077.741
372.1689, 1077.226
372.6510, 1077.737
373.1331, 1080.109
373.6153, 1083.059
374.0974, 1084.319
374.5795, 1082.933
375.0616, 1081.799
375.5437, 1081.824
376.0258, 1083.028
376.5080, 1084.163
376.9901, 1085.272
377.4722, 1086.221
377.9543, 1086.757
378.4364, 1086.755
378.9185, 1087.201
379.4007, 1088.473
379.8828, 1090.157
380.3649, 1090.850
380.8470, 1090.448
381.3291, 1089.894
381.8112, 1089.827
382.2934, 1090.179
382.7755, 1090.578
383.2576, 1091.103
383.7397, 1091.333
384.2218, 1090.138
384.7039, 1087.858
385.1861, 1086.422
385.6682, 1087.589
386.1503, 1089.961
386.6324, 1090.878
387.1145, 1090.293
387.5966, 1089.012
388.0788, 1087.232
388.5609, 1085.283
389.0430, 1083.767
389.5251, 1082.968
390.0072, 1082.498
390.4893, 1082.057
390.9715, 1081.653
391.4536, 1081.302
391.9357, 1081.189
392.4178, 1081.042
392.8999, 1080.547
393.3820, 1079.471
393.8642, 1078.672
394.3463, 1078.752
394.8284, 1079.358
395.3105, 1079.934
395.7926, 1080.722
396.2747, 1081.102
396.7569, 1080.312
397.2390, 1078.251
397.7211, 1077.544
398.2032, 1080.416
398.6853, 1083.862
399.1674, 1085.643
399.6496, 1083.048
400.1317, 1081.785
400.6138, 1082.809
401.0959, 1085.511
401.5780, 1087.854
402.0602, 1090.134
402.5423, 1091.663
403.0244, 1091.958
403.5065, 1090.455
403.9886, 1089.619
404.4707, 1089.322
404.9529, 1089.813
405.4350, 1091.752
405.9171, 1095.826
406.3992, 1099.121
406.8813, 1100.713
407.3634, 1100.872
407.8456, 1101.535
408.3277, 1102.774
408.8098, 1104.249
409.2919, 1105.656
409.7740, 1107.018
410.2561, 1108.593
410.7383, 1110.441
411.2204, 1112.479
411.7025, 1114.674
412.1846, 1117.016
412.6667, 1119.424
413.1488, 1121.702
413.6310, 1124.032
414.1131, 1126.917
414.5952, 1130.395
415.0773, 1133.868
415.5594, 1137.138
416.0415, 1140.002
416.5237, 1142.118
417.0058, 1142.831
417.4879, 1143.311
417.9700, 1144.528
418.4521, 1146.354
418.9342, 1148.297
419.4164, 1150.766
419.8985, 1152.821
420.3806, 1153.420
420.8627, 1151.791
421.3448, 1150.707
421.8269, 1151.472
422.3091, 1153.350
422.7912, 1155.314
423.2733, 1157.761
423.7554, 1159.607
424.2375, 1160.599
424.7196, 1160.723
425.2018, 1160.076
425.6839, 1157.767
426.1660, 1155.360
426.6481, 1153.755
427.1302, 1153.551
427.6123, 1153.285
428.0945, 1152.922
428.5766, 1152.494
429.0587, 1152.022
429.5408, 1151.399
430.0229, 1150.951
430.5050, 1150.638
430.9872, 1150.423
431.4693, 1151.575
431.9514, 1154.692
432.4335, 1157.706
432.9156, 1158.177
433.3977, 1156.035
433.8799, 1153.891
434.3620, 1151.965
434.8441, 1150.636
435.3262, 1151.307
435.8083, 1153.863
436.2904, 1156.123
436.7726, 1156.507
437.2547, 1155.624
437.7368, 1154.774
438.2189, 1154.021
438.7010, 1153.589
439.1831, 1153.793
439.6652, 1154.477
440.1473, 1155.343
440.6295, 1156.662
441.1116, 1157.826
441.5937, 1158.336
442.0758, 1158.259
442.5579, 1157.888
443.0400, 1156.843
443.5222, 1155.899
444.0043, 1155.774
444.4864, 1157.082
444.9685, 1157.907
445.4506, 1157.069
445.9327, 1155.510
446.4149, 1154.584
446.8970, 1155.188
447.3791, 1155.790
447.8612, 1156.045
448.3433, 1155.931
448.8254, 1155.606
449.3076, 1155.067
449.7897, 1154.319
450.2718, 1153.283
450.7539, 1151.558
451.2360, 1150.560
451.7181, 1150.699
452.2003, 1151.327
452.6824, 1151.104
453.1645, 1149.870
453.6466, 1148.402
454.1287, 1146.866
454.6108, 1145.282
455.0930, 1144.066
455.5751, 1143.216
456.0572, 1142.594
456.5393, 1142.261
457.0214, 1142.107
457.5035, 1141.503
457.9857, 1140.143
458.4678, 1138.699
458.9499, 1138.437
459.4320, 1139.018
459.9141, 1139.184
460.3962, 1137.780
460.8784, 1135.881
461.3605, 1134.907
461.8426, 1134.913
462.3247, 1134.760
462.8068, 1133.340
463.2889, 1131.532
463.7711, 1130.256
464.2532, 1129.744
464.7353, 1129.823
465.2174, 1130.865
465.6995, 1132.446
466.1816, 1133.596
466.6638, 1133.800
467.1459, 1133.714
467.6280, 1133.487
468.1101, 1133.048
468.5922, 1132.827
469.0743, 1133.416
469.5565, 1133.793
470.0386, 1132.992
470.5207, 1130.109
471.0028, 1127.956
471.4849, 1126.952
471.9670, 1126.808
472.4492, 1126.816
472.9313, 1127.140
473.4134, 1127.084
473.8955, 1126.243
474.3776, 1124.650
474.8597, 1123.042
475.3419, 1121.379
475.8240, 1119.862
476.3061, 1118.873
476.7882, 1118.262
477.2703, 1117.371
477.7524, 1116.054
478.2346, 1114.363
478.7167, 1112.014
479.1988, 1109.239
479.6809, 1106.897
480.1630, 1106.116
480.6451, 1105.638
481.1273, 1104.162
481.6094, 1101.570
482.0915, 1098.647
482.5736, 1094.982
483.0557, 1091.589
483.5378, 1089.441
484.0200, 1089.971
484.5021, 1090.320
484.9842, 1089.776
485.4663, 1088.452
485.9484, 1086.681
486.4305, 1083.548
486.9127, 1080.904
487.3948, 1079.594
487.8769, 1079.968
488.3590, 1079.258
488.8411, 1076.971
489.3232, 1074.142
489.8054, 1071.545
490.2875, 1069.093
490.7696, 1067.390
491.2517, 1066.848
491.7338, 1066.811
492.2159, 1065.504
492.6981, 1062.803
493.1802, 1060.689
493.6623, 1060.484
494.1444, 1061.631
494.6265, 1061.900
495.1086, 1061.272
495.5908, 1060.424
496.0729, 1059.935
496.5550, 1059.622
497.0371, 1059.127
497.5192, 1058.333
498.0013, 1057.369
498.4835, 1056.168
498.9656, 1054.863
499.4477, 1053.780
499.9298, 1052.863
500.4119, 1052.351
500.8940, 1052.681
501.3762, 1053.813
501.8583, 1054.455
502.3404, 1054.016
502.8225, 1053.153
503.3046, 1052.274
503.7867, 1051.417
504.2689, 1050.580
504.7510, 1049.874
505.2331, 1049.166
505.7152, 1048.201
506.1973, 1046.786
506.6794, 1045.522
507.1616, 1044.432
507.6437, 1043.573
508.1258, 1043.648
508.6079, 1044.913
509.0900, 1046.086
509.5721, 1046.035
510.0543, 1044.930
510.5364, 1044.743
511.0185, 1045.754
511.5006, 1046.974
511.9827, 1047.023
512.4648, 1046.265
512.9470, 1045.840
513.4291, 1046.280
513.9112, 1047.066
514.3933, 1047.660
514.8754, 1048.113
515.3575, 1048.623
515.8397, 1049.353
516.3218, 1050.128
516.8039, 1050.854
517.2860, 1051.531
517.7681, 1052.024
518.2502, 1051.975
518.7324, 1051.869
519.2145, 1052.137
519.6966, 1053.042
520.1787, 1054.075
520.6608, 1055.514
521.1429, 1057.009
521.6251, 1057.661
522.1072, 1057.007
522.5893, 1056.370
523.0714, 1056.109
523.5535, 1056.235
524.0356, 1057.078
524.5178, 1059.001
524.9999, 1060.484
525.4820, 1059.497
525.9641, 1056.447
526.4462, 1055.329
526.9283, 1056.917
527.4105, 1059.726
527.8926, 1062.230
528.3747, 1064.383
528.8568, 1065.989
529.3389, 1066.892
529.8210, 1067.262
530.3032, 1066.935
530.7853, 1066.073
531.2674, 1065.532
531.7495, 1065.554
532.2316, 1066.203
532.7137, 1067.781
533.1959, 1070.728
533.6780, 1072.964
534.1601, 1073.659
534.6422, 1073.534
535.1243, 1073.341
535.6064, 1072.988
536.0886, 1072.770
536.5707, 1072.642
537.0528, 1072.692
537.5349, 1073.279
538.0170, 1074.737
538.4991, 1075.934
538.9813, 1076.235
539.4634, 1075.733
539.9455, 1076.155
540.4276, 1077.667
540.9097, 1079.212
541.3918, 1079.449
541.8740, 1078.810
542.3561, 1079.080
542.8382, 1080.611
543.3203, 1082.810
543.8024, 1085.265
544.2845, 1087.857
544.7667, 1090.279
545.2488, 1092.660
545.7309, 1094.558
546.2130, 1095.501
546.6951, 1095.627
547.1772, 1095.562
547.6594, 1094.948
548.1415, 1094.694
548.6236, 1095.527
549.1057, 1098.030
549.5878, 1099.705
550.0699, 1099.698
550.5521, 1099.254
551.0342, 1099.402
551.5163, 1100.302
551.9984, 1101.445
552.4805, 1102.698
552.9626, 1104.247
553.4448, 1106.858
553.9269, 1110.811
554.4090, 1113.805
554.8911, 1114.701
555.3732, 1113.989
555.8553, 1113.197
556.3375, 1112.334
556.8196, 1111.768
557.3017, 1111.961
557.7838, 1112.589
558.2659, 1113.217
558.7480, 1113.836
559.2302, 1114.122
559.7123, 1112.982
560.1944, 1111.627
560.6765, 1111.624
561.1586, 1115.493
561.6407, 1118.596
562.1229, 1118.789
562.6050, 1117.016
563.0871, 1116.047
563.5692, 1116.624
564.0513, 1117.709
564.5334, 1119.341
565.0156, 1121.573
565.4977, 1122.594
565.9798, 1121.836
566.4619, 1120.910
566.9440, 1121.108
567.4261, 1122.547
567.9083, 1123.379
568.3904, 1123.359
568.8725, 1123.088
569.3546, 1123.444
569.8367, 1124.279
570.3188, 1124.943
570.8010, 1125.179
571.2831, 1125.207
571.7652, 1125.268
572.2473, 1125.343
572.7294, 1125.366
573.2115, 1125.073
573.6937, 1124.887
574.1758, 1125.074
574.6579, 1125.656
575.1400, 1126.540
575.6221, 1127.695
576.1042, 1129.162
576.5864, 1130.998
577.0685, 1133.455
577.5506, 1135.845
578.0327, 1138.312
578.5148, 1140.634
578.9969, 1142.434
579.4791, 1143.523
579.9612, 1144.806
580.4433, 1146.467
580.9254, 1148.378
581.4075, 1150.175
581.8896, 1151.842
582.3718, 1153.729
582.8539, 1156.319
583.3360, 1159.170
583.8181, 1161.235
584.3002, 1162.512
584.7823, 1163.622
585.2645, 1165.122
585.7466, 1166.644
586.2287, 1167.816
586.7108, 1168.534
587.1929, 1169.093
587.6750, 1169.172
588.1571, 1169.380
588.6392, 1170.422
589.1213, 1173.694
589.6035, 1176.309
590.0856, 1178.017
590.5677, 1178.860
591.0498, 1178.716
591.5319, 1176.800
592.0140, 1175.700
592.4962, 1176.744
592.9783, 1179.502
593.4604, 1180.289
593.9425, 1178.844
594.4246, 1177.408
594.9067, 1178.231
595.3889, 1180.387
595.8710, 1181.096
596.3531, 1180.047
596.8352, 1178.256
597.3173, 1176.175
597.7994, 1174.068
598.2816, 1172.395
598.7637, 1171.676
599.2458, 1170.810
599.7279, 1169.267
600.2100, 1167.258
600.6921, 1165.151
601.1743, 1163.123
601.6564, 1160.929
602.1385, 1158.374
602.6206, 1155.551
603.1027, 1153.307
603.5848, 1152.088
604.0670, 1150.644
604.5491, 1148.265
605.0312, 1144.947
605.5133, 1141.469
605.9954, 1137.699
606.4775, 1134.532
606.9597, 1133.654
607.4418, 1134.176
607.9239, 1132.734
608.4060, 1128.213
608.8881, 1123.750
609.3702, 1123.732
609.8524, 1125.780
610.3345, 1125.831
610.8166, 1120.159
611.2987, 1114.343
611.7808, 1110.970
612.2629, 1109.457
612.7451, 1108.015
613.2272, 1106.626
613.7093, 1104.923
614.1914, 1102.586
614.6735, 1099.617
615.1556, 1097.347
615.6378, 1095.969
616.1199, 1094.884
616.6020, 1093.873
617.0841, 1092.928
617.5662, 1091.278
618.0483, 1088.743
618.5305, 1086.247
619.0126, 1084.979
619.4947, 1084.554
619.9768, 1083.843
620.4589, 1082.545
620.9410, 1081.025
621.4232, 1079.576
621.9053, 1078.147
622.3874, 1076.630
622.8695, 1074.917
623.3516, 1073.209
623.8337, 1071.297
624.3159, 1069.374
624.7980, 1068.307
625.2801, 1069.202
625.7622, 1069.780
626.2443, 1069.116
626.7264, 1067.135
627.2086, 1066.117
627.6907, 1066.339
628.1728, 1066.664
628.6549, 1066.120
629.1370, 1064.806
629.6191, 1063.956
630.1013, 1063.695
630.5834, 1063.489
631.0655, 1062.656
631.5476, 1061.486
632.0297, 1060.660
632.5118, 1060.740
632.9940, 1060.384
633.4761, 1057.634
633.9582, 1054.015
634.4403, 1052.128
634.9224, 1055.426
635.4045, 1057.676
635.8867, 1056.383
636.3688, 1052.408
636.8509, 1049.839
637.3330, 1049.394
637.8151, 1049.106
638.2972, 1048.283
638.7794, 1046.956
639.2615, 1045.635
639.7436, 1044.285
640.2257, 1043.049
640.7078, 1042.109
