##NAMES=Yoshimuraite
##RRUFFID=R050266
##IDEAL CHEMISTRY=Ba_4_Mn^2+^_4_Ti^4+^_2_(Si_2_O_7_)_2_(PO_4_)_2_O_2_(OH)_2_
##LOCALITY=Taguchi mine, Shidara, Kitashidara-Gun, Aichi Prefecture, Japan
##OWNER=RRUFF
##SOURCE=Marcus Origlieri
##DESCRIPTION=Brown tabular crystals associated with katophorite, R050633.
##STATUS=The identification of this mineral is confirmed by single-crystal X-ray diffraction and chemical analysis.
##URL=rruff.info/R050266
##MEASURED CHEMISTRY=(Ba_1.82_Sr_0.18_)_Σ=2_(Ti_0.78_Fe^3+^_0.22_)_Σ=1_(Mn^2+^_1.62_Fe^2+^_0.38_)_Σ=2_O(Si_2.00_O_7_)((P_0.59_S_0.41_)_Σ=1_O_4_)((OH)_0.81_O_0.19_)_Σ=1_; OH estimated by charge balance
89.78156, 0.0000000E+00
90.26367, 25.11926
90.74579, 23.08383
91.22791, 23.62777
91.71002, 26.52841
92.19214, 29.87615
92.67426, 32.63316
93.15638, 34.69729
93.63850, 35.66475
94.12061, 34.68003
94.60273, 32.70897
95.08485, 32.26527
95.56696, 33.54008
96.04908, 35.07729
96.53120, 35.01503
97.01331, 33.42711
97.49543, 31.77240
97.97755, 30.54668
98.45966, 29.75887
98.94178, 29.49135
99.42390, 29.92799
99.90602, 30.61671
100.3881, 30.64445
100.8703, 29.85679
101.3524, 28.94744
101.8345, 28.32159
102.3166, 28.12945
102.7987, 27.48499
103.2808, 25.87598
103.7630, 23.78325
104.2451, 23.64210
104.7272, 26.86960
105.2093, 30.17402
105.6914, 31.28121
106.1735, 28.53429
106.6557, 26.41428
107.1378, 25.61990
107.6199, 26.18771
108.1020, 26.65258
108.5841, 27.02838
109.0662, 27.29634
109.5484, 27.44450
110.0305, 27.05659
110.5126, 26.96305
110.9947, 27.31775
111.4768, 28.16793
111.9590, 29.26929
112.4411, 30.71198
112.9232, 32.37751
113.4053, 34.07038
113.8874, 35.84724
114.3695, 37.58897
114.8517, 39.30022
115.3338, 41.12927
115.8159, 42.54199
116.2980, 42.51888
116.7801, 41.94101
117.2622, 42.70940
117.7444, 46.31739
118.2265, 51.04425
118.7086, 55.80322
119.1907, 60.59983
119.6728, 65.11500
120.1549, 68.81142
120.6371, 71.94393
121.1192, 75.56163
121.6013, 80.38139
122.0834, 85.93661
122.5655, 91.74258
123.0476, 98.24072
123.5298, 104.4170
124.0119, 108.6586
124.4940, 111.1428
124.9761, 114.3887
125.4582, 120.9405
125.9404, 129.6529
126.4225, 138.2370
126.9046, 146.0725
127.3867, 153.1542
127.8688, 159.3727
128.3509, 164.6949
128.8331, 169.4735
129.3152, 173.3609
129.7973, 176.7331
130.2794, 181.3457
130.7615, 188.6938
131.2436, 198.0288
131.7258, 206.6110
132.2079, 214.1739
132.6900, 221.4654
133.1721, 229.8450
133.6542, 239.2921
134.1364, 248.5725
134.6185, 256.8692
135.1006, 264.2706
135.5827, 271.9275
136.0648, 279.6212
136.5469, 288.0177
137.0291, 299.6731
137.5112, 315.5089
137.9933, 330.4589
138.4754, 341.0614
138.9575, 346.5549
139.4396, 351.9218
139.9218, 357.8956
140.4039, 364.1269
140.8860, 368.5304
141.3681, 370.2814
141.8502, 371.6140
142.3323, 374.0555
142.8145, 377.5421
143.2966, 382.4361
143.7787, 389.2296
144.2608, 397.9350
144.7429, 405.5387
145.2250, 411.3143
145.7072, 416.7301
146.1893, 423.2641
146.6714, 431.8080
147.1535, 440.1063
147.6356, 447.4049
148.1178, 453.3550
148.5999, 460.4896
149.0820, 469.2426
149.5641, 478.9772
150.0462, 488.8903
150.5283, 500.6427
151.0105, 510.7944
151.4926, 513.3868
151.9747, 511.0127
152.4568, 510.2628
152.9389, 511.9014
153.4210, 515.0580
153.9032, 518.5711
154.3853, 524.6751
154.8674, 529.0516
155.3495, 529.7757
155.8316, 524.4567
156.3137, 520.9483
156.7959, 521.6438
157.2780, 524.8176
157.7601, 527.2323
158.2422, 527.9395
158.7243, 527.9232
159.2065, 527.5287
159.6886, 526.1307
160.1707, 525.5273
160.6528, 527.0262
161.1349, 529.7957
161.6170, 531.6433
162.0992, 531.2244
162.5813, 529.9758
163.0634, 528.7897
163.5455, 527.5969
164.0276, 526.8494
164.5097, 526.7762
164.9919, 527.3184
165.4740, 528.2650
165.9561, 530.5938
166.4382, 532.7980
166.9203, 533.4880
167.4024, 531.0746
167.8846, 528.2921
168.3667, 526.3702
168.8488, 525.3522
169.3309, 525.5760
169.8130, 529.0310
170.2952, 533.3477
170.7773, 535.5242
171.2594, 533.0108
171.7415, 529.1866
172.2236, 526.7341
172.7057, 525.5856
173.1879, 524.8856
173.6700, 523.7504
174.1521, 522.6514
174.6342, 522.3779
175.1163, 523.8874
175.5984, 526.0328
176.0806, 527.4934
176.5627, 528.2740
177.0448, 528.7305
177.5269, 528.7802
178.0090, 528.7118
178.4911, 529.2191
178.9733, 531.4778
179.4554, 534.2204
179.9375, 535.2317
180.4196, 534.3632
180.9017, 532.9821
181.3838, 532.5719
181.8660, 532.8768
182.3481, 532.9559
182.8302, 532.1251
183.3123, 530.8005
183.7944, 530.0410
184.2766, 529.9670
184.7587, 529.9692
185.2408, 529.0920
185.7229, 527.5067
186.2050, 526.1931
186.6871, 525.8909
187.1693, 526.2933
187.6514, 526.2921
188.1335, 525.8014
188.6156, 525.0275
189.0977, 524.2863
189.5798, 523.5606
190.0620, 522.6011
190.5441, 520.8392
191.0262, 518.5126
191.5083, 517.4311
191.9904, 517.9437
192.4725, 519.0750
192.9547, 519.4111
193.4368, 518.9617
193.9189, 517.6078
194.4010, 514.6953
194.8831, 510.3857
195.3652, 507.4341
195.8474, 506.4609
196.3295, 506.2226
196.8116, 503.8982
197.2937, 499.2544
197.7758, 494.8324
198.2579, 492.1090
198.7401, 491.1013
199.2222, 490.9012
199.7043, 491.7261
200.1864, 492.9982
200.6685, 493.4746
201.1507, 493.1256
201.6328, 492.0757
202.1149, 490.1198
202.5970, 487.1198
203.0791, 484.5729
203.5612, 482.5775
204.0434, 481.1484
204.5255, 480.5748
205.0076, 481.1332
205.4897, 481.6080
205.9718, 481.1032
206.4539, 479.3930
206.9361, 478.0397
207.4182, 477.0670
207.9003, 476.5962
208.3824, 477.2808
208.8645, 479.6747
209.3466, 481.7930
209.8288, 482.0204
210.3109, 479.5848
210.7930, 478.7794
211.2751, 480.5846
211.7572, 484.1297
212.2393, 486.1333
212.7215, 485.9933
213.2036, 485.5892
213.6857, 486.0697
214.1678, 487.5818
214.6499, 489.5309
215.1320, 492.0709
215.6142, 495.0073
216.0963, 497.4140
216.5784, 499.1035
217.0605, 500.6012
217.5426, 502.2186
218.0247, 503.9448
218.5069, 505.7916
218.9890, 507.8566
219.4711, 510.0486
219.9532, 511.8567
220.4353, 512.8824
220.9175, 514.2095
221.3996, 516.6285
221.8817, 520.5372
222.3638, 524.5145
222.8459, 528.6923
223.3280, 532.8871
223.8102, 535.6732
224.2923, 536.1754
224.7744, 536.6767
225.2565, 538.6688
225.7386, 542.7272
226.2207, 546.8995
226.7029, 551.2762
227.1850, 555.6755
227.6671, 558.8082
228.1492, 559.8523
228.6313, 560.7952
229.1134, 563.0486
229.5956, 567.8738
230.0777, 571.1299
230.5598, 571.7848
231.0419, 570.5439
231.5240, 570.9595
232.0062, 573.7695
232.4883, 577.2402
232.9704, 580.5035
233.4525, 584.0135
233.9346, 586.2738
234.4167, 586.7209
234.8989, 585.7681
235.3810, 585.3777
235.8631, 585.9018
236.3452, 586.5084
236.8273, 586.7241
237.3094, 586.4129
237.7916, 586.0183
238.2737, 585.7955
238.7558, 585.5106
239.2379, 584.0304
239.7200, 580.2839
240.2021, 576.7752
240.6843, 575.0067
241.1664, 576.2667
241.6485, 576.4192
242.1306, 574.9494
242.6127, 572.2461
243.0948, 569.8292
243.5770, 567.9182
244.0591, 566.0051
244.5412, 563.8574
245.0233, 561.3986
245.5054, 558.8323
245.9876, 555.8527
246.4697, 552.8308
246.9518, 550.9660
247.4339, 550.9852
247.9160, 551.0728
248.3981, 550.3384
248.8803, 548.4223
249.3624, 546.4507
249.8445, 544.0594
250.3266, 541.7120
250.8087, 540.8509
251.2908, 542.3624
251.7730, 543.9190
252.2551, 544.4947
252.7372, 543.9071
253.2193, 542.7468
253.7014, 540.7662
254.1835, 538.3281
254.6657, 536.3446
255.1478, 535.1826
255.6299, 533.8225
256.1120, 531.5890
256.5941, 527.7687
257.0763, 525.5179
257.5584, 525.3939
258.0405, 526.4720
258.5226, 526.9315
259.0047, 526.6166
259.4868, 526.0176
259.9690, 525.2186
260.4511, 524.0825
260.9332, 523.3121
261.4153, 522.6832
261.8974, 522.6050
262.3795, 524.1124
262.8617, 528.2491
263.3438, 531.4544
263.8259, 532.0931
264.3080, 529.5705
264.7901, 528.7451
265.2722, 529.9565
265.7544, 532.4464
266.2365, 535.3281
266.7186, 538.8760
267.2007, 541.9146
267.6828, 543.7313
268.1649, 544.2145
268.6471, 546.1472
269.1292, 550.1584
269.6113, 554.6871
270.0934, 557.4914
270.5755, 557.9247
271.0576, 559.2925
271.5398, 562.9170
272.0219, 568.7301
272.5040, 572.8317
272.9861, 574.4897
273.4682, 575.9142
273.9503, 579.8224
274.4325, 586.7536
274.9146, 593.0421
275.3967, 597.7331
275.8788, 601.0235
276.3610, 604.1828
276.8431, 607.2450
277.3252, 609.9825
277.8073, 611.9757
278.2894, 613.1332
278.7715, 614.6700
279.2537, 616.9907
279.7358, 619.8605
280.2179, 622.5205
280.7000, 625.1127
281.1821, 626.9103
281.6642, 627.0453
282.1464, 625.5103
282.6285, 624.0983
283.1106, 623.1305
283.5927, 622.4370
284.0748, 621.9578
284.5569, 621.8287
285.0391, 620.5555
285.5212, 615.9025
286.0033, 608.3127
286.4854, 603.4689
286.9675, 602.7892
287.4496, 604.0740
287.9318, 603.0311
288.4139, 599.6130
288.8960, 595.3489
289.3781, 590.4131
289.8602, 585.1418
290.3423, 581.3433
290.8245, 579.3505
291.3066, 578.4222
291.7887, 577.7849
292.2708, 577.3771
292.7529, 576.5879
293.2350, 574.9201
293.7172, 572.6033
294.1993, 570.3481
294.6814, 568.1653
295.1635, 566.0939
295.6456, 564.0095
296.1277, 562.0160
296.6099, 560.6130
297.0920, 560.7341
297.5741, 561.4719
298.0562, 560.8211
298.5383, 558.6692
299.0204, 556.3037
299.5026, 555.1972
299.9847, 554.9216
300.4668, 552.4436
300.9489, 553.5259
301.4311, 553.5038
301.9132, 552.4651
302.3953, 545.8187
302.8774, 547.5953
303.3595, 546.7187
303.8416, 546.2279
304.3238, 546.4106
304.8059, 546.2210
305.2880, 546.3722
305.7701, 547.4360
306.2522, 549.2783
306.7343, 551.0211
307.2165, 551.8937
307.6986, 552.4071
308.1807, 553.1744
308.6628, 554.2961
309.1449, 555.8000
309.6270, 558.0316
310.1092, 560.7558
310.5913, 563.1564
311.0734, 564.3818
311.5555, 565.3043
312.0376, 566.5372
312.5197, 567.9977
313.0019, 570.2988
313.4840, 574.7175
313.9661, 580.2374
314.4482, 584.8228
314.9303, 587.3326
315.4124, 588.8471
315.8946, 589.7656
316.3767, 589.9730
316.8588, 590.4669
317.3409, 591.8007
317.8230, 593.6358
318.3051, 595.5159
318.7873, 597.1773
319.2694, 598.9945
319.7515, 601.1319
320.2336, 603.6075
320.7157, 606.2799
321.1978, 609.9134
321.6800, 613.3336
322.1621, 615.4626
322.6442, 613.6208
323.1263, 612.9992
323.6084, 615.3506
324.0905, 620.4927
324.5727, 625.3129
325.0548, 629.2660
325.5369, 632.7892
326.0190, 636.1366
326.5012, 639.7855
326.9833, 642.7509
327.4654, 644.2985
327.9475, 644.9233
328.4296, 646.5866
328.9117, 650.3297
329.3939, 654.1902
329.8760, 657.3552
330.3581, 659.1237
330.8402, 661.4590
331.3223, 664.3223
331.8044, 667.7538
332.2866, 671.9017
332.7687, 677.0543
333.2508, 682.4157
333.7329, 687.8875
334.2150, 693.6462
334.6971, 698.6519
335.1793, 702.6915
335.6614, 706.2447
336.1435, 709.9064
336.6256, 713.8510
337.1077, 717.5186
337.5898, 720.3927
338.0720, 722.6266
338.5541, 726.6263
339.0362, 733.1070
339.5183, 739.8854
340.0004, 745.0178
340.4825, 748.4810
340.9647, 750.7973
341.4468, 751.8300
341.9289, 751.9041
342.4110, 752.1500
342.8931, 752.6398
343.3752, 752.7597
343.8574, 751.6474
344.3395, 749.4169
344.8216, 748.4515
345.3037, 749.4294
345.7858, 750.8295
346.2679, 749.7436
346.7501, 746.2883
347.2322, 742.6667
347.7143, 740.1910
348.1964, 738.4568
348.6785, 736.0027
349.1607, 732.6336
349.6428, 729.2042
350.1249, 726.8163
350.6070, 725.1719
351.0891, 723.2585
351.5713, 720.1276
352.0534, 716.7906
352.5355, 714.8782
353.0176, 714.3792
353.4997, 714.1674
353.9818, 713.5129
354.4640, 712.5521
354.9461, 711.4276
355.4282, 709.9030
355.9103, 708.6130
356.3924, 708.0091
356.8745, 708.0901
357.3567, 708.8419
357.8388, 710.9742
358.3209, 713.3741
358.8030, 715.1255
359.2851, 716.0183
359.7672, 716.3318
360.2494, 715.7863
360.7315, 714.7971
361.2136, 714.1396
361.6957, 714.1781
362.1778, 714.5473
362.6599, 715.2098
363.1421, 716.2280
363.6242, 716.9332
364.1063, 717.2910
364.5884, 717.1602
365.0705, 716.3933
365.5526, 713.5332
366.0348, 711.5177
366.5169, 712.0876
366.9990, 714.9602
367.4811, 715.3380
367.9632, 710.4144
368.4453, 704.4736
368.9275, 699.9981
369.4096, 699.1003
369.8917, 696.8168
370.3738, 692.4355
370.8559, 686.6194
371.3380, 681.2784
371.8202, 676.4404
372.3023, 671.9722
372.7844, 667.9139
373.2665, 664.3997
373.7487, 660.7742
374.2308, 656.7980
374.7129, 652.9579
375.1950, 650.1243
375.6771, 648.9082
376.1592, 646.6801
376.6414, 642.3467
377.1235, 636.2107
377.6056, 631.2278
378.0877, 627.5693
378.5698, 624.3757
379.0519, 620.5452
379.5341, 616.0989
380.0162, 612.9445
380.4983, 611.6138
380.9804, 611.5354
381.4625, 611.6483
381.9446, 611.9484
382.4268, 612.2350
382.9089, 612.3777
383.3910, 612.4063
383.8731, 612.2070
384.3552, 611.6145
384.8373, 611.5604
385.3195, 613.3026
385.8016, 616.4933
386.2837, 620.1647
386.7658, 624.2672
387.2479, 628.3820
387.7300, 631.7011
388.2122, 634.2678
388.6943, 637.4005
389.1764, 642.4645
389.6585, 648.5140
390.1406, 654.1371
390.6227, 658.0107
391.1049, 662.6937
391.5870, 670.9211
392.0691, 681.4892
392.5512, 690.7733
393.0333, 695.6506
393.5154, 699.7289
393.9976, 705.5466
394.4797, 714.1338
394.9618, 722.0843
395.4439, 727.6960
395.9260, 732.2224
396.4081, 737.3086
396.8903, 744.3155
397.3724, 750.9912
397.8545, 756.5506
398.3366, 760.9242
398.8188, 765.6864
399.3009, 771.8615
399.7830, 777.8448
400.2651, 782.6296
400.7472, 786.0221
401.2293, 788.4821
401.7115, 789.8487
402.1936, 790.3250
402.6757, 790.5213
403.1578, 790.4700
403.6399, 790.0801
404.1220, 789.4466
404.6042, 788.7238
405.0863, 786.7616
405.5684, 783.3742
406.0505, 779.0827
406.5326, 774.4835
407.0147, 769.5380
407.4969, 764.4169
407.9790, 758.9349
408.4611, 753.3331
408.9432, 748.7991
409.4253, 745.4643
409.9074, 742.1022
410.3896, 737.9338
410.8717, 732.9520
411.3538, 726.9612
411.8359, 719.8051
412.3180, 712.1252
412.8001, 704.8701
413.2823, 697.9933
413.7644, 690.7676
414.2465, 682.6284
414.7286, 674.0432
415.2107, 665.5117
415.6928, 657.1364
416.1750, 648.5449
416.6571, 639.3655
417.1392, 629.8974
417.6213, 620.1663
418.1034, 609.1447
418.5855, 599.1172
419.0677, 592.6297
419.5498, 588.6168
420.0319, 583.3418
420.5140, 573.5347
420.9961, 563.1652
421.4782, 554.7570
421.9604, 549.4569
422.4425, 544.0156
422.9246, 537.5258
423.4067, 530.6246
423.8889, 524.0950
424.3710, 518.0854
424.8531, 512.4448
425.3352, 507.2257
425.8173, 502.4230
426.2994, 498.0472
426.7816, 494.7191
427.2637, 491.2245
427.7458, 486.5103
428.2279, 479.1416
428.7100, 474.0858
429.1921, 472.5215
429.6743, 472.9144
430.1564, 471.6720
430.6385, 468.4210
431.1206, 464.9665
431.6027, 461.8523
432.0848, 459.0738
432.5670, 457.2408
433.0491, 456.4538
433.5312, 456.1920
434.0133, 455.8690
434.4954, 455.5451
434.9775, 455.7794
435.4597, 457.2129
435.9418, 458.6451
436.4239, 457.3844
436.9060, 453.8405
437.3881, 450.5616
437.8702, 449.3620
438.3524, 449.3527
438.8345, 449.2620
439.3166, 448.9157
439.7987, 448.7357
440.2808, 449.3548
440.7629, 450.3009
441.2451, 450.8342
441.7272, 449.5451
442.2093, 448.7578
442.6914, 450.3050
443.1735, 453.7891
443.6556, 456.5147
444.1378, 456.9961
444.6199, 456.7588
445.1020, 456.8051
445.5841, 457.7903
446.0662, 458.0854
446.5483, 457.0218
447.0305, 455.2411
447.5126, 453.7605
447.9947, 451.7110
448.4768, 451.0894
448.9590, 452.9293
449.4411, 457.2984
449.9232, 460.2074
450.4053, 461.1693
450.8874, 461.4007
451.3695, 461.8593
451.8517, 462.7738
452.3338, 462.6424
452.8159, 460.6731
453.2980, 458.3441
453.7801, 459.1255
454.2622, 463.2209
454.7444, 467.2849
455.2265, 469.8513
455.7086, 471.1500
456.1907, 471.8579
456.6728, 471.9439
457.1549, 471.9814
457.6371, 472.4515
458.1192, 473.2887
458.6013, 474.4017
459.0834, 475.9080
459.5655, 477.4052
460.0476, 478.4929
460.5298, 479.2149
461.0119, 479.6516
461.4940, 479.6773
461.9761, 479.5659
462.4582, 479.6357
462.9403, 479.9502
463.4225, 479.8973
463.9046, 478.6308
464.3867, 477.1240
464.8688, 476.3281
465.3509, 477.3696
465.8330, 478.1102
466.3152, 477.8724
466.7973, 476.9488
467.2794, 476.3947
467.7615, 476.3674
468.2436, 476.6375
468.7257, 477.4183
469.2079, 479.1681
469.6900, 479.1405
470.1721, 476.3128
470.6542, 472.8183
471.1363, 471.1283
471.6184, 471.9062
472.1006, 471.8155
472.5827, 470.1112
473.0648, 467.2628
473.5469, 464.5292
474.0291, 461.8886
474.5112, 459.6364
474.9933, 458.5621
475.4754, 458.1518
475.9575, 456.1958
476.4396, 452.5901
476.9218, 447.6357
477.4039, 440.8257
477.8860, 432.9523
478.3681, 425.9382
478.8502, 420.5836
479.3323, 416.0947
479.8145, 411.8701
480.2966, 407.8558
480.7787, 404.0518
481.2608, 401.1173
481.7429, 397.8329
482.2250, 392.8596
482.7072, 385.5601
483.1893, 379.4850
483.6714, 376.6797
484.1535, 375.3414
484.6356, 373.6407
485.1177, 371.0996
485.5999, 368.3801
486.0820, 365.4606
486.5641, 362.4346
487.0462, 359.5334
487.5283, 356.7025
488.0104, 354.0715
488.4926, 351.5875
488.9747, 349.1907
489.4568, 347.4173
489.9389, 346.1904
490.4210, 345.7529
490.9031, 347.2345
491.3853, 350.9085
491.8674, 351.6702
492.3495, 347.3880
492.8316, 340.9059
493.3137, 338.9223
493.7958, 341.0527
494.2780, 343.1488
494.7601, 342.6573
495.2422, 340.4995
495.7243, 337.9743
496.2064, 335.0634
496.6885, 333.0884
497.1707, 333.6835
497.6528, 335.6397
498.1349, 337.4024
498.6170, 339.1665
499.0992, 339.7217
499.5813, 337.1026
500.0634, 332.7248
500.5455, 330.0366
501.0276, 332.1694
501.5097, 334.4219
501.9919, 334.4084
502.4740, 331.4148
502.9561, 330.2097
503.4382, 333.0384
503.9203, 336.4128
504.4024, 337.9688
504.8846, 336.9931
505.3667, 335.5651
505.8488, 333.4329
506.3309, 331.1508
506.8130, 330.0468
507.2951, 330.3648
507.7773, 330.7740
508.2594, 330.7265
508.7415, 330.3488
509.2236, 330.5012
509.7057, 331.2376
510.1878, 331.8298
510.6700, 331.2753
511.1521, 330.0783
511.6342, 329.9179
512.1163, 331.3130
512.5984, 332.8445
513.0806, 332.9223
513.5627, 332.0265
514.0448, 331.1602
514.5269, 331.2480
515.0090, 331.1117
515.4911, 329.4569
515.9733, 326.5854
516.4554, 324.5977
516.9375, 325.6205
517.4196, 326.7860
517.9017, 326.0486
518.3839, 321.5487
518.8660, 319.1457
519.3481, 320.9799
519.8302, 324.5314
520.3123, 327.2672
520.7944, 329.6298
521.2766, 330.3047
521.7587, 328.3372
522.2408, 324.6437
522.7229, 322.9069
523.2050, 323.5873
523.6871, 324.5391
524.1693, 324.5695
524.6514, 323.7816
525.1335, 323.5601
525.6156, 323.9815
526.0977, 324.4806
526.5798, 324.5698
527.0620, 324.2799
527.5441, 323.6943
528.0262, 322.8065
528.5083, 321.6799
528.9904, 319.9816
529.4725, 318.0751
529.9547, 316.8709
530.4368, 317.1128
530.9189, 317.9726
531.4010, 319.1057
531.8831, 320.4856
532.3652, 321.6535
532.8474, 322.5244
533.3295, 323.1111
533.8116, 323.4432
534.2937, 323.6299
534.7758, 323.3202
535.2579, 321.6790
535.7401, 319.9556
536.2222, 320.2061
536.7043, 323.6866
537.1864, 326.2132
537.6685, 326.7639
538.1506, 325.7077
538.6328, 324.3570
539.1149, 322.5102
539.5970, 321.5839
540.0791, 323.0009
540.5612, 326.2103
541.0433, 328.5728
541.5255, 329.9598
542.0076, 330.8112
542.4897, 331.0970
542.9718, 331.2238
543.4539, 332.1263
543.9360, 334.5503
544.4182, 336.9212
544.9003, 337.7006
545.3824, 337.4693
545.8645, 337.5223
546.3466, 338.3845
546.8287, 339.6401
547.3109, 341.0228
547.7930, 342.5041
548.2751, 344.5948
548.7572, 348.5694
549.2393, 352.2329
549.7214, 354.2450
550.2036, 353.2110
550.6857, 353.7451
551.1678, 356.3394
551.6499, 360.0184
552.1320, 363.3802
552.6141, 366.3394
553.0963, 369.7196
553.5784, 373.9225
554.0605, 378.4936
554.5426, 382.2617
555.0247, 385.2489
555.5068, 387.8364
555.9890, 389.4801
556.4711, 391.0947
556.9532, 394.4068
557.4353, 399.4770
557.9174, 405.3324
558.3995, 411.7064
558.8817, 418.1990
559.3638, 424.3454
559.8459, 429.8256
560.3281, 435.2606
560.8102, 440.8507
561.2923, 446.5150
561.7744, 452.0901
562.2565, 456.4641
562.7386, 461.9677
563.2208, 469.3868
563.7029, 478.4352
564.1850, 487.6959
564.6671, 497.1740
565.1492, 506.6766
565.6313, 515.7496
566.1135, 524.1275
566.5956, 534.8400
567.0777, 548.1335
567.5598, 562.6595
568.0419, 577.5322
568.5240, 592.5506
569.0062, 607.2206
569.4883, 620.8956
569.9704, 635.1649
570.4525, 652.1887
570.9346, 671.4149
571.4167, 690.5788
571.8989, 707.9819
572.3810, 725.9261
572.8631, 746.6109
573.3452, 769.5713
573.8273, 792.8303
574.3094, 816.2848
574.7916, 839.1137
575.2737, 860.4477
575.7558, 878.9424
576.2379, 899.9252
576.7200, 925.1940
577.2021, 951.3080
577.6843, 975.3754
578.1664, 996.3542
578.6485, 1017.912
579.1306, 1040.870
579.6127, 1064.394
580.0948, 1087.751
