##NAMES=Yoshimuraite
##RRUFFID=R050266
##IDEAL CHEMISTRY=Ba_4_Mn^2+^_4_Ti^4+^_2_(Si_2_O_7_)_2_(PO_4_)_2_O_2_(OH)_2_
##LOCALITY=Taguchi mine, Shidara, Kitashidara-Gun, Aichi Prefecture, Japan
##OWNER=RRUFF
##SOURCE=Marcus Origlieri
##DESCRIPTION=Brown tabular crystals associated with katophorite, R050633.
##STATUS=The identification of this mineral is confirmed by single-crystal X-ray diffraction and chemical analysis.
##URL=rruff.info/R050266
##MEASURED CHEMISTRY=(Ba_1.82_Sr_0.18_)_Σ=2_(Ti_0.78_Fe^3+^_0.22_)_Σ=1_(Mn^2+^_1.62_Fe^2+^_0.38_)_Σ=2_O(Si_2.00_O_7_)((P_0.59_S_0.41_)_Σ=1_O_4_)((OH)_0.81_O_0.19_)_Σ=1_; OH estimated by charge balance
92.02539, 6861.346
92.50751, 6807.413
92.98962, 6831.601
93.47174, 6882.490
93.95386, 6959.545
94.43597, 7011.541
94.91809, 7028.042
95.40021, 7020.637
95.88232, 6999.263
96.36444, 6962.133
96.84656, 6914.025
97.32867, 6858.830
97.81078, 6799.892
98.29290, 6740.511
98.77502, 6678.294
99.25713, 6601.920
99.73925, 6532.943
100.2214, 6473.450
100.7035, 6419.247
101.1856, 6368.095
101.6677, 6319.089
102.1498, 6272.647
102.6320, 6229.018
103.1141, 6185.717
103.5962, 6152.133
104.0783, 6133.706
104.5604, 6121.675
105.0425, 6106.143
105.5247, 6083.386
106.0068, 6057.934
106.4889, 6036.260
106.9710, 6017.916
107.4531, 6000.740
107.9352, 5983.909
108.4173, 5967.260
108.8995, 5950.154
109.3816, 5930.575
109.8637, 5911.533
110.3458, 5896.856
110.8279, 5887.695
111.3100, 5879.478
111.7922, 5865.811
112.2743, 5844.337
112.7564, 5825.125
113.2385, 5812.478
113.7206, 5802.494
114.2027, 5791.729
114.6849, 5778.532
115.1670, 5763.970
115.6491, 5752.194
116.1312, 5746.257
116.6133, 5739.540
117.0954, 5731.319
117.5776, 5721.495
118.0597, 5709.747
118.5418, 5695.532
119.0239, 5678.718
119.5060, 5664.751
119.9881, 5653.667
120.4703, 5644.541
120.9524, 5637.921
121.4345, 5633.292
121.9166, 5628.908
122.3987, 5623.382
122.8808, 5616.461
123.3630, 5608.142
123.8451, 5596.369
124.3272, 5584.170
124.8093, 5574.768
125.2914, 5568.804
125.7735, 5564.448
126.2557, 5560.298
126.7378, 5556.285
127.2199, 5551.778
127.7020, 5546.285
128.1841, 5540.088
128.6662, 5534.314
129.1483, 5529.839
129.6305, 5524.869
130.1126, 5517.113
130.5947, 5506.972
131.0768, 5498.031
131.5589, 5493.963
132.0410, 5495.425
132.5232, 5496.546
133.0053, 5498.132
133.4874, 5498.127
133.9695, 5494.556
134.4516, 5487.310
134.9337, 5478.708
135.4159, 5472.356
135.8980, 5469.907
136.3801, 5466.625
136.8622, 5460.159
137.3443, 5453.933
137.8264, 5451.250
138.3086, 5453.287
138.7907, 5458.339
139.2728, 5461.721
139.7549, 5465.155
140.2370, 5464.706
140.7191, 5456.981
141.2013, 5445.671
141.6834, 5436.234
142.1655, 5431.675
142.6476, 5430.962
143.1297, 5429.493
143.6118, 5426.824
144.0939, 5424.103
144.5761, 5421.722
145.0582, 5419.683
145.5403, 5417.998
146.0224, 5417.064
146.5045, 5416.358
146.9866, 5414.370
147.4688, 5409.046
147.9509, 5404.084
148.4330, 5404.264
148.9151, 5410.603
149.3972, 5415.642
149.8793, 5412.867
150.3615, 5406.376
150.8436, 5400.857
151.3257, 5397.953
151.8078, 5397.043
152.2899, 5397.006
152.7720, 5398.519
153.2542, 5399.646
153.7363, 5398.969
154.2184, 5397.520
154.7005, 5397.005
155.1826, 5398.896
155.6647, 5402.806
156.1469, 5404.771
156.6290, 5404.016
157.1111, 5401.717
157.5932, 5395.795
158.0753, 5388.373
158.5574, 5383.954
159.0396, 5387.178
159.5217, 5399.598
160.0038, 5405.039
160.4859, 5398.778
160.9680, 5390.879
161.4501, 5384.429
161.9323, 5380.069
162.4144, 5377.726
162.8965, 5377.691
163.3786, 5381.014
163.8607, 5381.739
164.3428, 5378.006
164.8250, 5373.235
165.3071, 5369.858
165.7892, 5368.264
166.2713, 5367.351
166.7534, 5365.705
167.2355, 5363.122
167.7177, 5361.646
168.1998, 5362.840
168.6819, 5364.805
169.1640, 5365.031
169.6461, 5362.872
170.1282, 5359.484
170.6104, 5355.687
171.0925, 5351.530
171.5746, 5348.292
172.0567, 5346.862
172.5388, 5346.784
173.0209, 5346.846
173.5031, 5347.200
173.9852, 5347.067
174.4673, 5345.547
174.9494, 5342.789
175.4315, 5340.202
175.9136, 5338.828
176.3958, 5338.628
176.8779, 5338.757
177.3600, 5340.692
177.8421, 5341.454
178.3242, 5338.450
178.8063, 5331.959
179.2885, 5325.235
179.7706, 5321.454
180.2527, 5320.925
180.7348, 5322.158
181.2169, 5329.175
181.6990, 5334.880
182.1812, 5334.007
182.6633, 5326.413
183.1454, 5317.069
183.6275, 5313.347
184.1096, 5319.205
184.5917, 5322.423
185.0738, 5321.972
185.5560, 5320.033
186.0381, 5317.980
186.5202, 5316.211
187.0023, 5314.347
187.4844, 5311.683
187.9665, 5306.721
188.4487, 5303.422
188.9308, 5302.564
189.4129, 5302.907
189.8950, 5303.723
190.3771, 5304.739
190.8592, 5305.366
191.3414, 5304.264
191.8235, 5299.814
192.3056, 5296.714
192.7877, 5296.085
193.2698, 5296.915
193.7519, 5298.189
194.2341, 5299.736
194.7162, 5300.921
195.1983, 5300.140
195.6804, 5297.185
196.1625, 5293.864
196.6446, 5289.825
197.1268, 5285.788
197.6089, 5283.798
198.0910, 5285.432
198.5731, 5287.975
199.0552, 5286.973
199.5373, 5282.007
200.0195, 5276.591
200.5016, 5271.907
200.9837, 5268.103
201.4658, 5266.117
201.9479, 5267.062
202.4300, 5269.248
202.9122, 5270.828
203.3943, 5271.764
203.8764, 5272.190
204.3585, 5272.359
204.8406, 5272.275
205.3227, 5271.264
205.8048, 5268.293
206.2870, 5264.974
206.7691, 5262.148
207.2512, 5259.950
207.7333, 5258.761
208.2154, 5260.118
208.6975, 5265.028
209.1797, 5266.429
209.6618, 5257.814
210.1439, 5248.867
210.6260, 5245.734
211.1081, 5249.151
211.5902, 5254.482
212.0724, 5255.452
212.5545, 5250.180
213.0366, 5246.164
213.5187, 5243.728
214.0008, 5242.689
214.4829, 5243.327
214.9651, 5245.536
215.4472, 5248.550
215.9293, 5251.629
216.4114, 5256.392
216.8935, 5257.484
217.3756, 5252.164
217.8578, 5245.795
218.3399, 5241.975
218.8220, 5241.523
219.3041, 5242.884
219.7862, 5243.683
220.2683, 5243.173
220.7505, 5243.653
221.2326, 5246.924
221.7147, 5249.990
222.1968, 5250.027
222.6789, 5246.552
223.1610, 5241.781
223.6432, 5239.009
224.1253, 5239.548
224.6074, 5239.578
225.0895, 5238.225
225.5716, 5236.835
226.0537, 5236.646
226.5358, 5237.934
227.0180, 5240.182
227.5001, 5243.106
227.9822, 5247.720
228.4643, 5249.218
228.9464, 5244.059
229.4285, 5237.131
229.9107, 5234.226
230.3928, 5236.734
230.8749, 5240.759
231.3570, 5241.530
231.8391, 5238.979
232.3212, 5234.894
232.8034, 5227.566
233.2855, 5219.632
233.7676, 5214.534
234.2497, 5213.056
234.7318, 5213.511
235.2139, 5215.459
235.6961, 5218.624
236.1782, 5218.948
236.6603, 5212.331
237.1424, 5203.185
237.6245, 5198.735
238.1066, 5200.769
238.5888, 5204.369
239.0709, 5205.449
239.5530, 5204.476
240.0351, 5202.287
240.5172, 5198.955
240.9993, 5194.579
241.4815, 5188.815
241.9636, 5180.640
242.4457, 5173.608
242.9278, 5171.375
243.4099, 5172.133
243.8920, 5172.312
244.3742, 5169.884
244.8563, 5165.943
245.3384, 5163.237
245.8205, 5162.608
246.3026, 5161.314
246.7847, 5157.690
247.2668, 5152.521
247.7490, 5146.792
248.2311, 5140.116
248.7132, 5133.608
249.1953, 5130.634
249.6774, 5133.927
250.1595, 5135.155
250.6417, 5128.311
251.1238, 5118.283
251.6059, 5111.624
252.0880, 5112.076
252.5701, 5116.732
253.0522, 5118.420
253.5344, 5116.437
254.0165, 5112.596
254.4986, 5106.038
254.9807, 5098.807
255.4628, 5093.211
255.9449, 5090.403
256.4271, 5089.330
256.9092, 5087.325
257.3913, 5083.071
257.8734, 5080.560
258.3555, 5082.929
258.8376, 5085.995
259.3198, 5085.053
259.8019, 5078.211
260.2840, 5068.907
260.7661, 5064.557
261.2482, 5068.096
261.7303, 5071.211
262.2125, 5073.541
262.6946, 5074.735
263.1767, 5073.616
263.6588, 5070.015
264.1409, 5066.200
264.6230, 5066.813
265.1052, 5076.509
265.5873, 5081.285
266.0694, 5076.815
266.5515, 5070.462
267.0336, 5067.747
267.5157, 5069.833
267.9979, 5073.939
268.4800, 5075.837
268.9621, 5073.676
269.4442, 5073.379
269.9263, 5077.445
270.4084, 5081.225
270.8906, 5081.335
271.3727, 5077.572
271.8548, 5072.383
272.3369, 5068.710
272.8190, 5067.157
273.3011, 5065.354
273.7833, 5062.497
274.2654, 5060.144
274.7475, 5059.171
275.2296, 5059.610
275.7117, 5061.096
276.1938, 5063.431
276.6760, 5066.947
277.1581, 5069.290
277.6402, 5070.793
278.1223, 5071.163
278.6044, 5069.481
279.0865, 5066.350
279.5686, 5063.466
280.0508, 5062.142
280.5329, 5062.380
281.0150, 5063.553
281.4971, 5066.344
281.9792, 5069.114
282.4613, 5072.175
282.9435, 5074.757
283.4256, 5075.014
283.9077, 5071.461
284.3898, 5064.641
284.8719, 5059.819
285.3540, 5058.614
285.8362, 5057.170
286.3183, 5053.755
286.8004, 5049.460
287.2825, 5046.631
287.7646, 5046.674
288.2467, 5048.393
288.7289, 5047.491
289.2110, 5040.813
289.6931, 5035.662
290.1752, 5034.231
290.6573, 5034.753
291.1394, 5034.951
291.6216, 5033.983
292.1037, 5032.077
292.5858, 5029.580
293.0679, 5026.522
293.5500, 5022.909
294.0321, 5018.229
294.5143, 5013.239
294.9964, 5008.463
295.4785, 5004.038
295.9606, 5000.613
296.4427, 4999.214
296.9248, 5000.547
297.4070, 5002.072
297.8891, 5004.322
298.3712, 5006.358
298.8533, 5007.345
299.3354, 5007.155
299.8175, 5006.101
300.2997, 5004.189
300.7818, 5001.142
301.2639, 4999.774
301.7460, 5002.677
302.2281, 5005.193
302.7102, 5003.323
303.1924, 4997.423
303.6745, 4991.521
304.1566, 4988.666
304.6387, 4988.791
305.1208, 4988.606
305.6029, 4988.251
306.0851, 4987.465
306.5672, 4985.349
307.0493, 4982.517
307.5314, 4981.016
308.0135, 4982.235
308.4956, 4985.485
308.9778, 4987.714
309.4599, 4988.619
309.9420, 4989.106
310.4241, 4989.414
310.9062, 4989.508
311.3883, 4989.283
311.8705, 4988.673
312.3526, 4987.815
312.8347, 4987.185
313.3168, 4987.633
313.7989, 4986.407
314.2810, 4980.384
314.7632, 4973.286
315.2453, 4970.666
315.7274, 4974.197
316.2095, 4980.021
316.6916, 4983.188
317.1737, 4983.410
317.6559, 4981.966
318.1380, 4976.529
318.6201, 4970.906
319.1022, 4969.045
319.5843, 4971.320
320.0664, 4974.861
320.5485, 4977.279
321.0306, 4978.426
321.5128, 4978.693
321.9949, 4976.162
322.4770, 4974.373
322.9591, 4976.569
323.4412, 4982.001
323.9233, 4986.850
324.4055, 4988.647
324.8876, 4987.597
325.3697, 4985.638
325.8518, 4982.216
326.3339, 4978.630
326.8160, 4974.919
327.2982, 4971.405
327.7803, 4968.836
328.2624, 4967.675
328.7445, 4967.411
329.2266, 4966.660
329.7087, 4965.079
330.1909, 4963.723
330.6730, 4963.033
331.1551, 4962.602
331.6372, 4961.708
332.1193, 4960.131
332.6014, 4958.640
333.0836, 4958.329
333.5657, 4959.516
334.0478, 4961.202
334.5299, 4964.830
335.0120, 4967.977
335.4941, 4967.729
335.9763, 4964.147
336.4584, 4960.823
336.9405, 4961.433
337.4226, 4966.466
337.9047, 4969.105
338.3868, 4968.123
338.8690, 4966.224
339.3511, 4963.766
339.8332, 4961.410
340.3153, 4961.184
340.7974, 4964.909
341.2795, 4971.437
341.7617, 4973.067
342.2438, 4966.130
342.7259, 4959.466
343.2080, 4955.216
343.6901, 4952.436
344.1722, 4949.748
344.6544, 4946.612
345.1365, 4943.214
345.6186, 4939.917
346.1007, 4936.138
346.5828, 4933.507
347.0649, 4932.844
347.5471, 4932.901
348.0292, 4932.906
348.5113, 4932.579
348.9934, 4931.549
349.4755, 4929.285
349.9576, 4925.353
350.4398, 4921.833
350.9219, 4918.403
351.4040, 4915.546
351.8861, 4914.200
352.3682, 4913.784
352.8503, 4912.482
353.3325, 4908.704
353.8146, 4902.712
354.2967, 4898.813
354.7788, 4896.994
355.2609, 4897.207
355.7430, 4900.957
356.2252, 4906.344
356.7073, 4911.547
357.1894, 4915.745
357.6715, 4917.786
358.1536, 4914.333
358.6357, 4897.900
359.1179, 4887.536
359.5999, 4887.467
360.0821, 4890.990
360.5642, 4893.296
361.0463, 4893.170
361.5284, 4891.719
362.0105, 4890.545
362.4926, 4890.476
362.9748, 4887.411
363.4569, 4877.344
363.9390, 4868.259
364.4211, 4864.876
364.9032, 4865.612
365.3853, 4865.538
365.8675, 4860.551
366.3496, 4851.393
366.8317, 4845.262
367.3138, 4844.151
367.7959, 4843.768
368.2780, 4844.413
368.7602, 4844.764
369.2423, 4842.912
369.7244, 4837.955
370.2065, 4831.572
370.6886, 4827.456
371.1707, 4827.390
371.6529, 4824.985
372.1350, 4817.556
372.6171, 4808.931
373.0992, 4800.923
373.5813, 4794.086
374.0634, 4788.665
374.5456, 4786.139
375.0277, 4786.808
375.5098, 4783.645
375.9919, 4771.398
376.4740, 4760.931
376.9561, 4759.201
377.4383, 4763.040
377.9204, 4764.913
378.4025, 4759.641
378.8846, 4749.939
379.3667, 4743.369
379.8488, 4740.693
380.3310, 4739.225
380.8131, 4738.238
381.2952, 4737.706
381.7773, 4738.170
382.2594, 4740.195
382.7415, 4741.211
383.2237, 4737.057
383.7058, 4727.771
384.1879, 4721.365
384.6700, 4721.474
385.1521, 4723.428
385.6342, 4722.598
386.1164, 4719.185
386.5985, 4716.452
387.0806, 4717.236
387.5627, 4719.918
388.0448, 4720.380
388.5269, 4717.804
389.0091, 4714.691
389.4912, 4712.456
389.9733, 4711.070
390.4554, 4710.658
390.9375, 4711.598
391.4196, 4713.213
391.9018, 4715.123
392.3839, 4717.290
392.8660, 4719.314
393.3481, 4721.209
393.8302, 4722.659
394.3123, 4723.127
394.7945, 4722.562
395.2766, 4721.362
395.7587, 4718.768
396.2408, 4715.856
396.7229, 4714.694
397.2050, 4715.828
397.6872, 4717.802
398.1693, 4719.394
398.6514, 4720.596
399.1335, 4720.114
399.6156, 4716.147
400.0977, 4711.848
400.5798, 4709.838
401.0620, 4709.695
401.5441, 4708.950
402.0262, 4705.864
402.5083, 4701.121
402.9904, 4698.313
403.4725, 4700.914
403.9547, 4700.877
404.4368, 4694.209
404.9189, 4685.016
405.4010, 4678.926
405.8831, 4677.604
406.3652, 4677.889
406.8474, 4675.057
407.3295, 4667.604
407.8116, 4661.351
408.2937, 4657.872
408.7758, 4654.093
409.2579, 4647.695
409.7401, 4639.304
410.2222, 4631.266
410.7043, 4625.257
411.1864, 4621.093
411.6685, 4616.899
412.1506, 4613.209
412.6328, 4608.808
413.1149, 4603.799
413.5970, 4597.899
414.0791, 4589.980
414.5612, 4579.828
415.0433, 4569.960
415.5255, 4565.069
416.0076, 4567.385
416.4897, 4566.892
416.9718, 4560.956
417.4539, 4553.773
417.9360, 4546.820
418.4182, 4540.232
418.9003, 4533.831
419.3824, 4527.164
419.8645, 4520.565
420.3466, 4515.825
420.8287, 4514.400
421.3109, 4511.761
421.7930, 4505.159
422.2751, 4496.836
422.7572, 4488.985
423.2393, 4482.032
423.7214, 4476.458
424.2036, 4473.816
424.6857, 4473.938
425.1678, 4471.999
425.6499, 4466.009
426.1320, 4458.791
426.6141, 4452.453
427.0963, 4447.064
427.5784, 4443.172
428.0605, 4442.325
428.5426, 4442.612
429.0247, 4440.750
429.5068, 4436.435
429.9890, 4432.447
430.4711, 4431.050
430.9532, 4431.194
431.4353, 4429.320
431.9174, 4423.475
432.3995, 4418.489
432.8817, 4417.507
433.3638, 4419.047
433.8459, 4419.874
434.3280, 4418.893
434.8101, 4417.483
435.2922, 4417.789
435.7744, 4420.550
436.2565, 4421.702
436.7386, 4421.169
437.2207, 4418.890
437.7028, 4413.331
438.1849, 4405.577
438.6671, 4399.649
439.1492, 4398.584
439.6313, 4401.240
440.1134, 4400.920
440.5955, 4393.517
441.0776, 4388.234
441.5598, 4387.697
442.0418, 4388.979
442.5240, 4389.099
443.0061, 4387.310
443.4882, 4384.939
443.9703, 4384.063
444.4524, 4385.667
444.9345, 4384.216
445.4167, 4374.921
445.8988, 4367.313
446.3809, 4366.393
446.8630, 4369.561
447.3451, 4371.522
447.8272, 4369.217
448.3094, 4363.981
448.7915, 4358.880
449.2736, 4353.511
449.7557, 4349.363
450.2378, 4347.420
450.7199, 4346.356
451.2021, 4345.323
451.6842, 4344.206
452.1663, 4343.315
452.6484, 4343.620
453.1305, 4344.529
453.6126, 4343.032
454.0948, 4338.011
454.5769, 4332.896
455.0590, 4330.349
455.5411, 4329.308
456.0232, 4328.043
456.5053, 4326.346
456.9875, 4324.144
457.4696, 4321.310
457.9517, 4317.906
458.4338, 4313.806
458.9159, 4308.409
459.3980, 4303.398
459.8802, 4301.729
460.3623, 4303.518
460.8444, 4305.603
461.3265, 4309.027
461.8086, 4311.383
462.2907, 4309.939
462.7729, 4304.959
463.2550, 4299.050
463.7371, 4293.816
464.2192, 4289.178
464.7013, 4284.556
465.1834, 4278.629
465.6656, 4274.376
466.1477, 4273.537
466.6298, 4273.901
467.1119, 4272.990
467.5940, 4270.286
468.0761, 4267.120
468.5583, 4265.107
469.0404, 4264.448
469.5225, 4263.614
470.0046, 4263.579
470.4867, 4262.333
470.9688, 4257.643
471.4510, 4251.653
471.9331, 4248.217
472.4152, 4249.383
472.8973, 4252.408
473.3794, 4251.686
473.8615, 4246.057
474.3437, 4241.619
474.8258, 4242.460
475.3079, 4242.299
475.7900, 4235.708
476.2721, 4223.775
476.7542, 4213.147
477.2364, 4210.074
477.7185, 4210.775
478.2006, 4205.935
478.6827, 4194.666
479.1648, 4183.146
479.6469, 4173.970
480.1291, 4166.892
480.6112, 4161.581
481.0933, 4158.885
481.5754, 4155.641
482.0575, 4149.189
482.5396, 4141.362
483.0217, 4135.700
483.5038, 4132.957
483.9860, 4131.285
484.4681, 4129.009
484.9502, 4126.098
485.4323, 4123.369
485.9144, 4121.274
486.3965, 4118.850
486.8787, 4115.498
487.3608, 4111.526
487.8429, 4107.225
488.3250, 4102.694
488.8071, 4098.694
489.2892, 4096.907
489.7714, 4099.434
490.2535, 4098.845
490.7356, 4091.464
491.2177, 4084.907
491.6998, 4085.091
492.1819, 4089.391
492.6641, 4090.489
493.1462, 4083.138
493.6283, 4070.876
494.1104, 4064.515
494.5925, 4066.521
495.0746, 4067.766
495.5568, 4065.834
496.0389, 4062.597
496.5210, 4059.165
497.0031, 4055.667
497.4852, 4051.779
497.9673, 4046.720
498.4495, 4041.160
498.9316, 4037.113
499.4137, 4034.849
499.8958, 4033.148
500.3779, 4031.672
500.8600, 4030.149
501.3422, 4028.065
501.8243, 4025.322
502.3064, 4022.168
502.7885, 4017.341
503.2706, 4012.524
503.7527, 4011.647
504.2349, 4015.635
504.7170, 4019.794
505.1991, 4019.458
505.6812, 4014.333
506.1633, 4009.365
506.6454, 4003.916
507.1276, 3999.325
507.6097, 3996.911
508.0918, 3995.440
508.5739, 3992.746
509.0560, 3988.083
509.5381, 3983.045
510.0203, 3980.467
510.5024, 3981.612
510.9845, 3980.893
511.4666, 3976.520
511.9487, 3972.053
512.4308, 3968.693
512.9130, 3966.267
513.3951, 3964.081
513.8772, 3961.626
514.3593, 3959.701
514.8414, 3960.552
515.3235, 3964.842
515.8057, 3966.691
516.2878, 3963.153
516.7699, 3958.264
517.2520, 3955.529
517.7341, 3954.687
518.2162, 3953.664
518.6984, 3951.118
519.1805, 3948.155
519.6626, 3946.565
520.1447, 3946.215
520.6268, 3945.113
521.1089, 3942.316
521.5911, 3938.190
522.0732, 3933.207
522.5553, 3926.363
523.0374, 3921.583
523.5195, 3921.485
524.0016, 3922.379
524.4838, 3920.980
524.9659, 3917.281
525.4480, 3912.959
525.9301, 3909.060
526.4122, 3905.799
526.8943, 3904.319
527.3765, 3906.714
527.8586, 3907.948
528.3407, 3908.300
528.8228, 3906.931
529.3049, 3902.238
529.7870, 3894.662
530.2692, 3887.088
530.7513, 3881.794
531.2334, 3878.659
531.7155, 3877.350
532.1976, 3879.120
532.6797, 3879.819
533.1619, 3876.586
533.6440, 3871.947
534.1261, 3868.542
534.6082, 3866.945
535.0903, 3865.070
535.5724, 3860.330
536.0546, 3854.573
536.5367, 3852.418
537.0188, 3854.687
537.5009, 3856.833
537.9830, 3855.247
538.4651, 3850.686
538.9473, 3847.676
539.4294, 3847.469
539.9115, 3847.038
540.3936, 3844.836
540.8757, 3842.259
541.3578, 3841.776
541.8400, 3843.504
542.3221, 3844.277
542.8042, 3840.410
543.2863, 3831.780
543.7684, 3826.292
544.2505, 3827.098
544.7326, 3827.457
545.2147, 3826.388
545.6968, 3824.129
546.1790, 3820.509
546.6611, 3815.647
547.1432, 3811.087
547.6253, 3808.204
548.1074, 3807.021
548.5895, 3808.589
549.0717, 3815.050
549.5538, 3819.736
550.0359, 3816.030
550.5180, 3808.644
551.0001, 3804.775
551.4822, 3806.771
551.9644, 3809.446
552.4465, 3809.134
552.9286, 3807.253
553.4107, 3806.715
553.8928, 3808.084
554.3749, 3810.619
554.8571, 3814.425
555.3392, 3819.321
555.8213, 3819.293
556.3034, 3808.488
556.7855, 3800.623
557.2676, 3801.927
557.7498, 3806.752
558.2319, 3808.179
558.7140, 3804.723
559.1961, 3799.882
559.6782, 3797.535
560.1603, 3797.737
560.6425, 3796.984
561.1246, 3793.770
561.6067, 3791.901
562.0888, 3793.003
562.5709, 3795.673
563.0530, 3798.682
563.5352, 3801.780
564.0173, 3804.149
564.4994, 3804.587
564.9815, 3803.723
565.4636, 3803.615
565.9457, 3804.527
566.4279, 3805.833
566.9100, 3806.865
567.3921, 3808.060
567.8742, 3810.820
568.3563, 3816.375
568.8384, 3821.419
569.3206, 3823.899
569.8027, 3825.717
570.2848, 3830.013
570.7669, 3836.769
571.2490, 3842.411
571.7311, 3843.481
572.2133, 3840.535
572.6954, 3839.669
573.1775, 3841.440
573.6596, 3844.710
574.1417, 3849.323
574.6238, 3855.310
575.1060, 3864.009
575.5881, 3874.829
576.0702, 3883.817
576.5523, 3886.161
577.0344, 3884.189
577.5165, 3887.555
577.9987, 3898.006
578.4808, 3906.012
578.9629, 3905.481
579.4450, 3901.604
579.9271, 3901.472
580.4092, 3905.448
580.8914, 3911.358
581.3735, 3921.359
581.8556, 3931.015
582.3377, 3934.528
