##NAMES=Yttrotungstite-(Y)
##RRUFFID=R050569
##IDEAL CHEMISTRY=Y^3+^W^6+^_2_O_6_(OH)_3_
##LOCALITY=Perak, Malaysia
##OWNER=RRUFF
##SOURCE=University of Arizona Mineral Museum
##DESCRIPTION=Colorless flattened lathlike crystals
##STATUS=The identification of this mineral has been confirmed by X-ray diffraction and chemical analysis
##URL=rruff.info/R050569
##MEASURED CHEMISTRY=(Y_0.70_Nd_0.10_Ce_0.07_Dy_0.07_La_0.04_Ca_0.02_)_Σ=1_W_2.00_(O_6.00_(OH)_2.98_(H_2_O)_0.02_)_Σ=9_ ; O, OH and H_2_O estimated by difference and charge balance.
173.8053, 37141.48
174.2874, 37213.60
174.7695, 37391.28
175.2516, 37599.83
175.7338, 37746.93
176.2159, 37831.15
176.6980, 37891.01
177.1801, 37950.61
177.6622, 38011.81
178.1443, 38078.19
178.6264, 38163.41
179.1086, 38253.04
179.5907, 38310.63
180.0728, 38329.55
180.5549, 38351.88
181.0370, 38435.32
181.5191, 38567.79
182.0013, 38697.88
182.4834, 38794.52
182.9655, 38867.62
183.4476, 38945.63
183.9297, 39029.36
184.4118, 39121.15
184.8940, 39233.52
185.3761, 39365.07
185.8582, 39483.93
186.3403, 39556.22
186.8224, 39594.18
187.3046, 39661.13
187.7867, 39775.42
188.2688, 39912.68
188.7509, 40023.46
189.2330, 40107.08
189.7151, 40179.72
190.1973, 40250.73
190.6794, 40320.39
191.1615, 40395.66
191.6436, 40482.19
192.1257, 40574.75
192.6078, 40654.15
193.0900, 40720.46
193.5721, 40780.11
194.0542, 40834.52
194.5363, 40883.30
195.0184, 40943.67
195.5005, 41018.95
195.9826, 41109.27
196.4648, 41225.23
196.9469, 41375.90
197.4290, 41521.45
197.9111, 41605.02
198.3932, 41618.26
198.8753, 41638.03
199.3575, 41692.34
199.8396, 41780.89
200.3217, 41869.82
200.8038, 41957.65
201.2859, 42046.79
201.7680, 42144.55
202.2502, 42256.51
202.7323, 42355.66
203.2144, 42422.46
203.6965, 42449.50
204.1786, 42502.80
204.6607, 42588.66
205.1429, 42694.58
205.6250, 42801.16
206.1071, 42915.15
206.5892, 43005.05
207.0713, 43048.59
207.5534, 43036.09
208.0356, 43022.40
208.5177, 43002.44
208.9998, 42986.51
209.4819, 43008.60
209.9640, 43080.02
210.4461, 43164.17
210.9282, 43243.04
211.4104, 43322.50
211.8925, 43374.98
212.3746, 43387.83
212.8567, 43370.98
213.3388, 43377.89
213.8209, 43419.79
214.3031, 43465.39
214.7852, 43491.07
215.2673, 43490.30
215.7494, 43486.43
216.2315, 43476.92
216.7136, 43464.08
217.1958, 43477.38
217.6779, 43526.21
218.1600, 43588.31
218.6421, 43646.21
219.1242, 43700.82
219.6063, 43749.56
220.0885, 43793.57
220.5706, 43832.70
221.0527, 43858.39
221.5348, 43862.91
222.0169, 43862.68
222.4990, 43872.48
222.9812, 43885.59
223.4633, 43923.83
223.9454, 44004.38
224.4275, 44138.13
224.9096, 44220.59
225.3917, 44227.37
225.8739, 44205.56
226.3560, 44218.76
226.8381, 44294.20
227.3202, 44354.61
227.8023, 44369.16
228.2844, 44318.43
228.7665, 44320.92
229.2487, 44416.88
229.7308, 44539.55
230.2129, 44577.82
230.6950, 44470.25
231.1771, 44378.52
231.6592, 44357.90
232.1414, 44432.56
232.6235, 44501.84
233.1056, 44569.86
233.5877, 44630.17
234.0698, 44663.69
234.5519, 44642.68
235.0341, 44637.48
235.5162, 44679.54
235.9983, 44797.78
236.4804, 44889.75
236.9625, 44946.43
237.4446, 44979.32
237.9268, 45016.57
238.4089, 45062.96
238.8910, 45107.52
239.3731, 45145.09
239.8552, 45171.09
240.3373, 45200.01
240.8195, 45233.96
241.3016, 45270.43
241.7837, 45301.22
242.2658, 45315.64
242.7479, 45339.32
243.2300, 45387.23
243.7122, 45476.21
244.1943, 45552.94
244.6764, 45610.49
245.1585, 45654.51
245.6406, 45706.75
246.1227, 45766.91
246.6048, 45835.71
247.0870, 45913.96
247.5691, 46003.93
248.0512, 46099.33
248.5333, 46204.89
249.0154, 46316.22
249.4975, 46415.23
249.9797, 46504.27
250.4618, 46578.89
250.9439, 46634.66
251.4260, 46663.39
251.9081, 46688.93
252.3902, 46699.04
252.8724, 46704.29
253.3545, 46775.86
253.8366, 46957.11
254.3187, 47141.75
254.8008, 47256.43
255.2829, 47274.67
255.7651, 47282.80
256.2472, 47279.57
256.7293, 47270.63
257.2114, 47298.16
257.6935, 47376.46
258.1756, 47469.88
258.6577, 47553.09
259.1399, 47626.93
259.6220, 47689.50
260.1041, 47737.10
260.5862, 47772.26
261.0683, 47812.86
261.5504, 47854.46
262.0326, 47908.30
262.5147, 47986.16
262.9968, 48094.18
263.4789, 48208.02
263.9610, 48332.17
264.4431, 48462.50
264.9253, 48549.10
265.4074, 48577.59
265.8895, 48588.09
266.3716, 48606.80
266.8537, 48626.93
267.3358, 48682.17
267.8180, 48794.54
268.3001, 48951.69
268.7822, 49055.32
269.2643, 49082.19
269.7464, 49099.93
270.2285, 49178.54
270.7107, 49339.57
271.1928, 49463.54
271.6749, 49519.80
272.1570, 49518.70
272.6391, 49527.30
273.1212, 49544.50
273.6034, 49574.14
274.0855, 49629.26
274.5676, 49717.98
275.0497, 49779.14
275.5318, 49795.16
276.0139, 49773.36
276.4961, 49752.91
276.9782, 49731.12
277.4603, 49718.91
277.9424, 49728.94
278.4245, 49762.66
278.9066, 49801.70
279.3888, 49848.66
279.8709, 49897.57
280.3530, 49909.52
280.8351, 49875.13
281.3172, 49841.96
281.7993, 49869.15
282.2815, 49957.75
282.7636, 50008.96
283.2457, 49983.22
283.7278, 49909.43
284.2099, 49899.57
284.6920, 49960.95
285.1741, 50040.52
285.6563, 50081.74
286.1384, 50088.98
286.6205, 50126.14
287.1026, 50221.16
287.5847, 50348.59
288.0668, 50432.75
288.5490, 50471.11
289.0311, 50496.66
289.5132, 50533.96
289.9953, 50582.00
290.4774, 50641.57
290.9595, 50723.14
291.4417, 50808.42
291.9238, 50847.32
292.4059, 50839.06
292.8880, 50828.43
293.3701, 50852.80
293.8522, 50906.21
294.3344, 50966.67
294.8165, 51031.84
295.2986, 51099.31
295.7807, 51160.93
296.2628, 51217.64
296.7449, 51280.21
297.2271, 51378.56
297.7092, 51489.03
298.1913, 51548.66
298.6734, 51515.32
299.1555, 51458.47
299.6376, 51481.81
300.1198, 51576.71
300.6019, 51682.38
301.0840, 51756.99
301.5661, 51811.15
302.0482, 51862.63
302.5303, 51914.22
303.0125, 51967.04
303.4946, 52024.46
303.9767, 52085.17
304.4588, 52145.56
304.9409, 52194.21
305.4230, 52243.08
305.9052, 52315.40
306.3873, 52435.37
306.8694, 52543.20
307.3515, 52582.44
307.8336, 52564.18
308.3157, 52525.18
308.7979, 52443.58
309.2800, 52371.67
309.7621, 52369.54
310.2442, 52476.35
310.7263, 52594.29
311.2084, 52657.96
311.6906, 52683.36
312.1727, 52713.77
312.6548, 52788.10
313.1369, 52865.41
313.6190, 52910.04
314.1011, 52904.89
314.5833, 52896.13
315.0654, 52898.49
315.5475, 52912.91
316.0296, 52941.31
316.5117, 52980.07
316.9938, 53036.16
317.4760, 53120.37
317.9580, 53247.57
318.4402, 53360.44
318.9223, 53441.88
319.4044, 53497.41
319.8865, 53534.43
320.3686, 53527.93
320.8507, 53525.80
321.3329, 53547.97
321.8150, 53599.86
322.2971, 53663.53
322.7792, 53745.06
323.2613, 53834.17
323.7434, 53916.77
324.2256, 53998.08
324.7077, 54065.73
325.1898, 54110.57
325.6719, 54122.43
326.1540, 54152.27
326.6361, 54219.75
327.1183, 54299.96
327.6004, 54365.28
328.0825, 54403.55
328.5646, 54439.97
329.0467, 54474.94
329.5288, 54506.77
330.0110, 54555.22
330.4931, 54629.13
330.9752, 54713.99
331.4573, 54795.83
331.9394, 54876.23
332.4215, 54952.04
332.9037, 55023.97
333.3858, 55091.57
333.8679, 55148.61
334.3500, 55189.29
334.8321, 55227.38
335.3142, 55279.14
335.7964, 55359.01
336.2785, 55411.41
336.7606, 55420.95
337.2427, 55395.54
337.7248, 55376.38
338.2069, 55354.09
338.6891, 55360.82
339.1712, 55437.28
339.6533, 55597.15
340.1354, 55716.93
340.6175, 55769.88
341.0996, 55779.98
341.5818, 55818.51
342.0639, 55890.72
342.5460, 55956.92
343.0281, 55983.98
343.5102, 55974.83
343.9923, 55983.29
344.4745, 56017.12
344.9566, 56066.63
345.4387, 56116.99
345.9208, 56167.44
346.4029, 56214.40
346.8850, 56253.00
347.3672, 56285.82
347.8493, 56319.40
348.3314, 56353.16
348.8135, 56391.29
349.2956, 56440.96
349.7777, 56499.83
350.2599, 56559.56
350.7419, 56620.61
351.2241, 56678.95
351.7062, 56724.61
352.1883, 56755.62
352.6704, 56789.14
353.1525, 56832.51
353.6346, 56889.78
354.1168, 56969.95
354.5989, 57113.49
355.0810, 57259.48
355.5631, 57337.92
356.0452, 57348.42
356.5273, 57357.90
357.0095, 57400.75
357.4916, 57471.46
357.9737, 57562.37
358.4558, 57713.35
358.9379, 57847.76
359.4200, 57915.25
359.9022, 57923.34
360.3843, 57926.09
360.8664, 57903.77
361.3485, 57909.07
361.8306, 57986.22
362.3127, 58223.34
362.7949, 58437.55
363.2770, 58570.32
363.7591, 58637.36
364.2412, 58695.69
364.7233, 58762.22
365.2054, 58820.74
365.6876, 58859.60
366.1697, 58846.72
366.6518, 58865.21
367.1339, 58944.21
367.6160, 59059.03
368.0981, 59153.78
368.5803, 59203.93
369.0624, 59257.52
369.5445, 59335.40
370.0266, 59458.60
370.5087, 59538.11
370.9908, 59552.98
371.4730, 59536.16
371.9551, 59531.40
372.4372, 59538.21
372.9193, 59560.47
373.4014, 59618.48
373.8835, 59717.75
374.3657, 59708.66
374.8478, 59538.12
375.3299, 59344.87
375.8120, 59289.04
376.2941, 59399.06
376.7762, 59496.03
377.2584, 59537.49
377.7405, 59535.44
378.2226, 59545.80
378.7047, 59570.38
379.1868, 59598.09
379.6689, 59619.95
380.1511, 59636.35
380.6332, 59651.84
381.1153, 59660.87
381.5974, 59678.27
382.0795, 59751.33
382.5616, 59875.23
383.0438, 59974.42
383.5259, 59975.54
384.0080, 59917.81
384.4901, 59899.99
384.9722, 59937.79
385.4543, 59997.87
385.9364, 60042.89
386.4185, 60080.34
386.9007, 60132.24
387.3828, 60223.42
387.8649, 60328.30
388.3470, 60419.46
388.8291, 60494.52
389.3112, 60563.99
389.7934, 60630.34
390.2755, 60695.50
390.7576, 60761.44
391.2397, 60844.69
391.7218, 60916.41
392.2039, 60951.04
392.6861, 60952.13
393.1682, 60963.68
393.6503, 61008.49
394.1324, 61068.07
394.6145, 61128.42
395.0966, 61195.34
395.5788, 61252.52
396.0609, 61287.62
396.5430, 61308.03
397.0251, 61340.98
397.5072, 61410.96
397.9893, 61477.82
398.4715, 61523.95
398.9536, 61540.11
399.4357, 61552.98
399.9178, 61576.32
400.3999, 61592.17
400.8820, 61562.88
401.3642, 61437.16
401.8463, 61345.54
402.3284, 61337.11
402.8105, 61425.37
403.2926, 61477.70
403.7747, 61483.41
404.2569, 61468.05
404.7390, 61453.30
405.2211, 61433.73
405.7032, 61444.82
406.1853, 61514.93
406.6674, 61619.68
407.1496, 61625.28
407.6317, 61514.07
408.1138, 61403.80
408.5959, 61402.12
409.0780, 61495.03
409.5602, 61564.00
410.0423, 61582.29
410.5244, 61581.73
411.0065, 61617.79
411.4886, 61685.81
411.9707, 61750.09
412.4529, 61780.00
412.9350, 61795.09
413.4171, 61834.45
413.8992, 61905.46
414.3813, 61976.75
414.8634, 62018.14
415.3456, 62040.16
415.8277, 62062.89
416.3098, 62089.80
416.7919, 62124.78
417.2740, 62174.50
417.7561, 62237.80
418.2382, 62302.36
418.7203, 62366.45
419.2025, 62426.19
419.6846, 62476.79
420.1667, 62488.13
420.6488, 62522.55
421.1309, 62633.48
421.6130, 62790.94
422.0952, 62887.02
422.5773, 62825.92
423.0594, 62755.80
423.5415, 62747.26
424.0236, 62854.44
424.5057, 62930.59
424.9879, 62953.74
425.4700, 62951.07
425.9521, 62965.09
426.4342, 63001.23
426.9163, 63046.37
427.3984, 63102.95
427.8806, 63173.57
428.3627, 63214.29
428.8448, 63209.97
429.3269, 63200.53
429.8090, 63224.80
430.2911, 63285.91
430.7733, 63363.70
431.2554, 63464.59
431.7375, 63573.23
432.2196, 63644.63
432.7017, 63677.25
433.1838, 63685.13
433.6660, 63649.22
434.1481, 63589.94
434.6302, 63604.16
435.1123, 63715.31
435.5944, 63854.50
436.0765, 63948.09
436.5587, 63999.11
437.0408, 64017.82
437.5229, 63961.61
438.0050, 63900.07
438.4871, 63932.58
438.9692, 64061.83
439.4514, 64186.34
439.9335, 64225.11
440.4156, 64223.45
440.8977, 64234.45
441.3798, 64278.77
441.8619, 64334.90
442.3441, 64400.52
442.8262, 64471.94
443.3083, 64534.91
443.7904, 64592.50
444.2725, 64633.88
444.7546, 64649.12
445.2368, 64615.45
445.7189, 64600.63
446.2010, 64619.03
446.6831, 64658.80
447.1652, 64701.63
447.6473, 64744.61
448.1295, 64794.80
448.6116, 64855.80
449.0937, 64928.85
449.5758, 64997.43
450.0579, 65065.36
450.5400, 65122.80
451.0221, 65155.68
451.5042, 65155.90
451.9864, 65170.86
452.4685, 65208.00
452.9506, 65263.39
453.4327, 65334.70
453.9148, 65423.39
454.3969, 65499.89
454.8791, 65533.53
455.3612, 65537.37
455.8433, 65569.38
456.3254, 65635.97
456.8075, 65710.89
457.2896, 65756.48
457.7718, 65784.50
458.2539, 65825.54
458.7360, 65928.61
459.2181, 66026.91
459.7002, 66016.23
460.1823, 65912.67
460.6645, 65850.73
461.1466, 65958.05
461.6287, 66123.79
462.1108, 66242.53
462.5929, 66266.61
463.0750, 66291.23
463.5572, 66360.07
464.0393, 66456.23
464.5214, 66544.55
465.0035, 66626.98
465.4856, 66689.34
465.9677, 66713.26
466.4499, 66681.10
466.9320, 66693.72
467.4141, 66792.80
467.8962, 66911.00
468.3783, 66987.04
468.8604, 66989.33
469.3426, 67012.18
469.8247, 67080.47
470.3068, 67177.27
470.7889, 67225.33
471.2710, 67207.98
471.7531, 67192.77
472.2353, 67225.30
472.7174, 67306.23
473.1995, 67353.45
473.6816, 67352.63
474.1637, 67355.43
474.6458, 67452.98
475.1280, 67628.88
475.6101, 67778.03
476.0922, 67860.98
476.5743, 67893.44
477.0564, 67881.20
477.5385, 67829.23
478.0207, 67794.90
478.5028, 67843.70
478.9849, 67923.84
479.4670, 67961.41
479.9491, 67908.14
480.4312, 67888.22
480.9134, 68027.91
481.3955, 68250.28
481.8776, 68410.73
482.3597, 68400.09
482.8418, 68365.59
483.3239, 68361.18
483.8060, 68391.05
484.2881, 68447.33
484.7703, 68554.39
485.2524, 68671.23
485.7345, 68767.44
486.2166, 68842.08
486.6987, 68895.97
487.1808, 68917.73
487.6630, 68920.81
488.1451, 68948.43
488.6272, 69007.64
489.1093, 69074.16
489.5914, 69139.96
490.0735, 69204.60
490.5557, 69266.82
491.0378, 69327.22
491.5199, 69381.33
492.0020, 69412.31
492.4841, 69425.47
492.9662, 69467.92
493.4484, 69566.13
493.9305, 69684.83
494.4126, 69758.10
494.8947, 69793.21
495.3768, 69829.63
495.8589, 69894.66
496.3411, 69974.95
496.8232, 70056.48
497.3053, 70137.78
497.7874, 70216.98
498.2695, 70298.11
498.7516, 70373.88
499.2338, 70435.64
499.7159, 70458.63
500.1980, 70488.08
500.6801, 70543.10
501.1622, 70621.02
501.6443, 70695.80
502.1265, 70775.53
502.6086, 70840.93
503.0907, 70879.56
503.5728, 70865.08
504.0549, 70881.47
504.5370, 70943.45
505.0192, 71025.42
505.5013, 71084.55
505.9834, 71110.34
506.4655, 71151.23
506.9476, 71227.59
507.4297, 71330.76
507.9119, 71400.73
508.3940, 71432.78
508.8761, 71471.45
509.3582, 71570.05
509.8403, 71707.30
510.3224, 71801.78
510.8046, 71836.52
511.2867, 71847.92
511.7688, 71880.80
512.2509, 71923.65
512.7330, 71948.66
513.2151, 71908.82
513.6973, 71871.14
514.1794, 71905.45
514.6615, 72005.52
515.1436, 72083.48
515.6257, 72075.30
516.1078, 72043.17
516.5900, 72035.55
517.0721, 72087.47
517.5542, 72117.87
518.0363, 72087.19
518.5184, 72031.94
519.0005, 72021.15
519.4827, 72105.34
519.9648, 72164.30
520.4469, 72151.61
520.9290, 72070.26
521.4111, 72061.20
521.8932, 72150.84
522.3754, 72255.00
522.8575, 72306.25
523.3396, 72303.50
523.8217, 72295.83
524.3038, 72282.71
524.7859, 72278.40
525.2681, 72303.08
525.7502, 72356.13
526.2323, 72431.99
526.7144, 72573.99
527.1965, 72717.78
527.6786, 72746.46
528.1608, 72668.74
528.6429, 72587.77
529.1250, 72562.66
529.6071, 72574.86
530.0892, 72609.23
530.5714, 72670.92
531.0535, 72736.52
531.5356, 72806.78
532.0176, 72872.65
532.4998, 72918.80
532.9819, 72931.54
533.4640, 72935.72
533.9461, 72927.51
534.4282, 72907.58
534.9103, 72919.95
535.3925, 72971.41
535.8746, 73046.88
536.3567, 73144.45
536.8388, 73274.02
537.3209, 73377.62
537.8030, 73447.79
538.2852, 73497.92
538.7673, 73551.79
539.2494, 73608.69
539.7315, 73648.87
540.2136, 73652.72
540.6957, 73642.97
541.1779, 73671.66
541.6600, 73735.31
542.1421, 73803.30
542.6242, 73844.27
543.1063, 73880.59
543.5884, 73947.70
544.0706, 74062.34
544.5527, 74160.29
545.0348, 74181.53
545.5169, 74170.28
545.9990, 74185.48
546.4811, 74285.00
546.9633, 74370.24
547.4454, 74386.82
547.9275, 74348.66
548.4096, 74381.06
548.8917, 74545.79
549.3738, 74715.22
549.8560, 74828.85
550.3381, 74865.37
550.8202, 74941.87
551.3023, 75076.29
551.7844, 75221.45
552.2665, 75314.26
552.7487, 75352.66
553.2308, 75413.34
553.7129, 75522.81
554.1950, 75653.65
554.6771, 75757.05
555.1592, 75833.51
555.6414, 75884.37
556.1235, 75884.53
556.6056, 75872.15
557.0877, 75888.88
557.5698, 75937.09
558.0519, 76024.55
558.5341, 76199.09
559.0162, 76397.63
559.4983, 76551.24
559.9804, 76641.70
560.4625, 76692.02
560.9446, 76688.30
561.4268, 76648.28
561.9089, 76615.20
562.3910, 76569.77
562.8731, 76558.66
563.3552, 76610.19
563.8373, 76725.05
564.3195, 76788.03
564.8016, 76783.85
565.2837, 76759.75
565.7658, 76752.62
566.2479, 76762.67
566.7300, 76760.98
567.2122, 76745.37
567.6943, 76715.34
568.1764, 76651.96
568.6585, 76568.12
569.1406, 76516.84
569.6227, 76522.07
570.1049, 76567.98
570.5870, 76661.93
571.0691, 76790.17
571.5512, 76887.54
572.0333, 76889.61
572.5154, 76866.13
572.9976, 76869.34
573.4797, 76916.83
573.9618, 76948.84
574.4439, 76912.66
574.9260, 76872.72
575.4081, 76900.86
575.8903, 77079.38
576.3724, 77197.31
576.8545, 77214.85
577.3366, 77162.56
577.8187, 77129.80
578.3008, 77116.21
578.7830, 77123.57
579.2651, 77154.93
579.7472, 77208.64
580.2293, 77279.16
580.7114, 77367.44
581.1935, 77454.69
581.6757, 77523.57
582.1578, 77578.02
582.6399, 77627.01
583.1220, 77672.72
583.6041, 77710.14
584.0862, 77719.64
584.5684, 77719.57
585.0505, 77741.85
585.5326, 77816.32
586.0147, 77898.31
586.4968, 77976.55
586.9789, 78048.73
587.4611, 78105.34
587.9432, 78117.37
588.4253, 78139.72
588.9074, 78202.57
589.3895, 78327.01
589.8716, 78395.36
590.3538, 78377.15
590.8359, 78351.30
591.3180, 78422.97
591.8001, 78597.05
592.2822, 78719.39
592.7643, 78753.68
593.2465, 78736.00
593.7286, 78712.36
594.2107, 78687.48
594.6928, 78685.85
595.1749, 78730.92
595.6570, 78798.13
596.1392, 78857.29
596.6213, 78910.13
597.1034, 78981.74
597.5854, 79132.91
598.0676, 79278.32
598.5497, 79344.54
599.0318, 79272.54
599.5139, 79235.28
599.9960, 79266.35
600.4781, 79342.44
600.9603, 79441.82
601.4424, 79597.55
601.9245, 79710.54
602.4066, 79751.63
602.8887, 79743.96
603.3708, 79771.24
603.8530, 79841.01
604.3351, 79883.66
604.8172, 79832.72
605.2993, 79724.13
605.7814, 79691.34
606.2635, 79734.38
606.7457, 79814.62
607.2278, 79923.27
607.7099, 80040.85
608.1920, 80133.39
608.6741, 80182.45
609.1563, 80243.28
609.6384, 80390.64
610.1205, 80556.60
610.6026, 80645.13
611.0847, 80537.32
611.5668, 80457.66
612.0490, 80467.34
612.5311, 80547.20
613.0132, 80619.23
613.4953, 80679.52
613.9774, 80740.86
614.4595, 80813.79
614.9417, 80899.15
615.4238, 80946.00
615.9059, 80947.20
616.3880, 80945.86
616.8701, 80981.53
617.3522, 81047.87
617.8344, 81126.48
618.3165, 81220.98
618.7986, 81304.00
619.2807, 81340.82
619.7628, 81346.27
620.2449, 81347.25
620.7271, 81339.02
621.2092, 81343.81
621.6913, 81374.29
622.1734, 81427.23
622.6555, 81488.30
623.1376, 81585.99
623.6198, 81660.28
624.1019, 81680.19
624.5840, 81636.11
625.0661, 81628.73
625.5482, 81664.80
626.0303, 81725.26
626.5125, 81807.59
626.9946, 81911.88
627.4767, 81974.65
627.9588, 81978.59
628.4409, 81976.14
628.9230, 82050.57
629.4052, 82177.63
629.8873, 82287.68
630.3694, 82350.99
630.8515, 82392.77
631.3336, 82441.28
631.8157, 82487.63
632.2979, 82504.88
632.7800, 82441.03
633.2621, 82381.39
633.7442, 82367.77
634.2263, 82405.04
634.7084, 82456.41
635.1906, 82547.19
635.6727, 82622.64
636.1548, 82640.15
636.6369, 82572.81
637.1190, 82565.70
637.6011, 82636.90
638.0833, 82732.76
638.5654, 82776.33
639.0475, 82776.73
639.5296, 82801.09
640.0117, 82869.38
640.4938, 82964.04
640.9760, 83086.88
641.4581, 83219.59
641.9402, 83317.98
642.4223, 83337.98
642.9044, 83335.84
643.3865, 83337.55
643.8687, 83345.02
644.3508, 83365.75
644.8329, 83393.09
645.3150, 83442.46
645.7971, 83527.78
646.2792, 83668.73
646.7614, 83768.76
647.2435, 83822.45
647.7256, 83845.33
648.2077, 83849.41
648.6898, 83834.40
649.1719, 83804.09
649.6541, 83749.95
650.1362, 83703.49
650.6183, 83715.93
651.1004, 83774.60
651.5825, 83840.91
652.0646, 83895.37
652.5468, 83954.69
653.0289, 84048.18
653.5110, 84161.35
653.9931, 84243.09
654.4752, 84265.63
654.9573, 84261.54
655.4395, 84227.38
655.9216, 84154.21
656.4037, 84146.58
656.8858, 84228.78
657.3679, 84344.95
657.8500, 84474.23
658.3322, 84626.48
658.8143, 84710.35
659.2964, 84712.41
659.7785, 84680.53
660.2606, 84664.19
660.7427, 84661.79
661.2249, 84668.28
661.7070, 84684.76
662.1891, 84704.86
662.6712, 84708.93
663.1533, 84712.50
663.6354, 84748.29
664.1175, 84877.35
664.5996, 84995.04
665.0817, 85052.52
665.5638, 85056.04
666.0460, 85057.84
666.5281, 85067.38
667.0102, 85067.51
