##NAMES=Yuanfuliite
##RRUFFID=R100067
##IDEAL CHEMISTRY=Mg(Fe^3+^,Al)O(BO_3_)
##LOCALITY=La Ceila, near Jumilla, Murcia Province, Spain
##OWNER=RRUFF
##SOURCE=Bob Jenkins
##DESCRIPTION=Sprays of red needles associated with black tabular hematite, colorless plates of sanidine, and yellow bladed crystals of an amphibole R100069, possibly richterite
##STATUS=The identification of this mineral has been confirmed only by single crystal X-ray diffraction.
##URL=rruff.info/R100067
91.53320, 4505.063
92.01532, 4458.210
92.49744, 4429.429
92.97955, 4494.357
93.46167, 4582.146
93.94379, 4621.361
94.42590, 4634.417
94.90802, 4636.494
95.39014, 4633.493
95.87225, 4626.018
96.35437, 4613.361
96.83649, 4599.140
97.31860, 4583.829
97.80072, 4566.436
98.28284, 4540.088
98.76495, 4503.378
99.24707, 4472.233
99.72919, 4450.670
100.2113, 4432.257
100.6934, 4414.689
101.1755, 4397.905
101.6577, 4382.574
102.1398, 4368.628
102.6219, 4354.732
103.1040, 4348.438
103.5861, 4352.927
104.0682, 4359.277
104.5504, 4362.757
105.0325, 4362.447
105.5146, 4359.956
105.9967, 4356.379
106.4788, 4349.199
106.9609, 4346.850
107.4431, 4353.869
107.9252, 4364.670
108.4073, 4371.376
108.8894, 4370.759
109.3715, 4366.299
109.8536, 4364.014
110.3358, 4363.900
110.8179, 4364.618
111.3000, 4365.479
111.7821, 4366.517
112.2642, 4368.132
112.7463, 4370.694
113.2285, 4373.866
113.7106, 4377.670
114.1927, 4382.489
114.6748, 4386.794
115.1569, 4387.938
115.6390, 4384.311
116.1212, 4381.561
116.6033, 4381.694
117.0854, 4383.198
117.5675, 4384.580
118.0496, 4385.024
118.5317, 4384.856
119.0139, 4385.769
119.4960, 4390.341
119.9781, 4393.121
120.4602, 4391.569
120.9423, 4387.541
121.4244, 4384.214
121.9066, 4384.016
122.3887, 4387.111
122.8708, 4391.232
123.3529, 4397.182
123.8350, 4403.190
124.3171, 4408.950
124.7993, 4414.204
125.2814, 4418.032
125.7635, 4418.977
126.2456, 4416.015
126.7277, 4416.146
127.2098, 4422.208
127.6920, 4430.152
128.1741, 4435.699
128.6562, 4437.789
129.1383, 4438.324
129.6204, 4439.116
130.1025, 4440.093
130.5847, 4441.822
131.0668, 4445.489
131.5489, 4450.294
132.0310, 4453.306
132.5131, 4452.932
132.9952, 4451.600
133.4774, 4451.169
133.9595, 4451.719
134.4416, 4453.333
134.9237, 4456.981
135.4058, 4463.333
135.8879, 4467.400
136.3701, 4466.256
136.8522, 4463.873
137.3343, 4462.476
137.8164, 4462.623
138.2985, 4463.316
138.7806, 4462.336
139.2628, 4456.532
139.7449, 4455.268
140.2270, 4462.832
140.7091, 4472.926
141.1912, 4479.548
141.6733, 4479.962
142.1555, 4476.301
142.6376, 4475.894
143.1197, 4482.413
143.6018, 4488.237
144.0839, 4492.300
144.5660, 4495.142
145.0482, 4497.767
145.5303, 4500.788
146.0124, 4504.016
146.4945, 4506.210
146.9766, 4507.728
147.4587, 4508.131
147.9409, 4505.691
148.4230, 4501.306
148.9051, 4499.218
149.3872, 4503.709
149.8693, 4513.248
150.3514, 4518.216
150.8336, 4515.412
151.3157, 4509.872
151.7978, 4504.568
152.2799, 4499.065
152.7620, 4497.431
153.2441, 4507.759
153.7263, 4524.026
154.2084, 4536.119
154.6905, 4538.896
155.1726, 4535.437
155.6547, 4531.975
156.1368, 4527.606
156.6190, 4525.126
157.1011, 4526.633
157.5832, 4530.784
158.0653, 4535.058
158.5474, 4537.938
159.0295, 4539.495
159.5117, 4540.700
159.9938, 4541.086
160.4759, 4541.539
160.9580, 4542.553
161.4401, 4543.917
161.9222, 4545.061
162.4044, 4545.374
162.8865, 4544.637
163.3686, 4544.274
163.8507, 4543.737
164.3328, 4543.961
164.8149, 4545.563
165.2971, 4548.468
165.7792, 4552.142
166.2613, 4556.211
166.7434, 4561.574
167.2255, 4564.341
167.7076, 4563.142
168.1898, 4560.757
168.6719, 4558.792
169.1540, 4557.677
169.6361, 4557.399
170.1182, 4558.128
170.6003, 4560.774
171.0825, 4562.076
171.5646, 4560.516
172.0467, 4558.090
172.5288, 4557.277
173.0109, 4558.906
173.4930, 4561.499
173.9752, 4562.521
174.4573, 4561.802
174.9394, 4561.309
175.4215, 4562.011
175.9036, 4563.332
176.3857, 4563.724
176.8679, 4562.098
177.3500, 4560.425
177.8321, 4561.508
178.3142, 4565.514
178.7963, 4569.707
179.2784, 4571.304
179.7606, 4570.934
180.2427, 4574.237
180.7248, 4587.802
181.2069, 4600.980
181.6890, 4603.336
182.1711, 4593.783
182.6533, 4581.784
183.1354, 4577.092
183.6175, 4580.887
184.0996, 4582.707
184.5817, 4575.814
185.0638, 4568.925
185.5460, 4568.100
186.0281, 4574.493
186.5102, 4583.323
186.9923, 4588.087
187.4744, 4587.839
187.9565, 4585.684
188.4387, 4579.648
188.9208, 4573.510
189.4029, 4569.877
189.8850, 4569.548
190.3671, 4571.720
190.8492, 4575.123
191.3314, 4581.134
191.8135, 4586.055
192.2956, 4588.550
192.7777, 4590.517
193.2598, 4594.167
193.7419, 4600.278
194.2241, 4607.197
194.7062, 4610.945
195.1883, 4609.083
195.6704, 4606.440
196.1525, 4601.396
196.6346, 4596.179
197.1168, 4593.744
197.5989, 4595.458
198.0810, 4599.792
198.5631, 4602.331
199.0452, 4601.659
199.5273, 4601.203
200.0095, 4601.377
200.4916, 4602.118
200.9737, 4603.530
201.4558, 4605.851
201.9379, 4608.493
202.4200, 4609.711
202.9022, 4609.114
203.3843, 4608.202
203.8664, 4606.845
204.3485, 4605.491
204.8306, 4605.334
205.3127, 4606.840
205.7949, 4610.044
206.2770, 4615.163
206.7591, 4623.983
207.2412, 4630.901
207.7233, 4631.315
208.2054, 4626.252
208.6876, 4622.052
209.1697, 4621.399
209.6518, 4622.936
210.1339, 4624.842
210.6160, 4627.692
211.0981, 4629.036
211.5803, 4625.373
212.0624, 4616.692
212.5445, 4610.362
213.0266, 4610.216
213.5087, 4613.127
213.9908, 4616.061
214.4730, 4618.408
214.9551, 4621.802
215.4372, 4629.451
215.9193, 4642.687
216.4014, 4652.135
216.8836, 4653.445
217.3657, 4650.766
217.8478, 4644.928
218.3299, 4636.039
218.8120, 4627.902
219.2941, 4626.297
219.7763, 4633.081
220.2584, 4640.341
220.7405, 4648.984
221.2226, 4656.153
221.7047, 4659.323
222.1868, 4657.892
222.6690, 4653.885
223.1511, 4650.078
223.6332, 4645.523
224.1153, 4643.507
224.5974, 4645.362
225.0795, 4648.760
225.5617, 4652.929
226.0438, 4657.389
226.5259, 4660.823
227.0080, 4660.642
227.4901, 4654.209
227.9722, 4648.889
228.4544, 4643.891
228.9365, 4640.560
229.4186, 4640.651
229.9007, 4644.416
230.3828, 4649.975
230.8649, 4654.172
231.3471, 4657.550
231.8292, 4658.260
232.3113, 4652.477
232.7934, 4646.431
233.2755, 4645.829
233.7576, 4652.042
234.2398, 4661.604
234.7219, 4668.859
235.2040, 4673.339
235.6861, 4675.698
236.1682, 4674.718
236.6503, 4672.312
237.1325, 4669.739
237.6146, 4667.421
238.0967, 4665.861
238.5788, 4666.019
239.0609, 4669.209
239.5430, 4671.028
240.0252, 4670.012
240.5073, 4668.208
240.9894, 4667.495
241.4715, 4668.326
241.9536, 4670.388
242.4357, 4673.833
242.9179, 4679.506
243.4000, 4682.565
243.8821, 4681.136
244.3642, 4677.527
244.8463, 4673.563
245.3284, 4669.500
245.8106, 4666.620
246.2927, 4666.900
246.7748, 4670.438
247.2569, 4674.092
247.7390, 4678.150
248.2211, 4681.786
248.7033, 4684.193
249.1854, 4685.300
249.6675, 4684.751
250.1496, 4680.525
250.6317, 4673.389
251.1138, 4669.440
251.5960, 4673.416
252.0781, 4679.780
252.5602, 4680.311
253.0423, 4673.293
253.5244, 4666.136
254.0065, 4666.609
254.4887, 4672.276
254.9708, 4676.697
255.4529, 4678.343
255.9350, 4677.837
256.4171, 4674.464
256.8992, 4666.926
257.3813, 4662.439
257.8635, 4670.728
258.3456, 4685.353
258.8277, 4695.571
259.3098, 4696.606
259.7919, 4692.548
260.2740, 4688.533
260.7562, 4684.330
261.2383, 4681.064
261.7204, 4678.997
262.2025, 4678.326
262.6846, 4679.922
263.1667, 4685.208
263.6489, 4691.400
264.1310, 4694.498
264.6131, 4694.003
265.0952, 4692.543
265.5773, 4690.613
266.0594, 4688.600
266.5416, 4687.030
267.0237, 4686.283
267.5058, 4685.469
267.9879, 4682.487
268.4700, 4676.303
268.9521, 4673.008
269.4343, 4677.764
269.9164, 4684.772
270.3985, 4689.826
270.8806, 4691.875
271.3627, 4692.467
271.8448, 4693.863
272.3270, 4696.618
272.8091, 4697.208
273.2912, 4691.351
273.7733, 4685.139
274.2554, 4682.187
274.7375, 4683.103
275.2197, 4686.447
275.7018, 4691.940
276.1839, 4700.464
276.6660, 4705.104
277.1481, 4700.610
277.6302, 4694.876
278.1124, 4691.298
278.5945, 4690.286
279.0766, 4690.876
279.5587, 4692.793
280.0408, 4696.386
280.5229, 4698.376
281.0051, 4696.262
281.4872, 4694.557
281.9693, 4695.920
282.4514, 4699.648
282.9335, 4702.928
283.4156, 4702.835
283.8978, 4699.260
284.3799, 4697.663
284.8620, 4700.755
285.3441, 4703.132
285.8262, 4701.581
286.3083, 4697.789
286.7905, 4695.761
287.2726, 4699.089
287.7547, 4706.897
288.2368, 4710.630
288.7189, 4706.532
289.2010, 4702.503
289.6832, 4700.169
290.1653, 4699.395
290.6474, 4700.257
291.1295, 4703.239
291.6116, 4707.183
292.0938, 4707.018
292.5759, 4698.671
293.0580, 4691.989
293.5401, 4688.549
294.0222, 4687.772
294.5043, 4689.760
294.9865, 4694.694
295.4686, 4700.673
295.9507, 4702.656
296.4328, 4697.019
296.9149, 4693.867
297.3970, 4694.469
297.8792, 4697.619
298.3613, 4702.962
298.8434, 4710.207
299.3255, 4717.971
299.8076, 4724.361
300.2897, 4730.500
300.7719, 4732.268
301.2540, 4726.304
301.7361, 4718.947
302.2182, 4714.379
302.7003, 4713.142
303.1824, 4712.658
303.6646, 4708.919
304.1467, 4699.295
304.6288, 4696.243
305.1109, 4705.868
305.5930, 4716.286
306.0751, 4721.837
306.5573, 4722.850
307.0394, 4723.029
307.5215, 4725.949
308.0036, 4731.958
308.4857, 4735.722
308.9678, 4736.377
309.4500, 4735.503
309.9321, 4732.147
310.4142, 4727.580
310.8963, 4724.136
311.3784, 4723.479
311.8605, 4725.260
312.3427, 4726.696
312.8248, 4726.999
313.3069, 4727.933
313.7890, 4729.847
314.2711, 4732.569
314.7532, 4736.162
315.2354, 4740.714
315.7175, 4745.568
316.1996, 4748.999
316.6817, 4752.655
317.1638, 4751.798
317.6459, 4740.646
318.1281, 4728.149
318.6102, 4723.391
319.0923, 4728.915
319.5744, 4738.876
320.0565, 4743.343
320.5386, 4739.032
321.0208, 4736.688
321.5029, 4737.749
321.9850, 4739.765
322.4671, 4741.066
322.9492, 4741.553
323.4313, 4742.415
323.9135, 4745.550
324.3956, 4752.053
324.8777, 4755.040
325.3598, 4751.830
325.8419, 4747.553
326.3240, 4741.811
326.8062, 4736.370
327.2883, 4735.215
327.7704, 4742.675
328.2525, 4757.956
328.7346, 4766.852
329.2167, 4763.260
329.6989, 4759.836
330.1810, 4760.936
330.6631, 4763.933
331.1452, 4764.131
331.6273, 4758.585
332.1094, 4750.063
332.5916, 4747.573
333.0737, 4755.610
333.5558, 4762.219
334.0379, 4765.980
334.5200, 4767.307
335.0021, 4765.263
335.4843, 4759.737
335.9664, 4754.249
336.4485, 4755.270
336.9306, 4765.800
337.4127, 4773.833
337.8948, 4776.892
338.3770, 4778.232
338.8591, 4779.112
339.3412, 4779.940
339.8233, 4781.109
340.3055, 4783.505
340.7876, 4787.415
341.2697, 4789.488
341.7518, 4789.133
342.2339, 4787.279
342.7160, 4782.705
343.1982, 4776.845
343.6803, 4772.882
344.1624, 4773.410
344.6445, 4777.508
345.1266, 4780.464
345.6087, 4781.388
346.0909, 4782.643
346.5730, 4786.084
347.0551, 4789.931
347.5372, 4791.485
348.0193, 4789.222
348.5014, 4785.745
348.9836, 4786.346
349.4657, 4792.642
349.9478, 4797.583
350.4299, 4798.341
350.9120, 4797.656
351.3941, 4797.360
351.8763, 4797.803
352.3584, 4798.249
352.8405, 4798.281
353.3226, 4797.924
353.8047, 4795.813
354.2868, 4789.037
354.7690, 4783.360
355.2511, 4782.550
355.7332, 4786.028
356.2153, 4790.936
356.6974, 4797.084
357.1795, 4803.454
357.6617, 4805.105
358.1438, 4799.037
358.6259, 4794.420
359.1080, 4799.276
359.5901, 4808.413
360.0722, 4813.155
360.5544, 4808.326
361.0365, 4800.194
361.5186, 4797.945
362.0007, 4802.312
362.4828, 4806.993
362.9649, 4810.874
363.4471, 4812.813
363.9292, 4810.908
364.4113, 4804.142
364.8934, 4797.170
365.3755, 4793.024
365.8576, 4791.585
366.3398, 4792.488
366.8219, 4796.463
367.3040, 4801.631
367.7861, 4806.109
368.2682, 4809.968
368.7503, 4813.700
369.2325, 4819.381
369.7146, 4824.544
370.1967, 4823.850
370.6788, 4816.001
371.1609, 4807.610
371.6430, 4803.752
372.1252, 4803.500
372.6073, 4803.761
373.0894, 4805.132
373.5715, 4806.109
374.0536, 4805.125
374.5357, 4802.486
375.0179, 4799.958
375.5000, 4798.357
375.9821, 4797.468
376.4642, 4796.966
376.9463, 4797.720
377.4284, 4796.937
377.9106, 4790.966
378.3927, 4783.360
378.8748, 4780.468
379.3569, 4784.145
379.8390, 4791.617
380.3211, 4800.614
380.8033, 4812.112
381.2854, 4818.604
381.7675, 4816.577
382.2496, 4811.458
382.7317, 4806.601
383.2138, 4802.532
383.6960, 4799.392
384.1781, 4797.172
384.6602, 4795.924
385.1423, 4796.456
385.6244, 4799.163
386.1065, 4802.740
386.5887, 4808.772
387.0708, 4814.985
387.5529, 4816.922
388.0350, 4812.448
388.5171, 4804.722
388.9992, 4800.672
389.4814, 4802.780
389.9635, 4805.164
390.4456, 4808.690
390.9277, 4811.955
391.4098, 4813.898
391.8919, 4814.358
392.3741, 4813.694
392.8562, 4812.072
393.3383, 4809.209
393.8204, 4807.706
394.3025, 4808.042
394.7846, 4809.169
395.2668, 4810.923
395.7489, 4813.208
396.2310, 4816.255
396.7131, 4820.376
397.1952, 4824.707
397.6773, 4826.052
398.1595, 4821.802
398.6416, 4818.804
399.1237, 4819.060
399.6058, 4820.083
400.0879, 4819.271
400.5700, 4816.210
401.0522, 4813.211
401.5343, 4812.994
402.0164, 4815.781
402.4985, 4820.143
402.9806, 4829.204
403.4627, 4836.764
403.9449, 4839.421
404.4270, 4838.319
404.9091, 4836.630
405.3912, 4836.047
405.8733, 4836.413
406.3554, 4837.296
406.8376, 4838.747
407.3197, 4840.583
407.8018, 4844.072
408.2839, 4847.292
408.7660, 4847.745
409.2481, 4844.444
409.7303, 4840.558
410.2124, 4839.863
410.6945, 4842.083
411.1766, 4842.312
411.6587, 4837.537
412.1408, 4833.143
412.6230, 4835.245
413.1051, 4842.899
413.5872, 4849.001
414.0693, 4849.769
414.5514, 4847.471
415.0335, 4845.006
415.5157, 4842.376
415.9978, 4841.442
416.4799, 4844.833
416.9620, 4850.609
417.4441, 4852.623
417.9262, 4846.956
418.4084, 4842.406
418.8905, 4845.950
419.3726, 4854.545
419.8547, 4860.070
420.3368, 4859.446
420.8189, 4855.753
421.3011, 4853.505
421.7832, 4852.574
422.2653, 4853.596
422.7474, 4859.953
423.2295, 4866.104
423.7116, 4866.391
424.1938, 4861.022
424.6759, 4854.858
425.1580, 4851.468
425.6401, 4850.772
426.1222, 4851.253
426.6043, 4852.751
427.0865, 4855.354
427.5686, 4860.391
428.0507, 4866.104
428.5328, 4869.917
429.0149, 4870.861
429.4970, 4870.286
429.9792, 4870.544
430.4613, 4871.886
430.9434, 4873.542
431.4255, 4876.341
431.9076, 4878.692
432.3897, 4880.029
432.8719, 4880.160
433.3540, 4878.659
433.8361, 4874.654
434.3182, 4868.865
434.8003, 4866.408
435.2824, 4868.026
435.7646, 4872.281
436.2467, 4881.618
436.7288, 4891.732
437.2109, 4898.045
437.6930, 4899.121
438.1751, 4896.913
438.6573, 4892.633
439.1394, 4885.937
439.6215, 4882.260
440.1036, 4884.992
440.5857, 4887.953
441.0678, 4885.688
441.5500, 4879.830
442.0321, 4876.707
442.5142, 4881.396
442.9963, 4890.069
443.4784, 4896.692
443.9605, 4901.487
444.4427, 4902.168
444.9248, 4894.599
445.4069, 4883.578
445.8890, 4877.589
446.3711, 4878.098
446.8532, 4880.471
447.3354, 4882.354
447.8175, 4884.252
448.2996, 4887.761
448.7817, 4893.522
449.2638, 4898.996
449.7459, 4900.896
450.2281, 4898.934
450.7102, 4898.974
451.1923, 4904.526
451.6744, 4909.188
452.1565, 4908.024
452.6386, 4902.425
453.1208, 4896.736
453.6029, 4893.041
454.0850, 4891.226
454.5671, 4891.017
455.0492, 4894.418
455.5313, 4896.737
456.0135, 4896.421
456.4956, 4896.023
456.9777, 4897.916
457.4598, 4902.185
457.9419, 4907.040
458.4240, 4910.786
458.9062, 4913.411
459.3883, 4916.532
459.8704, 4922.255
460.3525, 4926.057
460.8346, 4924.311
461.3167, 4921.076
461.7989, 4922.499
462.2810, 4931.024
462.7631, 4941.043
463.2452, 4943.253
463.7273, 4936.197
464.2094, 4929.792
464.6916, 4924.638
465.1737, 4921.057
465.6558, 4918.942
466.1379, 4918.422
466.6200, 4920.028
467.1021, 4926.126
467.5843, 4933.593
468.0664, 4934.885
468.5485, 4928.882
469.0306, 4925.116
469.5127, 4930.548
469.9948, 4939.160
470.4770, 4940.604
470.9591, 4932.191
471.4412, 4925.646
471.9233, 4929.281
472.4054, 4938.190
472.8875, 4943.087
473.3697, 4942.198
473.8518, 4939.807
474.3339, 4939.783
474.8160, 4942.112
475.2981, 4943.139
475.7802, 4942.304
476.2624, 4940.773
476.7445, 4938.486
477.2266, 4935.920
477.7087, 4934.126
478.1908, 4933.510
478.6729, 4933.146
479.1551, 4931.064
479.6372, 4924.436
480.1193, 4922.950
480.6014, 4930.929
481.0835, 4939.419
481.5656, 4943.028
482.0478, 4942.750
482.5299, 4942.835
483.0120, 4946.355
483.4941, 4951.837
483.9762, 4953.015
484.4583, 4946.230
484.9405, 4942.759
485.4226, 4950.308
485.9047, 4958.087
486.3868, 4955.396
486.8689, 4941.869
487.3510, 4929.289
487.8332, 4929.162
488.3153, 4938.878
488.7974, 4945.675
489.2795, 4948.532
489.7616, 4949.812
490.2437, 4950.130
490.7259, 4949.944
491.2080, 4949.898
491.6901, 4950.031
492.1722, 4950.429
492.6543, 4951.014
493.1364, 4951.891
493.6186, 4953.286
494.1007, 4955.196
494.5828, 4958.077
495.0649, 4963.726
495.5470, 4972.717
496.0291, 4975.352
496.5113, 4965.273
496.9934, 4954.410
497.4755, 4949.413
497.9576, 4949.262
498.4397, 4951.030
498.9218, 4953.431
499.4040, 4955.814
499.8861, 4956.545
500.3682, 4953.578
500.8503, 4952.782
501.3324, 4956.571
501.8145, 4960.203
502.2967, 4960.261
502.7788, 4957.409
503.2609, 4954.563
503.7430, 4953.632
504.2251, 4954.381
504.7072, 4956.321
505.1894, 4960.805
505.6715, 4963.342
506.1536, 4960.718
506.6357, 4957.125
507.1178, 4956.093
507.5999, 4957.976
508.0821, 4960.053
508.5642, 4959.900
509.0463, 4958.425
509.5284, 4958.760
510.0105, 4961.701
510.4926, 4963.604
510.9748, 4960.112
511.4569, 4954.609
511.9390, 4955.422
512.4211, 4967.299
512.9032, 4977.546
513.3853, 4977.737
513.8674, 4972.704
514.3495, 4971.405
514.8317, 4975.809
515.3138, 4980.398
515.7959, 4979.138
516.2780, 4971.406
516.7601, 4966.938
517.2422, 4967.052
517.7244, 4968.342
518.2065, 4970.469
518.6886, 4972.799
519.1707, 4974.653
519.6528, 4975.781
520.1349, 4976.220
520.6171, 4975.785
521.0992, 4974.043
521.5813, 4973.337
522.0634, 4974.824
522.5455, 4976.310
523.0276, 4976.733
523.5098, 4976.647
523.9919, 4977.206
524.4740, 4979.062
524.9561, 4981.345
525.4382, 4982.358
525.9203, 4982.034
526.4025, 4983.487
526.8846, 4988.615
527.3667, 4994.103
527.8488, 4996.747
528.3309, 4996.865
528.8130, 4996.386
529.2952, 4995.717
529.7773, 4994.782
530.2594, 4992.719
530.7415, 4990.080
531.2236, 4989.748
531.7057, 4993.511
532.1879, 4998.736
532.6700, 5000.149
533.1521, 4995.073
533.6342, 4992.278
534.1163, 4993.600
534.5984, 4995.826
535.0806, 4997.149
535.5627, 4997.535
536.0448, 4997.625
536.5269, 4997.833
537.0090, 4997.918
537.4911, 4996.903
537.9733, 4993.446
538.4554, 4991.844
538.9375, 4994.572
539.4196, 4997.571
539.9017, 4997.811
540.3839, 4995.786
540.8660, 4994.563
541.3481, 4996.652
541.8302, 5000.591
542.3123, 5003.183
542.7944, 5004.366
543.2766, 5004.918
543.7587, 5004.725
544.2408, 5004.444
544.7229, 5005.135
545.2050, 5006.950
545.6871, 5008.507
546.1693, 5010.210
546.6514, 5010.885
547.1335, 5007.826
547.6156, 5001.756
548.0977, 4997.655
548.5798, 4998.602
549.0620, 5003.585
549.5441, 5009.209
550.0262, 5018.324
550.5083, 5024.014
550.9904, 5023.734
551.4725, 5021.850
551.9547, 5021.629
552.4368, 5023.029
552.9189, 5023.964
553.4010, 5022.542
553.8831, 5019.847
554.3652, 5020.727
554.8474, 5027.126
555.3295, 5032.251
555.8116, 5034.417
556.2937, 5034.683
556.7758, 5032.741
557.2579, 5028.958
557.7401, 5026.199
558.2222, 5026.429
558.7043, 5028.653
559.1864, 5031.835
559.6685, 5035.924
560.1506, 5038.248
560.6328, 5036.190
561.1149, 5032.766
561.5970, 5036.000
562.0791, 5049.539
562.5612, 5056.773
563.0433, 5048.817
563.5255, 5037.693
564.0076, 5033.450
564.4897, 5035.827
564.9718, 5039.290
565.4539, 5040.346
565.9360, 5039.807
566.4182, 5040.549
566.9003, 5044.417
567.3824, 5046.122
567.8645, 5042.631
568.3466, 5039.463
568.8287, 5041.130
569.3109, 5046.561
569.7930, 5050.960
570.2751, 5051.115
570.7572, 5048.664
571.2393, 5046.438
571.7214, 5044.289
572.2036, 5044.450
572.6857, 5049.690
573.1678, 5055.251
573.6499, 5054.222
574.1320, 5046.799
574.6141, 5042.430
575.0963, 5045.501
575.5784, 5051.204
576.0605, 5056.804
576.5426, 5061.568
577.0247, 5063.501
577.5068, 5061.458
577.9890, 5057.610
578.4711, 5056.221
578.9532, 5059.382
579.4353, 5059.657
579.9174, 5051.719
580.3995, 5046.579
580.8817, 5052.938
581.3638, 5065.468
581.8459, 5073.141
582.3280, 5070.428
582.8101, 5063.455
583.2922, 5062.638
583.7744, 5068.524
584.2565, 5072.304
584.7386, 5071.380
585.2207, 5070.221
585.7029, 5072.930
586.1850, 5077.848
