##NAMES=Yuanfuliite
##RRUFFID=R100067
##IDEAL CHEMISTRY=Mg(Fe^3+^,Al)O(BO_3_)
##LOCALITY=La Ceila, near Jumilla, Murcia Province, Spain
##OWNER=RRUFF
##SOURCE=Bob Jenkins
##DESCRIPTION=Sprays of red needles associated with black tabular hematite, colorless plates of sanidine, and yellow bladed crystals of an amphibole R100069, possibly richterite
##STATUS=The identification of this mineral has been confirmed only by single crystal X-ray diffraction.
##URL=rruff.info/R100067
90.01007, 0.0000000E+00
90.49219, 32.57679
90.97430, 31.62552
91.45642, 31.28833
91.93854, 32.23665
92.42065, 33.60278
92.90277, 33.99058
93.38489, 33.17619
93.86700, 32.02766
94.34912, 31.56557
94.83124, 31.70689
95.31335, 31.99398
95.79547, 32.11437
96.27759, 32.13815
96.75970, 32.37797
97.24182, 32.91578
97.72394, 33.63673
98.20605, 34.44112
98.68817, 35.37937
99.17029, 35.99981
99.65240, 35.88320
100.1345, 34.98858
100.6166, 33.84773
101.0988, 32.25723
101.5809, 30.40463
102.0630, 29.93183
102.5451, 31.19583
103.0272, 33.19526
103.5093, 35.02280
103.9915, 36.89381
104.4736, 37.98066
104.9557, 37.92704
105.4378, 36.53643
105.9199, 35.04878
106.4020, 33.12737
106.8842, 31.26523
107.3663, 30.32066
107.8484, 30.85730
108.3305, 31.67298
108.8126, 32.42039
109.2947, 33.46672
109.7769, 33.83121
110.2590, 33.06304
110.7411, 31.53137
111.2232, 30.40457
111.7053, 29.72968
112.1874, 29.44158
112.6696, 29.51902
113.1517, 30.49748
113.6338, 31.26266
114.1159, 31.66985
114.5980, 31.73369
115.0801, 31.57179
115.5623, 30.81134
116.0444, 30.02593
116.5265, 29.66027
117.0086, 30.16419
117.4907, 30.81098
117.9728, 31.54858
118.4550, 32.38572
118.9371, 32.63401
119.4192, 31.35959
119.9013, 29.45615
120.3834, 28.08301
120.8655, 27.85532
121.3477, 28.23418
121.8298, 28.89581
122.3119, 29.83152
122.7940, 30.94447
123.2761, 32.59967
123.7582, 34.41951
124.2404, 35.56313
124.7225, 34.76414
125.2046, 33.32058
125.6867, 32.91381
126.1688, 33.99002
126.6509, 35.63186
127.1331, 37.01914
127.6152, 38.16488
128.0973, 39.13395
128.5794, 39.94598
129.0615, 40.61353
129.5436, 41.09092
130.0258, 41.14562
130.5079, 41.25042
130.9900, 42.37856
131.4721, 44.51960
131.9542, 46.96135
132.4363, 49.01851
132.9185, 50.77882
133.4006, 52.85451
133.8827, 55.48661
134.3648, 58.52802
134.8469, 61.52004
135.3290, 64.36636
135.8112, 67.60268
136.2933, 71.79729
136.7754, 76.98842
137.2575, 82.78165
137.7396, 89.16787
138.2217, 96.03083
138.7039, 103.2960
139.1860, 111.1475
139.6681, 119.1296
140.1502, 126.7352
140.6323, 133.8630
141.1144, 140.7019
141.5966, 147.2617
142.0787, 153.4066
142.5608, 159.8044
143.0429, 166.7376
143.5250, 173.7522
144.0071, 179.5945
144.4893, 183.3652
144.9714, 187.3426
145.4535, 192.5405
145.9356, 199.6767
146.4177, 206.6357
146.8998, 212.7008
147.3820, 218.4848
147.8641, 227.0622
148.3462, 241.5690
148.8283, 255.8115
149.3104, 266.5161
149.7925, 269.1825
150.2747, 274.0930
150.7568, 282.3248
151.2389, 293.6343
151.7210, 305.2661
152.2031, 318.4959
152.6852, 331.1607
153.1674, 342.0591
153.6495, 349.1801
154.1316, 356.4708
154.6137, 364.8940
155.0958, 374.4980
155.5779, 382.9461
156.0601, 389.0671
156.5422, 394.3408
157.0243, 399.9579
157.5064, 406.6447
157.9885, 413.2212
158.4706, 419.4651
158.9528, 425.3880
159.4349, 430.7216
159.9170, 434.7160
160.3991, 438.2855
160.8812, 442.4871
161.3633, 446.7100
161.8455, 452.3616
162.3276, 460.5813
162.8097, 471.8849
163.2918, 483.1148
163.7739, 492.6474
164.2560, 500.7278
164.7382, 505.4425
165.2203, 510.2773
165.7024, 515.3159
166.1845, 520.0122
166.6666, 524.3961
167.1487, 528.2231
167.6309, 530.8679
168.1130, 532.9003
168.5951, 535.4749
169.0772, 539.4141
169.5593, 543.9847
170.0414, 548.8205
170.5236, 554.3981
171.0057, 559.0125
171.4878, 561.1033
171.9699, 561.2055
172.4520, 560.8853
172.9341, 560.2302
173.4163, 559.9280
173.8984, 560.9346
174.3805, 563.9903
174.8626, 567.4899
175.3447, 570.1366
175.8268, 572.0021
176.3090, 573.4140
176.7911, 574.0271
177.2732, 574.4132
177.7553, 575.5587
178.2374, 578.0381
178.7195, 581.0038
179.2017, 583.4922
179.6838, 585.5389
180.1659, 587.2455
180.6480, 588.2295
181.1301, 588.9299
181.6122, 590.4823
182.0944, 593.7482
182.5765, 597.6345
183.0586, 600.2274
183.5407, 601.5007
184.0228, 602.5596
184.5049, 604.5206
184.9871, 607.1202
185.4692, 609.3818
185.9513, 611.4022
186.4334, 612.7617
186.9155, 611.6887
187.3976, 607.9398
187.8798, 604.6400
188.3619, 605.5421
188.8440, 610.0793
189.3261, 614.6084
189.8082, 618.1771
190.2903, 620.8163
190.7725, 622.4073
191.2546, 622.8048
191.7367, 623.0306
192.2188, 624.6875
192.7009, 627.6746
193.1830, 629.7662
193.6652, 629.6332
194.1473, 627.7241
194.6294, 626.9575
195.1115, 627.5114
195.5936, 628.5974
196.0757, 628.9578
196.5579, 628.5417
197.0400, 628.8631
197.5221, 631.3798
198.0042, 635.8010
198.4863, 636.9539
198.9684, 633.7881
199.4506, 629.6783
199.9327, 630.3262
200.4148, 636.2958
200.8969, 641.7831
201.3790, 644.0276
201.8611, 642.8665
202.3433, 642.9650
202.8254, 644.6413
203.3075, 647.0497
203.7896, 648.6786
204.2717, 649.3669
204.7538, 650.0893
205.2360, 651.3168
205.7181, 653.1182
206.2002, 654.8594
206.6823, 656.8232
207.1644, 658.3897
207.6465, 657.9725
208.1287, 654.8739
208.6108, 652.2754
209.0929, 651.8840
209.5750, 654.2679
210.0571, 655.7925
210.5392, 656.2119
211.0214, 656.0228
211.5035, 656.2712
211.9856, 657.1196
212.4677, 657.9863
212.9498, 658.5787
213.4319, 658.7903
213.9140, 659.2004
214.3962, 659.9138
214.8783, 660.7607
215.3604, 661.2445
215.8425, 661.0782
216.3246, 661.1722
216.8067, 661.8561
217.2889, 663.0153
217.7710, 665.2880
218.2531, 669.5722
218.7352, 674.4932
219.2173, 676.6387
219.6994, 674.9123
220.1816, 672.4843
220.6637, 670.6611
221.1458, 669.4915
221.6279, 668.7994
222.1100, 668.6518
222.5921, 668.9600
223.0743, 669.5839
223.5564, 670.8546
224.0385, 671.8888
224.5206, 672.1302
225.0027, 671.0185
225.4848, 670.6976
225.9670, 671.4318
226.4491, 672.9088
226.9312, 674.3346
227.4133, 675.6144
227.8954, 676.9824
228.3775, 678.5093
228.8597, 680.2323
229.3418, 682.0712
229.8239, 684.1575
230.3060, 686.3004
230.7881, 687.8529
231.2702, 688.3453
231.7524, 688.9431
232.2345, 690.3334
232.7166, 693.4851
233.1987, 695.1158
233.6808, 694.6210
234.1629, 692.7575
234.6451, 691.5399
235.1272, 691.3669
235.6093, 691.2924
236.0914, 690.8488
236.5735, 689.6355
237.0556, 689.0556
237.5378, 689.3672
238.0199, 690.2657
238.5020, 690.9765
238.9841, 691.4824
239.4662, 691.8657
239.9483, 692.1515
240.4305, 692.2946
240.9126, 692.4572
241.3947, 692.7831
241.8768, 693.0701
242.3589, 692.6939
242.8410, 690.8791
243.3232, 689.5532
243.8053, 689.5428
244.2874, 691.1662
244.7695, 693.4337
245.2516, 697.0055
245.7337, 700.9764
246.2159, 703.3041
246.6980, 703.5559
247.1801, 702.8533
247.6622, 701.4750
248.1443, 699.0062
248.6264, 697.0264
249.1086, 695.5244
249.5907, 694.5089
250.0728, 693.9949
250.5549, 693.9918
251.0370, 694.4750
251.5191, 695.5673
252.0013, 697.5782
252.4834, 699.0772
252.9655, 699.8515
253.4476, 700.2118
253.9297, 700.7686
254.4118, 701.7438
254.8940, 702.4604
255.3761, 702.5282
255.8582, 701.6038
256.3403, 701.5062
256.8224, 702.7399
257.3046, 704.4210
257.7867, 704.9482
258.2688, 703.7401
258.7509, 702.6305
259.2330, 702.1358
259.7151, 702.2292
260.1973, 703.3141
260.6794, 706.0635
261.1615, 709.1487
261.6436, 710.4360
262.1257, 709.2854
262.6078, 707.8979
263.0900, 706.6893
263.5721, 705.5334
264.0542, 705.8279
264.5363, 708.2111
265.0184, 711.2625
265.5005, 713.3577
265.9827, 714.4969
266.4648, 714.5234
266.9469, 712.8337
267.4290, 709.3508
267.9111, 707.8186
268.3932, 708.7146
268.8754, 710.8376
269.3575, 713.0785
269.8396, 715.6957
270.3217, 717.5779
270.8038, 718.4843
271.2859, 718.4330
271.7681, 717.2146
272.2502, 714.1923
272.7323, 711.3307
273.2144, 710.9703
273.6965, 713.5872
274.1786, 716.1566
274.6608, 718.3549
275.1429, 720.0362
275.6250, 719.6591
276.1071, 716.4073
276.5892, 713.4406
277.0714, 714.4893
277.5535, 720.1918
278.0356, 723.9155
278.5177, 723.8187
278.9998, 720.9780
279.4819, 719.9456
279.9641, 721.0494
280.4462, 722.5840
280.9283, 723.0966
281.4104, 722.5439
281.8925, 722.4082
282.3746, 723.0508
282.8568, 724.1531
283.3389, 724.6540
283.8210, 724.4393
284.3031, 724.4664
284.7852, 725.4581
285.2673, 727.3594
285.7495, 729.5974
286.2316, 732.3079
286.7137, 734.9929
287.1958, 736.4046
287.6779, 736.4943
288.1600, 736.5192
288.6422, 737.6213
289.1243, 739.5363
289.6064, 740.1984
290.0885, 739.2188
290.5706, 737.5343
291.0527, 736.4537
291.5349, 735.9784
292.0170, 736.0455
292.4991, 736.8126
292.9812, 738.1402
293.4633, 739.6564
293.9454, 741.4854
294.4276, 742.9797
294.9097, 743.0816
295.3918, 741.9879
295.8739, 740.7032
296.3560, 739.3401
296.8381, 738.1663
297.3203, 737.8623
297.8024, 738.4528
298.2845, 739.7127
298.7666, 741.8782
299.2487, 744.5988
299.7308, 746.8734
300.2130, 748.2272
300.6951, 748.9029
301.1772, 749.2389
301.6593, 749.2411
302.1414, 749.0358
302.6235, 748.5391
303.1057, 747.9326
303.5878, 747.5665
304.0699, 747.3663
304.5520, 747.6273
305.0341, 749.2119
305.5162, 751.9160
305.9984, 754.0408
306.4805, 753.0468
306.9626, 751.0367
307.4447, 751.1942
307.9268, 755.9370
308.4089, 761.0065
308.8911, 762.4531
309.3732, 760.9008
309.8553, 758.9380
310.3374, 757.5457
310.8195, 756.7314
311.3016, 756.6061
311.7838, 757.4212
312.2659, 758.4344
312.7480, 759.5041
313.2301, 760.4353
313.7122, 760.7635
314.1943, 758.8777
314.6765, 757.2230
315.1586, 757.9910
315.6407, 762.3558
316.1228, 766.0795
316.6049, 766.4997
317.0870, 765.0182
317.5692, 763.9408
318.0513, 764.3231
318.5334, 765.0915
319.0155, 765.8145
319.4976, 766.4729
319.9797, 766.8946
320.4619, 765.9590
320.9440, 765.1064
321.4261, 765.9529
321.9082, 771.5635
322.3903, 776.3290
322.8724, 778.0432
323.3546, 776.5872
323.8367, 775.5694
324.3188, 775.9510
324.8009, 776.8910
325.2830, 777.7443
325.7651, 779.2914
326.2473, 779.8418
326.7294, 778.3241
327.2115, 775.1481
327.6936, 773.4698
328.1757, 774.4329
328.6578, 776.2628
329.1400, 778.1132
329.6221, 780.6790
330.1042, 782.2764
330.5863, 782.2844
331.0684, 781.2879
331.5505, 781.0364
332.0327, 782.1190
332.5148, 783.2204
332.9969, 783.7610
333.4790, 783.3385
333.9611, 783.4536
334.4432, 784.5443
334.9254, 785.9106
335.4075, 786.1238
335.8896, 784.1045
336.3717, 783.1436
336.8538, 784.5604
337.3359, 788.6522
337.8180, 792.2059
338.3001, 795.3567
338.7823, 797.7800
339.2644, 798.9095
339.7465, 798.5143
340.2286, 797.8534
340.7107, 797.0516
341.1928, 796.1933
341.6750, 795.8447
342.1571, 795.9196
342.6392, 796.7574
343.1213, 799.3111
343.6034, 803.6012
344.0855, 806.1160
344.5677, 805.6787
345.0498, 803.7130
345.5319, 804.0397
346.0140, 806.7474
346.4961, 809.2482
346.9782, 809.3506
347.4604, 807.6545
347.9425, 807.2302
348.4246, 808.6346
348.9067, 810.5691
349.3888, 810.9493
349.8709, 810.0718
350.3531, 809.5393
350.8352, 810.1469
351.3173, 811.6547
351.7994, 813.9974
352.2815, 817.2670
352.7636, 820.1271
353.2458, 821.1885
353.7279, 820.8758
354.2100, 820.0774
354.6921, 818.0993
355.1742, 816.4889
355.6563, 817.5367
356.1385, 820.9672
356.6206, 823.9901
357.1027, 823.8007
357.5848, 822.4481
358.0669, 822.4157
358.5490, 825.0011
359.0312, 828.0759
359.5133, 831.1648
359.9954, 833.8224
360.4775, 834.7434
360.9596, 830.5886
361.4417, 826.2488
361.9239, 825.4662
362.4060, 830.1454
362.8881, 834.4655
363.3702, 836.1920
363.8523, 836.2002
364.3344, 835.8326
364.8166, 835.0744
365.2987, 834.3546
365.7808, 833.7278
366.2629, 833.1387
366.7450, 833.1454
367.2271, 835.1264
367.7093, 837.1248
368.1914, 837.4216
368.6735, 833.0536
369.1556, 830.1130
369.6377, 830.1000
370.1198, 832.6317
370.6020, 834.4671
371.0841, 835.3758
371.5662, 835.8063
372.0483, 835.9991
372.5304, 836.0853
373.0125, 835.6222
373.4947, 834.1471
373.9768, 832.2786
374.4589, 831.5476
374.9410, 832.4439
375.4231, 833.4809
375.9052, 834.2468
376.3874, 834.8107
376.8695, 834.2493
377.3516, 831.8221
377.8337, 829.5135
378.3158, 830.4240
378.7979, 835.1584
379.2801, 838.4951
379.7622, 838.4279
380.2443, 835.9221
380.7264, 835.5693
381.2085, 837.6230
381.6906, 840.0397
382.1728, 841.1391
382.6549, 841.0725
383.1370, 840.6446
383.6191, 839.7794
384.1012, 838.9809
384.5833, 839.0805
385.0655, 840.0333
385.5476, 841.4453
386.0297, 843.9828
386.5118, 846.6299
386.9939, 847.1435
387.4760, 845.0577
387.9582, 842.8262
388.4403, 842.6757
388.9224, 844.0870
389.4045, 845.9553
389.8866, 848.4075
390.3687, 850.7294
390.8509, 852.3719
391.3330, 853.3253
391.8151, 853.6249
392.2972, 852.2935
392.7793, 850.7608
393.2614, 850.4972
393.7436, 852.9638
394.2257, 855.2084
394.7078, 855.7230
395.1899, 855.0364
395.6720, 854.5349
396.1541, 854.8874
396.6363, 855.3549
397.1184, 855.6909
397.6005, 856.0322
398.0826, 855.7484
398.5647, 854.0270
399.0468, 851.8809
399.5290, 850.5361
400.0111, 850.9984
400.4932, 851.2704
400.9753, 850.7047
401.4574, 849.3066
401.9395, 849.0441
402.4217, 850.6913
402.9038, 852.6396
403.3859, 853.7554
403.8680, 853.5018
404.3501, 853.7175
404.8322, 854.7543
405.3144, 856.2175
405.7965, 856.9454
406.2786, 856.7008
406.7607, 856.5222
407.2428, 857.0358
407.7249, 858.2820
408.2071, 858.8005
408.6892, 858.4457
409.1713, 857.7953
409.6534, 857.6296
410.1355, 857.9185
410.6176, 857.9827
411.0998, 857.3953
411.5819, 856.6041
412.0640, 856.9241
412.5461, 858.3077
413.0282, 859.5886
413.5103, 859.7372
413.9925, 859.1464
414.4746, 858.4977
414.9567, 857.7386
415.4388, 857.4343
415.9209, 859.1699
416.4030, 861.8975
416.8852, 863.0579
417.3673, 859.5577
417.8494, 855.1254
418.3315, 852.9493
418.8136, 853.2491
419.2957, 853.9835
419.7779, 853.8184
420.2600, 853.6086
420.7421, 854.2165
421.2242, 857.6725
421.7063, 860.1334
422.1884, 859.3743
422.6706, 856.3908
423.1527, 854.9080
423.6348, 857.5959
424.1169, 860.5433
424.5990, 861.8749
425.0811, 860.4533
425.5633, 859.7012
426.0454, 860.1281
426.5275, 861.1230
427.0096, 861.9520
427.4917, 862.7233
427.9738, 863.1221
428.4560, 862.7709
428.9381, 861.7452
429.4202, 862.0566
429.9023, 864.3672
430.3844, 866.7662
430.8665, 867.6490
431.3487, 866.6688
431.8308, 866.2773
432.3129, 866.7615
432.7950, 867.8109
433.2771, 868.9666
433.7592, 870.2313
434.2414, 871.1089
434.7235, 871.1230
435.2056, 870.5202
435.6877, 870.3140
436.1698, 870.5147
436.6519, 870.9131
437.1341, 871.4557
437.6162, 872.0363
438.0983, 872.3243
438.5804, 871.9472
439.0625, 871.6582
439.5446, 872.9562
440.0268, 875.2802
440.5089, 876.5641
440.9910, 874.1181
441.4731, 870.9841
441.9552, 870.1748
442.4373, 872.4901
442.9195, 874.6475
443.4016, 874.7784
443.8837, 873.8814
444.3658, 873.1697
444.8479, 872.8561
445.3300, 872.9318
445.8122, 873.6286
446.2943, 874.8428
446.7764, 875.7438
447.2585, 875.7411
447.7406, 875.7509
448.2227, 876.2833
448.7049, 877.8813
449.1870, 878.9400
449.6691, 879.2155
450.1512, 879.0670
450.6333, 879.0331
451.1154, 879.1094
451.5976, 879.2978
452.0797, 879.5616
452.5618, 879.9123
453.0439, 880.7803
453.5260, 882.4799
454.0081, 883.6706
454.4903, 882.6451
454.9724, 879.4632
455.4545, 878.0436
455.9366, 879.2868
456.4187, 881.6099
456.9008, 882.2333
457.3830, 881.3588
457.8651, 880.5059
458.3472, 880.3679
458.8293, 880.7350
459.3114, 881.2259
459.7935, 881.8362
460.2757, 882.6937
460.7578, 884.2214
461.2399, 885.9562
461.7220, 887.2926
462.2041, 888.2342
462.6862, 888.4799
463.1684, 886.8563
463.6505, 884.3471
464.1326, 883.2765
464.6147, 886.8463
465.0968, 890.2104
465.5789, 890.3133
466.0611, 886.3987
466.5432, 883.5648
467.0253, 882.7490
467.5074, 883.4771
467.9895, 885.3734
468.4716, 890.7115
468.9538, 894.2873
469.4359, 895.2830
469.9180, 894.3051
470.4001, 893.1104
470.8822, 891.3193
471.3643, 890.0507
471.8465, 890.0571
472.3286, 891.5782
472.8107, 891.7912
473.2928, 890.3309
473.7749, 888.5043
474.2570, 887.8867
474.7392, 888.4737
475.2213, 888.9265
475.7034, 888.9260
476.1855, 888.6646
476.6676, 888.0333
477.1497, 887.1860
477.6319, 887.5795
478.1140, 891.7182
478.5961, 897.1406
479.0782, 899.3447
479.5603, 897.8489
480.0424, 895.6680
480.5246, 894.7424
481.0067, 894.8004
481.4888, 895.4777
481.9709, 897.2626
482.4530, 898.9318
482.9352, 899.7637
483.4173, 899.9514
483.8994, 900.1088
484.3815, 900.1268
484.8636, 900.4188
485.3457, 901.3547
485.8279, 903.2958
486.3100, 904.5955
486.7921, 904.8434
487.2742, 904.5381
487.7563, 904.1122
488.2384, 903.7051
488.7206, 902.8754
489.2027, 901.1873
489.6848, 899.1066
490.1669, 898.4933
490.6490, 899.7985
491.1311, 901.2347
491.6133, 901.7509
492.0954, 901.3807
492.5775, 902.1439
493.0596, 904.3063
493.5417, 906.4848
494.0238, 906.5676
494.5060, 905.1492
494.9881, 905.2403
495.4702, 908.3738
495.9523, 912.1052
496.4344, 912.6083
496.9165, 910.5524
497.3987, 908.4628
497.8808, 907.1132
498.3629, 906.7574
498.8450, 908.0312
499.3271, 911.0566
499.8092, 913.8708
500.2914, 915.7607
500.7735, 916.7786
501.2556, 917.0153
501.7377, 915.8291
502.2198, 914.6354
502.7019, 913.4670
503.1841, 912.4875
503.6662, 912.1353
504.1483, 912.7625
504.6304, 913.7003
505.1125, 914.9647
505.5946, 916.6534
506.0768, 917.4695
506.5589, 916.9767
507.0410, 916.2741
507.5231, 916.2509
508.0052, 916.9849
508.4873, 918.1288
508.9695, 920.0398
509.4516, 921.7089
509.9337, 920.1426
510.4158, 915.6015
510.8979, 913.0881
511.3800, 916.3075
511.8622, 922.5551
512.3443, 925.7665
512.8264, 926.0150
513.3085, 925.2711
513.7906, 924.5714
514.2728, 923.9326
514.7549, 923.3932
515.2370, 922.9902
515.7191, 922.5995
516.2012, 921.7242
516.6833, 920.9078
517.1655, 920.9660
517.6476, 923.5831
518.1297, 925.7206
518.6118, 925.8441
519.0939, 924.1757
519.5760, 923.4225
520.0582, 924.8488
520.5403, 926.4569
521.0224, 927.3875
521.5045, 927.3980
521.9866, 927.3881
522.4688, 927.1412
522.9509, 927.0982
523.4330, 927.8807
523.9151, 929.6142
524.3972, 931.5736
524.8793, 933.9472
525.3615, 936.1341
525.8436, 935.9033
526.3257, 933.3004
526.8078, 931.4752
527.2899, 933.1349
527.7720, 936.7480
528.2542, 938.9171
528.7363, 939.4866
529.2184, 939.0889
529.7005, 937.3963
530.1826, 935.3370
530.6647, 934.1910
531.1469, 934.5341
531.6290, 935.5157
532.1111, 936.8707
532.5932, 938.5109
533.0753, 940.2510
533.5574, 943.0168
534.0396, 944.9373
534.5217, 944.8215
535.0038, 942.4673
535.4859, 941.4313
535.9680, 942.8793
536.4501, 944.5820
536.9323, 945.1044
537.4144, 943.5520
537.8965, 943.5636
538.3786, 945.9946
538.8607, 948.9437
539.3428, 948.8923
539.8250, 945.5188
540.3071, 943.8523
540.7892, 946.2805
541.2713, 950.5973
541.7534, 950.8769
542.2355, 947.4583
542.7177, 943.8828
543.1998, 941.9281
543.6819, 941.3973
544.1640, 942.4098
544.6461, 945.0417
545.1282, 947.5324
545.6104, 948.6370
546.0925, 948.8947
546.5746, 948.8922
547.0567, 948.6536
547.5388, 948.3552
548.0209, 947.6906
548.5031, 947.0211
548.9852, 947.1276
549.4673, 949.2336
549.9494, 950.9625
550.4315, 951.7640
550.9136, 951.6410
551.3958, 950.8184
551.8779, 948.5765
552.3600, 946.8528
552.8421, 947.1479
553.3242, 949.7361
553.8063, 951.8455
554.2885, 953.4564
554.7706, 954.3225
555.2527, 953.4825
555.7348, 951.3074
556.2169, 950.2346
556.6990, 951.5676
557.1812, 953.6265
557.6633, 953.7225
558.1454, 952.3756
558.6275, 951.5446
559.1096, 952.9210
559.5917, 954.8895
560.0739, 956.2258
560.5560, 956.8488
561.0381, 957.0567
561.5202, 956.9604
562.0023, 956.5023
562.4844, 955.5756
562.9666, 952.9980
563.4487, 951.7349
563.9308, 952.2743
564.4129, 954.0187
564.8950, 956.1644
565.3771, 958.8879
565.8593, 961.6260
566.3414, 964.6529
566.8235, 967.5276
567.3056, 967.8652
567.7877, 965.2819
568.2698, 962.8942
568.7520, 963.0302
569.2341, 964.9364
569.7162, 965.3947
570.1983, 964.1999
570.6804, 963.3312
571.1625, 965.4923
571.6447, 969.0090
572.1268, 971.1625
572.6089, 971.1145
573.0910, 970.0541
573.5731, 967.8997
574.0552, 965.4079
574.5374, 963.8503
575.0195, 964.7630
575.5016, 965.5794
575.9837, 965.1080
576.4658, 963.5125
576.9479, 963.0115
577.4301, 964.8524
577.9122, 966.3740
578.3943, 966.1039
578.8764, 963.4037
579.3585, 962.7328
579.8406, 964.6691
580.3228, 967.3420
580.8049, 968.5970
581.2870, 968.5386
581.7691, 969.4897
582.2512, 972.2476
582.7333, 975.1559
583.2155, 975.0941
583.6975, 972.9779
584.1796, 971.7120
584.6617, 973.0717
