##NAMES=Yugawaralite
##RRUFFID=R050407
##IDEAL CHEMISTRY=Ca(Si_6_Al_2_)O_16_&#183;4H_2_O
##LOCALITY=Malad quarry, Mumbai, Maharashtra, India
##OWNER=RRUFF
##SOURCE=G.R. Rossman
##DESCRIPTION=Group of colorless flat tabular crystals
##STATUS=The identification of this mineral has been confirmed by X-ray diffraction and chemical analysis
##URL=rruff.info/R050407
##MEASURED CHEMISTRY=Ca_1.00_(Si_6.00_Al_2.00_)O_16_Â·4H_2_O
92.35352, 34.66330
92.83563, 33.30056
93.31775, 32.72084
93.79987, 33.06520
94.28198, 34.21173
94.76410, 35.87866
95.24622, 38.13797
95.72833, 40.74952
96.21045, 43.10103
96.69257, 45.18137
97.17468, 47.35579
97.65680, 49.82713
98.13892, 52.60682
98.62103, 55.87681
99.10315, 59.57500
99.58527, 63.75264
100.0674, 68.56850
100.5495, 73.93142
101.0316, 80.04566
101.5137, 87.05743
101.9958, 95.03473
102.4780, 103.8338
102.9601, 113.4139
103.4422, 123.8187
103.9243, 134.6866
104.4064, 146.1790
104.8885, 158.0891
105.3707, 170.3457
105.8528, 182.9169
106.3349, 195.7366
106.8170, 208.8145
107.2991, 222.9858
107.7813, 235.8160
108.2634, 246.7715
108.7455, 256.3652
109.2276, 265.9239
109.7097, 274.9783
110.1918, 284.4334
110.6740, 294.6802
111.1561, 305.9787
111.6382, 317.7888
112.1203, 329.7963
112.6024, 342.2214
113.0845, 355.7383
113.5667, 370.6577
114.0488, 386.5306
114.5309, 403.2342
115.0130, 421.0880
115.4951, 439.2829
115.9772, 457.9149
116.4594, 477.1124
116.9415, 495.8704
117.4236, 513.3807
117.9057, 530.4250
118.3878, 547.7647
118.8699, 566.7695
119.3521, 585.5273
119.8342, 603.4760
120.3163, 620.6420
120.7984, 636.2263
121.2805, 649.7798
121.7626, 661.4195
122.2448, 671.3450
122.7269, 680.3961
123.2090, 687.4172
123.6911, 690.9584
124.1732, 690.5206
124.6553, 688.0514
125.1375, 684.4236
125.6196, 680.0048
126.1017, 675.9589
126.5838, 672.1437
127.0659, 669.2961
127.5480, 669.1620
128.0302, 672.8055
128.5123, 677.4875
128.9944, 678.7009
129.4765, 676.8566
129.9586, 675.7954
130.4407, 678.3962
130.9229, 684.1345
131.4050, 690.9465
131.8871, 698.2895
132.3692, 706.4282
132.8513, 715.9242
133.3334, 725.6769
133.8156, 733.0447
134.2977, 738.4406
134.7798, 744.4083
135.2619, 750.8278
135.7440, 757.4818
136.2261, 764.5150
136.7083, 773.5030
137.1904, 784.8209
137.6725, 796.9914
138.1546, 808.5997
138.6367, 819.5372
139.1188, 830.9193
139.6010, 843.4161
140.0831, 856.9915
140.5652, 869.5381
141.0473, 880.7697
141.5294, 891.5918
142.0115, 902.8878
142.4937, 914.5695
142.9758, 927.0764
143.4579, 940.6581
143.9400, 955.2607
144.4221, 970.7785
144.9042, 987.5698
145.3864, 1005.043
145.8685, 1021.721
146.3506, 1036.751
146.8327, 1052.303
147.3148, 1069.525
147.7969, 1089.894
148.2791, 1108.333
148.7612, 1123.682
149.2433, 1137.180
149.7254, 1151.963
150.2075, 1169.120
150.6896, 1186.536
151.1718, 1203.326
151.6539, 1219.290
152.1360, 1235.012
152.6181, 1250.731
153.1002, 1266.275
153.5823, 1281.028
154.0645, 1294.729
154.5466, 1307.958
155.0287, 1321.005
155.5108, 1336.129
155.9929, 1348.632
156.4750, 1356.978
156.9572, 1361.863
157.4393, 1365.887
157.9214, 1369.708
158.4035, 1372.819
158.8856, 1374.923
159.3677, 1377.723
159.8499, 1377.774
160.3320, 1373.840
160.8141, 1366.242
161.2962, 1356.548
161.7783, 1344.129
162.2604, 1330.494
162.7426, 1316.891
163.2247, 1304.231
163.7068, 1291.212
164.1889, 1276.370
164.6710, 1260.047
165.1531, 1245.268
165.6353, 1234.290
166.1174, 1225.375
166.5995, 1216.654
167.0816, 1206.120
167.5637, 1196.521
168.0458, 1189.387
168.5280, 1184.796
169.0101, 1182.430
169.4922, 1182.603
169.9743, 1184.791
170.4564, 1188.285
170.9385, 1193.103
171.4207, 1198.907
171.9028, 1205.458
172.3849, 1212.722
172.8670, 1220.677
173.3491, 1229.260
173.8312, 1238.570
174.3134, 1248.843
174.7955, 1260.857
175.2776, 1273.498
175.7597, 1285.096
176.2418, 1295.508
176.7239, 1306.197
177.2061, 1319.237
177.6882, 1334.009
178.1703, 1348.552
178.6524, 1362.131
179.1345, 1375.013
179.6166, 1387.305
180.0988, 1399.055
180.5809, 1410.653
181.0630, 1422.873
181.5451, 1435.546
182.0272, 1447.467
182.5093, 1457.781
182.9915, 1467.032
183.4736, 1476.434
183.9557, 1486.256
184.4378, 1495.840
184.9199, 1505.119
185.4020, 1513.750
185.8842, 1520.526
186.3663, 1524.681
186.8484, 1526.383
187.3305, 1525.993
187.8126, 1523.442
188.2947, 1519.085
188.7769, 1513.640
189.2590, 1507.081
189.7411, 1498.655
190.2232, 1487.349
190.7053, 1473.529
191.1874, 1459.283
191.6696, 1444.654
192.1517, 1429.610
192.6338, 1414.288
193.1159, 1398.730
193.5980, 1381.865
194.0801, 1362.475
194.5623, 1340.841
195.0444, 1319.464
195.5265, 1298.468
196.0086, 1278.187
196.4907, 1259.795
196.9728, 1243.522
197.4550, 1227.120
197.9371, 1208.916
198.4192, 1188.870
198.9013, 1169.479
199.3834, 1150.921
199.8655, 1133.243
200.3477, 1116.191
200.8298, 1099.735
201.3119, 1084.239
201.7940, 1070.246
202.2761, 1057.989
202.7582, 1044.678
203.2404, 1029.985
203.7225, 1014.176
204.2046, 997.6637
204.6867, 980.1144
205.1688, 962.9561
205.6509, 947.3299
206.1331, 933.3210
206.6152, 919.8199
207.0973, 906.9408
207.5794, 894.4020
208.0615, 881.1974
208.5436, 867.0126
209.0258, 852.9232
209.5079, 839.3862
209.9900, 826.1450
210.4721, 815.0192
210.9542, 806.8090
211.4363, 800.5811
211.9185, 792.9946
212.4006, 783.3054
212.8827, 773.7782
213.3648, 766.0555
213.8469, 760.4342
214.3290, 755.0450
214.8112, 749.2836
215.2933, 743.7639
215.7754, 740.8334
216.2575, 741.6121
216.7396, 742.8510
217.2217, 742.5543
217.7038, 740.1528
218.1860, 737.8671
218.6681, 735.4767
219.1502, 733.3693
219.6323, 733.2353
220.1144, 735.9440
220.5965, 739.1493
221.0787, 741.3274
221.5608, 741.6283
222.0429, 743.3273
222.5250, 747.2313
223.0071, 752.6194
223.4892, 756.5385
223.9714, 758.1486
224.4535, 759.6898
224.9356, 762.6291
225.4177, 768.1262
225.8998, 772.1878
226.3819, 774.4889
226.8641, 775.2524
227.3462, 775.1520
227.8283, 774.1694
228.3104, 772.3490
228.7925, 769.6644
229.2746, 765.7645
229.7568, 761.6796
230.2389, 757.4568
230.7210, 753.0258
231.2031, 748.2623
231.6852, 742.9528
232.1673, 737.6276
232.6495, 732.6425
233.1316, 728.3589
233.6137, 723.5211
234.0958, 717.5773
234.5779, 711.2264
235.0600, 706.6176
235.5422, 704.5073
236.0243, 702.9786
236.5064, 701.1972
236.9885, 699.0062
237.4706, 696.9163
237.9527, 694.9835
238.4349, 693.1628
238.9170, 691.3796
239.3991, 689.7028
239.8812, 687.9584
240.3633, 686.0969
240.8454, 684.1997
241.3276, 682.0192
241.8097, 679.7708
242.2918, 677.1879
242.7739, 673.6786
243.2560, 669.0184
243.7381, 663.7818
244.2203, 658.1450
244.7024, 652.0319
245.1845, 645.7899
245.6666, 639.7084
246.1487, 633.3757
246.6308, 625.6954
247.1130, 615.6430
247.5951, 605.8815
248.0772, 597.5323
248.5593, 590.9935
249.0414, 584.2003
249.5235, 576.8740
250.0057, 569.4743
250.4878, 562.6085
250.9699, 556.2988
251.4520, 550.4425
251.9341, 544.9528
252.4162, 539.6320
252.8984, 535.5498
253.3805, 533.0760
253.8626, 531.5404
254.3447, 530.0665
254.8268, 528.6896
255.3089, 527.2487
255.7911, 525.6022
256.2732, 523.6466
256.7553, 522.2623
257.2374, 521.3955
257.7195, 521.1569
258.2017, 521.7891
258.6838, 523.7125
259.1659, 525.5626
259.6480, 526.9896
260.1301, 527.9622
260.6122, 529.0408
261.0944, 530.2119
261.5765, 531.5161
262.0586, 532.9740
262.5407, 534.5167
263.0228, 536.4381
263.5049, 539.0173
263.9871, 542.2210
264.4692, 544.4954
264.9513, 545.6028
265.4334, 546.2016
265.9155, 546.8901
266.3976, 547.6998
266.8798, 548.4877
267.3619, 549.3881
267.8440, 550.2965
268.3261, 550.1088
268.8082, 548.3275
269.2903, 546.4937
269.7725, 546.1520
270.2546, 547.8438
270.7367, 548.4659
271.2188, 547.2371
271.7009, 544.6721
272.1830, 542.9383
272.6652, 542.2210
273.1473, 541.8577
273.6294, 541.5306
274.1115, 541.3168
274.5936, 540.5641
275.0757, 539.0147
275.5579, 537.0090
276.0400, 535.6105
276.5221, 534.9262
277.0042, 534.3987
277.4863, 533.6586
277.9684, 532.6716
278.4506, 532.0417
278.9327, 532.0748
279.4148, 532.1537
279.8969, 530.6957
280.3790, 527.4722
280.8611, 524.3520
281.3433, 522.5927
281.8254, 522.1735
282.3075, 520.8437
282.7896, 518.3805
283.2717, 515.3383
283.7538, 512.4403
284.2360, 509.6805
284.7181, 507.2723
285.2002, 505.3600
285.6823, 503.9120
286.1644, 502.5195
286.6465, 501.0803
287.1287, 500.0985
287.6108, 500.6270
288.0929, 502.5638
288.5750, 504.0602
289.0571, 504.0274
289.5392, 502.9927
290.0214, 503.2177
290.5035, 504.8166
290.9856, 506.7014
291.4677, 507.4150
291.9498, 507.2377
292.4319, 507.9204
292.9141, 510.3991
293.3962, 513.8668
293.8783, 516.5901
294.3604, 518.5566
294.8425, 519.8899
295.3246, 520.3878
295.8068, 520.2994
296.2889, 520.4362
296.7710, 521.0190
297.2531, 521.8999
297.7352, 522.9967
298.2173, 524.2587
298.6995, 525.2850
299.1816, 525.8822
299.6637, 526.0135
300.1458, 525.4866
300.6279, 524.0658
301.1100, 522.3965
301.5922, 521.1017
302.0743, 520.1959
302.5564, 519.7567
303.0385, 519.9573
303.5206, 520.5941
304.0027, 521.4872
304.4849, 522.6906
304.9670, 523.7743
305.4491, 524.1362
305.9312, 524.0358
306.4133, 524.0964
306.8954, 524.1647
307.3776, 524.8052
307.8597, 526.8055
308.3418, 530.3251
308.8239, 534.1721
309.3060, 537.0551
309.7881, 539.7892
310.2703, 543.5558
310.7524, 549.2782
311.2345, 555.9268
311.7166, 562.9751
312.1987, 570.3841
312.6808, 577.6132
313.1630, 584.7474
313.6451, 591.4581
314.1272, 597.4480
314.6093, 602.1179
315.0914, 606.4246
315.5735, 610.8593
316.0557, 615.3199
316.5378, 619.2850
317.0199, 622.6920
317.5020, 625.4135
317.9841, 627.4921
318.4662, 629.6528
318.9484, 630.0065
319.4305, 627.3478
319.9126, 622.3537
320.3947, 616.7988
320.8768, 612.6697
321.3589, 607.0018
321.8411, 597.6602
322.3232, 582.2179
322.8053, 568.6827
323.2874, 560.3082
323.7695, 554.4535
324.2516, 546.9370
324.7338, 535.0791
325.2159, 523.3412
325.6980, 513.0823
326.1801, 504.5424
326.6622, 496.5611
327.1443, 488.7728
327.6265, 481.5692
328.1086, 475.3287
328.5907, 470.4131
329.0728, 466.1330
329.5549, 462.4177
330.0370, 459.2569
330.5192, 456.6768
331.0013, 454.9869
331.4834, 453.5978
331.9655, 451.9981
332.4476, 449.2847
332.9297, 447.9308
333.4119, 448.4291
333.8940, 450.4727
334.3761, 452.7992
334.8582, 455.4294
335.3403, 458.2144
335.8224, 461.0905
336.3046, 464.1135
336.7867, 466.9792
337.2688, 469.3811
337.7509, 471.8607
338.2330, 475.6652
338.7151, 481.0126
339.1973, 486.9256
339.6794, 493.1382
340.1615, 499.6004
340.6436, 506.3495
341.1257, 513.3153
341.6078, 520.5871
342.0899, 528.4406
342.5721, 536.7988
343.0542, 545.0445
343.5363, 552.7056
344.0184, 560.0468
344.5005, 568.6636
344.9826, 578.6399
345.4648, 588.7892
345.9469, 597.9760
346.4290, 606.3615
346.9111, 614.2654
347.3932, 621.8629
347.8753, 628.9503
348.3575, 634.9520
348.8396, 639.8653
349.3217, 644.0468
349.8038, 648.1249
350.2859, 651.5697
350.7680, 653.2399
351.2502, 653.0864
351.7323, 650.7838
352.2144, 645.7322
352.6965, 638.1608
353.1786, 628.9044
353.6607, 617.4440
354.1429, 604.9755
354.6250, 592.7257
355.1071, 580.7441
355.5892, 569.4618
356.0713, 558.7570
356.5534, 549.0704
357.0356, 541.0586
357.5177, 535.5712
357.9998, 531.3019
358.4819, 527.4066
358.9640, 523.9627
359.4461, 521.5351
359.9283, 520.8564
360.4104, 521.0799
360.8925, 521.5687
361.3746, 522.4587
361.8567, 523.0963
362.3388, 523.1357
362.8210, 522.7161
363.3031, 522.1629
363.7852, 522.0548
364.2673, 521.4466
364.7494, 519.8527
365.2315, 517.0820
365.7137, 513.8293
366.1958, 510.5775
366.6779, 506.8276
367.1600, 501.9627
367.6421, 494.4670
368.1242, 487.3536
368.6064, 481.4788
369.0885, 476.9120
369.5706, 471.8394
370.0527, 465.9418
370.5348, 459.7656
371.0169, 453.5409
371.4991, 447.0058
371.9812, 441.0134
372.4633, 435.8829
372.9454, 431.3090
373.4275, 426.2613
373.9096, 420.3026
374.3918, 414.5344
374.8739, 409.5747
375.3560, 405.4745
375.8381, 401.6613
376.3202, 398.1035
376.8023, 394.9232
377.2845, 392.2433
377.7666, 390.0235
378.2487, 388.6356
378.7308, 388.3074
379.2129, 388.9482
379.6950, 390.1165
380.1772, 391.8864
380.6593, 393.8392
381.1414, 395.2903
381.6235, 396.3789
382.1056, 398.6190
382.5877, 402.5035
383.0699, 407.4242
383.5520, 412.1336
384.0341, 416.7441
384.5162, 421.9443
384.9983, 428.3981
385.4804, 435.7803
385.9626, 443.4145
386.4447, 451.2011
386.9268, 459.4116
387.4089, 468.4928
387.8910, 478.2500
388.3731, 488.0384
388.8553, 496.9721
389.3374, 506.2069
389.8195, 517.0831
390.3016, 529.3792
390.7837, 541.7411
391.2658, 553.1905
391.7480, 564.1735
392.2301, 575.1403
392.7122, 586.1001
393.1943, 597.2169
393.6764, 608.5262
394.1585, 620.0372
394.6407, 631.5352
395.1228, 642.7081
395.6049, 654.1221
396.0870, 666.3937
396.5691, 680.0029
397.0512, 692.8842
397.5334, 704.5765
398.0155, 715.4031
398.4976, 725.6155
398.9797, 735.3710
399.4618, 744.4589
399.9439, 752.7452
400.4261, 760.2226
400.9082, 767.4832
401.3903, 775.3735
401.8724, 782.2197
402.3545, 786.8610
402.8366, 788.3889
403.3188, 789.5766
403.8009, 790.6183
404.2830, 791.3898
404.7651, 791.6872
405.2472, 791.7142
405.7293, 790.7034
406.2115, 788.3172
406.6936, 784.5727
407.1757, 779.4951
407.6578, 772.6402
408.1399, 765.6346
408.6220, 760.5825
409.1042, 757.4346
409.5863, 753.8073
410.0684, 748.8900
410.5505, 743.2442
411.0326, 737.4470
411.5147, 731.5258
411.9969, 726.9267
412.4790, 725.2833
412.9611, 725.6407
413.4432, 725.6653
413.9253, 724.9196
414.4074, 724.3291
414.8896, 724.7288
415.3717, 726.0405
415.8538, 728.0959
416.3359, 731.0983
416.8180, 734.6140
417.3001, 737.9641
417.7823, 741.2180
418.2644, 745.3759
418.7465, 751.8093
419.2286, 759.1471
419.7107, 765.9051
420.1928, 770.6133
420.6750, 776.2568
421.1571, 784.3487
421.6392, 794.2948
422.1213, 804.3629
422.6034, 814.1951
423.0855, 823.9305
423.5677, 833.5835
424.0498, 842.8644
424.5319, 852.9002
425.0140, 864.4461
425.4961, 876.5824
425.9782, 888.4090
426.4604, 899.6110
426.9425, 911.0443
427.4246, 923.2369
427.9067, 935.9894
428.3888, 946.9755
428.8709, 955.5297
429.3531, 963.4702
429.8352, 971.9771
430.3173, 981.1403
430.7994, 989.6382
431.2815, 997.0973
431.7636, 1004.373
432.2458, 1013.006
432.7279, 1023.099
433.2100, 1032.528
433.6921, 1039.767
434.1742, 1045.899
434.6563, 1054.973
435.1385, 1067.157
435.6206, 1080.305
436.1027, 1092.631
436.5848, 1104.514
437.0669, 1117.071
437.5490, 1130.738
438.0312, 1144.675
438.5133, 1158.119
438.9954, 1171.229
439.4775, 1184.424
439.9596, 1199.086
440.4417, 1213.224
440.9239, 1225.162
441.4060, 1234.816
441.8881, 1242.676
442.3702, 1248.910
442.8523, 1253.449
443.3344, 1256.273
443.8166, 1257.521
444.2987, 1256.860
444.7808, 1254.352
445.2629, 1249.862
445.7450, 1242.955
446.2271, 1232.636
446.7093, 1220.805
447.1914, 1208.157
447.6735, 1194.761
448.1556, 1180.170
448.6377, 1163.655
449.1198, 1146.574
449.6020, 1130.330
450.0841, 1115.994
450.5662, 1100.942
451.0483, 1084.634
451.5304, 1067.271
452.0125, 1050.129
452.4947, 1033.042
452.9768, 1016.250
453.4589, 999.5505
453.9410, 982.7867
454.4231, 967.3615
454.9052, 953.3134
455.3874, 939.8167
455.8695, 924.9402
456.3516, 909.0219
456.8337, 895.1019
457.3158, 884.2031
457.7979, 875.6380
458.2801, 867.9572
458.7622, 861.3081
459.2443, 856.5122
459.7264, 854.6525
460.2085, 854.8581
460.6906, 856.1057
461.1728, 858.2752
461.6549, 861.3682
462.1370, 865.3141
462.6191, 870.1719
463.1012, 875.9491
463.5833, 882.6676
464.0655, 890.2896
464.5476, 899.2274
465.0297, 909.2374
465.5118, 918.8065
465.9939, 927.3102
466.4760, 935.2111
466.9582, 942.6664
467.4403, 949.4781
467.9224, 956.3536
468.4045, 963.6872
468.8866, 970.8959
469.3687, 977.1403
469.8509, 981.4106
470.3330, 986.3895
470.8151, 992.8595
471.2972, 1000.672
471.7793, 1008.216
472.2614, 1015.570
472.7436, 1022.670
473.2257, 1029.291
473.7078, 1035.445
474.1899, 1042.631
474.6720, 1051.589
475.1541, 1060.000
475.6363, 1064.037
476.1184, 1064.176
476.6005, 1063.519
477.0826, 1063.939
477.5647, 1063.923
478.0468, 1060.712
478.5290, 1054.494
479.0111, 1046.985
479.4932, 1040.012
479.9753, 1032.161
480.4574, 1021.746
480.9395, 1008.331
481.4217, 992.6579
481.9038, 975.1354
482.3859, 955.9067
482.8680, 935.3646
483.3501, 913.2834
483.8322, 890.2437
484.3144, 866.1652
484.7965, 841.2872
485.2786, 815.9471
485.7607, 789.8217
486.2428, 763.8419
486.7249, 738.4596
487.2071, 714.5487
487.6892, 689.8574
488.1713, 663.3287
488.6534, 636.8105
489.1355, 612.5223
489.6176, 590.5057
490.0998, 570.3510
490.5819, 551.8784
491.0640, 534.8669
491.5461, 518.5895
492.0282, 502.9103
492.5103, 488.3262
492.9925, 475.7629
493.4746, 464.7189
493.9567, 453.5325
494.4388, 441.8451
494.9209, 430.3687
495.4030, 419.4684
495.8852, 409.3094
496.3673, 400.0302
496.8494, 392.0419
497.3315, 384.7200
497.8136, 377.5140
498.2957, 370.4230
498.7779, 363.7624
499.2600, 357.6938
499.7421, 352.0194
500.2242, 346.6518
500.7063, 341.5759
501.1884, 336.5754
501.6706, 331.6544
502.1527, 326.7835
502.6348, 322.0166
503.1169, 317.1572
503.5990, 312.6639
504.0811, 308.6866
504.5633, 305.1572
505.0454, 301.7136
505.5275, 298.3259
506.0096, 295.1854
506.4917, 292.4972
506.9738, 290.3072
507.4560, 287.6195
507.9381, 284.2728
508.4202, 280.8580
508.9023, 277.9310
509.3844, 275.4827
509.8665, 273.3971
510.3487, 271.7081
510.8308, 270.2711
511.3129, 268.9052
511.7950, 267.5988
512.2772, 266.2926
512.7593, 265.0344
513.2414, 263.7206
513.7235, 262.1414
514.2056, 260.3073
514.6877, 258.5096
515.1699, 256.8260
515.6520, 255.3175
516.1341, 254.0513
516.6162, 253.0961
517.0983, 252.2663
517.5804, 251.5293
518.0626, 250.8620
518.5447, 250.2278
519.0268, 249.4908
519.5089, 248.9260
519.9910, 248.6851
520.4731, 248.7359
520.9553, 248.6095
521.4374, 248.3390
521.9195, 247.8492
522.4016, 246.8823
522.8837, 245.1510
523.3658, 244.6866
523.8480, 245.8755
524.3301, 247.5557
524.8122, 248.1207
525.2943, 247.6357
525.7764, 247.0776
526.2585, 246.5710
526.7407, 246.3039
527.2228, 246.7723
527.7049, 247.8717
528.1870, 248.9681
528.6691, 249.2977
529.1512, 249.6209
529.6334, 251.0502
530.1155, 253.7098
530.5976, 256.2095
531.0797, 257.5542
531.5618, 258.4293
532.0439, 259.4750
532.5261, 260.6952
533.0082, 262.3315
533.4903, 264.7857
533.9724, 267.6744
534.4545, 270.2342
534.9366, 271.7450
535.4188, 273.6570
535.9009, 276.4172
536.3830, 280.0034
536.8651, 283.3359
537.3472, 286.2779
537.8293, 289.2343
538.3115, 292.5026
538.7936, 296.1092
539.2757, 299.5204
539.7578, 302.6729
540.2399, 305.6742
540.7220, 308.4806
541.2042, 311.1818
541.6863, 314.5468
542.1684, 319.2017
542.6505, 324.2177
543.1326, 328.2514
543.6147, 331.4733
544.0969, 334.6450
544.5790, 338.2047
545.0611, 341.8161
545.5432, 345.2994
546.0253, 348.6394
546.5074, 351.5088
546.9896, 353.5177
547.4717, 355.1068
547.9538, 356.6377
548.4359, 358.4762
548.9180, 359.8441
549.4001, 360.7956
549.8823, 361.2326
550.3644, 360.9729
550.8465, 359.9641
551.3286, 358.3535
551.8107, 356.1734
552.2928, 353.4112
552.7750, 350.0161
553.2571, 345.9150
553.7392, 341.4763
554.2213, 336.8665
554.7034, 332.1277
555.1855, 327.3175
555.6677, 322.4616
556.1498, 317.3337
556.6319, 311.7642
557.1140, 305.7840
557.5961, 299.4404
558.0782, 292.4953
558.5604, 285.5887
559.0425, 279.3206
559.5246, 273.5272
560.0067, 267.8831
560.4888, 262.1404
560.9709, 256.6780
561.4531, 251.8495
561.9352, 247.6377
562.4173, 243.3733
562.8994, 238.7150
563.3815, 234.1969
563.8636, 230.0607
564.3458, 226.4890
564.8279, 222.8586
565.3100, 219.0013
565.7921, 215.2506
566.2742, 212.1454
566.7563, 209.7309
567.2385, 207.3815
567.7206, 205.0311
568.2027, 202.6083
568.6848, 199.9493
569.1669, 197.0753
569.6490, 194.4165
570.1312, 192.3415
570.6133, 190.5192
571.0954, 188.4142
571.5775, 186.0206
572.0596, 183.8478
572.5417, 182.3334
573.0239, 181.0832
573.5060, 179.7771
573.9881, 178.3017
574.4702, 176.8896
574.9523, 175.6158
575.4344, 174.4241
575.9166, 173.2615
576.3987, 172.2313
576.8808, 171.0407
577.3629, 169.4460
577.8450, 167.6838
578.3271, 166.5946
578.8093, 166.4184
579.2914, 166.2004
579.7735, 165.4965
580.2556, 164.3916
580.7377, 163.4846
581.2198, 162.7892
581.7020, 162.1648
582.1841, 161.5082
582.6662, 160.8334
583.1483, 160.1770
583.6304, 159.5654
584.1125, 158.9053
584.5947, 157.8817
585.0768, 156.8223
585.5589, 156.2178
586.0410, 156.7965
586.5231, 157.2381
587.0052, 156.8274
587.4873, 155.8516
587.9694, 155.0874
588.4515, 154.9389
