##NAMES=Yugawaralite
##RRUFFID=R050407
##IDEAL CHEMISTRY=Ca(Si_6_Al_2_)O_16_&#183;4H_2_O
##LOCALITY=Malad quarry, Mumbai, Maharashtra, India
##OWNER=RRUFF
##SOURCE=G.R. Rossman
##DESCRIPTION=Group of colorless flat tabular crystals
##STATUS=The identification of this mineral has been confirmed by X-ray diffraction and chemical analysis
##URL=rruff.info/R050407
##MEASURED CHEMISTRY=Ca_1.00_(Si_6.00_Al_2.00_)O_16_Â·4H_2_O
92.52344, 809.1242
93.00555, 802.2296
93.48767, 803.7004
93.96979, 832.6341
94.45190, 860.1351
94.93402, 885.0510
95.41614, 893.5290
95.89825, 888.0218
96.38037, 875.3412
96.86249, 856.3934
97.34460, 833.2079
97.82672, 803.0851
98.30884, 774.6303
98.79095, 750.0239
99.27307, 727.1097
99.75519, 702.7949
100.2373, 677.0273
100.7194, 651.2487
101.2015, 629.4190
101.6837, 612.0870
102.1658, 597.2335
102.6479, 583.3127
103.1300, 570.1007
103.6121, 558.4438
104.0942, 549.4232
104.5764, 542.2000
105.0585, 536.1837
105.5406, 531.5757
106.0227, 527.9491
106.5048, 523.9921
106.9869, 518.8751
107.4691, 514.3183
107.9512, 511.2388
108.4333, 509.2892
108.9154, 507.6212
109.3975, 505.3083
109.8796, 502.0399
110.3618, 500.0467
110.8439, 500.1137
111.3260, 500.7260
111.8081, 501.3517
112.2902, 501.8719
112.7723, 502.4160
113.2544, 503.1403
113.7366, 503.8893
114.2187, 505.2184
114.7008, 507.2161
115.1829, 509.6783
115.6650, 512.7131
116.1471, 516.3849
116.6293, 520.0555
117.1114, 522.0333
117.5935, 521.4810
118.0756, 521.0886
118.5577, 521.8491
119.0398, 523.2612
119.5220, 524.1076
120.0041, 523.7291
120.4862, 522.4717
120.9683, 521.3304
121.4504, 520.4587
121.9325, 519.4443
122.4147, 518.2289
122.8968, 516.8765
123.3789, 514.5114
123.8610, 510.3160
124.3431, 504.9282
124.8252, 498.6974
125.3074, 491.5663
125.7895, 483.8442
126.2716, 476.0631
126.7537, 467.9739
127.2358, 460.4181
127.7179, 453.5604
128.2001, 447.2950
128.6822, 441.4286
129.1643, 435.9157
129.6464, 430.7167
130.1285, 425.6196
130.6107, 420.2055
131.0928, 415.2892
131.5749, 411.1067
132.0570, 407.6202
132.5391, 404.6341
133.0212, 401.9664
133.5034, 399.5348
133.9855, 398.2182
134.4676, 398.7321
134.9497, 399.5385
135.4318, 399.5762
135.9139, 398.8298
136.3960, 398.2501
136.8782, 398.9542
137.3603, 401.2117
137.8424, 403.6760
138.3245, 405.8452
138.8066, 408.3441
139.2887, 412.1642
139.7709, 417.7346
140.2530, 423.7270
140.7351, 428.2309
141.2172, 431.3697
141.6993, 434.8755
142.1814, 439.8192
142.6636, 445.7779
143.1457, 451.1260
143.6278, 454.8211
144.1099, 458.5904
144.5920, 464.0279
145.0741, 471.1094
145.5563, 478.5706
146.0384, 485.2974
146.5205, 491.1808
147.0026, 497.1651
147.4847, 503.4257
147.9668, 509.8453
148.4490, 516.6005
148.9311, 523.6414
149.4132, 530.5140
149.8953, 536.3498
150.3774, 540.2999
150.8595, 545.0241
151.3417, 551.1216
151.8238, 557.6752
152.3059, 564.1320
152.7880, 570.2117
153.2701, 575.8487
153.7522, 580.7794
154.2344, 584.3610
154.7165, 587.8313
155.1986, 591.5214
155.6807, 595.0560
156.1628, 598.0001
156.6449, 600.1343
157.1271, 601.4948
157.6092, 602.1169
158.0913, 601.5948
158.5734, 600.9659
159.0555, 601.0833
159.5376, 601.4094
160.0198, 600.4267
160.5019, 597.0391
160.9840, 591.7599
161.4661, 586.9836
161.9482, 583.3177
162.4303, 579.5023
162.9125, 574.5699
163.3946, 568.5644
163.8767, 562.4727
164.3588, 556.8996
164.8409, 551.6390
165.3230, 546.2426
165.8052, 540.3810
166.2873, 534.6136
166.7694, 529.7049
167.2515, 525.6531
167.7336, 522.4542
168.2157, 520.3073
168.6979, 518.8824
169.1800, 517.8808
169.6621, 517.2314
170.1442, 516.8900
170.6263, 516.6307
171.1084, 515.9396
171.5906, 516.2835
172.0727, 518.4186
172.5548, 521.6421
173.0369, 524.9941
173.5190, 527.8890
174.0011, 530.4014
174.4833, 533.1547
174.9654, 536.1285
175.4475, 539.4304
175.9296, 543.1248
176.4117, 547.1576
176.8938, 551.5098
177.3760, 556.2101
177.8581, 561.2765
178.3402, 565.9695
178.8223, 570.2552
179.3044, 574.2507
179.7865, 577.8619
180.2687, 581.1777
180.7508, 584.3791
181.2329, 587.5702
181.7150, 590.7547
182.1971, 594.2006
182.6792, 598.2031
183.1614, 602.1798
183.6435, 605.7626
184.1256, 608.9457
184.6077, 612.0565
185.0898, 615.5308
185.5719, 619.3475
186.0541, 622.1920
186.5362, 623.9548
187.0183, 624.7653
187.5004, 624.5704
187.9825, 623.3362
188.4646, 621.5981
188.9468, 619.8967
189.4289, 618.1168
189.9110, 615.6005
190.3931, 612.1630
190.8752, 607.9142
191.3573, 602.7413
191.8395, 596.2728
192.3216, 589.9016
192.8037, 585.1827
193.2858, 581.4496
193.7679, 577.1185
194.2500, 570.9853
194.7322, 563.6730
195.2143, 557.1851
195.6964, 552.1765
196.1785, 547.0764
196.6606, 541.0700
197.1427, 534.3354
197.6249, 527.2905
198.1070, 519.9298
198.5891, 512.3510
199.0712, 505.5823
199.5533, 500.1129
200.0354, 494.9970
200.5176, 490.1690
200.9997, 485.4428
201.4818, 480.4855
201.9639, 474.9945
202.4460, 468.9503
202.9281, 463.1292
203.4103, 457.7092
203.8924, 452.4098
204.3745, 447.3141
204.8566, 442.2882
205.3387, 437.1616
205.8208, 431.7596
206.3030, 426.0203
206.7851, 420.3890
207.2672, 414.8773
207.7493, 409.4417
208.2314, 404.1148
208.7135, 398.8903
209.1957, 393.7218
209.6778, 388.5233
210.1599, 383.2318
210.6420, 378.6035
211.1241, 374.5656
211.6062, 371.1057
212.0884, 368.6271
212.5705, 366.9047
213.0526, 364.9253
213.5347, 361.5996
214.0168, 356.6920
214.4989, 353.1841
214.9811, 351.9096
215.4632, 351.2382
215.9453, 349.9608
216.4274, 348.0675
216.9095, 346.5709
217.3916, 346.4316
217.8737, 347.7308
218.3559, 348.9221
218.8380, 349.9666
219.3201, 350.9174
219.8022, 351.7086
220.2843, 352.3374
220.7664, 353.1807
221.2486, 354.6735
221.7307, 356.6816
222.2128, 358.5430
222.6949, 360.1113
223.1770, 361.5219
223.6591, 362.8843
224.1413, 364.1917
224.6234, 365.5281
225.1055, 367.2012
225.5876, 368.9222
226.0697, 370.0969
226.5518, 370.4221
227.0340, 370.1853
227.5161, 369.6808
227.9982, 368.7867
228.4803, 368.0466
228.9624, 368.3026
229.4445, 368.7971
229.9267, 368.4030
230.4088, 366.3163
230.8909, 363.4465
231.3730, 361.6898
231.8551, 361.6027
232.3372, 361.2259
232.8194, 359.5175
233.3015, 357.1566
233.7836, 354.9060
234.2657, 353.1171
234.7478, 351.5584
235.2299, 349.5842
235.7121, 346.6345
236.1942, 344.4361
236.6763, 343.9324
237.1584, 344.1346
237.6405, 343.9817
238.1227, 342.9849
238.6048, 341.5044
239.0869, 340.4980
239.5690, 340.3691
240.0511, 340.0034
240.5332, 339.3135
241.0154, 338.2766
241.4975, 336.8201
241.9796, 334.9112
242.4617, 332.6904
242.9438, 330.5260
243.4259, 328.4314
243.9081, 326.3649
244.3902, 324.5417
244.8723, 322.6470
245.3544, 320.3920
245.8365, 317.6532
246.3186, 314.5349
246.8008, 311.2267
247.2829, 307.6137
247.7650, 303.9695
248.2471, 300.0366
248.7292, 296.2130
249.2113, 292.9463
249.6935, 290.3683
250.1756, 288.1536
250.6577, 285.6486
251.1398, 282.3641
251.6219, 279.5312
252.1040, 277.0780
252.5862, 275.1050
253.0683, 273.8408
253.5504, 273.3215
254.0325, 273.1814
254.5146, 272.8258
254.9967, 272.0473
255.4789, 271.4403
255.9610, 271.0447
256.4431, 270.7986
256.9252, 270.6186
257.4073, 270.4935
257.8894, 270.5180
258.3716, 270.8041
258.8537, 271.3664
259.3358, 272.2931
259.8179, 274.0830
260.3000, 275.9451
260.7821, 277.0882
261.2643, 277.4042
261.7464, 277.5287
262.2285, 278.2105
262.7106, 279.6506
263.1927, 280.6168
263.6748, 280.6857
264.1570, 280.5265
264.6391, 280.7390
265.1212, 281.3733
265.6033, 282.0007
266.0854, 282.0934
266.5675, 281.6423
267.0497, 281.8841
267.5318, 283.8691
268.0139, 285.8439
268.4960, 286.1388
268.9781, 284.7396
269.4602, 283.2547
269.9424, 282.9429
270.4245, 283.6641
270.9066, 284.0165
271.3887, 283.8102
271.8708, 283.3491
272.3529, 282.7729
272.8351, 282.1013
273.3172, 281.5281
273.7993, 281.2997
274.2814, 281.2131
274.7635, 280.6691
275.2456, 279.4147
275.7278, 277.9767
276.2099, 276.6575
276.6920, 275.4559
277.1741, 274.3568
277.6562, 273.3483
278.1383, 272.4643
278.6205, 271.7727
279.1026, 271.3972
279.5847, 270.9306
280.0668, 270.0756
280.5489, 268.8727
281.0310, 267.6176
281.5132, 266.5438
281.9953, 265.2968
282.4774, 263.2605
282.9595, 260.2385
283.4416, 257.5793
283.9237, 256.1880
284.4059, 255.8632
284.8880, 255.8413
285.3701, 256.2144
285.8522, 256.4522
286.3343, 255.9133
286.8164, 254.6400
287.2986, 253.4050
287.7807, 252.5352
288.2628, 252.0149
288.7449, 251.7564
289.2270, 251.6371
289.7091, 252.0175
290.1913, 253.6207
290.6734, 256.0583
291.1555, 257.9208
291.6376, 257.9851
292.1197, 257.0530
292.6018, 257.2280
293.0840, 259.1455
293.5661, 260.8641
294.0482, 260.7282
294.5303, 259.5315
295.0124, 258.6899
295.4945, 258.9491
295.9767, 259.7796
296.4588, 260.1693
296.9409, 259.9434
297.4230, 259.8801
297.9051, 260.8802
298.3872, 262.1317
298.8694, 262.5857
299.3515, 261.7240
299.8336, 260.3375
300.3157, 259.5084
300.7978, 259.3473
301.2799, 259.0469
301.7621, 258.2519
302.2442, 257.1845
302.7263, 255.8922
303.2084, 254.3088
303.6905, 252.9367
304.1726, 252.4836
304.6548, 253.0026
305.1369, 253.1684
305.6190, 252.2669
306.1011, 251.2174
306.5832, 250.6095
307.0653, 250.4971
307.5475, 250.8809
308.0296, 252.0059
308.5117, 253.7908
308.9938, 255.2175
309.4759, 255.7098
309.9580, 256.3671
310.4402, 257.9361
310.9223, 260.2768
311.4044, 262.8344
311.8865, 265.4946
312.3686, 268.1285
312.8507, 270.1203
313.3329, 271.0427
313.8150, 272.0394
314.2971, 273.9346
314.7792, 276.3172
315.2613, 278.4353
315.7434, 279.8726
316.2256, 280.8931
316.7077, 282.1935
317.1898, 284.0901
317.6719, 285.3914
318.1540, 285.2022
318.6361, 284.3043
319.1183, 283.5821
319.6004, 283.4360
320.0825, 283.1458
320.5646, 281.7377
321.0467, 279.1309
321.5288, 275.9058
322.0110, 271.4926
322.4931, 266.9750
322.9752, 263.5383
323.4573, 261.4133
323.9394, 258.9711
324.4215, 254.1363
324.9037, 247.0059
325.3858, 241.1055
325.8679, 237.6152
326.3500, 235.0658
326.8321, 232.4643
327.3142, 229.7973
327.7964, 227.2497
328.2785, 224.9142
328.7606, 222.7953
329.2427, 220.9159
329.7248, 219.3787
330.2069, 217.9243
330.6891, 216.3139
331.1712, 214.6600
331.6533, 213.2014
332.1354, 212.0709
332.6175, 211.1901
333.0996, 210.3553
333.5818, 209.4773
334.0639, 208.9268
334.5460, 209.0994
335.0281, 209.6344
335.5102, 210.1262
335.9923, 210.3934
336.4745, 210.7753
336.9566, 211.6863
337.4387, 213.1394
337.9208, 214.8401
338.4029, 216.8372
338.8850, 218.9566
339.3671, 220.9740
339.8492, 222.8669
340.3314, 224.8689
340.8135, 227.1114
341.2956, 229.6121
341.7777, 232.4014
342.2598, 235.6233
342.7419, 238.9473
343.2241, 242.0231
343.7062, 244.9222
344.1883, 247.9595
344.6704, 251.4632
345.1525, 255.1828
345.6346, 258.5944
346.1168, 261.6600
346.5989, 264.4390
347.0810, 266.7805
347.5631, 268.8608
348.0452, 271.0133
348.5273, 273.5828
349.0095, 276.0248
349.4916, 277.7679
349.9737, 278.8032
350.4558, 279.2860
350.9379, 279.2124
351.4200, 278.6068
351.9022, 277.7067
352.3843, 276.7152
352.8664, 274.8929
353.3485, 271.4321
353.8306, 266.6527
354.3127, 261.7664
354.7949, 256.9701
355.2770, 252.3725
355.7591, 248.0783
356.2412, 244.0786
356.7233, 240.2312
357.2054, 236.2166
357.6876, 232.4063
358.1697, 229.4928
358.6518, 227.6336
359.1339, 226.1648
359.6160, 224.4884
360.0981, 222.7030
360.5803, 221.3946
361.0624, 220.9315
361.5445, 220.7534
362.0266, 220.4660
362.5087, 220.0665
362.9908, 219.6301
363.4730, 219.2269
363.9551, 218.7924
364.4372, 218.1696
364.9193, 217.5091
365.4014, 216.4537
365.8835, 214.5820
366.3657, 212.2431
366.8478, 210.1286
367.3299, 208.4813
367.8120, 207.1033
368.2941, 205.7489
368.7762, 204.5009
369.2584, 202.9301
369.7405, 200.7192
370.2226, 198.3157
370.7047, 196.0539
371.1868, 193.9943
371.6689, 192.3022
372.1511, 191.2129
372.6332, 190.7589
373.1153, 189.8604
373.5974, 188.3471
374.0795, 186.6038
374.5616, 184.5125
375.0438, 182.3211
375.5259, 180.6236
376.0080, 179.7992
376.4901, 179.5948
376.9722, 179.1290
377.4543, 177.7577
377.9365, 176.9539
378.4186, 177.2995
378.9007, 178.0906
379.3828, 178.5284
379.8649, 178.4012
380.3470, 178.0799
380.8292, 178.0607
381.3113, 178.3608
381.7934, 178.9777
382.2755, 179.8842
382.7576, 181.0819
383.2397, 182.6131
383.7219, 184.4462
384.2040, 186.5067
384.6861, 188.7634
385.1682, 191.1955
385.6503, 193.3839
386.1324, 194.6231
386.6146, 196.4076
387.0967, 199.3083
387.5788, 202.7849
388.0609, 206.1502
388.5430, 209.1021
389.0251, 211.8856
389.5073, 215.0234
389.9894, 218.6884
390.4715, 222.3736
390.9536, 225.8991
391.4357, 229.5389
391.9178, 233.4602
392.4000, 237.6835
392.8821, 242.2002
393.3642, 247.1940
393.8463, 252.7114
394.3284, 257.3155
394.8105, 260.1950
395.2927, 263.0947
395.7748, 266.6848
396.2569, 270.6768
396.7390, 274.5312
397.2211, 277.8958
397.7032, 281.1498
398.1854, 285.3538
398.6675, 291.1390
399.1496, 295.9960
399.6317, 298.4996
400.1138, 300.2724
400.5959, 302.5230
401.0781, 305.4485
401.5602, 308.3405
402.0423, 310.6190
402.5244, 312.2941
403.0065, 313.4910
403.4886, 314.1544
403.9708, 314.3909
404.4529, 314.2877
404.9350, 313.8724
405.4171, 313.1906
405.8992, 312.0397
406.3813, 310.7481
406.8635, 309.9818
407.3456, 309.8333
407.8277, 309.3355
408.3098, 307.9085
408.7919, 305.8442
409.2740, 303.6714
409.7562, 301.3809
410.2383, 299.0680
410.7204, 296.4796
411.2025, 293.8801
411.6846, 292.1896
412.1667, 291.8733
412.6489, 291.8205
413.1310, 290.2859
413.6131, 287.2958
414.0952, 285.5146
414.5773, 286.3792
415.0594, 287.9862
415.5416, 288.5183
416.0237, 287.9825
416.5058, 287.4250
416.9879, 287.3966
417.4700, 287.9588
417.9521, 289.4242
418.4343, 292.4230
418.9164, 295.3975
419.3985, 297.8766
419.8806, 300.0930
420.3627, 302.3281
420.8448, 304.6814
421.3270, 307.1760
421.8091, 309.8633
422.2912, 312.8025
422.7733, 315.7493
423.2554, 318.2048
423.7375, 321.0784
424.2197, 325.2321
424.7018, 330.3336
425.1839, 335.2815
425.6660, 339.2751
426.1481, 342.4274
426.6302, 345.6195
427.1124, 348.6486
427.5945, 351.9657
428.0766, 355.9814
428.5587, 360.1160
429.0408, 363.9009
429.5229, 367.1619
430.0051, 369.9370
430.4872, 371.9758
430.9693, 372.7682
431.4514, 374.9218
431.9335, 380.6653
432.4156, 385.8958
432.8978, 388.0695
433.3799, 388.3297
433.8620, 389.8541
434.3441, 395.0501
434.8262, 402.4918
435.3083, 407.7919
435.7905, 409.9382
436.2726, 412.7006
436.7547, 418.3175
437.2368, 424.7177
437.7189, 429.9264
438.2010, 433.5057
438.6832, 437.0043
439.1653, 442.2206
439.6474, 448.6729
440.1295, 453.6912
440.6116, 456.4533
441.0938, 458.4809
441.5759, 461.0560
442.0580, 463.9675
442.5401, 466.5469
443.0222, 468.9142
443.5043, 470.6428
443.9865, 471.2354
444.4686, 470.7437
444.9507, 469.7111
445.4328, 468.5261
445.9149, 466.7880
446.3970, 463.5183
446.8792, 458.4942
447.3613, 453.0115
447.8434, 447.2766
448.3255, 441.3363
448.8076, 435.2411
449.2897, 428.9763
449.7719, 422.5303
450.2540, 415.8322
450.7361, 408.8340
451.2182, 402.2298
451.7003, 396.0953
452.1824, 390.2071
452.6646, 384.6315
453.1467, 379.1852
453.6288, 373.4962
454.1109, 367.3842
454.5930, 361.3275
455.0751, 356.2581
455.5573, 352.6568
456.0394, 349.1591
456.5215, 345.4899
457.0036, 342.1347
457.4857, 339.3801
457.9678, 337.2036
458.4500, 335.3459
458.9321, 333.5353
459.4142, 331.9099
459.8963, 331.2936
460.3784, 331.9872
460.8605, 333.2147
461.3427, 334.7103
461.8248, 336.5980
462.3069, 339.0766
462.7890, 342.1949
463.2711, 345.6475
463.7532, 349.3286
464.2354, 353.2044
464.7175, 356.3511
465.1996, 358.1264
465.6817, 360.0248
466.1638, 363.3897
466.6459, 367.6963
467.1281, 371.6526
467.6102, 374.8261
468.0923, 377.4549
468.5744, 379.4194
469.0565, 380.8450
469.5386, 382.8990
470.0208, 386.1588
470.5029, 390.1344
470.9850, 394.0455
471.4671, 397.9700
471.9492, 401.5612
472.4313, 404.6455
472.9135, 407.4213
473.3956, 410.2291
473.8777, 413.0386
474.3598, 415.3447
474.8419, 416.6632
475.3240, 417.1184
475.8062, 417.8948
476.2883, 419.7932
476.7704, 421.0008
477.2525, 421.0694
477.7346, 420.2861
478.2167, 419.0754
478.6989, 417.5202
479.1810, 415.2832
479.6631, 411.8200
480.1452, 406.9402
480.6273, 401.8943
481.1094, 397.5104
481.5916, 392.1104
482.0737, 384.6323
482.5558, 375.8281
483.0379, 367.0718
483.5200, 359.0361
484.0021, 351.0665
484.4843, 341.6778
484.9664, 330.4033
485.4485, 319.6835
485.9306, 310.3570
486.4127, 301.4294
486.8948, 292.3521
487.3770, 283.0776
487.8591, 273.7442
488.3412, 264.0175
488.8233, 254.4377
489.3054, 246.2986
489.7875, 239.7852
490.2697, 233.3848
490.7518, 226.2317
491.2339, 218.8426
491.7160, 212.0617
492.1981, 205.8903
492.6802, 200.4228
493.1624, 196.2616
493.6445, 192.6749
494.1266, 188.4417
494.6087, 183.3572
495.0908, 178.3362
495.5729, 174.1292
496.0551, 170.7508
496.5372, 167.7159
497.0193, 165.1917
497.5014, 162.7654
497.9835, 160.2771
498.4656, 157.8126
498.9478, 155.5434
499.4299, 153.5115
499.9120, 151.5077
500.3941, 149.1787
500.8762, 146.2808
501.3583, 143.9716
501.8405, 142.8092
502.3226, 141.6748
502.8047, 140.2787
503.2868, 138.6055
503.7689, 136.6046
504.2510, 134.1513
504.7331, 131.7322
505.2152, 130.3733
505.6974, 130.2702
506.1795, 129.9922
506.6616, 129.1701
507.1437, 128.1573
507.6258, 127.1806
508.1079, 126.2414
508.5901, 125.3439
509.0722, 124.6376
509.5543, 123.9007
510.0364, 122.5675
510.5185, 120.6569
511.0006, 119.3314
511.4828, 119.4225
511.9649, 120.1763
512.4470, 119.9104
512.9291, 118.3041
513.4113, 116.9696
513.8934, 116.3744
514.3755, 116.2202
514.8576, 116.4474
515.3397, 116.9187
515.8218, 117.0286
516.3040, 116.2683
516.7861, 114.7804
517.2682, 113.6108
517.7503, 112.8778
518.2324, 112.3349
518.7145, 112.0623
519.1967, 111.9051
519.6788, 111.6956
520.1609, 111.4202
520.6430, 111.2145
521.1251, 111.2277
521.6072, 111.4542
522.0894, 111.7103
522.5715, 112.1330
523.0536, 112.3576
523.5357, 112.2686
524.0178, 111.9399
524.4999, 111.3277
524.9821, 109.9656
525.4642, 110.6278
525.9463, 110.9490
526.4284, 110.9510
526.9105, 109.4924
527.3926, 110.0616
527.8748, 109.9047
528.3569, 109.7774
528.8390, 110.8087
529.3211, 109.8807
529.8032, 111.0183
530.2853, 111.4178
530.7675, 112.2454
531.2496, 112.3419
531.7317, 112.7451
532.2138, 114.0032
532.6959, 114.8840
533.1780, 113.5717
533.6602, 113.5656
534.1423, 114.4238
534.6244, 117.3781
535.1065, 119.7241
535.5886, 120.0126
536.0707, 119.1538
536.5529, 118.5251
537.0350, 118.6836
537.5171, 119.3409
537.9992, 120.1049
538.4813, 121.0141
538.9634, 121.8211
539.4456, 122.3804
539.9277, 122.9834
540.4098, 123.6593
540.8919, 124.4819
541.3740, 125.6380
541.8561, 127.3384
542.3383, 129.1047
542.8204, 130.2598
543.3025, 130.8732
543.7846, 131.6171
544.2667, 132.6754
544.7488, 133.8708
545.2310, 135.0489
545.7131, 136.2084
546.1952, 137.3389
546.6773, 138.3509
547.1594, 139.4059
547.6415, 140.8638
548.1237, 142.4430
548.6058, 143.4293
549.0879, 143.5197
549.5700, 143.1030
550.0521, 142.8098
550.5342, 142.7343
551.0164, 142.4945
551.4985, 142.0141
551.9806, 141.4778
552.4627, 141.0627
552.9448, 140.6310
553.4269, 139.9351
553.9091, 138.8583
554.3912, 137.4560
554.8733, 135.7483
555.3554, 133.6648
555.8375, 131.7269
556.3196, 130.2270
556.8018, 128.6140
557.2839, 126.4338
557.7660, 123.8602
558.2481, 121.4067
558.7302, 119.3003
559.2123, 117.3457
559.6945, 115.3937
560.1766, 113.4407
560.6587, 111.4011
561.1408, 109.1514
561.6229, 107.1519
562.1050, 106.1579
562.5872, 106.4268
563.0693, 105.7618
563.5514, 103.2163
564.0335, 100.6635
564.5156, 99.02742
564.9977, 98.07864
565.4799, 97.36790
565.9620, 96.71203
566.4441, 96.05786
566.9262, 95.32860
567.4083, 94.52980
567.8904, 93.63216
568.3726, 92.64481
568.8547, 91.53740
569.3368, 90.12666
569.8189, 88.63017
570.3010, 87.40752
570.7831, 86.59114
571.2653, 86.01762
571.7474, 85.51845
572.2295, 85.09445
572.7116, 84.79715
573.1937, 84.75987
573.6758, 84.53693
574.1580, 83.54365
574.6401, 82.01616
575.1222, 80.88120
575.6043, 80.29322
576.0864, 80.03736
576.5685, 80.39113
577.0507, 80.90340
577.5328, 80.67819
578.0149, 79.53200
578.4970, 78.24626
578.9791, 77.69093
579.4612, 77.90639
579.9434, 77.83833
580.4255, 77.21024
580.9076, 76.61696
581.3897, 76.11059
581.8718, 75.71837
582.3539, 75.51567
582.8361, 75.49551
583.3182, 75.47749
583.8003, 75.23769
584.2824, 74.81802
584.7645, 74.54777
585.2466, 74.47160
585.7288, 74.41301
586.2108, 74.19301
586.6929, 73.98609
587.1750, 74.11095
587.6572, 74.69993
588.1393, 75.13363
588.6214, 75.09576
