##NAMES=Yvonite
##RRUFFID=R100010
##IDEAL CHEMISTRY=Cu^2+^(As^5+^O_3_OH)&#183;2H_2_O
##LOCALITY=Salsigne Gold mine, Aude, France
##OWNER=RRUFF
##SOURCE=William Pinch
##DESCRIPTION=Aggregates of pale blue grains
##STATUS=The identification of this mineral has been confirmed by single-crystal X-ray diffraction.
##URL=rruff.info/R100010
89.60352, 2.737431
90.08563, 3.175118
90.56775, 3.260245
91.04987, 2.773795
91.53198, 2.135039
92.01410, 1.895586
92.49622, 2.038346
92.97833, 2.286216
93.46045, 2.544902
93.94257, 2.746562
94.42468, 2.636102
94.90680, 1.797817
95.38892, 0.5815935
95.87103, 0.1692699
96.35315, 0.6881688
96.83527, 1.514529
97.31738, 1.821463
97.79950, 1.594368
98.28162, 1.344184
98.76373, 1.354549
99.24585, 1.637153
99.72797, 1.729539
100.2101, 1.595164
100.6922, 1.289018
101.1743, 0.8702686
101.6564, 0.2314151
102.1385, -0.2379615
102.6207, -0.2306235
103.1028, 0.4844752
103.5849, 0.9356303
104.0670, 0.9176529
104.5491, 0.5164930
105.0313, 0.3995446
105.5134, 0.6980347
105.9955, 1.143140
106.4776, 1.546457
106.9597, 1.973208
107.4418, 2.255666
107.9240, 2.264585
108.4061, 1.924543
108.8882, 1.901682
109.3703, 2.663388
109.8524, 3.566626
110.3345, 3.925725
110.8167, 3.288746
111.2988, 2.511305
111.7809, 1.732525
112.2630, 0.8641832
112.7451, 0.2847823
113.2272, 0.1202402
113.7094, 0.2670940
114.1915, 0.5543002
114.6736, 1.223920
115.1557, 1.824631
115.6378, 2.126940
116.1199, 1.993788
116.6021, 1.738404
117.0842, 1.319277
117.5663, 0.8309138
118.0484, 0.5571309
118.5305, 0.9657965
119.0126, 1.474505
119.4948, 1.585751
119.9769, 0.7677595
120.4590, -8.8779673E-02
120.9411, -0.5293756
121.4232, -0.5571041
121.9053, -0.1578950
122.3875, 1.253651
122.8696, 2.987197
123.3517, 4.084191
123.8338, 3.434815
124.3159, 2.352801
124.7980, 2.365631
125.2802, 3.509025
125.7623, 4.832737
126.2444, 5.332572
126.7265, 5.312325
127.2086, 5.581756
127.6907, 6.656097
128.1729, 8.257901
128.6550, 9.919516
129.1371, 11.67350
129.6192, 13.28668
130.1013, 14.33060
130.5834, 14.87106
131.0656, 15.51457
131.5477, 16.60966
132.0298, 18.10184
132.5119, 19.70497
132.9940, 21.38189
133.4761, 23.18430
133.9583, 25.46754
134.4404, 28.29398
134.9225, 30.91442
135.4046, 32.72519
135.8867, 33.72433
136.3688, 34.52537
136.8510, 35.14463
137.3331, 35.64463
137.8152, 36.33583
138.2973, 37.27452
138.7794, 38.25525
139.2615, 39.07058
139.7437, 39.62663
140.2258, 40.37959
140.7079, 41.41420
141.1900, 42.72473
141.6721, 44.24408
142.1542, 45.94130
142.6364, 47.87456
143.1185, 50.14569
143.6006, 52.88110
144.0827, 55.66831
144.5648, 58.42344
145.0469, 61.21185
145.5291, 63.77718
146.0112, 66.12936
146.4933, 68.28493
146.9754, 70.31400
147.4575, 72.22810
147.9396, 73.97527
148.4218, 75.58532
148.9039, 77.14470
149.3860, 78.32273
149.8681, 78.87523
150.3502, 79.05470
150.8323, 79.36528
151.3145, 79.18799
151.7966, 79.64860
152.2787, 81.22103
152.7608, 85.09421
153.2429, 88.23866
153.7250, 90.27205
154.2072, 91.41637
154.6893, 92.29435
155.1714, 91.85571
155.6535, 91.21107
156.1356, 91.52649
156.6177, 93.85509
157.0999, 96.03381
157.5820, 97.47230
158.0641, 98.38343
158.5462, 99.64428
159.0283, 102.0017
159.5104, 104.4726
159.9926, 106.4177
160.4747, 107.1651
160.9568, 107.8966
161.4389, 108.9004
161.9210, 110.1615
162.4031, 111.7122
162.8853, 113.7794
163.3674, 116.0322
163.8495, 118.1675
164.3316, 120.4993
164.8137, 122.3578
165.2958, 123.0102
165.7780, 122.4918
166.2601, 122.4265
166.7422, 124.2656
167.2243, 126.9119
167.7064, 128.9484
168.1885, 129.4609
168.6707, 129.4593
169.1528, 129.4715
169.6349, 129.4969
170.1170, 129.9370
170.5991, 131.8036
171.0812, 134.2262
171.5634, 135.6674
172.0455, 134.9451
172.5276, 133.2116
173.0097, 131.4981
173.4918, 129.8477
173.9739, 128.3428
174.4561, 126.9805
174.9382, 125.7785
175.4203, 124.7781
175.9024, 124.5223
176.3845, 124.3183
176.8666, 122.9855
177.3488, 120.1414
177.8309, 117.1570
178.3130, 115.7144
178.7951, 115.4570
179.2772, 115.1277
179.7593, 113.8341
180.2415, 111.9920
180.7236, 110.3547
181.2057, 108.9995
181.6878, 107.8977
182.1699, 107.1463
182.6520, 106.6936
183.1342, 106.1002
183.6163, 104.9945
184.0984, 103.5166
184.5805, 102.0393
185.0626, 100.4818
185.5447, 99.14621
186.0269, 98.74210
186.5090, 99.23252
186.9911, 99.68417
187.4732, 99.27361
187.9553, 98.19066
188.4374, 97.38136
188.9196, 97.06243
189.4017, 97.02598
189.8838, 96.74657
190.3659, 96.20152
190.8480, 95.80290
191.3301, 96.10169
191.8123, 96.99495
192.2944, 97.36667
192.7765, 96.86703
193.2586, 95.79399
193.7407, 94.97191
194.2228, 94.39995
194.7050, 94.07713
195.1871, 94.11459
195.6692, 94.50793
196.1513, 94.79897
196.6334, 94.93659
197.1155, 94.89163
197.5977, 94.38166
198.0798, 93.26174
198.5619, 92.26132
199.0440, 92.24901
199.5261, 93.30150
200.0082, 94.09058
200.4904, 94.23774
200.9725, 93.85592
201.4546, 93.71628
201.9367, 93.88518
202.4188, 94.10587
202.9009, 94.11030
203.3831, 93.87160
203.8652, 93.60275
204.3473, 93.34927
204.8294, 93.10904
205.3115, 92.84855
205.7936, 92.54743
206.2758, 92.26954
206.7579, 92.05744
207.2400, 91.88994
207.7221, 91.91066
208.2042, 92.28411
208.6863, 92.99503
209.1685, 93.13174
209.6506, 92.47686
210.1327, 91.62796
210.6148, 91.27340
211.0969, 91.51479
211.5790, 91.91577
212.0612, 92.38712
212.5433, 92.92501
213.0254, 93.57780
213.5075, 94.51870
213.9896, 95.34239
214.4717, 95.35361
214.9538, 94.01781
215.4360, 93.35964
215.9181, 94.17944
216.4002, 96.61713
216.8823, 98.15269
217.3644, 98.43517
217.8465, 98.21243
218.3287, 98.42567
218.8108, 99.24356
219.2929, 100.1143
219.7750, 100.8740
220.2571, 101.4902
220.7392, 102.3609
221.2214, 103.6835
221.7035, 105.0709
222.1856, 106.0414
222.6677, 106.4759
223.1498, 106.7281
223.6319, 106.8646
224.1141, 106.8781
224.5962, 106.8616
225.0783, 106.8662
225.5604, 106.7959
226.0425, 106.5941
226.5246, 106.5359
227.0068, 105.7958
227.4889, 104.0104
227.9710, 100.9528
228.4531, 98.17303
228.9352, 95.62808
229.4173, 93.39182
229.8995, 91.68484
230.3816, 90.88126
230.8637, 89.88358
231.3458, 88.32881
231.8279, 86.05949
232.3100, 84.09709
232.7922, 82.42908
233.2743, 81.08120
233.7564, 80.10122
234.2385, 79.65070
234.7206, 79.30209
235.2027, 78.99273
235.6849, 78.75985
236.1670, 78.29293
236.6491, 77.37737
237.1312, 76.40125
237.6133, 75.90034
238.0954, 76.18966
238.5776, 76.38760
239.0597, 76.17561
239.5418, 75.43175
240.0239, 75.18798
240.5060, 75.74321
240.9881, 76.55184
241.4703, 76.92369
241.9524, 76.66433
242.4345, 76.32014
242.9166, 76.01215
243.3987, 75.74321
243.8808, 75.48018
244.3630, 75.20303
244.8451, 74.94739
245.3272, 74.73361
245.8093, 74.46270
246.2914, 74.42342
246.7735, 74.75826
247.2557, 75.52497
247.7378, 76.08401
248.2199, 76.37774
248.7020, 76.52480
249.1841, 76.64046
249.6662, 76.68444
250.1484, 76.77876
250.6305, 77.00428
251.1126, 77.37847
251.5947, 77.48628
252.0768, 77.17357
252.5589, 76.75601
253.0411, 76.55513
253.5232, 76.60862
254.0053, 76.80892
254.4874, 77.21014
254.9695, 77.82124
255.4516, 78.17796
255.9338, 78.20912
256.4159, 78.07800
256.8980, 77.94920
257.3801, 77.87392
257.8622, 77.66077
258.3444, 77.15477
258.8265, 76.38270
259.3086, 76.16138
259.7907, 76.72187
260.2728, 77.50352
260.7549, 78.02604
261.2371, 78.25301
261.7192, 78.32018
262.2013, 78.16154
262.6834, 77.82003
263.1655, 77.78816
263.6476, 78.19094
264.1298, 78.68972
264.6119, 79.00713
265.0940, 79.06223
265.5761, 79.18872
266.0582, 79.41020
266.5403, 79.73524
267.0225, 80.29472
267.5046, 81.23061
267.9867, 82.09335
268.4688, 82.48399
268.9509, 82.25875
269.4330, 82.21123
269.9152, 82.52165
270.3973, 83.06071
270.8794, 83.20496
271.3615, 82.76177
271.8436, 82.45551
272.3257, 82.88600
272.8079, 84.20037
273.2900, 85.30276
273.7721, 86.12008
274.2542, 86.65256
274.7363, 86.83018
275.2184, 86.56226
275.7006, 86.29751
276.1827, 86.43386
276.6648, 87.04041
277.1469, 87.14402
277.6290, 86.52637
278.1111, 85.54188
278.5933, 84.97842
279.0754, 84.87519
279.5575, 84.92751
280.0396, 84.98889
280.5217, 85.05794
281.0038, 85.21317
281.4860, 85.53822
281.9681, 85.80370
282.4502, 85.46620
282.9323, 84.47491
283.4144, 83.60213
283.8965, 83.31094
284.3787, 83.54793
284.8608, 83.63357
285.3429, 83.52548
285.8250, 83.35209
286.3071, 83.29783
286.7892, 83.36118
287.2714, 83.45350
287.7535, 83.55198
288.2356, 83.65298
288.7177, 83.72899
289.1998, 83.78078
289.6819, 83.81255
290.1641, 83.84937
290.6462, 83.88332
291.1283, 83.84194
291.6104, 83.62849
292.0925, 83.32921
292.5746, 83.27077
293.0568, 83.47676
293.5389, 83.62877
294.0210, 83.23689
294.5031, 82.46297
294.9852, 81.96780
295.4673, 82.11624
295.9495, 82.58754
296.4316, 82.71369
296.9137, 82.50512
297.3958, 82.31897
297.8779, 82.40126
298.3600, 82.73483
298.8422, 83.32229
299.3243, 84.34565
299.8064, 85.41795
300.2885, 85.96611
300.7706, 86.03667
301.2527, 85.95954
301.7349, 86.04967
302.2170, 86.13453
302.6991, 85.84182
303.1812, 84.87784
303.6633, 83.92029
304.1454, 83.84456
304.6276, 84.43981
305.1097, 84.95380
305.5918, 84.84224
306.0739, 84.42732
306.5560, 84.05949
307.0381, 83.76006
307.5203, 83.60731
308.0024, 83.71593
308.4845, 84.02357
308.9666, 84.38403
309.4487, 85.03768
309.9308, 85.53027
310.4130, 85.30183
310.8951, 84.16139
311.3772, 83.13196
311.8593, 82.94032
312.3414, 83.28252
312.8235, 83.67044
313.3057, 84.07683
313.7878, 84.34349
314.2699, 84.23099
314.7520, 83.70061
315.2341, 83.42664
315.7162, 84.05839
316.1984, 85.00900
316.6805, 85.61403
317.1626, 85.26878
317.6447, 84.91136
318.1268, 85.05533
318.6089, 85.66093
319.0911, 85.94554
319.5732, 85.04109
320.0553, 84.03589
320.5374, 83.77502
321.0195, 85.36758
321.5016, 86.72292
321.9838, 87.28146
322.4659, 87.17771
322.9480, 87.07295
323.4301, 87.15694
323.9122, 87.22855
324.3943, 87.17140
324.8765, 86.78411
325.3586, 86.54057
325.8407, 86.53177
326.3228, 86.69735
326.8049, 86.88516
327.2870, 87.16695
327.7692, 87.39612
328.2513, 87.49184
328.7334, 87.29797
329.2155, 87.32314
329.6976, 87.55495
330.1797, 88.01250
330.6619, 88.74199
331.1440, 90.05774
331.6261, 91.22792
332.1082, 91.97878
332.5903, 92.18776
333.0724, 92.80166
333.5546, 94.22388
334.0367, 95.68426
334.5188, 96.24786
335.0009, 95.40473
335.4830, 94.84878
335.9651, 95.04139
336.4473, 95.89624
336.9294, 96.26846
337.4115, 96.01662
337.8936, 95.56364
338.3757, 95.17075
338.8578, 94.78429
339.3399, 94.78267
339.8221, 95.41445
340.3042, 96.36150
340.7863, 96.45951
341.2684, 95.54276
341.7505, 94.61855
342.2326, 94.34464
342.7148, 94.71762
343.1969, 95.07925
343.6790, 95.44305
344.1611, 95.65385
344.6432, 95.35006
345.1253, 94.53596
345.6075, 93.66483
346.0896, 92.90475
346.5717, 92.25185
347.0538, 91.77177
347.5359, 91.48579
348.0180, 91.21621
348.5002, 90.59486
348.9823, 89.75774
349.4644, 89.29374
349.9465, 89.74626
350.4286, 90.52943
350.9107, 90.60732
351.3929, 89.99419
351.8750, 89.13528
352.3571, 88.25033
352.8392, 87.39700
353.3213, 86.69134
353.8034, 86.22361
354.2856, 85.83438
354.7677, 85.35180
355.2498, 84.80247
355.7319, 84.28437
356.2140, 83.77654
356.6961, 83.36764
357.1783, 83.16775
357.6604, 83.24979
358.1425, 83.37466
358.6246, 83.31966
359.1067, 83.20210
359.5888, 83.25005
360.0710, 83.85493
360.5531, 84.42879
361.0352, 84.59511
361.5173, 84.28172
361.9994, 83.90993
362.4815, 83.61353
362.9637, 83.35154
363.4458, 83.08012
363.9279, 82.67794
364.4100, 82.37334
364.8921, 82.36611
365.3742, 82.61815
365.8564, 82.60149
366.3385, 82.23093
366.8206, 81.56677
367.3027, 80.64574
367.7848, 78.91065
368.2669, 77.58615
368.7491, 76.84425
369.2312, 76.57104
369.7133, 76.50677
370.1954, 77.17622
370.6775, 77.48441
371.1596, 76.91901
371.6418, 75.00178
372.1239, 73.57198
372.6060, 72.68987
373.0881, 72.26616
373.5702, 72.19007
374.0523, 72.51782
374.5345, 73.09718
375.0166, 74.08821
375.4987, 75.47539
375.9808, 75.89896
376.4629, 75.02722
376.9450, 73.91143
377.4272, 73.54151
377.9093, 73.99805
378.3914, 74.45694
378.8735, 74.81069
379.3556, 75.04980
379.8377, 75.08262
380.3199, 74.88470
380.8020, 74.77769
381.2841, 75.04998
381.7662, 75.62678
382.2483, 76.07381
382.7304, 76.33567
383.2126, 76.53637
383.6947, 76.93946
384.1768, 77.47679
384.6589, 77.80505
385.1410, 77.66905
385.6231, 77.26267
386.1053, 76.87528
386.5874, 76.51250
387.0695, 76.19718
387.5516, 76.00905
388.0337, 75.86830
388.5158, 75.62685
388.9980, 75.09317
389.4801, 74.59718
389.9622, 74.45828
390.4443, 74.61397
390.9264, 74.80493
391.4085, 75.01011
391.8907, 75.11961
392.3728, 74.97279
392.8549, 74.35851
393.3370, 73.97176
393.8191, 74.45097
394.3012, 75.30820
394.7834, 75.72056
395.2655, 75.07898
395.7476, 74.27132
396.2297, 73.55615
396.7118, 72.93105
397.1939, 72.58392
397.6761, 72.83877
398.1582, 73.23013
398.6403, 73.36933
399.1224, 72.73258
399.6045, 72.43024
400.0866, 72.81309
400.5688, 73.71027
401.0509, 74.07050
401.5330, 73.49729
402.0151, 72.87837
402.4972, 72.70267
402.9793, 73.34929
403.4615, 73.39529
403.9436, 72.52328
404.4257, 71.32755
404.9078, 70.95208
405.3899, 71.65266
405.8720, 72.17004
406.3542, 71.93845
406.8363, 71.05044
407.3184, 70.88496
407.8005, 71.58976
408.2826, 72.39283
408.7647, 72.43349
409.2469, 71.77908
409.7290, 71.37211
410.2111, 71.50134
410.6932, 71.83352
411.1753, 71.71614
411.6574, 71.17942
412.1396, 70.50130
412.6217, 69.52285
413.1038, 68.60188
413.5859, 68.60447
414.0680, 69.75069
414.5501, 70.95735
415.0323, 71.11594
415.5144, 70.59755
415.9965, 70.13009
416.4786, 70.16704
416.9607, 70.27364
417.4428, 69.99648
417.9250, 69.39417
418.4071, 69.01234
418.8892, 69.55685
419.3713, 70.22846
419.8534, 70.29566
420.3355, 69.08085
420.8177, 68.09995
421.2998, 68.02402
421.7819, 68.52003
422.2640, 68.86133
422.7461, 68.81284
423.2282, 68.64758
423.7104, 68.37840
424.1925, 67.89664
424.6746, 67.79787
425.1567, 68.53723
425.6388, 69.40272
426.1209, 69.74471
426.6031, 69.09976
427.0852, 68.68726
427.5673, 68.77073
428.0494, 69.23008
428.5315, 69.32671
429.0136, 68.77470
429.4958, 68.45248
429.9779, 69.11446
430.4600, 71.05901
430.9421, 71.75567
431.4242, 70.79636
431.9063, 69.23324
432.3885, 68.73817
432.8706, 69.32595
433.3527, 69.98961
433.8348, 70.42338
434.3169, 70.66138
434.7990, 70.72368
435.2812, 70.60920
435.7633, 70.57742
436.2454, 70.99356
436.7275, 71.65089
437.2096, 72.04168
437.6917, 71.98796
438.1739, 71.84024
438.6560, 71.97110
439.1381, 72.30836
439.6202, 72.66139
440.1023, 73.12636
440.5844, 73.43765
441.0666, 73.16799
441.5487, 72.26195
442.0308, 71.75517
442.5129, 72.81213
442.9950, 74.22928
443.4771, 74.85689
443.9593, 73.49015
444.4414, 72.26073
444.9235, 71.65714
445.4056, 71.61275
445.8877, 71.86246
446.3698, 72.90403
446.8520, 73.77034
447.3341, 73.99501
447.8162, 73.25723
448.2983, 72.84263
448.7804, 72.80669
449.2625, 73.05758
449.7447, 73.55437
450.2268, 74.54005
450.7089, 75.21592
451.1910, 75.39940
451.6731, 75.15092
452.1552, 74.70014
452.6374, 73.98415
453.1195, 73.33189
453.6016, 72.97159
454.0837, 72.89961
454.5658, 72.93739
455.0479, 73.13794
455.5301, 73.25528
456.0122, 72.71805
456.4943, 71.66963
456.9764, 71.02392
457.4585, 71.36349
457.9406, 72.16038
458.4228, 72.57487
458.9049, 72.62595
459.3870, 72.53876
459.8691, 72.32520
460.3512, 72.12418
460.8333, 72.13406
461.3155, 72.45528
461.7976, 72.81390
462.2797, 72.99197
462.7618, 73.09228
463.2439, 73.29118
463.7260, 73.88817
464.2082, 74.39000
464.6903, 74.58305
465.1724, 74.46092
465.6545, 74.13595
466.1366, 73.23038
466.6187, 72.38991
467.1009, 72.03909
467.5830, 72.62338
468.0651, 73.13013
468.5472, 73.55857
469.0293, 73.90228
469.5114, 74.13064
469.9936, 74.16142
470.4757, 74.23007
470.9578, 74.39089
471.4399, 74.64408
471.9220, 75.10832
472.4041, 75.87746
472.8863, 76.56131
473.3684, 76.65199
473.8505, 76.17167
474.3326, 76.07771
474.8147, 76.61245
475.2968, 77.39896
475.7790, 77.71961
476.2611, 77.65284
476.7432, 77.70979
477.2253, 78.13616
477.7074, 78.85537
478.1895, 79.96940
478.6717, 81.46779
479.1538, 82.58585
479.6359, 82.46729
480.1180, 81.73086
480.6001, 81.11741
481.0822, 80.71648
481.5644, 80.63558
482.0465, 81.20836
482.5286, 82.13805
483.0107, 82.78091
483.4928, 82.62531
483.9749, 82.41476
484.4571, 82.44485
484.9392, 82.75452
485.4213, 83.12730
485.9034, 83.82302
486.3855, 84.38686
486.8676, 84.47754
487.3498, 83.64986
487.8319, 83.14773
488.3140, 83.10191
488.7961, 83.39481
489.2782, 83.83163
489.7603, 84.51988
490.2425, 84.96680
490.7246, 84.85789
491.2067, 84.26685
491.6888, 84.06559
492.1709, 84.31287
492.6530, 84.62288
493.1352, 84.57375
493.6173, 84.26809
494.0994, 84.13320
494.5815, 84.26516
495.0636, 84.56231
495.5457, 84.98691
496.0279, 85.48260
496.5100, 85.87810
496.9921, 85.95472
497.4742, 85.98671
497.9563, 86.27048
498.4384, 86.80280
498.9206, 87.26511
499.4027, 87.60017
499.8848, 87.73567
500.3669, 87.57869
500.8490, 86.75428
501.3311, 86.22893
501.8133, 86.44810
502.2954, 87.06857
502.7775, 87.43941
503.2596, 87.09892
503.7417, 86.98259
504.2238, 87.45522
504.7060, 88.49712
505.1881, 88.95218
505.6702, 88.58937
506.1523, 88.01093
506.6344, 87.56362
507.1165, 87.23380
507.5987, 87.17459
508.0808, 87.46658
508.5629, 87.89007
509.0450, 88.15566
509.5271, 88.26274
510.0092, 88.17500
510.4914, 87.70475
510.9735, 87.14298
511.4556, 87.17191
511.9377, 87.72929
512.4199, 88.28518
512.9020, 88.35934
513.3841, 88.27551
513.8662, 88.48922
514.3483, 89.14201
514.8304, 89.69833
515.3126, 89.64971
515.7947, 89.36424
516.2768, 89.31020
516.7589, 89.83021
517.2410, 90.38929
517.7231, 90.76933
518.2053, 91.02929
518.6874, 91.47215
519.1695, 92.45274
519.6516, 93.31778
520.1337, 93.76009
520.6158, 93.61083
521.0980, 93.83919
521.5801, 94.61511
522.0622, 95.55322
522.5443, 96.20721
523.0264, 96.47559
523.5085, 97.13206
523.9907, 98.44486
524.4728, 100.0266
524.9549, 100.9194
525.4370, 101.1602
525.9191, 101.5609
526.4012, 102.6154
526.8834, 104.1121
527.3655, 105.5893
527.8476, 107.0383
528.3297, 108.5694
528.8118, 110.4282
529.2939, 112.3367
529.7761, 113.8400
530.2582, 114.4950
530.7403, 115.5141
531.2224, 118.1672
531.7045, 121.5075
532.1866, 123.9717
532.6688, 124.0886
533.1509, 124.3377
533.6330, 125.4548
534.1151, 127.4356
534.5972, 129.7417
535.0793, 132.7448
535.5615, 135.6273
536.0436, 137.9568
536.5257, 139.5835
537.0078, 141.1973
537.4899, 142.6290
537.9720, 144.3117
538.4542, 146.8798
538.9363, 150.4091
539.4184, 154.0376
539.9005, 157.7631
540.3826, 161.2012
540.8647, 163.1909
541.3469, 163.8780
541.8290, 164.3613
542.3111, 165.3486
542.7932, 166.4923
543.2753, 167.1016
543.7574, 167.1646
544.2396, 167.5322
544.7217, 169.4242
545.2038, 171.5984
545.6859, 172.7531
546.1680, 172.1604
546.6501, 171.3081
547.1323, 170.6961
547.6144, 170.1495
548.0965, 169.3537
548.5786, 168.3760
549.0607, 167.0076
549.5428, 165.1358
550.0250, 162.7988
550.5071, 160.3851
550.9892, 157.8693
551.4713, 155.3182
551.9534, 152.7435
552.4355, 150.1461
552.9177, 147.5154
553.3998, 144.8360
553.8819, 142.1753
554.3640, 139.5780
554.8461, 137.0566
555.3282, 134.7112
555.8104, 132.6891
556.2925, 130.6860
556.7746, 128.2561
557.2567, 125.5032
557.7388, 122.7396
558.2209, 119.9833
558.7031, 117.4131
559.1852, 115.3173
559.6673, 113.6682
560.1494, 111.9399
560.6315, 109.9303
561.1136, 107.7836
561.5958, 105.5591
562.0779, 102.9909
562.5600, 100.8657
563.0421, 99.36026
563.5242, 98.22852
564.0063, 97.22903
564.4885, 96.55462
564.9706, 95.55459
565.4527, 93.98045
565.9348, 92.05444
566.4169, 90.43947
566.8990, 89.14695
567.3812, 88.14027
567.8633, 87.64217
568.3454, 87.43011
568.8275, 86.51463
569.3096, 84.88258
569.7917, 83.27298
570.2739, 82.55216
570.7560, 82.21534
571.2381, 81.40793
571.7202, 79.73171
572.2023, 78.21657
572.6844, 77.70676
573.1666, 77.72321
573.6487, 77.53300
574.1308, 76.75418
574.6129, 75.90401
575.0950, 75.01498
575.5771, 74.14272
576.0593, 73.57900
576.5414, 73.53789
577.0235, 73.55083
577.5056, 73.47396
577.9877, 73.31458
578.4698, 72.92062
578.9520, 72.16568
579.4341, 71.48684
579.9162, 71.46667
580.3983, 72.03537
580.8804, 72.04427
581.3625, 71.21746
581.8447, 70.14530
582.3268, 69.57960
582.8089, 69.43279
583.2910, 69.43986
583.7731, 69.63091
584.2552, 69.81005
584.7373, 69.93642
585.2194, 69.93728
585.7015, 69.53831
586.1837, 67.86998
586.6658, 66.38953
587.1479, 66.02784
