##NAMES=Yvonite
##RRUFFID=R100010
##IDEAL CHEMISTRY=Cu^2+^(As^5+^O_3_OH)&#183;2H_2_O
##LOCALITY=Salsigne Gold mine, Aude, France
##OWNER=RRUFF
##SOURCE=William Pinch
##DESCRIPTION=Aggregates of pale blue grains
##STATUS=The identification of this mineral has been confirmed by single-crystal X-ray diffraction.
##URL=rruff.info/R100010
91.18097, 0.0000000E+00
91.66309, 77.23548
92.14520, 78.80124
92.62732, 79.70167
93.10944, 78.75207
93.59155, 77.11069
94.07367, 75.72245
94.55579, 74.72168
95.03790, 73.97512
95.52002, 73.49229
96.00214, 73.49100
96.48425, 72.79726
96.96637, 70.50594
97.44849, 68.07472
97.93060, 66.46648
98.41272, 65.94154
98.89484, 66.11040
99.37695, 66.29229
99.85907, 66.75765
100.3412, 66.90697
100.8233, 66.51701
101.3054, 65.81496
101.7875, 65.08994
102.2697, 64.50695
102.7518, 64.06106
103.2339, 63.68904
103.7160, 63.28286
104.1981, 63.00652
104.6802, 63.01172
105.1624, 63.25389
105.6445, 63.47286
106.1266, 63.36766
106.6087, 62.94545
107.0908, 62.80788
107.5729, 63.20847
108.0551, 63.81928
108.5372, 64.24693
109.0193, 64.41898
109.5014, 64.46676
109.9835, 64.40047
110.4656, 64.26731
110.9478, 64.32649
111.4299, 65.04997
111.9120, 66.27762
112.3941, 66.69669
112.8762, 65.36265
113.3583, 63.83041
113.8405, 63.03001
114.3226, 62.98861
114.8047, 63.17975
115.2868, 62.91935
115.7689, 61.86809
116.2510, 61.39200
116.7332, 62.13232
117.2153, 63.06466
117.6974, 63.52166
118.1795, 63.28995
118.6616, 62.59265
119.1437, 61.93256
119.6259, 61.08176
120.1080, 60.58279
120.5901, 60.85834
121.0722, 61.38708
121.5543, 61.47567
122.0364, 60.72826
122.5186, 59.32827
123.0007, 58.28062
123.4828, 57.24821
123.9649, 56.78013
124.4470, 57.73489
124.9291, 59.66853
125.4113, 60.78496
125.8934, 59.52592
126.3755, 56.42936
126.8576, 54.55512
127.3397, 54.94305
127.8218, 55.98819
128.3040, 56.10155
128.7861, 55.10770
129.2682, 54.06705
129.7503, 53.83904
130.2324, 54.08207
130.7145, 54.29672
131.1967, 54.38781
131.6788, 54.30784
132.1609, 53.88254
132.6430, 52.92030
133.1251, 51.84163
133.6072, 50.76327
134.0894, 49.73109
134.5715, 48.82787
135.0536, 48.06205
135.5357, 47.40851
136.0178, 47.18642
136.4999, 48.22310
136.9821, 49.01081
137.4642, 48.89642
137.9463, 47.92597
138.4284, 46.59155
138.9105, 45.41381
139.3926, 44.32425
139.8748, 43.64278
140.3569, 43.60454
140.8390, 43.72780
141.3211, 43.67505
141.8032, 43.37115
142.2853, 42.99217
142.7675, 42.84243
143.2496, 43.16747
143.7317, 43.25832
144.2138, 42.81327
144.6959, 42.19434
145.1780, 41.91613
145.6602, 42.20846
146.1423, 42.75923
146.6244, 42.89741
147.1065, 42.57158
147.5886, 42.15117
148.0707, 41.79504
148.5529, 41.46443
149.0350, 40.99623
149.5171, 40.20398
149.9992, 39.34493
150.4813, 38.81915
150.9634, 38.73057
151.4456, 38.72168
151.9277, 38.43036
152.4098, 37.81512
152.8919, 37.34238
153.3740, 37.22129
153.8561, 37.32808
154.3383, 37.67122
154.8204, 38.32213
155.3025, 39.00024
155.7846, 39.23353
156.2667, 38.92439
156.7488, 38.33191
157.2310, 37.00795
157.7131, 35.67769
158.1952, 35.19140
158.6773, 36.05047
159.1594, 37.81441
159.6415, 38.77986
160.1237, 38.00102
160.6058, 37.48629
161.0879, 37.95432
161.5700, 38.82540
162.0521, 39.18378
162.5342, 38.38338
163.0164, 36.54230
163.4985, 35.57392
163.9806, 36.20226
164.4627, 36.87363
164.9448, 37.13015
165.4269, 37.06889
165.9091, 37.06515
166.3912, 37.47767
166.8733, 38.30227
167.3554, 38.30444
167.8375, 36.57578
168.3196, 34.92532
168.8018, 34.57104
169.2839, 35.44647
169.7660, 36.42665
170.2481, 36.55590
170.7302, 35.83213
171.2123, 35.21129
171.6945, 34.56129
172.1766, 34.12598
172.6587, 34.31860
173.1408, 35.25980
173.6229, 36.17835
174.1050, 36.35907
174.5872, 35.97370
175.0693, 35.34352
175.5514, 34.09387
176.0335, 32.72904
176.5156, 32.41808
176.9977, 33.69476
177.4799, 35.09496
177.9620, 35.76142
178.4441, 35.79015
178.9262, 35.32393
179.4083, 33.99150
179.8904, 32.01890
180.3726, 31.04850
180.8547, 31.92603
181.3368, 32.89978
181.8189, 33.03725
182.3010, 32.54333
182.7831, 32.06025
183.2653, 32.20879
183.7474, 33.05769
184.2295, 33.50247
184.7116, 33.08490
185.1937, 32.61716
185.6758, 32.36492
186.1580, 32.32059
186.6401, 32.33627
187.1222, 32.26213
187.6043, 32.06917
188.0864, 31.91140
188.5685, 31.79228
189.0507, 31.69861
189.5328, 31.60187
190.0149, 31.51333
190.4970, 31.49891
190.9791, 31.67360
191.4612, 32.22833
191.9434, 32.32357
192.4255, 31.43578
192.9076, 30.52298
193.3897, 30.27756
193.8718, 30.79533
194.3539, 31.66002
194.8361, 32.42221
195.3182, 33.22886
195.8003, 33.32578
196.2824, 31.91579
196.7645, 30.20429
197.2466, 29.47893
197.7288, 30.04249
198.2109, 30.96672
198.6930, 30.91413
199.1751, 29.71002
199.6572, 28.86298
200.1393, 28.70414
200.6215, 29.01432
201.1036, 29.60257
201.5857, 30.52422
202.0678, 31.39715
202.5499, 31.59497
203.0320, 31.18042
203.5142, 30.89166
203.9963, 31.16113
204.4784, 31.74226
204.9605, 32.03155
205.4426, 31.84830
205.9247, 31.46162
206.4069, 31.17189
206.8890, 30.95823
207.3711, 30.63671
207.8532, 29.84890
208.3353, 28.76948
208.8174, 28.33442
209.2996, 28.94803
209.7817, 29.95535
210.2638, 31.11227
210.7459, 32.31102
211.2280, 33.06167
211.7101, 32.78424
212.1923, 31.51257
212.6744, 30.44801
213.1565, 29.51771
213.6386, 29.03582
214.1207, 29.30235
214.6028, 30.20911
215.0850, 31.30665
215.5671, 32.40598
216.0492, 33.62316
216.5313, 33.92698
217.0134, 31.81388
217.4955, 29.96912
217.9777, 29.73923
218.4598, 30.90916
218.9419, 32.23273
219.4240, 32.34566
219.9061, 30.89139
220.3882, 30.03097
220.8704, 30.21290
221.3525, 30.56399
221.8346, 30.75380
222.3167, 30.75230
222.7988, 30.70049
223.2809, 30.79139
223.7631, 31.17928
224.2452, 31.01002
224.7273, 29.74374
225.2094, 28.48699
225.6915, 27.73096
226.1736, 27.52221
226.6558, 27.70167
227.1379, 28.17489
227.6200, 29.11929
228.1021, 29.47878
228.5842, 28.93478
229.0663, 28.17749
229.5485, 27.49610
230.0306, 26.96106
230.5127, 26.58370
230.9948, 26.36661
231.4769, 26.30933
231.9590, 26.56359
232.4412, 27.60716
232.9233, 28.56349
233.4054, 28.74805
233.8875, 28.17614
234.3696, 27.47322
234.8517, 27.20916
235.3339, 27.44877
235.8160, 27.70950
236.2981, 28.22490
236.7802, 28.59584
237.2623, 28.37729
237.7444, 27.58391
238.2266, 26.80715
238.7087, 26.57273
239.1908, 26.88005
239.6729, 27.08524
240.1550, 27.17037
240.6371, 27.14491
241.1193, 26.94293
241.6014, 26.56590
242.0835, 26.25030
242.5656, 26.15058
243.0477, 26.27052
243.5298, 26.56248
244.0120, 27.26954
244.4941, 27.99195
244.9762, 28.37826
245.4583, 28.42085
245.9404, 28.19896
246.4225, 27.55735
246.9047, 26.71333
247.3868, 26.13690
247.8689, 25.89925
248.3510, 25.95178
248.8331, 26.41450
249.3152, 27.35450
249.7974, 28.03471
250.2795, 27.80602
250.7616, 27.14876
251.2437, 26.72852
251.7258, 26.74972
252.2079, 26.93174
252.6901, 26.97023
253.1722, 26.85448
253.6543, 26.67353
254.1364, 26.34340
254.6185, 26.02407
255.1006, 25.87599
255.5828, 25.94349
256.0649, 26.16442
256.5470, 26.50762
257.0291, 26.99933
257.5112, 27.45016
257.9933, 27.88458
258.4755, 28.19893
258.9576, 28.27989
259.4397, 28.09157
259.9218, 27.76088
260.4039, 27.39897
260.8860, 26.98699
261.3682, 26.65292
261.8503, 26.45787
262.3324, 26.33548
262.8145, 26.26392
263.2966, 26.23691
263.7787, 26.22973
264.2609, 26.10148
264.7430, 25.74024
265.2251, 25.88930
265.7072, 27.84437
266.1893, 29.47600
266.6714, 29.31427
267.1536, 27.38590
267.6357, 25.16880
268.1178, 24.23236
268.5999, 24.78300
269.0820, 25.42276
269.5641, 26.62142
270.0463, 27.46128
270.5284, 27.25952
271.0105, 26.18656
271.4926, 25.07064
271.9747, 24.74408
272.4568, 25.31237
272.9390, 25.72977
273.4211, 25.75850
273.9032, 25.83982
274.3853, 26.21037
274.8674, 26.78389
275.3495, 27.30360
275.8317, 27.57995
276.3138, 27.61160
276.7959, 27.43478
277.2780, 26.33520
277.7601, 25.72608
278.2422, 26.51899
278.7244, 28.08779
279.2065, 29.15777
279.6886, 28.75269
280.1707, 27.05774
280.6528, 26.02015
281.1349, 26.40591
281.6171, 26.68895
282.0992, 26.42511
282.5813, 25.90274
283.0634, 25.59791
283.5455, 25.80624
284.0276, 26.38754
284.5098, 26.69986
284.9919, 26.41845
285.4740, 26.24983
285.9561, 26.49079
286.4382, 26.81754
286.9203, 26.76748
287.4025, 26.12765
287.8846, 25.19928
288.3667, 24.78842
288.8488, 25.21031
289.3309, 25.76814
289.8130, 26.76829
290.2952, 27.69680
290.7773, 28.00188
291.2594, 27.52457
291.7415, 26.64091
292.2236, 26.04012
292.7057, 26.03939
293.1879, 25.79401
293.6700, 24.79407
294.1521, 23.91081
294.6342, 24.03480
295.1163, 25.21952
295.5984, 26.58395
296.0806, 26.90302
296.5627, 25.59543
297.0448, 24.90805
297.5269, 25.40072
298.0090, 25.94828
298.4911, 25.76658
298.9733, 24.90838
299.4554, 24.00980
299.9375, 23.69396
300.4196, 24.02291
300.9017, 24.56814
301.3839, 25.88547
301.8660, 26.85764
302.3481, 26.71274
302.8302, 25.77427
303.3123, 25.00611
303.7944, 25.17528
304.2766, 26.24415
304.7587, 26.86255
305.2408, 26.61624
305.7229, 26.40399
306.2050, 26.72738
306.6871, 27.21767
307.1693, 27.11222
307.6514, 25.92703
308.1335, 23.99900
308.6156, 22.89340
309.0977, 23.34898
309.5798, 23.80326
310.0620, 24.06268
310.5441, 24.25475
311.0262, 24.64447
311.5083, 25.33504
311.9904, 26.03909
312.4725, 26.10458
312.9547, 24.67781
313.4368, 23.75928
313.9189, 23.39381
314.4010, 23.47990
314.8831, 24.25892
315.3652, 25.65640
315.8474, 26.86586
316.3295, 26.59940
316.8116, 23.70446
317.2937, 22.42385
317.7758, 24.12067
318.2579, 26.11804
318.7401, 26.57813
319.2222, 25.53049
319.7043, 24.33013
320.1864, 24.36105
320.6685, 25.86500
321.1506, 26.61378
321.6328, 26.00821
322.1149, 25.36971
322.5970, 25.24755
323.0791, 25.52795
323.5612, 25.82090
324.0433, 25.85239
324.5255, 25.65525
325.0076, 25.58897
325.4897, 25.83896
325.9718, 26.00975
326.4539, 26.00561
326.9360, 25.88401
327.4182, 25.70887
327.9003, 25.50735
328.3824, 25.31844
328.8645, 25.26141
329.3466, 25.67045
329.8287, 25.74557
330.3109, 25.19462
330.7930, 24.45019
331.2751, 23.79338
331.7572, 23.34373
332.2393, 23.23600
332.7214, 23.74464
333.2036, 25.32052
333.6857, 26.47264
334.1678, 27.07762
334.6499, 27.44286
335.1320, 27.80703
335.6141, 28.14513
336.0963, 28.17732
336.5784, 27.50423
337.0605, 25.93731
337.5426, 25.29958
338.0247, 26.54566
338.5068, 27.72233
338.9890, 28.33239
339.4711, 28.35118
339.9532, 27.73632
340.4353, 26.33397
340.9174, 24.41015
341.3995, 23.69306
341.8817, 25.66001
342.3638, 27.10740
342.8459, 27.32991
343.3280, 26.87016
343.8101, 26.28602
344.2922, 25.81620
344.7744, 25.54834
345.2565, 25.77719
345.7386, 27.15921
346.2207, 27.71838
346.7028, 26.67885
347.1849, 25.34486
347.6671, 24.61905
348.1492, 24.67549
348.6313, 25.18213
349.1134, 25.84644
349.5955, 26.78747
350.0776, 27.34256
350.5598, 27.33220
351.0419, 27.08449
351.5240, 26.51951
352.0061, 25.79682
352.4882, 25.29601
352.9703, 25.41685
353.4525, 26.05549
353.9346, 26.09879
354.4167, 24.77459
354.8988, 23.89411
355.3809, 24.33266
355.8630, 25.39176
356.3452, 26.10309
356.8273, 25.98695
357.3094, 25.39597
357.7915, 25.09670
358.2736, 25.19127
358.7557, 25.32186
359.2379, 25.58386
359.7200, 25.74170
360.2021, 25.48939
360.6842, 24.78273
361.1663, 24.09284
361.6484, 24.00139
362.1306, 24.56589
362.6127, 25.05005
363.0948, 25.31149
363.5769, 25.53284
364.0590, 26.03645
364.5411, 26.66185
365.0233, 26.79789
365.5054, 25.54359
365.9875, 23.37270
366.4696, 22.48735
366.9517, 23.50843
367.4338, 24.61635
367.9160, 24.96368
368.3981, 24.77922
368.8802, 24.31284
369.3623, 23.48637
369.8444, 22.65582
370.3265, 22.33564
370.8087, 22.55302
371.2908, 23.06131
371.7729, 24.24295
372.2550, 25.35760
372.7371, 25.54794
373.2192, 24.64054
373.7014, 23.45904
374.1835, 22.34362
374.6656, 21.39214
375.1477, 21.09650
375.6298, 21.72297
376.1119, 22.76589
376.5941, 24.05308
377.0762, 25.46979
377.5583, 26.19940
378.0404, 25.40094
378.5225, 23.95796
379.0046, 23.17953
379.4868, 23.18383
379.9689, 23.40045
380.4510, 23.54629
380.9331, 23.60014
381.4152, 23.51564
381.8973, 23.13979
382.3795, 22.79221
382.8616, 22.79023
383.3437, 23.02636
383.8258, 23.01754
384.3079, 22.46974
384.7900, 21.72591
385.2722, 21.51258
385.7543, 21.91808
386.2364, 22.35824
386.7185, 22.83913
387.2006, 23.19955
387.6827, 23.06806
388.1649, 22.36965
388.6470, 21.76906
389.1291, 22.08490
389.6112, 23.49505
390.0933, 24.11404
390.5754, 23.31781
391.0576, 22.29562
391.5397, 21.63518
392.0218, 21.36056
392.5039, 21.40165
392.9860, 21.76461
393.4681, 22.35030
393.9503, 22.66892
394.4324, 22.29135
394.9145, 22.20131
395.3966, 22.97622
395.8787, 23.93653
396.3608, 24.19296
396.8430, 23.49305
397.3251, 22.38599
397.8072, 21.67913
398.2893, 21.46409
398.7714, 21.44147
399.2535, 21.89906
399.7357, 22.27155
400.2178, 21.95818
400.6999, 21.20928
401.1820, 20.94602
401.6641, 22.03247
402.1462, 24.27785
402.6284, 25.23586
403.1105, 23.30989
403.5926, 21.94137
404.0747, 22.25737
404.5568, 23.23856
405.0389, 23.57489
405.5211, 22.76142
406.0032, 21.49490
406.4853, 21.07468
406.9674, 21.88074
407.4495, 22.35717
407.9316, 21.77992
408.4138, 21.29618
408.8959, 21.71012
409.3780, 22.91275
409.8601, 24.09522
410.3422, 24.59064
410.8243, 24.47194
411.3065, 24.34640
411.7886, 24.25586
412.2707, 24.07998
412.7528, 23.78294
413.2349, 23.37580
413.7170, 22.79226
414.1992, 21.86771
414.6813, 21.08457
415.1634, 21.28888
415.6455, 22.54648
416.1276, 23.51653
416.6097, 23.80300
417.0919, 23.60777
417.5740, 23.05870
418.0561, 22.15332
418.5382, 21.39048
419.0203, 21.05775
419.5024, 21.05589
419.9846, 21.28294
420.4667, 21.81325
420.9488, 22.15606
421.4309, 21.69040
421.9130, 20.68341
422.3951, 20.13576
422.8773, 20.41727
423.3594, 20.96335
423.8415, 21.59655
424.3236, 22.21631
424.8057, 22.36126
425.2878, 21.70341
425.7700, 20.71194
426.2521, 20.46491
426.7342, 21.28181
427.2163, 21.80090
427.6984, 21.37116
428.1805, 20.77029
428.6627, 20.99607
429.1448, 22.10741
429.6269, 23.13023
430.1090, 23.09785
430.5911, 21.92879
431.0732, 21.34431
431.5554, 21.87227
432.0375, 22.28078
432.5196, 21.81908
433.0017, 21.01981
433.4838, 20.91226
433.9659, 21.98334
434.4481, 23.60826
434.9302, 24.39612
435.4123, 23.79719
435.8944, 23.31704
436.3765, 22.97300
436.8586, 22.74860
437.3408, 22.69165
437.8229, 22.76407
438.3050, 22.82754
438.7871, 22.73207
439.2692, 22.49710
439.7513, 22.47542
440.2335, 22.89105
440.7156, 23.20104
441.1977, 23.34528
441.6798, 23.27067
442.1619, 22.71923
442.6440, 21.50642
443.1262, 20.48479
443.6083, 21.25190
444.0904, 24.04371
444.5725, 25.62944
445.0546, 24.60601
445.5367, 22.96601
446.0189, 22.16571
446.5010, 22.12343
446.9831, 22.21234
447.4652, 22.21576
447.9473, 22.10707
448.4294, 21.73491
448.9116, 21.04226
449.3937, 20.53104
449.8758, 20.42682
450.3579, 20.75182
450.8400, 21.57440
451.3221, 23.37740
451.8043, 24.70486
452.2864, 24.56605
452.7685, 23.41954
453.2506, 22.10032
453.7327, 20.76277
454.2148, 19.68417
454.6970, 19.17247
455.1791, 19.29612
455.6612, 19.87609
456.1433, 21.80430
456.6254, 23.39009
457.1075, 23.19720
457.5897, 21.75146
458.0718, 20.73576
458.5539, 21.12192
459.0360, 22.43314
459.5181, 23.18575
460.0002, 22.95893
460.4824, 22.69016
460.9645, 22.19408
461.4466, 21.79692
461.9287, 21.87311
462.4108, 22.39108
462.8929, 22.90581
463.3751, 22.90847
463.8572, 22.39082
464.3393, 22.44801
464.8214, 23.86755
465.3035, 24.89585
465.7856, 24.89920
466.2678, 24.32342
466.7499, 23.69233
467.2320, 23.18574
467.7141, 22.83500
468.1962, 22.66181
468.6783, 22.65610
469.1605, 23.00620
469.6426, 24.43923
470.1247, 25.44372
470.6068, 24.53131
471.0889, 22.17813
471.5710, 20.37967
472.0532, 20.39567
472.5353, 21.39068
473.0174, 22.20612
473.4995, 22.84818
473.9816, 23.12566
474.4637, 22.76856
474.9459, 22.10427
475.4280, 21.80250
475.9101, 21.96039
476.3922, 22.16152
476.8743, 22.26281
477.3564, 22.30652
477.8386, 22.24397
478.3207, 22.08174
478.8028, 22.22793
479.2849, 23.21967
479.7670, 25.05899
480.2491, 25.83341
480.7313, 24.76783
481.2134, 23.67825
481.6955, 23.04672
482.1776, 22.83282
482.6597, 23.02023
483.1418, 23.58492
483.6240, 24.29334
484.1061, 24.78132
484.5882, 25.09873
485.0703, 25.03089
485.5524, 23.93210
486.0345, 23.09476
486.5167, 23.47808
486.9988, 24.59677
487.4809, 25.24189
487.9630, 24.59636
488.4451, 23.23337
488.9272, 22.68355
489.4094, 23.27181
489.8915, 23.66495
490.3736, 23.15975
490.8557, 22.58191
491.3378, 22.61000
491.8199, 23.25122
492.3021, 23.80210
492.7842, 23.62022
493.2663, 23.03687
493.7484, 22.97660
494.2305, 23.60957
494.7126, 24.01744
495.1948, 23.39650
495.6769, 22.22531
496.1590, 21.72172
496.6411, 22.18480
497.1232, 22.81799
497.6053, 23.45841
498.0875, 23.96118
498.5696, 23.93583
499.0517, 23.29279
499.5338, 22.63143
500.0159, 22.64556
500.4980, 23.42846
500.9802, 23.80436
501.4623, 23.50628
501.9444, 23.14843
502.4265, 22.92475
502.9086, 22.81121
503.3907, 22.75241
503.8729, 22.72464
504.3550, 22.71816
504.8371, 22.68148
505.3192, 22.49048
505.8013, 22.61911
506.2834, 23.54467
506.7656, 24.33188
507.2477, 24.46340
507.7298, 24.12777
508.2119, 23.82146
508.6940, 23.83763
509.1761, 24.00357
509.6583, 23.95588
510.1404, 23.65946
510.6225, 23.32909
511.1046, 22.77371
511.5867, 22.44525
512.0688, 22.96893
512.5510, 24.29299
513.0331, 25.23481
513.5152, 25.01904
513.9973, 24.19584
514.4794, 23.45869
514.9615, 22.84280
515.4437, 22.43082
515.9258, 22.29652
516.4079, 22.37848
516.8900, 22.51528
517.3721, 22.79356
517.8542, 22.94798
518.3364, 22.78762
518.8185, 22.55425
519.3006, 22.50960
519.7827, 22.67293
520.2648, 22.88702
520.7469, 23.01351
521.2291, 23.06258
521.7112, 23.18833
522.1933, 23.50388
522.6754, 23.76002
523.1575, 23.92495
523.6396, 24.01566
524.1218, 24.07818
524.6039, 24.11015
525.0860, 24.01929
525.5681, 23.50873
526.0502, 22.60331
526.5323, 22.48282
527.0145, 23.59030
527.4966, 24.72384
527.9787, 25.35380
528.4608, 25.65368
528.9429, 25.85542
529.4250, 26.02468
529.9072, 26.06636
530.3893, 25.71441
530.8714, 25.15388
531.3535, 25.20500
531.8356, 26.22524
532.3177, 26.92389
532.7999, 25.75724
533.2820, 22.85312
533.7641, 21.21578
534.2462, 21.70564
534.7283, 22.62015
535.2104, 23.41059
535.6926, 24.04200
536.1747, 24.52485
536.6568, 24.85693
537.1389, 24.94330
537.6210, 24.57299
538.1031, 23.50432
538.5853, 23.05362
539.0674, 23.60574
539.5495, 24.32942
540.0316, 25.16489
540.5137, 25.93062
540.9958, 26.43472
541.4780, 26.60603
541.9601, 26.36002
542.4422, 25.33628
542.9243, 23.43957
543.4064, 22.10987
543.8885, 21.55620
544.3707, 21.61062
544.8528, 22.49797
545.3349, 23.85629
545.8170, 24.71947
546.2991, 24.63374
546.7813, 24.10149
547.2634, 23.32770
547.7455, 22.45283
548.2276, 22.08718
548.7097, 22.48533
549.1918, 23.23361
549.6740, 23.88436
550.1561, 24.47215
550.6382, 24.59501
551.1203, 23.76648
551.6024, 22.94753
552.0845, 22.77552
552.5667, 22.96612
553.0488, 22.83197
553.5309, 22.07870
554.0130, 21.18857
554.4951, 21.13967
554.9772, 22.41104
555.4594, 23.06061
555.9415, 22.79981
556.4236, 22.16576
556.9057, 20.90705
557.3878, 19.48346
557.8699, 18.78106
558.3521, 19.32961
558.8342, 20.33834
559.3163, 20.66006
559.7984, 20.32450
560.2805, 20.27258
560.7626, 20.86004
561.2448, 21.51490
561.7269, 21.50099
562.2090, 21.00243
562.6911, 20.92220
563.1732, 22.01976
563.6553, 23.02188
564.1375, 22.97328
564.6196, 22.18720
565.1017, 21.35208
565.5838, 20.69648
566.0659, 20.31993
566.5480, 20.38554
567.0302, 20.98120
567.5123, 21.64747
567.9944, 23.01729
568.4765, 23.76967
568.9586, 22.96138
569.4407, 21.35434
569.9229, 20.08849
570.4050, 19.60095
570.8871, 19.55643
571.3692, 19.48379
571.8513, 19.36985
572.3334, 19.55334
572.8156, 20.34857
573.2977, 20.99693
573.7798, 21.01382
574.2619, 20.59376
574.7440, 20.01982
575.2261, 19.14435
575.7083, 18.55997
576.1904, 18.95325
576.6725, 19.95396
577.1546, 20.67490
577.6367, 20.91731
578.1188, 20.92230
578.6010, 20.86580
579.0831, 20.74962
579.5652, 20.80583
580.0473, 21.28075
580.5294, 21.60518
581.0115, 21.47087
581.4937, 21.18192
581.9758, 21.13766
582.4579, 21.40017
582.9400, 21.67364
583.4221, 21.65457
583.9042, 21.35015
584.3864, 20.94758
584.8685, 20.44119
585.3506, 19.83421
585.8327, 18.69919
586.3148, 17.70016
586.7969, 17.70228
587.2791, 18.87103
587.7612, 20.06043
588.2433, 20.36585
588.7254, 20.21072
589.2075, 20.49234
