##NAMES=Zalesiite
##RRUFFID=R060228
##IDEAL CHEMISTRY=Cu^2+^_6_Ca(As^5+^O_4_)_2_(As^5+^O_3_OH)(OH)_6_&#183;3H_2_O
##LOCALITY=Hilarion mine, near Kamareza, Laurium, Attica Penninsula, Greece
##OWNER=RRUFF
##SOURCE=Michael Scott
##DESCRIPTION=Radiating light blue acicular crystals
##STATUS=The identification of this mineral is confirmed by single-crystal X-ray diffraction and chemical analysis.
##URL=rruff.info/R060228
##MEASURED CHEMISTRY=(Ca_0.53_La_0.22_Nd_0.14_Y_0.11_)_Σ=1_(Cu^2+^_5.55_Fe_0.25_Zn_0.20_)_Σ=6_(As_1.00_O_4_)_2_(As_1.00_O_3.47_(OH)_0.53_)(OH)_6_·3H_2_O; OH estimated by charge balance; H_2_O by difference;
150.8963, 428.8067
151.3785, 437.2840
151.8606, 447.5350
152.3427, 461.4588
152.8248, 473.1313
153.3069, 480.2814
153.7890, 485.3748
154.2712, 491.2669
154.7533, 499.2614
155.2354, 506.6745
155.7175, 511.7773
156.1996, 513.6239
156.6817, 514.6019
157.1639, 514.0036
157.6460, 512.7606
158.1281, 512.9107
158.6102, 515.9756
159.0923, 519.6938
159.5744, 522.9136
160.0566, 524.7834
160.5387, 527.1479
161.0208, 531.1644
161.5029, 536.1732
161.9850, 540.2300
162.4671, 542.2626
162.9493, 543.3992
163.4314, 544.3069
163.9135, 544.2621
164.3956, 545.1351
164.8777, 548.5612
165.3598, 553.8744
165.8420, 558.3184
166.3241, 559.9897
166.8062, 560.4837
167.2883, 561.1351
167.7704, 561.2276
168.2525, 562.6597
168.7346, 567.8812
169.2168, 576.1979
169.6989, 583.2021
170.1810, 584.9316
170.6631, 584.2744
171.1452, 584.7176
171.6273, 589.0652
172.1095, 593.6487
172.5916, 595.2064
173.0737, 593.9465
173.5558, 592.1502
174.0379, 591.1234
174.5201, 590.7025
175.0022, 590.6240
175.4843, 591.7588
175.9664, 592.6566
176.4485, 591.0018
176.9306, 586.8430
177.4128, 582.8441
177.8949, 581.6549
178.3770, 582.3477
178.8591, 582.8458
179.3412, 582.4911
179.8233, 581.3818
180.3055, 579.3801
180.7876, 576.4102
181.2697, 573.5189
181.7518, 571.8375
182.2339, 571.1031
182.7160, 570.4066
183.1982, 569.3029
183.6803, 567.9921
184.1624, 566.8701
184.6445, 565.9387
185.1266, 565.2715
185.6087, 565.4555
186.0909, 566.2180
186.5730, 566.0789
187.0551, 563.9259
187.5372, 560.3267
188.0193, 556.9138
188.5014, 553.6161
188.9836, 550.9022
189.4657, 549.4979
189.9478, 549.3187
190.4299, 549.3574
190.9120, 549.6030
191.3941, 549.8340
191.8763, 548.6790
192.3584, 545.9248
192.8405, 542.3489
193.3226, 538.7025
193.8047, 535.0003
194.2868, 531.7097
194.7690, 529.1884
195.2511, 527.3862
195.7332, 525.3864
196.2153, 523.1361
196.6974, 520.7892
197.1795, 519.0101
197.6617, 517.9162
198.1438, 515.9249
198.6259, 511.7095
199.1080, 505.3009
199.5901, 500.0952
200.0722, 496.1986
200.5544, 493.5112
201.0365, 492.4371
201.5186, 493.3205
202.0007, 493.5572
202.4828, 491.3838
202.9649, 486.5184
203.4471, 483.2057
203.9292, 481.8026
204.4113, 481.5810
204.8934, 481.1620
205.3755, 480.5039
205.8576, 479.8116
206.3398, 479.1529
206.8219, 478.5127
207.3040, 478.0650
207.7861, 478.0008
208.2682, 477.9549
208.7503, 476.9071
209.2325, 474.4041
209.7146, 472.3813
210.1967, 471.9690
210.6788, 473.6281
211.1609, 474.6307
211.6430, 474.6967
212.1252, 474.2897
212.6073, 474.5348
213.0894, 475.7285
213.5715, 476.8058
214.0536, 477.0975
214.5357, 476.1433
215.0179, 476.2480
215.5000, 477.9080
215.9821, 480.3134
216.4642, 481.5167
216.9463, 480.9179
217.4284, 480.3759
217.9105, 480.7873
218.3927, 482.5551
218.8748, 483.9512
219.3569, 485.0624
219.8390, 485.7490
220.3211, 485.4635
220.8032, 483.2545
221.2854, 481.8643
221.7675, 482.8071
222.2496, 487.4280
222.7317, 490.0833
223.2138, 490.0815
223.6959, 488.4520
224.1781, 487.4610
224.6602, 487.5487
225.1423, 487.5085
225.6244, 486.7712
226.1065, 484.9330
226.5886, 483.6013
227.0708, 483.0145
227.5529, 482.8039
228.0350, 482.2615
228.5171, 481.5171
228.9992, 480.2087
229.4813, 478.0427
229.9635, 474.5497
230.4456, 471.7291
230.9277, 469.9509
231.4098, 468.6880
231.8919, 466.9359
232.3740, 464.6939
232.8562, 461.9753
233.3383, 458.5204
233.8204, 453.6240
234.3025, 450.4102
234.7846, 449.7716
235.2667, 450.3271
235.7489, 449.5010
236.2310, 446.3571
236.7131, 443.3756
237.1952, 441.4891
237.6773, 441.2094
238.1594, 440.2640
238.6416, 438.5233
239.1237, 436.2032
239.6058, 433.5168
240.0879, 429.7086
240.5700, 426.7186
241.0521, 425.2991
241.5343, 425.8525
242.0164, 426.2541
242.4985, 426.5115
242.9806, 426.6041
243.4627, 426.5004
243.9448, 426.1779
244.4270, 425.6614
244.9091, 424.7692
245.3912, 423.2482
245.8733, 422.7803
246.3554, 424.0737
246.8375, 425.8401
247.3197, 426.3235
247.8018, 424.8528
248.2839, 423.2795
248.7660, 421.8940
249.2481, 420.6015
249.7302, 420.3987
250.2124, 422.0556
250.6945, 424.1016
251.1766, 424.8282
251.6587, 423.7147
252.1408, 422.3144
252.6229, 420.9450
253.1051, 419.6071
253.5872, 418.1249
254.0693, 416.2482
254.5514, 414.4789
255.0335, 413.4023
255.5156, 413.4049
255.9978, 413.2598
256.4799, 412.6459
256.9620, 411.5628
257.4441, 410.7926
257.9262, 410.4455
258.4083, 410.2563
258.8904, 410.0205
259.3726, 409.7755
259.8547, 409.3480
260.3368, 408.5290
260.8189, 407.4019
261.3010, 407.1495
261.7831, 408.3403
262.2653, 409.5117
262.7474, 409.3271
263.2295, 407.1062
263.7116, 405.5318
264.1937, 405.1229
264.6758, 405.6698
265.1580, 405.9810
265.6401, 406.0371
266.1222, 405.8985
266.6043, 405.5048
267.0864, 404.6617
267.5685, 404.3249
268.0507, 404.8766
268.5328, 405.9362
269.0149, 405.9150
269.4970, 404.3534
269.9791, 402.8080
270.4612, 402.2877
270.9434, 403.0725
271.4255, 403.5513
271.9076, 403.5539
272.3897, 403.2332
272.8718, 402.9432
273.3539, 402.6427
273.8361, 402.4865
274.3182, 402.5816
274.8003, 402.9521
275.2824, 403.3419
275.7645, 403.7352
276.2466, 404.1383
276.7288, 404.6225
277.2109, 405.2371
277.6930, 405.6718
278.1751, 405.5727
278.6572, 404.8797
279.1393, 405.0432
279.6215, 406.3530
280.1036, 407.9756
280.5857, 408.4736
281.0678, 407.7194
281.5499, 407.1398
282.0320, 407.5309
282.5142, 408.7786
282.9963, 409.1487
283.4784, 408.4675
283.9605, 407.4501
284.4426, 406.8673
284.9247, 406.7177
285.4069, 407.0631
285.8890, 408.3309
286.3711, 410.1441
286.8532, 410.5339
287.3353, 409.3387
287.8174, 407.6003
288.2996, 406.2441
288.7817, 405.2617
289.2638, 404.7084
289.7459, 404.8477
290.2280, 405.3053
290.7101, 404.7967
291.1923, 403.2526
291.6744, 401.8702
292.1565, 401.9784
292.6386, 403.2517
293.1207, 404.0141
293.6028, 403.7851
294.0850, 403.0021
294.5671, 402.5477
295.0492, 402.3865
295.5313, 401.9961
296.0134, 400.6207
296.4955, 398.6837
296.9777, 397.4787
297.4598, 397.3170
297.9419, 397.7264
298.4240, 398.2275
298.9061, 398.7828
299.3882, 399.1993
299.8704, 399.1024
300.3525, 398.8378
300.8346, 399.1577
301.3167, 400.2417
301.7988, 401.5027
302.2809, 402.3514
302.7631, 402.8718
303.2452, 403.3309
303.7273, 403.6018
304.2094, 403.9938
304.6915, 404.8746
305.1736, 406.2690
305.6558, 408.1844
306.1379, 411.3742
306.6200, 415.0448
307.1021, 417.6938
307.5842, 417.5468
308.0663, 416.8137
308.5485, 417.8727
309.0306, 420.6707
309.5127, 423.3102
309.9948, 424.1880
310.4769, 424.2144
310.9590, 424.5562
311.4412, 425.9258
311.9233, 427.4072
312.4054, 428.0015
312.8875, 427.9770
313.3696, 428.7183
313.8517, 431.7025
314.3339, 435.4159
314.8160, 438.6383
315.2981, 441.2279
315.7802, 443.0043
316.2623, 443.3995
316.7444, 442.8610
317.2266, 442.5782
317.7087, 443.2909
318.1908, 444.2618
318.6729, 445.2119
319.1550, 446.4532
319.6371, 446.7020
320.1193, 444.6658
320.6014, 441.4862
321.0835, 439.0003
321.5656, 438.5922
322.0477, 438.2666
322.5298, 437.0287
323.0120, 434.5378
323.4941, 432.5199
323.9762, 431.9864
324.4583, 431.8483
324.9404, 430.9300
325.4225, 428.6959
325.9047, 425.9995
326.3868, 422.7389
326.8689, 418.8584
327.3510, 415.8476
327.8331, 415.1819
328.3152, 414.6171
328.7974, 412.5947
329.2795, 406.3588
329.7616, 401.9108
330.2437, 400.5912
330.7258, 401.7639
331.2079, 401.8687
331.6901, 400.0113
332.1722, 397.9667
332.6543, 396.7141
333.1364, 397.6917
333.6185, 396.6912
334.1006, 392.4245
334.5828, 386.5208
335.0649, 383.0698
335.5470, 383.3370
336.0291, 383.7675
336.5112, 382.8769
336.9933, 380.2133
337.4755, 378.6286
337.9576, 378.5535
338.4397, 379.0834
338.9218, 378.9422
339.4039, 377.9167
339.8860, 377.0302
340.3681, 376.7646
340.8503, 377.0170
341.3324, 376.2125
341.8145, 374.0181
342.2966, 371.6882
342.7787, 370.4195
343.2608, 370.2736
343.7430, 370.1480
344.2251, 369.8787
344.7072, 369.4603
345.1893, 368.8370
345.6714, 367.9881
346.1535, 367.1239
346.6357, 366.3946
347.1178, 365.7813
347.5999, 365.1522
348.0820, 364.4543
348.5641, 363.8118
349.0462, 363.7508
349.5284, 364.1153
350.0105, 363.7556
350.4926, 361.0349
350.9747, 357.2939
351.4568, 355.7961
351.9389, 356.8349
352.4211, 358.5547
352.9032, 359.3728
353.3853, 359.4120
353.8674, 358.9497
354.3495, 357.3965
354.8316, 355.8393
355.3138, 355.9260
355.7959, 357.4948
356.2780, 358.8196
356.7601, 358.1529
357.2422, 356.7253
357.7243, 356.1826
358.2065, 357.4886
358.6886, 358.9975
359.1707, 359.3867
359.6528, 359.0172
360.1349, 358.9785
360.6170, 360.3363
361.0992, 361.8710
361.5813, 362.6044
362.0634, 362.0943
362.5455, 361.7443
363.0276, 362.1903
363.5097, 363.1272
363.9919, 364.1029
364.4740, 365.1432
364.9561, 366.0487
365.4382, 366.5273
365.9203, 366.4918
366.4024, 367.0860
366.8846, 369.2968
367.3667, 371.8253
367.8488, 373.6207
368.3309, 373.8191
368.8130, 374.1207
369.2951, 374.9795
369.7773, 376.2532
370.2594, 376.9058
370.7415, 376.0475
371.2236, 375.4040
371.7057, 375.7975
372.1878, 377.9062
372.6700, 379.7530
373.1521, 381.1102
373.6342, 382.2916
374.1163, 383.9601
374.5984, 386.4477
375.0805, 388.7376
375.5627, 390.4710
376.0448, 391.6021
376.5269, 392.7914
377.0090, 394.1141
377.4911, 395.3724
377.9732, 396.2339
378.4554, 396.5623
378.9375, 397.4058
379.4196, 399.2745
379.9017, 401.7066
380.3838, 402.6924
380.8659, 401.9845
381.3481, 401.7180
381.8302, 403.4821
382.3123, 407.1194
382.7944, 411.8397
383.2765, 418.1028
383.7586, 424.1392
384.2408, 426.6510
384.7229, 426.1719
385.2050, 426.1201
385.6871, 428.9328
386.1692, 433.1529
386.6513, 435.8536
387.1335, 436.8737
387.6156, 437.9062
388.0977, 441.6823
388.5798, 446.3974
389.0619, 448.5744
389.5440, 444.6225
390.0262, 440.0421
390.5083, 440.5053
390.9904, 445.0381
391.4725, 449.0797
391.9546, 449.1979
392.4367, 448.0748
392.9189, 448.0492
393.4010, 449.8493
393.8831, 452.0601
394.3652, 454.9864
394.8473, 457.7086
395.3294, 458.7060
395.8116, 455.5627
396.2937, 452.2486
396.7758, 450.7054
397.2579, 451.2973
397.7400, 451.1042
398.2221, 448.3678
398.7043, 445.2384
399.1864, 443.4708
399.6685, 445.6131
400.1506, 446.3413
400.6327, 444.5176
401.1148, 440.6823
401.5970, 437.3491
402.0791, 434.5663
402.5612, 432.2708
403.0433, 430.4670
403.5254, 429.2431
404.0075, 428.3099
404.4897, 427.8047
404.9718, 427.4863
405.4539, 426.9193
405.9360, 425.9337
406.4181, 425.2597
406.9002, 425.1332
407.3824, 425.5159
407.8645, 426.0016
408.3466, 426.5587
408.8287, 427.3310
409.3108, 428.5773
409.7929, 430.2595
410.2751, 431.6964
410.7572, 432.7094
411.2393, 433.5585
411.7214, 434.5060
412.2035, 435.5977
412.6856, 437.2986
413.1678, 440.6761
413.6499, 444.7240
414.1320, 446.9846
414.6141, 447.2306
415.0962, 447.2551
415.5783, 448.8941
416.0605, 451.5138
416.5426, 453.9435
417.0247, 455.6288
417.5068, 457.0952
417.9889, 458.9226
418.4710, 460.9845
418.9532, 462.7342
419.4353, 463.0966
419.9174, 463.4573
420.3995, 465.0886
420.8816, 468.8271
421.3637, 472.2482
421.8459, 474.1986
422.3280, 475.2654
422.8101, 476.3701
423.2922, 477.5824
423.7743, 478.9896
424.2564, 480.9608
424.7386, 483.5956
425.2207, 485.0934
425.7028, 484.2719
426.1849, 482.9316
426.6670, 482.2651
427.1491, 483.0605
427.6313, 483.2887
428.1134, 482.5865
428.5955, 481.3196
429.0776, 480.4846
429.5597, 480.2615
430.0418, 480.1060
430.5240, 479.6943
431.0061, 478.9589
431.4882, 479.1289
431.9703, 480.6606
432.4524, 482.0836
432.9345, 481.4945
433.4167, 478.8417
433.8988, 476.2341
434.3809, 474.2373
434.8630, 472.5678
435.3451, 470.2096
435.8272, 467.2107
436.3094, 465.0397
436.7915, 465.1196
437.2736, 466.7293
437.7557, 468.1903
438.2378, 469.3742
438.7199, 470.3366
439.2020, 470.8853
439.6841, 471.2650
440.1663, 471.9755
440.6484, 473.4808
441.1305, 475.2221
441.6126, 476.8281
442.0947, 478.2920
442.5768, 479.5267
443.0590, 479.9618
443.5411, 480.4568
444.0232, 481.7311
444.5053, 484.1987
444.9874, 486.8305
445.4695, 489.2756
445.9517, 491.6485
446.4338, 494.1628
446.9159, 496.9356
447.3980, 499.7850
447.8801, 502.5218
448.3622, 505.1263
448.8444, 508.2580
449.3265, 512.3250
449.8086, 516.5802
450.2907, 520.5289
450.7728, 524.0369
451.2549, 527.5878
451.7371, 531.0222
452.2192, 534.6024
452.7013, 538.8395
453.1834, 543.6650
453.6655, 549.3284
454.1476, 556.3917
454.6298, 564.5881
455.1119, 570.9119
455.5940, 574.9994
456.0761, 578.8572
456.5582, 584.4597
457.0403, 591.5480
457.5225, 598.7132
458.0046, 605.5549
458.4867, 612.2755
458.9688, 618.6655
459.4509, 624.9672
459.9330, 631.9200
460.4152, 640.1373
460.8973, 649.2549
461.3794, 659.1779
461.8615, 670.0569
462.3436, 680.1186
462.8257, 687.3548
463.3079, 693.5938
463.7900, 700.9030
464.2721, 710.5203
464.7542, 720.6575
465.2363, 730.2610
465.7184, 739.8044
466.2006, 750.6320
466.6827, 765.1212
467.1648, 779.1816
467.6469, 790.6370
468.1290, 798.2781
468.6111, 807.6414
469.0933, 820.6388
469.5754, 834.2667
470.0575, 845.9531
470.5396, 854.4138
471.0217, 863.5912
471.5038, 874.6622
471.9860, 886.6541
472.4681, 896.3699
472.9502, 903.5247
473.4323, 909.3869
473.9144, 914.7167
474.3965, 919.4882
474.8787, 921.9805
475.3608, 922.0540
475.8429, 920.4761
476.3250, 918.1534
476.8071, 914.9457
477.2892, 910.0544
477.7714, 903.0242
478.2535, 894.6755
478.7356, 886.5447
479.2177, 878.2560
479.6998, 868.4382
480.1819, 855.0936
480.6641, 840.3439
481.1462, 826.6500
481.6283, 814.2211
482.1104, 801.5989
482.5925, 787.5431
483.0746, 773.0412
483.5568, 759.0521
484.0389, 745.8695
484.5210, 733.4266
485.0031, 721.7558
485.4852, 710.8845
485.9673, 700.4977
486.4495, 691.3801
486.9316, 682.0892
487.4137, 671.9124
487.8958, 660.4045
488.3779, 650.0453
488.8600, 640.8250
489.3422, 632.6454
489.8243, 625.4281
490.3064, 619.5064
490.7885, 613.6351
491.2706, 607.7407
491.7527, 601.7404
492.2349, 595.1011
492.7170, 587.8126
493.1991, 580.6766
493.6812, 574.4750
494.1633, 568.8820
494.6454, 561.9837
495.1276, 553.7541
495.6097, 545.9546
496.0918, 540.9937
496.5739, 537.6174
497.0560, 533.2806
497.5381, 526.9085
498.0203, 520.3530
498.5024, 515.1012
498.9845, 510.8935
499.4666, 507.0161
499.9487, 503.5532
500.4308, 500.0398
500.9130, 496.1080
501.3951, 491.7654
501.8772, 487.5828
502.3593, 483.5757
502.8414, 479.9428
503.3235, 476.7850
503.8057, 474.4735
504.2878, 472.1573
504.7699, 469.6241
505.2520, 467.1355
505.7341, 465.2237
506.2162, 464.4402
506.6984, 463.1055
507.1805, 460.6006
507.6626, 457.0803
508.1447, 454.0024
508.6268, 451.3656
509.1089, 449.1607
509.5911, 447.6942
510.0732, 446.8478
510.5553, 445.0876
511.0374, 442.0836
511.5195, 438.9925
512.0016, 437.5050
512.4838, 437.2057
512.9659, 436.7603
513.4480, 435.8507
513.9301, 434.4069
514.4122, 431.8081
514.8943, 428.4182
515.3765, 425.7685
515.8586, 425.0339
516.3407, 425.1675
516.8228, 425.5181
517.3049, 426.0785
517.7870, 426.4292
518.2692, 426.3560
518.7513, 426.0313
519.2334, 425.6200
519.7155, 424.5692
520.1976, 424.1466
520.6797, 424.9681
521.1619, 426.4844
521.6440, 427.0127
522.1261, 425.7415
522.6082, 424.9561
523.0903, 425.8234
523.5724, 428.4040
524.0546, 429.2338
524.5367, 427.8745
525.0188, 426.1237
525.5009, 425.6935
525.9830, 426.4541
526.4651, 426.8795
526.9473, 426.7447
527.4294, 426.2394
527.9115, 425.5201
528.3936, 424.6405
528.8757, 423.7678
529.3578, 423.1413
529.8400, 422.4569
530.3221, 421.1953
530.8042, 419.4812
531.2863, 418.0617
531.7684, 417.5665
532.2505, 417.3968
532.7327, 417.2701
533.2148, 417.3938
533.6969, 416.6939
534.1790, 413.9599
534.6611, 410.6315
535.1432, 408.3779
535.6254, 408.3933
536.1075, 408.1323
536.5896, 407.3485
537.0717, 406.1151
537.5538, 404.6916
538.0359, 403.0274
538.5181, 401.2697
539.0002, 399.3417
539.4823, 397.2671
539.9644, 395.7457
540.4465, 394.8139
540.9286, 394.2541
541.4108, 394.3232
541.8929, 394.7065
542.3750, 393.8061
542.8571, 390.9993
543.3392, 387.8735
543.8214, 385.9140
544.3035, 385.1021
544.7856, 385.3065
545.2677, 387.9966
545.7498, 390.4594
546.2319, 390.3045
546.7141, 387.9152
547.1962, 385.6822
547.6783, 384.0641
548.1604, 383.2798
548.6425, 383.6371
549.1246, 385.7295
549.6068, 387.2524
550.0889, 387.8306
550.5710, 387.8680
551.0531, 387.7590
551.5352, 387.7719
552.0173, 386.9701
552.4995, 384.8584
552.9816, 382.1308
553.4637, 380.6224
553.9458, 380.4829
554.4279, 380.5148
554.9100, 380.0842
555.3922, 379.4340
555.8743, 379.8771
556.3564, 381.4135
556.8385, 382.4987
557.3206, 381.5970
557.8027, 379.4857
558.2849, 377.3271
558.7670, 375.1951
559.2491, 373.5009
559.7312, 373.0346
560.2133, 373.0782
560.6954, 372.6533
561.1776, 370.1905
561.6597, 368.5049
562.1418, 369.7759
562.6239, 372.8476
563.1060, 373.5081
563.5881, 368.1155
564.0703, 363.3185
564.5524, 361.2759
565.0345, 362.2340
565.5166, 363.0410
565.9987, 363.9774
566.4808, 364.2870
566.9630, 363.0562
567.4451, 360.1224
567.9272, 357.9690
568.4093, 356.8626
568.8914, 356.3498
569.3735, 355.9033
569.8557, 355.5099
570.3378, 355.1103
570.8199, 354.8919
571.3020, 354.4378
571.7841, 352.5446
572.2662, 349.7693
572.7484, 348.1741
573.2305, 350.5271
573.7126, 353.2016
574.1947, 353.2707
574.6768, 350.3480
575.1589, 348.0274
575.6411, 348.1181
576.1232, 348.8133
576.6053, 348.8442
577.0874, 347.4657
577.5695, 346.4828
578.0516, 346.0294
578.5338, 345.8900
579.0159, 345.8767
579.4980, 346.2003
579.9801, 345.7835
580.4622, 343.9725
580.9443, 341.5216
581.4265, 341.1793
581.9086, 342.9408
582.3907, 344.4709
582.8728, 343.9911
583.3549, 342.4575
583.8370, 342.0818
584.3192, 342.8791
584.8013, 343.5482
585.2834, 342.7414
585.7655, 341.4597
586.2476, 340.8636
586.7297, 341.3734
587.2118, 342.0375
587.6939, 342.9401
588.1760, 343.6002
588.6581, 343.4054
589.1403, 340.8279
589.6224, 339.0816
590.1045, 338.9697
590.5866, 340.0054
591.0687, 340.6313
591.5508, 340.8688
592.0330, 340.6122
592.5151, 339.6295
592.9972, 338.0181
593.4793, 336.8267
593.9614, 336.0292
594.4435, 335.8575
594.9257, 336.9687
595.4078, 338.8680
595.8899, 340.0689
596.3720, 340.3667
596.8541, 340.2162
597.3362, 339.8015
597.8184, 339.2768
598.3005, 338.8488
598.7826, 338.3475
599.2647, 338.2938
599.7468, 339.2256
600.2289, 340.7704
600.7111, 342.1091
601.1932, 343.3184
601.6753, 343.9841
602.1574, 343.6146
602.6395, 342.3385
603.1216, 342.1392
603.6038, 343.6804
604.0859, 345.0667
604.5680, 345.1552
605.0501, 343.8348
605.5322, 342.9142
606.0143, 342.4255
606.4965, 342.1465
606.9786, 341.5381
607.4607, 340.9131
607.9428, 341.6410
608.4249, 344.5543
608.9070, 347.1864
609.3892, 346.0733
609.8713, 342.9998
610.3534, 341.2720
610.8355, 343.9121
611.3176, 346.6194
611.7997, 347.4865
612.2819, 346.7964
612.7640, 345.7240
613.2461, 343.0650
613.7282, 341.5279
614.2103, 342.5270
614.6924, 346.2439
615.1746, 348.1699
615.6567, 347.5348
616.1388, 346.5313
616.6209, 346.6560
617.1030, 347.9424
617.5851, 349.3779
618.0673, 350.9986
618.5494, 352.3960
619.0315, 353.0824
619.5136, 353.1339
619.9957, 352.6517
620.4778, 351.4067
620.9600, 350.1752
621.4421, 349.4829
621.9242, 349.3569
622.4063, 349.8531
622.8884, 352.0198
623.3705, 353.7814
623.8527, 354.1462
624.3348, 353.2589
624.8169, 352.3306
625.2990, 351.4000
625.7811, 350.5137
626.2632, 349.4445
626.7454, 348.0688
627.2275, 348.5419
627.7096, 351.5757
628.1917, 354.6068
628.6738, 355.3712
629.1559, 354.0801
629.6381, 353.2181
630.1202, 353.1154
630.6023, 352.8794
631.0844, 351.4379
631.5665, 349.1191
632.0486, 346.4633
632.5308, 343.0848
633.0129, 340.4322
633.4950, 340.2229
633.9771, 341.3875
634.4592, 341.8651
634.9413, 340.6081
635.4235, 338.9877
635.9056, 337.2320
636.3877, 335.3938
636.8698, 333.8104
637.3519, 332.7437
637.8340, 331.4817
638.3162, 329.3967
638.7983, 326.5187
639.2804, 325.8233
639.7625, 327.6591
640.2446, 329.6504
640.7267, 329.5840
641.2089, 328.0692
641.6910, 327.0036
