##NAMES=Zanazziite
##RRUFFID=R100220
##IDEAL CHEMISTRY=Ca_2_Mg_5_Be_4_(PO_4_)_6_(OH)_4_&#183;6H_2_O
##LOCALITY=Jenipapo district, Itinga, Minas Gerais, Brazil
##OWNER=RRUFF
##SOURCE=Luiz Menezes
##DESCRIPTION=Pale lilac rectangular blocky crystals on muscovite
##STATUS=The identification of this mineral has been confirmed only by single crystal X-ray diffraction.
##URL=rruff.info/R100220
212.5287, 578.6096
213.0108, 576.6537
213.4929, 572.4301
213.9750, 570.3973
214.4572, 571.5491
214.9393, 574.7398
215.4214, 576.5869
215.9035, 576.6741
216.3856, 576.2646
216.8678, 575.8868
217.3499, 575.3170
217.8320, 575.4910
218.3141, 576.6740
218.7962, 578.5377
219.2783, 580.1084
219.7605, 581.3686
220.2426, 582.3073
220.7247, 582.9596
221.2068, 583.4740
221.6889, 583.1109
222.1710, 581.1093
222.6532, 578.3841
223.1353, 578.2408
223.6174, 582.5593
224.0995, 586.3373
224.5816, 586.7526
225.0637, 581.9984
225.5459, 578.4630
226.0280, 576.3107
226.5101, 575.5014
226.9922, 576.2066
227.4743, 579.4963
227.9564, 582.6251
228.4386, 584.1720
228.9207, 583.2458
229.4028, 582.8684
229.8849, 583.4510
230.3670, 584.5148
230.8492, 584.6497
231.3313, 583.2577
231.8134, 581.8389
232.2955, 581.1501
232.7776, 581.7973
233.2597, 581.7571
233.7419, 580.6201
234.2240, 578.9119
234.7061, 578.0239
235.1882, 578.1627
235.6703, 578.8215
236.1524, 579.9778
236.6346, 582.4130
237.1167, 583.4365
237.5988, 582.2303
238.0809, 579.9173
238.5630, 579.1926
239.0451, 580.9405
239.5273, 582.9449
240.0094, 584.2646
240.4915, 584.4802
240.9736, 585.1055
241.4557, 586.3908
241.9378, 587.9594
242.4200, 589.0054
242.9021, 589.2511
243.3842, 589.4130
243.8663, 589.9091
244.3484, 591.2610
244.8306, 591.2569
245.3127, 589.0848
245.7948, 585.9894
246.2769, 584.2670
246.7590, 584.3016
247.2411, 585.1005
247.7233, 586.5583
248.2054, 589.1086
248.6875, 590.6635
249.1696, 590.7711
249.6517, 590.1862
250.1338, 590.1673
250.6160, 591.1247
251.0981, 591.9212
251.5802, 592.1802
252.0623, 591.8174
252.5444, 591.3315
253.0265, 590.5165
253.5087, 589.7572
253.9908, 589.6713
254.4729, 590.5883
254.9550, 591.5176
255.4371, 592.2115
255.9192, 592.6551
256.4014, 592.9099
256.8835, 592.8088
257.3656, 592.6836
257.8477, 592.9935
258.3298, 593.9961
258.8120, 594.8492
259.2941, 595.3058
259.7762, 595.3353
260.2583, 595.3477
260.7404, 594.9767
261.2225, 595.0241
261.7047, 596.7190
262.1868, 601.1964
262.6689, 604.2800
263.1510, 604.7574
263.6331, 602.7022
264.1152, 601.0695
264.5974, 599.9578
265.0795, 599.1302
265.5616, 598.3845
266.0437, 597.6725
266.5258, 597.1803
267.0079, 596.9335
267.4901, 596.9422
267.9722, 597.3348
268.4543, 598.3264
268.9364, 599.3145
269.4185, 599.7738
269.9006, 599.5938
270.3828, 599.3922
270.8649, 599.2186
271.3470, 599.0944
271.8291, 599.1787
272.3112, 599.5687
272.7933, 599.8747
273.2755, 599.6370
273.7576, 598.6768
274.2397, 598.3481
274.7218, 598.9775
275.2039, 600.2274
275.6860, 601.0212
276.1682, 601.2285
276.6503, 601.5001
277.1324, 602.4864
277.6145, 604.3010
278.0966, 605.2656
278.5787, 605.0685
279.0609, 604.2147
279.5430, 603.8395
280.0251, 604.0516
280.5072, 604.1965
280.9893, 603.8373
281.4715, 602.9877
281.9536, 602.3676
282.4357, 602.0502
282.9178, 601.8805
283.3999, 601.5257
283.8820, 600.9547
284.3642, 600.5628
284.8463, 600.5233
285.3284, 600.8123
285.8105, 601.3032
286.2926, 602.0076
286.7747, 602.8122
287.2569, 603.5676
287.7390, 604.2687
288.2211, 604.9949
288.7032, 606.0072
289.1853, 607.1031
289.6674, 607.2426
290.1496, 606.3226
290.6317, 605.1758
291.1138, 604.6345
291.5959, 604.6734
292.0780, 605.0878
292.5602, 605.8839
293.0423, 606.9944
293.5244, 608.7662
294.0065, 611.2665
294.4886, 612.7187
294.9707, 610.1483
295.4529, 604.8668
295.9350, 601.7986
296.4171, 603.0159
296.8992, 606.3486
297.3813, 608.0848
297.8634, 608.3201
298.3456, 608.1808
298.8277, 608.4818
299.3098, 609.0356
299.7919, 609.4484
300.2740, 609.6592
300.7561, 609.6553
301.2383, 609.1735
301.7204, 608.3535
302.2025, 607.8642
302.6846, 608.1922
303.1667, 609.0941
303.6488, 610.2682
304.1310, 611.7174
304.6131, 613.2492
305.0952, 614.5076
305.5773, 615.6559
306.0594, 617.1299
306.5415, 620.3891
307.0237, 623.4899
307.5058, 623.8895
307.9879, 620.9703
308.4700, 617.9577
308.9521, 617.5417
309.4343, 618.6888
309.9164, 619.5569
310.3985, 618.7633
310.8806, 617.7914
311.3627, 617.9368
311.8448, 619.2693
312.3270, 620.5619
312.8091, 620.9284
313.2912, 620.8923
313.7733, 621.0722
314.2554, 622.1186
314.7375, 623.0662
315.2197, 623.1381
315.7018, 622.4767
316.1839, 622.2785
316.6660, 623.9020
317.1481, 625.7972
317.6302, 626.6233
318.1124, 624.7197
318.5945, 623.3825
319.0766, 624.2859
319.5587, 626.7775
320.0408, 628.6020
320.5229, 628.8726
321.0051, 628.4073
321.4872, 627.4650
321.9693, 625.1698
322.4514, 624.1531
322.9335, 626.6047
323.4156, 630.5674
323.8978, 632.2669
324.3799, 628.5481
324.8620, 624.6443
325.3441, 622.4083
325.8262, 622.4014
326.3083, 622.7726
326.7905, 623.5720
327.2726, 624.6183
327.7547, 625.6773
328.2368, 626.7783
328.7189, 627.8603
329.2010, 628.9410
329.6832, 630.0235
330.1653, 630.9800
330.6474, 631.8709
331.1295, 632.5925
331.6116, 633.0568
332.0938, 633.1075
332.5759, 633.1641
333.0580, 633.4382
333.5401, 633.8256
334.0222, 633.4732
334.5043, 631.8971
334.9865, 630.2411
335.4686, 629.1837
335.9507, 628.9041
336.4328, 628.6910
336.9149, 628.3415
337.3970, 628.1131
337.8792, 628.7980
338.3613, 630.7053
338.8434, 632.6847
339.3255, 634.3950
339.8076, 635.9196
340.2898, 636.5128
340.7719, 636.0071
341.2540, 634.8917
341.7361, 633.4710
342.2182, 631.6113
342.7003, 631.0295
343.1825, 632.9619
343.6646, 636.8823
344.1467, 638.9525
344.6288, 638.9417
345.1109, 638.3267
345.5930, 638.8973
346.0752, 640.4490
346.5573, 640.9207
347.0394, 639.3458
347.5215, 636.7853
348.0036, 635.5479
348.4857, 635.6202
348.9679, 636.2457
349.4500, 636.7173
349.9321, 637.2982
350.4142, 639.0585
350.8963, 642.6788
351.3784, 646.2104
351.8606, 646.4953
352.3427, 644.2890
352.8248, 642.3754
353.3069, 642.5248
353.7890, 643.8389
354.2711, 645.4825
354.7533, 647.5214
355.2354, 648.7059
355.7175, 647.2289
356.1996, 644.2255
356.6817, 641.6740
357.1638, 640.1655
357.6460, 639.5970
358.1281, 640.3133
358.6102, 642.1879
359.0923, 643.8072
359.5744, 644.1400
360.0565, 643.9158
360.5387, 643.8183
361.0208, 643.8159
361.5029, 644.2552
361.9850, 645.9033
362.4671, 648.2344
362.9492, 649.5984
363.4314, 648.3273
363.9135, 646.7350
364.3956, 646.1765
364.8777, 647.3486
365.3598, 648.3370
365.8419, 648.2859
366.3241, 647.9108
366.8062, 648.2852
367.2883, 651.0179
367.7704, 653.1047
368.2526, 653.4066
368.7347, 651.4543
369.2168, 650.3153
369.6989, 650.5533
370.1810, 651.2916
370.6631, 651.7890
371.1453, 651.4716
371.6274, 651.7891
372.1095, 653.1871
372.5916, 655.4633
373.0737, 657.2518
373.5558, 658.5559
374.0380, 659.3876
374.5201, 659.6210
375.0022, 658.9113
375.4843, 658.7910
375.9664, 659.5424
376.4485, 660.7008
376.9307, 661.1837
377.4128, 660.7043
377.8949, 660.7868
378.3770, 662.6732
378.8591, 666.1652
379.3412, 666.9535
379.8234, 664.5551
380.3055, 661.1312
380.7876, 658.7620
381.2697, 657.4330
381.7518, 657.3392
382.2339, 659.0173
382.7161, 661.5860
383.1982, 662.9273
383.6803, 663.0673
384.1624, 663.0209
384.6445, 663.6534
385.1266, 664.6692
385.6088, 665.3238
386.0909, 665.4754
386.5730, 665.3471
387.0551, 664.7764
387.5372, 664.0629
388.0193, 664.0664
388.5015, 665.6878
388.9836, 668.0142
389.4657, 670.3411
389.9478, 672.6486
390.4299, 674.2554
390.9120, 674.2602
391.3942, 673.4304
391.8763, 672.7103
392.3584, 672.5889
392.8405, 672.5005
393.3226, 671.9944
393.8047, 671.2129
394.2869, 670.8038
394.7690, 671.5179
395.2511, 672.3458
395.7332, 672.6349
396.2154, 672.0245
396.6975, 671.4259
397.1796, 670.9079
397.6617, 670.5385
398.1438, 670.4329
398.6259, 671.0378
399.1081, 671.4805
399.5902, 671.3173
400.0723, 670.3477
400.5544, 670.1541
401.0365, 671.6422
401.5186, 673.2166
402.0008, 673.4420
402.4829, 671.1393
402.9650, 669.7321
403.4471, 669.8796
403.9292, 671.1979
404.4113, 672.0704
404.8935, 672.3686
405.3756, 672.5317
405.8577, 672.5841
406.3398, 672.3793
406.8219, 673.4176
407.3040, 676.1895
407.7862, 679.3271
408.2683, 680.4649
408.7504, 679.5270
409.2325, 679.5165
409.7146, 682.3477
410.1967, 686.6840
410.6789, 687.6393
411.1610, 685.1041
411.6431, 682.2758
412.1252, 682.4072
412.6073, 684.4873
413.0894, 685.5131
413.5716, 684.5624
414.0537, 683.0782
414.5358, 682.7610
415.0179, 683.3752
415.5000, 684.1542
415.9821, 685.2077
416.4643, 685.9026
416.9464, 685.1604
417.4285, 682.7797
417.9106, 680.8231
418.3927, 681.2465
418.8748, 682.6273
419.3570, 683.2728
419.8391, 681.2204
420.3212, 679.6707
420.8033, 680.8430
421.2854, 683.9942
421.7675, 685.6396
422.2497, 682.9573
422.7318, 679.8220
423.2139, 678.4459
423.6960, 680.1977
424.1781, 681.2820
424.6602, 680.9212
425.1424, 679.7750
425.6245, 678.7891
426.1066, 677.9539
426.5887, 677.3171
427.0709, 676.8227
427.5530, 676.4667
428.0351, 676.7219
428.5172, 678.1069
428.9993, 679.3809
429.4814, 679.4146
429.9636, 677.6182
430.4457, 676.9709
430.9278, 678.1493
431.4099, 680.1706
431.8920, 680.8100
432.3741, 679.9252
432.8563, 678.7885
433.3384, 677.8284
433.8205, 677.0659
434.3026, 676.5905
434.7847, 676.3681
435.2668, 676.6604
435.7490, 678.0052
436.2311, 680.1498
436.7132, 682.1815
437.1953, 683.9498
437.6774, 685.3751
438.1595, 685.9377
438.6417, 685.9323
439.1238, 686.5778
439.6059, 689.4931
440.0880, 692.9864
440.5701, 695.4808
441.0522, 696.8714
441.5344, 696.8170
442.0165, 693.8386
442.4986, 689.7157
442.9807, 686.6424
443.4628, 685.6985
443.9449, 685.5879
444.4271, 685.8360
444.9092, 686.4822
445.3913, 687.8196
445.8734, 691.3990
446.3555, 694.5184
446.8376, 695.7197
447.3198, 693.8440
447.8019, 692.0818
448.2840, 689.6174
448.7661, 687.6830
449.2482, 688.2988
449.7303, 693.9261
450.2125, 697.8976
450.6946, 698.5500
451.1767, 696.0875
451.6588, 693.3132
452.1409, 689.7663
452.6230, 686.9314
453.1052, 686.2697
453.5873, 687.9894
454.0694, 688.8892
454.5515, 688.4487
455.0337, 687.6537
455.5158, 688.6568
455.9979, 691.2827
456.4800, 692.8099
456.9621, 691.1668
457.4442, 687.8963
457.9264, 686.7398
458.4085, 687.6415
458.8906, 689.0654
459.3727, 690.2823
459.8548, 691.0788
460.3369, 690.8713
460.8191, 689.0118
461.3012, 687.3965
461.7833, 688.1635
462.2654, 690.2891
462.7475, 691.6352
463.2296, 690.4749
463.7118, 688.9504
464.1939, 687.9330
464.6760, 687.4605
465.1581, 688.1561
465.6402, 692.2651
466.1223, 696.3526
466.6045, 697.9375
467.0866, 693.4589
467.5687, 690.4417
468.0508, 690.0301
468.5329, 691.2512
469.0150, 691.9132
469.4972, 691.2385
469.9793, 691.2111
470.4614, 692.9332
470.9435, 696.5990
471.4256, 698.0636
471.9077, 696.8798
472.3899, 694.4148
472.8720, 691.4095
473.3541, 687.6796
473.8362, 685.3989
474.3183, 685.0719
474.8004, 685.9721
475.2826, 686.8879
475.7647, 687.8088
476.2468, 688.6129
476.7289, 689.3839
477.2110, 689.9589
477.6931, 689.8347
478.1753, 689.0085
478.6574, 688.0901
479.1395, 687.4459
479.6216, 687.0659
480.1037, 686.9637
480.5858, 687.2415
481.0680, 687.6187
481.5501, 688.0011
482.0322, 688.3475
482.5143, 688.5621
482.9964, 688.6156
483.4786, 688.5382
483.9607, 688.2285
484.4428, 687.6557
484.9249, 687.4099
485.4070, 688.2751
485.8892, 689.0986
486.3713, 689.0079
486.8534, 686.3947
487.3355, 685.2880
487.8176, 686.6844
488.2997, 689.3362
488.7819, 690.4857
489.2640, 689.3641
489.7461, 688.4620
490.2282, 688.5936
490.7103, 689.7048
491.1924, 691.0941
491.6746, 692.9233
492.1567, 694.3740
492.6388, 694.4391
493.1209, 693.2939
493.6030, 692.5369
494.0851, 692.4163
494.5673, 692.6080
495.0494, 692.4604
495.5315, 692.1756
496.0136, 692.4894
496.4957, 694.4476
496.9778, 696.7688
497.4600, 698.2190
497.9421, 698.7934
498.4242, 698.6310
498.9063, 696.7242
499.3884, 694.7454
499.8705, 694.2971
500.3527, 696.3749
500.8348, 698.3005
501.3169, 699.0153
501.7990, 699.0214
502.2811, 699.0262
502.7632, 699.1627
503.2454, 699.3029
503.7275, 699.2819
504.2096, 699.1565
504.6917, 699.6458
505.1738, 701.5251
505.6559, 702.9783
506.1381, 702.7055
506.6202, 699.8613
507.1023, 698.9324
507.5844, 700.4247
508.0665, 702.9319
508.5486, 704.6607
509.0308, 705.6036
509.5129, 706.2004
509.9950, 706.4483
510.4771, 706.5270
510.9592, 707.0545
511.4413, 707.9249
511.9235, 708.2703
512.4056, 706.7634
512.8877, 704.6610
513.3698, 703.9127
513.8519, 704.7122
514.3340, 706.0130
514.8162, 708.0074
515.2983, 709.7158
515.7804, 709.8820
516.2625, 706.5328
516.7446, 703.6345
517.2267, 703.3506
517.7089, 704.7399
518.1910, 705.4855
518.6731, 704.5609
519.1552, 703.4359
519.6373, 702.5941
520.1194, 702.0583
520.6016, 701.5267
521.0837, 700.5349
521.5658, 700.0565
522.0479, 700.9947
522.5300, 703.8781
523.0121, 706.2619
523.4943, 708.1121
523.9764, 709.2097
524.4585, 708.6871
524.9406, 706.5026
525.4227, 705.0020
525.9048, 705.3521
526.3870, 706.8116
526.8691, 707.5381
527.3513, 707.5746
527.8334, 707.5086
528.3155, 707.8995
528.7976, 708.4081
529.2797, 708.4183
529.7618, 707.7508
530.2440, 707.2444
530.7261, 707.9833
531.2082, 709.0782
531.6903, 709.3800
532.1724, 707.0886
532.6545, 705.4543
533.1367, 706.1962
533.6188, 708.5568
534.1009, 709.8438
534.5830, 707.8397
535.0651, 706.4762
535.5472, 707.5021
536.0294, 711.5295
536.5115, 713.4728
536.9936, 712.3889
537.4757, 710.5485
537.9578, 709.8546
538.4399, 710.4937
538.9221, 711.1023
539.4042, 711.5969
539.8863, 711.9192
540.3684, 711.4224
540.8505, 710.2762
541.3326, 710.6595
541.8148, 715.1628
542.2969, 720.7081
542.7790, 720.8038
543.2611, 716.1233
543.7432, 712.0610
544.2253, 712.9528
544.7075, 715.9545
545.1896, 718.4432
545.6717, 720.1813
546.1538, 720.7066
546.6359, 718.0662
547.1180, 714.8190
547.6002, 713.7207
548.0823, 718.4413
548.5644, 721.8682
549.0465, 721.7019
549.5286, 719.2819
550.0107, 718.5621
550.4929, 720.7460
550.9750, 722.7841
551.4571, 723.4171
551.9392, 722.6322
552.4213, 723.6432
552.9034, 727.0515
553.3856, 730.3801
553.8677, 731.2566
554.3498, 729.9238
554.8319, 729.2579
555.3140, 729.5095
555.7961, 730.6038
556.2783, 732.9562
556.7604, 736.1184
557.2425, 738.7900
557.7246, 740.3677
558.2067, 741.3964
558.6888, 742.1278
559.1710, 742.6944
559.6531, 743.5281
560.1352, 745.5212
560.6173, 747.3084
561.0994, 747.8196
561.5815, 746.7798
562.0637, 746.2447
562.5458, 747.2620
563.0279, 748.5013
563.5100, 748.9659
563.9921, 747.8554
564.4742, 747.3762
564.9564, 747.7653
565.4385, 748.6370
565.9206, 749.4599
566.4027, 750.2983
566.8848, 750.6439
567.3669, 750.1866
567.8491, 749.2056
568.3312, 748.7248
568.8133, 748.7194
569.2954, 748.4826
569.7775, 747.4554
570.2596, 745.9235
570.7418, 744.1700
571.2239, 742.1742
571.7060, 740.8427
572.1881, 741.5690
572.6702, 743.0201
573.1523, 743.7846
573.6345, 743.6577
574.1166, 742.5245
574.5987, 739.0264
575.0808, 734.7650
575.5629, 732.3516
576.0450, 734.9090
576.5272, 736.3436
577.0093, 734.8567
577.4914, 731.0524
577.9735, 728.9630
578.4556, 729.2333
578.9377, 729.9393
579.4199, 730.2241
579.9020, 730.0851
580.3841, 729.7376
580.8662, 729.1288
581.3483, 728.6459
581.8304, 728.7489
582.3126, 729.3187
582.7947, 730.0402
583.2768, 731.0084
583.7589, 731.6423
584.2410, 730.9639
584.7231, 729.5172
585.2053, 728.3822
585.6874, 728.5629
586.1696, 728.6442
586.6517, 727.2190
587.1338, 724.8168
587.6159, 723.8411
588.0980, 726.2799
588.5801, 729.0323
589.0623, 730.8669
589.5444, 731.7165
590.0265, 731.9700
590.5086, 731.3922
590.9907, 730.5301
591.4728, 729.7598
591.9550, 729.0882
592.4371, 728.7379
592.9192, 728.9697
593.4013, 729.0110
593.8834, 727.0716
594.3655, 723.6118
594.8477, 721.5775
595.3298, 722.5306
595.8119, 724.6334
596.2940, 725.4796
596.7761, 725.3701
597.2582, 725.3370
597.7404, 726.1326
598.2225, 727.0221
598.7046, 727.5577
599.1867, 727.6945
599.6688, 727.4633
600.1509, 726.3713
600.6331, 725.2527
601.1152, 724.6547
601.5973, 724.8046
602.0794, 724.8930
602.5615, 724.5800
603.0436, 724.5314
603.5258, 725.8677
604.0079, 729.0966
604.4900, 730.9442
604.9721, 730.7105
605.4542, 729.1058
605.9363, 726.9086
606.4185, 724.3139
606.9006, 722.8541
607.3827, 724.1452
607.8648, 726.4412
608.3469, 727.0756
608.8290, 726.3052
609.3112, 725.5304
609.7933, 725.4368
610.2754, 725.7498
610.7575, 726.3956
611.2396, 727.4198
611.7217, 728.1642
612.2039, 728.0715
612.6860, 727.8369
613.1681, 728.0195
613.6502, 729.2350
614.1323, 729.7865
614.6144, 729.5154
615.0966, 728.6847
615.5787, 727.3403
616.0608, 725.2272
616.5429, 724.5317
617.0250, 726.4145
617.5071, 729.2794
617.9893, 729.0128
618.4714, 726.0050
618.9535, 723.2867
619.4356, 722.5149
619.9177, 722.8618
620.3998, 723.5369
620.8820, 724.4697
621.3641, 725.1790
621.8462, 724.8671
622.3283, 724.5994
622.8104, 725.2979
623.2925, 727.4014
623.7747, 729.1174
624.2568, 729.8427
624.7389, 730.2054
625.2210, 730.7129
625.7031, 731.5023
626.1852, 732.1223
626.6674, 732.5617
627.1495, 732.7933
627.6316, 732.4855
628.1137, 731.5816
628.5958, 731.6954
629.0779, 733.8871
629.5601, 736.6904
630.0422, 736.4993
630.5243, 734.0321
631.0064, 732.6492
631.4885, 735.6237
631.9706, 739.6071
632.4528, 741.1747
632.9349, 740.4421
633.4170, 740.0754
633.8991, 741.4586
634.3812, 743.4094
634.8633, 745.3398
635.3455, 747.3137
635.8276, 748.7813
636.3097, 749.5854
636.7918, 750.0164
637.2739, 750.2411
637.7560, 750.1418
638.2382, 750.2497
638.7203, 750.5865
639.2024, 751.1418
639.6845, 752.0989
640.1666, 753.3651
640.6487, 754.2399
641.1309, 754.5283
641.6130, 754.2863
642.0951, 753.3340
642.5772, 751.8771
643.0594, 750.5502
643.5415, 749.7910
644.0236, 749.1285
644.5057, 748.4100
644.9879, 747.5943
645.4700, 746.4121
645.9521, 744.1771
646.4342, 742.1572
646.9163, 741.0259
647.3984, 741.0025
647.8806, 740.3682
648.3627, 738.8079
648.8448, 737.2664
649.3269, 736.8553
649.8090, 737.5782
650.2911, 736.6401
650.7733, 733.4534
651.2554, 730.2653
651.7375, 730.0634
652.2196, 731.9145
652.7017, 733.5626
653.1838, 734.4305
653.6660, 734.7909
654.1481, 734.4172
654.6302, 733.7360
655.1123, 733.5050
655.5944, 734.5145
656.0765, 735.4139
656.5587, 735.7413
657.0408, 735.5730
657.5229, 735.3722
658.0050, 735.1985
658.4871, 734.8572
658.9692, 734.2173
659.4514, 733.3136
659.9335, 732.4689
660.4156, 731.6426
660.8977, 731.2208
661.3798, 731.5804
661.8619, 732.5603
662.3441, 734.1204
662.8262, 736.3000
663.3083, 737.6169
663.7904, 736.0527
664.2725, 733.4053
664.7546, 731.6521
665.2368, 731.3854
665.7189, 731.5328
666.2010, 731.8038
666.6831, 732.2809
667.1652, 733.1085
667.6473, 735.0545
668.1295, 736.0629
668.6116, 735.6798
669.0937, 734.5350
669.5758, 733.8428
670.0579, 733.6411
670.5400, 733.4662
671.0222, 733.1213
671.5043, 732.7704
671.9864, 732.6688
672.4685, 732.8295
672.9506, 733.3581
673.4327, 734.8949
673.9149, 736.3742
674.3970, 736.7852
674.8791, 736.1974
675.3612, 735.3232
675.8433, 734.3206
676.3254, 733.2023
676.8076, 731.7549
677.2897, 729.7653
677.7718, 728.9938
678.2539, 729.9584
678.7360, 731.4590
679.2181, 732.8375
679.7003, 734.1189
680.1824, 735.0146
680.6645, 735.4967
681.1466, 735.6871
681.6287, 735.1232
682.1108, 734.3659
682.5930, 735.4157
683.0751, 739.3553
683.5572, 742.7416
684.0393, 741.7662
684.5214, 738.6578
685.0035, 736.6130
685.4857, 737.7226
685.9678, 738.7429
686.4499, 738.6608
686.9320, 737.9609
687.4141, 737.7020
687.8962, 737.8693
688.3784, 738.6329
688.8605, 740.5748
689.3426, 742.9280
689.8247, 742.4749
690.3068, 739.0899
690.7889, 736.3448
691.2711, 736.5982
691.7532, 738.3759
692.2353, 738.7122
692.7174, 737.7882
693.1995, 736.7513
693.6816, 735.9532
694.1638, 735.5667
694.6459, 735.7594
695.1280, 736.5527
695.6101, 737.7265
696.0922, 739.5584
696.5743, 741.5067
697.0565, 743.4711
697.5386, 745.8203
698.0207, 746.5931
698.5028, 745.3522
698.9849, 743.4844
699.4670, 742.1810
699.9492, 741.4083
700.4313, 740.7382
700.9135, 740.0705
701.3956, 739.7885
701.8777, 740.3770
702.3598, 741.6073
702.8419, 743.3352
703.3240, 746.4742
703.8062, 748.0956
704.2883, 744.8424
704.7704, 739.6318
705.2525, 736.7893
705.7346, 739.3678
706.2167, 741.3419
706.6989, 741.8307
707.1810, 741.5273
707.6631, 742.1217
708.1452, 743.8444
708.6273, 745.0769
709.1094, 745.1698
709.5916, 744.6528
