##NAMES=Zanazziite
##RRUFFID=R050578
##IDEAL CHEMISTRY=Ca_2_Mg_5_Be_4_(PO_4_)_6_(OH)_4_&#183;6H_2_O
##LOCALITY=Lavra da Ilha pegmatite, Taquaral, Minas Gerais, Brazil
##OWNER=RRUFF
##SOURCE=University of Arizona Mineral Museum
##DESCRIPTION=Mass of pale green acicular crystals associated with eosphorite
##STATUS=The identification of this mineral has been confirmed by X-ray diffraction and chemical analysis
##URL=rruff.info/R050578
##MEASURED CHEMISTRY=Ca_2.00_Be_4.00_(Mg_2.48_Fe^2+^_1.80_Mn_0.33_Al_0.26_[box]_0.13_)_Σ=5_(P_1.00_O_4_)_6_(OH)_4_·6H_2_O ; Be not measured but estimated by difference and charge balance
92.06543, 2521.230
92.54755, 2505.527
93.02966, 2513.852
93.51178, 2531.388
93.99390, 2541.498
94.47601, 2551.673
94.95813, 2561.190
95.44025, 2564.477
95.92236, 2556.347
96.40448, 2534.943
96.88660, 2518.532
97.36871, 2512.183
97.85082, 2507.992
98.33294, 2500.846
98.81506, 2488.657
99.29717, 2469.678
99.77929, 2451.968
100.2614, 2436.059
100.7435, 2423.805
101.2256, 2416.525
101.7078, 2412.474
102.1899, 2408.205
102.6720, 2402.245
103.1541, 2396.670
103.6362, 2392.707
104.1183, 2390.210
104.6005, 2389.207
105.0826, 2390.539
105.5647, 2394.628
106.0468, 2396.963
106.5289, 2394.595
107.0110, 2390.562
107.4931, 2385.609
107.9753, 2379.984
108.4574, 2375.261
108.9395, 2374.886
109.4216, 2382.299
109.9037, 2388.746
110.3858, 2392.972
110.8680, 2395.896
111.3501, 2398.926
111.8322, 2402.945
112.3143, 2407.199
112.7964, 2406.688
113.2785, 2395.208
113.7607, 2385.915
114.2428, 2383.768
114.7249, 2386.835
115.2070, 2389.513
115.6891, 2387.397
116.1712, 2380.617
116.6534, 2376.701
117.1355, 2376.547
117.6176, 2378.380
118.0997, 2381.897
118.5818, 2387.236
119.0639, 2391.467
119.5461, 2390.308
120.0282, 2385.455
120.5103, 2381.899
120.9924, 2383.084
121.4745, 2386.520
121.9566, 2385.758
122.4388, 2377.325
122.9209, 2369.105
123.4030, 2366.477
123.8851, 2368.499
124.3672, 2371.939
124.8493, 2374.292
125.3315, 2375.408
125.8136, 2377.572
126.2957, 2384.106
126.7778, 2389.284
127.2599, 2389.358
127.7420, 2384.566
128.2242, 2378.835
128.7063, 2378.092
129.1884, 2387.147
129.6705, 2391.092
130.1526, 2385.945
130.6347, 2378.921
131.1169, 2375.793
131.5990, 2378.369
132.0811, 2383.921
132.5632, 2386.438
133.0453, 2381.042
133.5274, 2378.519
134.0096, 2382.285
134.4917, 2388.709
134.9738, 2392.394
135.4559, 2390.579
135.9380, 2385.015
136.4201, 2381.582
136.9023, 2379.610
137.3844, 2379.969
137.8665, 2385.789
138.3486, 2395.469
138.8307, 2401.252
139.3128, 2396.833
139.7950, 2386.143
140.2771, 2379.055
140.7592, 2377.421
141.2413, 2378.149
141.7234, 2378.277
142.2055, 2377.646
142.6877, 2377.219
143.1698, 2377.699
143.6519, 2378.626
144.1340, 2379.603
144.6161, 2380.745
145.0982, 2381.667
145.5803, 2381.079
146.0625, 2377.281
146.5446, 2374.732
147.0267, 2375.910
147.5088, 2379.053
147.9909, 2381.241
148.4730, 2379.978
148.9552, 2375.604
149.4373, 2375.055
149.9194, 2384.673
150.4015, 2392.504
150.8836, 2395.106
151.3657, 2393.259
151.8479, 2389.254
152.3300, 2384.615
152.8121, 2378.374
153.2942, 2377.861
153.7763, 2388.030
154.2584, 2398.321
154.7406, 2403.916
155.2227, 2404.285
155.7048, 2401.187
156.1869, 2395.856
156.6690, 2386.758
157.1511, 2382.118
157.6333, 2384.310
158.1154, 2389.485
158.5975, 2395.026
159.0796, 2400.444
159.5617, 2404.796
160.0438, 2406.082
160.5260, 2404.134
161.0081, 2403.123
161.4902, 2403.163
161.9723, 2404.871
162.4544, 2410.710
162.9365, 2423.633
163.4187, 2435.807
163.9008, 2436.535
164.3829, 2426.423
164.8650, 2417.377
165.3471, 2417.885
165.8292, 2426.296
166.3113, 2431.338
166.7935, 2427.085
167.2756, 2422.212
167.7577, 2423.916
168.2398, 2432.325
168.7219, 2442.030
169.2040, 2447.766
169.6862, 2448.939
170.1683, 2450.064
170.6504, 2454.013
171.1325, 2456.578
171.6146, 2454.281
172.0967, 2446.771
172.5789, 2437.736
173.0610, 2432.893
173.5431, 2435.052
174.0252, 2435.016
174.5073, 2431.453
174.9894, 2426.344
175.4716, 2420.272
175.9537, 2413.688
176.4358, 2407.826
176.9179, 2405.370
177.4000, 2410.134
177.8821, 2413.308
178.3643, 2414.109
178.8464, 2413.564
179.3285, 2412.928
179.8106, 2412.725
180.2927, 2412.197
180.7748, 2409.158
181.2570, 2398.171
181.7391, 2391.424
182.2212, 2393.390
182.7033, 2399.888
183.1854, 2404.594
183.6675, 2404.507
184.1497, 2401.059
184.6318, 2398.846
185.1139, 2399.816
185.5960, 2398.893
186.0781, 2392.338
186.5602, 2382.151
187.0423, 2374.115
187.5245, 2371.253
188.0066, 2372.170
188.4887, 2372.805
188.9708, 2372.463
189.4529, 2372.933
189.9350, 2376.788
190.4172, 2383.510
190.8993, 2387.552
191.3814, 2384.898
191.8635, 2378.738
192.3456, 2373.904
192.8277, 2371.364
193.3099, 2369.216
193.7920, 2364.789
194.2741, 2357.503
194.7562, 2352.276
195.2383, 2353.984
195.7204, 2357.567
196.2026, 2358.364
196.6847, 2354.483
197.1668, 2349.582
197.6489, 2349.763
198.1310, 2357.121
198.6131, 2363.688
199.0953, 2368.005
199.5774, 2370.273
200.0595, 2369.756
200.5416, 2365.916
201.0237, 2360.842
201.5058, 2359.721
201.9880, 2366.559
202.4701, 2370.026
202.9522, 2365.250
203.4343, 2357.838
203.9164, 2353.452
204.3985, 2354.689
204.8807, 2359.838
205.3628, 2363.850
205.8449, 2366.140
206.3270, 2367.835
206.8091, 2368.994
207.2912, 2369.677
207.7733, 2369.731
208.2555, 2369.054
208.7376, 2368.039
209.2197, 2368.160
209.7018, 2373.452
210.1839, 2375.273
210.6660, 2368.689
211.1482, 2358.958
211.6303, 2353.850
212.1124, 2357.626
212.5945, 2367.786
213.0766, 2374.221
213.5587, 2376.400
214.0409, 2375.970
214.5230, 2370.809
215.0051, 2363.435
215.4872, 2358.594
215.9693, 2359.064
216.4514, 2363.094
216.9336, 2363.932
217.4157, 2360.528
217.8978, 2356.207
218.3799, 2351.180
218.8620, 2345.968
219.3441, 2341.725
219.8263, 2338.887
220.3084, 2337.636
220.7905, 2338.307
221.2726, 2341.802
221.7547, 2345.394
222.2368, 2348.149
222.7190, 2350.011
223.2011, 2350.527
223.6832, 2348.782
224.1653, 2346.175
224.6474, 2345.731
225.1295, 2348.746
225.6117, 2350.835
226.0938, 2347.724
226.5759, 2340.163
227.0580, 2334.851
227.5401, 2336.369
228.0222, 2339.728
228.5043, 2338.428
228.9865, 2331.369
229.4686, 2322.862
229.9507, 2316.242
230.4328, 2311.509
230.9149, 2307.282
231.3970, 2302.398
231.8792, 2298.598
232.3613, 2297.592
232.8434, 2299.719
233.3255, 2303.024
233.8076, 2306.144
234.2897, 2309.188
234.7719, 2310.826
235.2540, 2309.405
235.7361, 2307.325
236.2182, 2305.879
236.7003, 2305.275
237.1824, 2305.317
237.6646, 2306.152
238.1467, 2308.099
238.6288, 2309.013
239.1109, 2308.216
239.5930, 2306.501
240.0751, 2303.314
240.5573, 2298.963
241.0394, 2295.436
241.5215, 2295.916
242.0036, 2302.109
242.4857, 2305.239
242.9678, 2302.164
243.4500, 2298.064
243.9321, 2295.027
244.4142, 2293.466
244.8963, 2292.959
245.3784, 2293.103
245.8605, 2293.958
246.3427, 2295.303
246.8248, 2297.768
247.3069, 2300.192
247.7890, 2302.073
248.2711, 2303.372
248.7532, 2304.345
249.2354, 2305.473
249.7175, 2307.297
250.1996, 2306.820
250.6817, 2300.889
251.1638, 2295.729
251.6459, 2295.165
252.1281, 2298.550
252.6102, 2302.249
253.0923, 2302.682
253.5744, 2299.270
254.0565, 2295.984
254.5386, 2292.568
255.0208, 2289.438
255.5029, 2286.687
255.9850, 2284.353
256.4671, 2282.443
256.9492, 2280.915
257.4313, 2279.723
257.9135, 2279.526
258.3956, 2282.214
258.8777, 2283.876
259.3598, 2281.057
259.8419, 2275.386
260.3240, 2272.327
260.8062, 2276.815
261.2883, 2288.758
261.7704, 2292.777
262.2525, 2283.633
262.7346, 2273.914
263.2167, 2268.364
263.6989, 2266.368
264.1810, 2265.704
264.6631, 2265.232
265.1452, 2264.776
265.6273, 2262.671
266.1094, 2255.661
266.5916, 2250.803
267.0737, 2251.863
267.5558, 2257.103
268.0379, 2262.627
268.5200, 2266.606
269.0021, 2268.975
269.4843, 2269.382
269.9664, 2267.257
270.4485, 2264.368
270.9306, 2261.577
271.4127, 2258.411
271.8948, 2253.094
272.3770, 2243.953
272.8591, 2233.832
273.3412, 2230.998
273.8233, 2238.924
274.3054, 2245.107
274.7875, 2244.577
275.2697, 2239.816
275.7518, 2234.932
276.2339, 2230.905
276.7160, 2228.491
277.1981, 2230.383
277.6802, 2237.712
278.1623, 2242.996
278.6444, 2242.766
279.1266, 2239.462
279.6087, 2237.302
280.0908, 2237.556
280.5729, 2238.439
281.0550, 2236.531
281.5371, 2231.605
282.0193, 2229.815
282.5014, 2237.073
282.9835, 2246.947
283.4656, 2248.966
283.9477, 2240.419
284.4298, 2229.506
284.9120, 2225.237
285.3941, 2226.662
285.8762, 2227.649
286.3583, 2225.991
286.8404, 2223.676
287.3225, 2223.644
287.8047, 2226.418
288.2868, 2228.867
288.7689, 2227.626
289.2510, 2223.849
289.7331, 2221.676
290.2152, 2223.798
290.6974, 2226.600
291.1795, 2225.738
291.6616, 2221.017
292.1437, 2216.715
292.6258, 2215.779
293.1079, 2217.127
293.5901, 2218.052
294.0722, 2218.356
294.5543, 2218.106
295.0364, 2216.778
295.5185, 2214.476
296.0006, 2213.427
296.4828, 2215.808
296.9649, 2219.355
297.4470, 2219.845
297.9291, 2215.829
298.4112, 2211.836
298.8933, 2211.555
299.3755, 2214.367
299.8576, 2216.533
300.3397, 2216.879
300.8218, 2215.891
301.3039, 2214.526
301.7860, 2212.861
302.2682, 2210.384
302.7503, 2206.063
303.2324, 2200.559
303.7145, 2195.559
304.1966, 2190.060
304.6787, 2187.665
305.1609, 2195.095
305.6430, 2210.986
306.1251, 2221.896
306.6072, 2217.669
307.0893, 2204.923
307.5714, 2198.468
308.0536, 2201.408
308.5357, 2206.510
309.0178, 2207.671
309.4999, 2206.104
309.9820, 2204.804
310.4641, 2205.063
310.9463, 2206.019
311.4284, 2206.553
311.9105, 2206.677
312.3926, 2206.148
312.8747, 2204.039
313.3568, 2201.289
313.8390, 2199.663
314.3211, 2200.103
314.8032, 2201.158
315.2853, 2201.295
315.7674, 2200.494
316.2495, 2199.691
316.7317, 2199.118
317.2138, 2198.917
317.6959, 2199.473
318.1780, 2201.298
318.6601, 2202.593
319.1422, 2201.350
319.6243, 2198.005
320.1064, 2195.646
320.5886, 2195.267
321.0707, 2196.301
321.5528, 2198.351
322.0349, 2201.578
322.5170, 2203.782
322.9991, 2203.446
323.4813, 2201.172
323.9634, 2198.463
324.4455, 2195.289
324.9276, 2192.420
325.4097, 2190.690
325.8918, 2189.943
326.3740, 2189.748
326.8561, 2190.731
327.3382, 2191.937
327.8203, 2191.779
328.3024, 2190.028
328.7845, 2187.506
329.2667, 2183.434
329.7488, 2179.061
330.2309, 2177.770
330.7130, 2184.141
331.1951, 2191.044
331.6772, 2189.625
332.1594, 2180.038
332.6415, 2172.691
333.1236, 2174.054
333.6057, 2180.938
334.0878, 2185.858
334.5699, 2187.913
335.0521, 2189.191
335.5342, 2191.542
336.0163, 2194.405
336.4984, 2195.160
336.9805, 2192.150
337.4626, 2187.649
337.9448, 2185.467
338.4269, 2185.942
338.9090, 2185.837
339.3911, 2182.174
339.8732, 2177.362
340.3553, 2177.063
340.8375, 2183.409
341.3196, 2190.145
341.8017, 2189.169
342.2838, 2181.311
342.7659, 2174.811
343.2480, 2171.049
343.7302, 2169.480
344.2123, 2170.778
344.6944, 2174.892
345.1765, 2177.749
345.6586, 2176.022
346.1407, 2170.160
346.6229, 2164.881
347.1050, 2158.579
347.5871, 2154.362
348.0692, 2155.269
348.5513, 2160.197
349.0334, 2165.290
349.5156, 2169.145
349.9977, 2171.324
350.4798, 2170.211
350.9619, 2163.783
351.4440, 2158.759
351.9261, 2157.780
352.4083, 2159.490
352.8904, 2161.753
353.3725, 2163.938
353.8546, 2166.518
354.3367, 2170.799
354.8188, 2177.973
355.3010, 2181.538
355.7831, 2177.298
356.2652, 2171.453
356.7473, 2170.150
357.2294, 2173.831
357.7115, 2177.927
358.1937, 2178.182
358.6758, 2174.379
359.1579, 2172.996
359.6400, 2175.339
360.1221, 2178.545
360.6042, 2182.606
361.0863, 2186.518
361.5685, 2187.508
362.0506, 2183.601
362.5327, 2176.372
363.0148, 2172.351
363.4969, 2173.130
363.9790, 2174.880
364.4612, 2178.416
364.9433, 2182.150
365.4254, 2183.542
365.9075, 2181.856
366.3896, 2179.458
366.8717, 2180.417
367.3539, 2187.994
367.8360, 2191.335
368.3181, 2184.677
368.8002, 2178.489
369.2823, 2181.517
369.7644, 2192.992
370.2466, 2204.930
370.7287, 2209.917
371.2108, 2207.451
371.6929, 2206.374
372.1750, 2208.428
372.6571, 2209.882
373.1393, 2208.724
373.6214, 2206.328
374.1035, 2205.253
374.5856, 2206.980
375.0677, 2210.558
375.5498, 2212.855
376.0320, 2212.356
376.5141, 2212.817
376.9962, 2216.266
377.4783, 2219.746
377.9604, 2220.152
378.4425, 2216.947
378.9247, 2212.623
379.4068, 2210.763
379.8889, 2212.394
380.3710, 2212.900
380.8531, 2210.428
381.3352, 2208.495
381.8174, 2210.077
382.2995, 2213.793
382.7816, 2215.253
383.2637, 2210.017
383.7458, 2199.647
384.2279, 2195.307
384.7101, 2200.677
385.1922, 2206.816
385.6743, 2212.617
386.1564, 2216.935
386.6385, 2217.973
387.1206, 2214.675
387.6028, 2209.617
388.0849, 2207.160
388.5670, 2208.066
389.0491, 2207.949
389.5312, 2204.861
390.0133, 2201.048
390.4955, 2196.769
390.9776, 2192.430
391.4597, 2190.953
391.9418, 2197.236
392.4239, 2209.391
392.9060, 2215.210
393.3882, 2210.027
393.8703, 2205.258
394.3524, 2210.989
394.8345, 2222.546
395.3166, 2229.688
395.7987, 2226.408
396.2809, 2218.583
396.7630, 2214.679
397.2451, 2215.013
397.7272, 2213.673
398.2093, 2205.554
398.6914, 2195.770
399.1736, 2193.038
399.6557, 2199.991
400.1378, 2206.179
400.6199, 2202.780
401.1020, 2193.793
401.5841, 2190.897
402.0662, 2198.039
402.5483, 2207.944
403.0305, 2212.448
403.5126, 2211.940
403.9947, 2209.472
404.4768, 2204.176
404.9589, 2198.062
405.4410, 2192.204
405.9232, 2186.949
406.4053, 2184.267
406.8874, 2186.461
407.3695, 2192.037
407.8516, 2193.244
408.3337, 2186.488
408.8159, 2180.194
409.2980, 2176.685
409.7801, 2175.373
410.2622, 2176.047
410.7443, 2178.725
411.2264, 2181.282
411.7086, 2180.104
412.1907, 2172.774
412.6728, 2167.616
413.1549, 2166.189
413.6370, 2165.607
414.1191, 2164.322
414.6013, 2162.076
415.0834, 2158.937
415.5655, 2154.862
416.0476, 2149.906
416.5297, 2145.370
417.0118, 2141.505
417.4940, 2137.802
417.9761, 2134.107
418.4582, 2130.546
418.9403, 2127.184
419.4224, 2124.050
419.9045, 2121.485
420.3867, 2120.586
420.8688, 2123.226
421.3509, 2122.469
421.8330, 2112.456
422.3151, 2103.915
422.7972, 2104.354
423.2794, 2112.165
423.7615, 2119.661
424.2436, 2120.333
424.7257, 2115.396
425.2078, 2113.302
425.6899, 2115.969
426.1721, 2118.147
426.6542, 2118.489
427.1363, 2117.162
427.6184, 2113.446
428.1005, 2106.476
428.5826, 2100.342
429.0648, 2101.670
429.5469, 2110.610
430.0290, 2115.992
430.5111, 2114.075
430.9932, 2109.104
431.4753, 2104.148
431.9575, 2099.401
432.4396, 2096.396
432.9217, 2096.517
433.4038, 2098.634
433.8859, 2100.931
434.3680, 2103.303
434.8502, 2106.172
435.3323, 2111.274
435.8144, 2116.608
436.2965, 2116.834
436.7786, 2107.956
437.2607, 2099.741
437.7429, 2097.988
438.2250, 2100.773
438.7071, 2104.652
439.1892, 2109.094
439.6713, 2111.504
440.1534, 2107.236
440.6356, 2094.014
441.1177, 2084.527
441.5998, 2081.039
442.0819, 2080.246
442.5640, 2080.929
443.0461, 2082.406
443.5282, 2083.141
444.0103, 2082.010
444.4925, 2079.396
444.9746, 2077.448
445.4567, 2076.144
445.9388, 2075.572
446.4209, 2076.844
446.9030, 2078.291
447.3852, 2077.795
447.8673, 2075.012
448.3494, 2071.916
448.8315, 2071.264
449.3136, 2073.829
449.7957, 2074.905
450.2779, 2073.835
450.7600, 2071.849
451.2421, 2068.679
451.7242, 2064.950
452.2063, 2061.562
452.6884, 2058.913
453.1706, 2057.191
453.6527, 2057.318
454.1348, 2060.226
454.6169, 2062.042
455.0990, 2060.090
455.5811, 2057.851
456.0633, 2058.344
456.5454, 2061.647
457.0275, 2064.315
457.5096, 2063.238
457.9917, 2059.442
458.4738, 2056.620
458.9560, 2055.258
459.4381, 2054.103
459.9202, 2051.635
460.4023, 2048.889
460.8844, 2048.131
461.3665, 2051.429
461.8487, 2054.368
462.3308, 2052.431
462.8129, 2047.141
463.2950, 2044.303
463.7771, 2046.352
464.2592, 2049.875
464.7414, 2049.805
465.2235, 2045.655
465.7056, 2041.730
466.1877, 2037.856
466.6698, 2034.837
467.1519, 2033.238
467.6341, 2033.090
468.1162, 2034.599
468.5983, 2038.217
469.0804, 2043.162
469.5625, 2045.656
470.0446, 2043.790
470.5268, 2041.856
471.0089, 2041.051
471.4910, 2039.816
471.9731, 2035.103
472.4552, 2027.221
472.9373, 2021.272
473.4195, 2023.685
473.9016, 2035.340
474.3837, 2043.256
474.8658, 2046.339
475.3479, 2046.390
475.8300, 2041.147
476.3122, 2034.034
476.7943, 2029.734
477.2764, 2030.291
477.7585, 2033.683
478.2406, 2038.198
478.7227, 2044.460
479.2049, 2045.702
479.6870, 2036.649
480.1691, 2026.265
480.6512, 2021.066
481.1333, 2020.410
481.6154, 2020.574
482.0976, 2021.159
482.5797, 2020.923
483.0618, 2016.296
483.5439, 2007.070
484.0260, 2001.358
484.5081, 2004.639
484.9902, 2012.940
485.4724, 2017.407
485.9545, 2016.754
486.4366, 2016.368
486.9187, 2019.918
487.4008, 2023.986
487.8829, 2022.762
488.3651, 2015.714
488.8472, 2009.042
489.3293, 2008.644
489.8114, 2014.440
490.2935, 2016.923
490.7756, 2014.475
491.2578, 2011.260
491.7399, 2008.015
492.2220, 2004.847
492.7041, 2001.421
493.1862, 1997.744
493.6683, 1994.962
494.1505, 1995.121
494.6326, 1999.359
495.1147, 2002.035
495.5968, 2002.262
496.0789, 2001.730
496.5610, 2001.030
497.0432, 2000.009
497.5253, 1998.174
498.0074, 1995.154
498.4895, 1991.579
498.9716, 1987.984
499.4537, 1983.884
499.9359, 1983.036
500.4180, 1989.243
500.9001, 1996.437
501.3822, 1999.810
501.8643, 1999.463
502.3464, 1997.528
502.8286, 1993.597
503.3107, 1989.319
503.7928, 1987.859
504.2749, 1989.311
504.7570, 1989.580
505.2391, 1985.779
505.7213, 1979.870
506.2034, 1977.211
506.6855, 1978.961
507.1676, 1980.753
507.6497, 1981.025
508.1318, 1980.951
508.6140, 1982.589
509.0961, 1985.844
509.5782, 1987.711
510.0603, 1985.220
510.5424, 1978.679
511.0245, 1974.498
511.5067, 1974.906
511.9888, 1974.999
512.4709, 1974.162
512.9530, 1972.510
513.4351, 1969.398
513.9172, 1965.005
514.3994, 1961.702
514.8815, 1963.545
515.3636, 1971.283
515.8457, 1973.978
516.3278, 1967.467
516.8099, 1961.378
517.2921, 1960.104
517.7742, 1961.624
518.2563, 1962.842
518.7384, 1962.729
519.2205, 1962.110
519.7026, 1961.531
520.1848, 1961.090
520.6669, 1961.894
521.1490, 1964.914
521.6311, 1967.705
522.1132, 1967.894
522.5953, 1965.741
523.0775, 1961.754
523.5596, 1952.963
524.0417, 1945.098
524.5238, 1942.470
525.0059, 1944.120
525.4880, 1947.669
525.9702, 1952.393
526.4523, 1956.957
526.9344, 1959.144
527.4165, 1958.483
527.8986, 1956.299
528.3807, 1951.782
528.8629, 1946.643
529.3450, 1940.381
529.8271, 1934.352
530.3092, 1931.650
530.7913, 1934.286
531.2734, 1939.769
531.7556, 1941.838
532.2377, 1939.214
532.7198, 1936.779
533.2019, 1934.081
533.6840, 1932.694
534.1661, 1934.937
534.6483, 1939.723
535.1304, 1942.547
535.6125, 1939.111
536.0946, 1933.223
536.5767, 1932.539
537.0588, 1937.345
537.5410, 1941.285
538.0231, 1942.282
538.5052, 1940.653
538.9873, 1936.119
539.4694, 1928.009
539.9515, 1922.215
540.4337, 1921.346
540.9158, 1922.880
541.3979, 1925.619
541.8800, 1928.772
542.3621, 1929.176
542.8442, 1924.189
543.3264, 1916.396
543.8085, 1914.664
544.2906, 1925.827
544.7726, 1933.753
545.2548, 1938.015
545.7369, 1939.198
546.2190, 1935.383
546.7011, 1928.396
547.1832, 1924.223
547.6653, 1928.500
548.1475, 1938.151
548.6296, 1939.946
549.1117, 1930.083
549.5938, 1922.388
550.0759, 1921.810
550.5580, 1924.342
551.0402, 1928.349
551.5223, 1933.381
552.0044, 1936.614
552.4865, 1934.696
552.9686, 1930.553
553.4507, 1929.352
553.9329, 1931.312
554.4150, 1934.781
554.8971, 1939.689
555.3792, 1944.905
555.8613, 1947.210
556.3434, 1945.471
556.8256, 1944.285
557.3077, 1945.726
557.7898, 1947.263
558.2719, 1945.591
558.7540, 1941.371
559.2361, 1938.717
559.7183, 1940.704
560.2004, 1946.070
560.6825, 1949.672
561.1646, 1951.942
561.6467, 1951.425
562.1288, 1945.254
562.6110, 1938.789
563.0931, 1935.932
563.5752, 1936.617
564.0573, 1938.216
564.5394, 1939.169
565.0215, 1939.601
565.5037, 1940.222
565.9858, 1941.357
566.4679, 1940.254
566.9500, 1933.312
567.4321, 1925.873
567.9142, 1925.634
568.3964, 1933.141
568.8785, 1939.714
569.3606, 1942.742
569.8427, 1943.256
570.3248, 1941.046
570.8069, 1936.921
571.2891, 1934.211
571.7712, 1934.889
572.2533, 1937.667
572.7354, 1939.386
573.2175, 1939.713
573.6996, 1939.451
574.1818, 1938.008
574.6639, 1936.529
575.1460, 1935.002
575.6281, 1934.030
576.1102, 1935.454
576.5923, 1940.971
577.0745, 1947.423
577.5566, 1946.605
578.0387, 1936.579
578.5208, 1930.065
579.0029, 1932.599
579.4850, 1936.182
579.9672, 1933.924
580.4493, 1927.214
580.9314, 1922.199
581.4135, 1921.688
581.8956, 1923.360
582.3777, 1926.239
582.8599, 1929.621
