##NAMES=Zanazziite
##RRUFFID=R050578
##IDEAL CHEMISTRY=Ca_2_Mg_5_Be_4_(PO_4_)_6_(OH)_4_&#183;6H_2_O
##LOCALITY=Lavra da Ilha pegmatite, Taquaral, Minas Gerais, Brazil
##OWNER=RRUFF
##SOURCE=University of Arizona Mineral Museum
##DESCRIPTION=Mass of pale green acicular crystals associated with eosphorite
##STATUS=The identification of this mineral has been confirmed by X-ray diffraction and chemical analysis
##URL=rruff.info/R050578
##MEASURED CHEMISTRY=Ca_2.00_Be_4.00_(Mg_2.48_Fe^2+^_1.80_Mn_0.33_Al_0.26_[box]_0.13_)_Σ=5_(P_1.00_O_4_)_6_(OH)_4_·6H_2_O ; Be not measured but estimated by difference and charge balance
91.11523, 192.2907
91.59735, 197.1557
92.07947, 192.9247
92.56158, 182.3789
93.04370, 174.2728
93.52582, 176.8400
94.00793, 185.1510
94.49006, 187.1373
94.97218, 179.4384
95.45429, 170.0410
95.93641, 174.4352
96.41853, 192.2393
96.90064, 207.8252
97.38276, 206.8293
97.86488, 191.0676
98.34699, 181.2181
98.82911, 182.2798
99.31123, 190.5526
99.79334, 193.2502
100.2755, 189.0378
100.7576, 183.7955
101.2397, 183.3108
101.7218, 188.8080
102.2039, 193.1518
102.6861, 194.5202
103.1682, 192.9602
103.6503, 192.0637
104.1324, 191.4785
104.6145, 191.9310
105.0966, 194.7765
105.5788, 202.4027
106.0609, 208.1657
106.5430, 209.2737
107.0251, 202.9420
107.5072, 202.0876
107.9893, 209.7406
108.4715, 222.1338
108.9536, 232.4772
109.4357, 237.5214
109.9178, 243.5010
110.3999, 252.7614
110.8820, 268.4444
111.3642, 282.0991
111.8463, 290.3122
112.3284, 295.9391
112.8105, 306.8978
113.2926, 329.4893
113.7747, 354.2672
114.2569, 376.0869
114.7390, 385.7154
115.2211, 402.1872
115.7032, 431.4556
116.1853, 471.9093
116.6674, 515.1777
117.1496, 558.4634
117.6317, 604.0108
118.1138, 653.2524
118.5959, 704.4225
119.0780, 761.6938
119.5602, 827.3351
120.0423, 901.7531
120.5244, 981.5026
121.0065, 1064.480
121.4886, 1151.791
121.9707, 1245.302
122.4529, 1351.392
122.9350, 1459.616
123.4171, 1559.734
123.8992, 1650.751
124.3813, 1740.961
124.8634, 1842.353
125.3456, 1948.558
125.8277, 2045.511
126.3098, 2116.177
126.7919, 2175.411
127.2740, 2245.103
127.7561, 2328.266
128.2383, 2416.793
128.7204, 2496.654
129.2025, 2571.040
129.6846, 2656.704
130.1667, 2770.019
130.6488, 2902.270
131.1310, 3032.599
131.6131, 3156.391
132.0952, 3281.010
132.5773, 3421.507
133.0594, 3578.750
133.5415, 3739.237
134.0237, 3897.055
134.5058, 4052.763
134.9879, 4203.568
135.4700, 4350.532
135.9521, 4492.479
136.4343, 4632.125
136.9164, 4771.616
137.3985, 4901.640
137.8806, 5013.961
138.3627, 5107.375
138.8448, 5196.274
139.3270, 5284.556
139.8091, 5372.179
140.2912, 5453.976
140.7733, 5528.686
141.2554, 5601.131
141.7375, 5675.329
142.2197, 5752.841
142.7018, 5829.844
143.1839, 5904.644
143.6660, 5976.461
144.1481, 6052.755
144.6302, 6131.440
145.1124, 6215.847
145.5945, 6309.002
146.0766, 6415.976
146.5587, 6525.629
147.0408, 6634.837
147.5230, 6741.726
148.0051, 6852.180
148.4872, 6937.517
148.9693, 6984.413
149.4514, 7029.828
149.9335, 7077.369
150.4157, 7120.830
150.8978, 7156.628
151.3799, 7178.097
151.8620, 7208.195
152.3441, 7251.630
152.8262, 7303.360
153.3084, 7352.975
153.7905, 7408.958
154.2726, 7455.509
154.7547, 7486.729
155.2368, 7492.298
155.7189, 7498.405
156.2011, 7507.160
156.6832, 7518.319
157.1653, 7531.302
157.6474, 7546.402
158.1295, 7562.668
158.6116, 7579.326
159.0938, 7593.329
159.5759, 7611.389
160.0580, 7636.280
160.5401, 7666.630
161.0222, 7698.064
161.5044, 7731.454
161.9865, 7763.946
162.4686, 7793.535
162.9507, 7818.081
163.4328, 7841.510
163.9149, 7865.820
164.3971, 7890.833
164.8792, 7914.462
165.3613, 7932.181
165.8434, 7949.708
166.3255, 7972.461
166.8076, 8009.349
167.2898, 8045.379
167.7719, 8072.732
168.2540, 8091.945
168.7361, 8106.834
169.2182, 8114.452
169.7003, 8120.589
170.1825, 8132.146
170.6646, 8160.172
171.1467, 8188.741
171.6288, 8203.979
172.1109, 8206.103
172.5931, 8205.939
173.0752, 8212.786
173.5573, 8222.166
174.0394, 8226.898
174.5215, 8217.265
175.0036, 8204.818
175.4858, 8204.294
175.9679, 8216.039
176.4500, 8228.579
176.9321, 8230.786
177.4142, 8226.361
177.8963, 8223.732
178.3785, 8229.504
178.8606, 8238.342
179.3427, 8241.232
179.8248, 8237.741
180.3069, 8232.646
180.7890, 8229.650
181.2712, 8228.838
181.7533, 8230.588
182.2354, 8237.172
182.7175, 8246.160
183.1996, 8251.826
183.6818, 8253.678
184.1639, 8254.193
184.6460, 8256.994
185.1281, 8261.406
185.6102, 8264.084
186.0923, 8265.011
186.5745, 8263.122
187.0566, 8253.133
187.5387, 8233.061
188.0208, 8211.256
188.5029, 8198.670
188.9850, 8194.907
189.4672, 8193.658
189.9493, 8193.056
190.4314, 8192.795
190.9135, 8190.194
191.3956, 8184.283
191.8777, 8178.386
192.3599, 8179.226
192.8420, 8186.841
193.3241, 8192.373
193.8062, 8188.570
194.2883, 8176.544
194.7704, 8170.503
195.2526, 8171.802
195.7347, 8177.617
196.2168, 8183.367
196.6989, 8188.873
197.1810, 8194.479
197.6632, 8199.464
198.1453, 8203.788
198.6274, 8211.588
199.1095, 8224.035
199.5916, 8238.689
200.0737, 8250.907
200.5559, 8260.912
201.0380, 8268.236
201.5201, 8271.754
202.0022, 8271.275
202.4843, 8272.504
202.9664, 8276.409
203.4486, 8281.900
203.9307, 8286.220
204.4128, 8289.134
204.8949, 8292.197
205.3770, 8294.932
205.8591, 8296.374
206.3413, 8304.987
206.8234, 8323.322
207.3055, 8347.264
207.7876, 8367.224
208.2697, 8383.269
208.7519, 8394.068
209.2340, 8396.311
209.7161, 8386.591
210.1982, 8385.412
210.6803, 8396.017
211.1624, 8414.523
211.6446, 8431.870
212.1267, 8450.087
212.6088, 8462.135
213.0909, 8461.910
213.5730, 8444.361
214.0551, 8435.104
214.5373, 8437.604
215.0194, 8448.492
215.5015, 8458.882
215.9836, 8470.232
216.4657, 8478.403
216.9478, 8480.756
217.4300, 8475.279
217.9121, 8469.871
218.3942, 8463.625
218.8763, 8457.826
219.3584, 8456.658
219.8405, 8460.745
220.3227, 8467.803
220.8048, 8478.074
221.2869, 8495.480
221.7690, 8503.875
222.2511, 8498.726
222.7333, 8485.310
223.2154, 8480.074
223.6975, 8488.373
224.1796, 8496.010
224.6617, 8495.111
225.1438, 8480.355
225.6260, 8472.002
226.1081, 8472.719
226.5902, 8479.893
227.0723, 8485.756
227.5544, 8489.420
228.0365, 8493.597
228.5187, 8500.088
229.0008, 8511.348
229.4829, 8518.396
229.9650, 8518.807
230.4471, 8515.368
230.9292, 8515.876
231.4114, 8522.323
231.8935, 8529.129
232.3756, 8533.202
232.8577, 8531.586
233.3398, 8534.146
233.8220, 8543.225
234.3041, 8555.571
234.7862, 8562.592
235.2683, 8560.537
235.7504, 8559.100
236.2325, 8563.423
236.7147, 8578.686
237.1968, 8586.592
237.6789, 8584.722
238.1610, 8576.938
238.6431, 8571.002
239.1252, 8565.856
239.6074, 8564.667
240.0895, 8568.956
240.5716, 8579.843
241.0537, 8593.785
241.5358, 8614.506
242.0179, 8636.469
242.5001, 8647.794
242.9822, 8641.342
243.4643, 8635.354
243.9464, 8635.526
244.4285, 8641.762
244.9106, 8654.518
245.3928, 8678.521
245.8749, 8705.867
246.3570, 8722.158
246.8391, 8721.161
247.3212, 8719.428
247.8034, 8722.495
248.2855, 8731.830
248.7676, 8739.861
249.2497, 8746.053
249.7318, 8751.600
250.2139, 8758.519
250.6961, 8768.251
251.1782, 8777.181
251.6603, 8784.469
252.1424, 8790.162
252.6245, 8795.003
253.1066, 8799.468
253.5888, 8802.913
254.0709, 8804.066
254.5530, 8801.050
255.0351, 8799.563
255.5172, 8801.240
255.9993, 8806.295
256.4815, 8811.834
256.9636, 8817.766
257.4457, 8824.096
257.9278, 8830.925
258.4099, 8838.377
258.8921, 8846.158
259.3742, 8855.369
259.8563, 8866.051
260.3384, 8870.506
260.8205, 8865.472
261.3026, 8858.529
261.7848, 8857.268
262.2669, 8863.226
262.7490, 8870.872
263.2311, 8879.885
263.7132, 8890.086
264.1953, 8897.537
264.6775, 8901.161
265.1596, 8903.609
265.6417, 8906.983
266.1238, 8911.197
266.6059, 8916.400
267.0880, 8922.253
267.5702, 8929.049
268.0523, 8939.889
268.5344, 8958.494
269.0165, 8973.764
269.4986, 8975.537
269.9807, 8960.041
270.4629, 8947.805
270.9450, 8941.736
271.4271, 8940.769
271.9092, 8941.135
272.3913, 8943.009
272.8734, 8945.623
273.3556, 8948.739
273.8377, 8952.508
274.3198, 8954.854
274.8019, 8954.119
275.2840, 8952.845
275.7661, 8960.739
276.2483, 8981.007
276.7304, 8996.957
277.2125, 8994.639
277.6946, 8972.175
278.1768, 8960.330
278.6589, 8962.495
279.1410, 8974.233
279.6231, 8988.208
280.1052, 9005.204
280.5873, 9020.451
281.0695, 9031.712
281.5516, 9039.099
282.0337, 9043.092
282.5158, 9043.365
282.9979, 9041.010
283.4800, 9035.896
283.9622, 9027.648
284.4443, 9023.134
284.9264, 9026.958
285.4085, 9037.952
285.8906, 9045.928
286.3727, 9049.855
286.8549, 9053.981
287.3370, 9066.412
287.8191, 9086.482
288.3012, 9101.336
288.7833, 9104.256
289.2654, 9098.272
289.7476, 9093.744
290.2297, 9090.682
290.7118, 9089.525
291.1939, 9092.313
291.6760, 9098.267
292.1581, 9102.126
292.6403, 9100.932
293.1224, 9097.591
293.6045, 9099.926
294.0866, 9108.021
294.5687, 9115.667
295.0508, 9116.575
295.5330, 9112.410
296.0151, 9108.728
296.4972, 9106.350
296.9793, 9105.603
297.4614, 9106.732
297.9435, 9109.782
298.4257, 9115.458
298.9078, 9127.543
299.3899, 9142.367
299.8720, 9151.273
300.3541, 9151.586
300.8362, 9148.241
301.3184, 9145.054
301.8005, 9142.722
302.2826, 9144.224
302.7647, 9152.604
303.2469, 9165.493
303.7290, 9181.107
304.2111, 9200.358
304.6932, 9216.920
305.1753, 9222.241
305.6574, 9219.622
306.1396, 9216.709
306.6217, 9216.590
307.1038, 9218.377
307.5859, 9220.260
308.0680, 9221.796
308.5501, 9227.025
309.0323, 9244.214
309.5144, 9266.327
309.9965, 9282.135
310.4786, 9281.091
310.9607, 9276.481
311.4428, 9277.734
311.9250, 9284.975
312.4071, 9294.736
312.8892, 9307.623
313.3713, 9320.859
313.8534, 9331.606
314.3355, 9338.986
314.8177, 9343.481
315.2998, 9342.854
315.7819, 9338.404
316.2640, 9337.162
316.7461, 9343.776
317.2282, 9353.885
317.7104, 9364.471
318.1925, 9376.403
318.6746, 9386.282
319.1567, 9392.089
319.6388, 9394.842
320.1209, 9397.127
320.6031, 9399.955
321.0852, 9402.364
321.5673, 9403.971
322.0494, 9404.865
322.5315, 9404.796
323.0136, 9402.201
323.4958, 9398.996
323.9779, 9398.270
324.4600, 9404.127
324.9421, 9409.549
325.4242, 9411.252
325.9064, 9407.441
326.3885, 9407.872
326.8706, 9415.514
327.3527, 9426.962
327.8348, 9438.657
328.3170, 9451.722
328.7991, 9463.713
329.2812, 9475.068
329.7633, 9485.873
330.2454, 9491.135
330.7275, 9482.502
331.2097, 9474.608
331.6918, 9478.539
332.1739, 9506.491
332.6560, 9525.580
333.1381, 9528.075
333.6202, 9518.229
334.1024, 9517.174
334.5845, 9529.750
335.0666, 9543.715
335.5487, 9553.188
336.0308, 9558.119
336.5129, 9558.108
336.9951, 9550.434
337.4772, 9540.093
337.9593, 9538.029
338.4414, 9547.623
338.9235, 9556.740
339.4056, 9561.021
339.8878, 9560.463
340.3699, 9556.506
340.8520, 9547.479
341.3341, 9538.486
341.8162, 9535.762
342.2983, 9539.521
342.7805, 9547.119
343.2626, 9559.618
343.7447, 9575.232
344.2268, 9584.200
344.7089, 9585.916
345.1910, 9583.583
345.6732, 9577.064
346.1553, 9567.312
346.6374, 9564.810
347.1195, 9574.057
347.6016, 9588.732
348.0837, 9595.838
348.5659, 9595.862
349.0480, 9594.750
349.5301, 9597.248
350.0122, 9601.971
350.4944, 9604.956
350.9765, 9605.625
351.4586, 9605.580
351.9407, 9605.382
352.4228, 9605.854
352.9049, 9609.456
353.3871, 9619.795
353.8692, 9633.019
354.3513, 9644.162
354.8334, 9652.862
355.3155, 9660.373
355.7976, 9667.355
356.2798, 9673.694
356.7619, 9679.346
357.2440, 9680.892
357.7261, 9684.010
358.2082, 9693.790
358.6903, 9709.346
359.1725, 9725.306
359.6546, 9740.912
360.1367, 9754.414
360.6188, 9763.690
361.1009, 9765.088
361.5830, 9767.024
362.0652, 9773.887
362.5473, 9784.108
363.0294, 9793.780
363.5115, 9803.393
363.9936, 9810.954
364.4757, 9814.582
364.9579, 9812.355
365.4400, 9812.514
365.9221, 9819.148
366.4042, 9828.529
366.8863, 9835.902
367.3684, 9838.042
367.8506, 9840.987
368.3327, 9847.036
368.8148, 9856.666
369.2969, 9864.079
369.7790, 9864.082
370.2611, 9865.541
370.7433, 9874.980
371.2254, 9898.933
371.7075, 9920.299
372.1896, 9937.725
372.6717, 9951.506
373.1538, 9962.209
373.6360, 9967.100
374.1181, 9973.042
374.6002, 9984.379
375.0823, 10004.55
375.5645, 10016.68
376.0466, 10016.76
376.5287, 10013.08
377.0108, 10021.01
377.4929, 10043.35
377.9750, 10063.51
378.4572, 10075.09
378.9393, 10079.15
379.4214, 10084.77
379.9035, 10092.25
380.3856, 10100.11
380.8677, 10106.80
381.3499, 10112.39
381.8320, 10117.27
382.3141, 10120.77
382.7962, 10124.39
383.2783, 10131.86
383.7604, 10142.90
384.2426, 10154.56
384.7247, 10166.50
385.2068, 10177.31
385.6889, 10183.12
386.1710, 10182.15
386.6531, 10181.50
387.1353, 10190.82
387.6174, 10206.79
388.0995, 10220.78
388.5816, 10227.13
389.0637, 10230.82
389.5458, 10237.06
390.0280, 10246.05
390.5101, 10255.74
390.9922, 10265.93
391.4743, 10275.71
391.9564, 10284.01
392.4385, 10288.36
392.9207, 10293.77
393.4028, 10303.70
393.8849, 10316.79
394.3670, 10329.15
394.8491, 10339.24
395.3312, 10347.96
395.8134, 10355.19
396.2955, 10359.57
396.7776, 10366.21
397.2597, 10377.72
397.7418, 10391.55
398.2239, 10404.50
398.7061, 10417.56
399.1882, 10428.23
399.6703, 10436.17
400.1524, 10441.47
400.6346, 10443.35
401.1167, 10437.30
401.5988, 10431.79
402.0809, 10433.03
402.5630, 10446.33
403.0451, 10455.47
403.5273, 10456.70
404.0094, 10453.64
404.4915, 10458.21
404.9736, 10474.95
405.4557, 10487.89
405.9378, 10489.56
406.4200, 10479.11
406.9021, 10465.14
407.3842, 10445.50
407.8663, 10427.79
408.3484, 10424.99
408.8305, 10437.56
409.3127, 10445.10
409.7948, 10440.48
410.2769, 10428.21
410.7590, 10419.44
411.2411, 10414.30
411.7232, 10412.63
412.2054, 10417.89
412.6875, 10426.70
413.1696, 10428.81
413.6517, 10421.86
414.1338, 10411.11
414.6159, 10399.38
415.0981, 10388.23
415.5802, 10382.40
416.0623, 10391.20
416.5444, 10402.15
417.0265, 10401.08
417.5086, 10387.55
417.9908, 10372.54
418.4729, 10360.49
418.9550, 10351.55
419.4371, 10346.52
419.9192, 10351.87
420.4013, 10353.33
420.8835, 10339.07
421.3656, 10315.40
421.8477, 10300.87
422.3298, 10312.87
422.8119, 10326.09
423.2940, 10327.87
423.7762, 10312.29
424.2583, 10300.17
424.7404, 10294.84
425.2225, 10293.95
425.7047, 10294.50
426.1868, 10295.77
426.6689, 10299.60
427.1510, 10307.08
427.6331, 10317.85
428.1152, 10328.94
428.5974, 10343.70
429.0795, 10353.92
429.5616, 10351.58
430.0437, 10330.39
430.5258, 10324.86
431.0079, 10341.66
431.4901, 10368.08
431.9722, 10380.79
432.4543, 10378.48
432.9364, 10374.80
433.4185, 10374.38
433.9006, 10376.77
434.3828, 10381.11
434.8649, 10387.66
435.3470, 10393.05
435.8291, 10392.50
436.3112, 10388.19
436.7933, 10387.67
437.2755, 10394.05
437.7576, 10401.68
438.2397, 10403.52
438.7218, 10400.66
439.2039, 10396.46
439.6860, 10391.46
440.1682, 10386.78
440.6503, 10382.07
441.1324, 10376.94
441.6145, 10377.45
442.0966, 10394.37
442.5787, 10415.70
443.0609, 10428.51
443.5430, 10419.68
444.0251, 10410.95
444.5072, 10412.01
444.9893, 10419.63
445.4714, 10422.44
445.9536, 10413.29
446.4357, 10402.72
446.9178, 10395.14
447.3999, 10391.31
447.8820, 10390.00
448.3641, 10394.36
448.8463, 10399.83
449.3284, 10401.23
449.8105, 10395.32
450.2926, 10391.88
450.7747, 10393.38
451.2569, 10398.93
451.7390, 10402.54
452.2211, 10403.21
452.7032, 10404.07
453.1853, 10407.34
453.6674, 10413.08
454.1496, 10416.25
454.6317, 10415.58
455.1138, 10414.34
455.5959, 10417.10
456.0780, 10423.67
456.5602, 10432.98
457.0423, 10448.59
457.5244, 10464.33
458.0065, 10465.58
458.4886, 10453.54
458.9707, 10440.40
459.4529, 10433.74
459.9350, 10432.46
460.4171, 10436.01
460.8992, 10445.74
461.3813, 10455.66
461.8634, 10461.17
462.3456, 10463.81
462.8277, 10466.02
463.3098, 10465.14
463.7919, 10467.21
464.2740, 10479.03
464.7561, 10499.40
465.2383, 10512.23
465.7204, 10503.14
466.2025, 10491.18
466.6846, 10488.40
467.1667, 10503.11
467.6488, 10515.39
468.1310, 10521.52
468.6131, 10525.21
469.0952, 10533.22
469.5773, 10552.00
470.0594, 10564.64
470.5415, 10565.88
471.0237, 10556.14
471.5058, 10546.38
471.9879, 10535.26
472.4700, 10527.34
472.9521, 10528.17
473.4342, 10538.43
473.9164, 10543.78
474.3985, 10541.94
474.8806, 10536.89
475.3627, 10535.30
475.8448, 10536.86
476.3270, 10538.14
476.8091, 10535.79
477.2912, 10532.96
477.7733, 10539.39
478.2554, 10554.18
478.7375, 10563.71
479.2197, 10551.09
479.7018, 10529.08
480.1839, 10515.27
480.6660, 10514.27
481.1481, 10518.76
481.6302, 10529.70
482.1124, 10542.10
482.5945, 10547.52
483.0766, 10532.58
483.5587, 10519.44
484.0408, 10519.93
484.5229, 10533.85
485.0051, 10544.74
485.4872, 10549.10
485.9693, 10549.88
486.4514, 10548.34
486.9335, 10539.66
487.4156, 10537.51
487.8978, 10546.29
488.3799, 10559.37
488.8620, 10565.72
489.3441, 10561.45
489.8262, 10560.85
490.3083, 10570.19
490.7905, 10587.11
491.2726, 10591.33
491.7547, 10580.33
492.2368, 10569.28
492.7189, 10570.18
493.2010, 10581.51
493.6832, 10593.73
494.1653, 10606.45
494.6474, 10618.11
495.1295, 10627.60
495.6116, 10634.56
496.0938, 10638.08
496.5759, 10634.63
497.0580, 10630.01
497.5401, 10631.39
498.0222, 10637.67
498.5044, 10643.22
498.9865, 10643.63
499.4686, 10642.87
499.9507, 10643.57
500.4328, 10645.69
500.9149, 10651.27
501.3971, 10665.32
501.8792, 10681.69
502.3613, 10693.23
502.8434, 10694.92
503.3255, 10696.25
503.8076, 10699.87
504.2898, 10704.62
504.7719, 10704.53
505.2540, 10694.57
505.7361, 10686.89
506.2182, 10687.59
506.7003, 10698.47
507.1825, 10705.42
507.6646, 10707.81
508.1467, 10707.71
508.6288, 10705.66
509.1109, 10701.78
509.5930, 10704.43
510.0752, 10718.34
510.5573, 10735.50
511.0394, 10738.53
511.5215, 10729.65
512.0037, 10722.25
512.4858, 10727.90
512.9679, 10737.76
513.4500, 10736.21
513.9321, 10722.95
514.4142, 10714.27
514.8964, 10729.90
515.3785, 10752.25
515.8606, 10760.91
516.3427, 10740.23
516.8248, 10724.38
517.3069, 10730.21
517.7891, 10749.35
518.2712, 10766.39
518.7533, 10779.33
519.2354, 10788.29
519.7175, 10790.92
520.1996, 10787.48
520.6818, 10789.31
521.1639, 10803.02
521.6460, 10813.93
522.1281, 10811.78
522.6102, 10791.42
523.0923, 10777.81
523.5745, 10771.73
524.0566, 10772.00
524.5387, 10778.54
525.0208, 10791.36
525.5029, 10803.66
525.9850, 10813.89
526.4672, 10821.97
526.9493, 10827.59
527.4314, 10830.90
527.9135, 10833.10
528.3956, 10837.77
528.8777, 10840.64
529.3599, 10831.68
529.8420, 10808.78
530.3241, 10793.60
530.8062, 10810.33
531.2883, 10838.68
531.7704, 10855.25
532.2526, 10843.38
532.7347, 10833.14
533.2168, 10833.95
533.6989, 10843.06
534.1810, 10853.95
534.6631, 10873.17
535.1453, 10886.24
535.6274, 10885.83
536.1095, 10871.34
536.5916, 10868.19
537.0737, 10881.59
537.5558, 10898.25
538.0380, 10908.62
538.5201, 10911.41
539.0022, 10916.88
539.4843, 10925.43
539.9664, 10936.79
540.4485, 10951.03
540.9307, 10967.77
541.4128, 10985.52
541.8949, 11004.86
542.3770, 11023.28
542.8591, 11035.78
543.3412, 11043.04
543.8234, 11050.20
544.3055, 11061.52
544.7876, 11073.31
545.2697, 11080.89
545.7518, 11083.37
546.2339, 11087.53
546.7161, 11099.07
547.1982, 11112.62
547.6803, 11123.65
548.1624, 11125.42
548.6445, 11132.22
549.1266, 11152.85
549.6088, 11179.19
550.0909, 11193.82
550.5730, 11185.67
551.0551, 11185.06
551.5372, 11204.95
552.0193, 11241.93
552.5015, 11255.33
552.9836, 11237.87
553.4657, 11222.68
553.9478, 11238.02
554.4299, 11279.78
554.9120, 11304.28
555.3942, 11307.03
555.8763, 11301.59
556.3584, 11298.68
556.8405, 11299.37
557.3226, 11307.75
557.8047, 11330.51
558.2869, 11352.96
558.7690, 11359.76
559.2511, 11355.41
559.7332, 11351.13
560.2154, 11352.01
560.6975, 11354.46
561.1796, 11357.72
561.6617, 11361.88
562.1439, 11363.64
562.6260, 11362.01
563.1081, 11358.30
563.5902, 11353.26
564.0723, 11346.40
564.5544, 11338.54
565.0366, 11325.31
565.5187, 11315.12
566.0008, 11322.21
566.4829, 11350.54
566.9650, 11373.89
567.4471, 11386.48
567.9293, 11390.47
568.4114, 11388.67
568.8935, 11381.46
569.3756, 11375.42
569.8577, 11375.36
570.3398, 11378.46
570.8220, 11380.24
571.3041, 11380.62
571.7862, 11380.12
572.2683, 11377.80
572.7504, 11375.61
573.2325, 11375.85
573.7147, 11380.20
574.1968, 11384.07
574.6789, 11387.94
575.1610, 11389.82
575.6431, 11387.15
576.1252, 11372.11
576.6074, 11361.69
577.0895, 11360.43
577.5716, 11365.68
578.0537, 11366.76
578.5358, 11361.68
579.0179, 11357.12
579.5001, 11355.67
579.9822, 11357.17
580.4643, 11359.33
580.9464, 11362.02
581.4285, 11365.97
581.9106, 11374.76
