##NAMES=Zemannite
##RRUFFID=R050273
##IDEAL CHEMISTRY=Mg_0.5_Zn^2+^Fe^3+^(Te^4+^O_3_)_3_&#183;<i>n</i>H_2_O (3&#8804;<i>n</i>&#8804;4.5)
##LOCALITY=Mina Bambollita, Moctezuma, Sonora, Mexico
##OWNER=RRUFF
##SOURCE=Marcus Origlieri
##DESCRIPTION=Dark reddish-brown hexagonal prisms
##STATUS=The identification of this mineral has been confirmed by single-crystal X-ray diffraction.
##URL=rruff.info/R050273
92.54132, 0.0000000E+00
93.02344, 1.075869
93.50555, 1.031375
93.98767, 1.015185
94.46979, 1.005582
94.95190, 1.025613
95.43402, 1.141241
95.91614, 1.360140
96.39825, 1.635394
96.88037, 1.925655
97.36249, 2.229911
97.84460, 2.502477
98.32672, 2.685108
98.80884, 2.786280
99.29095, 2.982821
99.77307, 3.302421
100.2552, 3.692361
100.7373, 4.021697
101.2194, 4.267163
101.7015, 4.530739
102.1837, 4.865377
102.6658, 5.262827
103.1479, 5.764311
103.6300, 6.407765
104.1121, 7.161929
104.5942, 7.844604
105.0763, 8.449322
105.5585, 8.999234
106.0406, 9.513933
106.5227, 9.955362
107.0048, 10.42062
107.4869, 10.92804
107.9690, 11.48150
108.4512, 12.02504
108.9333, 12.58775
109.4154, 13.13051
109.8975, 13.61449
110.3796, 13.91700
110.8617, 14.28376
111.3439, 14.76948
111.8260, 15.40145
112.3081, 16.05927
112.7902, 16.68480
113.2723, 17.34426
113.7544, 18.12016
114.2366, 19.14730
114.7187, 20.19770
115.2008, 21.16511
115.6829, 21.98664
116.1650, 22.83883
116.6471, 23.82651
117.1293, 24.89102
117.6114, 25.90743
118.0935, 26.78007
118.5756, 27.61574
119.0577, 28.49201
119.5398, 29.42585
120.0220, 30.39433
120.5041, 31.46468
120.9862, 32.59379
121.4683, 33.60664
121.9504, 34.32934
122.4325, 34.90910
122.9147, 35.50747
123.3968, 36.12294
123.8789, 36.81725
124.3610, 37.67475
124.8431, 38.68642
125.3252, 39.71533
125.8074, 40.69959
126.2895, 41.62562
126.7716, 42.46628
127.2537, 43.07330
127.7358, 43.63841
128.2179, 44.48435
128.7001, 45.61903
129.1822, 46.85839
129.6643, 48.07849
130.1464, 49.26215
130.6285, 50.33794
131.1106, 51.18131
131.5928, 51.88029
132.0749, 52.77580
132.5570, 53.90664
133.0391, 55.06495
133.5212, 55.92338
134.0033, 56.39835
134.4855, 56.55252
134.9676, 56.56278
135.4497, 56.62135
135.9318, 56.68709
136.4139, 56.80252
136.8960, 56.86605
137.3782, 56.68941
137.8603, 56.27673
138.3424, 55.64802
138.8245, 54.76907
139.3066, 53.60124
139.7887, 52.46980
140.2709, 51.39965
140.7530, 50.38932
141.2351, 49.45532
141.7172, 48.62107
142.1993, 47.78945
142.6814, 46.89301
143.1636, 45.87789
143.6457, 44.92200
144.1278, 44.03733
144.6099, 43.22173
145.0920, 42.42358
145.5741, 41.58161
146.0563, 40.82048
146.5384, 40.25610
147.0205, 39.98863
147.5026, 39.74275
147.9847, 39.51017
148.4668, 39.29832
148.9490, 38.95770
149.4311, 38.33535
149.9132, 37.67675
150.3953, 37.21747
150.8774, 37.19374
151.3595, 37.11034
151.8417, 36.84658
152.3238, 36.35159
152.8059, 35.97443
153.2880, 35.82484
153.7701, 35.75849
154.2522, 35.61812
154.7344, 35.29650
155.2165, 34.98875
155.6986, 34.74585
156.1807, 34.57552
156.6628, 34.43709
157.1449, 34.36177
157.6271, 34.30637
158.1092, 34.21191
158.5913, 34.02750
159.0734, 33.83311
159.5555, 33.65563
160.0376, 33.49324
160.5198, 33.36168
161.0019, 33.25439
161.4840, 33.18171
161.9661, 33.16565
162.4482, 33.29218
162.9303, 33.42351
163.4125, 33.47144
163.8946, 33.38070
164.3767, 33.30126
164.8588, 33.30284
165.3409, 33.36576
165.8230, 33.44304
166.3052, 33.56506
166.7873, 33.66480
167.2694, 33.67838
167.7515, 33.54003
168.2336, 33.40742
168.7157, 33.36947
169.1978, 33.41525
169.6800, 33.50886
170.1621, 33.64814
170.6442, 33.81739
171.1263, 34.01581
171.6084, 34.30492
172.0905, 34.53538
172.5727, 34.49464
173.0548, 34.24431
173.5369, 34.08287
174.0190, 34.35257
174.5011, 34.78935
174.9832, 35.00946
175.4654, 34.78406
175.9475, 34.44097
176.4296, 34.32579
176.9117, 34.42147
177.3938, 34.58425
177.8759, 34.76473
178.3581, 34.93120
178.8402, 35.02404
179.3223, 35.03920
179.8044, 34.96106
180.2865, 34.66872
180.7686, 34.17501
181.2508, 33.78643
181.7329, 33.86535
182.2150, 34.26637
182.6971, 34.59636
183.1792, 34.68709
183.6613, 34.64990
184.1435, 34.71929
184.6256, 34.90014
185.1077, 35.05567
185.5898, 34.97194
186.0719, 34.72078
186.5540, 34.61808
187.0362, 34.86138
187.5183, 35.30665
188.0004, 35.53060
188.4825, 35.51511
188.9646, 35.45869
189.4467, 35.59989
189.9289, 35.91361
190.4110, 36.18842
190.8931, 36.31810
191.3752, 36.35199
191.8573, 36.49978
192.3394, 36.77535
192.8216, 37.10369
193.3037, 37.40746
193.7858, 37.68718
194.2679, 37.95739
194.7500, 38.23775
195.2321, 38.51697
195.7143, 38.72768
196.1964, 38.86374
196.6785, 38.94555
197.1606, 38.97534
197.6427, 38.94781
198.1248, 38.95098
198.6070, 38.99641
199.0891, 39.08824
199.5712, 39.31458
200.0533, 39.70168
200.5354, 40.15627
201.0175, 40.54533
201.4997, 40.86195
201.9818, 41.17294
202.4639, 41.54036
202.9460, 41.96515
203.4281, 42.18611
203.9102, 42.13351
204.3924, 42.00576
204.8745, 42.08599
205.3566, 42.39751
205.8387, 42.81261
206.3208, 43.32322
206.8029, 43.94268
207.2851, 44.43660
207.7672, 44.76980
208.2493, 45.02869
208.7314, 45.36145
209.2135, 45.80825
209.6956, 46.19163
210.1778, 46.42100
210.6599, 46.47365
211.1420, 46.59380
211.6241, 46.79939
212.1062, 47.04837
212.5883, 47.28141
213.0705, 47.50438
213.5526, 47.69539
214.0347, 47.84172
214.5168, 47.94217
214.9989, 48.01124
215.4810, 48.03086
215.9632, 48.03612
216.4453, 48.08870
216.9274, 48.21097
217.4095, 48.32689
217.8916, 48.40499
218.3737, 48.43522
218.8559, 48.49113
219.3380, 48.59713
219.8201, 48.70661
220.3022, 48.72622
220.7843, 48.58318
221.2664, 48.51016
221.7486, 48.64368
222.2307, 49.07448
222.7128, 49.18130
223.1949, 48.79152
223.6770, 48.21719
224.1591, 47.96786
224.6413, 48.20890
225.1234, 48.44909
225.6055, 48.51392
226.0876, 48.33901
226.5697, 48.33227
227.0518, 48.62188
227.5340, 48.98126
228.0161, 49.02694
228.4982, 48.51960
228.9803, 48.13484
229.4624, 48.11308
229.9445, 48.54983
230.4267, 48.85523
230.9088, 48.99505
231.3909, 49.03454
231.8730, 49.05716
232.3551, 49.03075
232.8372, 49.04256
233.3194, 49.10754
233.8015, 49.22028
234.2836, 49.43609
234.7657, 49.81847
235.2478, 50.25347
235.7299, 50.60019
236.2121, 50.84229
236.6942, 51.02031
237.1763, 51.14732
237.6584, 51.22747
238.1405, 51.22111
238.6226, 51.08389
239.1048, 50.89649
239.5869, 50.76131
240.0690, 50.72729
240.5511, 50.65538
241.0332, 50.47895
241.5153, 50.17083
241.9975, 50.01838
242.4796, 50.11058
242.9617, 50.28153
243.4438, 50.34440
243.9259, 50.24915
244.4080, 50.13613
244.8902, 50.02810
245.3723, 49.92423
245.8544, 49.84271
246.3365, 49.79950
246.8186, 49.76360
247.3007, 49.70930
247.7829, 49.65733
248.2650, 49.54176
248.7471, 49.30554
249.2292, 48.94181
249.7113, 48.76858
250.1934, 48.95104
250.6756, 49.14154
251.1577, 48.99247
251.6398, 48.28186
252.1219, 47.69456
252.6040, 47.40078
253.0861, 47.38373
253.5683, 47.19720
254.0504, 46.78444
254.5325, 46.26890
255.0146, 45.72892
255.4967, 45.09850
255.9788, 44.60002
256.4609, 44.33397
256.9431, 44.25719
257.4252, 43.97173
257.9073, 43.40026
258.3894, 42.72660
258.8715, 42.06963
259.3536, 41.40786
259.8358, 40.80969
260.3179, 40.30691
260.8000, 39.87226
261.2821, 39.35163
261.7642, 38.65994
262.2463, 38.01806
262.7285, 37.56643
263.2106, 37.33858
263.6927, 37.21181
264.1748, 37.23781
264.6569, 37.34630
265.1390, 37.26978
265.6212, 36.94840
266.1033, 36.56779
266.5854, 36.21862
267.0675, 35.91111
267.5496, 35.61267
268.0317, 35.30308
268.5139, 35.01379
268.9960, 34.85241
269.4781, 34.86082
269.9602, 34.88425
270.4423, 34.84656
270.9244, 34.73792
271.4066, 34.61799
271.8887, 34.48981
272.3708, 34.34865
272.8529, 34.17664
273.3350, 33.95733
273.8171, 33.76659
274.2993, 33.65647
274.7814, 33.64429
275.2635, 33.54637
275.7456, 33.33089
276.2277, 33.07970
276.7098, 32.95234
277.1920, 32.98052
277.6741, 32.95593
278.1562, 32.77430
278.6383, 32.43432
279.1204, 32.18330
279.6025, 32.04682
280.0847, 31.93461
280.5668, 31.67562
281.0489, 31.24300
281.5310, 30.97053
282.0131, 31.02580
282.4952, 31.35801
282.9774, 31.56799
283.4595, 31.64669
283.9416, 31.64829
284.4237, 31.66110
284.9058, 31.68460
285.3879, 31.53331
285.8701, 31.05241
286.3522, 30.38791
286.8343, 30.13867
287.3164, 30.34918
287.7985, 30.63477
288.2806, 30.60345
288.7628, 30.29452
289.2449, 30.12761
289.7270, 30.25241
290.2091, 30.52016
290.6912, 30.53374
291.1733, 30.28961
291.6555, 30.03637
292.1376, 30.00894
292.6197, 30.14836
293.1018, 30.17185
293.5839, 30.01346
294.0660, 29.75686
294.5482, 29.49838
295.0303, 29.24684
295.5124, 29.08381
295.9945, 29.12171
296.4766, 29.28959
296.9587, 29.37996
297.4409, 29.35852
297.9230, 29.29748
298.4051, 29.30470
298.8872, 29.36155
299.3693, 29.38725
299.8514, 29.30481
300.3336, 29.16872
300.8157, 29.05535
301.2978, 28.96083
301.7799, 28.95088
302.2620, 29.16537
302.7441, 29.52806
303.2263, 29.83941
303.7084, 30.05972
304.1905, 30.15750
304.6726, 30.01886
305.1547, 29.63706
305.6368, 29.29879
306.1190, 29.24846
306.6011, 29.40844
307.0832, 29.64672
307.5653, 30.03016
308.0474, 30.38723
308.5295, 30.54873
309.0117, 30.52777
309.4938, 30.42034
309.9759, 30.16247
310.4580, 29.89753
310.9401, 29.81602
311.4222, 30.08937
311.9044, 30.40236
312.3865, 30.48610
312.8686, 30.40977
313.3507, 30.42752
313.8328, 30.83021
314.3149, 31.30044
314.7971, 31.54891
315.2792, 31.43046
315.7613, 31.28607
316.2434, 31.24601
316.7255, 31.30361
317.2076, 31.44477
317.6898, 31.82858
318.1719, 32.17457
318.6540, 32.26022
319.1361, 31.95528
319.6182, 31.78930
320.1003, 32.00819
320.5825, 32.45676
321.0646, 32.92179
321.5467, 33.44821
322.0288, 33.88922
322.5109, 34.17794
322.9930, 34.29663
323.4752, 34.36874
323.9573, 34.33461
324.4394, 34.30336
324.9215, 34.37323
325.4036, 34.64664
325.8857, 34.92895
326.3679, 35.13602
326.8500, 35.27849
327.3321, 35.57447
327.8142, 36.27472
328.2963, 36.97905
328.7784, 37.45039
329.2606, 37.52481
329.7427, 37.56066
330.2248, 37.48818
330.7069, 37.36967
331.1890, 37.45424
331.6711, 37.92601
332.1533, 38.40435
332.6354, 38.73262
333.1175, 38.84930
333.5996, 38.95022
334.0817, 39.02976
334.5638, 39.09576
335.0460, 39.15294
335.5281, 39.15590
336.0102, 39.23479
336.4923, 39.44959
336.9744, 39.82308
337.4565, 40.17350
337.9387, 40.52919
338.4208, 40.82860
338.9029, 40.95116
339.3850, 40.81855
339.8671, 40.81569
340.3492, 41.07274
340.8313, 41.55077
341.3134, 41.94808
341.7956, 42.28435
342.2777, 42.49210
342.7598, 42.47731
343.2419, 42.23217
343.7240, 41.97931
344.2061, 41.72065
344.6883, 41.51021
345.1704, 41.54285
345.6525, 41.83418
346.1346, 42.11179
346.6167, 42.18009
347.0988, 42.07304
347.5810, 41.99433
348.0631, 41.96247
348.5452, 41.94881
349.0273, 41.90382
349.5094, 41.83371
349.9915, 41.78363
350.4737, 41.75996
350.9558, 41.77296
351.4379, 41.90094
351.9200, 42.15653
352.4021, 42.33075
352.8842, 42.07729
353.3664, 41.59098
353.8485, 41.32732
354.3306, 41.58637
354.8127, 42.02862
355.2948, 42.29268
355.7769, 42.39058
356.2591, 42.38641
356.7412, 42.20852
357.2233, 41.99839
357.7054, 41.92798
358.1875, 42.08448
358.6696, 42.30403
359.1518, 42.49941
359.6339, 42.66991
360.1160, 42.81110
360.5981, 42.88864
361.0802, 42.95769
361.5623, 43.05085
362.0445, 43.17042
362.5266, 43.32121
363.0087, 43.54696
363.4908, 43.79134
363.9729, 43.98154
364.4550, 43.92999
364.9372, 43.97655
365.4193, 44.32777
365.9014, 44.99496
366.3835, 45.49321
366.8656, 45.56017
367.3477, 45.51625
367.8299, 45.59676
368.3120, 45.97124
368.7941, 46.30309
369.2762, 46.51764
369.7583, 46.65051
370.2404, 46.86897
370.7226, 47.35460
371.2047, 47.74659
371.6868, 47.86854
372.1689, 47.49664
372.6510, 47.38363
373.1331, 47.67730
373.6153, 48.14695
374.0974, 48.40264
374.5795, 48.33791
375.0616, 48.27077
375.5437, 48.29102
376.0258, 48.39980
376.5080, 48.52625
376.9901, 48.69482
377.4722, 48.83516
377.9543, 48.84005
378.4364, 48.67208
378.9185, 48.64070
379.4007, 48.84816
379.8828, 49.19877
380.3649, 49.38795
380.8470, 49.40011
381.3291, 49.37490
381.8112, 49.41460
382.2934, 49.50544
382.7755, 49.52769
383.2576, 49.45189
383.7397, 49.36549
384.2218, 49.44061
384.7039, 49.64018
385.1861, 49.75665
385.6682, 49.61605
386.1503, 49.34930
386.6324, 49.23092
387.1145, 49.26692
387.5966, 49.28598
388.0788, 49.05729
388.5609, 48.72250
389.0430, 48.54148
389.5251, 48.66982
390.0072, 48.88124
390.4893, 48.98196
390.9715, 48.99051
391.4536, 48.98126
391.9357, 49.04722
392.4178, 49.08248
392.8999, 48.98000
393.3820, 48.67943
393.8642, 48.38214
394.3463, 48.17579
394.8284, 48.03654
395.3105, 47.92974
395.7926, 47.89222
396.2747, 47.84077
396.7569, 47.76019
397.2390, 47.65096
397.7211, 47.46286
398.2032, 47.09380
398.6853, 46.69382
399.1674, 46.37699
399.6496, 46.23027
400.1317, 46.07116
400.6138, 45.88001
401.0959, 45.66520
401.5780, 45.45485
402.0602, 45.23106
402.5423, 45.03024
403.0244, 44.86194
403.5065, 44.71234
403.9886, 44.64834
404.4707, 44.71896
404.9529, 44.82790
405.4350, 44.85523
405.9171, 44.80653
406.3992, 44.64884
406.8813, 44.32819
407.3634, 43.88302
407.8456, 43.57210
408.3277, 43.41699
408.8098, 43.30693
409.2919, 43.13168
409.7740, 42.89947
410.2561, 42.60401
410.7383, 42.80038
411.2204, 42.90810
411.7025, 42.93266
412.1846, 42.58511
412.6667, 42.74850
413.1488, 42.72576
413.6310, 42.70813
414.1131, 42.98144
414.5952, 42.75641
415.0773, 43.05190
415.5594, 43.15820
416.0415, 43.37046
416.5237, 43.39538
417.0058, 43.49554
417.4879, 43.80972
417.9700, 44.02605
418.4521, 44.08099
418.9342, 44.37890
419.4164, 44.27982
419.8985, 44.55404
420.3806, 44.99691
420.8627, 45.12841
421.3448, 45.49643
421.8269, 45.79273
422.3091, 45.73108
422.7912, 45.84907
423.2733, 45.89614
423.7554, 45.93853
424.2375, 45.98673
424.7196, 46.04099
425.2018, 46.12795
425.6839, 46.22015
426.1660, 46.36758
426.6481, 46.60247
427.1302, 46.93677
427.6123, 47.34075
428.0945, 47.89260
428.5766, 48.49346
429.0587, 48.88420
429.5408, 48.91239
430.0229, 49.05681
430.5050, 49.54767
430.9872, 50.39938
431.4693, 51.04431
431.9514, 51.45064
432.4335, 51.74020
432.9156, 51.99018
433.3977, 52.19638
433.8799, 52.53897
434.3620, 53.08291
434.8441, 53.75027
435.3262, 54.40071
435.8083, 55.03127
436.2904, 55.58844
436.7726, 55.94938
437.2547, 56.22198
437.7368, 56.66631
438.2189, 57.31243
438.7010, 58.06195
439.1831, 58.90588
439.6652, 59.78474
440.1473, 60.58028
440.6295, 61.13504
441.1116, 61.68664
441.5937, 62.42068
442.0758, 63.32578
442.5579, 64.31676
443.0400, 65.53238
443.5222, 66.71268
444.0043, 67.62625
444.4864, 68.08020
444.9685, 68.64169
445.4506, 69.52436
445.9327, 70.61034
446.4149, 71.73513
446.8970, 72.77354
447.3791, 73.92703
447.8612, 75.33509
448.3433, 77.00661
448.8254, 78.47983
449.3076, 79.60632
449.7897, 80.65658
450.2718, 81.76737
450.7539, 82.85713
451.2360, 84.20652
451.7181, 85.98519
452.2003, 87.92882
452.6824, 89.40629
453.1645, 90.26991
453.6466, 91.28976
454.1287, 92.78586
454.6108, 94.71364
455.0930, 96.49757
455.5751, 98.15160
456.0572, 99.69233
456.5393, 101.1285
457.0214, 102.4626
457.5035, 103.6080
457.9857, 104.5082
458.4678, 105.3349
458.9499, 106.3722
459.4320, 107.5609
459.9141, 108.7084
460.3962, 109.7331
460.8784, 110.6431
461.3605, 111.3865
461.8426, 111.9729
462.3247, 112.5641
462.8068, 113.4901
463.2889, 114.3925
463.7711, 114.8593
464.2532, 114.4728
464.7353, 114.0618
465.2174, 114.0896
465.6995, 114.3382
466.1816, 114.2897
466.6638, 113.5416
467.1459, 112.7170
467.6280, 112.0667
468.1101, 111.6795
468.5922, 111.1083
469.0743, 110.3176
469.5565, 109.3602
470.0386, 108.2905
470.5207, 107.1685
471.0028, 105.8259
471.4849, 104.1873
471.9670, 102.3508
472.4492, 100.5519
472.9313, 98.80615
473.4134, 97.07922
473.8955, 95.31160
474.3776, 93.50813
474.8597, 91.98710
475.3419, 90.78648
475.8240, 89.62138
476.3061, 88.19762
476.7882, 86.55174
477.2703, 84.84367
477.7524, 83.08211
478.2346, 81.31730
478.7167, 79.54932
479.1988, 77.80162
479.6809, 76.16174
480.1630, 74.76321
480.6451, 73.44809
481.1273, 72.04176
481.6094, 70.52255
482.0915, 69.04534
482.5736, 67.76340
483.0557, 66.52507
483.5378, 65.16129
484.0200, 63.43708
484.5021, 61.81737
484.9842, 60.37702
485.4663, 59.12679
485.9484, 58.11666
486.4305, 57.64538
486.9127, 57.13472
487.3948, 56.38678
487.8769, 55.37040
488.3590, 54.38345
488.8411, 53.42414
489.3232, 52.49378
489.8054, 51.60167
490.2875, 50.75441
490.7696, 49.93193
491.2517, 49.13289
491.7338, 48.36663
492.2159, 47.71364
492.6981, 47.18513
493.1802, 46.57647
493.6623, 45.68390
494.1444, 44.62648
494.6265, 43.97805
495.1086, 43.73652
495.5908, 43.59186
496.0729, 43.30711
496.5550, 42.91425
497.0371, 42.47920
497.5192, 42.00948
498.0013, 41.51312
498.4835, 41.01085
498.9656, 40.48420
499.4477, 39.90865
499.9298, 39.08285
500.4119, 38.35743
500.8940, 37.98420
501.3762, 37.95262
501.8583, 37.91673
502.3404, 37.86475
502.8225, 37.71181
503.3046, 37.38976
503.7867, 36.64775
504.2689, 36.13895
504.7510, 36.03788
505.2331, 36.10991
505.7152, 35.99854
506.1973, 35.62172
506.6794, 35.22669
507.1616, 34.85021
507.6437, 34.49724
508.1258, 34.23769
508.6079, 34.08576
509.0900, 33.97040
509.5721, 33.85952
510.0543, 33.75028
510.5364, 33.60538
511.0185, 33.41625
511.5006, 33.22035
511.9827, 33.06783
512.4648, 32.94710
512.9470, 32.82227
513.4291, 32.68331
513.9112, 32.53255
514.3933, 32.36542
514.8754, 32.18548
515.3575, 32.00584
515.8397, 31.80387
516.3218, 31.62510
516.8039, 31.51473
517.2860, 31.48733
517.7681, 31.45187
518.2502, 31.35235
518.7324, 31.24269
519.2145, 31.17110
519.6966, 31.27382
520.1787, 31.25309
520.6608, 30.97200
521.1429, 30.56376
521.6251, 30.38165
522.1072, 30.61618
522.5893, 30.71782
523.0714, 30.43082
523.5535, 29.76249
524.0356, 29.41586
524.5178, 29.43846
524.9999, 29.61084
525.4820, 29.83487
525.9641, 30.08457
526.4462, 30.07807
526.9283, 29.71247
527.4105, 29.29523
527.8926, 29.30150
528.3747, 29.61504
528.8568, 29.85101
529.3389, 29.81006
529.8210, 29.64013
530.3032, 29.43559
530.7853, 29.21478
531.2674, 29.07586
531.7495, 29.15220
532.2316, 29.27752
532.7137, 29.33083
533.1959, 29.28211
533.6780, 29.21778
534.1601, 29.14283
534.6422, 29.07079
535.1243, 29.01473
535.6064, 28.80480
536.0886, 28.99644
536.5707, 29.09578
537.0528, 29.10779
537.5349, 28.77086
538.0170, 28.88450
538.4991, 28.81758
538.9813, 28.74324
539.4634, 28.92030
539.9455, 28.63413
540.4276, 28.80720
540.9097, 28.79695
541.3918, 28.87060
541.8740, 28.76256
542.3561, 28.71065
542.8382, 28.84048
543.3203, 28.86967
543.8024, 28.74072
544.2845, 28.81971
544.7667, 28.52718
545.2488, 28.56067
545.7309, 28.73480
546.2130, 28.61499
546.6951, 28.69730
547.1772, 28.70263
547.6594, 28.44028
548.1415, 28.39254
548.6236, 28.51827
549.1057, 28.94750
549.5878, 29.10734
550.0699, 28.66802
550.5521, 28.13139
551.0342, 27.92841
551.5163, 28.22513
551.9984, 28.50825
552.4805, 28.77219
552.9626, 28.96657
553.4448, 28.92129
553.9269, 28.59617
554.4090, 28.34012
554.8911, 28.32487
555.3732, 28.47665
555.8553, 28.52569
556.3375, 28.47294
556.8196, 28.40784
557.3017, 28.38110
557.7838, 28.39298
558.2659, 28.46696
558.7480, 28.62206
559.2302, 28.73869
559.7123, 28.65961
560.1944, 28.50947
560.6765, 28.45006
561.1586, 28.67996
561.6407, 28.84849
562.1229, 28.83079
562.6050, 28.66488
563.0871, 28.46269
563.5692, 28.07476
564.0513, 27.82505
564.5334, 27.84567
565.0156, 28.14913
565.4977, 28.38288
565.9798, 28.56751
566.4619, 28.64193
566.9440, 28.48416
567.4261, 28.06364
567.9083, 27.91354
568.3904, 28.11443
568.8725, 28.45668
569.3546, 28.72730
569.8367, 28.91339
570.3188, 28.95297
570.8010, 28.75659
571.2831, 28.49465
571.7652, 28.35269
572.2473, 28.32113
572.7294, 28.37340
573.2115, 28.58592
573.6937, 28.80610
574.1758, 28.91818
574.6579, 28.91208
575.1400, 28.92016
575.6221, 29.00824
576.1042, 29.10743
576.5864, 29.17286
577.0685, 29.19927
577.5506, 29.19294
578.0327, 29.12156
578.5148, 29.04087
578.9969, 29.02205
579.4791, 29.06905
579.9612, 29.17071
580.4433, 29.34598
580.9254, 29.55404
581.4075, 29.68255
581.8896, 29.73113
582.3718, 29.76559
582.8539, 29.80938
583.3360, 29.86583
583.8181, 29.96188
584.3002, 30.09322
584.7823, 30.18709
585.2645, 30.15829
585.7466, 30.08141
586.2286, 30.04540
586.7108, 30.09399
587.1929, 30.09112
587.6750, 29.82382
588.1571, 29.53581
588.6392, 29.50492
589.1213, 30.11262
