##NAMES=Zemannite
##RRUFFID=R050273
##IDEAL CHEMISTRY=Mg_0.5_Zn^2+^Fe^3+^(Te^4+^O_3_)_3_&#183;<i>n</i>H_2_O (3&#8804;<i>n</i>&#8804;4.5)
##LOCALITY=Mina Bambollita, Moctezuma, Sonora, Mexico
##OWNER=RRUFF
##SOURCE=Marcus Origlieri
##DESCRIPTION=Dark reddish-brown hexagonal prisms
##STATUS=The identification of this mineral has been confirmed by single-crystal X-ray diffraction.
##URL=rruff.info/R050273
92.67285, 171.1482
93.15497, 171.1352
93.63708, 171.6666
94.11920, 175.2425
94.60132, 179.4231
95.08344, 184.3175
95.56555, 186.5430
96.04767, 186.1995
96.52979, 184.6867
97.01190, 182.6548
97.49402, 181.3212
97.97614, 181.1103
98.45825, 180.8695
98.94037, 180.4202
99.42249, 179.6256
99.90460, 178.7214
100.3867, 178.6802
100.8688, 178.6966
101.3510, 177.4056
101.8331, 175.0740
102.3152, 171.1698
102.7973, 164.8255
103.2794, 155.9261
103.7615, 146.7727
104.2437, 137.8009
104.7258, 129.2191
105.2079, 121.3191
105.6900, 114.0692
106.1721, 107.5639
106.6542, 102.1137
107.1364, 97.86983
107.6185, 94.49092
108.1006, 91.91180
108.5827, 89.93708
109.0648, 88.34870
109.5469, 87.00832
110.0291, 85.91125
110.5112, 85.09002
110.9933, 84.53700
111.4754, 84.24309
111.9575, 84.30599
112.4396, 84.65820
112.9218, 85.13010
113.4039, 85.56718
113.8860, 85.95995
114.3681, 86.36226
114.8502, 86.73045
115.3323, 87.13279
115.8144, 87.57036
116.2966, 88.04404
116.7787, 88.67171
117.2608, 89.76221
117.7429, 91.35226
118.2250, 92.64565
118.7071, 93.26379
119.1893, 93.45937
119.6714, 93.76741
120.1535, 94.29993
120.6356, 95.02154
121.1177, 95.86624
121.5998, 96.82975
122.0820, 97.86392
122.5641, 98.96788
123.0462, 100.1484
123.5283, 101.2578
124.0104, 102.2523
124.4925, 103.1586
124.9747, 103.9388
125.4568, 104.5872
125.9389, 105.2147
126.4210, 106.0312
126.9031, 107.2154
127.3852, 108.2054
127.8674, 108.9231
128.3495, 109.4655
128.8316, 109.9219
129.3137, 110.3302
129.7958, 110.6761
130.2780, 110.8996
130.7601, 110.9971
131.2422, 110.9609
131.7243, 110.7319
132.2064, 110.3737
132.6885, 109.9965
133.1707, 109.6833
133.6528, 109.4055
134.1349, 108.8915
134.6170, 108.1583
135.0991, 107.2402
135.5812, 106.0979
136.0633, 104.7598
136.5455, 103.3627
137.0276, 102.0720
137.5097, 100.8064
137.9918, 99.21616
138.4739, 97.06310
138.9560, 94.69125
139.4382, 92.47966
139.9203, 90.48148
140.4024, 88.50962
140.8845, 86.37387
141.3666, 84.16897
141.8487, 82.03431
142.3309, 80.08817
142.8130, 78.28159
143.2951, 76.41541
143.7772, 74.39540
144.2593, 72.47276
144.7414, 70.73427
145.2236, 69.16558
145.7057, 67.70648
146.1878, 66.29698
146.6699, 64.93211
147.1520, 63.74152
147.6341, 62.85465
148.1163, 62.04465
148.5984, 61.26817
149.0805, 60.50669
149.5626, 59.73400
150.0447, 58.91728
150.5268, 58.01828
151.0090, 57.18223
151.4911, 56.35101
151.9732, 55.60972
152.4553, 55.05644
152.9374, 54.69277
153.4195, 54.38761
153.9017, 53.94280
154.3838, 53.17847
154.8659, 52.65017
155.3480, 52.53625
155.8301, 52.57967
156.3122, 52.52566
156.7944, 52.29534
157.2765, 51.94391
157.7586, 51.52727
158.2407, 50.99364
158.7228, 50.57885
159.2049, 50.34674
159.6871, 50.28174
160.1692, 50.38357
160.6513, 50.73053
161.1334, 51.13635
161.6155, 51.32307
162.0976, 51.27065
162.5798, 51.14515
163.0619, 51.05909
163.5440, 51.00606
164.0261, 50.88087
164.5082, 50.50202
164.9903, 50.14732
165.4725, 50.10854
165.9546, 50.45432
166.4367, 50.87054
166.9188, 50.94442
167.4009, 50.56130
167.8830, 50.31083
168.3652, 50.42213
168.8473, 50.66173
169.3294, 50.89099
169.8115, 51.06624
170.2936, 51.19816
170.7757, 51.30793
171.2579, 51.39921
171.7400, 51.45626
172.2221, 51.41494
172.7042, 51.37248
173.1863, 51.43507
173.6684, 51.64955
174.1506, 51.95872
174.6327, 52.18688
175.1148, 52.21476
175.5969, 52.29251
176.0790, 52.52533
176.5611, 52.79601
177.0433, 52.92558
177.5254, 52.80824
178.0075, 52.52222
178.4896, 52.45822
178.9717, 52.74352
179.4538, 53.07585
179.9360, 53.46546
180.4181, 53.85460
180.9002, 54.11013
181.3823, 54.12737
181.8644, 53.96846
182.3465, 53.94509
182.8287, 54.16244
183.3108, 54.39010
183.7929, 54.48501
184.2750, 54.47779
184.7571, 54.52266
185.2392, 54.68555
185.7214, 54.99105
186.2035, 55.44193
186.6856, 56.16085
187.1677, 56.90598
187.6498, 57.45354
188.1319, 57.79718
188.6141, 58.11485
189.0962, 58.50175
189.5783, 58.92414
190.0604, 59.32990
190.5425, 59.66496
191.0246, 60.02695
191.5068, 60.62309
191.9889, 61.57103
192.4710, 62.35335
192.9531, 62.55516
193.4352, 62.53529
193.9173, 62.67753
194.3995, 63.16222
194.8816, 63.84904
195.3637, 64.39775
195.8458, 64.65110
196.3279, 65.06490
196.8100, 65.80877
197.2922, 66.74136
197.7743, 67.73109
198.2564, 68.73582
198.7385, 69.70422
199.2206, 70.42013
199.7027, 70.56211
200.1849, 70.86172
200.6670, 71.51176
201.1491, 72.37576
201.6312, 73.31422
202.1133, 74.25880
202.5954, 75.16917
203.0776, 75.79734
203.5597, 75.61456
204.0418, 75.69439
204.5239, 76.38033
205.0060, 77.42171
205.4881, 78.40327
205.9703, 79.06620
206.4524, 79.45477
206.9345, 79.92104
207.4166, 80.46506
207.8987, 81.07572
208.3808, 81.84335
208.8630, 82.67711
209.3451, 83.40050
209.8272, 83.90854
210.3093, 84.20650
210.7914, 84.35406
211.2735, 84.06905
211.7557, 83.94675
212.2378, 84.39295
212.7199, 85.23803
213.2020, 85.93087
213.6841, 86.11319
214.1662, 85.88358
214.6484, 85.78487
215.1305, 86.00829
215.6126, 86.16760
216.0947, 85.94006
216.5768, 85.39399
217.0589, 84.98418
217.5410, 85.02506
218.0232, 85.36185
218.5053, 85.55239
218.9874, 85.64758
219.4695, 85.52844
219.9516, 84.95027
220.4337, 83.92546
220.9159, 83.07444
221.3980, 82.85738
221.8801, 82.92216
222.3622, 82.75488
222.8443, 82.22068
223.3264, 81.57005
223.8086, 81.02561
224.2907, 80.58400
224.7728, 80.27171
225.2549, 80.29398
225.7370, 80.36331
226.2191, 80.20015
226.7013, 79.71404
227.1834, 79.08804
227.6655, 78.50599
228.1476, 77.93784
228.6297, 77.54626
229.1118, 77.47375
229.5940, 77.54774
230.0761, 77.70721
230.5582, 77.94359
231.0403, 78.12962
231.5224, 78.02878
232.0045, 77.51086
232.4867, 77.09439
232.9688, 76.91101
233.4509, 76.82987
233.9330, 76.75728
234.4151, 76.66772
234.8972, 76.60725
235.3794, 76.67685
235.8615, 76.99480
236.3436, 77.16537
236.8257, 77.14855
237.3078, 77.00363
237.7899, 76.73250
238.2721, 76.34842
238.7542, 75.92411
239.2363, 75.58748
239.7184, 75.41502
240.2005, 75.17587
240.6826, 74.81468
241.1648, 74.43039
241.6469, 74.04152
242.1290, 73.67628
242.6111, 73.42863
243.0932, 73.47639
243.5753, 74.11670
244.0575, 74.43745
244.5396, 74.29544
245.0217, 73.97685
245.5038, 73.66090
245.9859, 73.39090
246.4680, 73.13316
246.9502, 72.84794
247.4323, 72.57016
247.9144, 72.15058
248.3965, 71.38799
248.8786, 70.63306
249.3607, 70.20242
249.8429, 70.11715
250.3250, 70.10123
250.8071, 69.83703
251.2892, 69.26444
251.7713, 68.59050
252.2534, 67.73439
252.7356, 66.84428
253.2177, 66.01420
253.6998, 65.26252
254.1819, 64.57590
254.6640, 63.97239
255.1461, 63.48281
255.6283, 62.79744
256.1104, 61.75590
256.5925, 60.64412
257.0746, 59.65022
257.5567, 58.79039
258.0388, 58.01436
258.5210, 57.31122
259.0031, 56.67665
259.4852, 55.92481
259.9673, 54.90376
260.4494, 53.87558
260.9315, 53.03434
261.4137, 52.38105
261.8958, 51.81337
262.3779, 51.27974
262.8600, 50.77201
263.3421, 50.24886
263.8242, 49.73550
264.3064, 49.18743
264.7885, 48.52837
265.2706, 47.77365
265.7527, 47.08525
266.2348, 46.56381
266.7169, 46.19611
267.1991, 45.89484
267.6812, 45.72096
268.1633, 45.53986
268.6454, 45.25565
269.1275, 44.87413
269.6096, 44.43864
270.0918, 43.91121
270.5739, 43.38341
271.0560, 43.01446
271.5381, 42.86304
272.0202, 42.74153
272.5023, 42.51384
272.9845, 42.19206
273.4666, 41.85807
273.9487, 41.46737
274.4308, 41.15303
274.9129, 41.11745
275.3951, 41.42012
275.8772, 41.65473
276.3593, 41.55641
276.8414, 41.15121
277.3235, 40.56170
277.8056, 39.62555
278.2878, 38.74699
278.7699, 38.32619
279.2520, 38.34727
279.7341, 38.48006
280.2162, 38.59092
280.6983, 38.66105
281.1805, 38.58133
281.6626, 38.27490
282.1447, 37.89502
282.6268, 37.55886
283.1089, 37.25864
283.5910, 36.96200
284.0732, 36.63186
284.5553, 36.28789
285.0374, 36.00474
285.5195, 35.80821
286.0016, 35.63883
286.4837, 35.45456
286.9659, 35.26699
287.4480, 35.10365
287.9301, 35.00442
288.4122, 34.93263
288.8943, 34.76677
289.3764, 34.43215
289.8586, 34.16816
290.3407, 34.15565
290.8228, 34.25673
291.3049, 34.28166
291.7870, 34.13515
292.2691, 33.89730
292.7513, 33.71202
293.2334, 33.58921
293.7155, 33.49654
294.1976, 33.42654
294.6797, 33.37740
295.1618, 33.36827
295.6440, 33.41810
296.1261, 33.44759
296.6082, 33.30531
297.0903, 32.92934
297.5724, 32.64190
298.0545, 32.60408
298.5367, 32.63557
299.0188, 32.62371
299.5009, 32.54616
299.9830, 32.44450
300.4651, 32.34637
300.9472, 32.24310
301.4294, 32.20863
301.9115, 32.32687
302.3936, 32.46241
302.8757, 32.52666
303.3578, 32.52711
303.8399, 32.54811
304.3221, 32.70904
304.8042, 33.01394
305.2863, 33.17285
305.7684, 33.03948
306.2505, 32.89912
306.7326, 32.86223
307.2148, 32.92365
307.6969, 33.05213
308.1790, 33.24049
308.6611, 33.48012
309.1432, 33.72427
309.6253, 33.99814
310.1075, 34.23597
310.5896, 34.45044
311.0717, 34.61112
311.5538, 34.64732
312.0359, 34.47746
312.5180, 34.22279
313.0002, 34.23272
313.4823, 34.65117
313.9644, 35.04422
314.4465, 35.28659
314.9286, 35.45187
315.4107, 35.60400
315.8929, 35.76412
316.3750, 35.93180
316.8571, 36.10363
317.3392, 36.27599
317.8213, 36.47003
318.3034, 36.64823
318.7856, 36.87703
319.2677, 37.23840
319.7498, 37.73541
320.2319, 38.24387
320.7140, 38.61712
321.1961, 38.83692
321.6783, 39.06778
322.1604, 39.24850
322.6425, 39.51448
323.1246, 40.02308
323.6067, 40.70582
324.0888, 41.30724
324.5710, 41.56092
325.0531, 41.49684
325.5352, 41.61085
326.0173, 42.06410
326.4994, 42.49858
326.9815, 42.67202
327.4637, 42.73439
327.9458, 42.97510
328.4279, 43.61584
328.9100, 44.49813
329.3921, 45.12288
329.8742, 45.37181
330.3564, 45.59554
330.8385, 45.88709
331.3206, 46.22579
331.8027, 46.61138
332.2848, 47.05444
332.7669, 47.48635
333.2491, 47.78365
333.7312, 47.91131
334.2133, 48.04668
334.6954, 48.23775
335.1775, 48.44700
335.6596, 48.63546
336.1418, 48.80209
336.6239, 49.00467
337.1060, 49.29916
337.5881, 49.68504
338.0702, 50.15331
338.5523, 50.90517
339.0345, 51.52299
339.5165, 51.68352
339.9987, 51.48447
340.4808, 51.29853
340.9629, 51.42829
341.4450, 51.79624
341.9271, 52.00537
342.4092, 52.01651
342.8914, 51.92609
343.3735, 51.71594
343.8556, 51.46087
344.3377, 51.27640
344.8198, 51.20306
345.3019, 51.23428
345.7841, 51.39492
346.2662, 51.73075
346.7483, 52.01374
347.2304, 52.10146
347.7125, 52.11394
348.1946, 52.17206
348.6768, 52.31637
349.1589, 52.40723
349.6410, 52.23019
350.1231, 51.78963
350.6052, 51.50443
351.0873, 51.52074
351.5695, 51.68624
352.0516, 51.92755
352.5337, 52.22607
353.0158, 52.41645
353.4979, 52.33416
353.9800, 52.05371
354.4622, 51.81798
354.9443, 51.62918
355.4264, 51.52671
355.9085, 51.54500
356.3906, 51.66368
356.8727, 51.85704
357.3549, 52.22863
357.8370, 52.60540
358.3191, 52.67710
358.8012, 52.40142
359.2833, 52.18414
359.7654, 52.25106
360.2476, 52.50515
360.7297, 52.81600
361.2118, 53.23040
361.6939, 53.56515
362.1760, 53.58012
362.6581, 53.34819
363.1403, 53.28563
363.6224, 53.56600
364.1045, 54.01446
364.5866, 54.42375
365.0687, 54.79715
365.5508, 55.10499
366.0330, 55.28869
366.5151, 55.40841
366.9972, 55.57264
367.4793, 55.80104
367.9614, 56.05033
368.4435, 56.26929
368.9257, 56.47005
369.4078, 56.73194
369.8899, 57.13442
370.3720, 57.55066
370.8541, 57.87809
371.3362, 58.11971
371.8184, 58.30535
372.3005, 58.42504
372.7826, 58.51820
373.2647, 58.72401
373.7468, 59.21065
374.2289, 59.54605
374.7111, 59.37466
375.1932, 58.95652
375.6753, 58.82447
376.1574, 59.17604
376.6395, 59.76488
377.1216, 60.21745
377.6038, 60.50856
378.0859, 60.75864
378.5680, 60.96177
379.0501, 61.13923
379.5322, 61.33783
380.0143, 61.55029
380.4965, 61.66152
380.9786, 61.51468
381.4607, 61.10033
381.9428, 61.10467
382.4249, 61.83978
382.9070, 62.60698
383.3892, 63.20236
383.8713, 63.60714
384.3534, 63.77028
384.8355, 63.64635
385.3176, 63.35188
385.7997, 63.23116
386.2819, 63.53514
386.7640, 63.70385
387.2461, 63.54700
387.7282, 63.34321
388.2103, 63.39676
388.6924, 63.75535
389.1746, 64.19206
389.6567, 64.43452
390.1388, 64.45875
390.6209, 64.36610
391.1030, 64.01216
391.5851, 63.69820
392.0673, 63.59635
392.5494, 63.64817
393.0315, 63.68500
393.5136, 63.58817
393.9957, 63.38357
394.4778, 63.23214
394.9600, 63.24538
395.4421, 63.15459
395.9242, 62.89660
396.4063, 62.53368
396.8884, 62.09908
397.3705, 61.61056
397.8527, 61.12892
398.3348, 60.77387
398.8169, 60.60779
399.2990, 60.34264
399.7811, 59.79087
400.2632, 59.27783
400.7454, 59.01311
401.2275, 58.94810
401.7096, 58.87153
402.1917, 58.63564
402.6738, 58.25453
403.1559, 57.79140
403.6381, 57.18595
404.1202, 56.60648
404.6023, 56.07499
405.0844, 55.61762
405.5665, 55.29562
406.0486, 55.16241
406.5308, 55.05858
407.0129, 54.73291
407.4950, 54.16230
407.9771, 53.68944
408.4592, 53.45742
408.9413, 53.30095
409.4235, 53.07119
409.9056, 52.76794
410.3877, 52.48218
410.8698, 52.23287
411.3519, 52.04062
411.8340, 51.96912
412.3162, 52.04381
412.7983, 52.16831
413.2804, 52.36878
413.7625, 52.56257
414.2446, 52.53096
414.7267, 52.03477
415.2089, 51.51769
415.6910, 51.40484
416.1731, 51.62171
416.6552, 51.74336
417.1373, 51.53894
417.6194, 51.24458
418.1016, 51.35478
418.5837, 51.95657
419.0658, 52.44661
419.5479, 52.51792
420.0300, 52.45746
420.5121, 52.67356
420.9943, 53.21690
421.4764, 53.74821
421.9585, 53.94732
422.4406, 53.80229
422.9227, 53.72652
423.4048, 53.64735
423.8870, 53.70312
424.3691, 54.01479
424.8512, 54.50269
425.3333, 55.01888
425.8154, 55.49818
426.2975, 55.93617
426.7797, 56.32825
427.2618, 56.64251
427.7439, 56.95049
428.2260, 57.16371
428.7081, 57.43238
429.1902, 57.91996
429.6724, 58.60857
430.1545, 59.32063
430.6366, 59.88668
431.1187, 60.30124
431.6008, 60.73357
432.0829, 61.07165
432.5651, 61.56039
433.0472, 62.38282
433.5293, 63.34925
434.0114, 64.18652
434.4935, 64.76874
434.9756, 65.26101
435.4578, 65.98396
435.9399, 67.01423
436.4220, 68.01870
436.9041, 68.84791
437.3862, 69.73230
437.8683, 70.85062
438.3505, 72.16807
438.8326, 73.47501
439.3147, 74.62569
439.7968, 75.63810
440.2789, 76.55515
440.7610, 77.25735
441.2432, 78.14040
441.7253, 79.50435
442.2074, 81.11744
442.6895, 82.73737
443.1716, 84.32136
443.6537, 85.85471
444.1359, 87.27914
444.6180, 88.62012
445.1001, 90.10588
445.5822, 91.86304
446.0643, 93.66552
446.5464, 95.19741
447.0286, 96.49012
447.5107, 97.88644
447.9928, 99.55471
448.4749, 101.3259
448.9570, 103.0624
449.4391, 104.7552
449.9213, 106.3174
450.4034, 107.6241
450.8855, 108.8064
451.3676, 110.3712
451.8497, 112.7186
452.3318, 114.7750
452.8140, 116.0757
453.2961, 117.0220
453.7782, 118.1068
454.2603, 119.4526
454.7424, 120.8861
455.2245, 122.2357
455.7067, 123.5179
456.1888, 124.5926
456.6709, 125.3902
457.1530, 126.0914
457.6351, 126.7458
458.1172, 127.3627
458.5994, 127.9525
459.0815, 128.5215
459.5636, 129.0606
460.0457, 129.5726
460.5278, 130.1817
461.0099, 130.4903
461.4921, 130.3580
461.9742, 130.0525
462.4563, 129.7562
462.9384, 129.4672
463.4205, 129.0573
463.9026, 128.4020
464.3848, 127.5287
464.8669, 126.6816
465.3490, 126.0200
465.8311, 125.0669
466.3132, 123.5310
466.7953, 121.6694
467.2775, 119.7138
467.7596, 117.7042
468.2417, 115.7540
468.7238, 114.0534
469.2059, 112.5475
469.6880, 110.9446
470.1702, 109.2182
470.6523, 107.3299
471.1344, 105.1385
471.6165, 102.7223
472.0986, 100.4551
472.5807, 98.56263
473.0629, 96.74976
473.5450, 94.69421
474.0271, 92.44529
474.5092, 90.28920
474.9913, 88.38992
475.4734, 86.63665
475.9556, 84.79558
476.4377, 82.86611
476.9198, 80.86264
477.4019, 78.70949
477.8840, 76.53520
478.3661, 74.45133
478.8483, 72.47029
479.3304, 70.59978
479.8125, 68.82568
480.2946, 67.15641
480.7767, 65.56264
481.2589, 64.10922
481.7410, 62.66258
482.2231, 61.15508
482.7052, 59.66445
483.1873, 58.27302
483.6694, 56.99917
484.1516, 55.82043
484.6337, 54.72616
485.1158, 53.73267
485.5979, 52.69866
486.0800, 51.57753
486.5621, 50.46523
487.0443, 49.42603
487.5264, 48.41665
488.0085, 47.34083
488.4906, 46.11866
488.9727, 44.91151
489.4548, 43.98563
489.9370, 43.35811
490.4191, 42.83209
490.9012, 42.47196
491.3833, 42.07821
491.8654, 41.40576
492.3475, 40.48353
492.8297, 39.63765
493.3118, 39.03585
493.7939, 38.57419
494.2760, 38.16093
494.7581, 37.78347
495.2402, 37.33083
495.7224, 36.70597
496.2045, 35.98368
496.6866, 35.39793
497.1687, 35.03750
497.6508, 34.61250
498.1329, 33.93407
498.6151, 33.22153
499.0972, 32.75074
499.5793, 32.54220
500.0614, 32.38001
500.5435, 32.06756
501.0256, 31.60544
501.5078, 31.18452
501.9899, 30.81128
502.4720, 30.47330
502.9541, 30.15765
503.4362, 29.88196
503.9183, 29.72323
504.4004, 29.68479
504.8825, 29.60135
505.3647, 29.19736
505.8468, 28.40442
506.3289, 27.81358
506.8110, 27.49207
507.2931, 27.31527
507.7752, 27.36108
508.2574, 27.47807
508.7395, 27.38390
509.2216, 26.90973
509.7037, 26.33388
510.1858, 26.00400
510.6679, 25.90955
511.1501, 25.85926
511.6322, 25.84379
512.1143, 25.80308
512.5964, 25.64243
513.0786, 25.38148
513.5607, 25.16777
514.0428, 25.07900
514.5249, 25.02401
515.0070, 24.89471
515.4891, 24.71707
515.9713, 24.64208
516.4534, 24.76787
516.9355, 24.96250
517.4176, 24.92997
517.8997, 24.52144
518.3818, 24.18033
518.8640, 23.91908
519.3461, 23.72427
519.8282, 23.63648
520.3103, 23.61390
520.7924, 23.52509
521.2745, 23.26721
521.7567, 22.89961
522.2388, 22.68704
522.7209, 22.72576
523.2030, 22.74500
523.6851, 22.68114
524.1672, 22.60653
524.6494, 22.58391
525.1315, 22.61156
525.6136, 22.63144
526.0957, 22.59869
526.5778, 22.52218
527.0599, 22.42532
527.5421, 22.29837
528.0242, 22.18766
528.5063, 22.12344
528.9884, 22.08365
529.4705, 22.04757
529.9526, 22.02276
530.4348, 21.96009
530.9169, 21.76406
531.3990, 21.53698
531.8811, 21.48100
532.3632, 21.62121
532.8453, 21.77160
533.3275, 21.78692
533.8096, 21.68661
534.2917, 21.62518
534.7738, 21.62642
535.2559, 21.62883
535.7380, 21.63385
536.2202, 21.62531
536.7023, 21.57849
537.1844, 21.49275
537.6665, 21.39398
538.1486, 21.30720
538.6307, 21.23245
539.1129, 21.18193
539.5950, 21.20744
540.0771, 21.18820
540.5592, 21.01540
541.0413, 20.82486
541.5234, 20.79945
542.0056, 20.98219
542.4877, 21.18163
542.9698, 21.17830
543.4519, 21.00294
543.9340, 20.88333
544.4161, 20.84776
544.8983, 20.83962
545.3804, 20.84175
545.8625, 20.84227
546.3446, 20.81208
546.8267, 20.72042
547.3088, 20.64779
547.7910, 20.66134
548.2731, 20.72268
548.7552, 20.76315
549.2373, 20.76768
549.7194, 20.73356
550.2015, 20.64329
550.6837, 20.49387
551.1658, 20.43107
551.6479, 20.54306
552.1300, 20.62233
552.6121, 20.57534
553.0942, 20.47995
553.5764, 20.43427
554.0585, 20.46524
554.5406, 20.53486
555.0227, 20.60121
555.5048, 20.66424
555.9869, 20.73421
556.4691, 20.88394
556.9512, 20.93185
557.4333, 20.68111
557.9154, 20.35773
558.3975, 20.28567
558.8796, 20.57724
559.3618, 20.92292
559.8439, 21.04732
560.3260, 20.99283
560.8081, 20.90622
561.2902, 20.80045
561.7723, 20.68779
562.2545, 20.55947
562.7366, 20.43195
563.2187, 20.36725
563.7008, 20.37776
564.1829, 20.43678
564.6650, 20.58049
565.1472, 20.74750
565.6293, 20.85405
566.1114, 20.88282
566.5935, 20.86957
567.0756, 20.84915
567.5577, 20.82141
568.0399, 20.76247
568.5220, 20.57175
569.0041, 20.47475
569.4862, 20.58926
569.9683, 20.76799
570.4504, 20.85002
570.9326, 20.80975
571.4147, 20.75629
571.8968, 20.81376
572.3789, 20.95872
572.8610, 21.03232
573.3431, 21.01139
573.8253, 20.98377
574.3074, 20.96612
574.7895, 20.98089
575.2716, 21.07756
575.7537, 21.28691
576.2358, 21.46053
576.7180, 21.46275
577.2001, 21.41526
577.6822, 21.54998
578.1643, 21.86458
578.6464, 22.05633
579.1285, 21.87908
579.6107, 21.44977
580.0928, 21.27715
580.5749, 21.59785
581.0570, 21.86767
581.5391, 22.05555
582.0212, 22.19590
582.5034, 22.29525
582.9855, 22.36983
583.4676, 22.46060
583.9497, 22.60830
584.4318, 22.78030
584.9139, 22.84939
585.3961, 22.76985
585.8782, 22.74610
586.3602, 22.86564
586.8423, 23.03169
587.3245, 23.17430
587.8066, 23.29190
588.2887, 23.40119
588.7708, 23.45307
589.2529, 23.53767
