##NAMES=Zhanghuifenite
##RRUFFID=R160030
##IDEAL CHEMISTRY=Na_3_Mn^2+^_4_Mg_2_Al(PO_4_)_6_
##LOCALITY=Santa Ana pegmatite, Totoral pegmatitic field, Coronel Pringles Department, San Luis, Argentina
##OWNER=RRUFF
##SOURCE=Jaroslav Hyršl
##DESCRIPTION=Dark green massive in veinlets, associated with beusite and lithiophilite. Type sample
##STATUS=The identification of this mineral is confirmed by single-crystal X-ray diffraction and chemical analysis.
##URL=rruff.info/R160030
##MEASURED CHEMISTRY=(Na_2.80_Ca_0.11_)_Σ2.91_(Mn_3.09_Fe^2+^_0.47_Mg_0.36_)_Σ3.92_(Mg_1.31_Fe^2+^_0.69_)_Σ2.00_(Al_0.81_Fe^3+^_0.19_)_Σ1.00_(PO_4_)_6_
91.35754, 747.6052
91.83966, 742.3678
92.32178, 723.6801
92.80389, 704.3553
93.28601, 685.2529
93.76813, 666.6682
94.25024, 649.1979
94.73236, 633.9719
95.21448, 621.9657
95.69659, 609.0061
96.17871, 596.6536
96.66083, 585.3041
97.14294, 574.7676
97.62506, 564.6418
98.10718, 554.8439
98.58929, 546.9448
99.07141, 542.1747
99.55353, 537.3732
100.0356, 531.0540
100.5178, 523.3975
100.9999, 515.7202
101.4820, 509.1007
101.9641, 503.6900
102.4462, 498.6048
102.9283, 493.5404
103.4105, 488.7689
103.8926, 484.4893
104.3747, 480.7025
104.8568, 477.5564
105.3389, 475.7542
105.8210, 475.0114
106.3032, 473.7076
106.7853, 471.2653
107.2674, 467.7074
107.7495, 462.9521
108.2316, 455.7564
108.7137, 448.5180
109.1959, 442.7512
109.6780, 438.5366
110.1601, 435.3817
110.6422, 433.0888
111.1243, 432.0941
111.6064, 430.3458
112.0886, 426.8041
112.5707, 422.9693
113.0528, 419.9063
113.5349, 417.9336
114.0170, 416.5651
114.4991, 414.6991
114.9813, 411.9187
115.4634, 409.1188
115.9455, 406.4636
116.4276, 403.8052
116.9097, 400.9362
117.3918, 397.7224
117.8740, 394.2668
118.3561, 391.1175
118.8382, 388.0032
119.3203, 385.3930
119.8024, 383.7629
120.2845, 382.8648
120.7667, 381.8452
121.2488, 379.9987
121.7309, 377.4875
122.2130, 375.5753
122.6951, 375.1053
123.1772, 374.7215
123.6594, 373.0202
124.1415, 369.7547
124.6236, 366.4020
125.1057, 364.0517
125.5878, 362.4040
126.0699, 361.1122
126.5521, 360.1924
127.0342, 359.5389
127.5163, 358.8516
127.9984, 358.2602
128.4805, 357.4174
128.9626, 356.0850
129.4448, 354.3916
129.9269, 352.6582
130.4090, 351.1437
130.8911, 349.8807
131.3732, 348.4998
131.8553, 346.8599
132.3375, 345.2124
132.8196, 343.5423
133.3017, 341.9161
133.7838, 340.5069
134.2659, 339.5638
134.7480, 339.3578
135.2302, 338.9409
135.7123, 338.2473
136.1944, 337.4322
136.6765, 336.4597
137.1586, 335.3615
137.6407, 334.4204
138.1229, 334.1791
138.6050, 335.5682
139.0871, 335.9516
139.5692, 334.5003
140.0513, 332.1528
140.5334, 330.1263
141.0156, 328.8715
141.4977, 328.0582
141.9798, 326.9433
142.4619, 325.4156
142.9440, 323.9677
143.4261, 322.8658
143.9083, 322.0290
144.3904, 321.0941
144.8725, 319.7523
145.3546, 318.3905
145.8367, 317.6489
146.3188, 317.7891
146.8010, 317.9206
147.2831, 317.0774
147.7652, 315.1193
148.2473, 313.3316
148.7294, 312.3987
149.2115, 311.7962
149.6937, 311.1568
150.1758, 310.3671
150.6579, 309.5023
151.1400, 308.7207
151.6221, 308.1649
152.1042, 307.3970
152.5864, 306.0021
153.0685, 304.4944
153.5506, 303.5067
154.0327, 303.4047
154.5148, 303.9086
154.9969, 303.7938
155.4791, 302.4568
155.9612, 301.0948
156.4433, 299.7680
156.9254, 298.5509
157.4075, 297.5666
157.8896, 296.9179
158.3718, 296.5791
158.8539, 296.0123
159.3360, 295.1156
159.8181, 294.1314
160.3002, 293.1176
160.7823, 292.0823
161.2645, 291.0103
161.7466, 289.8872
162.2287, 288.7115
162.7108, 287.5387
163.1929, 286.4334
163.6750, 285.2840
164.1572, 283.9557
164.6393, 282.4620
165.1214, 281.0086
165.6035, 279.8252
166.0856, 278.8654
166.5677, 277.7730
167.0499, 276.3538
167.5320, 274.8510
168.0141, 273.5713
168.4962, 272.5590
168.9783, 271.6507
169.4604, 270.8016
169.9426, 269.9629
170.4247, 268.9959
170.9068, 267.8532
171.3889, 266.5421
171.8710, 265.0314
172.3531, 263.1567
172.8353, 261.3573
173.3174, 259.8792
173.7995, 258.6539
174.2816, 257.5537
174.7637, 256.5460
175.2458, 255.6185
175.7280, 254.5842
176.2101, 253.2910
176.6922, 252.0380
177.1743, 250.8627
177.6564, 249.8135
178.1385, 248.9880
178.6207, 248.6142
179.1028, 248.8361
179.5849, 248.3826
180.0670, 246.4738
180.5491, 244.5749
181.0313, 243.3380
181.5134, 242.7035
181.9955, 242.1817
182.4776, 241.2090
182.9597, 239.5616
183.4418, 238.2935
183.9240, 237.6249
184.4061, 237.0730
184.8882, 236.3863
185.3703, 235.5259
185.8524, 234.5767
186.3345, 233.6219
186.8167, 232.6083
187.2988, 231.7989
187.7809, 231.4395
188.2630, 231.1180
188.7451, 230.3843
189.2272, 229.1624
189.7094, 227.9309
190.1915, 227.3845
190.6736, 227.7243
191.1557, 227.7471
191.6378, 227.1198
192.1199, 226.1907
192.6021, 225.3619
193.0842, 224.7205
193.5663, 224.1862
194.0484, 223.6679
194.5305, 223.1580
195.0126, 222.7347
195.4948, 222.5184
195.9769, 222.3956
196.4590, 222.1199
196.9411, 221.6044
197.4232, 220.9997
197.9053, 220.4712
198.3875, 220.0070
198.8696, 219.5135
199.3517, 218.7978
199.8338, 217.9695
200.3159, 217.5400
200.7980, 217.7902
201.2802, 218.2251
201.7623, 218.5459
202.2444, 218.7394
202.7265, 218.7737
203.2086, 218.5296
203.6907, 218.0201
204.1729, 217.6818
204.6550, 217.8255
205.1371, 217.8937
205.6192, 217.5754
206.1013, 216.9067
206.5834, 216.1218
207.0656, 215.3441
207.5477, 214.5186
208.0298, 214.0793
208.5119, 214.5336
208.9940, 214.9763
209.4761, 214.9988
209.9583, 214.6255
210.4404, 214.1658
210.9225, 213.9596
211.4046, 214.1004
211.8867, 214.0976
212.3689, 213.8646
212.8510, 213.5769
213.3331, 213.3328
213.8152, 213.1257
214.2973, 212.8664
214.7794, 212.4256
215.2616, 211.6657
215.7437, 211.2449
216.2258, 211.4314
216.7079, 211.6668
217.1900, 211.6768
217.6721, 211.4221
218.1543, 210.9785
218.6364, 210.3998
219.1185, 209.5960
219.6006, 209.0487
220.0827, 208.8522
220.5648, 208.8090
221.0470, 208.8776
221.5291, 209.0164
222.0112, 209.0823
222.4933, 208.9355
222.9754, 208.5436
223.4575, 207.9478
223.9397, 206.7520
224.4218, 205.6213
224.9039, 205.2219
225.3860, 205.6039
225.8681, 206.0833
226.3502, 205.9173
226.8324, 205.0572
227.3145, 204.5553
227.7966, 204.8728
228.2787, 205.3435
228.7608, 205.2402
229.2429, 204.4619
229.7251, 203.6489
230.2072, 203.4997
230.6893, 203.8756
231.1714, 203.9233
231.6535, 203.2143
232.1356, 202.2548
232.6178, 201.6616
233.0999, 201.5132
233.5820, 201.4580
234.0641, 201.2128
234.5462, 200.8530
235.0283, 200.5505
235.5105, 200.3601
235.9926, 200.2463
236.4747, 200.1880
236.9568, 200.2134
237.4389, 200.1852
237.9210, 200.0179
238.4032, 199.7392
238.8853, 199.3437
239.3674, 198.6645
239.8495, 197.9780
240.3316, 197.8773
240.8137, 198.6413
241.2959, 199.1539
241.7780, 198.5667
242.2601, 197.5041
242.7422, 196.7262
243.2243, 196.6277
243.7064, 196.8179
244.1886, 196.5170
244.6707, 195.5177
245.1528, 194.5513
245.6349, 193.8670
246.1170, 193.3572
246.5991, 192.9385
247.0813, 192.5965
247.5634, 192.2834
248.0455, 191.8780
248.5276, 191.2925
249.0097, 190.8322
249.4918, 190.8188
249.9740, 190.8331
250.4561, 190.4347
250.9382, 189.4460
251.4203, 188.1856
251.9024, 187.2534
252.3845, 186.7316
252.8667, 186.3824
253.3488, 186.2942
253.8309, 186.2578
254.3130, 186.0816
254.7951, 185.7111
255.2772, 185.2675
255.7594, 184.9505
256.2415, 184.7344
256.7236, 184.7220
257.2057, 185.2971
257.6878, 185.8003
258.1699, 185.6151
258.6520, 184.6469
259.1342, 183.4092
259.6163, 182.7361
260.0984, 182.9627
260.5805, 183.0696
261.0626, 183.0069
261.5447, 182.8760
262.0269, 182.7206
262.5090, 182.5600
262.9911, 182.4185
263.4732, 182.3660
263.9553, 182.5807
264.4374, 182.3583
264.9196, 181.1619
265.4017, 180.0353
265.8838, 179.7820
266.3659, 180.3536
266.8480, 180.9982
267.3301, 180.8592
267.8123, 179.6686
268.2944, 178.8046
268.7765, 178.4077
269.2586, 178.1424
269.7407, 177.8250
270.2228, 177.4632
270.7050, 177.1879
271.1871, 177.1363
271.6692, 177.3459
272.1513, 177.4231
272.6334, 177.2246
273.1155, 177.0586
273.5977, 177.2172
274.0798, 177.5647
274.5619, 177.6591
275.0440, 177.1350
275.5261, 176.0040
276.0082, 175.0757
276.4904, 174.2685
276.9725, 173.6928
277.4546, 173.5748
277.9367, 173.7353
278.4188, 173.7555
278.9009, 173.3578
279.3831, 172.6228
279.8652, 172.0693
280.3473, 171.6800
280.8294, 171.4463
281.3115, 171.4504
281.7936, 171.6047
282.2758, 171.7711
282.7579, 171.8968
283.2400, 171.9571
283.7221, 171.8520
284.2042, 171.4141
284.6863, 171.0798
285.1685, 171.1129
285.6506, 171.2648
286.1327, 171.0832
286.6148, 170.3651
287.0969, 169.4622
287.5790, 169.1123
288.0612, 169.5502
288.5433, 169.8880
289.0254, 170.0890
289.5075, 170.0818
289.9896, 169.6658
290.4717, 168.7679
290.9539, 167.7845
291.4360, 167.2483
291.9181, 167.2232
292.4002, 167.3756
292.8823, 168.0323
293.3644, 168.6630
293.8466, 168.6436
294.3287, 167.8811
294.8108, 166.9052
295.2929, 166.1998
295.7750, 165.7944
296.2571, 165.4805
296.7393, 165.2086
297.2214, 165.0535
297.7035, 165.1904
298.1856, 165.5880
298.6677, 165.8647
299.1498, 165.7030
299.6320, 165.1235
300.1141, 164.6228
300.5962, 164.1790
301.0783, 163.8278
301.5604, 163.7021
302.0425, 163.7321
302.5247, 163.5714
303.0068, 162.9401
303.4889, 162.0271
303.9710, 161.4911
304.4531, 161.4882
304.9352, 161.6083
305.4174, 161.8463
305.8995, 162.0864
306.3816, 161.9422
306.8637, 161.1398
307.3458, 160.0740
307.8279, 159.6438
308.3101, 160.0515
308.7922, 160.3403
309.2743, 160.1691
309.7564, 159.6883
310.2385, 159.0889
310.7206, 158.3690
311.2028, 157.7463
311.6849, 157.6427
312.1670, 158.1153
312.6491, 158.3635
313.1312, 157.9956
313.6133, 157.4272
314.0955, 157.2175
314.5776, 157.4648
315.0597, 157.7659
315.5418, 157.7511
316.0239, 157.4123
316.5060, 156.9377
316.9882, 156.1119
317.4703, 155.3149
317.9524, 154.8650
318.4345, 154.7667
318.9166, 154.8722
319.3987, 155.1822
319.8809, 155.6114
320.3630, 155.7258
320.8451, 155.5148
321.3272, 155.0156
321.8093, 154.0070
322.2914, 152.6599
322.7736, 151.5964
323.2557, 151.1139
323.7378, 151.1096
324.2199, 151.3389
324.7020, 152.0297
325.1841, 152.4777
325.6663, 152.2662
326.1484, 151.6628
326.6305, 151.1619
327.1126, 150.9167
327.5947, 150.8382
328.0768, 150.8228
328.5590, 150.8984
329.0411, 150.8938
329.5232, 150.6646
330.0053, 150.3906
330.4874, 150.3415
330.9695, 150.5665
331.4517, 150.7742
331.9338, 150.6108
332.4159, 150.0264
332.8980, 149.7247
333.3801, 149.9680
333.8622, 150.3167
334.3444, 150.4267
334.8265, 150.3079
335.3086, 150.2045
335.7907, 150.3174
336.2729, 150.5952
336.7550, 150.6442
337.2371, 150.2903
337.7192, 149.9173
338.2013, 149.6098
338.6834, 149.4049
339.1656, 149.4338
339.6477, 149.8076
340.1298, 150.3410
340.6119, 150.4970
341.0940, 150.0849
341.5761, 149.7040
342.0583, 149.3944
342.5404, 149.2015
343.0225, 149.2693
343.5046, 149.6399
343.9867, 150.0296
344.4688, 150.0066
344.9510, 149.3086
345.4331, 148.9646
345.9152, 149.3477
346.3973, 149.8293
346.8794, 149.9084
347.3615, 149.5619
347.8437, 149.0742
348.3258, 148.6667
348.8079, 148.3446
349.2900, 148.1250
349.7721, 148.0977
350.2542, 148.0659
350.7364, 147.8129
351.2185, 147.4872
351.7006, 147.5268
352.1827, 148.2485
352.6648, 149.3614
353.1469, 149.6470
353.6291, 147.9289
354.1112, 146.8514
354.5933, 147.2081
355.0754, 148.1596
355.5575, 148.7361
356.0396, 148.6183
356.5218, 148.1395
357.0039, 147.8579
357.4860, 147.9425
357.9681, 147.8644
358.4502, 147.5280
358.9323, 147.1183
359.4145, 146.6896
359.8966, 146.2893
360.3787, 146.0328
360.8608, 146.0790
361.3429, 146.4839
361.8250, 146.5022
362.3072, 145.6692
362.7893, 144.9617
363.2714, 144.8421
363.7535, 145.0630
364.2356, 145.1165
364.7177, 144.6915
365.1999, 143.9348
365.6820, 143.4527
366.1641, 143.5787
366.6462, 143.5221
367.1283, 143.0306
367.6104, 142.4189
368.0926, 141.9937
368.5747, 141.8434
369.0568, 141.8261
369.5389, 141.7612
370.0210, 141.7061
370.5031, 141.4268
370.9853, 140.7379
371.4674, 139.9919
371.9495, 139.2869
372.4316, 138.6720
372.9137, 138.2439
373.3958, 138.1331
373.8780, 138.3186
374.3601, 138.3414
374.8422, 138.1015
375.3243, 137.8115
375.8064, 137.5043
376.2885, 137.2020
376.7707, 136.9530
377.2528, 136.7976
377.7349, 136.6460
378.2170, 136.2696
378.6991, 135.5582
379.1812, 134.9485
379.6634, 134.6639
380.1455, 134.4456
380.6276, 134.0401
381.1097, 133.4190
381.5918, 132.9019
382.0739, 132.9596
382.5561, 133.5678
383.0382, 133.7423
383.5203, 133.0326
384.0024, 132.2897
384.4845, 132.1444
384.9666, 132.4156
385.4488, 132.5546
385.9309, 132.1295
386.4130, 131.4259
386.8951, 131.1358
387.3772, 131.3795
387.8593, 131.5702
388.3415, 131.3673
388.8236, 130.9324
389.3057, 130.4196
389.7878, 129.7908
390.2699, 129.2431
390.7520, 128.9977
391.2342, 129.0164
391.7163, 129.0309
392.1984, 128.9872
392.6805, 128.8770
393.1626, 128.6685
393.6447, 128.3618
394.1269, 128.0897
394.6090, 127.9755
395.0911, 127.9029
395.5732, 127.6324
396.0553, 127.1178
396.5374, 126.6769
397.0196, 126.6910
397.5017, 127.0450
397.9838, 126.9935
398.4659, 125.9397
398.9480, 124.9853
399.4301, 124.9811
399.9123, 125.6827
400.3944, 126.2325
400.8765, 126.2190
401.3586, 125.8659
401.8407, 125.7087
402.3228, 125.8427
402.8050, 125.9266
403.2871, 125.7757
403.7692, 125.6074
404.2513, 125.7127
404.7334, 126.1308
405.2155, 126.6037
405.6977, 126.8545
406.1798, 126.8498
406.6619, 126.8455
407.1440, 126.7792
407.6261, 126.7739
408.1082, 126.9476
408.5904, 127.2266
409.0725, 127.4450
409.5546, 127.5066
410.0367, 127.4454
410.5188, 127.3792
411.0009, 127.2339
411.4831, 127.1896
411.9652, 127.2176
412.4473, 127.3680
412.9294, 127.7425
413.4115, 128.3325
413.8936, 128.9693
414.3758, 129.4587
414.8579, 129.7913
415.3400, 130.0263
415.8221, 130.0089
416.3042, 130.0431
416.7863, 130.3275
417.2685, 130.7359
417.7506, 131.0030
418.2327, 130.9458
418.7148, 130.6835
419.1969, 130.5864
419.6790, 130.7567
420.1612, 130.8528
420.6433, 130.7885
421.1254, 130.6207
421.6075, 130.3525
422.0896, 129.9909
422.5717, 129.6448
423.0539, 129.4756
423.5360, 129.4641
424.0181, 129.2889
424.5002, 128.8403
424.9823, 128.3352
425.4644, 127.8433
425.9466, 127.4060
426.4287, 127.1440
426.9108, 127.2077
427.3929, 127.3976
427.8750, 127.4476
428.3571, 127.3553
428.8393, 127.1798
429.3214, 126.9056
429.8035, 126.5878
430.2856, 126.3230
430.7677, 126.1167
431.2498, 125.9378
431.7320, 125.7485
432.2141, 125.5795
432.6962, 125.5158
433.1783, 125.5866
433.6604, 125.6546
434.1425, 125.5405
434.6247, 125.2439
435.1068, 125.1439
435.5889, 125.3265
436.0710, 125.6423
436.5531, 126.1486
437.0352, 126.7292
437.5174, 127.0426
437.9995, 126.8898
438.4816, 126.4382
438.9637, 126.1312
439.4458, 126.0234
439.9279, 125.9896
440.4101, 125.9876
440.8922, 126.0817
441.3743, 126.3894
441.8564, 126.8918
442.3385, 127.3977
442.8206, 127.7144
443.3028, 127.8286
443.7849, 127.9784
444.2670, 128.2473
444.7491, 128.4603
445.2312, 128.5336
445.7133, 128.5364
446.1955, 128.5430
446.6776, 128.5838
447.1597, 128.7060
447.6418, 129.0396
448.1239, 129.6933
448.6060, 130.2149
449.0882, 130.5219
449.5703, 130.7070
450.0524, 130.7585
450.5345, 130.7108
451.0166, 130.6770
451.4987, 130.8225
451.9809, 131.0376
452.4630, 130.8153
452.9451, 129.8886
453.4272, 129.2409
453.9093, 129.7050
454.3914, 130.5720
454.8736, 131.0505
455.3557, 130.9215
455.8378, 130.6730
456.3199, 130.6882
456.8020, 130.9134
457.2841, 131.1575
457.7663, 131.4238
458.2484, 131.5970
458.7305, 131.4128
459.2126, 130.9466
459.6947, 130.7936
460.1768, 131.4245
460.6590, 132.1214
461.1411, 132.1617
461.6232, 131.6858
462.1053, 131.4307
462.5874, 131.8160
463.0695, 132.5828
463.5517, 133.0202
464.0338, 132.9093
464.5159, 132.8946
464.9980, 133.1270
465.4801, 133.4334
465.9622, 133.6870
466.4444, 133.8542
466.9265, 133.9179
467.4086, 133.8444
467.8907, 133.6323
468.3728, 133.5136
468.8549, 133.5369
469.3371, 133.6015
469.8192, 133.8212
470.3013, 134.0198
470.7834, 133.9675
471.2655, 133.5865
471.7477, 133.0168
472.2298, 132.4374
472.7119, 131.8296
473.1940, 131.3049
473.6761, 130.8403
474.1582, 130.5063
474.6404, 130.4465
475.1225, 130.5475
475.6046, 130.5290
476.0867, 130.2016
476.5688, 129.7104
477.0509, 129.3675
477.5331, 129.2071
478.0152, 128.9296
478.4973, 128.3164
478.9794, 127.6146
479.4615, 127.1042
479.9436, 126.8054
480.4258, 126.5656
480.9079, 126.3034
481.3900, 126.0520
481.8721, 125.8604
482.3542, 125.7328
482.8363, 125.6931
483.3185, 125.7912
483.8006, 125.9955
484.2827, 126.1143
484.7648, 126.1829
485.2469, 126.1321
485.7290, 125.8284
486.2112, 125.4246
486.6933, 125.1614
487.1754, 125.1059
487.6575, 125.1438
488.1396, 125.1441
488.6217, 125.1237
489.1039, 124.9773
489.5860, 124.5917
490.0681, 124.2210
490.5502, 123.9166
491.0323, 123.7088
491.5144, 123.6658
491.9966, 123.8280
492.4787, 124.0763
492.9608, 124.1612
493.4429, 124.0571
493.9250, 123.8645
494.4071, 123.3946
494.8893, 123.0044
495.3714, 122.9976
495.8535, 123.2710
496.3356, 123.4222
496.8177, 123.1905
497.2998, 122.6723
497.7820, 122.0043
498.2641, 121.1141
498.7462, 120.5003
499.2283, 120.5847
499.7104, 120.9202
500.1925, 120.9149
500.6747, 120.5006
501.1568, 120.0397
501.6389, 119.6663
502.1210, 119.3747
502.6031, 119.1906
503.0852, 119.1170
503.5674, 119.0382
504.0495, 118.8423
504.5316, 118.5626
505.0137, 118.4449
505.4958, 118.6915
505.9779, 118.8357
506.4601, 118.7873
506.9422, 118.5461
507.4243, 118.0400
507.9064, 117.2778
508.3885, 116.4678
508.8706, 115.8356
509.3528, 115.3722
509.8349, 115.1624
510.3170, 115.4774
510.7991, 115.7517
511.2812, 115.9459
511.7633, 115.9634
512.2454, 115.6150
512.7275, 114.8210
513.2097, 113.8893
513.6918, 113.3225
514.1739, 113.1717
514.6560, 112.9115
515.1381, 112.3541
515.6202, 111.8317
516.1024, 111.5940
516.5845, 111.5490
517.0666, 111.4460
517.5487, 111.1749
518.0308, 110.8142
518.5129, 110.4227
518.9951, 110.0081
519.4772, 109.6715
519.9593, 109.4876
520.4414, 109.3256
520.9235, 108.9180
521.4056, 108.2240
521.8878, 107.7809
522.3699, 107.8860
522.8520, 108.1050
523.3341, 108.1989
523.8162, 108.1126
524.2983, 107.7079
524.7805, 106.8672
525.2626, 105.8014
525.7447, 105.0887
526.2268, 104.9569
526.7089, 104.8537
527.1910, 104.8440
527.6732, 104.8067
528.1553, 104.6657
528.6374, 104.4209
529.1195, 104.0945
529.6016, 103.6692
530.0837, 103.2102
530.5659, 102.9881
531.0480, 103.1134
531.5301, 103.1855
532.0122, 103.0733
532.4943, 102.8758
532.9764, 102.6482
533.4586, 102.3985
533.9407, 102.1350
534.4228, 101.7854
534.9049, 101.4486
535.3870, 101.3605
535.8691, 101.5449
536.3513, 101.7730
536.8334, 101.9850
537.3155, 102.1143
537.7976, 101.9779
538.2797, 101.4414
538.7618, 100.9874
539.2440, 100.7345
539.7261, 100.6423
540.2082, 100.7567
540.6903, 101.0315
541.1724, 101.2120
541.6545, 101.0732
542.1367, 100.6697
542.6188, 100.4467
543.1009, 100.4847
543.5830, 100.6160
544.0651, 100.9434
544.5472, 101.2794
545.0294, 101.4495
545.5115, 101.4397
545.9936, 101.3700
546.4757, 101.3274
546.9578, 101.3171
547.4399, 101.3862
547.9221, 101.5753
548.4042, 101.7477
548.8863, 101.8375
549.3684, 101.8847
549.8505, 101.8973
550.3326, 101.8602
550.8148, 101.9203
551.2969, 102.2536
551.7790, 102.7206
552.2611, 103.0545
552.7432, 103.2243
553.2253, 103.3344
553.7075, 103.4429
554.1896, 103.5536
554.6717, 103.6842
555.1538, 103.8517
555.6359, 104.0122
556.1180, 104.1186
556.6002, 104.2369
557.0823, 104.4650
557.5644, 104.7940
558.0465, 105.1022
558.5286, 105.2689
559.0107, 105.3170
559.4929, 105.4572
559.9750, 105.6456
560.4571, 106.0122
560.9392, 106.7413
561.4213, 107.5283
561.9034, 108.1191
562.3856, 108.4750
562.8677, 108.7334
563.3498, 108.9680
563.8319, 109.1907
564.3140, 109.4252
564.7961, 109.6632
565.2783, 109.9723
565.7604, 110.4206
566.2425, 110.9450
566.7246, 111.4167
567.2067, 111.8210
567.6888, 112.2317
568.1710, 112.6964
568.6531, 113.1656
569.1352, 113.6253
569.6173, 114.0500
570.0994, 114.3348
570.5815, 114.4058
571.0637, 114.2844
571.5458, 114.0612
572.0279, 113.7352
572.5100, 113.2941
572.9921, 112.4735
573.4742, 111.7524
573.9564, 111.6204
574.4385, 111.9497
574.9206, 112.1406
575.4027, 111.6964
575.8848, 110.8949
576.3669, 110.5755
576.8491, 110.8565
577.3312, 111.0074
577.8133, 110.7022
578.2954, 110.2798
578.7775, 110.1235
579.2596, 110.2165
579.7418, 110.2025
580.2239, 109.7574
580.7060, 109.2822
581.1881, 109.2748
581.6702, 109.6452
582.1523, 109.9336
