##NAMES=Ziesite
##RRUFFID=R070482
##IDEAL CHEMISTRY=Cu^2+^_2_V^5+^_2_O_7_
##LOCALITY=Izalco Volcano, Sonsonate Department, El Salvador
##OWNER=RRUFF
##SOURCE=Michael Scott
##DESCRIPTION=Dark brown to black poorly-formed grains scattered over white efflorescent material, co-type material, associated with well-formed crystals of fingerite, R070614
##STATUS=The identification of this mineral has been confirmed by single-crystal X-ray diffraction.
##URL=rruff.info/R070482
166.0652, 3466.407
166.5473, 3487.737
167.0294, 3520.463
167.5116, 3550.790
167.9937, 3566.392
168.4758, 3558.290
168.9579, 3542.155
169.4400, 3521.112
169.9221, 3497.567
170.4043, 3484.444
170.8864, 3501.052
171.3685, 3529.030
171.8506, 3546.166
172.3327, 3540.329
172.8148, 3524.817
173.2970, 3510.828
173.7791, 3498.130
174.2612, 3482.298
174.7433, 3450.355
175.2254, 3414.168
175.7076, 3393.589
176.1897, 3401.399
176.6718, 3426.457
177.1539, 3464.125
177.6360, 3515.915
178.1181, 3555.367
178.6003, 3546.633
179.0824, 3504.942
179.5645, 3472.151
180.0466, 3474.173
180.5287, 3494.606
181.0108, 3504.370
181.4930, 3501.227
181.9751, 3494.407
182.4572, 3492.273
182.9393, 3494.822
183.4214, 3502.344
183.9035, 3519.065
184.3857, 3540.650
184.8678, 3555.921
185.3499, 3562.751
185.8320, 3566.380
186.3141, 3571.803
186.7962, 3579.352
187.2784, 3592.271
187.7605, 3619.125
188.2426, 3654.484
188.7247, 3674.572
189.2068, 3671.578
189.6889, 3661.000
190.1711, 3676.281
190.6532, 3717.353
191.1353, 3753.366
191.6174, 3752.815
192.0995, 3722.114
192.5816, 3713.869
193.0638, 3744.158
193.5459, 3793.279
194.0280, 3814.180
194.5101, 3805.848
194.9922, 3781.998
195.4743, 3745.706
195.9565, 3698.252
196.4386, 3663.314
196.9207, 3646.997
197.4028, 3645.822
197.8849, 3652.327
198.3671, 3669.658
198.8492, 3681.001
199.3313, 3664.029
199.8134, 3615.767
200.2955, 3583.688
200.7776, 3583.569
201.2598, 3608.029
201.7419, 3614.770
202.2240, 3600.924
202.7061, 3577.538
203.1882, 3551.807
203.6703, 3521.437
204.1525, 3503.224
204.6346, 3505.247
205.1167, 3525.535
205.5988, 3535.134
206.0809, 3531.057
206.5630, 3522.301
207.0452, 3517.054
207.5273, 3513.760
208.0094, 3521.292
208.4915, 3547.621
208.9736, 3592.994
209.4557, 3620.244
209.9379, 3625.519
210.4200, 3618.814
210.9021, 3613.937
211.3842, 3613.734
211.8663, 3606.031
212.3484, 3582.164
212.8306, 3539.141
213.3127, 3517.479
213.7948, 3524.751
214.2769, 3544.963
214.7590, 3552.610
215.2411, 3542.230
215.7233, 3533.327
216.2054, 3535.136
216.6875, 3551.620
217.1696, 3553.261
217.6517, 3529.681
218.1338, 3499.611
218.6160, 3499.307
219.0981, 3541.621
219.5802, 3586.018
220.0623, 3619.657
220.5444, 3644.585
221.0265, 3648.843
221.5087, 3623.457
221.9908, 3582.890
222.4729, 3556.749
222.9550, 3547.476
223.4371, 3547.756
223.9192, 3558.913
224.4014, 3591.309
224.8835, 3600.142
225.3656, 3572.718
225.8477, 3527.270
226.3298, 3508.541
226.8119, 3531.854
227.2941, 3555.776
227.7762, 3559.526
228.2583, 3526.175
228.7404, 3517.063
229.2225, 3544.975
229.7046, 3593.007
230.1868, 3616.349
230.6689, 3598.703
231.1510, 3581.041
231.6331, 3584.089
232.1152, 3624.097
232.5974, 3646.761
233.0795, 3644.231
233.5616, 3625.904
234.0437, 3620.216
234.5258, 3635.656
235.0079, 3651.688
235.4901, 3658.295
235.9722, 3650.725
236.4543, 3644.849
236.9364, 3641.451
237.4185, 3640.101
237.9006, 3638.513
238.3828, 3632.518
238.8649, 3632.129
239.3470, 3644.463
239.8291, 3681.919
240.3112, 3704.252
240.7933, 3701.671
241.2755, 3683.257
241.7576, 3681.942
242.2397, 3708.829
242.7218, 3736.967
243.2039, 3751.664
243.6860, 3744.842
244.1682, 3741.653
244.6503, 3741.573
245.1324, 3745.852
245.6145, 3762.155
246.0966, 3805.642
246.5787, 3839.777
247.0609, 3842.530
247.5430, 3796.981
248.0251, 3757.356
248.5072, 3723.970
248.9893, 3698.556
249.4714, 3688.526
249.9536, 3703.575
250.4357, 3719.895
250.9178, 3724.514
251.3999, 3714.034
251.8820, 3698.705
252.3641, 3672.665
252.8463, 3642.558
253.3284, 3635.289
253.8105, 3664.556
254.2926, 3695.204
254.7747, 3705.648
255.2568, 3681.813
255.7390, 3674.232
256.2211, 3694.198
256.7032, 3731.125
257.1853, 3745.929
257.6674, 3727.590
258.1495, 3705.745
258.6317, 3696.484
259.1138, 3702.857
259.5959, 3714.558
260.0780, 3736.035
260.5601, 3761.361
261.0422, 3767.168
261.5244, 3743.060
262.0065, 3719.488
262.4886, 3716.293
262.9707, 3744.288
263.4528, 3755.920
263.9349, 3740.450
264.4171, 3709.734
264.8992, 3703.312
265.3813, 3728.256
265.8634, 3761.438
266.3455, 3792.922
266.8276, 3825.359
267.3098, 3846.456
267.7919, 3854.406
268.2740, 3851.521
268.7561, 3841.472
269.2382, 3819.905
269.7203, 3803.186
270.2025, 3802.826
270.6846, 3823.765
271.1667, 3835.051
271.6488, 3832.694
272.1309, 3822.121
272.6130, 3816.232
273.0952, 3815.688
273.5773, 3817.594
274.0594, 3820.862
274.5415, 3825.623
275.0236, 3831.245
275.5057, 3838.827
275.9879, 3846.080
276.4700, 3849.172
276.9521, 3848.708
277.4342, 3841.516
277.9163, 3820.653
278.3984, 3784.537
278.8806, 3767.702
279.3627, 3777.984
279.8448, 3797.092
280.3269, 3786.281
280.8090, 3740.197
281.2911, 3702.152
281.7733, 3696.458
282.2554, 3722.354
282.7375, 3744.153
283.2196, 3762.137
283.7017, 3773.558
284.1838, 3769.794
284.6660, 3749.873
285.1481, 3733.782
285.6302, 3734.168
286.1123, 3748.651
286.5944, 3752.554
287.0765, 3742.719
287.5587, 3731.635
288.0408, 3740.529
288.5229, 3768.658
289.0050, 3792.518
289.4871, 3800.200
289.9692, 3794.999
290.4514, 3790.407
290.9335, 3786.320
291.4156, 3783.535
291.8977, 3785.642
292.3798, 3791.368
292.8619, 3791.813
293.3441, 3777.049
293.8262, 3754.813
294.3083, 3749.327
294.7904, 3761.637
295.2726, 3778.771
295.7547, 3786.569
296.2368, 3787.309
296.7189, 3790.263
297.2010, 3801.805
297.6831, 3816.473
298.1653, 3822.546
298.6474, 3819.895
299.1295, 3816.953
299.6116, 3826.850
300.0937, 3842.719
300.5758, 3847.164
301.0580, 3827.885
301.5401, 3798.907
302.0222, 3774.014
302.5043, 3754.012
302.9864, 3747.287
303.4685, 3768.984
303.9507, 3807.587
304.4328, 3843.412
304.9149, 3874.850
305.3970, 3896.694
305.8791, 3898.493
306.3612, 3883.150
306.8434, 3868.003
307.3255, 3863.351
307.8076, 3866.223
308.2897, 3873.409
308.7718, 3885.912
309.2539, 3899.641
309.7361, 3906.233
310.2182, 3909.644
310.7003, 3924.312
311.1824, 3975.771
311.6645, 4033.680
312.1466, 4067.704
312.6288, 4062.630
313.1109, 4052.334
313.5930, 4057.053
314.0751, 4072.145
314.5572, 4086.056
315.0393, 4097.566
315.5215, 4103.501
316.0036, 4099.377
316.4857, 4079.445
316.9678, 4064.274
317.4499, 4065.127
317.9320, 4076.369
318.4142, 4087.980
318.8963, 4101.800
319.3784, 4111.006
319.8605, 4109.470
320.3426, 4092.329
320.8247, 4082.062
321.3069, 4093.759
321.7890, 4113.719
322.2711, 4124.033
322.7532, 4102.841
323.2353, 4087.533
323.7174, 4094.412
324.1996, 4128.603
324.6817, 4155.015
325.1638, 4165.211
325.6459, 4166.326
326.1280, 4165.244
326.6101, 4169.151
327.0923, 4164.206
327.5744, 4141.086
328.0565, 4098.185
328.5386, 4072.106
329.0207, 4077.896
329.5028, 4091.559
329.9850, 4096.088
330.4671, 4084.828
330.9492, 4073.510
331.4313, 4060.594
331.9134, 4047.399
332.3955, 4045.977
332.8777, 4066.152
333.3598, 4087.571
333.8419, 4098.733
334.3240, 4096.554
334.8061, 4089.395
335.2882, 4072.669
335.7704, 4051.744
336.2525, 4046.313
336.7346, 4060.285
337.2167, 4081.932
337.6988, 4108.721
338.1809, 4145.729
338.6631, 4165.756
339.1452, 4163.294
339.6273, 4147.855
340.1094, 4138.985
340.5915, 4138.494
341.0736, 4136.799
341.5558, 4128.146
342.0379, 4112.184
342.5200, 4100.046
343.0021, 4089.067
343.4842, 4088.162
343.9663, 4119.996
344.4485, 4185.400
344.9306, 4233.371
345.4127, 4234.562
345.8948, 4202.341
346.3769, 4195.524
346.8590, 4216.932
347.3412, 4243.966
347.8233, 4252.538
348.3054, 4245.592
348.7875, 4237.214
349.2696, 4228.322
349.7517, 4222.783
350.2339, 4233.163
350.7160, 4258.446
351.1981, 4278.571
351.6802, 4265.309
352.1623, 4235.819
352.6444, 4230.177
353.1266, 4266.815
353.6087, 4314.233
354.0908, 4336.034
354.5729, 4336.394
355.0550, 4332.671
355.5371, 4334.621
356.0193, 4338.732
356.5014, 4340.695
356.9835, 4339.315
357.4656, 4337.802
357.9477, 4339.457
358.4298, 4342.870
358.9120, 4345.061
359.3941, 4345.177
359.8762, 4343.493
360.3583, 4337.878
360.8404, 4326.813
361.3225, 4322.357
361.8047, 4347.361
362.2868, 4376.751
362.7689, 4380.012
363.2510, 4308.987
363.7331, 4245.468
364.2152, 4226.508
364.6974, 4253.644
365.1795, 4275.547
365.6616, 4272.121
366.1437, 4263.198
366.6258, 4263.723
367.1079, 4292.412
367.5901, 4312.294
368.0722, 4314.993
368.5543, 4302.933
369.0364, 4291.737
369.5185, 4279.211
370.0006, 4270.283
370.4828, 4267.659
370.9649, 4278.709
371.4470, 4284.647
371.9291, 4285.851
372.4112, 4281.960
372.8933, 4269.202
373.3755, 4232.835
373.8576, 4212.547
374.3397, 4230.782
374.8218, 4300.671
375.3039, 4331.242
375.7861, 4303.336
376.2682, 4258.804
376.7503, 4258.641
377.2324, 4315.193
377.7145, 4363.673
378.1967, 4384.509
378.6788, 4380.992
379.1609, 4382.131
379.6430, 4390.619
380.1251, 4393.847
380.6072, 4372.304
381.0894, 4327.862
381.5715, 4301.763
382.0536, 4306.398
382.5357, 4329.976
383.0178, 4349.770
383.4999, 4365.921
383.9821, 4376.030
384.4642, 4375.745
384.9463, 4368.027
385.4284, 4359.367
385.9105, 4348.568
386.3926, 4342.659
386.8748, 4353.197
387.3569, 4376.150
387.8390, 4398.863
388.3211, 4417.693
388.8032, 4431.340
389.2853, 4437.435
389.7675, 4435.815
390.2496, 4428.942
390.7317, 4410.605
391.2138, 4390.137
391.6959, 4380.515
392.1780, 4399.765
392.6602, 4420.195
393.1423, 4421.400
393.6244, 4406.555
394.1065, 4399.504
394.5886, 4421.451
395.0707, 4448.321
395.5529, 4461.785
396.0350, 4445.757
396.5171, 4433.419
396.9992, 4436.867
397.4813, 4450.027
397.9634, 4456.979
398.4456, 4444.956
398.9277, 4435.080
399.4098, 4435.946
399.8919, 4452.496
400.3740, 4468.591
400.8561, 4495.061
401.3383, 4516.100
401.8204, 4509.267
402.3025, 4444.352
402.7846, 4399.121
403.2667, 4397.311
403.7488, 4438.752
404.2310, 4464.065
404.7131, 4470.491
405.1952, 4465.351
405.6773, 4447.724
406.1594, 4409.353
406.6415, 4401.424
407.1237, 4441.133
407.6058, 4508.290
408.0879, 4546.098
408.5700, 4551.766
409.0521, 4548.325
409.5342, 4550.167
410.0164, 4555.585
410.4985, 4548.282
410.9806, 4523.396
411.4627, 4499.504
411.9448, 4508.095
412.4269, 4542.708
412.9091, 4572.560
413.3912, 4582.171
413.8733, 4579.030
414.3554, 4573.081
414.8375, 4564.479
415.3196, 4556.641
415.8018, 4551.524
416.2839, 4549.209
416.7660, 4549.502
417.2481, 4551.089
417.7302, 4557.123
418.2123, 4576.541
418.6945, 4603.789
419.1766, 4621.569
419.6587, 4612.277
420.1408, 4596.404
420.6229, 4589.085
421.1050, 4596.206
421.5872, 4600.136
422.0693, 4586.382
422.5514, 4568.251
423.0335, 4564.312
423.5156, 4598.052
423.9977, 4626.777
424.4799, 4634.066
424.9620, 4616.798
425.4441, 4612.514
425.9262, 4632.718
426.4083, 4658.308
426.8904, 4677.273
427.3726, 4692.876
427.8547, 4695.263
428.3368, 4675.481
428.8189, 4643.043
429.3010, 4630.355
429.7831, 4641.066
430.2653, 4663.032
430.7474, 4699.140
431.2295, 4755.156
431.7116, 4772.206
432.1937, 4739.121
432.6758, 4691.246
433.1580, 4682.065
433.6401, 4711.731
434.1222, 4730.083
434.6043, 4715.240
435.0864, 4679.736
435.5685, 4657.452
436.0507, 4648.261
436.5328, 4648.819
437.0149, 4662.186
437.4970, 4682.605
437.9791, 4696.764
438.4612, 4699.415
438.9434, 4700.738
439.4255, 4718.779
439.9076, 4745.476
440.3897, 4758.618
440.8718, 4727.891
441.3539, 4691.037
441.8361, 4679.392
442.3182, 4696.665
442.8003, 4722.617
443.2824, 4756.442
443.7645, 4790.138
444.2466, 4815.326
444.7288, 4834.434
445.2109, 4839.503
445.6930, 4821.245
446.1751, 4784.042
446.6572, 4751.302
447.1393, 4713.937
447.6215, 4691.430
448.1036, 4695.929
448.5857, 4748.864
449.0678, 4784.476
449.5499, 4797.617
450.0320, 4796.390
450.5142, 4792.882
450.9963, 4787.417
451.4784, 4778.395
451.9605, 4760.426
452.4426, 4734.916
452.9247, 4737.498
453.4069, 4775.098
453.8890, 4819.683
454.3711, 4847.658
454.8532, 4859.254
455.3353, 4865.477
455.8174, 4866.065
456.2996, 4864.627
456.7817, 4865.982
457.2638, 4870.365
457.7459, 4880.848
458.2281, 4912.445
458.7102, 4947.734
459.1923, 4944.698
459.6744, 4899.082
460.1565, 4859.676
460.6386, 4882.188
461.1208, 4936.587
461.6029, 4976.340
462.0850, 4977.133
462.5671, 4968.890
463.0492, 4972.575
463.5313, 4984.178
464.0135, 4988.229
464.4956, 4970.690
464.9777, 4949.245
465.4598, 4932.523
465.9419, 4918.783
466.4240, 4917.883
466.9062, 4945.033
467.3883, 4981.727
467.8704, 5003.707
468.3525, 4992.829
468.8346, 4986.385
469.3167, 4992.752
469.7989, 5010.549
470.2810, 5020.924
470.7631, 5020.909
471.2452, 5017.742
471.7273, 5014.896
472.2094, 5011.350
472.6916, 5014.492
473.1737, 5027.644
473.6558, 5043.761
474.1379, 5048.266
474.6200, 5040.840
475.1021, 5036.705
475.5843, 5046.917
476.0664, 5064.908
476.5485, 5059.433
477.0306, 5029.763
477.5127, 5013.633
477.9948, 5065.953
478.4770, 5152.883
478.9591, 5203.070
479.4412, 5191.012
479.9233, 5157.803
480.4054, 5135.353
480.8875, 5121.578
481.3697, 5111.339
481.8518, 5105.044
482.3339, 5099.165
482.8160, 5087.997
483.2981, 5070.034
483.7802, 5063.460
484.2624, 5087.719
484.7445, 5119.309
485.2266, 5138.708
485.7087, 5134.407
486.1908, 5127.635
486.6729, 5116.070
487.1551, 5103.417
487.6372, 5101.988
488.1193, 5122.734
488.6014, 5139.823
489.0835, 5141.162
489.5656, 5122.291
490.0478, 5120.400
490.5299, 5141.814
491.0120, 5168.876
491.4941, 5181.573
491.9762, 5179.328
492.4583, 5173.902
492.9405, 5165.937
493.4226, 5158.187
493.9047, 5157.673
494.3868, 5164.077
494.8689, 5172.848
495.3510, 5187.354
495.8332, 5200.798
496.3153, 5196.481
496.7974, 5171.667
497.2795, 5146.210
497.7616, 5133.600
498.2437, 5132.125
498.7259, 5139.786
499.2080, 5166.124
499.6901, 5190.862
500.1722, 5204.033
500.6543, 5206.689
501.1364, 5202.746
501.6186, 5181.048
502.1007, 5163.225
502.5828, 5162.761
503.0649, 5190.337
503.5470, 5207.344
504.0291, 5203.148
504.5113, 5191.770
504.9934, 5188.717
505.4755, 5206.783
505.9576, 5207.916
506.4397, 5176.769
506.9218, 5124.559
507.4040, 5103.423
507.8861, 5118.635
508.3682, 5146.347
508.8503, 5176.216
509.3324, 5207.948
509.8145, 5240.412
510.2967, 5275.790
510.7788, 5301.111
511.2609, 5291.650
511.7430, 5257.089
512.2252, 5232.491
512.7073, 5229.418
513.1894, 5240.466
513.6715, 5263.938
514.1536, 5296.046
514.6357, 5321.063
515.1179, 5323.701
515.6000, 5319.385
516.0821, 5320.960
516.5642, 5330.805
517.0463, 5341.279
517.5284, 5353.116
518.0106, 5362.522
518.4927, 5365.606
518.9748, 5351.136
519.4569, 5342.236
519.9390, 5342.034
520.4211, 5350.048
520.9033, 5367.246
521.3854, 5408.563
521.8675, 5437.399
522.3496, 5431.924
522.8317, 5383.715
523.3138, 5367.697
523.7960, 5390.846
524.2781, 5431.164
524.7602, 5469.678
525.2423, 5506.458
525.7244, 5530.041
526.2065, 5533.490
526.6887, 5529.185
527.1708, 5544.945
527.6529, 5576.704
528.1350, 5599.982
528.6171, 5588.708
529.0992, 5566.848
529.5814, 5567.703
530.0635, 5593.237
530.5456, 5623.028
531.0277, 5642.782
531.5098, 5660.273
531.9919, 5684.402
532.4741, 5728.792
532.9562, 5763.912
533.4383, 5772.055
533.9204, 5764.647
534.4025, 5768.158
534.8846, 5800.499
535.3668, 5830.083
535.8489, 5848.505
536.3310, 5855.787
536.8131, 5857.954
537.2952, 5855.661
537.7773, 5847.761
538.2595, 5829.304
538.7416, 5796.080
539.2237, 5780.451
539.7058, 5786.916
540.1879, 5808.890
540.6700, 5844.593
541.1522, 5891.313
541.6343, 5920.994
542.1164, 5917.375
542.5985, 5891.227
543.0806, 5857.312
543.5627, 5816.396
544.0449, 5776.787
544.5270, 5733.529
545.0091, 5699.554
545.4912, 5695.210
545.9733, 5733.998
546.4554, 5765.104
546.9376, 5758.545
547.4197, 5731.624
547.9018, 5705.953
548.3839, 5684.423
548.8660, 5667.332
549.3481, 5656.726
549.8303, 5651.535
550.3124, 5645.042
550.7945, 5633.698
551.2766, 5626.260
551.7587, 5628.162
552.2408, 5641.793
552.7230, 5648.210
553.2051, 5646.259
553.6872, 5639.874
554.1693, 5633.217
554.6514, 5626.156
555.1335, 5615.384
555.6157, 5597.714
556.0978, 5580.585
556.5799, 5578.618
557.0620, 5588.730
557.5441, 5598.189
558.0262, 5600.335
558.5084, 5598.245
558.9905, 5595.517
559.4726, 5592.159
559.9547, 5585.381
560.4368, 5560.562
560.9189, 5539.608
561.4011, 5543.055
561.8832, 5602.221
562.3653, 5636.366
562.8474, 5604.664
563.3295, 5546.074
563.8116, 5523.833
564.2938, 5569.159
564.7759, 5602.159
565.2580, 5599.710
565.7401, 5569.910
566.2222, 5575.162
566.7043, 5627.332
567.1865, 5674.417
567.6686, 5675.368
568.1507, 5636.416
568.6328, 5629.025
569.1149, 5659.319
569.5970, 5695.676
570.0792, 5696.415
570.5613, 5675.960
571.0434, 5671.914
571.5255, 5706.019
572.0076, 5741.293
572.4897, 5742.745
572.9719, 5719.738
573.4540, 5695.589
573.9361, 5669.544
574.4182, 5654.634
574.9003, 5662.413
575.3824, 5694.125
575.8646, 5720.332
576.3467, 5749.195
576.8288, 5760.966
577.3109, 5740.241
577.7930, 5649.842
578.2751, 5608.465
578.7573, 5634.897
579.2394, 5690.217
579.7215, 5716.312
580.2036, 5710.122
580.6857, 5703.131
581.1678, 5703.590
581.6500, 5708.561
582.1321, 5710.451
582.6142, 5709.649
583.0963, 5710.165
583.5784, 5718.843
584.0605, 5728.498
584.5427, 5724.484
585.0248, 5705.315
585.5069, 5694.707
585.9890, 5720.509
586.4711, 5756.487
586.9532, 5776.663
587.4354, 5764.505
587.9175, 5752.790
588.3996, 5753.870
588.8817, 5759.665
589.3638, 5754.239
589.8459, 5714.386
590.3281, 5695.229
590.8102, 5717.065
591.2923, 5771.937
591.7744, 5802.193
592.2565, 5803.545
592.7386, 5793.904
593.2208, 5779.222
593.7029, 5760.671
594.1850, 5753.089
594.6671, 5758.296
595.1492, 5765.095
595.6313, 5758.938
596.1135, 5745.924
596.5956, 5739.767
597.0777, 5744.937
597.5598, 5756.207
598.0419, 5776.723
598.5240, 5799.932
599.0062, 5811.944
599.4883, 5789.478
599.9704, 5772.597
600.4525, 5782.964
600.9346, 5819.610
601.4167, 5844.233
601.8989, 5848.666
602.3810, 5846.182
602.8631, 5841.156
603.3452, 5831.383
603.8273, 5827.908
604.3094, 5831.245
604.7916, 5839.402
605.2737, 5851.728
605.7558, 5868.125
606.2379, 5882.589
606.7200, 5895.038
607.2021, 5903.570
607.6843, 5901.904
608.1664, 5893.145
608.6485, 5887.480
609.1306, 5891.087
609.6127, 5899.023
610.0948, 5909.582
610.5770, 5921.862
611.0591, 5930.467
611.5412, 5932.675
612.0233, 5930.771
612.5054, 5923.341
612.9875, 5903.317
613.4697, 5900.396
613.9518, 5928.373
614.4339, 5962.744
614.9160, 5982.341
615.3981, 5985.049
615.8802, 5977.768
616.3624, 5956.781
616.8445, 5931.683
617.3266, 5922.023
617.8087, 5927.299
618.2908, 5936.695
618.7729, 5947.116
619.2551, 5958.214
619.7372, 5965.864
620.2193, 5971.904
620.7014, 5987.148
621.1835, 6040.072
621.6656, 6090.956
622.1478, 6098.971
622.6299, 6054.333
623.1120, 6020.096
623.5941, 6030.250
624.0762, 6052.879
624.5583, 6061.963
625.0405, 6039.773
625.5226, 6027.421
626.0047, 6026.698
626.4868, 6034.989
626.9689, 6050.727
627.4510, 6076.984
627.9332, 6095.071
628.4153, 6098.104
628.8974, 6090.961
629.3795, 6085.326
629.8616, 6081.261
630.3438, 6080.913
630.8259, 6086.450
631.3080, 6095.929
631.7901, 6108.873
632.2722, 6125.064
632.7543, 6137.040
633.2365, 6137.671
633.7186, 6133.968
634.2007, 6131.853
634.6828, 6134.081
635.1649, 6134.266
635.6470, 6120.427
636.1292, 6109.579
636.6113, 6122.884
637.0934, 6179.588
637.5755, 6219.783
638.0576, 6233.533
638.5397, 6228.398
639.0219, 6221.002
639.5040, 6211.045
639.9861, 6202.729
640.4682, 6193.935
640.9503, 6189.491
641.4324, 6206.090
641.9146, 6241.003
642.3967, 6273.450
642.8788, 6287.670
643.3609, 6293.291
643.8430, 6300.765
644.3251, 6311.908
644.8073, 6317.767
645.2894, 6306.451
645.7715, 6293.135
646.2536, 6290.508
646.7357, 6315.357
647.2178, 6329.123
647.7000, 6328.115
648.1821, 6318.802
648.6642, 6309.341
649.1463, 6298.381
649.6284, 6294.799
650.1105, 6302.168
650.5927, 6316.887
651.0748, 6333.674
651.5569, 6351.628
652.0390, 6363.188
652.5211, 6353.047
653.0032, 6340.220
653.4854, 6352.925
653.9675, 6389.262
654.4496, 6424.477
654.9317, 6445.037
655.4138, 6459.329
655.8959, 6474.554
656.3781, 6494.668
656.8602, 6503.749
657.3423, 6488.853
657.8244, 6470.372
658.3065, 6465.896
658.7886, 6484.070
659.2708, 6490.631
659.7529, 6479.987
660.2350, 6461.113
660.7171, 6445.765
