##NAMES=Zincolivenite
##RRUFFID=R050583
##IDEAL CHEMISTRY=Cu^2+^Zn^2+^As^5+^O_4_(OH)
##LOCALITY=Tsumeb mine, Tsumeb, Otavi District, Oshikoto, Namibia
##OWNER=RRUFF
##SOURCE=University of Arizona Mineral Museum
##DESCRIPTION=Green crystals associated with keyite, R050585, and schultenite, R050584
##STATUS=The identification of this mineral is confirmed by single-crystal X-ray diffraction and chemical analysis.
##URL=rruff.info/R050583
##MEASURED CHEMISTRY=(Zn_1.04_Cu_0.96_)_Î£=2_(As_1.00_O_4_)(OH)
110.4850, 1053.665
110.9671, 1224.433
111.4492, 1408.648
111.9313, 1621.532
112.4134, 1883.226
112.8956, 2062.624
113.3777, 2110.401
113.8598, 2072.057
114.3419, 2008.094
114.8240, 1895.917
115.3061, 1787.654
115.7883, 1707.718
116.2704, 1660.887
116.7525, 1637.078
117.2346, 1639.129
117.7167, 1663.050
118.1988, 1695.417
118.6810, 1738.072
119.1631, 1783.872
119.6452, 1825.935
120.1273, 1858.954
120.6094, 1890.329
121.0915, 1925.792
121.5737, 1965.413
122.0558, 2002.804
122.5379, 2035.531
123.0200, 2062.964
123.5021, 2083.961
123.9842, 2090.700
124.4664, 2093.476
124.9485, 2105.466
125.4306, 2130.064
125.9127, 2158.120
126.3948, 2180.901
126.8769, 2199.054
127.3591, 2215.754
127.8412, 2226.552
128.3233, 2237.069
128.8054, 2260.966
129.2875, 2303.236
129.7696, 2356.290
130.2518, 2407.346
130.7339, 2458.825
131.2160, 2511.962
131.6981, 2554.426
132.1802, 2589.064
132.6623, 2643.285
133.1445, 2722.700
133.6266, 2828.258
134.1087, 2980.177
134.5908, 3197.690
135.0729, 3417.938
135.5550, 3545.751
136.0372, 3578.533
136.5193, 3540.562
137.0014, 3424.807
137.4835, 3225.607
137.9656, 3037.008
138.4477, 2867.009
138.9299, 2712.677
139.4120, 2553.784
139.8941, 2379.430
140.3762, 2222.270
140.8583, 2105.872
141.3404, 2039.727
141.8226, 1986.791
142.3047, 1941.861
142.7868, 1905.315
143.2689, 1873.979
143.7510, 1847.049
144.2331, 1826.173
144.7152, 1814.898
145.1974, 1821.776
145.6795, 1824.765
146.1616, 1816.154
146.6437, 1788.771
147.1258, 1768.099
147.6079, 1756.228
148.0901, 1750.921
148.5722, 1746.719
149.0543, 1743.317
149.5364, 1741.156
150.0185, 1740.416
150.5006, 1738.423
150.9828, 1740.915
151.4649, 1749.310
151.9470, 1763.153
152.4291, 1777.548
152.9112, 1791.734
153.3933, 1806.586
153.8755, 1822.891
154.3576, 1839.007
154.8397, 1858.030
155.3218, 1883.318
155.8039, 1917.234
156.2860, 1943.268
156.7682, 1945.089
157.2503, 1940.645
157.7324, 1952.464
158.2145, 2002.970
158.6966, 2057.177
159.1787, 2098.551
159.6609, 2115.753
160.1430, 2141.313
160.6251, 2189.248
161.1072, 2252.679
161.5893, 2316.328
162.0714, 2377.910
162.5536, 2435.532
163.0357, 2487.078
163.5178, 2518.234
163.9999, 2558.985
164.4820, 2627.424
164.9641, 2720.169
165.4463, 2814.376
165.9284, 2896.326
166.4105, 2974.569
166.8926, 3058.306
167.3747, 3134.108
167.8568, 3227.996
168.3390, 3361.369
168.8211, 3533.635
169.3032, 3725.173
169.7853, 3949.316
170.2674, 4182.046
170.7495, 4381.384
171.2317, 4531.896
171.7138, 4638.294
172.1959, 4690.639
172.6780, 4672.503
173.1601, 4654.581
173.6422, 4684.334
174.1244, 4761.445
174.6065, 4883.221
175.0886, 5060.085
175.5707, 5278.296
176.0528, 5523.928
176.5349, 5807.914
177.0171, 6094.564
177.4992, 6365.164
177.9813, 6613.396
178.4634, 6805.642
178.9455, 6921.037
179.4276, 6959.936
179.9098, 6925.624
180.3919, 6812.514
180.8740, 6630.012
181.3561, 6372.110
181.8382, 6038.638
182.3203, 5680.615
182.8025, 5335.531
183.2846, 5007.511
183.7667, 4698.292
184.2488, 4407.696
184.7309, 4136.363
185.2130, 3900.876
185.6951, 3698.904
186.1773, 3528.490
186.6594, 3391.918
187.1415, 3287.607
187.6236, 3191.753
188.1057, 3081.609
188.5878, 2965.721
189.0700, 2883.991
189.5521, 2848.399
190.0342, 2836.992
190.5163, 2808.081
190.9984, 2761.093
191.4805, 2717.859
191.9627, 2696.627
192.4448, 2695.734
192.9269, 2694.898
193.4090, 2688.338
193.8911, 2680.909
194.3732, 2687.389
194.8554, 2708.626
195.3375, 2739.331
195.8196, 2774.677
196.3017, 2814.626
196.7838, 2862.942
197.2659, 2924.283
197.7481, 2995.905
198.2302, 3058.152
198.7123, 3109.347
199.1944, 3156.408
199.6765, 3209.855
200.1586, 3272.157
200.6408, 3326.208
201.1229, 3367.036
201.6050, 3394.318
202.0871, 3409.713
202.5692, 3412.501
203.0513, 3404.425
203.5335, 3386.956
204.0156, 3358.762
204.4977, 3326.393
204.9798, 3291.796
205.4619, 3254.900
205.9440, 3216.902
206.4262, 3174.717
206.9083, 3133.592
207.3904, 3108.838
207.8725, 3104.897
208.3546, 3104.933
208.8367, 3097.446
209.3189, 3078.433
209.8010, 3068.230
210.2831, 3067.603
210.7652, 3076.995
211.2473, 3098.331
211.7294, 3131.553
212.2116, 3177.054
212.6937, 3233.890
213.1758, 3301.324
213.6579, 3384.612
214.1400, 3487.276
214.6221, 3608.950
215.1043, 3733.024
215.5864, 3854.446
216.0685, 3987.639
216.5506, 4144.861
217.0327, 4329.576
217.5148, 4533.239
217.9970, 4756.774
218.4791, 4998.404
218.9612, 5256.794
219.4433, 5527.056
219.9254, 5815.484
220.4075, 6131.509
220.8897, 6477.506
221.3718, 6842.673
221.8539, 7226.576
222.3360, 7647.736
222.8181, 8021.018
223.3002, 8349.238
223.7824, 8625.061
224.2645, 8832.290
224.7466, 8984.604
225.2287, 9048.071
225.7108, 9005.691
226.1929, 8840.260
226.6750, 8616.918
227.1572, 8325.613
227.6393, 7982.179
228.1214, 7615.714
228.6035, 7212.417
229.0856, 6811.394
229.5677, 6431.438
230.0499, 6075.804
230.5320, 5744.472
231.0141, 5442.326
231.4962, 5167.323
231.9783, 4904.277
232.4604, 4653.218
232.9426, 4417.633
233.4247, 4195.332
233.9068, 3985.466
234.3889, 3799.021
234.8710, 3642.328
235.3531, 3511.552
235.8353, 3383.998
236.3174, 3256.560
236.7995, 3135.939
237.2816, 3026.868
237.7637, 2929.258
238.2458, 2843.830
238.7280, 2774.296
239.2101, 2720.350
239.6922, 2660.921
240.1743, 2589.947
240.6564, 2519.452
241.1385, 2461.655
241.6207, 2423.492
242.1028, 2384.262
242.5849, 2338.585
243.0670, 2285.536
243.5491, 2237.556
244.0313, 2195.316
244.5134, 2157.573
244.9955, 2122.283
245.4776, 2085.853
245.9597, 2058.330
246.4418, 2044.909
246.9240, 2049.588
247.4061, 2044.611
247.8882, 2025.245
248.3703, 1999.748
248.8524, 1979.946
249.3345, 1967.354
249.8167, 1957.841
250.2988, 1950.414
250.7809, 1945.443
251.2630, 1941.056
251.7451, 1937.387
252.2272, 1934.219
252.7094, 1930.685
253.1915, 1924.442
253.6736, 1921.832
254.1557, 1926.260
254.6378, 1941.448
255.1199, 1951.237
255.6021, 1950.828
256.0842, 1947.246
256.5663, 1957.720
257.0484, 1991.796
257.5305, 2023.451
258.0126, 2037.578
258.4948, 2019.842
258.9769, 2026.734
259.4590, 2067.335
259.9411, 2129.839
260.4232, 2181.607
260.9053, 2214.415
261.3875, 2251.843
261.8696, 2308.121
262.3517, 2387.972
262.8338, 2467.820
263.3159, 2542.781
263.7980, 2617.707
264.2802, 2706.349
264.7623, 2811.583
265.2444, 2926.239
265.7265, 3047.644
266.2086, 3172.212
266.6907, 3308.702
267.1729, 3458.653
267.6550, 3619.330
268.1371, 3783.794
268.6192, 3948.602
269.1013, 4121.459
269.5834, 4306.176
270.0656, 4500.104
270.5477, 4705.867
271.0298, 4920.921
271.5119, 5146.109
271.9940, 5390.812
272.4761, 5653.211
272.9583, 5935.001
273.4404, 6235.377
273.9225, 6549.576
274.4046, 6909.667
274.8867, 7326.434
275.3688, 7791.753
275.8510, 8280.894
276.3331, 8788.964
276.8152, 9327.803
277.2973, 9903.097
277.7794, 10513.24
278.2615, 11181.66
278.7437, 11940.79
279.2258, 12758.31
279.7079, 13506.08
280.1900, 14195.35
280.6721, 14773.46
281.1542, 15215.98
281.6364, 15527.02
282.1185, 15625.41
282.6006, 15478.76
283.0827, 15111.75
283.5648, 14602.19
284.0469, 13940.09
284.5291, 13187.91
285.0112, 12368.09
285.4933, 11483.75
285.9754, 10636.77
286.4575, 9844.169
286.9396, 9115.155
287.4217, 8507.358
287.9038, 8027.632
288.3860, 7618.051
288.8681, 7223.436
289.3502, 6849.662
289.8323, 6518.372
290.3144, 6243.754
290.7965, 6016.330
291.2787, 5818.120
291.7608, 5649.276
292.2429, 5501.328
292.7250, 5374.453
293.2071, 5263.662
293.6892, 5142.833
294.1714, 4999.847
294.6535, 4844.820
295.1356, 4695.221
295.6177, 4550.438
296.0998, 4414.320
296.5819, 4292.589
297.0641, 4181.343
297.5462, 4069.526
298.0283, 3950.740
298.5104, 3830.891
298.9925, 3719.376
299.4746, 3615.748
299.9568, 3514.903
300.4389, 3406.528
300.9210, 3296.635
301.4031, 3196.213
301.8852, 3109.139
302.3673, 3034.918
302.8495, 2973.202
303.3316, 2924.388
303.8137, 2884.153
304.2958, 2855.365
304.7779, 2832.486
305.2600, 2806.191
305.7422, 2767.695
306.2243, 2727.565
306.7064, 2694.783
307.1885, 2669.096
307.6706, 2651.237
308.1527, 2644.704
308.6349, 2645.547
309.1170, 2648.403
309.5991, 2655.108
310.0812, 2660.457
310.5633, 2658.513
311.0454, 2649.838
311.5276, 2643.798
312.0097, 2645.759
312.4918, 2653.467
312.9739, 2664.482
313.4560, 2671.162
313.9381, 2686.601
314.4203, 2721.590
314.9024, 2775.115
315.3845, 2829.455
315.8666, 2878.433
316.3487, 2923.416
316.8308, 2965.690
317.3130, 2997.853
317.7951, 3034.730
318.2772, 3081.823
318.7593, 3138.848
319.2414, 3200.484
319.7235, 3271.749
320.2057, 3343.462
320.6878, 3408.359
321.1699, 3466.184
321.6520, 3515.881
322.1341, 3559.724
322.6162, 3597.001
323.0984, 3617.522
323.5805, 3634.076
324.0626, 3624.754
324.5447, 3574.783
325.0268, 3448.133
325.5089, 3318.170
325.9911, 3193.484
326.4732, 3074.607
326.9553, 2954.438
327.4374, 2826.856
327.9195, 2701.806
328.4016, 2583.415
328.8838, 2461.225
329.3659, 2359.035
329.8480, 2285.798
330.3301, 2237.043
330.8122, 2182.479
331.2943, 2112.184
331.7765, 2045.423
332.2586, 1993.220
332.7407, 1961.358
333.2228, 1933.615
333.7049, 1908.353
334.1870, 1886.443
334.6692, 1872.189
335.1513, 1871.063
335.6334, 1868.684
336.1155, 1855.275
336.5976, 1824.387
337.0797, 1803.144
337.5619, 1795.558
338.0440, 1797.526
338.5261, 1797.063
339.0082, 1792.558
339.4903, 1790.331
339.9724, 1795.428
340.4546, 1809.180
340.9367, 1818.488
341.4188, 1821.775
341.9009, 1821.504
342.3830, 1822.061
342.8651, 1823.296
343.3473, 1826.868
343.8294, 1832.932
344.3115, 1841.754
344.7936, 1856.428
345.2757, 1878.449
345.7578, 1903.591
346.2400, 1927.124
346.7221, 1948.674
347.2042, 1966.739
347.6863, 1978.462
348.1684, 1985.929
348.6505, 1996.908
349.1327, 2012.546
349.6148, 2028.111
350.0969, 2035.752
350.5790, 2037.679
351.0611, 2042.615
351.5432, 2063.098
352.0254, 2086.343
352.5075, 2089.279
352.9896, 2069.448
353.4717, 2045.379
353.9538, 2031.359
354.4359, 2025.564
354.9181, 2024.919
355.4002, 2037.336
355.8823, 2048.721
356.3644, 2040.803
356.8465, 2013.222
357.3286, 1991.396
357.8108, 1991.957
358.2929, 2008.021
358.7750, 2030.417
359.2571, 2062.122
359.7392, 2094.029
360.2213, 2118.830
360.7035, 2137.245
361.1856, 2160.342
361.6677, 2188.986
362.1498, 2226.295
362.6319, 2275.240
363.1140, 2348.342
363.5962, 2421.211
364.0783, 2485.148
364.5604, 2541.608
365.0425, 2601.231
365.5246, 2658.985
366.0067, 2725.635
366.4889, 2807.561
366.9710, 2933.451
367.4531, 3042.806
367.9352, 3123.229
368.4173, 3180.803
368.8994, 3242.522
369.3815, 3312.103
369.8636, 3382.845
370.3458, 3451.672
370.8279, 3524.426
371.3100, 3586.443
371.7921, 3638.519
372.2742, 3680.061
372.7563, 3710.113
373.2385, 3730.302
373.7206, 3735.807
374.2027, 3724.506
374.6848, 3696.085
375.1669, 3651.687
375.6490, 3587.342
376.1312, 3511.102
376.6133, 3434.944
377.0954, 3359.420
377.5775, 3280.570
378.0596, 3191.895
378.5417, 3095.509
379.0239, 3015.316
379.5060, 2956.474
379.9881, 2900.467
380.4702, 2824.189
380.9523, 2727.620
381.4344, 2628.906
381.9166, 2528.615
382.3987, 2431.581
382.8808, 2347.898
383.3629, 2278.717
383.8450, 2215.339
384.3271, 2151.849
384.8093, 2088.099
385.2914, 2024.980
385.7735, 1961.372
386.2556, 1900.549
386.7377, 1848.662
387.2198, 1805.483
387.7020, 1767.480
388.1841, 1736.684
388.6662, 1708.816
389.1483, 1674.287
389.6304, 1616.152
390.1125, 1575.455
390.5947, 1613.178
391.0768, 1700.151
391.5589, 1743.849
392.0410, 1654.604
392.5231, 1531.624
393.0052, 1447.146
393.4874, 1425.515
393.9695, 1414.551
394.4516, 1394.853
394.9337, 1371.666
395.4158, 1354.606
395.8979, 1354.325
396.3801, 1353.819
396.8622, 1344.523
397.3443, 1321.405
397.8264, 1305.102
398.3085, 1305.893
398.7906, 1312.380
399.2728, 1310.750
399.7549, 1289.870
400.2370, 1272.953
400.7191, 1265.906
401.2012, 1269.649
401.6833, 1269.640
402.1655, 1264.409
402.6476, 1256.958
403.1297, 1248.894
403.6118, 1237.360
404.0939, 1232.775
404.5760, 1239.522
405.0582, 1254.704
405.5403, 1261.824
406.0224, 1258.783
406.5045, 1253.602
406.9866, 1250.287
407.4688, 1248.616
407.9509, 1253.946
408.4330, 1269.179
408.9151, 1288.442
409.3972, 1299.581
409.8793, 1302.511
410.3615, 1302.161
410.8436, 1298.854
411.3257, 1294.243
411.8078, 1294.367
412.2899, 1300.060
412.7720, 1308.458
413.2542, 1315.407
413.7363, 1322.059
414.2184, 1332.016
414.7005, 1351.185
415.1826, 1372.307
415.6647, 1387.130
416.1469, 1395.261
416.6290, 1399.238
417.1111, 1396.787
417.5932, 1392.266
418.0753, 1391.433
418.5574, 1400.283
419.0396, 1409.618
419.5217, 1416.482
420.0038, 1420.444
420.4859, 1419.235
420.9680, 1408.865
421.4501, 1394.841
421.9323, 1381.101
422.4144, 1367.125
422.8965, 1354.900
423.3786, 1346.849
423.8607, 1341.031
424.3428, 1331.768
424.8250, 1315.465
425.3071, 1298.328
425.7892, 1282.544
426.2713, 1267.914
426.7534, 1254.589
427.2355, 1243.118
427.7177, 1232.558
428.1998, 1222.097
428.6819, 1212.814
429.1640, 1200.830
429.6461, 1182.492
430.1282, 1158.312
430.6104, 1145.023
431.0925, 1145.260
431.5746, 1149.546
432.0567, 1147.434
432.5388, 1138.621
433.0209, 1134.596
433.5031, 1140.287
433.9852, 1150.211
434.4673, 1149.513
434.9494, 1138.460
435.4315, 1126.685
435.9136, 1120.602
436.3958, 1119.209
436.8779, 1120.833
437.3600, 1126.466
437.8421, 1131.557
438.3242, 1130.778
438.8063, 1125.317
439.2885, 1118.467
439.7706, 1107.671
440.2527, 1098.792
440.7348, 1098.525
441.2169, 1108.105
441.6990, 1118.481
442.1812, 1123.116
442.6633, 1126.173
443.1454, 1132.677
443.6275, 1152.163
444.1096, 1167.587
444.5917, 1171.016
445.0739, 1163.182
445.5560, 1156.007
446.0381, 1150.478
446.5202, 1147.246
447.0023, 1146.740
447.4844, 1151.588
447.9666, 1155.871
448.4487, 1159.395
448.9308, 1162.370
449.4129, 1165.320
449.8950, 1168.059
450.3771, 1170.989
450.8593, 1173.828
451.3413, 1176.018
451.8235, 1181.554
452.3056, 1191.375
452.7877, 1203.092
453.2698, 1215.151
453.7519, 1227.957
454.2340, 1235.125
454.7162, 1231.530
455.1983, 1221.609
455.6804, 1221.905
456.1625, 1232.831
456.6446, 1247.081
457.1267, 1262.773
457.6089, 1277.105
458.0910, 1281.262
458.5731, 1268.177
459.0552, 1253.759
459.5373, 1259.778
460.0194, 1281.141
460.5016, 1301.156
460.9837, 1308.909
461.4658, 1311.725
461.9479, 1315.549
462.4300, 1320.931
462.9121, 1327.907
463.3943, 1338.351
463.8764, 1349.863
464.3585, 1359.186
464.8406, 1359.470
465.3227, 1363.177
465.8048, 1376.612
466.2870, 1399.802
466.7691, 1419.298
467.2512, 1430.680
467.7333, 1440.112
468.2154, 1450.743
468.6975, 1455.051
469.1797, 1473.762
469.6618, 1515.826
470.1439, 1570.425
470.6260, 1606.748
471.1081, 1616.473
471.5902, 1627.979
472.0724, 1654.275
472.5545, 1696.617
473.0366, 1734.741
473.5187, 1765.923
474.0008, 1799.415
474.4829, 1851.051
474.9651, 1918.873
475.4472, 1978.307
475.9293, 2015.542
476.4114, 2044.191
476.8935, 2091.915
477.3756, 2157.604
477.8578, 2232.268
478.3399, 2308.910
478.8220, 2390.405
479.3041, 2481.934
479.7862, 2586.771
480.2683, 2696.148
480.7505, 2802.109
481.2326, 2907.813
481.7147, 3020.277
482.1968, 3145.973
482.6789, 3277.185
483.1610, 3415.200
483.6432, 3562.481
484.1253, 3693.516
484.6074, 3799.292
485.0895, 3885.826
485.5716, 3959.149
486.0537, 4027.632
486.5359, 4072.674
487.0180, 4091.987
487.5001, 4086.673
487.9822, 4060.693
488.4643, 4009.728
488.9464, 3945.743
489.4286, 3870.282
489.9107, 3780.107
490.3928, 3700.308
490.8749, 3632.379
491.3570, 3572.457
491.8391, 3513.623
492.3213, 3456.425
492.8034, 3402.477
493.2855, 3346.799
493.7676, 3297.646
494.2497, 3277.950
494.7318, 3287.539
495.2140, 3310.549
495.6961, 3338.551
496.1782, 3370.518
496.6603, 3402.400
497.1424, 3430.694
497.6245, 3465.714
498.1067, 3514.782
498.5888, 3577.014
499.0709, 3650.370
499.5530, 3738.926
500.0351, 3834.697
500.5172, 3935.999
500.9994, 4041.673
501.4815, 4147.915
501.9636, 4252.148
502.4457, 4358.084
502.9278, 4468.996
503.4099, 4592.710
503.8921, 4714.071
504.3742, 4838.013
504.8563, 4959.606
505.3384, 5057.104
505.8205, 5125.339
506.3026, 5180.067
506.7848, 5232.367
507.2669, 5286.793
507.7490, 5311.888
508.2311, 5309.324
508.7132, 5273.826
509.1953, 5191.618
509.6775, 5065.638
510.1596, 4922.448
510.6417, 4768.590
511.1238, 4605.195
511.6059, 4428.678
512.0880, 4239.805
512.5701, 4058.079
513.0522, 3903.559
513.5344, 3759.635
514.0165, 3600.658
514.4986, 3412.020
514.9807, 3238.160
515.4628, 3113.714
515.9449, 3021.260
516.4271, 2932.862
516.9092, 2830.323
517.3913, 2737.473
517.8734, 2664.883
518.3555, 2613.495
518.8376, 2568.098
519.3198, 2529.894
519.8019, 2495.360
520.2840, 2461.671
520.7661, 2426.209
521.2482, 2397.271
521.7303, 2374.953
522.2125, 2359.406
522.6946, 2351.983
523.1767, 2353.639
523.6588, 2359.092
524.1409, 2368.561
524.6230, 2380.729
525.1052, 2385.628
525.5873, 2382.478
526.0694, 2378.261
526.5515, 2375.615
527.0336, 2377.027
527.5157, 2392.251
527.9979, 2430.608
528.4800, 2470.537
528.9621, 2485.563
529.4442, 2482.384
529.9263, 2481.282
530.4084, 2498.225
530.8906, 2516.996
531.3727, 2526.531
531.8548, 2525.430
532.3369, 2519.205
532.8190, 2502.929
533.3011, 2485.591
533.7833, 2475.616
534.2654, 2498.550
534.7475, 2498.777
535.2296, 2463.736
535.7117, 2401.817
536.1938, 2343.172
536.6760, 2289.319
537.1581, 2234.330
537.6402, 2174.901
538.1223, 2111.040
538.6044, 2046.578
539.0865, 1981.082
539.5687, 1914.288
540.0508, 1844.526
540.5329, 1772.038
541.0150, 1705.301
541.4971, 1647.144
541.9792, 1594.859
542.4614, 1544.204
542.9435, 1496.118
543.4256, 1455.009
543.9077, 1431.356
544.3898, 1411.436
544.8719, 1380.150
545.3541, 1334.227
545.8362, 1290.361
546.3183, 1256.630
546.8004, 1228.752
547.2825, 1201.766
547.7646, 1168.865
548.2468, 1143.449
548.7289, 1132.485
549.2110, 1132.240
549.6931, 1126.764
550.1752, 1113.381
550.6573, 1098.417
551.1395, 1083.568
551.6216, 1068.281
552.1037, 1057.245
552.5858, 1051.603
553.0679, 1047.569
553.5500, 1041.394
554.0322, 1033.126
554.5143, 1021.465
554.9964, 1003.157
555.4785, 984.9845
555.9606, 983.8012
556.4427, 996.2457
556.9249, 1004.080
557.4070, 988.9875
557.8891, 967.0546
558.3712, 957.3444
558.8533, 962.7272
559.3354, 969.5328
559.8176, 972.9462
560.2997, 972.7280
560.7818, 968.6143
561.2639, 955.1364
561.7460, 943.8481
562.2281, 938.3634
562.7103, 937.1309
563.1924, 934.1437
563.6745, 927.1914
564.1566, 921.3501
564.6387, 918.6849
565.1208, 919.5197
565.6030, 920.8044
566.0851, 923.4918
566.5672, 924.4763
567.0493, 918.1404
567.5314, 905.1545
568.0135, 898.3460
568.4957, 901.2522
568.9778, 909.4842
569.4599, 918.7869
569.9420, 928.0924
570.4241, 932.4545
570.9063, 924.9464
571.3884, 913.8855
571.8705, 908.3781
572.3526, 908.8182
572.8347, 907.7155
573.3168, 897.0099
573.7990, 885.3065
574.2811, 880.2437
574.7632, 889.9475
575.2453, 896.8853
575.7274, 897.4905
576.2095, 893.7523
576.6917, 889.3548
577.1738, 883.0886
577.6559, 878.2095
578.1380, 876.1581
578.6201, 876.6825
579.1022, 875.6790
579.5844, 872.9424
580.0665, 869.4150
580.5486, 865.3326
581.0307, 860.8646
581.5128, 857.4271
581.9949, 855.1473
582.4771, 854.0245
582.9592, 855.0283
583.4413, 857.2377
583.9234, 858.3725
584.4055, 856.3815
584.8876, 853.8257
585.3698, 853.1694
585.8519, 853.9268
586.3340, 853.3437
586.8161, 846.8833
587.2982, 841.3485
587.7803, 841.3741
588.2625, 851.1096
588.7446, 856.6683
589.2267, 854.3889
589.7088, 849.7734
590.1909, 849.3113
590.6730, 855.8708
591.1552, 858.4211
591.6373, 853.7778
592.1194, 844.7807
592.6015, 840.0297
593.0836, 839.7296
593.5657, 840.0359
594.0479, 836.8301
594.5300, 832.8013
595.0121, 838.2839
595.4942, 853.8864
595.9763, 865.5635
596.4584, 855.9100
596.9406, 837.2465
597.4227, 826.1085
597.9048, 831.2436
598.3869, 836.5170
598.8690, 832.1529
599.3511, 822.9429
599.8333, 818.1274
600.3154, 827.8998
600.7975, 833.6409
601.2796, 828.5450
601.7617, 812.9606
602.2438, 801.6024
602.7260, 794.4860
603.2081, 791.5770
603.6902, 793.9399
604.1723, 802.0582
604.6544, 809.6719
