##NAMES=Zincite
##RRUFFID=R050492
##IDEAL CHEMISTRY=Zn^2+^O
##LOCALITY=Franklin, Sussex County, New Jersey, USA
##OWNER=RRUFF
##SOURCE=California Institute of Technology
##DESCRIPTION=Deep red massive
##STATUS=The identification of this mineral has been confirmed by X-ray diffraction and chemical analysis
##URL=rruff.info/R050492
##MEASURED CHEMISTRY=(Zn_0.96_Mn_0.04_)_Î£=1_O
91.00781, 7.158193
91.48993, 7.084595
91.97205, 7.055387
92.45416, 7.110244
92.93628, 7.207728
93.41840, 7.253811
93.90051, 7.224383
94.38263, 7.154390
94.86475, 7.095748
95.34686, 7.048358
95.82898, 7.002584
96.31110, 6.979018
96.79321, 6.969198
97.27533, 6.862389
97.75745, 6.566524
98.23956, 6.164086
98.72168, 6.073960
99.20380, 6.377146
99.68591, 6.741544
100.1680, 6.726379
100.6501, 6.215353
101.1323, 5.902085
101.6144, 6.070391
102.0965, 6.777963
102.5786, 7.244598
103.0607, 7.381761
103.5428, 7.359873
104.0250, 7.466070
104.5071, 7.756561
104.9892, 8.079165
105.4713, 8.367566
105.9534, 8.561263
106.4355, 8.854512
106.9177, 9.299367
107.3998, 9.845595
107.8819, 10.34986
108.3640, 10.73575
108.8461, 11.13507
109.3282, 11.61530
109.8104, 12.04156
110.2925, 12.68939
110.7746, 13.71291
111.2567, 15.04555
111.7388, 16.20945
112.2209, 16.95485
112.7031, 17.61054
113.1852, 18.41254
113.6673, 19.63316
114.1494, 20.77832
114.6315, 21.71859
115.1136, 22.45448
115.5958, 23.09558
116.0779, 23.61255
116.5600, 24.07297
117.0421, 24.55055
117.5242, 24.98727
118.0063, 25.51447
118.4885, 26.21004
118.9706, 27.08924
119.4527, 28.09001
119.9348, 29.16451
120.4169, 30.33180
120.8990, 31.64685
121.3812, 33.22504
121.8633, 34.91743
122.3454, 36.62331
122.8275, 38.43052
123.3096, 40.01776
123.7917, 41.10102
124.2739, 41.72363
124.7560, 42.04472
125.2381, 41.74099
125.7202, 41.26645
126.2023, 41.46445
126.6844, 42.78738
127.1666, 44.51040
127.6487, 45.61242
128.1308, 46.12663
128.6129, 46.52518
129.0950, 47.23381
129.5771, 48.16248
130.0593, 48.99434
130.5414, 49.63813
131.0235, 50.11840
131.5056, 50.42820
131.9877, 50.38117
132.4698, 50.00971
132.9520, 49.54229
133.4341, 48.98919
133.9162, 48.54851
134.3983, 48.25801
134.8804, 48.12263
135.3625, 48.19645
135.8447, 48.46458
136.3268, 48.96159
136.8089, 49.85455
137.2910, 51.23548
137.7731, 52.48355
138.2552, 53.35577
138.7374, 53.81765
139.2195, 54.21368
139.7016, 54.61488
140.1837, 54.89438
140.6658, 54.67925
141.1479, 53.68467
141.6301, 52.84658
142.1122, 52.65327
142.5943, 53.41227
143.0764, 53.96059
143.5585, 54.23877
144.0406, 54.29469
144.5228, 54.27239
145.0049, 54.01196
145.4870, 53.86968
145.9691, 54.08200
146.4512, 55.12525
146.9333, 55.74264
147.4155, 55.70125
147.8976, 55.08438
148.3797, 54.66816
148.8618, 54.49925
149.3439, 54.49017
149.8260, 54.58316
150.3082, 54.99137
150.7903, 55.26488
151.2724, 55.25483
151.7545, 54.94761
152.2366, 54.90139
152.7188, 55.34316
153.2009, 55.94709
153.6830, 56.44707
154.1651, 56.82537
154.6472, 57.09192
155.1293, 57.25887
155.6115, 57.33753
156.0936, 57.24571
156.5757, 56.78640
157.0578, 56.21257
157.5399, 55.80742
158.0220, 55.80082
158.5042, 55.83100
158.9863, 55.72776
159.4684, 55.42384
159.9505, 55.25637
160.4326, 55.40672
160.9147, 55.74586
161.3969, 56.08182
161.8790, 56.37691
162.3611, 56.63221
162.8432, 56.88341
163.3253, 57.19112
163.8074, 57.31123
164.2896, 56.96079
164.7717, 56.34135
165.2538, 55.85601
165.7359, 55.72144
166.2180, 55.76622
166.7001, 55.86872
167.1823, 56.00936
167.6644, 56.19354
168.1465, 56.44986
168.6286, 56.75673
169.1107, 57.05431
169.5928, 57.30847
170.0750, 57.53669
170.5571, 57.77276
171.0392, 58.06281
171.5213, 58.29508
172.0034, 58.36645
172.4855, 58.29425
172.9677, 58.15311
173.4498, 57.94877
173.9319, 57.71564
174.4140, 57.48456
174.8961, 57.17406
175.3782, 56.97204
175.8604, 57.19726
176.3425, 57.79869
176.8246, 58.33962
177.3067, 58.36869
177.7888, 58.11049
178.2709, 58.04164
178.7531, 58.46944
179.2352, 59.02610
179.7173, 59.11424
180.1994, 58.75038
180.6815, 58.30155
181.1636, 58.06410
181.6458, 57.99808
182.1279, 57.99099
182.6100, 57.98314
183.0921, 58.01970
183.5742, 58.25164
184.0563, 58.68518
184.5385, 59.10831
185.0206, 59.27983
185.5027, 59.24162
185.9848, 59.19042
186.4669, 59.24738
186.9490, 59.33662
187.4312, 59.12071
187.9133, 58.54452
188.3954, 58.05269
188.8775, 58.32151
189.3596, 59.26390
189.8417, 60.06926
190.3239, 60.36440
190.8060, 60.24720
191.2881, 60.17822
191.7702, 60.15897
192.2523, 60.18541
192.7344, 60.25096
193.2166, 60.35605
193.6987, 60.51262
194.1808, 60.76373
194.6629, 61.09511
195.1450, 61.32655
195.6271, 61.43035
196.1093, 61.50527
196.5914, 61.71793
197.0735, 62.08110
197.5556, 62.41952
198.0377, 62.61680
198.5198, 62.67249
199.0020, 62.87544
199.4841, 63.26260
199.9662, 63.73101
200.4483, 64.11295
200.9304, 64.39188
201.4125, 64.68259
201.8947, 65.07458
202.3768, 65.58767
202.8589, 65.95270
203.3410, 66.16615
203.8231, 66.23569
204.3052, 66.13668
204.7874, 65.82859
205.2695, 65.52406
205.7516, 65.31003
206.2337, 65.19020
206.7158, 65.15483
207.1979, 65.25093
207.6801, 65.38589
208.1622, 65.34035
208.6443, 65.05077
209.1264, 64.77760
209.6085, 64.66487
210.0906, 64.76787
210.5728, 64.77378
211.0549, 64.65706
211.5370, 64.45648
212.0191, 64.24581
212.5012, 63.99623
212.9833, 63.80433
213.4655, 63.73571
213.9476, 63.83489
214.4297, 63.88759
214.9118, 63.86848
215.3939, 63.81228
215.8760, 63.81362
216.3581, 63.90703
216.8403, 63.98632
217.3224, 63.98041
217.8045, 63.82727
218.2866, 63.78084
218.7687, 63.86887
219.2508, 64.05672
219.7330, 64.24162
220.2151, 64.38291
220.6972, 64.59127
221.1793, 64.95560
221.6614, 65.61781
222.1435, 66.03897
222.6257, 66.10869
223.1078, 65.96329
223.5899, 65.99339
224.0720, 66.29043
224.5541, 66.61845
225.0362, 66.88097
225.5184, 67.07355
226.0005, 67.20972
226.4826, 67.29076
226.9647, 67.31828
227.4468, 67.27941
227.9289, 67.09642
228.4111, 66.97039
228.8932, 67.02364
229.3753, 67.40864
229.8574, 67.59884
230.3395, 67.47553
230.8216, 67.17838
231.3038, 67.09123
231.7859, 67.27518
232.2680, 67.58038
232.7501, 67.95250
233.2322, 68.43102
233.7143, 68.89336
234.1965, 69.39641
234.6786, 69.87273
235.1607, 70.11838
235.6428, 69.97704
236.1249, 69.83007
236.6070, 69.83426
237.0892, 69.99333
237.5713, 70.31126
238.0534, 70.90634
238.5355, 71.62852
239.0176, 72.07262
239.4997, 72.07214
239.9819, 72.03946
240.4640, 72.14530
240.9461, 72.42531
241.4282, 72.77648
241.9103, 73.30116
242.3924, 73.86536
242.8746, 74.12824
243.3567, 73.93441
243.8388, 73.67698
244.3209, 73.50578
244.8030, 73.44364
245.2851, 73.41078
245.7673, 73.38852
246.2494, 73.40416
246.7315, 73.53231
247.2136, 73.86436
247.6957, 74.16479
248.1778, 74.33829
248.6600, 74.34429
249.1421, 74.34368
249.6242, 74.34732
250.1063, 74.33848
250.5884, 74.26648
251.0705, 74.04278
251.5527, 73.90765
252.0348, 73.99029
252.5169, 74.40557
252.9990, 74.60572
253.4811, 74.48818
253.9632, 74.22305
254.4454, 74.14516
254.9275, 74.43020
255.4096, 74.56563
255.8917, 74.36215
256.3738, 73.76025
256.8560, 73.06825
257.3381, 72.16942
257.8202, 71.27344
258.3023, 70.72538
258.7844, 70.70895
259.2665, 70.65331
259.7487, 70.37623
260.2308, 69.84882
260.7129, 69.29161
261.1950, 68.66255
261.6771, 68.05092
262.1592, 67.59342
262.6414, 67.34710
263.1235, 67.12276
263.6056, 66.88855
264.0877, 66.64713
264.5698, 66.32013
265.0519, 65.89484
265.5341, 65.40385
266.0162, 64.85735
266.4983, 64.22032
266.9804, 63.64753
267.4625, 63.17124
267.9446, 62.79485
268.4268, 62.50373
268.9089, 62.34999
269.3910, 62.19987
269.8731, 61.86840
270.3552, 61.27628
270.8373, 60.84294
271.3195, 60.72066
271.8016, 60.86649
272.2837, 60.78785
272.7658, 60.39504
273.2479, 59.97603
273.7300, 59.82525
274.2122, 59.99570
274.6943, 60.10792
275.1764, 60.08686
275.6585, 59.94877
276.1406, 59.74439
276.6227, 59.43865
277.1049, 59.18414
277.5870, 59.13246
278.0691, 59.30250
278.5512, 59.45188
279.0333, 59.51714
279.5154, 59.54830
279.9976, 59.77061
280.4797, 60.23710
280.9618, 60.62275
281.4439, 60.60747
281.9260, 60.18508
282.4081, 59.99860
282.8903, 60.19877
283.3724, 60.60291
283.8545, 60.78612
284.3366, 60.73802
284.8187, 60.57747
285.3008, 60.26271
285.7830, 59.82744
286.2651, 59.75116
286.7472, 60.16215
287.2293, 60.78161
287.7114, 61.13239
288.1935, 61.21526
288.6757, 61.14905
289.1578, 60.88001
289.6399, 60.47788
290.1220, 60.30548
290.6041, 60.38441
291.0862, 60.68275
291.5684, 61.36522
292.0505, 62.36465
292.5326, 63.02908
293.0147, 62.78456
293.4968, 61.95472
293.9789, 61.53466
294.4611, 61.59148
294.9432, 61.82971
295.4253, 61.92012
295.9074, 61.90032
296.3895, 61.92855
296.8716, 62.06712
297.3538, 62.30075
297.8359, 62.61840
298.3180, 63.02577
298.8001, 63.45191
299.2822, 63.92573
299.7643, 64.38002
300.2465, 64.61844
300.7286, 64.34280
301.2107, 63.96733
301.6928, 64.09481
302.1749, 64.70200
302.6570, 65.45240
303.1392, 66.18145
303.6213, 66.85548
304.1034, 67.39273
304.5855, 67.72743
305.0676, 67.97574
305.5497, 68.20690
306.0319, 68.43844
306.5140, 68.77370
306.9961, 69.35511
307.4782, 70.04538
307.9603, 70.68006
308.4424, 71.17673
308.9246, 71.68281
309.4067, 72.31799
309.8888, 73.05237
310.3709, 73.81594
310.8530, 74.50213
311.3351, 75.23068
311.8173, 76.11463
312.2994, 77.21348
312.7815, 78.37085
313.2636, 79.61909
313.7457, 80.84315
314.2278, 81.84223
314.7100, 82.33814
315.1921, 82.71169
315.6742, 83.14172
316.1563, 83.62421
316.6384, 84.30201
317.1205, 85.30859
317.6027, 86.51706
318.0848, 87.76232
318.5669, 88.99290
319.0490, 90.25025
319.5311, 91.59325
320.0132, 93.03001
320.4954, 94.36248
320.9775, 95.36016
321.4596, 96.30312
321.9417, 97.41425
322.4238, 98.88579
322.9059, 100.3769
323.3881, 101.8099
323.8702, 103.1787
324.3523, 104.5809
324.8344, 106.0692
325.3165, 107.5674
325.7986, 109.0441
326.2808, 110.6774
326.7629, 112.0785
327.2450, 113.1203
327.7271, 113.8846
328.2092, 114.6978
328.6913, 115.6993
329.1735, 116.6292
329.6556, 117.4339
330.1377, 118.3351
330.6198, 118.6777
331.1019, 118.2587
331.5840, 117.3400
332.0662, 116.4019
332.5483, 115.4937
333.0304, 114.4852
333.5125, 113.3871
333.9946, 112.2295
334.4767, 110.7466
334.9589, 108.8550
335.4410, 106.7392
335.9231, 104.6422
336.4052, 102.6476
336.8873, 100.4772
337.3694, 97.93224
337.8516, 95.07438
338.3336, 92.88747
338.8158, 91.54880
339.2979, 90.50098
339.7800, 89.21129
340.2621, 87.64388
340.7442, 86.15504
341.2263, 84.81594
341.7085, 83.61494
342.1906, 82.62234
342.6727, 81.85696
343.1548, 81.12923
343.6369, 80.25454
344.1190, 79.25636
344.6012, 78.42337
345.0833, 77.82681
345.5654, 77.33872
346.0475, 76.74486
346.5296, 76.05154
347.0117, 75.31882
347.4939, 74.52943
347.9760, 73.72951
348.4581, 73.04650
348.9402, 72.48766
349.4223, 72.05164
349.9044, 71.81252
350.3866, 71.70570
350.8687, 71.50626
351.3508, 71.01292
351.8329, 70.41845
352.3150, 70.02636
352.7971, 69.83175
353.2793, 69.70848
353.7614, 69.61852
354.2435, 69.51823
354.7256, 69.32903
355.2077, 68.97400
355.6898, 68.59140
356.1720, 68.28207
356.6541, 68.04172
357.1362, 67.85171
357.6183, 67.72440
358.1004, 67.62722
358.5826, 67.51930
359.0647, 67.36344
359.5468, 67.27261
360.0289, 67.41891
360.5110, 67.66648
360.9931, 67.75680
361.4753, 67.35486
361.9574, 66.95605
362.4395, 66.85639
362.9216, 67.13832
363.4037, 67.35708
363.8858, 67.40139
364.3680, 67.30885
364.8501, 67.11826
365.3322, 66.52005
365.8143, 66.15326
366.2964, 66.26690
366.7785, 66.85288
367.2607, 67.37286
367.7428, 67.84577
368.2249, 68.19672
368.7070, 68.37595
369.1891, 68.19120
369.6712, 68.09245
370.1534, 68.14433
370.6355, 68.29166
371.1176, 68.34554
371.5997, 68.11946
372.0818, 68.03966
372.5639, 68.33701
373.0461, 69.22694
373.5282, 69.76699
374.0103, 69.83201
374.4924, 69.67296
374.9745, 69.66747
375.4566, 69.85448
375.9388, 70.07406
376.4209, 70.29027
376.9030, 70.50496
377.3851, 70.67630
377.8672, 70.78573
378.3493, 70.92241
378.8315, 71.18093
379.3136, 71.56663
379.7957, 71.99097
380.2778, 72.50129
380.7599, 72.98396
381.2420, 73.07907
381.7242, 72.78532
382.2063, 72.54599
382.6884, 72.71178
383.1705, 73.17613
383.6526, 73.55354
384.1347, 73.78349
384.6169, 74.01157
385.0990, 74.45141
385.5811, 75.04635
386.0632, 75.59599
386.5453, 75.97563
387.0274, 76.27168
387.5096, 76.57928
387.9917, 76.89930
388.4738, 77.24306
388.9559, 77.48521
389.4380, 77.78738
389.9201, 78.39638
390.4023, 79.71768
390.8844, 80.98462
391.3665, 81.57961
391.8486, 81.66407
392.3307, 81.80691
392.8128, 82.27584
393.2950, 82.90076
393.7771, 83.60695
394.2592, 84.45708
394.7413, 85.17688
395.2234, 85.48734
395.7055, 85.64281
396.1877, 86.03720
396.6698, 86.82600
397.1519, 87.79975
397.6340, 88.98227
398.1161, 90.41259
398.5982, 91.67405
399.0804, 92.46956
399.5625, 93.25301
400.0446, 94.35782
400.5267, 96.04163
401.0088, 97.68353
401.4909, 99.21500
401.9731, 100.6619
402.4552, 102.0720
402.9373, 103.3353
403.4194, 104.7439
403.9015, 106.4929
404.3836, 108.7187
404.8658, 110.7212
405.3479, 112.3942
405.8300, 113.9580
406.3121, 115.7268
406.7942, 117.6983
407.2763, 119.8800
407.7585, 122.2736
408.2406, 124.8882
408.7227, 127.7382
409.2048, 130.8225
409.6869, 134.0285
410.1690, 137.2430
410.6512, 140.4626
411.1333, 143.8015
411.6154, 147.2601
412.0975, 150.8937
412.5796, 154.8809
413.0617, 159.1836
413.5439, 163.6687
414.0260, 168.2428
414.5081, 173.0163
414.9902, 178.0156
415.4723, 183.2472
415.9544, 188.9504
416.4366, 195.2201
416.9187, 202.0650
417.4008, 209.4656
417.8829, 217.6590
418.3650, 226.2565
418.8471, 235.0292
419.3293, 243.9788
419.8114, 253.6286
420.2935, 263.7245
420.7756, 274.8715
421.2577, 287.3267
421.7398, 302.0067
422.2220, 316.6713
422.7041, 331.1501
423.1862, 345.3609
423.6683, 359.2087
424.1504, 372.8714
424.6325, 386.2090
425.1147, 398.9601
425.5968, 411.2254
426.0789, 423.4952
426.5610, 435.4953
427.0431, 447.7548
427.5252, 460.4724
428.0074, 473.2635
428.4895, 487.3677
428.9716, 502.6740
429.4537, 519.2612
429.9358, 537.3514
430.4179, 557.0715
430.9001, 577.6127
431.3822, 598.3508
431.8643, 619.2737
432.3464, 641.2682
432.8285, 664.5682
433.3106, 688.1822
433.7928, 711.5867
434.2749, 734.5650
434.7570, 755.3749
435.2391, 773.9308
435.7212, 789.6426
436.2033, 802.3655
436.6855, 811.7474
437.1676, 815.2751
437.6497, 812.1464
438.1318, 801.6990
438.6139, 782.6721
439.0960, 754.5356
439.5782, 719.0692
440.0603, 674.2106
440.5424, 623.1442
441.0245, 572.5847
441.5066, 521.1824
441.9887, 474.0078
442.4709, 434.1688
442.9530, 401.6758
443.4351, 373.9460
443.9172, 351.2324
444.3993, 332.3949
444.8814, 316.9835
445.3636, 306.0867
445.8457, 296.7816
446.3278, 288.7849
446.8099, 282.1527
447.2920, 276.8110
447.7741, 273.1301
448.2563, 270.2882
448.7384, 268.2757
449.2205, 267.1989
449.7026, 265.9095
450.1847, 264.1865
450.6668, 262.5533
451.1490, 261.5176
451.6311, 261.1771
452.1132, 261.0917
452.5953, 261.2915
453.0774, 261.6376
453.5595, 261.6894
454.0417, 261.4017
454.5238, 261.2353
455.0059, 261.5243
455.4880, 262.1722
455.9701, 262.6239
456.4522, 262.8121
456.9344, 263.1244
457.4165, 264.0668
457.8986, 265.4809
458.3807, 266.9226
458.8628, 268.4219
459.3449, 269.7086
459.8271, 270.2684
460.3092, 270.2773
460.7913, 270.5010
461.2734, 271.5460
461.7555, 272.9019
462.2376, 274.1922
462.7198, 275.3689
463.2019, 276.4012
463.6840, 277.1710
464.1661, 277.8093
464.6482, 278.4743
465.1303, 279.1628
465.6125, 279.9221
466.0946, 280.7956
466.5767, 281.7737
467.0588, 282.7103
467.5409, 283.7002
468.0230, 284.5562
468.5052, 285.1752
468.9873, 285.4319
469.4694, 285.7587
469.9515, 286.1180
470.4336, 286.5824
470.9157, 287.3227
471.3979, 288.4630
471.8800, 289.4455
472.3621, 290.0930
472.8442, 290.4742
473.3263, 290.9996
473.8084, 291.7104
474.2906, 292.2433
474.7727, 292.1045
475.2548, 291.4897
475.7369, 291.4594
476.2190, 292.2354
476.7011, 293.1336
477.1833, 293.2944
477.6654, 292.9097
478.1475, 292.5067
478.6296, 292.2987
479.1117, 292.1835
479.5938, 292.0641
480.0760, 291.9449
480.5581, 291.8553
481.0402, 291.9248
481.5223, 291.9644
482.0044, 291.7372
482.4865, 290.9725
482.9687, 290.5753
483.4508, 291.4514
483.9329, 292.7248
484.4150, 293.1379
484.8971, 291.3510
485.3792, 289.8652
485.8614, 289.5421
486.3435, 290.2624
486.8256, 290.2252
487.3077, 288.9984
487.7898, 287.5268
488.2719, 286.3385
488.7541, 285.6553
489.2362, 284.5444
489.7183, 282.7586
490.2004, 280.8631
490.6825, 279.7912
491.1646, 279.6307
491.6468, 279.3709
492.1289, 278.7358
492.6110, 277.7793
493.0931, 276.3901
493.5752, 274.5739
494.0573, 273.1405
494.5395, 272.7818
495.0216, 273.1927
495.5037, 273.7695
495.9858, 274.4417
496.4679, 275.2237
496.9500, 275.9375
497.4322, 276.7956
497.9143, 278.1394
498.3964, 280.0797
498.8785, 282.5665
499.3606, 285.3902
499.8427, 288.6923
500.3249, 292.9152
500.8070, 298.5801
501.2891, 304.9559
501.7712, 311.5526
502.2533, 318.0258
502.7354, 325.5187
503.2176, 334.3146
503.6997, 344.0302
504.1818, 354.2567
504.6639, 364.6026
505.1460, 376.1630
505.6281, 388.9912
506.1103, 403.1978
506.5924, 418.7559
507.0745, 435.6752
507.5566, 453.8804
508.0387, 473.1059
508.5208, 493.4006
509.0030, 515.9030
509.4851, 540.6487
509.9672, 567.3638
510.4493, 595.8463
510.9314, 626.0701
511.4135, 658.1784
511.8957, 692.1885
512.3778, 727.4802
512.8599, 763.8434
513.3420, 800.8875
513.8242, 837.2931
514.3063, 872.9262
514.7884, 907.8879
515.2705, 943.0637
515.7526, 978.4114
516.2347, 1009.925
516.7169, 1035.434
517.1990, 1056.760
517.6811, 1075.269
518.1632, 1091.292
518.6453, 1104.335
519.1274, 1113.747
519.6096, 1120.238
520.0917, 1124.897
520.5738, 1127.594
521.0559, 1128.589
521.5380, 1127.471
522.0201, 1124.395
522.5023, 1122.110
522.9844, 1120.826
523.4665, 1119.740
523.9486, 1118.417
524.4307, 1116.849
524.9128, 1114.795
525.3950, 1112.269
525.8771, 1109.227
526.3592, 1105.569
526.8413, 1101.352
527.3234, 1096.652
527.8055, 1091.503
528.2877, 1085.930
528.7698, 1080.148
529.2519, 1074.032
529.7340, 1066.847
530.2161, 1056.967
530.6982, 1046.709
531.1804, 1038.119
531.6625, 1032.118
532.1446, 1024.610
532.6267, 1012.798
533.1088, 999.6569
533.5909, 988.1190
534.0731, 980.0395
534.5552, 971.6483
535.0373, 962.4012
535.5194, 952.7323
536.0015, 943.2101
536.4836, 933.9075
536.9658, 924.7463
537.4479, 915.7391
537.9300, 906.9185
538.4121, 898.3537
538.8942, 890.1058
539.3763, 881.9900
539.8585, 873.8602
540.3406, 865.7208
540.8227, 857.5872
541.3048, 849.3077
541.7869, 841.2861
542.2690, 834.3583
542.7512, 828.0692
543.2333, 821.2675
543.7154, 812.6606
544.1975, 804.0334
544.6796, 797.1268
545.1617, 791.5382
545.6439, 785.7708
546.1260, 779.1145
546.6081, 772.0858
547.0902, 764.8746
547.5723, 757.4816
548.0544, 750.3393
548.5366, 743.8541
549.0187, 737.3873
549.5008, 730.3417
549.9829, 722.2901
550.4650, 714.4396
550.9471, 706.8684
551.4293, 699.5866
551.9114, 692.3792
552.3935, 685.1743
552.8756, 678.3841
553.3577, 672.0314
553.8398, 666.2215
554.3220, 661.5217
554.8041, 657.9311
555.2862, 655.0439
555.7683, 652.6494
556.2504, 650.6771
556.7325, 649.0547
557.2147, 647.8604
557.6968, 646.5230
558.1789, 644.0692
558.6610, 641.2724
559.1431, 639.2989
559.6252, 638.9590
560.1074, 639.1039
560.5895, 639.5660
561.0716, 640.2017
561.5537, 640.5352
562.0358, 640.6012
562.5179, 640.2133
563.0001, 639.0862
563.4822, 637.0895
563.9643, 635.8876
564.4464, 635.8765
564.9285, 636.1082
565.4106, 635.8425
565.8928, 634.9800
566.3749, 634.3870
566.8570, 634.3084
567.3391, 634.1169
567.8212, 632.8258
568.3033, 630.5085
568.7855, 627.7726
569.2676, 624.6783
569.7497, 621.3967
570.2318, 618.2971
570.7139, 615.2845
571.1960, 611.6868
571.6782, 607.3468
572.1603, 602.1353
572.6424, 595.8089
573.1245, 588.2376
573.6066, 580.5528
574.0887, 573.1961
574.5709, 565.8199
575.0530, 558.0897
575.5351, 549.9518
576.0172, 541.3453
576.4993, 532.3176
576.9814, 522.8021
577.4636, 512.8128
577.9457, 502.2842
578.4278, 491.4659
578.9099, 480.5007
579.3920, 469.4683
579.8741, 458.6871
580.3563, 448.2364
580.8384, 437.5738
581.3205, 426.3969
581.8026, 414.6641
582.2847, 402.6425
582.7668, 390.2768
583.2490, 378.1087
583.7311, 366.6660
584.2132, 355.7103
584.6953, 344.7132
585.1774, 333.3922
585.6595, 322.6152
586.1416, 313.0231
586.6237, 304.2483
587.1058, 295.5719
587.5880, 286.7642
588.0701, 278.1245
