##NAMES=Zincite
##RRUFFID=R050419
##IDEAL CHEMISTRY=Zn^2+^O
##LOCALITY=Sterling Hill, Sussex County, New Jersey, USA
##OWNER=RRUFF
##SOURCE=Marcus Origlieri
##DESCRIPTION=Deep red crystal associated with calcite
##STATUS=The identification of this mineral has been confirmed by X-ray diffraction and chemical analysis
##URL=rruff.info/R050419
##MEASURED CHEMISTRY=(Zn_0.99_Mn_0.01_)O
91.00781, 4.637146
91.48993, 4.690220
91.97205, 4.711586
92.45416, 4.719409
92.93628, 4.695216
93.41840, 4.568095
93.90051, 4.271788
94.38263, 3.964076
94.86475, 3.946271
95.34686, 4.215728
95.82898, 4.518831
96.31110, 4.639749
96.79321, 4.596109
97.27533, 4.567514
97.75745, 4.598682
98.23956, 4.674318
98.72168, 4.724813
99.20380, 4.740876
99.68591, 4.759268
100.1680, 4.809897
100.6501, 4.886607
101.1323, 5.024222
101.6144, 5.239135
102.0965, 5.535692
102.5786, 5.851928
103.0607, 6.177390
103.5428, 6.533875
104.0250, 6.993798
104.5071, 7.675234
104.9892, 8.253384
105.4713, 8.558551
105.9534, 8.326565
106.4355, 8.409314
106.9177, 9.001281
107.3998, 9.915785
107.8819, 10.57963
108.3640, 10.68691
108.8461, 10.78116
109.3282, 11.11769
109.8104, 11.89720
110.2925, 12.67913
110.7746, 13.53075
111.2567, 14.41399
111.7388, 15.06362
112.2209, 15.07416
112.7031, 15.03744
113.1852, 15.36375
113.6673, 16.48657
114.1494, 17.63848
114.6315, 18.63358
115.1136, 19.47052
115.5958, 20.24509
116.0779, 21.00651
116.5600, 21.71689
117.0421, 22.33122
117.5242, 22.66451
118.0063, 23.03017
118.4885, 23.60998
118.9706, 24.44160
119.4527, 25.36777
119.9348, 26.25433
120.4169, 27.17175
120.8990, 28.26611
121.3812, 30.02964
121.8633, 31.80213
122.3454, 32.92921
122.8275, 33.25327
123.3096, 33.09898
123.7917, 32.45581
124.2739, 31.47284
124.7560, 30.69725
125.2381, 30.60425
125.7202, 30.93309
126.2023, 31.21379
126.6844, 31.24085
127.1666, 31.31119
127.6487, 32.02770
128.1308, 33.34739
128.6129, 34.52231
129.0950, 34.47404
129.5771, 33.65804
130.0593, 33.83159
130.5414, 36.26456
131.0235, 39.71880
131.5056, 40.68551
131.9877, 38.81291
132.4698, 36.06535
132.9520, 34.58623
133.4341, 34.31277
133.9162, 34.42249
134.3983, 34.73642
134.8804, 35.22575
135.3625, 35.66336
135.8447, 36.00848
136.3268, 36.40692
136.8089, 37.16284
137.2910, 38.36683
137.7731, 39.40986
138.2552, 40.19780
138.7374, 40.80412
139.2195, 40.47011
139.7016, 38.85659
140.1837, 36.63559
140.6658, 35.26337
141.1479, 34.98259
141.6301, 34.92770
142.1122, 34.65897
142.5943, 33.96325
143.0764, 33.26301
143.5585, 33.75297
144.0406, 34.03352
144.5228, 34.11591
145.0049, 33.40662
145.4870, 33.71962
145.9691, 33.62293
146.4512, 33.50944
146.9333, 33.96632
147.4155, 33.37218
147.8976, 33.82002
148.3797, 33.85191
148.8618, 34.07418
149.3439, 33.88422
149.8260, 33.82159
150.3082, 33.44456
150.7903, 33.88967
151.2724, 34.12537
151.7545, 34.16290
152.2366, 33.40876
152.7188, 33.67690
153.2009, 33.53536
153.6830, 33.37702
154.1651, 33.78905
154.6472, 33.15005
155.1293, 33.55304
155.6115, 33.54007
156.0936, 33.71748
156.5757, 33.48267
157.0578, 33.37519
157.5399, 33.68005
158.0220, 33.75659
158.5042, 33.47432
158.9863, 33.66383
159.4684, 33.01044
159.9505, 33.01553
160.4326, 33.12209
160.9147, 33.37435
161.3969, 33.55541
161.8790, 33.59958
162.3611, 33.54822
162.8432, 33.41001
163.3253, 33.16798
163.8074, 32.90147
164.2896, 32.60411
164.7717, 32.30673
165.2538, 32.07155
165.7359, 31.96374
166.2180, 31.90589
166.7001, 31.83722
167.1823, 31.73584
167.6644, 31.64736
168.1465, 31.62663
168.6286, 31.64687
169.1107, 31.63313
169.5928, 31.49443
170.0750, 31.32185
170.5571, 31.21108
171.0392, 31.20492
171.5213, 31.23245
172.0034, 31.24534
172.4855, 31.24502
172.9677, 31.23671
173.4498, 31.21326
173.9319, 31.18675
174.4140, 31.18362
174.8961, 31.26039
175.3782, 31.30617
175.8604, 31.13624
176.3425, 30.77840
176.8246, 30.47245
177.3067, 30.44546
177.7888, 30.59516
178.2709, 30.71744
178.7531, 30.76984
179.2352, 30.75189
179.7173, 30.64771
180.1994, 30.45924
180.6815, 30.23665
181.1636, 30.00107
181.6458, 29.76291
182.1279, 29.56195
182.6100, 29.41793
183.0921, 29.31449
183.5742, 29.20268
184.0563, 29.08195
184.5385, 28.99932
185.0206, 29.03749
185.5027, 29.17034
185.9848, 29.27264
186.4669, 29.31776
186.9490, 29.29885
187.4312, 29.15033
187.9133, 28.85282
188.3954, 28.57121
188.8775, 28.53350
189.3596, 28.71597
189.8417, 28.89681
190.3239, 28.99909
190.8060, 29.03140
191.2881, 29.01987
191.7702, 28.95691
192.2523, 28.88174
192.7344, 28.85446
193.2166, 28.87532
193.6987, 28.87607
194.1808, 28.80956
194.6629, 28.68547
195.1450, 28.61795
195.6271, 28.61557
196.1093, 28.64767
196.5914, 28.67808
197.0735, 28.70782
197.5556, 28.72215
198.0377, 28.68015
198.5198, 28.58007
199.0020, 28.62593
199.4841, 28.86168
199.9662, 29.16532
200.4483, 29.35167
200.9304, 29.41387
201.4125, 29.40078
201.8947, 29.31350
202.3768, 29.14477
202.8589, 28.97444
203.3410, 28.76486
203.8231, 28.60351
204.3052, 28.71252
204.7874, 29.17053
205.2695, 29.57067
205.7516, 29.71012
206.2337, 29.55032
206.7158, 29.38431
207.1979, 29.19454
207.6801, 29.01899
208.1622, 28.95274
208.6443, 29.02675
209.1264, 29.11229
209.6085, 29.14511
210.0906, 29.10781
210.5728, 29.09914
211.0549, 29.12793
211.5370, 29.18085
212.0191, 29.22686
212.5012, 29.26294
212.9833, 29.30116
213.4655, 29.36150
213.9476, 29.47380
214.4297, 29.48548
214.9118, 29.33193
215.3939, 29.10839
215.8760, 29.07832
216.3581, 29.35151
216.8403, 29.59230
217.3224, 29.58915
217.8045, 29.17896
218.2866, 29.04618
218.7687, 29.31108
219.2508, 29.82125
219.7330, 30.16262
220.2151, 30.29031
220.6972, 30.33013
221.1793, 30.33316
221.6614, 30.28919
222.1435, 30.22548
222.6257, 30.10003
223.1078, 29.96738
223.5899, 29.99400
224.0720, 30.27560
224.5541, 30.56414
225.0362, 30.75082
225.5184, 30.80749
226.0005, 30.82453
226.4826, 30.77676
226.9647, 30.69848
227.4468, 30.68871
227.9289, 30.78312
228.4111, 30.89293
228.8932, 30.97543
229.3753, 31.00897
229.8574, 31.07099
230.3395, 31.18544
230.8216, 31.32340
231.3038, 31.39762
231.7859, 31.34997
232.2680, 31.32290
232.7501, 31.38221
233.2322, 31.55765
233.7143, 31.75895
234.1965, 32.03672
234.6786, 32.33027
235.1607, 32.45588
235.6428, 32.28695
236.1249, 32.13317
236.6070, 32.13409
237.0892, 32.35231
237.5713, 32.59165
238.0534, 32.88134
238.5355, 33.18407
239.0176, 33.40491
239.4997, 33.53761
239.9819, 33.60007
240.4640, 33.58001
240.9461, 33.39172
241.4282, 33.32702
241.9103, 33.42299
242.3924, 33.63091
242.8746, 33.83994
243.3567, 34.06309
243.8388, 34.26901
244.3209, 34.46783
244.8030, 34.73285
245.2851, 34.77417
245.7673, 34.46133
246.2494, 33.97866
246.7315, 33.73459
247.2136, 33.84916
247.6957, 34.01175
248.1778, 34.09789
248.6600, 34.05990
249.1421, 34.09768
249.6242, 34.27071
250.1063, 34.48809
250.5884, 34.56961
251.0705, 34.46858
251.5527, 34.30889
252.0348, 34.12042
252.5169, 33.87449
252.9990, 33.69818
253.4811, 33.60098
253.9632, 33.56499
254.4454, 33.57766
254.9275, 33.70514
255.4096, 33.75235
255.8917, 33.60912
256.3738, 33.19118
256.8560, 33.00527
257.3381, 33.20090
257.8202, 33.50166
258.3023, 33.45269
258.7844, 32.87923
259.2665, 32.34142
259.7487, 32.04339
260.2308, 32.04287
260.7129, 31.87687
261.1950, 31.47515
261.6771, 30.98604
262.1592, 30.62401
262.6414, 30.45622
263.1235, 30.24863
263.6056, 29.89848
264.0877, 29.38117
264.5698, 29.07857
265.0519, 29.09412
265.5341, 29.18368
266.0162, 29.01323
266.4983, 28.45062
266.9804, 28.05056
267.4625, 28.02494
267.9446, 28.36487
268.4268, 28.42769
268.9089, 28.13031
269.3910, 27.70138
269.8731, 27.35257
270.3552, 27.08705
270.8373, 26.90705
271.3195, 26.85442
271.8016, 26.90606
272.2837, 26.80040
272.7658, 26.48976
273.2479, 26.12480
273.7300, 25.80436
274.2122, 25.51083
274.6943, 25.38832
275.1764, 25.52680
275.6585, 25.86026
276.1406, 26.03168
276.6227, 26.01261
277.1049, 25.92672
277.5870, 25.86785
278.0691, 25.83882
278.5512, 25.80292
279.0333, 25.74610
279.5154, 25.68268
279.9976, 25.65688
280.4797, 25.66842
280.9618, 25.71914
281.4439, 25.86175
281.9260, 26.09747
282.4081, 26.16818
282.8903, 25.99341
283.3724, 25.68760
283.8545, 25.51835
284.3366, 25.49241
284.8187, 25.53105
285.3008, 25.61365
285.7830, 25.73368
286.2651, 25.79088
286.7472, 25.75297
287.2293, 25.69426
287.7114, 25.77824
288.1935, 26.00344
288.6757, 26.20687
289.1578, 26.22443
289.6399, 26.11658
290.1220, 26.25031
290.6041, 26.71252
291.0862, 27.20175
291.5684, 27.22550
292.0505, 26.82811
292.5326, 26.43259
293.0147, 26.23609
293.4968, 26.19937
293.9789, 26.21566
294.4611, 26.28861
294.9432, 26.37512
295.4253, 26.42462
295.9074, 26.44425
296.3895, 26.46332
296.8716, 26.51882
297.3538, 26.57696
297.8359, 26.53314
298.3180, 26.38059
298.8001, 26.26800
299.2822, 26.33842
299.7643, 26.55873
300.2465, 26.84922
300.7286, 27.29776
301.2107, 27.72334
301.6928, 27.81418
302.1749, 27.58977
302.6570, 27.35981
303.1392, 27.39557
303.6213, 27.58958
304.1034, 27.75179
304.5855, 27.78945
305.0676, 27.82116
305.5497, 28.01216
306.0319, 28.32736
306.5140, 28.59401
306.9961, 28.62315
307.4782, 28.56446
307.9603, 28.60450
308.4424, 28.82410
308.9246, 29.07843
309.4067, 29.27346
309.8888, 29.41463
310.3709, 29.52100
310.8530, 29.52990
311.3351, 29.54684
311.8173, 29.67044
312.2994, 29.94074
312.7815, 30.24668
313.2636, 30.60993
313.7457, 30.95472
314.2278, 31.14485
314.7100, 30.88904
315.1921, 30.62790
315.6742, 30.64587
316.1563, 31.00416
316.6384, 31.43229
317.1205, 31.92597
317.6027, 32.38787
318.0848, 32.69103
318.5669, 32.68100
319.0490, 32.60726
319.5311, 32.51230
320.0132, 32.39400
320.4954, 32.43045
320.9775, 32.80063
321.4596, 33.28428
321.9417, 33.68952
322.4238, 33.89111
322.9059, 34.10025
323.3881, 34.35784
323.8702, 34.66179
324.3523, 35.00025
324.8344, 35.48461
325.3165, 35.92863
325.7986, 36.22704
326.2808, 36.20111
326.7629, 36.23098
327.2450, 36.42065
327.7271, 36.70530
328.2092, 36.82684
328.6913, 36.52336
329.1735, 36.28630
329.6556, 36.33455
330.1377, 36.96935
330.6198, 37.31468
331.1019, 37.27419
331.5840, 36.97201
332.0662, 36.62448
332.5483, 36.14213
333.0304, 35.74288
333.5125, 35.54871
333.9946, 35.63712
334.4767, 35.49219
334.9589, 35.00683
335.4410, 34.39511
335.9231, 33.93196
336.4052, 33.67735
336.8873, 33.42147
337.3694, 33.09575
337.8516, 32.71111
338.3336, 32.46109
338.8158, 32.40187
339.2979, 32.35855
339.7800, 32.11585
340.2621, 31.62030
340.7442, 31.33990
341.2263, 31.44783
341.7085, 31.78461
342.1906, 31.77124
342.6727, 31.35842
343.1548, 30.90439
343.6369, 30.65425
344.1190, 30.59811
344.6012, 30.54813
345.0833, 30.49020
345.5654, 30.41976
346.0475, 30.29628
346.5296, 30.12696
347.0117, 30.02538
347.4939, 30.12923
347.9760, 30.35488
348.4581, 30.40497
348.9402, 30.23907
349.4223, 30.04848
349.9044, 30.06586
350.3866, 30.24243
350.8687, 30.40995
351.3508, 30.49214
351.8329, 30.52904
352.3150, 30.60436
352.7971, 30.71552
353.2793, 30.77015
353.7614, 30.48603
354.2435, 29.66652
354.7256, 30.18885
355.2077, 30.47240
355.6898, 30.53000
356.1720, 29.68490
356.6541, 30.00545
357.1362, 29.85886
357.6183, 29.69312
358.1004, 30.17773
358.5826, 29.87261
359.0647, 29.89294
359.5468, 29.95765
360.0289, 30.03642
360.5110, 30.13745
360.9931, 30.27702
361.4753, 30.61566
361.9574, 30.86998
362.4395, 30.81392
362.9216, 30.35302
363.4037, 29.64278
363.8858, 30.24685
364.3680, 30.61215
364.8501, 30.75148
365.3322, 29.98813
365.8143, 30.39041
366.2964, 30.32556
366.7785, 30.24155
367.2607, 30.80791
367.7428, 30.17585
368.2249, 30.83187
368.7070, 31.04451
369.1891, 31.27170
369.6712, 31.41682
370.1534, 31.40721
370.6355, 31.31146
371.1176, 31.35647
371.5997, 31.68904
372.0818, 31.97080
372.5639, 32.03278
373.0461, 31.74357
373.5282, 31.67970
374.0103, 31.93112
374.4924, 32.32115
374.9745, 32.58810
375.4566, 32.72012
375.9388, 32.76945
376.4209, 32.73027
376.9030, 32.60895
377.3851, 32.50700
377.8672, 32.41630
378.3493, 32.36787
378.8315, 32.38027
379.3136, 32.45361
379.7957, 32.64347
380.2778, 33.01933
380.7599, 33.46137
381.2420, 33.64079
381.7242, 33.55488
382.2063, 33.48099
382.6884, 33.62905
383.1705, 33.94015
383.6526, 34.20865
384.1347, 34.41015
384.6169, 34.58284
385.0990, 34.76517
385.5811, 34.95406
386.0632, 35.13245
386.5453, 35.27639
387.0274, 35.41296
387.5096, 35.59252
387.9917, 35.81404
388.4738, 36.00890
388.9559, 36.04370
389.4380, 36.03905
389.9201, 36.15799
390.4023, 36.49700
390.8844, 36.92278
391.3665, 37.45684
391.8486, 38.03792
392.3307, 38.42007
392.8128, 38.22202
393.2950, 37.95841
393.7771, 38.00511
394.2592, 38.54197
394.7413, 39.06213
395.2234, 39.37689
395.7055, 39.57578
396.1877, 39.79754
396.6698, 40.12886
397.1519, 40.43335
397.6340, 40.58857
398.1161, 40.54269
398.5982, 40.80587
399.0804, 41.78474
399.5625, 42.85923
400.0446, 43.57673
400.5267, 43.66700
401.0088, 43.79195
401.4909, 43.95624
401.9731, 44.19123
402.4552, 44.63624
402.9373, 45.37176
403.4194, 46.18695
403.9015, 46.99212
404.3836, 47.78889
404.8658, 48.56574
405.3479, 49.30188
405.8300, 50.03446
406.3121, 50.81004
406.7942, 51.62014
407.2763, 52.53149
407.7585, 53.59132
408.2406, 54.77687
408.7227, 55.96288
409.2048, 57.15357
409.6869, 58.26536
410.1690, 59.11477
410.6512, 59.77562
411.1333, 60.65622
411.6154, 61.86637
412.0975, 63.27090
412.5796, 64.75868
413.0617, 66.30331
413.5439, 67.79823
414.0260, 69.05421
414.5081, 70.29137
414.9902, 71.80700
415.4723, 73.63860
415.9544, 75.65965
416.4366, 77.78920
416.9187, 80.02335
417.4008, 82.34612
417.8829, 84.95683
418.3650, 87.49837
418.8471, 89.68919
419.3293, 91.58407
419.8114, 93.64010
420.2935, 95.99438
420.7756, 98.60645
421.2577, 101.4251
421.7398, 104.6713
422.2220, 107.7657
422.7041, 110.5861
423.1862, 113.1963
423.6683, 115.7235
424.1504, 118.1069
424.6325, 120.5263
425.1147, 122.9556
425.5968, 125.4000
426.0789, 128.1028
426.5610, 131.2209
427.0431, 134.4565
427.5252, 137.4945
428.0074, 140.0922
428.4895, 143.0835
428.9716, 146.6706
429.4537, 150.6289
429.9358, 154.1351
430.4179, 157.0222
430.9001, 160.0055
431.3822, 163.5315
431.8643, 167.6128
432.3464, 171.3551
432.8285, 174.7383
433.3106, 177.8426
433.7928, 180.8961
434.2749, 183.8396
434.7570, 186.1770
435.2391, 187.7736
435.7212, 188.6588
436.2033, 189.0195
436.6855, 188.8121
437.1676, 187.6101
437.6497, 184.7898
438.1318, 180.8744
438.6139, 176.6056
439.0960, 172.0609
439.5782, 167.3234
440.0603, 162.0876
440.5424, 156.7161
441.0245, 151.9672
441.5066, 148.0879
441.9887, 144.9242
442.4709, 142.6120
442.9530, 141.1134
443.4351, 139.6172
443.9172, 137.4282
444.3993, 135.3632
444.8814, 134.0547
445.3636, 134.0790
445.8457, 134.2053
446.3278, 134.2837
446.8099, 134.3483
447.2920, 134.4904
447.7741, 134.8783
448.2563, 135.1550
448.7384, 135.1146
449.2205, 134.6584
449.7026, 134.7143
450.1847, 135.5508
450.6668, 136.5624
451.1490, 137.1394
451.6311, 137.1223
452.1132, 137.3122
452.5953, 137.8794
453.0774, 138.6883
453.5595, 139.4111
454.0417, 140.0436
454.5238, 140.6482
455.0059, 141.2783
455.4880, 141.9146
455.9701, 142.4677
456.4522, 142.9171
456.9344, 143.3775
457.4165, 143.9949
457.8986, 144.7275
458.3807, 145.4441
458.8628, 146.1322
459.3449, 146.7618
459.8271, 147.2323
460.3092, 147.5948
460.7913, 148.0746
461.2734, 148.9134
461.7555, 149.8582
462.2376, 150.7502
462.7198, 151.5935
463.2019, 152.2170
463.6840, 152.3213
464.1661, 152.2255
464.6482, 152.3153
465.1303, 152.8691
465.6125, 153.4300
466.0946, 153.8334
466.5767, 154.1075
467.0588, 154.5085
467.5409, 155.2433
468.0230, 155.9435
468.5052, 156.4148
468.9873, 156.4514
469.4694, 156.8017
469.9515, 157.6531
470.4336, 158.6561
470.9157, 159.3279
471.3979, 159.6131
471.8800, 159.7349
472.3621, 159.6885
472.8442, 159.5300
473.3263, 159.5760
473.8084, 159.8609
474.2906, 160.0815
474.7727, 159.9438
475.2548, 159.5287
475.7369, 159.1979
476.2190, 158.9632
476.7011, 158.9082
477.1833, 159.3056
477.6654, 159.9817
478.1475, 160.4599
478.6296, 160.4897
479.1117, 160.2637
479.5938, 159.8991
480.0760, 159.4169
480.5581, 158.9699
481.0402, 158.5492
481.5223, 158.2533
482.0044, 158.2255
482.4865, 158.6634
482.9687, 158.9038
483.4508, 158.4249
483.9329, 157.6913
484.4150, 157.3698
484.8971, 158.1624
485.3792, 158.7583
485.8614, 158.8465
486.3435, 158.4530
486.8256, 157.8811
487.3077, 156.9676
487.7898, 156.0760
488.2719, 155.3793
488.7541, 154.8800
489.2362, 154.6712
489.7183, 154.9444
490.2004, 155.2543
490.6825, 154.7853
491.1646, 153.4313
491.6468, 152.3610
492.1289, 151.9809
492.6110, 152.0865
493.0931, 152.0614
493.5752, 151.9079
494.0573, 151.8062
494.5395, 151.9071
495.0216, 152.1481
495.5037, 152.3204
495.9858, 152.3341
496.4679, 152.6398
496.9500, 153.6304
497.4322, 155.1959
497.9143, 157.1387
498.3964, 159.4064
498.8785, 162.0088
499.3606, 165.0012
499.8427, 168.3709
500.3249, 171.8455
500.8070, 175.0470
501.2891, 178.5903
501.7712, 182.8278
502.2533, 188.0044
502.7354, 193.2381
503.2176, 198.0382
503.6997, 203.0587
504.1818, 208.9784
504.6639, 216.0256
505.1460, 223.5125
505.6281, 231.1315
506.1103, 239.1685
506.5924, 248.4723
507.0745, 259.1145
507.5566, 270.7511
508.0387, 283.2758
508.5208, 296.6748
509.0030, 310.6291
509.4851, 325.0614
509.9672, 340.4609
510.4493, 357.7595
510.9314, 376.5273
511.4135, 395.3892
511.8957, 413.7988
512.3778, 432.1409
512.8599, 450.9546
513.3420, 470.0361
513.8242, 488.6975
514.3063, 507.1427
514.7884, 524.9507
515.2705, 542.0773
515.7526, 558.4698
516.2347, 572.8689
516.7169, 584.0472
517.1990, 593.4305
517.6811, 602.1059
518.1632, 610.8064
518.6453, 618.0334
519.1274, 623.3369
519.6096, 627.1212
520.0917, 629.9775
520.5738, 631.5927
521.0559, 632.7734
521.5380, 633.7048
522.0201, 634.3810
522.5023, 634.6453
522.9844, 634.4219
523.4665, 634.0130
523.9486, 633.7305
524.4307, 633.5502
524.9128, 632.9092
525.3950, 631.7685
525.8771, 630.1713
526.3592, 628.0798
526.8413, 625.5660
527.3234, 622.8121
527.8055, 619.8585
528.2877, 616.7556
528.7698, 613.6693
529.2519, 610.5224
529.7340, 606.8748
530.2161, 602.1660
530.6982, 597.0883
531.1804, 592.1288
531.6625, 587.5168
532.1446, 582.5576
532.6267, 576.9338
533.1088, 570.9528
533.5909, 564.9871
534.0731, 558.6222
534.5552, 552.8132
535.0373, 547.8857
535.5194, 543.5303
536.0015, 538.6558
536.4836, 533.0262
536.9658, 527.4184
537.4479, 522.0468
537.9300, 516.9374
538.4121, 512.4684
538.8942, 508.8174
539.3763, 505.1259
539.8585, 500.5357
540.3406, 495.2083
540.8227, 490.0576
541.3048, 485.1131
541.7869, 480.4901
542.2690, 476.5723
542.7512, 473.0813
543.2333, 469.3161
543.7154, 464.7019
544.1975, 459.9357
544.6796, 455.7239
545.1617, 451.8848
545.6439, 447.7838
546.1260, 442.6134
546.6081, 437.4848
547.0902, 433.1349
547.5723, 429.9203
548.0544, 426.5080
548.5366, 422.5460
549.0187, 418.3709
549.5008, 414.2755
549.9829, 410.3662
550.4650, 406.3244
550.9471, 401.9718
551.4293, 397.5640
551.9114, 393.6392
552.3935, 390.2772
552.8756, 386.9976
553.3577, 383.4297
553.8398, 379.7968
554.3220, 377.2412
554.8041, 375.7776
555.2862, 374.7393
555.7683, 373.6964
556.2504, 372.6725
556.7325, 371.6623
557.2147, 370.6411
557.6968, 369.7662
558.1789, 369.2065
558.6610, 368.8657
559.1431, 368.6075
559.6252, 368.5353
560.1074, 368.3755
560.5895, 367.9694
561.0716, 367.3759
561.5537, 366.8056
562.0358, 366.2425
562.5179, 365.7570
563.0001, 365.3966
563.4822, 365.1772
563.9643, 364.9473
564.4464, 364.8041
564.9285, 364.5164
565.4106, 363.8494
565.8928, 362.7252
566.3749, 361.8120
566.8570, 361.3000
567.3391, 360.6895
567.8212, 358.9980
568.3033, 356.3712
568.7855, 354.0400
569.2676, 352.6998
569.7497, 351.5713
570.2318, 349.3236
570.7139, 346.1950
571.1960, 343.0420
571.6782, 340.9875
572.1603, 338.7314
572.6424, 334.9850
573.1245, 329.5064
573.6066, 324.2855
574.0887, 320.6034
574.5709, 317.1255
575.0530, 312.7642
575.5351, 306.5526
576.0172, 300.5772
576.4993, 295.0977
576.9814, 289.7827
577.4636, 284.2299
577.9457, 278.5099
578.4278, 272.3440
578.9099, 265.5882
579.3920, 258.4804
579.8741, 251.9992
580.3563, 246.2271
580.8384, 240.3361
581.3205, 233.7578
581.8026, 226.6282
582.2847, 219.5944
582.7668, 212.6421
583.2490, 205.8498
583.7311, 198.9718
584.2132, 192.4346
584.6953, 186.8974
585.1774, 183.1490
585.6595, 179.0067
586.1416, 172.6538
586.6237, 165.3733
587.1058, 159.0053
587.5880, 154.9197
588.0701, 150.7692
