##NAMES=Zincite
##RRUFFID=R050419
##IDEAL CHEMISTRY=Zn^2+^O
##LOCALITY=Sterling Hill, Sussex County, New Jersey, USA
##OWNER=RRUFF
##SOURCE=Marcus Origlieri
##DESCRIPTION=Deep red crystal associated with calcite
##STATUS=The identification of this mineral has been confirmed by X-ray diffraction and chemical analysis
##URL=rruff.info/R050419
##MEASURED CHEMISTRY=(Zn_0.99_Mn_0.01_)O
93.78320, 175.0932
94.26532, 165.2648
94.74744, 162.9582
95.22955, 167.8595
95.71167, 181.6075
96.19379, 206.8186
96.67590, 244.4207
97.15802, 288.0093
97.64014, 358.3008
98.12225, 431.7361
98.60437, 464.5889
99.08649, 436.6904
99.56860, 370.4455
100.0507, 300.8221
100.5328, 223.3948
101.0150, 155.1069
101.4971, 110.0420
101.9792, 88.02864
102.4613, 73.83260
102.9434, 66.34441
103.4255, 62.00340
103.9077, 58.73999
104.3898, 56.01519
104.8719, 53.83150
105.3540, 52.24430
105.8361, 51.49413
106.3182, 50.95276
106.8004, 50.72367
107.2825, 50.51075
107.7646, 49.91766
108.2467, 48.66046
108.7288, 46.80869
109.2109, 45.33033
109.6931, 44.39632
110.1752, 43.63668
110.6573, 43.00905
111.1394, 42.48375
111.6215, 42.02343
112.1036, 41.59869
112.5858, 41.20822
113.0679, 40.88638
113.5500, 40.60522
114.0321, 40.40171
114.5142, 40.33563
114.9964, 40.41567
115.4785, 40.53257
115.9606, 40.54413
116.4427, 40.45661
116.9248, 40.41426
117.4069, 40.54926
117.8891, 40.74554
118.3712, 40.73249
118.8533, 40.35452
119.3354, 39.91366
119.8175, 39.68510
120.2996, 39.65369
120.7818, 39.70763
121.2639, 39.79933
121.7460, 39.93171
122.2281, 40.01831
122.7102, 40.10060
123.1923, 40.08462
123.6745, 39.85313
124.1566, 39.40161
124.6387, 38.90064
125.1208, 38.61049
125.6029, 38.66906
126.0850, 38.65342
126.5672, 38.43681
127.0493, 38.19430
127.5314, 38.10042
128.0135, 38.21957
128.4956, 38.44731
128.9777, 38.48980
129.4599, 38.03852
129.9420, 37.73665
130.4241, 37.78566
130.9062, 37.98869
131.3883, 38.03053
131.8705, 37.71545
132.3526, 37.13029
132.8347, 36.76996
133.3168, 36.72146
133.7989, 36.74976
134.2810, 36.78597
134.7632, 36.82551
135.2453, 36.85961
135.7274, 36.90752
136.2095, 36.93530
136.6916, 36.85527
137.1737, 36.58356
137.6559, 36.24954
138.1380, 35.96360
138.6201, 35.71972
139.1022, 35.55292
139.5843, 35.52018
140.0664, 35.57194
140.5486, 35.65652
141.0307, 35.80627
141.5128, 35.96704
141.9949, 35.95606
142.4770, 35.63927
142.9591, 35.34446
143.4413, 35.21962
143.9234, 35.21439
144.4055, 35.23235
144.8876, 35.20003
145.3697, 35.11682
145.8518, 35.08642
146.3340, 35.22315
146.8161, 35.31332
147.2982, 35.26136
147.7803, 35.09482
148.2624, 34.90757
148.7445, 34.79065
149.2267, 34.76033
149.7088, 34.74260
150.1909, 34.73692
150.6730, 34.74058
151.1551, 34.75303
151.6372, 34.77376
152.1194, 34.80431
152.6015, 34.85529
153.0836, 34.96309
153.5657, 34.96687
154.0478, 34.78099
154.5299, 34.53200
155.0121, 34.34188
155.4942, 34.24194
155.9763, 34.19538
156.4584, 34.15429
156.9405, 34.11542
157.4227, 34.09596
157.9048, 34.12288
158.3869, 34.17155
158.8690, 34.18723
159.3511, 34.14685
159.8332, 34.08116
160.3154, 34.00199
160.7975, 33.90326
161.2796, 33.87852
161.7617, 34.06633
162.2438, 34.44207
162.7259, 34.66296
163.2081, 34.53982
163.6902, 34.31279
164.1723, 34.14980
164.6544, 34.06652
165.1365, 34.02375
165.6186, 33.97539
166.1008, 33.91228
166.5829, 33.88807
167.0650, 33.97130
167.5471, 34.05740
168.0292, 34.07760
168.5113, 34.01561
168.9935, 33.90861
169.4756, 33.81992
169.9577, 33.77402
170.4398, 33.69693
170.9219, 33.50869
171.4040, 33.33119
171.8862, 33.28493
172.3683, 33.41068
172.8504, 33.63342
173.3325, 33.77573
173.8146, 33.72233
174.2967, 33.71932
174.7789, 33.84213
175.2610, 33.99642
175.7431, 34.06222
176.2252, 33.98306
176.7073, 33.80502
177.1894, 33.67944
177.6716, 33.61724
178.1537, 33.58506
178.6358, 33.55564
179.1179, 33.55252
179.6000, 33.64478
180.0821, 33.89820
180.5643, 34.22554
181.0464, 34.35500
181.5285, 34.19978
182.0106, 34.01664
182.4927, 33.91858
182.9749, 33.89331
183.4570, 33.89384
183.9391, 33.93138
184.4212, 33.95508
184.9033, 33.86438
185.3854, 33.58765
185.8676, 33.31219
186.3497, 33.21383
186.8318, 33.29785
187.3139, 33.37318
187.7960, 33.33213
188.2781, 33.24675
188.7603, 33.19535
189.2424, 33.19838
189.7245, 33.22612
190.2066, 33.24141
190.6887, 33.24089
191.1708, 33.23980
191.6530, 33.23271
192.1351, 33.23211
192.6172, 33.25107
193.0993, 33.29515
193.5814, 33.35661
194.0635, 33.42482
194.5457, 33.51723
195.0278, 33.57842
195.5099, 33.59472
195.9920, 33.58162
196.4741, 33.54566
196.9562, 33.48797
197.4384, 33.42430
197.9205, 33.39479
198.4026, 33.35365
198.8847, 33.42594
199.3668, 33.79736
199.8489, 34.22484
200.3311, 34.40904
200.8132, 34.19309
201.2953, 33.68966
201.7774, 33.34743
202.2595, 33.28089
202.7416, 33.26290
203.2238, 33.29127
203.7059, 33.35086
204.1880, 33.43748
204.6701, 33.55333
205.1522, 33.67725
205.6344, 33.70899
206.1165, 33.53927
206.5986, 33.41286
207.0807, 33.41767
207.5628, 33.49979
208.0449, 33.55608
208.5271, 33.53009
209.0092, 33.44314
209.4913, 33.38386
209.9734, 33.38762
210.4555, 33.37147
210.9376, 33.29245
211.4198, 33.16864
211.9019, 33.05078
212.3840, 32.96994
212.8661, 32.90755
213.3482, 32.81146
213.8303, 32.66609
214.3125, 32.51625
214.7946, 32.38311
215.2767, 32.26575
215.7588, 32.16234
216.2409, 32.07188
216.7230, 31.99695
217.2052, 31.93995
217.6873, 31.91375
218.1694, 31.87875
218.6515, 31.79222
219.1336, 31.65641
219.6157, 31.53554
220.0979, 31.42213
220.5800, 31.36209
221.0621, 31.43731
221.5442, 31.69545
222.0263, 31.93007
222.5084, 31.87130
222.9906, 31.47959
223.4727, 31.22843
223.9548, 31.44868
224.4369, 31.75982
224.9190, 31.87399
225.4011, 31.73299
225.8833, 31.50051
226.3654, 31.37240
226.8475, 31.37584
227.3296, 31.35466
227.8117, 31.22389
228.2938, 31.09195
228.7760, 31.05111
229.2581, 31.11452
229.7402, 31.18574
230.2223, 31.10727
230.7044, 30.79344
231.1866, 30.60627
231.6687, 30.65583
232.1508, 30.78192
232.6329, 30.93617
233.1150, 31.09071
233.5971, 31.18220
234.0793, 31.08737
234.5614, 30.66040
235.0435, 30.41444
235.5256, 30.46723
236.0077, 30.59634
236.4898, 30.68172
236.9720, 30.69533
237.4541, 30.66990
237.9362, 30.64618
238.4183, 30.61943
238.9004, 30.60800
239.3825, 30.66800
239.8647, 30.70003
240.3468, 30.62124
240.8289, 30.43065
241.3110, 30.20258
241.7931, 30.01868
242.2752, 29.86434
242.7574, 29.82238
243.2395, 29.95776
243.7216, 30.13808
244.2037, 30.32315
244.6858, 30.48634
245.1679, 30.56566
245.6501, 30.48052
246.1322, 30.17551
246.6143, 29.91512
247.0964, 29.67927
247.5785, 29.49596
248.0606, 29.41652
248.5428, 29.42969
249.0249, 29.44018
249.5070, 29.34826
249.9891, 29.13082
250.4712, 28.97616
250.9533, 28.91662
251.4355, 28.88995
251.9176, 28.87516
252.3997, 28.86319
252.8818, 28.81536
253.3639, 28.68086
253.8460, 28.46090
254.3282, 28.33439
254.8103, 28.38445
255.2924, 28.45965
255.7745, 28.44837
256.2566, 28.35414
256.7387, 28.25708
257.2209, 28.20723
257.7030, 28.20689
258.1851, 28.23017
258.6672, 28.37908
259.1493, 28.46913
259.6314, 28.31356
260.1136, 27.93981
260.5957, 27.60537
261.0778, 27.46545
261.5599, 27.48297
262.0420, 27.49710
262.5241, 27.54761
263.0063, 27.54618
263.4884, 27.39047
263.9705, 27.09975
264.4526, 26.83830
264.9347, 26.66613
265.4168, 26.59033
265.8990, 26.60702
266.3811, 26.75581
266.8632, 26.91089
267.3453, 26.98867
267.8275, 26.99434
268.3096, 26.96043
268.7917, 26.86014
269.2738, 26.76091
269.7559, 26.78304
270.2380, 26.96481
270.7202, 27.06927
271.2023, 26.83471
271.6844, 26.32662
272.1665, 26.00051
272.6486, 26.04669
273.1307, 26.24666
273.6129, 26.39340
274.0950, 26.48637
274.5771, 26.51865
275.0592, 26.44183
275.5413, 26.28215
276.0234, 26.20548
276.5056, 26.30436
276.9877, 26.40000
277.4698, 26.32177
277.9519, 26.10557
278.4340, 25.93287
278.9161, 25.94932
279.3983, 26.10962
279.8804, 26.20786
280.3625, 26.20686
280.8446, 26.17958
281.3267, 26.16467
281.8088, 26.16034
282.2910, 26.16214
282.7731, 26.15961
283.2552, 26.16169
283.7373, 26.22416
284.2194, 26.44137
284.7015, 26.53191
285.1837, 26.26784
285.6658, 25.82852
286.1479, 25.47752
286.6300, 25.34241
287.1121, 25.36142
287.5942, 25.40171
288.0764, 25.45947
288.5585, 25.55031
289.0406, 25.74749
289.5227, 25.95107
290.0048, 26.03989
290.4869, 25.95816
290.9691, 25.79603
291.4512, 25.70587
291.9333, 25.70612
292.4154, 25.72172
292.8975, 25.77004
293.3796, 25.80465
293.8618, 25.78130
294.3439, 25.68891
294.8260, 25.56703
295.3081, 25.45398
295.7902, 25.34100
296.2723, 25.27943
296.7545, 25.30903
297.2366, 25.37258
297.7187, 25.45499
298.2008, 25.54823
298.6829, 25.63044
299.1650, 25.66283
299.6472, 25.63479
300.1293, 25.65680
300.6114, 25.78797
301.0935, 25.92508
301.5756, 26.02859
302.0577, 26.09825
302.5399, 26.15038
303.0220, 26.20506
303.5041, 26.26001
303.9862, 26.25425
304.4683, 26.07551
304.9504, 25.97044
305.4326, 26.05704
305.9147, 26.27453
306.3968, 26.50873
306.8789, 26.69158
307.3610, 26.83774
307.8431, 27.01434
308.3253, 27.28286
308.8074, 27.47980
309.2895, 27.47717
309.7716, 27.41725
310.2537, 27.48796
310.7358, 27.78425
311.2180, 28.19217
311.7001, 28.45661
312.1822, 28.53167
312.6643, 28.56103
313.1464, 28.51099
313.6285, 28.46857
314.1107, 28.49543
314.5928, 28.60979
315.0749, 28.80654
315.5570, 29.11179
316.0392, 29.58530
316.5213, 29.94566
317.0034, 30.08077
317.4855, 30.16163
317.9676, 30.25217
318.4497, 30.37065
318.9319, 30.52961
319.4140, 30.72472
319.8961, 30.94662
320.3782, 31.29581
320.8603, 31.99225
321.3424, 32.60877
321.8246, 32.92396
322.3067, 33.02053
322.7888, 33.12112
323.2709, 33.37972
323.7530, 33.78080
324.2351, 34.20638
324.7173, 34.69621
325.1994, 35.15473
325.6815, 35.56379
326.1636, 35.92643
326.6457, 36.25718
327.1278, 36.56569
327.6100, 36.83385
328.0921, 37.00314
328.5742, 37.00740
329.0563, 37.05610
329.5384, 37.31359
330.0205, 37.56921
330.5027, 37.62939
330.9848, 37.43927
331.4669, 37.11056
331.9490, 36.79662
332.4311, 36.51421
332.9132, 36.17295
333.3954, 35.71923
333.8775, 35.22932
334.3596, 34.72803
334.8417, 34.22467
335.3238, 33.74189
335.8059, 33.33300
336.2881, 32.99966
336.7702, 32.56668
337.2523, 31.92468
337.7344, 31.29870
338.2165, 30.78231
338.6986, 30.35972
339.1808, 29.97581
339.6629, 29.58068
340.1450, 29.20329
340.6271, 28.97039
341.1092, 28.97593
341.5913, 28.94575
342.0735, 28.77094
342.5556, 28.50726
343.0377, 28.20425
343.5198, 27.86581
344.0019, 27.53863
344.4840, 27.31298
344.9662, 27.21170
345.4483, 27.10461
345.9304, 26.98280
346.4125, 26.82065
346.8946, 26.57044
347.3767, 26.22467
347.8589, 25.88723
348.3410, 25.69945
348.8231, 25.65421
349.3052, 25.48708
349.7873, 25.07204
350.2694, 24.62251
350.7516, 24.29077
351.2337, 24.05653
351.7158, 23.82981
352.1979, 23.52434
352.6800, 23.18112
353.1621, 22.94493
353.6443, 22.84594
354.1264, 22.79233
354.6085, 22.79559
355.0906, 22.79608
355.5727, 22.67423
356.0548, 22.30499
356.5370, 21.90015
357.0191, 21.79140
357.5012, 22.01086
357.9833, 22.17461
358.4654, 22.08539
358.9475, 21.87862
359.4297, 21.71219
359.9118, 21.60243
360.3939, 21.51714
360.8760, 21.45733
361.3581, 21.41064
361.8402, 21.29525
362.3224, 21.04102
362.8045, 20.79612
363.2866, 20.75249
363.7687, 20.88622
364.2508, 20.96725
364.7329, 20.80514
365.2151, 20.56404
365.6972, 20.57598
366.1793, 20.91584
366.6614, 21.21851
367.1436, 21.16568
367.6257, 20.85171
368.1078, 20.57179
368.5899, 20.35499
369.0720, 20.19010
369.5541, 20.08165
370.0363, 20.02393
370.5184, 19.97856
371.0005, 19.92172
371.4826, 19.87347
371.9647, 19.88302
372.4468, 19.97840
372.9290, 20.05415
373.4111, 20.05847
373.8932, 20.01752
374.3753, 19.97606
374.8574, 19.94501
375.3395, 19.91926
375.8217, 19.89156
376.3038, 19.86066
376.7859, 19.83936
377.2680, 19.86364
377.7501, 19.87409
378.2322, 19.79920
378.7144, 19.64576
379.1965, 19.49964
379.6786, 19.42325
380.1607, 19.41306
380.6428, 19.41111
381.1249, 19.43779
381.6071, 19.44933
382.0892, 19.40509
382.5713, 19.33777
383.0534, 19.31567
383.5355, 19.37078
384.0176, 19.46602
384.4998, 19.52143
384.9819, 19.50400
385.4640, 19.49868
385.9461, 19.52202
386.4282, 19.54898
386.9103, 19.56948
387.3925, 19.57635
387.8746, 19.54306
388.3567, 19.42392
388.8388, 19.18516
389.3209, 19.11413
389.8030, 19.33555
390.2852, 19.56796
390.7673, 19.71517
391.2494, 19.79049
391.7315, 19.83740
392.2136, 19.88032
392.6957, 19.91802
393.1779, 19.94613
393.6600, 19.97747
394.1421, 19.97747
394.6242, 19.89820
395.1063, 19.81386
395.5884, 19.80068
396.0706, 19.87323
396.5527, 19.97667
397.0348, 20.02337
397.5169, 19.97259
397.9990, 20.02701
398.4811, 20.30090
398.9633, 20.57812
399.4454, 20.75930
399.9275, 20.87087
400.4096, 20.99787
400.8917, 21.19608
401.3738, 21.45522
401.8560, 21.74282
402.3381, 22.10701
402.8202, 22.40407
403.3023, 22.53552
403.7844, 22.61438
404.2665, 22.75584
404.7487, 22.99494
405.2308, 23.28616
405.7129, 23.58011
406.1950, 23.87888
406.6771, 24.17407
407.1592, 24.43891
407.6414, 24.72654
408.1235, 25.05998
408.6056, 25.44240
409.0877, 25.88503
409.5698, 26.44265
410.0519, 27.05587
410.5341, 27.57749
411.0162, 27.98036
411.4983, 28.37446
411.9804, 28.80619
412.4625, 29.27744
412.9446, 29.77881
413.4268, 30.25896
413.9089, 30.85287
414.3910, 31.71252
414.8731, 32.79421
415.3553, 33.88361
415.8374, 34.90080
416.3195, 35.91743
416.8016, 37.03657
417.2837, 38.24963
417.7658, 39.53908
418.2480, 40.95379
418.7301, 42.41316
419.2122, 43.83259
419.6943, 45.20355
420.1764, 46.56416
420.6585, 47.92054
421.1407, 49.28800
421.6228, 50.74554
422.1049, 52.30433
422.5870, 53.94463
423.0691, 55.70451
423.5512, 57.53126
424.0334, 59.31936
424.5155, 61.01207
424.9976, 62.71478
425.4797, 64.59601
425.9618, 66.60222
426.4439, 68.94796
426.9261, 71.89919
427.4082, 74.98100
427.8903, 77.82742
428.3724, 80.46494
428.8545, 83.14629
429.3366, 86.07329
429.8188, 89.26390
430.3009, 92.69169
430.7830, 96.52845
431.2651, 100.4636
431.7472, 104.3628
432.2293, 108.3694
432.7115, 112.7726
433.1936, 117.6522
433.6757, 122.4837
434.1578, 126.3801
434.6399, 129.2203
435.1220, 131.5169
435.6042, 134.1260
436.0863, 135.4236
436.5684, 134.4614
437.0505, 131.4152
437.5326, 127.0385
438.0147, 121.7725
438.4969, 115.6026
438.9790, 108.2877
439.4611, 99.35087
439.9432, 90.49228
440.4253, 81.99447
440.9074, 74.07223
441.3896, 67.03740
441.8717, 60.94008
442.3538, 55.65890
442.8359, 51.21656
443.3180, 47.53479
443.8001, 44.40724
444.2823, 41.86820
444.7644, 39.71449
445.2465, 37.75611
445.7286, 35.97882
446.2107, 34.51363
446.6928, 33.54082
447.1750, 32.79478
447.6571, 32.00954
448.1392, 31.19461
448.6213, 30.50770
449.1034, 30.07736
449.5855, 29.79555
450.0677, 29.33827
450.5498, 28.57104
451.0319, 27.94182
451.5140, 27.66023
451.9961, 27.53508
452.4782, 27.33196
452.9604, 27.00766
453.4425, 26.67060
453.9246, 26.43378
454.4067, 26.30855
454.8888, 26.16838
455.3709, 25.98928
455.8531, 25.82479
456.3352, 25.70323
456.8173, 25.60799
457.2994, 25.51185
457.7815, 25.40273
458.2636, 25.28095
458.7458, 25.13090
459.2279, 24.86220
459.7100, 24.76355
460.1921, 25.01987
460.6742, 25.27666
461.1563, 25.31747
461.6385, 25.15920
462.1206, 24.94398
462.6027, 24.75813
463.0848, 24.61031
463.5669, 24.56614
464.0491, 24.71049
464.5312, 24.78418
465.0133, 24.62070
465.4954, 24.38786
465.9775, 24.25518
466.4597, 24.26394
466.9418, 24.32490
467.4239, 24.36843
467.9060, 24.39477
468.3881, 24.40491
468.8702, 24.39435
469.3524, 24.37673
469.8345, 24.36310
470.3166, 24.35196
470.7987, 24.33865
471.2808, 24.35058
471.7629, 24.33815
472.2451, 24.22521
472.7272, 24.03592
473.2093, 23.89153
473.6914, 23.84155
474.1735, 23.86489
474.6556, 23.93711
475.1378, 24.08071
475.6199, 24.18978
476.1020, 24.26714
476.5841, 24.29142
477.0662, 24.21725
477.5483, 24.05839
478.0305, 23.88817
478.5126, 23.75431
478.9947, 23.66167
479.4768, 23.65956
479.9589, 23.89677
480.4410, 24.04230
480.9232, 23.99579
481.4053, 23.86727
481.8874, 23.77159
482.3695, 23.73547
482.8516, 23.70514
483.3337, 23.59577
483.8159, 23.38453
484.2980, 23.29089
484.7801, 23.38761
485.2622, 23.52814
485.7443, 23.71704
486.2264, 23.90161
486.7086, 24.00413
487.1907, 23.99017
487.6728, 23.88950
488.1549, 23.70848
488.6370, 23.43768
489.1191, 23.25237
489.6013, 23.24516
490.0834, 23.27581
490.5655, 23.20132
491.0476, 23.03986
491.5297, 22.91792
492.0118, 22.93512
492.4940, 22.99185
492.9761, 22.94177
493.4582, 22.78863
493.9403, 22.66461
494.4224, 22.63896
494.9045, 22.68388
495.3867, 22.73355
495.8688, 22.79395
496.3509, 22.84439
496.8330, 22.85288
497.3151, 22.86453
497.7972, 22.92719
498.2794, 23.04537
498.7615, 23.20266
499.2436, 23.39512
499.7257, 23.61640
500.2078, 23.76226
500.6899, 23.71477
501.1721, 23.73472
501.6542, 23.85625
502.1363, 24.06964
502.6184, 24.38681
503.1005, 24.80042
503.5826, 25.24576
504.0648, 25.63733
504.5469, 25.96717
505.0290, 26.32104
505.5111, 26.67686
505.9932, 27.09191
506.4753, 27.59408
506.9575, 28.16206
507.4396, 28.75088
507.9217, 29.32811
508.4038, 29.97189
508.8859, 30.79863
509.3680, 31.80119
509.8502, 32.82164
510.3323, 33.84203
510.8144, 34.84906
511.2965, 35.75585
511.7786, 36.59972
512.2607, 37.67625
512.7429, 39.37518
513.2250, 41.08141
513.7071, 42.22251
514.1892, 42.89319
514.6713, 43.55277
515.1534, 44.40559
515.6356, 45.36588
516.1177, 46.28038
516.5998, 47.22991
517.0819, 47.94970
517.5640, 48.35760
518.0461, 48.59605
518.5283, 48.70354
519.0104, 48.72439
519.4925, 48.74402
519.9746, 48.82219
520.4567, 48.93201
520.9388, 48.96832
521.4210, 48.87934
521.9031, 48.81191
522.3852, 48.88450
522.8673, 48.90534
523.3494, 48.67350
523.8315, 48.22384
524.3137, 47.81255
524.7958, 47.67365
525.2779, 47.72464
525.7600, 47.67867
526.2421, 47.51780
526.7242, 47.32962
527.2064, 47.18614
527.6885, 47.01427
528.1706, 46.69637
528.6527, 46.19456
529.1348, 45.71957
529.6169, 45.41419
530.0991, 45.19096
530.5812, 44.90346
531.0633, 44.53441
531.5454, 44.14731
532.0275, 43.79230
532.5096, 43.45893
532.9918, 43.08117
533.4739, 42.64369
533.9560, 42.19246
534.4381, 41.68463
534.9202, 41.19543
535.4023, 40.82738
535.8845, 40.58804
536.3666, 40.37803
536.8487, 40.09942
537.3308, 39.75194
537.8129, 39.41278
538.2951, 39.08333
538.7772, 38.76030
539.2593, 38.49235
539.7415, 38.20551
540.2236, 37.77503
540.7057, 37.17777
541.1878, 36.61943
541.6699, 36.35638
542.1520, 36.34099
542.6342, 36.23185
543.1163, 35.98502
543.5984, 35.69549
544.0805, 35.41338
544.5626, 35.13359
545.0447, 34.84366
545.5269, 34.53165
546.0090, 34.23055
546.4911, 33.95751
546.9732, 33.70746
547.4553, 33.48870
547.9374, 33.30139
548.4196, 33.08976
548.9017, 32.79977
549.3838, 32.42942
549.8659, 32.02712
550.3480, 31.52917
550.8301, 31.07865
551.3123, 30.74131
551.7944, 30.46271
552.2765, 30.17651
552.7586, 29.86517
553.2407, 29.55236
553.7228, 29.27160
554.2050, 29.02537
554.6871, 28.75805
555.1692, 28.39437
555.6513, 28.12199
556.1334, 28.09235
556.6155, 28.14887
557.0977, 28.06113
557.5798, 27.74779
558.0619, 27.44650
558.5440, 27.43662
559.0261, 27.62563
559.5082, 27.64440
559.9904, 27.41124
560.4725, 27.15239
560.9546, 27.04694
561.4367, 27.06511
561.9188, 27.03249
562.4009, 26.96470
562.8831, 26.82503
563.3652, 26.47943
563.8473, 26.10233
564.3294, 25.96910
564.8115, 26.12175
565.2936, 26.35769
565.7758, 26.48643
566.2579, 26.50831
566.7400, 26.44468
567.2221, 26.17921
567.7042, 25.96673
568.1863, 25.87332
568.6685, 25.84009
569.1506, 25.82758
569.6327, 25.81897
570.1148, 25.77714
570.5969, 25.63581
571.0790, 25.41827
571.5612, 25.29187
572.0433, 25.30200
572.5254, 25.27320
573.0075, 25.02424
573.4896, 24.72361
573.9717, 24.64663
574.4539, 24.88283
574.9360, 25.09651
575.4181, 25.13168
575.9002, 25.04888
576.3823, 24.89383
576.8644, 24.68519
577.3466, 24.52675
577.8287, 24.50457
578.3108, 24.58314
578.7929, 24.58718
579.2750, 24.36938
579.7571, 24.27209
580.2393, 24.41731
580.7214, 24.61192
581.2035, 24.72694
581.6856, 24.74249
582.1677, 24.68448
582.6498, 24.56035
583.1320, 24.38935
583.6141, 24.23052
584.0962, 24.06978
584.5783, 23.96791
585.0604, 23.96307
585.5425, 24.00986
586.0247, 24.09458
586.5068, 24.20915
586.9889, 24.27805
587.4710, 24.21281
587.9531, 24.12184
588.4352, 24.15049
588.9174, 24.27992
589.3995, 24.39191
589.8816, 24.44025
590.3637, 24.43052
590.8458, 24.36590
