##NAMES=Zincite
##RRUFFID=R050492
##IDEAL CHEMISTRY=Zn^2+^O
##LOCALITY=Franklin, Sussex County, New Jersey, USA
##OWNER=RRUFF
##SOURCE=California Institute of Technology
##DESCRIPTION=Deep red massive
##STATUS=The identification of this mineral has been confirmed by X-ray diffraction and chemical analysis
##URL=rruff.info/R050492
##MEASURED CHEMISTRY=(Zn_0.96_Mn_0.04_)_Î£=1_O
93.78320, 1073.988
94.26532, 1022.751
94.74744, 1014.440
95.22955, 1046.997
95.71167, 1121.455
96.19379, 1234.186
96.67590, 1376.862
97.15802, 1574.154
97.64014, 1910.684
98.12225, 2292.961
98.60437, 2572.983
99.08649, 2728.171
99.56860, 2715.202
100.0507, 2478.235
100.5328, 1976.117
101.0150, 1445.863
101.4971, 1043.609
101.9792, 765.1817
102.4613, 561.0632
102.9434, 452.2249
103.4255, 390.5874
103.9077, 350.0912
104.3898, 325.0738
104.8719, 311.1319
105.3540, 300.0563
105.8361, 292.9577
106.3182, 286.8902
106.8004, 280.9923
107.2825, 275.5055
107.7646, 270.7599
108.2467, 266.9936
108.7288, 264.1194
109.2109, 261.1297
109.6931, 257.4472
110.1752, 254.1776
110.6573, 251.5872
111.1394, 249.6532
111.6215, 248.2503
112.1036, 247.3123
112.5858, 246.9012
113.0679, 246.6173
113.5500, 246.6228
114.0321, 246.6296
114.5142, 246.3326
114.9964, 245.6844
115.4785, 245.0782
115.9606, 245.1147
116.4427, 245.7516
116.9248, 246.1534
117.4069, 245.9158
117.8891, 245.3229
118.3712, 244.9780
118.8533, 245.0827
119.3354, 245.3351
119.8175, 245.4304
120.2996, 245.3821
120.7818, 245.3325
121.2639, 245.3679
121.7460, 245.4876
122.2281, 245.6834
122.7102, 245.8186
123.1923, 246.1378
123.6745, 246.9425
124.1566, 248.2418
124.6387, 249.5833
125.1208, 250.3323
125.6029, 250.3436
126.0850, 249.9800
126.5672, 248.9836
127.0493, 247.8633
127.5314, 247.0239
128.0135, 246.6230
128.4956, 246.5581
128.9777, 246.5387
129.4599, 246.8681
129.9420, 246.8944
130.4241, 246.3380
130.9062, 245.4858
131.3883, 244.7557
131.8705, 244.3788
132.3526, 244.3026
132.8347, 244.2123
133.3168, 244.0516
133.7989, 243.9365
134.2810, 244.0102
134.7632, 244.2194
135.2453, 244.2574
135.7274, 243.7708
136.2095, 242.9826
136.6916, 242.6662
137.1737, 243.1203
137.6559, 243.9034
138.1380, 244.6365
138.6201, 245.3415
139.1022, 245.8905
139.5843, 246.1076
140.0664, 246.1326
140.5486, 246.1355
141.0307, 246.1580
141.5128, 246.2115
141.9949, 246.3520
142.4770, 246.6978
142.9591, 246.9473
143.4413, 246.8314
143.9234, 246.5412
144.4055, 246.4383
144.8876, 246.8551
145.3697, 247.7953
145.8518, 248.4759
146.3340, 248.8030
146.8161, 248.9234
147.2982, 248.7154
147.7803, 248.2937
148.2624, 247.9207
148.7445, 247.8507
149.2267, 248.1215
149.7088, 248.5845
150.1909, 249.5241
150.6730, 250.3901
151.1551, 250.7838
151.6372, 250.6957
152.1194, 250.4874
152.6015, 250.6122
153.0836, 251.2489
153.5657, 251.7705
154.0478, 252.1702
154.5299, 252.4593
155.0121, 252.5688
155.4942, 252.4620
155.9763, 252.3757
156.4584, 252.7765
156.9405, 253.7144
157.4227, 254.4839
157.9048, 254.7888
158.3869, 254.7962
158.8690, 254.8526
159.3511, 255.0469
159.8332, 255.3227
160.3154, 255.5718
160.7975, 255.7850
161.2796, 256.1076
161.7617, 256.7588
162.2438, 257.7011
162.7259, 258.3796
163.2081, 258.4351
163.6902, 258.3607
164.1723, 258.5202
164.6544, 258.9508
165.1365, 259.4845
165.6186, 259.9820
166.1008, 260.4623
166.5829, 260.8108
167.0650, 260.9710
167.5471, 261.0241
168.0292, 260.9418
168.5113, 260.7346
168.9935, 260.5479
169.4756, 260.6226
169.9577, 261.0335
170.4398, 261.6026
170.9219, 262.4436
171.4040, 263.3355
171.8862, 264.1274
172.3683, 264.7572
172.8504, 265.2215
173.3325, 265.5110
173.8146, 265.3498
174.2967, 265.3307
174.7789, 265.3875
175.2610, 265.6180
175.7431, 266.2466
176.2252, 267.4056
176.7073, 268.8241
177.1894, 269.5760
177.6716, 268.9446
178.1537, 268.6040
178.6358, 269.1036
179.1179, 270.1010
179.6000, 270.9103
180.0821, 271.1381
180.5643, 271.0317
181.0464, 271.3760
181.5285, 272.4370
182.0106, 273.4790
182.4927, 274.0692
182.9749, 274.3092
183.4570, 274.6998
183.9391, 275.6635
184.4212, 276.7970
184.9033, 277.2380
185.3854, 276.5967
185.8676, 275.8856
186.3497, 276.0428
186.8318, 277.0958
187.3139, 278.0607
187.7960, 278.4218
188.2781, 278.4862
188.7603, 278.5644
189.2424, 278.7127
189.7245, 278.8950
190.2066, 279.0598
190.6887, 279.1944
191.1708, 279.3580
191.6530, 279.4605
192.1351, 279.6474
192.6172, 280.0840
193.0993, 280.8457
193.5814, 281.8050
194.0635, 282.6992
194.5457, 283.4684
195.0278, 284.2911
195.5099, 285.4561
195.9920, 286.5795
196.4741, 287.1823
196.9562, 287.0243
197.4384, 286.4536
197.9205, 286.5124
198.4026, 287.9241
198.8847, 289.0005
199.3668, 289.2314
199.8489, 289.1344
200.3311, 289.3560
200.8132, 290.2340
201.2953, 291.5356
201.7774, 292.3269
202.2595, 291.8872
202.7416, 291.7137
203.2238, 292.1236
203.7059, 292.8533
204.1880, 293.5829
204.6701, 294.1575
205.1522, 294.5403
205.6344, 294.5342
206.1165, 293.7954
206.5986, 293.1068
207.0807, 292.6691
207.5628, 292.3932
208.0449, 292.0716
208.5271, 291.5620
209.0092, 290.9788
209.4913, 290.8179
209.9734, 291.4854
210.4555, 291.9983
210.9376, 291.9777
211.4198, 291.5280
211.9019, 290.8594
212.3840, 289.9305
212.8661, 289.0030
213.3482, 288.8147
213.8303, 289.9893
214.3125, 290.8679
214.7946, 290.1779
215.2767, 288.2150
215.7588, 286.6224
216.2409, 286.2582
216.7230, 286.6254
217.2052, 286.6843
217.6873, 286.3208
218.1694, 285.8696
218.6515, 285.5471
219.1336, 285.3512
219.6157, 285.2625
220.0979, 285.3607
220.5800, 285.5117
221.0621, 285.5741
221.5442, 285.5286
222.0263, 285.4121
222.5084, 285.2276
222.9906, 284.9629
223.4727, 284.7545
223.9548, 284.7523
224.4369, 284.7572
224.9190, 284.5379
225.4011, 284.0340
225.8833, 283.6027
226.3654, 283.7837
226.8475, 284.7589
227.3296, 285.4586
227.8117, 285.5463
228.2938, 285.3548
228.7760, 284.9892
229.2581, 284.4871
229.7402, 283.9664
230.2223, 283.5791
230.7044, 283.3429
231.1866, 283.1870
231.6687, 283.1735
232.1508, 283.1848
232.6329, 283.2433
233.1150, 283.3148
233.5971, 283.2173
234.0793, 282.5495
234.5614, 280.7333
235.0435, 279.8289
235.5256, 280.5923
236.0077, 281.6145
236.4898, 282.0130
236.9720, 281.6479
237.4541, 280.9838
237.9362, 280.6381
238.4183, 280.7241
238.9004, 280.8866
239.3825, 281.1563
239.8647, 281.4614
240.3468, 281.9178
240.8289, 282.4571
241.3110, 282.7183
241.7931, 282.1866
242.2752, 280.4083
242.7574, 279.1444
243.2395, 278.5081
243.7216, 278.2111
244.2037, 278.2660
244.6858, 278.5775
245.1679, 278.7668
245.6501, 278.3561
246.1322, 277.0799
246.6143, 276.3112
247.0964, 276.4762
247.5785, 276.7685
248.0606, 276.6083
248.5428, 275.9762
249.0249, 275.2739
249.5070, 274.8894
249.9891, 274.8817
250.4712, 274.8590
250.9533, 275.0191
251.4355, 275.0191
251.9176, 274.4577
252.3997, 273.3915
252.8818, 272.4297
253.3639, 272.1563
253.8460, 272.5851
254.3282, 272.6222
254.8103, 271.8712
255.2924, 271.0521
255.7745, 270.7122
256.2566, 270.8303
256.7387, 271.0045
257.2209, 271.0433
257.7030, 270.8727
258.1851, 270.3200
258.6672, 268.7687
259.1493, 267.3344
259.6314, 266.9781
260.1136, 267.5910
260.5957, 268.1332
261.0778, 267.9860
261.5599, 267.2943
262.0420, 266.6574
262.5241, 266.0301
263.0063, 265.5146
263.4884, 265.2474
263.9705, 265.1983
264.4526, 265.1127
264.9347, 264.8973
265.4168, 264.5459
265.8990, 264.0892
266.3811, 263.5038
266.8632, 262.8586
267.3453, 262.1777
267.8275, 261.4695
268.3096, 260.7786
268.7917, 260.1224
269.2738, 259.4999
269.7559, 258.8748
270.2380, 258.2238
270.7202, 257.7020
271.2023, 257.5302
271.6844, 257.6432
272.1665, 257.5670
272.6486, 257.0698
273.1307, 256.4604
273.6129, 256.0326
274.0950, 255.7845
274.5771, 255.6291
275.0592, 255.5468
275.5413, 255.5219
276.0234, 255.4820
276.5056, 255.4955
276.9877, 255.3688
277.4698, 254.8424
277.9519, 254.0119
278.4340, 253.3578
278.9161, 253.2902
279.3983, 253.6707
279.8804, 253.9092
280.3625, 254.0598
280.8446, 253.8936
281.3267, 253.0076
281.8088, 251.7266
282.2910, 250.8290
282.7731, 251.0115
283.2552, 251.8886
283.7373, 252.1623
284.2194, 251.6157
284.7015, 250.8359
285.1837, 250.1048
285.6658, 249.3486
286.1479, 248.3932
286.6300, 247.0025
287.1121, 245.5257
287.5942, 244.8306
288.0764, 245.2118
288.5585, 245.7034
289.0406, 245.9942
289.5227, 246.1848
290.0048, 246.4329
290.4869, 246.8505
290.9691, 247.1593
291.4512, 246.7655
291.9333, 245.3750
292.4154, 244.2302
292.8975, 243.9413
293.3796, 243.8574
293.8618, 243.3999
294.3439, 242.4234
294.8260, 241.4487
295.3081, 241.2460
295.7902, 242.0129
296.2723, 242.6114
296.7545, 242.7448
297.2366, 242.7307
297.7187, 242.7713
298.2008, 242.8684
298.6829, 242.8364
299.1650, 242.2206
299.6472, 240.8533
300.1293, 240.4782
300.6114, 242.5923
301.0935, 244.4946
301.5756, 244.7930
302.0577, 243.7534
302.5399, 242.5423
303.0220, 242.0655
303.5041, 242.2946
303.9862, 242.5918
304.4683, 243.0240
304.9504, 243.4552
305.4326, 243.8049
305.9147, 244.1228
306.3968, 244.5031
306.8789, 245.0102
307.3610, 245.6216
307.8431, 246.2155
308.3253, 246.7011
308.8074, 247.3291
309.2895, 248.1770
309.7716, 249.1813
310.2537, 250.2778
310.7358, 251.4533
311.2180, 252.6582
311.7001, 253.7632
312.1822, 254.7234
312.6643, 255.6972
313.1464, 256.7014
313.6285, 257.7376
314.1107, 258.7581
314.5928, 259.7584
315.0749, 260.8954
315.5570, 262.5284
316.0392, 264.9417
316.5213, 266.7933
317.0034, 267.4712
317.4855, 267.9284
317.9676, 268.5336
318.4497, 269.3858
318.9319, 270.5372
319.4140, 272.1786
319.8961, 274.3903
320.3782, 276.2693
320.8603, 277.3561
321.3424, 278.5249
321.8246, 280.1017
322.3067, 282.0349
322.7888, 284.1620
323.2709, 286.3820
323.7530, 288.6896
324.2351, 290.9912
324.7173, 293.4279
325.1994, 295.6483
325.6815, 297.5028
326.1636, 299.1221
326.6457, 300.7512
327.1278, 302.5424
327.6100, 304.2962
328.0921, 305.5547
328.5742, 306.3005
329.0563, 306.5340
329.5384, 306.0704
330.0205, 305.2699
330.5027, 304.4784
330.9848, 303.7901
331.4669, 302.9411
331.9490, 301.6387
332.4311, 299.9396
332.9132, 297.5354
333.3954, 293.9248
333.8775, 289.8902
334.3596, 285.7418
334.8417, 281.5455
335.3238, 277.3604
335.8059, 273.1805
336.2881, 268.9922
336.7702, 265.1743
337.2523, 261.8412
337.7344, 258.8052
338.2165, 256.0750
338.6986, 253.5546
339.1808, 251.0112
339.6629, 248.2844
340.1450, 245.4316
340.6271, 242.6171
341.1092, 239.7353
341.5913, 237.1241
342.0735, 235.0731
342.5556, 233.2708
343.0377, 231.3039
343.5198, 228.9720
344.0019, 226.5570
344.4840, 224.6098
344.9662, 223.2671
345.4483, 221.7340
345.9304, 219.3467
346.4125, 216.9244
346.8946, 215.0887
347.3767, 213.9241
347.8589, 213.0523
348.3410, 212.1975
348.8231, 211.3539
349.3052, 210.4167
349.7873, 209.2945
350.2694, 208.1524
350.7516, 207.1260
351.2337, 206.1868
351.7158, 205.2294
352.1979, 204.1310
352.6800, 202.9558
353.1621, 201.9307
353.6443, 201.0900
354.1264, 200.3332
354.6085, 199.5757
355.0906, 198.8608
355.5727, 198.2948
356.0548, 198.0101
356.5370, 197.7730
357.0191, 197.3126
357.5012, 196.6369
357.9833, 195.6755
358.4654, 194.0415
358.9475, 192.3227
359.4297, 191.2326
359.9118, 190.8940
360.3939, 190.8761
360.8760, 191.0243
361.3581, 191.2768
361.8402, 191.3131
362.3224, 191.0265
362.8045, 190.5440
363.2866, 189.9551
363.7687, 189.2734
364.2508, 188.6254
364.7329, 188.0879
365.2151, 187.6037
365.6972, 187.0583
366.1793, 186.4246
366.6614, 185.8212
367.1436, 185.3265
367.6257, 184.9362
368.1078, 184.6391
368.5899, 184.5387
369.0720, 184.4436
369.5541, 184.1686
370.0363, 183.7413
370.5184, 183.3360
371.0005, 183.0114
371.4826, 182.7855
371.9647, 182.7363
372.4468, 183.0298
372.9290, 183.0761
373.4111, 182.3688
373.8932, 181.3088
374.3753, 180.6903
374.8574, 180.7554
375.3395, 181.0671
375.8217, 181.1138
376.3038, 180.8802
376.7859, 180.4883
377.2680, 179.5872
377.7501, 178.7756
378.2322, 178.7601
378.7144, 179.4766
379.1965, 180.0735
379.6786, 179.8761
380.1607, 178.9635
380.6428, 178.3307
381.1249, 178.1736
381.6071, 178.0398
382.0892, 177.7813
382.5713, 177.4319
383.0534, 177.0597
383.5355, 176.6909
384.0176, 176.3263
384.4998, 175.9636
384.9819, 175.6017
385.4640, 175.2445
385.9461, 174.6913
386.4282, 174.2694
386.9103, 174.3731
387.3925, 174.9974
387.8746, 175.7276
388.3567, 176.1158
388.8388, 176.1121
389.3209, 176.1191
389.8030, 176.1738
390.2852, 176.2006
390.7673, 176.0911
391.2494, 175.9369
391.7315, 175.9177
392.2136, 176.1422
392.6957, 176.5647
393.1779, 177.0120
393.6600, 177.5286
394.1421, 178.0045
394.6242, 178.4001
395.1063, 178.7720
395.5884, 179.1220
396.0706, 179.4708
396.5527, 179.9119
397.0348, 180.6341
397.5169, 181.7645
397.9990, 182.6484
398.4811, 182.9313
398.9633, 183.2776
399.4454, 183.8515
399.9275, 184.7056
400.4096, 185.9241
400.8917, 187.6399
401.3738, 189.7214
401.8560, 191.5892
402.3381, 193.1241
402.8202, 194.6651
403.3023, 196.2641
403.7844, 197.9526
404.2665, 199.7666
404.7487, 201.7167
405.2308, 203.8042
405.7129, 205.9910
406.1950, 208.2839
406.6771, 210.7995
407.1592, 213.5412
407.6414, 216.5443
408.1235, 219.8412
408.6056, 223.4054
409.0877, 227.1067
409.5698, 230.9098
410.0519, 234.7729
410.5341, 238.4986
411.0162, 241.9051
411.4983, 245.8026
411.9804, 250.8918
412.4625, 256.7593
412.9446, 262.6798
413.4268, 268.3542
413.9089, 274.3679
414.3910, 281.0227
414.8731, 288.3489
415.3553, 296.5440
415.8374, 305.7759
416.3195, 315.7353
416.8016, 325.8971
417.2837, 336.1430
417.7658, 347.3300
418.2480, 360.1010
418.7301, 373.7004
419.2122, 387.3148
419.6943, 400.8658
420.1764, 414.8485
420.6585, 429.6725
421.1407, 445.3102
421.6228, 460.6324
422.1049, 475.8766
422.5870, 490.7511
423.0691, 505.0533
423.5512, 518.9113
424.0334, 532.5010
424.5155, 545.7888
424.9976, 559.2188
425.4797, 573.4682
425.9618, 588.5048
426.4439, 604.6036
426.9261, 621.6848
427.4082, 639.9052
427.8903, 659.4213
428.3724, 680.2608
428.8545, 702.2374
429.3366, 725.2885
429.8188, 749.5402
430.3009, 774.5334
430.7830, 799.7853
431.2651, 826.6744
431.7472, 856.1408
432.2293, 887.1013
432.7115, 918.4397
433.1936, 949.6496
433.6757, 979.8427
434.1578, 1008.082
434.6399, 1035.621
435.1220, 1056.474
435.6042, 1070.881
436.0863, 1077.355
436.5684, 1076.206
437.0505, 1066.413
437.5326, 1045.063
438.0147, 1008.852
438.4969, 959.9784
438.9790, 905.2801
439.4611, 843.0775
439.9432, 779.4011
440.4253, 713.1195
440.9074, 647.8798
441.3896, 587.3657
441.8717, 531.8928
442.3538, 482.4749
442.8359, 440.9961
443.3180, 406.6508
443.8001, 376.9519
444.2823, 351.7934
444.7644, 330.2664
445.2465, 311.9222
445.7286, 296.2723
446.2107, 282.8913
446.6928, 272.2560
447.1750, 263.3997
447.6571, 255.6355
448.1392, 248.9107
448.6213, 242.9373
449.1034, 237.6355
449.5855, 232.9811
450.0677, 228.9425
450.5498, 225.6206
451.0319, 222.5545
451.5140, 219.7529
451.9961, 217.0957
452.4782, 214.3223
452.9604, 211.4167
453.4425, 208.8504
453.9246, 207.1471
454.4067, 206.3918
454.8888, 205.6563
455.3709, 205.1800
455.8531, 204.4713
456.3352, 203.0921
456.8173, 201.4157
457.2994, 200.0921
457.7815, 199.4294
458.2636, 199.1177
458.7458, 198.4736
459.2279, 197.1995
459.7100, 196.2184
460.1921, 195.6431
460.6742, 195.2522
461.1563, 195.0150
461.6385, 194.8617
462.1206, 194.6348
462.6027, 194.1773
463.0848, 193.5514
463.5669, 193.0880
464.0491, 192.8436
464.5312, 192.6529
465.0133, 192.2410
465.4954, 191.9575
465.9775, 192.3780
466.4597, 193.7030
466.9418, 194.8145
467.4239, 194.3411
467.9060, 192.5677
468.3881, 191.4797
468.8702, 191.5934
469.3524, 191.9809
469.8345, 191.7439
470.3166, 191.1282
470.7987, 190.8748
471.2808, 191.9453
471.7629, 192.8522
472.2451, 191.8015
472.7272, 189.2143
473.2093, 187.2867
473.6914, 187.0305
474.1735, 187.7373
474.6556, 188.1009
475.1378, 188.0760
475.6199, 187.9380
476.1020, 187.6456
476.5841, 187.3116
477.0662, 187.0378
477.5483, 186.8267
478.0305, 186.5926
478.5126, 186.2445
478.9947, 185.8220
479.4768, 185.6991
479.9589, 186.2263
480.4410, 186.6240
480.9232, 186.8421
481.4053, 186.8564
481.8874, 186.5518
482.3695, 185.9439
482.8516, 185.3093
483.3337, 185.0087
483.8159, 185.0931
484.2980, 185.0785
484.7801, 184.8501
485.2622, 184.6513
485.7443, 184.6709
486.2264, 184.7511
486.7086, 184.6028
487.1907, 184.0601
487.6728, 183.4077
488.1549, 183.1460
488.6370, 183.3160
489.1191, 183.1510
489.6013, 182.1572
490.0834, 181.1462
490.5655, 181.0034
491.0476, 181.5795
491.5297, 181.8409
492.0118, 181.0020
492.4940, 179.8333
492.9761, 179.3315
493.4582, 179.4946
493.9403, 179.8608
494.4224, 180.2782
494.9045, 180.6749
495.3867, 180.8022
495.8688, 180.4240
496.3509, 180.3958
496.8330, 181.0835
497.3151, 182.1219
497.7972, 183.1882
498.2794, 184.2128
498.7615, 185.1774
499.2436, 186.0543
499.7257, 186.8458
500.2078, 187.6640
500.6899, 188.3754
501.1721, 189.2771
501.6542, 190.3719
502.1363, 191.7030
502.6184, 193.3437
503.1005, 195.3022
503.5826, 197.4895
504.0648, 199.7427
504.5469, 202.0249
505.0290, 204.7666
505.5111, 208.3080
505.9932, 211.9281
506.4753, 215.2158
506.9575, 218.4110
507.4396, 221.8552
507.9217, 225.6199
508.4038, 229.8316
508.8859, 234.7301
509.3680, 240.2949
509.8502, 245.8792
510.3323, 251.0753
510.8144, 256.7098
511.2965, 263.9902
511.7786, 272.5716
512.2607, 280.9000
512.7429, 288.4505
513.2250, 295.6849
513.7071, 303.3318
514.1892, 311.1432
514.6713, 318.1387
515.1534, 323.8696
515.6356, 328.7034
516.1177, 333.3611
516.5998, 338.0212
517.0819, 342.1581
517.5640, 346.1349
518.0461, 349.2809
518.5283, 350.8411
519.0104, 351.1129
519.4925, 351.0395
519.9746, 351.2368
520.4567, 351.5772
520.9388, 351.6010
521.4210, 351.3330
521.9031, 350.6649
522.3852, 349.3693
522.8673, 347.8822
523.3494, 346.5477
523.8315, 345.3553
524.3137, 344.0215
524.7958, 342.2374
525.2779, 340.1595
525.7600, 338.4022
526.2421, 337.0573
526.7242, 335.7021
527.2064, 334.2490
527.6885, 332.6255
528.1706, 330.6928
528.6527, 328.3985
529.1348, 326.0710
529.6169, 323.9577
530.0991, 321.8839
530.5812, 319.4992
531.0633, 316.7674
531.5454, 314.0572
532.0275, 311.7545
532.5096, 309.7039
532.9918, 306.8544
533.4739, 302.5285
533.9560, 298.4310
534.4381, 294.7652
534.9202, 291.5765
535.4023, 289.1412
535.8845, 287.3890
536.3666, 285.6107
536.8487, 283.0515
537.3308, 279.7099
537.8129, 276.7621
538.2951, 274.5774
538.7772, 272.3088
539.2593, 269.8077
539.7415, 267.1112
540.2236, 264.0837
540.7057, 260.7276
541.1878, 257.6739
541.6699, 255.8435
542.1520, 255.0161
542.6342, 253.5305
543.1163, 251.0226
543.5984, 248.4800
544.0805, 246.7164
544.5626, 245.3338
545.0447, 243.5717
545.5269, 241.1812
546.0090, 238.6951
546.4911, 236.3686
546.9732, 234.1607
547.4553, 232.0862
547.9374, 230.1314
548.4196, 228.0365
548.9017, 225.5014
549.3838, 222.5037
549.8659, 219.7478
550.3480, 217.4459
550.8301, 215.0748
551.3123, 212.3115
551.7944, 209.4883
552.2765, 207.0352
552.7586, 205.0588
553.2407, 203.3144
553.7228, 201.5560
554.2050, 199.7866
554.6871, 197.9283
555.1692, 195.7931
555.6513, 193.8469
556.1334, 192.3538
556.6155, 191.0928
557.0977, 189.7769
557.5798, 188.3292
558.0619, 186.8366
558.5440, 185.3005
559.0261, 183.7773
559.5082, 182.4327
559.9904, 181.2796
560.4725, 180.3954
560.9546, 180.0532
561.4367, 180.0590
561.9188, 179.4635
562.4009, 177.9089
562.8831, 176.1960
563.3652, 174.3954
563.8473, 172.7005
564.3294, 171.4432
564.8115, 170.6631
565.2936, 170.0428
565.7758, 169.2796
566.2579, 168.3704
566.7400, 167.4224
567.2221, 166.4637
567.7042, 165.4241
568.1863, 164.1523
568.6685, 162.8757
569.1506, 161.9028
569.6327, 161.2709
570.1148, 160.6261
570.5969, 159.5334
571.0790, 158.0912
571.5612, 157.0117
572.0433, 156.4844
572.5254, 155.7791
573.0075, 154.2578
573.4896, 152.4499
573.9717, 151.2038
574.4539, 150.7844
574.9360, 150.2234
575.4181, 149.0400
575.9002, 147.4544
576.3823, 145.6057
576.8644, 143.5654
577.3466, 141.8291
577.8287, 140.8206
578.3108, 140.3456
578.7929, 139.4461
579.2750, 137.8091
579.7571, 136.1349
580.2393, 134.3599
580.7214, 132.6407
581.2035, 131.0728
581.6856, 129.6797
582.1677, 128.4348
582.6498, 127.3400
583.1320, 126.3671
583.6141, 125.4698
584.0962, 124.7022
584.5783, 123.8071
585.0604, 122.5768
585.5425, 121.2918
586.0247, 120.1689
586.5068, 119.2094
586.9889, 118.3597
587.4710, 117.7815
587.9531, 117.1801
588.4352, 116.1048
588.9174, 114.6423
589.3995, 113.3090
589.8816, 112.3381
590.3637, 111.5860
590.8458, 110.7937
