##NAMES=Zincroselite
##RRUFFID=R100192
##IDEAL CHEMISTRY=Ca_2_Zn^2+^(As^5+^O_4_)_2_&#183;2H_2_O
##LOCALITY=Tsumeb, Namibia
##OWNER=RRUFF
##SOURCE=William W Pinch
##DESCRIPTION=Colorless, lathlike, elongated and striated, associated with tennantite ore. A piece of the co-type specimen from John Innes
##STATUS=The identification of this mineral has been confirmed by single-crystal X-ray diffraction.
##URL=rruff.info/R100192
##MEASURED CHEMISTRY=Ca_2.06_(Zn_0.90_Mn_0.06_Mg_0.05_Fe_0.01_)(As_0.99_O_4_)_2_Â·2H_2_O
130.1390, 503.6933
130.6211, 503.2354
131.1032, 502.7402
131.5854, 502.1395
132.0675, 501.8516
132.5496, 502.3709
133.0317, 503.9461
133.5138, 506.3408
133.9959, 509.0386
134.4781, 512.1464
134.9602, 515.4559
135.4423, 518.4076
135.9244, 521.5846
136.4065, 525.8143
136.8886, 531.7253
137.3708, 539.2093
137.8529, 546.2244
138.3350, 552.1924
138.8171, 558.2712
139.2992, 564.7551
139.7813, 571.5906
140.2635, 578.7751
140.7456, 586.4778
141.2277, 595.0277
141.7098, 600.7117
142.1919, 601.6045
142.6740, 601.8713
143.1561, 603.6989
143.6383, 607.2426
144.1204, 611.3282
144.6025, 614.7030
145.0846, 617.1838
145.5667, 620.4601
146.0488, 624.8596
146.5310, 629.9584
147.0131, 635.3295
147.4952, 640.9102
147.9773, 646.7540
148.4594, 652.9606
148.9415, 659.4716
149.4237, 666.5834
149.9058, 674.2657
150.3879, 682.6201
150.8700, 691.8359
151.3521, 702.2169
151.8342, 713.3378
152.3164, 724.8455
152.7985, 736.6802
153.2806, 748.8309
153.7627, 760.9374
154.2448, 772.9963
154.7269, 786.2773
155.2091, 801.2787
155.6912, 817.4059
156.1733, 834.3358
156.6554, 852.1211
157.1375, 870.8975
157.6196, 891.4096
158.1018, 915.0183
158.5839, 936.2445
159.0660, 954.8787
159.5481, 971.4107
160.0302, 985.9857
160.5123, 998.6483
160.9945, 1009.332
161.4766, 1017.923
161.9587, 1025.198
162.4408, 1028.637
162.9229, 1026.330
163.4050, 1021.452
163.8871, 1016.475
164.3693, 1012.348
164.8514, 1009.084
165.3335, 1006.763
165.8156, 1005.063
166.2977, 1004.778
166.7798, 1005.975
167.2620, 1008.653
167.7441, 1012.665
168.2262, 1017.820
168.7083, 1024.586
169.1904, 1034.426
169.6725, 1047.832
170.1547, 1062.423
170.6368, 1077.669
171.1189, 1093.427
171.6010, 1109.088
172.0831, 1123.989
172.5652, 1138.988
173.0474, 1155.890
173.5295, 1175.240
174.0116, 1195.341
174.4937, 1215.195
174.9758, 1234.842
175.4579, 1253.620
175.9401, 1270.170
176.4222, 1286.252
176.9043, 1303.720
177.3864, 1323.249
177.8685, 1343.624
178.3506, 1363.536
178.8328, 1382.974
179.3149, 1402.104
179.7970, 1421.521
180.2791, 1440.493
180.7612, 1458.250
181.2433, 1474.633
181.7255, 1489.627
182.2076, 1503.529
182.6897, 1517.508
183.1718, 1527.740
183.6539, 1533.945
184.1360, 1536.652
184.6181, 1536.171
185.1003, 1532.613
185.5824, 1526.227
186.0645, 1517.965
186.5466, 1507.367
187.0287, 1495.033
187.5108, 1481.604
187.9930, 1466.512
188.4751, 1448.824
188.9572, 1428.040
189.4393, 1404.575
189.9214, 1380.809
190.4035, 1358.754
190.8857, 1334.266
191.3678, 1306.983
191.8499, 1276.814
192.3320, 1243.381
192.8141, 1206.268
193.2962, 1165.820
193.7784, 1123.872
194.2605, 1078.432
194.7426, 1033.985
195.2247, 991.5864
195.7068, 951.2507
196.1889, 912.5330
196.6711, 875.0311
197.1532, 839.1866
197.6353, 806.1688
198.1174, 775.0992
198.5995, 747.0853
199.0816, 723.2574
199.5638, 703.2311
200.0459, 684.7990
200.5280, 666.5980
201.0101, 649.1483
201.4922, 633.7345
201.9743, 620.7450
202.4565, 609.3702
202.9386, 599.1949
203.4207, 590.2158
203.9028, 581.7708
204.3849, 573.4201
204.8670, 565.5041
205.3492, 558.6739
205.8313, 553.4108
206.3134, 548.8095
206.7955, 543.8476
207.2776, 538.4684
207.7597, 532.9926
208.2419, 527.2745
208.7240, 521.6295
209.2061, 516.4478
209.6882, 511.8958
210.1703, 507.7590
210.6524, 503.6871
211.1346, 499.7045
211.6167, 495.7871
212.0988, 492.0338
212.5809, 488.3053
213.0630, 484.4920
213.5451, 480.6004
214.0273, 476.4933
214.5094, 471.6620
214.9915, 464.9467
215.4736, 459.7195
215.9557, 457.5431
216.4378, 456.4924
216.9200, 454.5191
217.4021, 450.6985
217.8842, 445.8520
218.3663, 442.3091
218.8484, 440.7013
219.3305, 439.6751
219.8127, 439.6107
220.2948, 439.7683
220.7769, 439.3205
221.2590, 437.8904
221.7411, 435.8271
222.2232, 434.1537
222.7054, 432.9088
223.1875, 432.0904
223.6696, 431.9117
224.1517, 432.0776
224.6338, 432.3073
225.1159, 432.4782
225.5980, 432.5638
226.0802, 432.4819
226.5623, 431.8577
227.0444, 431.5143
227.5265, 431.8867
228.0086, 432.4672
228.4907, 432.4709
228.9729, 431.5335
229.4550, 430.1590
229.9371, 429.6961
230.4192, 430.6401
230.9013, 431.6450
231.3834, 432.3389
231.8656, 433.0106
232.3477, 434.1524
232.8298, 435.9948
233.3119, 438.2159
233.7940, 440.1783
234.2761, 441.9767
234.7583, 443.3928
235.2404, 444.0232
235.7225, 444.2816
236.2046, 444.9158
236.6867, 446.2143
237.1688, 447.8783
237.6510, 449.5060
238.1331, 451.1636
238.6152, 452.5184
239.0973, 453.1469
239.5794, 453.4106
240.0615, 454.2599
240.5437, 456.2740
241.0258, 458.2555
241.5079, 458.5338
241.9900, 457.1966
242.4721, 455.4433
242.9542, 454.0094
243.4364, 452.5446
243.9185, 449.9479
244.4006, 445.5269
244.8827, 440.8232
245.3648, 437.5471
245.8469, 435.5096
246.3290, 433.4194
246.8112, 430.7502
247.2933, 427.5668
247.7754, 423.8902
248.2575, 419.4107
248.7396, 414.9780
249.2217, 411.0301
249.7039, 407.5865
250.1860, 404.8486
250.6681, 403.4259
251.1502, 402.8879
251.6323, 401.4908
252.1144, 398.5869
252.5966, 395.7723
253.0787, 393.8773
253.5608, 392.7536
254.0429, 392.0811
254.5250, 391.8324
255.0071, 391.9082
255.4893, 391.8806
255.9714, 391.5226
256.4535, 391.4582
256.9356, 392.2685
257.4177, 393.4672
257.8998, 394.1846
258.3820, 393.6634
258.8641, 392.4461
259.3462, 392.5599
259.8283, 394.8929
260.3104, 397.1473
260.7925, 398.2768
261.2747, 398.9742
261.7568, 400.0742
262.2389, 401.9407
262.7210, 404.5679
263.2031, 408.1425
263.6852, 413.6740
264.1674, 418.4009
264.6495, 420.8641
265.1316, 422.6429
265.6137, 425.6185
266.0958, 430.6675
266.5779, 436.6749
267.0601, 440.8967
267.5422, 442.2166
268.0243, 443.6379
268.5064, 445.0126
268.9885, 446.9667
269.4706, 450.2126
269.9528, 454.9736
270.4349, 460.6255
270.9170, 465.9885
271.3991, 470.7363
271.8812, 475.7838
272.3633, 480.6476
272.8455, 486.0960
273.3276, 492.6937
273.8097, 500.5848
274.2918, 509.4862
274.7739, 519.0054
275.2560, 529.2318
275.7382, 539.9902
276.2202, 551.1497
276.7024, 562.8212
277.1845, 574.9898
277.6666, 587.7483
278.1487, 601.3541
278.6308, 616.3053
279.1129, 633.1877
279.5951, 649.2684
280.0772, 663.5906
280.5593, 678.1090
281.0414, 694.5656
281.5235, 712.4971
282.0056, 729.7996
282.4878, 744.4097
282.9699, 756.1390
283.4520, 766.9330
283.9341, 778.3134
284.4162, 787.5666
284.8983, 793.0615
285.3805, 795.3989
285.8626, 796.0850
286.3447, 796.0387
286.8268, 795.2992
287.3089, 796.2740
287.7910, 800.0569
288.2732, 804.2159
288.7553, 807.3611
289.2374, 810.4187
289.7195, 815.0603
290.2016, 822.2770
290.6837, 831.8858
291.1659, 843.3104
291.6480, 857.4654
292.1301, 872.2584
292.6122, 887.3925
293.0943, 902.9586
293.5764, 919.0674
294.0586, 935.8452
294.5407, 953.2510
295.0228, 971.2675
295.5049, 991.9807
295.9870, 1010.720
296.4691, 1027.108
296.9513, 1041.537
297.4334, 1055.149
297.9155, 1068.144
298.3976, 1078.631
298.8797, 1083.460
299.3618, 1081.678
299.8440, 1074.501
300.3261, 1061.062
300.8082, 1043.014
301.2903, 1020.577
301.7724, 994.2391
302.2545, 965.8020
302.7367, 937.1494
303.2188, 908.4979
303.7009, 878.8684
304.1830, 845.7474
304.6651, 813.6161
305.1472, 784.9621
305.6294, 759.9545
306.1115, 737.7516
306.5936, 717.8405
307.0757, 700.2600
307.5578, 683.7474
308.0399, 667.8046
308.5221, 653.1531
309.0042, 640.3306
309.4863, 629.0848
309.9684, 618.9682
310.4505, 609.7494
310.9326, 601.4042
311.4148, 594.1381
311.8969, 587.6318
312.3790, 582.3266
312.8611, 578.4498
313.3432, 575.8383
313.8253, 574.2758
314.3075, 573.7005
314.7896, 573.9651
315.2717, 574.7289
315.7538, 576.1025
316.2359, 577.8387
316.7180, 579.9081
317.2001, 582.3407
317.6823, 585.2252
318.1644, 588.5902
318.6465, 592.2342
319.1286, 595.8195
319.6107, 598.9577
320.0928, 603.0797
320.5750, 608.6934
321.0571, 614.9142
321.5392, 621.2674
322.0213, 627.5873
322.5034, 633.7469
322.9855, 639.4993
323.4677, 644.7706
323.9498, 650.5389
324.4319, 656.5831
324.9140, 663.2379
325.3961, 670.6934
325.8782, 678.9098
326.3604, 687.8551
326.8425, 697.5579
327.3246, 707.9617
327.8067, 718.6531
328.2888, 728.8566
328.7709, 740.1806
329.2531, 753.6697
329.7352, 768.4191
330.2173, 782.8729
330.6994, 796.2652
331.1815, 809.1630
331.6636, 823.2245
332.1458, 839.6010
332.6279, 855.7795
333.1100, 872.3387
333.5921, 888.2600
334.0742, 902.5627
334.5563, 914.8832
335.0385, 925.8708
335.5206, 936.5651
336.0027, 948.3815
336.4848, 955.6945
336.9669, 957.2990
337.4490, 955.9716
337.9312, 953.4211
338.4133, 949.7670
338.8954, 944.1635
339.3775, 935.6676
339.8596, 924.0244
340.3417, 912.3611
340.8239, 900.4615
341.3060, 888.7869
341.7881, 876.9066
342.2702, 865.3752
342.7523, 855.2694
343.2344, 847.2811
343.7166, 841.2601
344.1987, 836.5822
344.6808, 833.9272
345.1629, 831.9974
345.6450, 830.6096
346.1271, 829.9478
346.6093, 830.2854
347.0914, 831.7071
347.5735, 834.0165
348.0556, 836.9277
348.5377, 841.3162
349.0198, 844.7120
349.5020, 846.5388
349.9841, 847.9620
350.4662, 850.0343
350.9483, 852.6877
351.4304, 854.8654
351.9125, 855.4334
352.3947, 854.2976
352.8768, 852.1588
353.3589, 850.0743
353.8410, 845.9740
354.3231, 838.8400
354.8052, 829.0964
355.2874, 817.5925
355.7695, 804.8463
356.2516, 790.9367
356.7337, 775.9863
357.2158, 759.5719
357.6979, 742.5624
358.1800, 725.1759
358.6621, 707.2859
359.1443, 688.5781
359.6264, 668.8438
360.1085, 648.9930
360.5906, 630.5087
361.0727, 613.7072
361.5548, 597.4883
362.0370, 581.4838
362.5191, 566.2024
363.0012, 552.1064
363.4833, 539.0788
363.9654, 526.8042
364.4475, 514.7980
364.9297, 503.0037
365.4118, 492.4124
365.8939, 483.4311
366.3760, 475.3481
366.8581, 467.8779
367.3402, 461.0791
367.8224, 455.1981
368.3045, 450.7117
368.7866, 447.0182
369.2687, 442.0828
369.7508, 434.9445
370.2329, 428.7502
370.7151, 424.9295
371.1972, 422.3024
371.6793, 419.8548
372.1614, 417.3643
372.6435, 414.7069
373.1256, 411.6863
373.6078, 408.2832
374.0899, 404.8686
374.5720, 401.1410
375.0541, 397.8002
375.5362, 395.3980
376.0183, 393.8859
376.5005, 392.7566
376.9826, 391.7051
377.4647, 390.7664
377.9468, 390.0836
378.4289, 389.7213
378.9110, 389.4902
379.3932, 389.1694
379.8753, 388.8837
380.3574, 388.9228
380.8395, 389.5319
381.3216, 390.3613
381.8037, 390.8474
382.2859, 390.9750
382.7680, 391.5805
383.2501, 393.4355
383.7322, 395.7162
384.2143, 397.0817
384.6964, 397.2831
385.1786, 397.3483
385.6607, 397.6599
386.1428, 398.2758
386.6249, 399.5200
387.1070, 401.6797
387.5891, 403.8754
388.0713, 404.9239
388.5534, 404.9439
389.0355, 405.0668
389.5176, 405.8027
389.9997, 406.5695
390.4818, 406.5621
390.9640, 405.8079
391.4461, 405.3013
391.9282, 405.6367
392.4103, 406.8282
392.8924, 408.6494
393.3745, 411.0989
393.8567, 414.1088
394.3388, 417.8592
394.8209, 422.1251
395.3030, 426.3509
395.7851, 430.3347
396.2672, 434.4164
396.7494, 439.2670
397.2315, 445.0672
397.7136, 451.2390
398.1957, 458.5293
398.6778, 465.7184
399.1599, 471.4306
399.6420, 475.7699
400.1241, 480.3384
400.6063, 486.7049
401.0884, 494.9879
401.5705, 501.7898
402.0526, 506.1827
402.5347, 510.3688
403.0168, 514.9314
403.4990, 519.7615
403.9811, 524.6640
404.4632, 529.5364
404.9453, 534.2382
405.4274, 538.3769
405.9095, 541.5206
406.3917, 544.7726
406.8738, 547.7937
407.3559, 551.1745
407.8380, 555.4899
408.3201, 560.7082
408.8022, 566.2509
409.2844, 571.5793
409.7665, 576.6346
410.2486, 582.0428
410.7307, 587.8074
411.2128, 593.9464
411.6949, 600.6076
412.1771, 607.6032
412.6592, 614.7725
413.1413, 622.1213
413.6234, 629.3065
414.1055, 635.5782
414.5876, 640.8574
415.0698, 645.5352
415.5519, 649.8840
416.0340, 653.5137
416.5161, 656.1385
416.9982, 657.7281
417.4803, 658.3045
417.9625, 657.8701
418.4446, 656.4427
418.9267, 654.2093
419.4088, 651.5436
419.8909, 647.3595
420.3730, 640.3676
420.8552, 631.5319
421.3373, 622.7618
421.8194, 614.6967
422.3015, 606.9775
422.7836, 599.2636
423.2657, 591.5673
423.7479, 583.7422
424.2300, 575.6415
424.7121, 567.4780
425.1942, 559.6084
425.6763, 552.1762
426.1584, 544.4256
426.6406, 535.5364
427.1227, 526.2454
427.6048, 517.9636
428.0869, 510.9112
428.5690, 504.2614
429.0511, 497.2599
429.5333, 489.9156
430.0154, 483.0992
430.4975, 477.0657
430.9796, 471.3106
431.4617, 465.4532
431.9438, 459.6665
432.4260, 454.2602
432.9081, 449.3495
433.3902, 445.1562
433.8723, 442.3236
434.3544, 442.4306
434.8365, 441.2825
435.3187, 437.1997
435.8008, 432.8317
436.2829, 430.7101
436.7650, 430.8765
437.2471, 431.3246
437.7292, 430.0776
438.2114, 427.0582
438.6935, 425.2612
439.1756, 425.6848
439.6577, 426.2466
440.1398, 426.3820
440.6219, 426.4172
441.1040, 426.8802
441.5862, 427.9905
442.0683, 429.4359
442.5504, 430.5515
443.0325, 431.0384
443.5146, 432.1421
443.9967, 434.2092
444.4789, 436.7242
444.9610, 439.4771
445.4431, 442.4414
445.9252, 445.6873
446.4073, 449.1988
446.8894, 453.0129
447.3716, 457.4425
447.8537, 462.9201
448.3358, 467.9120
448.8179, 472.3035
449.3000, 475.6306
449.7821, 477.1248
450.2643, 476.4615
450.7464, 474.7444
451.2285, 473.1704
451.7106, 471.4519
452.1927, 468.1907
452.6748, 463.1165
453.1570, 456.4623
453.6391, 447.7548
454.1212, 437.4286
454.6033, 427.2522
455.0854, 417.6321
455.5675, 408.3871
456.0497, 399.1307
456.5318, 390.0028
457.0139, 381.5774
457.4960, 374.0985
457.9781, 367.5746
458.4602, 362.0952
458.9424, 357.6675
459.4245, 354.0107
459.9066, 351.4071
460.3887, 349.3871
460.8708, 347.4262
461.3529, 345.4728
461.8351, 343.8981
462.3172, 343.0949
462.7993, 343.0967
463.2814, 342.9757
463.7635, 342.6402
464.2456, 342.2953
464.7278, 341.7988
465.2099, 341.3845
465.6920, 341.3085
466.1741, 341.6760
466.6562, 342.5184
467.1383, 344.0629
467.6205, 346.8083
468.1026, 348.7315
468.5847, 348.9002
469.0668, 349.0091
469.5489, 349.9623
470.0310, 351.5103
470.5132, 352.7831
470.9953, 353.0748
471.4774, 352.9044
471.9595, 353.9051
472.4416, 356.6571
472.9237, 358.4127
473.4059, 357.3417
473.8880, 355.3128
474.3701, 353.9262
474.8522, 353.3712
475.3343, 353.0788
475.8164, 353.2392
476.2986, 353.3442
476.7807, 351.8320
477.2628, 348.2643
477.7449, 344.5623
478.2270, 342.3553
478.7091, 341.2267
479.1913, 339.3810
479.6734, 336.1200
480.1555, 332.8055
480.6376, 330.2435
481.1197, 328.1246
481.6018, 325.7733
482.0839, 322.9629
482.5660, 319.9523
483.0482, 317.0499
483.5303, 314.2319
484.0124, 311.7062
484.4945, 309.7686
484.9766, 307.8329
485.4587, 305.4275
485.9409, 302.7569
486.4230, 300.3837
486.9051, 298.6298
487.3872, 297.2729
487.8693, 295.7099
488.3514, 293.9647
488.8336, 291.9162
489.3157, 288.8606
489.7978, 286.0950
490.2799, 284.7630
490.7620, 284.6907
491.2441, 284.7009
491.7263, 283.8565
492.2084, 282.3174
492.6905, 280.8513
493.1726, 279.5196
493.6547, 278.1241
494.1368, 276.2282
494.6190, 274.4125
495.1011, 273.3995
495.5832, 273.3961
496.0653, 273.5435
496.5474, 273.1724
497.0295, 272.4389
497.5117, 271.9091
497.9938, 271.7679
498.4759, 271.3684
498.9580, 269.8629
499.4401, 267.5489
499.9222, 266.0499
500.4044, 266.2467
500.8865, 266.4640
501.3686, 265.5682
501.8507, 264.0988
502.3328, 263.2787
502.8149, 263.5475
503.2971, 264.1300
503.7792, 263.8971
504.2613, 262.5126
504.7434, 261.4965
505.2255, 260.7401
505.7076, 260.4142
506.1898, 260.9922
506.6719, 262.0217
507.1540, 262.6290
507.6361, 262.3510
508.1182, 261.4631
508.6003, 260.5429
509.0825, 259.4745
509.5646, 258.6850
510.0467, 258.4186
510.5288, 258.2688
511.0109, 258.0801
511.4930, 257.8204
511.9752, 257.4472
512.4573, 256.7938
512.9394, 256.0977
513.4215, 255.9995
513.9036, 256.6050
514.3857, 257.1393
514.8679, 257.3348
515.3500, 257.2801
515.8321, 257.1851
516.3142, 257.0927
516.7963, 256.5965
517.2784, 254.8713
517.7606, 252.9384
518.2427, 252.4402
518.7248, 253.4534
519.2069, 254.6106
519.6890, 255.0785
520.1711, 254.9285
520.6533, 254.4734
521.1354, 253.0309
521.6175, 252.2280
522.0996, 252.7974
522.5817, 253.8633
523.0638, 254.5934
523.5460, 254.8340
524.0281, 254.8757
524.5102, 255.0113
524.9923, 255.2304
525.4744, 255.1251
525.9565, 254.4660
526.4387, 253.7641
526.9208, 252.7745
527.4029, 251.9724
527.8850, 252.0115
528.3671, 253.0137
528.8492, 254.1859
529.3314, 254.8575
529.8135, 255.0213
530.2956, 254.4040
530.7777, 252.4251
531.2598, 250.8456
531.7419, 251.3233
532.2241, 252.8075
532.7062, 253.5977
533.1883, 253.1192
533.6704, 252.4492
534.1525, 252.3539
534.6346, 252.6130
535.1168, 252.6399
535.5989, 252.2749
536.0810, 251.9731
536.5631, 252.2485
537.0452, 253.1362
537.5273, 253.7381
538.0095, 253.8987
538.4916, 253.9765
538.9737, 253.9878
539.4558, 254.0390
539.9379, 254.3628
540.4200, 255.0074
540.9022, 255.6456
541.3843, 255.7998
541.8664, 255.3867
542.3485, 254.9613
542.8306, 254.3629
543.3127, 253.9412
543.7948, 253.8628
544.2769, 254.0171
544.7590, 254.1248
545.2411, 254.0212
545.7233, 254.2818
546.2054, 256.2002
546.6875, 259.5805
547.1696, 261.1904
547.6517, 259.8102
548.1339, 257.9698
548.6160, 258.0076
549.0981, 259.3071
549.5802, 260.1855
550.0623, 260.1492
550.5444, 259.8021
551.0266, 259.4890
551.5087, 259.1606
551.9908, 258.6356
552.4729, 257.8476
552.9550, 257.0908
553.4371, 256.7526
553.9193, 256.9195
554.4014, 256.9911
554.8835, 256.8554
555.3656, 256.7656
555.8477, 256.8581
556.3298, 257.0416
556.8120, 257.2048
557.2941, 257.3021
557.7762, 257.2928
558.2583, 257.0765
558.7404, 256.6186
559.2225, 256.2541
559.7047, 256.0400
560.1868, 255.8621
560.6689, 255.6568
561.1510, 255.4474
561.6331, 255.2852
562.1152, 255.2110
562.5974, 255.1133
563.0795, 254.8161
563.5616, 254.3983
564.0437, 254.1967
564.5258, 254.3238
565.0079, 254.4413
565.4901, 254.1412
565.9722, 253.4734
566.4543, 253.2903
566.9364, 254.3394
567.4185, 255.0200
567.9006, 254.3352
568.3828, 253.0614
568.8649, 252.3510
569.3470, 252.4807
569.8291, 252.8203
570.3112, 252.5546
570.7933, 251.6012
571.2755, 251.5692
571.7576, 253.7590
572.2397, 255.2305
572.7218, 254.7545
573.2039, 253.4847
573.6860, 252.7495
574.1682, 252.8700
574.6503, 253.1638
575.1324, 252.8152
575.6145, 252.0555
576.0966, 252.0262
576.5787, 252.9699
577.0609, 253.9726
577.5430, 254.6271
578.0251, 254.8861
578.5072, 254.6727
578.9893, 253.7671
579.4714, 252.8813
579.9536, 251.9527
580.4357, 251.3675
580.9178, 251.8502
581.3999, 253.3375
581.8820, 254.8841
582.3641, 255.8194
582.8463, 256.1596
583.3284, 255.9912
583.8105, 254.7798
584.2926, 253.8247
584.7747, 253.2587
585.2568, 252.9409
585.7390, 252.8333
586.2211, 252.8830
586.7032, 252.9684
587.1853, 253.0332
587.6674, 253.0503
588.1495, 252.8285
588.6317, 252.2610
589.1138, 252.1531
589.5959, 253.0268
590.0780, 254.2349
590.5601, 255.1136
591.0422, 255.6690
591.5244, 255.7964
592.0065, 254.9888
592.4886, 254.1079
592.9707, 254.0249
593.4528, 254.5706
593.9349, 255.1017
594.4171, 255.3424
594.8992, 255.3653
595.3813, 255.2614
595.8634, 254.8668
596.3455, 254.8430
596.8276, 255.7492
597.3098, 256.3864
597.7919, 256.0137
598.2740, 255.0879
598.7561, 254.3847
599.2382, 254.2185
599.7203, 254.3799
600.2025, 254.5944
600.6846, 254.8671
601.1667, 255.4114
601.6488, 256.5032
602.1309, 257.3558
602.6130, 257.1775
603.0952, 256.4052
603.5773, 255.8747
604.0594, 255.6400
604.5415, 255.7572
605.0236, 256.7439
605.5057, 257.9135
605.9879, 258.0041
606.4700, 256.9046
606.9521, 255.6944
607.4342, 255.2292
607.9163, 255.4564
608.3984, 256.0060
608.8806, 257.5257
609.3627, 258.4508
609.8448, 258.2792
610.3269, 257.7596
610.8090, 257.2578
611.2911, 256.9378
611.7733, 257.1144
612.2554, 258.3298
612.7375, 259.8966
613.2196, 259.9263
613.7017, 258.2184
614.1838, 257.1683
614.6660, 257.8483
615.1481, 259.0484
615.6302, 259.3011
616.1123, 258.6822
616.5944, 258.1916
617.0765, 258.0431
617.5587, 258.0774
618.0408, 258.2402
618.5229, 258.4980
619.0050, 258.8443
619.4871, 259.2707
619.9692, 259.6057
620.4514, 259.5834
620.9335, 259.1332
621.4156, 258.8544
621.8977, 258.6643
622.3798, 258.7654
622.8619, 259.5534
623.3441, 260.4853
623.8262, 260.9335
