##NAMES=Zinkenite
##RRUFFID=R060186
##IDEAL CHEMISTRY=Pb^2+^_9_Sb^3+^_22_S^2-^_42_
##LOCALITY=Llallagua, Potosi Department, Bolivia
##OWNER=RRUFF
##SOURCE=Lloyd Twaites
##DESCRIPTION=Lead-gray metallic foliated fragment intimately associated with stibnite
##STATUS=The identification of this mineral has been confirmed by X-ray diffraction and chemical analysis
##URL=rruff.info/R060186
##MEASURED CHEMISTRY=lighter phase: (Pb_8.84_Cu_0.16_)_Σ=9_(Sb_21.92_As_0.08_)_Σ=22_S_42.00_ ; darker phase: Sb_2.00_S_3.00_
92.02539, 932.0784
92.50751, 944.8573
92.98962, 957.6527
93.47174, 954.7373
93.95386, 946.4194
94.43597, 934.8787
94.91809, 921.4103
95.40021, 907.9160
95.88232, 897.5400
96.36444, 891.6639
96.84656, 887.0118
97.32867, 883.5276
97.81078, 880.9809
98.29290, 879.0383
98.77502, 876.9735
99.25713, 873.5231
99.73925, 869.5104
100.2214, 865.9229
100.7035, 861.4916
101.1856, 855.8163
101.6677, 848.7128
102.1498, 839.9482
102.6320, 829.0187
103.1141, 814.1802
103.5962, 801.1767
104.0783, 790.6292
104.5604, 781.4402
105.0425, 772.3375
105.5247, 762.7337
106.0068, 753.5398
106.4889, 746.2103
106.9710, 740.4976
107.4531, 736.0323
107.9352, 733.0941
108.4173, 731.4333
108.8995, 729.6992
109.3816, 727.1087
109.8637, 724.4483
110.3458, 722.4014
110.8279, 720.9681
111.3100, 720.3346
111.7922, 720.9090
112.2743, 723.0335
112.7564, 725.2701
113.2385, 727.0299
113.7206, 728.7679
114.2027, 730.8112
114.6849, 733.2588
115.1670, 736.2036
115.6491, 739.9265
116.1312, 744.7263
116.6133, 750.1461
117.0954, 756.3704
117.5776, 763.1149
118.0597, 769.9685
118.5418, 776.6498
119.0239, 783.1603
119.5060, 790.1492
119.9881, 797.7488
120.4703, 805.5799
120.9524, 813.2123
121.4345, 820.7860
121.9166, 829.0012
122.3987, 838.4125
122.8808, 849.2471
123.3630, 861.1140
123.8451, 874.1064
124.3272, 888.0980
124.8093, 903.0836
125.2914, 919.2289
125.7735, 935.6454
126.2557, 952.2121
126.7378, 968.7361
127.2199, 982.6193
127.7020, 992.6683
128.1841, 999.2314
128.6662, 1003.259
129.1483, 1004.924
129.6305, 1003.559
130.1126, 998.8101
130.5947, 990.8749
131.0768, 981.5319
131.5589, 971.3943
132.0410, 960.0644
132.5232, 951.2704
133.0053, 946.1378
133.4874, 943.2827
133.9695, 942.3323
134.4516, 943.1713
134.9337, 945.7592
135.4159, 950.1686
135.8980, 957.2188
136.3801, 964.8160
136.8622, 972.8885
137.3443, 981.3317
137.8264, 990.0501
138.3086, 999.0117
138.7907, 1008.228
139.2728, 1017.534
139.7549, 1027.953
140.2370, 1037.308
140.7191, 1044.802
141.2013, 1051.256
141.6834, 1057.798
142.1655, 1064.929
142.6476, 1072.673
143.1297, 1081.008
143.6118, 1089.772
144.0939, 1099.105
144.5761, 1109.204
145.0582, 1119.977
145.5403, 1131.010
146.0224, 1141.801
146.5045, 1152.840
146.9866, 1165.230
147.4688, 1179.042
147.9509, 1194.163
148.4330, 1210.714
148.9151, 1228.860
149.3972, 1247.549
149.8793, 1265.327
150.3615, 1283.581
150.8436, 1304.547
151.3257, 1329.495
151.8078, 1357.358
152.2899, 1385.687
152.7720, 1415.681
153.2542, 1444.326
153.7363, 1471.366
154.2184, 1496.519
154.7005, 1519.998
155.1826, 1542.807
155.6647, 1564.316
156.1469, 1577.353
156.6290, 1578.186
157.1111, 1572.744
157.5932, 1561.414
158.0753, 1544.951
158.5574, 1524.229
159.0396, 1499.431
159.5217, 1469.896
160.0038, 1442.383
160.4859, 1416.967
160.9680, 1393.105
161.4501, 1369.906
161.9323, 1347.851
162.4144, 1328.618
162.8965, 1314.068
163.3786, 1304.908
163.8607, 1298.878
164.3428, 1295.983
164.8250, 1295.843
165.3071, 1298.463
165.7892, 1303.783
166.2713, 1311.243
166.7534, 1320.326
167.2355, 1331.056
167.7177, 1343.715
168.1998, 1359.029
168.6819, 1376.130
169.1640, 1393.936
169.6461, 1412.239
170.1282, 1431.126
170.6104, 1450.337
171.0925, 1469.768
171.5746, 1490.667
172.0567, 1513.756
172.5388, 1538.658
173.0209, 1564.424
173.5031, 1591.412
173.9852, 1618.484
174.4673, 1644.799
174.9494, 1670.386
175.4315, 1696.204
175.9136, 1722.333
176.3958, 1748.864
176.8779, 1777.235
177.3600, 1809.471
177.8421, 1842.239
178.3242, 1873.188
178.8063, 1902.480
179.2885, 1931.698
179.7706, 1962.717
180.2527, 1995.950
180.7348, 2029.521
181.2169, 2062.805
181.6990, 2096.803
182.1812, 2132.346
182.6633, 2169.508
183.1454, 2206.977
183.6275, 2242.725
184.1096, 2274.866
184.5917, 2309.388
185.0738, 2347.496
185.5560, 2386.719
186.0381, 2425.302
186.5202, 2462.774
187.0023, 2499.718
187.4844, 2536.972
187.9665, 2576.602
188.4487, 2613.095
188.9308, 2646.933
189.4129, 2677.355
189.8950, 2703.832
190.3771, 2726.056
190.8592, 2743.905
191.3414, 2756.794
191.8235, 2765.007
192.3056, 2767.508
192.7877, 2762.933
193.2698, 2752.871
193.7519, 2738.774
194.2341, 2720.761
194.7162, 2700.187
195.1983, 2679.684
195.6804, 2659.948
196.1625, 2638.433
196.6446, 2612.976
197.1268, 2585.107
197.6089, 2557.987
198.0910, 2532.368
198.5731, 2508.516
199.0552, 2486.556
199.5373, 2466.240
200.0195, 2447.643
200.5016, 2431.839
200.9837, 2418.132
201.4658, 2402.943
201.9479, 2383.952
202.4300, 2364.218
202.9122, 2347.660
203.3943, 2334.581
203.8764, 2321.767
204.3585, 2306.630
204.8406, 2289.160
205.3227, 2271.426
205.8048, 2253.385
206.2870, 2235.747
206.7691, 2219.639
207.2512, 2205.166
207.7333, 2190.350
208.2154, 2172.568
208.6975, 2151.046
209.1797, 2131.167
209.6618, 2115.024
210.1439, 2099.980
210.6260, 2084.682
211.1081, 2068.915
211.5902, 2053.476
212.0724, 2039.490
212.5545, 2027.521
213.0366, 2015.568
213.5187, 2002.105
214.0008, 1989.580
214.4829, 1979.345
214.9651, 1971.752
215.4472, 1966.280
215.9293, 1962.132
216.4114, 1958.767
216.8935, 1958.239
217.3756, 1961.623
217.8578, 1966.488
218.3399, 1970.885
218.8220, 1974.507
219.3041, 1978.802
219.7862, 1985.963
220.2683, 1997.068
220.7505, 2009.421
221.2326, 2023.695
221.7147, 2038.691
222.1968, 2052.996
222.6789, 2066.451
223.1610, 2080.691
223.6432, 2098.284
224.1253, 2121.590
224.6074, 2143.649
225.0895, 2162.631
225.5716, 2181.413
226.0537, 2202.682
226.5358, 2227.085
227.0180, 2252.933
227.5001, 2277.843
227.9822, 2301.005
228.4643, 2325.707
228.9464, 2352.124
229.4285, 2380.161
229.9107, 2410.150
230.3928, 2442.218
230.8749, 2474.244
231.3570, 2502.686
231.8391, 2527.075
232.3212, 2552.995
232.8034, 2583.137
233.2855, 2614.503
233.7676, 2643.455
234.2497, 2669.320
234.7318, 2692.957
235.2139, 2716.042
235.6961, 2738.494
236.1782, 2756.365
236.6603, 2768.296
237.1424, 2775.131
237.6245, 2778.374
238.1066, 2778.394
238.5888, 2774.066
239.0709, 2763.921
239.5530, 2748.767
240.0351, 2728.692
240.5172, 2703.237
240.9993, 2672.888
241.4815, 2638.299
241.9636, 2598.564
242.4457, 2556.441
242.9278, 2512.746
243.4099, 2468.172
243.8920, 2424.278
244.3742, 2382.534
244.8563, 2341.921
245.3384, 2299.550
245.8205, 2253.961
246.3026, 2210.153
246.7847, 2170.278
247.2668, 2133.996
247.7490, 2101.244
248.2311, 2072.384
248.7132, 2046.931
249.1953, 2023.282
249.6774, 2001.750
250.1595, 1981.695
250.6417, 1961.345
251.1238, 1942.477
251.6059, 1927.757
252.0880, 1918.816
252.5701, 1914.227
253.0522, 1910.353
253.5344, 1906.819
254.0165, 1904.959
254.4986, 1904.531
254.9807, 1905.891
255.4628, 1909.493
255.9449, 1915.553
256.4271, 1923.863
256.9092, 1934.010
257.3913, 1945.847
257.8734, 1960.081
258.3555, 1976.667
258.8376, 1995.234
259.3198, 2015.245
259.8019, 2036.412
260.2840, 2059.665
260.7661, 2087.033
261.2482, 2119.504
261.7303, 2154.703
262.2125, 2192.631
262.6946, 2232.649
263.1767, 2273.801
263.6588, 2316.050
264.1409, 2360.067
264.6230, 2407.717
265.1052, 2461.067
265.5873, 2514.274
266.0694, 2565.650
266.5515, 2617.516
267.0336, 2670.684
267.5157, 2725.516
267.9979, 2782.862
268.4800, 2844.035
268.9621, 2909.662
269.4442, 2977.872
269.9263, 3048.351
270.4084, 3121.065
270.8906, 3194.682
271.3727, 3269.599
271.8548, 3348.219
272.3369, 3433.792
272.8190, 3527.063
273.3011, 3623.839
273.7833, 3724.403
274.2654, 3827.301
274.7475, 3931.778
275.2296, 4037.686
275.7117, 4144.288
276.1938, 4250.716
276.6760, 4356.765
277.1581, 4465.149
277.6402, 4582.049
278.1223, 4695.436
278.6044, 4802.511
279.0865, 4902.120
279.5686, 4993.045
280.0508, 5075.292
280.5329, 5148.973
281.0150, 5201.310
281.4971, 5237.773
281.9792, 5252.686
282.4613, 5244.399
282.9435, 5212.819
283.4256, 5157.330
283.9077, 5076.959
284.3898, 4972.315
284.8719, 4852.645
285.3540, 4711.125
285.8362, 4564.368
286.3183, 4413.271
286.8004, 4260.202
287.2825, 4107.661
287.7646, 3956.028
288.2467, 3807.980
288.7289, 3671.115
289.2110, 3541.781
289.6931, 3427.214
290.1752, 3331.539
290.6573, 3251.271
291.1394, 3182.518
291.6216, 3123.736
292.1037, 3075.656
292.5858, 3040.019
293.0679, 3019.030
293.5500, 3006.728
294.0321, 3004.786
294.5143, 3010.366
294.9964, 3021.063
295.4785, 3036.254
295.9606, 3054.927
296.4427, 3076.058
296.9248, 3100.672
297.4070, 3124.958
297.8891, 3147.817
298.3712, 3170.876
298.8533, 3195.440
299.3354, 3221.645
299.8175, 3249.422
300.2997, 3278.832
300.7818, 3310.167
301.2639, 3341.715
301.7460, 3374.400
302.2281, 3406.320
302.7102, 3435.820
303.1924, 3463.085
303.6745, 3490.723
304.1566, 3521.258
304.6387, 3554.331
305.1208, 3584.673
305.6029, 3610.958
306.0851, 3636.236
306.5672, 3660.542
307.0493, 3684.814
307.5314, 3712.214
308.0135, 3745.244
308.4956, 3782.190
308.9778, 3815.068
309.4599, 3847.651
309.9420, 3872.755
310.4241, 3894.448
310.9062, 3906.608
311.3883, 3898.956
311.8705, 3868.769
312.3526, 3812.422
312.8347, 3719.344
313.3168, 3592.301
313.7989, 3431.697
314.2810, 3226.358
314.7632, 2991.374
315.2453, 2738.012
315.7274, 2468.897
316.2095, 2199.630
316.6916, 1948.063
317.1737, 1712.491
317.6559, 1503.786
318.1380, 1325.790
318.6201, 1173.363
319.1022, 1044.584
319.5843, 938.0356
320.0664, 848.8488
320.5485, 773.4404
321.0306, 713.7687
321.5128, 662.2405
321.9949, 621.1230
322.4770, 585.6541
322.9591, 553.0983
323.4412, 523.5140
323.9233, 497.7304
324.4055, 476.8678
324.8876, 460.4000
325.3697, 444.9772
325.8518, 430.5611
326.3339, 416.9761
326.8160, 403.9404
327.2982, 391.6693
327.7803, 380.5780
328.2624, 370.9263
328.7445, 362.3981
329.2266, 354.1516
329.7087, 345.9001
330.1909, 338.3599
330.6730, 332.1217
331.1551, 326.5371
331.6372, 320.6905
332.1193, 314.3091
332.6014, 307.9274
333.0836, 302.2671
333.5657, 297.5047
334.0478, 293.1228
334.5299, 289.1494
335.0120, 285.5501
335.4941, 282.4388
335.9763, 279.7825
336.4584, 277.1226
336.9405, 273.9890
337.4226, 270.2999
337.9047, 267.1940
338.3868, 264.7760
338.8690, 262.7307
339.3511, 261.1990
339.8332, 259.9448
340.3153, 258.3139
340.7974, 255.8230
341.2795, 252.6638
341.7617, 250.1095
342.2438, 248.3238
342.7259, 246.8504
343.2080, 245.8095
343.6901, 244.9654
344.1722, 243.9465
344.6544, 242.5985
345.1365, 241.1199
345.6186, 239.9321
346.1007, 239.3498
346.5828, 238.5918
347.0649, 237.4592
347.5471, 236.2694
348.0292, 235.3864
348.5113, 234.8454
348.9934, 234.2839
349.4755, 233.2537
349.9576, 231.5854
350.4398, 230.1149
350.9219, 228.7727
351.4040, 227.6491
351.8861, 226.9109
352.3682, 226.4645
352.8503, 226.0488
353.3325, 225.4766
353.8146, 224.7541
354.2967, 223.9564
354.7788, 223.0780
355.2609, 222.1322
355.7430, 221.1221
356.2252, 220.0470
356.7073, 218.9082
357.1894, 217.7090
357.6715, 216.4327
358.1536, 215.0112
358.6357, 213.2602
359.1179, 211.6489
359.5999, 210.2160
360.0821, 208.9021
360.5642, 207.7816
361.0463, 206.8071
361.5284, 205.7199
362.0105, 204.1820
362.4926, 202.1203
362.9748, 199.8711
363.4569, 197.0419
363.9390, 194.4080
364.4211, 192.4068
364.9032, 190.8970
365.3853, 189.4910
365.8675, 187.8952
366.3496, 186.1327
366.8317, 184.4241
367.3138, 182.7329
367.7959, 181.1550
368.2780, 179.9230
368.7602, 178.7413
369.2423, 177.1568
369.7244, 174.9622
370.2065, 172.5616
370.6886, 170.8004
371.1707, 169.9835
371.6529, 169.0523
372.1350, 167.6823
372.6171, 166.2785
373.0992, 165.0821
373.5813, 164.1369
374.0634, 163.3281
374.5456, 162.6668
375.0277, 162.1807
375.5098, 161.2385
375.9919, 159.1464
376.4740, 157.3570
376.9561, 156.8308
377.4383, 157.1087
377.9204, 157.0849
378.4025, 155.8930
378.8846, 154.0961
379.3667, 153.3828
379.8488, 154.2026
380.3310, 154.9461
380.8131, 154.8844
381.2952, 154.4529
381.7773, 154.0957
382.2594, 153.9591
382.7415, 153.7527
383.2237, 152.9980
383.7058, 151.6990
384.1879, 150.8224
384.6700, 150.8771
385.1521, 151.1585
385.6342, 151.0610
386.1164, 150.5927
386.5985, 149.9554
387.0806, 149.1467
387.5627, 148.2640
388.0448, 147.4892
388.5269, 146.7922
389.0091, 146.3697
389.4912, 146.8596
389.9733, 147.7314
390.4554, 147.7135
390.9375, 145.8739
391.4196, 143.6732
391.9018, 142.4776
392.3839, 142.1893
392.8660, 141.9488
393.3481, 141.3446
393.8302, 140.6143
394.3123, 140.2504
394.7945, 140.3692
395.2766, 140.4353
395.7587, 140.3111
396.2408, 139.9803
396.7229, 139.3084
397.2050, 138.2199
397.6872, 137.1651
398.1693, 136.7097
398.6514, 136.9254
399.1335, 136.8575
399.6156, 136.2490
400.0977, 135.5165
400.5798, 134.9318
401.0620, 134.4902
401.5441, 134.0792
402.0262, 133.6264
402.5083, 133.1513
402.9904, 132.7669
403.4725, 132.5435
403.9547, 132.3087
404.4368, 131.9409
404.9189, 131.5778
405.4010, 131.4745
405.8831, 131.6943
406.3652, 131.9382
406.8474, 131.7319
407.3295, 130.7987
407.8116, 130.2277
408.2937, 130.4238
408.7758, 130.5826
409.2579, 130.1485
409.7401, 129.2454
410.2222, 128.3859
410.7043, 127.9491
411.1864, 127.8851
411.6685, 127.7306
412.1506, 127.2687
412.6328, 126.9913
413.1149, 127.2476
413.5970, 127.5989
414.0791, 127.4574
414.5612, 126.6456
415.0433, 125.6664
415.5255, 125.3232
416.0076, 125.7824
416.4897, 126.3047
416.9718, 127.1066
417.4539, 127.7370
417.9360, 127.7880
418.4182, 127.4271
418.9003, 127.2339
419.3824, 127.6758
419.8645, 128.6150
420.3466, 129.4891
420.8287, 130.3918
421.3109, 131.0097
421.7930, 131.0617
422.2751, 130.8439
422.7572, 130.6171
423.2393, 130.4123
423.7214, 130.3968
424.2036, 130.8196
424.6857, 131.6650
425.1678, 132.5484
425.6499, 133.4604
426.1320, 134.2862
426.6141, 134.9104
427.0963, 135.3537
427.5784, 135.7752
428.0605, 136.3150
428.5426, 136.8456
429.0247, 137.1323
429.5068, 137.1538
429.9890, 137.1327
430.4711, 137.1740
430.9532, 137.2901
431.4353, 137.4879
431.9174, 137.8106
432.3995, 138.1513
432.8817, 138.6126
433.3638, 139.0372
433.8459, 138.9731
434.3280, 138.2193
434.8101, 137.3331
435.2922, 137.1188
435.7744, 137.7774
436.2565, 138.3439
436.7386, 138.7568
437.2207, 139.0912
437.7028, 139.3584
438.1849, 139.5842
438.6671, 139.8486
439.1492, 140.2189
439.6313, 140.6593
440.1134, 140.9505
440.5955, 140.9525
441.0776, 140.9776
441.5598, 141.1733
442.0418, 141.3512
442.5240, 141.2280
443.0061, 140.7710
443.4882, 140.3115
443.9703, 140.3481
444.4524, 141.0793
444.9345, 141.3765
445.4167, 140.8400
445.8988, 140.2581
446.3809, 139.8343
446.8630, 139.5812
447.3451, 139.4735
447.8272, 139.5088
448.3094, 139.6579
448.7915, 139.8668
449.2736, 140.1736
449.7557, 140.4276
450.2378, 140.4744
450.7199, 140.5333
451.2021, 140.8616
451.6842, 141.4557
452.1663, 141.9027
452.6484, 141.7275
453.1305, 141.0964
453.6126, 140.8106
454.0948, 141.0911
454.5769, 141.3076
455.0590, 140.7366
455.5411, 139.8422
456.0232, 139.4984
456.5053, 140.2002
456.9875, 141.0882
457.4696, 141.3791
457.9517, 141.2069
458.4338, 141.2044
458.9159, 141.6112
459.3980, 142.2152
459.8802, 142.7220
460.3623, 143.1329
460.8444, 143.4940
461.3265, 143.7560
461.8086, 144.0080
462.2907, 144.3136
462.7729, 144.6818
463.2550, 145.1277
463.7371, 145.6828
464.2192, 146.3131
464.7013, 146.8401
465.1834, 147.0990
465.6656, 147.4711
466.1477, 148.2124
466.6298, 148.9968
467.1119, 149.2823
467.5940, 149.0324
468.0761, 148.9584
468.5583, 150.0621
469.0404, 152.7009
469.5225, 154.2483
470.0046, 153.7761
470.4867, 153.1521
470.9688, 152.8924
471.4510, 152.8636
471.9331, 152.7475
472.4152, 152.3748
472.8973, 151.9628
473.3794, 151.9650
473.8615, 152.4848
474.3437, 152.9733
474.8258, 153.2384
475.3079, 153.5199
475.7900, 154.1084
476.2721, 154.9120
476.7542, 155.4411
477.2364, 155.0885
477.7185, 154.3106
478.2006, 154.2695
478.6827, 155.1127
479.1648, 155.8287
479.6469, 155.8056
480.1291, 155.3639
480.6112, 155.0688
481.0933, 154.9212
481.5754, 154.9848
482.0575, 155.6253
482.5396, 156.4236
483.0217, 156.4895
483.5038, 155.6214
483.9860, 154.5474
484.4681, 153.9629
484.9502, 153.8943
485.4323, 153.6456
485.9144, 153.0115
486.3965, 152.4263
486.8787, 152.0510
487.3608, 151.8557
487.8429, 151.7745
488.3250, 151.7802
488.8071, 151.8854
489.2892, 152.1560
489.7714, 152.8721
490.2535, 153.0423
490.7356, 152.4151
491.2177, 151.5736
491.6998, 150.6837
492.1819, 149.8289
492.6641, 149.1057
493.1462, 148.5771
493.6283, 148.2240
494.1104, 148.0060
494.5925, 147.9588
495.0746, 147.9511
495.5568, 147.9462
496.0389, 147.9758
496.5210, 148.1146
497.0031, 148.3471
497.4852, 148.4981
497.9673, 148.5093
498.4495, 148.3407
498.9316, 147.7550
499.4137, 146.6111
499.8958, 145.6772
500.3779, 145.4747
500.8600, 145.7603
501.3422, 146.0353
501.8243, 146.3589
502.3064, 146.4868
502.7885, 146.0183
503.2706, 145.3431
503.7527, 145.2581
504.2349, 145.9435
504.7170, 146.7719
505.1991, 147.1270
505.6812, 146.9792
506.1633, 146.9008
506.6454, 146.9776
507.1276, 147.0214
507.6097, 146.9897
508.0918, 146.8729
508.5739, 146.6142
509.0560, 146.2014
509.5381, 145.7824
510.0203, 145.5811
510.5024, 145.5982
510.9845, 145.8329
511.4666, 146.7746
511.9487, 147.4473
512.4308, 147.3359
512.9130, 146.6864
513.3951, 145.9836
513.8772, 145.4391
514.3593, 145.0592
514.8414, 144.9069
515.3235, 145.0209
515.8057, 145.0702
516.2878, 145.0475
516.7699, 144.8549
517.2520, 144.3288
517.7341, 143.5257
518.2162, 142.8449
518.6984, 142.6733
519.1805, 142.5865
519.6626, 141.9330
520.1447, 140.7506
520.6268, 139.7020
521.1089, 139.1652
521.5911, 138.8762
522.0732, 138.1904
522.5553, 136.9032
523.0374, 135.8799
523.5195, 135.4984
524.0016, 135.2795
524.4838, 134.7226
524.9659, 133.8780
525.4480, 133.2540
525.9301, 133.2877
526.4122, 133.7548
526.8943, 133.4622
527.3765, 131.7261
527.8586, 130.1816
528.3407, 128.9072
528.8228, 127.9024
529.3049, 127.2640
529.7870, 126.9395
530.2692, 126.6711
530.7513, 126.2648
531.2334, 125.7249
531.7155, 125.0309
532.1976, 124.0790
532.6797, 123.2212
533.1619, 122.7277
533.6440, 122.3463
534.1261, 121.7653
534.6082, 120.9010
535.0903, 120.1583
535.5724, 120.0005
536.0546, 120.1099
536.5367, 119.7443
537.0188, 118.7861
537.5009, 117.7291
537.9830, 116.9145
538.4651, 116.3088
538.9473, 115.7082
539.4294, 114.8135
539.9115, 114.2918
540.3936, 114.7525
540.8757, 115.4870
541.3578, 115.5737
541.8400, 114.8616
542.3221, 113.8561
542.8042, 113.0259
543.2863, 112.3682
543.7684, 112.0662
544.2505, 112.5117
544.7326, 112.8562
545.2147, 112.9488
545.6968, 112.8575
546.1790, 112.6211
546.6611, 112.2631
547.1432, 111.8920
547.6253, 111.6482
548.1074, 111.5160
548.5895, 111.3055
549.0717, 110.9534
549.5538, 110.6445
550.0359, 110.4763
550.5180, 110.4267
551.0001, 110.5121
551.4822, 110.8315
551.9644, 111.0477
552.4465, 110.8598
552.9286, 110.4351
553.4107, 110.1457
553.8928, 110.0670
554.3749, 109.9505
554.8571, 109.5239
555.3392, 108.8028
555.8213, 108.4213
556.3034, 108.8372
556.7855, 108.9841
557.2676, 108.2804
557.7498, 107.3060
558.2319, 106.7870
558.7140, 106.8709
559.1961, 107.1704
559.6782, 107.3030
560.1603, 107.2694
560.6425, 107.0054
561.1246, 106.3384
561.6067, 105.6920
562.0888, 105.2790
562.5709, 104.9144
563.0530, 104.2942
563.5352, 103.3333
564.0173, 102.5323
564.4994, 102.5794
564.9815, 103.1417
565.4636, 103.0413
565.9457, 102.0617
566.4279, 100.9667
566.9100, 100.2350
567.3921, 99.79581
567.8742, 99.32753
568.3563, 98.65219
568.8384, 98.24111
569.3206, 98.61862
569.8027, 99.16419
570.2848, 99.00896
570.7669, 98.09560
571.2490, 97.11190
571.7311, 96.68740
572.2133, 96.74692
572.6954, 96.47160
573.1775, 95.33897
573.6596, 94.59469
574.1417, 94.88548
574.6238, 95.28386
575.1060, 94.84026
575.5881, 93.53788
576.0702, 92.24952
576.5523, 91.76140
577.0344, 91.86140
577.5165, 91.74641
577.9987, 91.35811
578.4808, 91.02471
578.9629, 91.03743
579.4450, 91.07309
579.9271, 90.59418
580.4092, 89.48554
580.8914, 88.63136
581.3735, 88.56943
581.8556, 88.80248
582.3377, 88.87661
582.8198, 88.73193
583.3019, 88.25441
583.7841, 87.30070
584.2662, 86.16213
584.7483, 85.65601
585.2304, 86.42136
585.7125, 86.77554
