##NAMES=Zinkenite
##RRUFFID=R060186
##IDEAL CHEMISTRY=Pb^2+^_9_Sb^3+^_22_S^2-^_42_
##LOCALITY=Llallagua, Potosi Department, Bolivia
##OWNER=RRUFF
##SOURCE=Lloyd Twaites
##DESCRIPTION=Lead-gray metallic foliated fragment intimately associated with stibnite
##STATUS=The identification of this mineral has been confirmed by X-ray diffraction and chemical analysis
##URL=rruff.info/R060186
##MEASURED CHEMISTRY=lighter phase: (Pb_8.84_Cu_0.16_)_Σ=9_(Sb_21.92_As_0.08_)_Σ=22_S_42.00_ ; darker phase: Sb_2.00_S_3.00_
90.26367, 25.05945
90.74579, 25.08808
91.22791, 25.07795
91.71002, 25.03329
92.19214, 24.99123
92.67426, 25.05420
93.15637, 25.15306
93.63850, 25.10409
94.12061, 24.83263
94.60273, 24.37730
95.08485, 23.73500
95.56696, 22.87393
96.04908, 22.08051
96.53120, 21.77194
97.01331, 21.93077
97.49543, 22.09777
97.97755, 22.00495
98.45966, 21.67823
98.94178, 21.65711
99.42390, 22.06726
99.90602, 22.60562
100.3881, 22.63643
100.8703, 22.02530
101.3524, 21.37969
101.8345, 20.95882
102.3166, 20.75334
102.7987, 20.88513
103.2808, 21.58173
103.7630, 22.61773
104.2451, 22.92432
104.7272, 22.15635
105.2093, 21.11831
105.6914, 20.31398
106.1735, 19.84320
106.6557, 19.44129
107.1378, 19.00106
107.6199, 18.50648
108.1020, 18.43513
108.5841, 19.21754
109.0662, 20.19743
109.5484, 20.79601
110.0305, 20.80264
110.5126, 20.64507
110.9947, 20.34891
111.4768, 19.86996
111.9590, 19.45365
112.4411, 18.99914
112.9232, 18.64603
113.4053, 18.58695
113.8874, 18.97896
114.3695, 19.56591
114.8517, 20.34858
115.3338, 21.55374
115.8159, 22.36458
116.2980, 22.19493
116.7801, 21.44991
117.2622, 21.01586
117.7444, 21.42146
118.2265, 22.12801
118.7086, 22.77428
119.1907, 23.22159
119.6728, 23.70166
120.1549, 24.30612
120.6371, 25.03946
121.1192, 25.92380
121.6013, 26.85140
122.0834, 27.96780
122.5655, 29.47678
123.0477, 32.00834
123.5298, 34.45952
124.0119, 35.43087
124.4940, 35.04029
124.9761, 34.95367
125.4582, 36.80412
125.9404, 39.89927
126.4225, 42.87156
126.9046, 45.15338
127.3867, 46.99866
127.8688, 48.80414
128.3509, 50.57714
128.8331, 52.23870
129.3152, 53.61668
129.7973, 54.77356
130.2794, 55.98693
130.7615, 57.22443
131.2436, 58.59633
131.7258, 60.62820
132.2079, 63.50647
132.6900, 66.55538
133.1721, 68.50935
133.6542, 69.34270
134.1364, 70.41193
134.6185, 72.39909
135.1006, 75.30482
135.5827, 78.91508
136.0648, 83.52124
136.5469, 88.51591
137.0291, 92.50493
137.5112, 95.41245
137.9933, 97.50898
138.4754, 98.70959
138.9575, 98.78410
139.4396, 99.39346
139.9218, 100.9532
140.4039, 103.1774
140.8860, 104.5386
141.3681, 104.6507
141.8502, 104.5677
142.3323, 105.0970
142.8145, 106.3971
143.2966, 107.9142
143.7787, 109.5536
144.2608, 111.3313
144.7429, 113.3158
145.2251, 115.5555
145.7072, 117.9836
146.1893, 120.5702
146.6714, 123.4925
147.1535, 126.2955
147.6356, 128.7512
148.1178, 130.7227
148.5999, 133.2114
149.0820, 135.4173
149.5641, 138.6171
150.0462, 141.2868
150.5283, 143.4550
151.0105, 143.6195
151.4926, 146.3714
151.9747, 148.0862
152.4568, 149.7586
152.9389, 152.8747
153.4210, 153.3303
153.9032, 156.4239
154.3853, 158.4642
154.8674, 160.9865
155.3495, 162.4652
155.8316, 164.2663
156.3138, 167.1115
156.7959, 166.2967
157.2780, 167.2510
157.7601, 168.3058
158.2422, 169.3130
158.7243, 170.3588
159.2065, 171.5063
159.6886, 172.8434
160.1707, 174.1353
160.6528, 175.2916
161.1349, 176.3469
161.6170, 177.3940
162.0992, 178.6161
162.5813, 179.7510
163.0634, 180.6082
163.5455, 180.9534
164.0276, 181.2796
164.5097, 181.5966
164.9919, 182.0042
165.4740, 182.9044
165.9561, 184.9102
166.4382, 187.3021
166.9203, 189.4600
167.4025, 191.1913
167.8846, 192.6654
168.3667, 193.8235
168.8488, 194.7366
169.3309, 195.8638
169.8130, 198.0747
170.2952, 200.5009
170.7773, 202.0267
171.2594, 201.5833
171.7415, 200.6483
172.2236, 200.4177
172.7057, 200.8584
173.1879, 201.5433
173.6700, 202.2393
174.1521, 202.9534
174.6342, 203.7008
175.1163, 204.5054
175.5984, 205.3410
176.0806, 206.2278
176.5627, 207.1713
177.0448, 207.9789
177.5269, 208.4957
178.0090, 208.7468
178.4911, 208.8035
178.9733, 208.5334
179.4554, 208.1386
179.9375, 207.8914
180.4196, 207.7906
180.9017, 207.9092
181.3839, 208.4203
181.8660, 209.2437
182.3481, 210.1118
182.8302, 210.9951
183.3123, 211.8285
183.7944, 212.4699
184.2766, 212.9304
184.7587, 213.1808
185.2408, 213.0220
185.7229, 212.5384
186.2050, 212.2304
186.6871, 212.3647
187.1693, 211.9215
187.6514, 213.0784
188.1335, 213.7053
188.6156, 213.8306
189.0977, 211.9518
189.5798, 212.6608
190.0620, 212.3328
190.5441, 211.9622
191.0262, 213.0355
191.5083, 211.4482
191.9904, 212.4986
192.4725, 212.4960
192.9547, 212.9753
193.4368, 212.4112
193.9189, 212.1694
194.4010, 212.9713
194.8831, 213.1953
195.3652, 212.5111
195.8474, 213.0211
196.3295, 211.3974
196.8116, 211.6460
197.2937, 212.7025
197.7758, 212.2979
198.2579, 212.3478
198.7401, 210.3936
199.2222, 211.0272
199.7043, 210.6237
200.1864, 210.1778
200.6685, 211.1756
201.1507, 209.5129
201.6328, 210.4878
202.1149, 210.4098
202.5970, 210.8138
203.0791, 210.1742
203.5612, 209.8570
204.0434, 210.5835
204.5255, 209.0096
205.0076, 206.7219
205.4897, 204.1714
205.9718, 202.1750
206.4539, 200.8035
206.9361, 199.5614
207.4182, 198.3851
207.9003, 197.3233
208.3824, 196.5265
208.8645, 196.0579
209.3466, 195.6874
209.8288, 195.3209
210.3109, 195.0109
210.7930, 194.4505
211.2751, 193.5009
211.7572, 192.3125
212.2393, 191.4403
212.7215, 191.0192
213.2036, 190.6342
213.6857, 189.9951
214.1678, 188.9918
214.6499, 188.0967
215.1321, 187.3613
215.6142, 186.7537
216.0963, 186.1614
216.5784, 185.5965
217.0605, 185.0267
217.5426, 184.4302
218.0248, 183.8080
218.5069, 183.1747
218.9890, 182.5326
219.4711, 181.8816
219.9532, 181.1711
220.4353, 180.2622
220.9175, 179.5134
221.3996, 179.1890
221.8817, 179.4900
222.3638, 179.7052
222.8459, 179.7794
223.3280, 179.7189
223.8102, 179.5401
224.2923, 179.1848
224.7744, 178.7946
225.2565, 178.4219
225.7386, 177.9488
226.2208, 177.7874
226.7029, 178.0765
227.1850, 178.7210
227.6671, 179.2395
228.1492, 179.6706
228.6313, 179.9212
229.1135, 179.9044
229.5956, 179.4730
230.0777, 179.1034
230.5598, 178.8201
231.0419, 178.6255
231.5240, 178.5322
232.0062, 178.5982
232.4883, 178.6909
232.9704, 178.7681
233.4525, 178.9732
233.9346, 178.8304
234.4167, 178.1254
234.8989, 177.0235
235.3810, 176.3386
235.8631, 176.3581
236.3452, 176.4020
236.8273, 176.0471
237.3095, 175.0285
237.7916, 174.1917
238.2737, 173.6774
238.7558, 173.3798
239.2379, 172.8110
239.7200, 171.6947
240.2022, 170.6760
240.6843, 170.1646
241.1664, 170.6045
241.6485, 170.5638
242.1306, 169.8232
242.6127, 168.5579
243.0949, 167.4594
243.5770, 166.6397
244.0591, 165.8349
244.5412, 164.8637
245.0233, 163.4161
245.5054, 162.5128
245.9876, 162.4004
246.4697, 162.8287
246.9518, 162.0123
247.4339, 163.3552
247.9160, 164.1681
248.3981, 164.4794
248.8803, 162.7868
249.3624, 163.6818
249.8445, 163.5398
250.3266, 163.3553
250.8087, 164.6145
251.2909, 163.2134
251.7730, 164.4497
252.2551, 164.6332
252.7372, 165.2986
253.2193, 164.9205
253.7014, 164.8647
254.1836, 165.8527
254.6657, 166.2627
255.1478, 165.7645
255.6299, 166.4605
256.1120, 165.0229
256.5941, 165.4575
257.0763, 166.7000
257.5584, 166.2543
258.0405, 166.9693
258.5226, 167.2423
259.0047, 166.5979
259.4868, 167.2110
259.9690, 167.9483
260.4511, 168.8553
260.9332, 169.6527
261.4153, 170.2380
261.8974, 170.8132
262.3795, 171.7641
262.8617, 173.2974
263.3438, 174.7217
263.8259, 175.7436
264.3080, 176.2585
264.7901, 177.1220
265.2722, 178.4908
265.7544, 180.0188
266.2365, 181.1217
266.7186, 181.6054
267.2007, 182.2176
267.6829, 182.9423
268.1650, 183.7227
268.6471, 186.1897
269.1292, 191.0483
269.6113, 196.5532
270.0934, 200.6197
270.5756, 202.3064
271.0577, 204.0849
271.5398, 205.3462
272.0219, 206.1164
272.5040, 205.0200
272.9861, 206.2607
273.4683, 206.5201
273.9504, 206.7086
274.4325, 208.1868
274.9146, 207.1976
275.3967, 208.5910
275.8788, 208.9886
276.3610, 209.7954
276.8431, 209.6150
277.3252, 209.6977
277.8073, 210.7040
278.2894, 211.1493
278.7715, 210.7311
279.2537, 211.3743
279.7358, 210.0322
280.2179, 210.3722
280.7000, 211.4198
281.1821, 210.8899
281.6642, 211.3908
282.1464, 211.4550
282.6285, 209.6479
283.1106, 209.8391
283.5927, 209.1210
284.0748, 208.3918
284.5569, 207.6380
285.0391, 206.9542
285.5212, 206.3790
286.0033, 205.9122
286.4854, 205.5794
286.9675, 205.3750
287.4496, 205.3121
287.9318, 205.4230
288.4139, 205.7105
288.8960, 206.1398
289.3781, 206.7937
289.8602, 207.6110
290.3424, 208.2674
290.8245, 208.7182
291.3066, 209.0553
291.7887, 209.3215
292.2708, 209.5433
292.7530, 209.9559
293.2351, 210.8311
293.7172, 212.0096
294.1993, 212.9902
294.6814, 213.7555
295.1635, 214.3213
295.6457, 214.6822
296.1278, 214.8488
296.6099, 214.8575
297.0920, 214.5099
297.5741, 214.0576
298.0562, 214.2509
298.5384, 215.1708
299.0205, 215.7823
299.5026, 214.6255
299.9847, 212.2996
300.4668, 210.3652
300.9489, 209.9733
301.4311, 210.0759
301.9132, 209.1396
302.3953, 207.1920
302.8774, 205.0775
303.3595, 203.4926
303.8416, 202.1973
304.3238, 200.7296
304.8059, 198.9816
305.2880, 197.0021
305.7701, 194.7568
306.2522, 192.2765
306.7343, 189.8889
307.2165, 188.0446
307.6986, 186.3092
308.1807, 184.1188
308.6628, 181.1685
309.1449, 177.9445
309.6270, 174.7584
310.1092, 171.5533
310.5913, 168.2488
311.0734, 164.6799
311.5555, 161.0416
312.0376, 157.5433
312.5197, 154.2200
313.0019, 151.0264
313.4840, 147.7020
313.9661, 144.4469
314.4482, 141.6367
314.9304, 139.8376
315.4125, 138.2415
315.8946, 136.3120
316.3767, 133.8764
316.8588, 131.6415
317.3409, 129.9527
317.8231, 128.6036
318.3052, 127.3271
318.7873, 126.0641
319.2694, 124.8214
319.7515, 123.5654
320.2336, 122.2852
320.7158, 121.1377
321.1979, 120.3145
321.6800, 119.5858
322.1621, 118.7477
322.6442, 117.5281
323.1263, 116.4320
323.6085, 115.6112
324.0906, 115.0524
324.5727, 114.5186
325.0548, 111.9426
325.5369, 112.8832
326.0190, 113.2938
326.5012, 113.2027
326.9833, 111.1076
327.4654, 111.6003
327.9475, 111.0559
328.4296, 110.4691
328.9117, 111.3260
329.3939, 109.5224
329.8760, 110.3563
330.3581, 110.1375
330.8402, 110.4005
331.3223, 109.6200
331.8044, 109.1619
332.2866, 108.8074
332.7687, 108.0122
333.2508, 107.2141
333.7329, 106.5284
334.2150, 105.9211
334.6971, 105.6073
335.1793, 105.7224
335.6614, 105.9969
336.1435, 106.0866
336.6256, 105.9566
337.1077, 105.7397
337.5899, 105.4589
338.0720, 105.1159
338.5541, 104.7742
339.0362, 104.4305
339.5183, 104.0979
340.0005, 103.7789
340.4826, 103.4627
340.9647, 103.2300
341.4468, 103.1063
341.9289, 103.0694
342.4110, 103.0892
342.8932, 103.1884
343.3753, 103.1875
343.8574, 102.8363
344.3395, 102.1698
344.8216, 101.8408
345.3037, 101.9756
345.7859, 102.3430
346.2680, 102.5796
346.7501, 102.6896
347.2322, 102.7261
347.7143, 102.7413
348.1964, 102.7067
348.6786, 102.4666
349.1607, 101.9717
349.6428, 101.5184
350.1249, 101.6371
350.6070, 102.1095
351.0891, 102.2357
351.5713, 101.3664
352.0534, 100.1648
352.5355, 99.70659
353.0176, 99.97221
353.4997, 100.2645
353.9818, 99.89749
354.4640, 99.23432
354.9461, 98.84209
355.4282, 99.01115
355.9103, 99.34917
356.3924, 99.56135
356.8745, 99.66203
357.3567, 99.70338
357.8388, 99.73673
358.3209, 99.71436
358.8030, 99.58044
359.2851, 99.29301
359.7672, 98.98425
360.2494, 98.65643
360.7315, 98.36085
361.2136, 98.19607
361.6957, 98.34964
362.1779, 98.51701
362.6600, 98.52795
363.1421, 98.34695
363.6242, 98.17944
364.1063, 98.25144
364.5884, 98.29855
365.0706, 98.04983
365.5527, 96.87146
366.0348, 95.99744
366.5169, 95.89169
366.9990, 96.50096
367.4811, 96.85185
367.9633, 96.53837
368.4454, 96.15768
368.9275, 96.05704
369.4096, 96.64146
369.8917, 96.95061
370.3738, 96.85064
370.8560, 96.46858
371.3381, 96.15512
371.8202, 95.90722
372.3023, 95.72920
372.7844, 95.64400
373.2665, 95.69266
373.7487, 95.65443
374.2308, 95.45688
374.7129, 95.24621
375.1950, 95.26905
375.6771, 95.65280
376.1592, 95.85789
376.6414, 95.68861
377.1235, 95.19143
377.6056, 94.82905
378.0877, 94.61662
378.5698, 94.48078
379.0519, 94.32571
379.5341, 94.15170
380.0162, 94.17079
380.4983, 94.50243
380.9804, 94.94768
381.4625, 94.97086
381.9446, 94.58207
382.4268, 94.23341
382.9089, 94.36287
383.3910, 94.76640
383.8731, 94.67793
384.3553, 93.94875
384.8374, 93.16313
385.3195, 93.07618
385.8016, 93.50572
386.2837, 93.91563
386.7658, 94.00064
387.2480, 93.96520
387.7301, 94.11147
388.2122, 94.42922
388.6943, 94.68079
389.1764, 94.61100
389.6585, 94.39673
390.1407, 94.28600
390.6228, 94.52429
391.1049, 94.62945
391.5870, 94.01456
392.0691, 92.95774
392.5512, 92.29723
393.0334, 92.76598
393.5155, 93.51149
393.9976, 94.01015
394.4797, 94.15879
394.9618, 94.16507
395.4439, 93.96531
395.9261, 93.69761
396.4082, 93.54629
396.8903, 93.86880
397.3724, 93.99480
397.8545, 93.57656
398.3366, 92.57703
398.8188, 91.95244
399.3009, 92.05966
399.7830, 92.36864
400.2651, 92.54748
400.7472, 92.49436
401.2293, 92.46402
401.7115, 92.49087
402.1936, 92.54607
402.6757, 92.51875
403.1578, 92.28661
403.6399, 92.18505
404.1220, 92.43459
404.6042, 93.15702
405.0863, 93.51509
405.5684, 93.45329
406.0505, 93.11153
406.5326, 92.57729
407.0147, 91.79861
407.4969, 91.22356
407.9790, 91.01620
408.4611, 91.09092
408.9432, 91.08454
409.4254, 90.98380
409.9075, 90.94826
410.3896, 91.12167
410.8717, 91.47279
411.3538, 91.91059
411.8359, 92.48333
412.3181, 92.97025
412.8002, 92.96263
413.2823, 92.56232
413.7644, 92.17837
414.2465, 92.03613
414.7286, 92.02958
415.2108, 91.99128
415.6929, 91.91000
416.1750, 91.92970
416.6571, 92.33498
417.1392, 92.85672
417.6213, 93.13579
418.1035, 92.82407
418.5856, 92.47852
419.0677, 92.53153
419.5498, 92.85313
420.0319, 92.95375
420.5140, 92.23792
420.9962, 91.52243
421.4783, 91.37923
421.9604, 92.18076
422.4425, 92.75803
422.9246, 92.60160
423.4067, 92.14608
423.8889, 91.98568
424.3710, 92.56775
424.8531, 93.05866
425.3352, 93.26027
425.8173, 93.17338
426.2994, 93.06516
426.7816, 92.91798
427.2637, 92.76817
427.7458, 92.65073
428.2279, 92.61645
428.7100, 92.44781
429.1921, 91.97470
429.6743, 91.46005
430.1564, 91.72609
430.6385, 93.08377
431.1206, 94.01114
431.6028, 93.64709
432.0849, 92.06512
432.5670, 91.12288
433.0491, 90.89571
433.5312, 90.99340
434.0133, 90.99676
434.4955, 90.94170
434.9776, 91.10437
435.4597, 91.66206
435.9418, 92.33460
436.4239, 92.64285
436.9060, 92.60844
437.3882, 92.38567
437.8703, 91.84794
438.3524, 91.26067
438.8345, 91.05959
439.3166, 91.33459
439.7987, 91.68729
440.2809, 91.80770
440.7630, 91.79663
441.2451, 91.81059
441.7272, 91.93353
442.2093, 92.07584
442.6914, 92.28158
443.1736, 92.51001
443.6557, 92.50129
444.1378, 91.74828
444.6199, 91.00822
445.1020, 90.80882
445.5841, 91.61655
446.0663, 92.20363
446.5484, 92.10394
447.0305, 91.75081
447.5126, 90.91735
447.9947, 92.20859
448.4768, 92.96973
448.9590, 93.22929
449.4411, 91.48486
449.9232, 91.24037
450.4053, 91.35824
450.8874, 91.78999
451.3695, 91.95313
451.8517, 91.75462
452.3338, 91.72226
452.8159, 91.97282
453.2980, 92.32920
453.7801, 92.37268
454.2622, 92.07536
454.7444, 91.86801
455.2265, 91.99923
455.7086, 92.38765
456.1907, 92.72163
456.6729, 93.01125
457.1550, 93.16668
457.6371, 92.99892
458.1192, 92.64022
458.6013, 92.42136
459.0834, 92.47691
459.5656, 92.60383
460.0477, 92.53770
460.5298, 92.35410
461.0119, 92.27878
461.4940, 92.63934
461.9761, 93.01015
462.4583, 92.95067
462.9404, 92.38369
463.4225, 92.01246
463.9046, 92.48429
464.3867, 93.15504
464.8688, 93.40503
465.3510, 92.48599
465.8331, 91.82019
466.3152, 91.90649
466.7973, 92.51571
467.2794, 92.81621
467.7615, 92.54591
468.2437, 92.16662
468.7258, 91.75933
469.2079, 91.23829
469.6900, 91.15784
470.1721, 91.87373
470.6542, 92.64050
471.1364, 92.52274
471.6185, 91.16759
472.1006, 90.36450
472.5827, 90.57761
473.0648, 91.45079
473.5469, 91.93444
474.0291, 92.01360
474.5112, 91.88510
474.9933, 91.48812
475.4754, 90.94231
475.9575, 90.84984
476.4396, 91.28037
476.9218, 91.78877
477.4039, 91.86938
477.8860, 91.66245
478.3681, 91.49152
478.8503, 91.47391
479.3324, 91.51466
479.8145, 91.53880
480.2966, 91.54556
480.7787, 91.53400
481.2608, 91.36553
481.7430, 91.27341
482.2251, 91.53088
482.7072, 92.27615
483.1893, 92.72359
483.6714, 92.28047
484.1535, 91.54744
484.6357, 91.13147
485.1178, 91.36501
485.5999, 91.64904
486.0820, 92.06103
486.5641, 92.49007
487.0462, 92.48643
487.5284, 91.68304
488.0105, 90.94132
488.4926, 90.62086
488.9747, 90.80318
489.4568, 90.89701
489.9389, 90.86877
490.4211, 90.81152
490.9032, 90.82546
491.3853, 90.91263
491.8674, 91.03786
492.3495, 91.22126
492.8316, 91.40342
493.3138, 91.42675
493.7959, 91.30398
494.2780, 91.18264
494.7601, 91.19249
495.2422, 91.25098
495.7243, 91.13229
496.2065, 89.84097
496.6886, 91.01369
497.1707, 91.65630
497.6528, 91.79731
498.1349, 89.93436
498.6170, 90.65910
499.0992, 90.34681
499.5813, 89.99200
500.0634, 91.08096
500.5455, 89.50948
501.0276, 90.57555
501.5097, 90.58875
501.9919, 91.08381
502.4740, 90.53544
502.9561, 90.30936
503.4382, 91.12705
503.9203, 91.36680
504.4025, 90.69830
504.8846, 91.22401
505.3667, 89.61607
505.8488, 89.88043
506.3309, 90.95261
506.8130, 90.33659
507.2952, 90.88136
507.7773, 90.98404
508.2594, 89.07757
508.7415, 90.66521
509.2236, 90.74178
509.7057, 89.26677
510.1879, 90.73469
510.6700, 89.47358
511.1521, 89.18658
511.6342, 89.63264
512.1163, 89.31450
512.5984, 90.20121
513.0806, 89.92719
513.5627, 89.54948
514.0448, 89.62435
514.5269, 88.41676
515.0090, 89.58838
515.4911, 89.13480
515.9733, 89.48905
516.4554, 90.02643
516.9375, 89.16174
517.4196, 89.78139
517.9017, 88.09918
518.3839, 88.34301
518.8660, 88.37945
519.3481, 89.64698
519.8302, 87.97599
520.3123, 88.16632
520.7944, 89.14917
521.2766, 89.02309
521.7587, 89.36066
522.2408, 88.32565
522.7229, 88.58008
523.2050, 88.47909
523.6871, 89.60627
524.1693, 89.76385
524.6514, 88.75214
525.1335, 87.74537
525.6156, 88.96094
526.0977, 88.07015
526.5798, 88.31573
527.0620, 87.38766
527.5441, 87.47295
528.0262, 87.54217
528.5083, 88.13084
528.9904, 87.14437
529.4725, 88.20111
529.9547, 88.07693
530.4368, 88.30061
530.9189, 88.48560
531.4010, 87.08590
531.8831, 86.98526
532.3652, 88.74345
532.8474, 87.66682
533.3295, 87.16237
533.8116, 87.06465
534.2937, 88.88649
534.7758, 88.92413
535.2579, 86.82909
535.7401, 88.56632
536.2222, 87.94587
536.7043, 88.02605
537.1865, 87.85061
537.6686, 87.75084
538.1507, 86.68857
538.6328, 86.89469
539.1149, 88.13213
539.5970, 87.61132
540.0792, 88.28522
540.5613, 86.78182
541.0434, 86.57083
541.5255, 86.70290
542.0076, 86.96008
542.4897, 86.21758
542.9719, 87.47430
543.4540, 87.39989
543.9361, 86.17192
544.4182, 86.19531
544.9003, 86.01093
545.3824, 87.98956
545.8646, 86.99429
546.3467, 85.78846
546.8288, 86.94017
547.3109, 87.33624
547.7930, 86.71073
548.2751, 86.62806
548.7573, 85.51551
549.2394, 85.98233
549.7215, 85.90596
550.2036, 86.72455
550.6857, 85.61615
551.1678, 86.72611
551.6500, 85.66940
552.1321, 86.86918
552.6142, 85.76665
553.0963, 86.71503
553.5784, 85.21538
554.0605, 85.48760
554.5427, 85.90025
555.0248, 86.76656
555.5069, 85.88880
555.9890, 86.86270
556.4711, 86.21165
556.9532, 86.61828
557.4354, 86.43839
557.9175, 85.52446
558.3996, 86.68092
558.8817, 85.94908
559.3638, 86.49228
559.8459, 84.97029
560.3281, 85.95882
560.8102, 85.43580
561.2923, 85.19588
561.7744, 85.04943
562.2565, 85.05757
562.7386, 85.09668
563.2208, 85.14334
563.7029, 85.19917
564.1850, 85.28983
564.6671, 85.46936
565.1492, 85.58695
565.6313, 85.54014
566.1135, 85.31145
566.5956, 85.14439
567.0777, 85.02551
567.5598, 85.02009
568.0419, 85.30997
568.5240, 85.81106
569.0062, 86.08577
569.4883, 86.00172
569.9704, 85.76615
570.4525, 85.64537
570.9346, 85.58228
571.4167, 85.43652
571.8989, 84.97588
572.3810, 84.54598
572.8631, 84.43436
573.3452, 84.59837
573.8273, 84.72336
574.3094, 84.58701
574.7916, 84.46240
575.2737, 84.50974
575.7558, 84.80500
576.2379, 85.08274
576.7200, 85.42826
577.2021, 85.67625
577.6843, 85.65383
578.1664, 85.25340
578.6485, 84.89857
579.1306, 84.62780
579.6127, 84.42393
580.0948, 84.25755
580.5770, 84.12908
581.0591, 83.99539
581.5412, 83.81390
582.0233, 83.63179
582.5054, 83.54924
582.9875, 83.56318
583.4697, 83.64517
583.9518, 83.92727
