##NAMES=Zinkenite
##RRUFFID=R070577
##IDEAL CHEMISTRY=Pb^2+^_9_Sb^3+^_22_S^2-^_42_
##LOCALITY=Jetty mine, near Anaconda, Deer Lodge County, Montana, USA
##OWNER=RRUFF
##SOURCE=James Shigley
##DESCRIPTION=Gray metallic massive
##STATUS=The identification of this mineral has been confirmed by single-crystal X-ray diffraction.
##URL=rruff.info/R070577
128.8033, 4658.342
129.2855, 5102.983
129.7676, 5547.222
130.2497, 5978.287
130.7318, 6372.154
131.2139, 6707.796
131.6960, 6992.175
132.1782, 7258.067
132.6603, 7512.053
133.1424, 7733.341
133.6245, 7907.456
134.1066, 8043.806
134.5887, 8170.450
135.0709, 8316.341
135.5530, 8479.354
136.0351, 8603.199
136.5172, 8647.598
136.9993, 8688.339
137.4814, 8761.018
137.9636, 8863.410
138.4457, 8973.634
138.9278, 9067.679
139.4099, 9140.322
139.8920, 9236.977
140.3741, 9362.688
140.8563, 9512.206
141.3384, 9688.833
141.8205, 9891.534
142.3026, 10112.26
142.7847, 10345.35
143.2668, 10596.65
143.7490, 10843.38
144.2311, 11078.27
144.7132, 11313.45
145.1953, 11554.21
145.6774, 11801.82
146.1595, 12054.43
146.6417, 12317.33
147.1238, 12614.97
147.6059, 12857.28
148.0880, 13020.67
148.5701, 13149.50
149.0523, 13263.05
149.5344, 13370.00
150.0165, 13481.11
150.4986, 13620.93
150.9807, 13834.54
151.4628, 13994.17
151.9450, 14066.61
152.4271, 14105.56
152.9092, 14090.39
153.3913, 14016.06
153.8734, 13914.32
154.3555, 13806.10
154.8377, 13689.78
155.3198, 13573.17
155.8019, 13446.61
156.2840, 13326.22
156.7661, 13226.94
157.2482, 13154.85
157.7304, 13105.84
158.2125, 13069.64
158.6946, 13064.98
159.1767, 13050.94
159.6588, 13020.41
160.1409, 12981.39
160.6231, 12938.88
161.1052, 12894.54
161.5873, 12853.37
162.0694, 12833.58
162.5515, 12876.53
163.0336, 12891.80
163.5158, 12850.16
163.9979, 12779.58
164.4800, 12718.54
164.9621, 12687.42
165.4442, 12677.90
165.9263, 12654.24
166.4085, 12593.45
166.8906, 12543.20
167.3727, 12519.26
167.8548, 12509.32
168.3369, 12493.79
168.8190, 12461.45
169.3012, 12415.22
169.7833, 12373.71
170.2654, 12340.67
170.7475, 12307.83
171.2296, 12271.37
171.7117, 12234.13
172.1939, 12202.35
172.6760, 12180.66
173.1581, 12167.02
173.6402, 12144.03
174.1223, 12104.39
174.6044, 12065.20
175.0866, 12026.91
175.5687, 11992.68
176.0508, 11968.91
176.5329, 11959.88
177.0150, 11964.46
177.4971, 11972.37
177.9793, 11989.78
178.4614, 12003.31
178.9435, 12002.09
179.4256, 11993.04
179.9077, 11992.78
180.3898, 12012.92
180.8720, 12051.53
181.3541, 12084.10
181.8362, 12103.76
182.3183, 12125.81
182.8004, 12154.41
183.2825, 12189.62
183.7647, 12231.45
184.2468, 12280.85
184.7289, 12337.06
185.2110, 12390.90
185.6931, 12426.93
186.1752, 12476.82
186.6574, 12554.81
187.1395, 12657.35
187.6216, 12775.12
188.1037, 12905.91
188.5858, 13047.86
189.0679, 13168.54
189.5501, 13255.38
190.0322, 13338.38
190.5143, 13418.67
190.9964, 13503.07
191.4785, 13611.15
191.9606, 13759.44
192.4428, 13944.70
192.9249, 14104.17
193.4070, 14224.68
193.8891, 14338.43
194.3712, 14445.84
194.8533, 14554.32
195.3355, 14682.57
195.8176, 14844.25
196.2997, 15036.45
196.7818, 15222.67
197.2639, 15390.41
197.7460, 15565.00
198.2282, 15761.13
198.7103, 15972.00
199.1924, 16176.66
199.6745, 16358.63
200.1566, 16521.98
200.6387, 16718.15
201.1209, 16971.47
201.6030, 17223.49
202.0851, 17439.74
202.5672, 17636.35
203.0493, 17854.36
203.5314, 18123.55
204.0136, 18434.82
204.4957, 18709.54
204.9778, 18926.06
205.4599, 19138.68
205.9420, 19367.33
206.4241, 19605.55
206.9063, 19837.73
207.3884, 20056.50
207.8705, 20261.80
208.3526, 20460.56
208.8347, 20672.18
209.3168, 20858.38
209.7990, 20993.29
210.2811, 21096.84
210.7632, 21209.30
211.2453, 21354.45
211.7274, 21524.23
212.2095, 21677.79
212.6917, 21805.31
213.1738, 21930.46
213.6559, 22069.46
214.1380, 22207.41
214.6201, 22313.41
215.1022, 22366.96
215.5844, 22387.96
216.0665, 22460.05
216.5486, 22640.44
217.0307, 22804.23
217.5128, 22930.07
217.9949, 23028.51
218.4771, 23111.25
218.9592, 23183.03
219.4413, 23247.87
219.9234, 23319.57
220.4055, 23406.24
220.8876, 23489.43
221.3698, 23570.42
221.8519, 23645.81
222.3340, 23706.23
222.8161, 23747.11
223.2982, 23782.55
223.7803, 23848.93
224.2625, 24000.36
224.7446, 24115.57
225.2267, 24169.27
225.7088, 24195.36
226.1909, 24226.11
226.6730, 24273.66
227.1552, 24333.28
227.6373, 24395.97
228.1194, 24472.71
228.6015, 24536.01
229.0836, 24578.73
229.5658, 24613.14
230.0479, 24645.06
230.5300, 24677.71
231.0121, 24718.56
231.4942, 24780.54
231.9763, 24871.79
232.4585, 24972.49
232.9406, 25080.90
233.4227, 25197.94
233.9048, 25331.87
234.3869, 25481.79
234.8690, 25630.11
235.3512, 25745.59
235.8333, 25799.84
236.3154, 25893.85
236.7975, 26045.10
237.2796, 26217.32
237.7617, 26392.27
238.2439, 26566.71
238.7260, 26747.51
239.2081, 26945.73
239.6902, 27167.47
240.1723, 27382.28
240.6544, 27576.95
241.1366, 27774.84
241.6187, 27988.21
242.1008, 28216.38
242.5829, 28449.44
243.0650, 28678.55
243.5471, 28903.45
244.0293, 29129.72
244.5114, 29330.03
244.9935, 29560.43
245.4756, 29864.50
245.9577, 30220.96
246.4398, 30566.12
246.9220, 30847.33
247.4041, 31071.15
247.8862, 31313.99
248.3683, 31576.96
248.8504, 31861.72
249.3325, 32168.18
249.8147, 32494.93
250.2968, 32842.08
250.7789, 33211.67
251.2610, 33601.64
251.7431, 34009.80
252.2252, 34453.88
252.7074, 34886.80
253.1895, 35290.68
253.6716, 35673.68
254.1537, 36047.85
254.6358, 36415.36
255.1179, 36779.62
255.6001, 37148.79
256.0822, 37528.71
256.5643, 37898.95
257.0464, 38237.05
257.5285, 38563.64
258.0107, 38907.87
258.4928, 39291.63
258.9749, 39674.68
259.4570, 39999.97
259.9391, 40261.71
260.4212, 40540.50
260.9034, 40880.08
261.3855, 41250.29
261.8676, 41609.82
262.3497, 41946.63
262.8318, 42287.08
263.3139, 42668.70
263.7961, 43081.38
264.2782, 43462.67
264.7603, 43787.50
265.2424, 44069.76
265.7245, 44338.35
266.2066, 44596.50
266.6888, 44831.75
267.1709, 45022.42
267.6530, 45185.14
268.1351, 45375.45
268.6172, 45629.12
269.0993, 45868.50
269.5815, 45953.79
270.0636, 45875.76
270.5457, 45813.98
271.0278, 45845.80
271.5099, 45909.52
271.9920, 45928.49
272.4742, 45888.28
272.9563, 45799.25
273.4384, 45672.74
273.9205, 45506.99
274.4026, 45290.55
274.8847, 45039.49
275.3669, 44723.76
275.8490, 44310.08
276.3311, 43799.08
276.8132, 43222.91
277.2953, 42592.94
277.7774, 41905.18
278.2596, 41236.28
278.7417, 40606.95
279.2238, 39974.94
279.7059, 39309.47
280.1880, 38618.46
280.6701, 37928.57
281.1523, 37251.13
281.6344, 36588.46
282.1165, 35970.57
282.5986, 35452.08
283.0807, 34914.05
283.5628, 34308.80
284.0450, 33672.23
284.5271, 33051.28
285.0092, 32473.76
285.4913, 31931.18
285.9734, 31413.70
286.4555, 30939.61
286.9377, 30468.45
287.4198, 30017.87
287.9019, 29559.73
288.3840, 29063.66
288.8661, 28518.85
289.3482, 27956.44
289.8304, 27428.62
290.3125, 26952.49
290.7946, 26468.79
291.2767, 25990.03
291.7588, 25492.06
292.2409, 24944.79
292.7231, 24353.26
293.2052, 23761.23
293.6873, 23218.87
294.1694, 22732.03
294.6515, 22223.71
295.1336, 21680.34
295.6158, 21121.20
296.0979, 20538.76
296.5800, 19944.12
297.0621, 19378.30
297.5442, 18864.09
298.0263, 18398.35
298.5085, 17968.71
298.9906, 17580.65
299.4727, 17210.92
299.9548, 16847.22
300.4369, 16489.77
300.9190, 16140.65
301.4012, 15792.67
301.8833, 15454.96
302.3654, 15135.74
302.8475, 14834.38
303.3296, 14557.43
303.8117, 14316.68
304.2939, 14102.25
304.7760, 13896.35
305.2581, 13704.98
305.7402, 13510.69
306.2223, 13297.86
306.7044, 13071.87
307.1866, 12852.63
307.6687, 12650.96
308.1508, 12458.51
308.6329, 12258.03
309.1150, 12040.04
309.5971, 11838.51
310.0793, 11666.75
310.5614, 11515.28
311.0435, 11374.38
311.5256, 11242.07
312.0077, 11110.59
312.4898, 10969.20
312.9720, 10812.62
313.4541, 10664.23
313.9362, 10527.15
314.4183, 10396.09
314.9004, 10265.79
315.3825, 10137.58
315.8647, 10020.06
316.3468, 9922.660
316.8289, 9846.933
317.3110, 9760.901
317.7931, 9634.153
318.2752, 9529.588
318.7574, 9485.218
319.2395, 9475.292
319.7216, 9452.327
320.2037, 9387.510
320.6858, 9293.479
321.1679, 9220.567
321.6501, 9193.225
322.1322, 9147.550
322.6143, 9059.932
323.0964, 8957.876
323.5785, 8866.159
324.0606, 8793.115
324.5428, 8731.685
325.0249, 8676.818
325.5070, 8632.384
325.9891, 8572.153
326.4712, 8481.898
326.9533, 8381.094
327.4355, 8278.045
327.9176, 8173.972
328.3997, 8074.316
328.8818, 7984.791
329.3639, 7903.667
329.8460, 7819.763
330.3282, 7727.551
330.8103, 7641.950
331.2924, 7575.606
331.7745, 7524.908
332.2566, 7480.210
332.7387, 7435.619
333.2209, 7397.344
333.7030, 7371.506
334.1851, 7358.302
334.6672, 7362.327
335.1493, 7392.701
335.6314, 7441.738
336.1136, 7478.376
336.5957, 7476.634
337.0778, 7492.598
337.5599, 7556.597
338.0420, 7656.052
338.5241, 7763.270
339.0063, 7867.239
339.4884, 7977.796
339.9705, 8114.841
340.4526, 8294.492
340.9347, 8474.647
341.4168, 8651.186
341.8990, 8829.940
342.3811, 9015.952
342.8632, 9210.925
343.3453, 9414.430
343.8274, 9627.042
344.3095, 9848.551
344.7917, 10081.36
345.2738, 10336.01
345.7559, 10589.75
346.2380, 10832.46
346.7201, 11068.58
347.2022, 11306.37
347.6844, 11549.33
348.1665, 11800.37
348.6486, 12068.12
349.1307, 12357.65
349.6128, 12654.82
350.0949, 12966.96
350.5771, 13277.81
351.0592, 13573.29
351.5413, 13848.09
352.0234, 14101.88
352.5055, 14355.03
352.9876, 14609.61
353.4698, 14760.07
353.9519, 14791.47
354.4340, 14688.02
354.9161, 14458.70
355.3982, 14103.11
355.8803, 13642.27
356.3625, 13052.26
356.8446, 12373.32
357.3267, 11648.03
357.8088, 10876.99
358.2909, 10119.31
358.7730, 9415.119
359.2552, 8769.034
359.7373, 8158.808
360.2194, 7581.210
360.7015, 7044.184
361.1836, 6548.439
361.6657, 6096.640
362.1479, 5699.890
362.6300, 5365.060
363.1121, 5081.790
363.5942, 4815.406
364.0763, 4543.735
364.5584, 4318.467
365.0406, 4162.750
365.5227, 4042.402
366.0048, 3926.956
366.4869, 3807.683
366.9690, 3692.502
367.4511, 3591.039
367.9333, 3505.460
368.4154, 3424.941
368.8975, 3353.671
369.3796, 3283.801
369.8617, 3207.701
370.3438, 3130.100
370.8260, 3064.756
371.3081, 3024.281
371.7902, 3000.341
372.2723, 2963.642
372.7544, 2909.703
373.2365, 2854.221
373.7187, 2799.244
374.2008, 2748.074
374.6829, 2706.350
375.1650, 2677.798
375.6471, 2650.930
376.1292, 2614.810
376.6114, 2571.100
377.0935, 2528.936
377.5756, 2491.164
378.0577, 2455.336
378.5398, 2416.669
379.0219, 2374.324
379.5041, 2339.313
379.9862, 2320.008
380.4683, 2305.530
380.9504, 2285.654
381.4325, 2259.449
381.9146, 2229.091
382.3968, 2195.567
382.8789, 2158.996
383.3610, 2125.148
383.8431, 2092.912
384.3252, 2063.935
384.8073, 2039.766
385.2895, 2018.820
385.7716, 1998.023
386.2537, 1976.175
386.7358, 1956.240
387.2179, 1945.749
387.7000, 1951.874
388.1822, 1950.090
388.6643, 1932.617
389.1464, 1912.642
389.6285, 1898.616
390.1106, 1870.971
390.5927, 1884.463
391.0749, 1887.401
391.5570, 1880.355
392.0391, 1833.416
392.5212, 1837.991
393.0033, 1821.922
393.4854, 1805.005
393.9676, 1816.829
394.4497, 1775.692
394.9318, 1787.061
395.4139, 1777.471
395.8960, 1777.474
396.3781, 1756.704
396.8603, 1742.349
397.3424, 1748.773
397.8245, 1743.693
398.3066, 1720.533
398.7887, 1721.145
399.2708, 1679.283
399.7530, 1674.691
400.2351, 1686.182
400.7172, 1664.066
401.1993, 1665.058
401.6814, 1657.249
402.1635, 1609.444
402.6457, 1631.195
403.1278, 1622.865
403.6099, 1583.650
404.0920, 1592.221
404.5741, 1590.569
405.0562, 1587.596
405.5384, 1582.458
406.0205, 1574.821
406.5026, 1565.765
406.9847, 1556.772
407.4668, 1547.630
407.9489, 1539.535
408.4311, 1534.630
408.9132, 1529.087
409.3953, 1518.758
409.8774, 1504.725
410.3595, 1493.918
410.8416, 1491.290
411.3238, 1494.298
411.8059, 1499.718
412.2880, 1508.243
412.7701, 1512.182
413.2522, 1504.398
413.7343, 1488.795
414.2165, 1479.192
414.6986, 1481.787
415.1807, 1482.094
415.6628, 1469.384
416.1449, 1451.353
416.6270, 1442.501
417.1092, 1447.282
417.5913, 1456.343
418.0734, 1456.983
418.5555, 1446.997
419.0376, 1434.914
419.5197, 1415.043
420.0019, 1398.590
420.4840, 1392.522
420.9661, 1394.564
421.4482, 1398.734
421.9303, 1401.789
422.4124, 1403.334
422.8946, 1401.858
423.3767, 1396.568
423.8588, 1390.092
424.3409, 1380.786
424.8230, 1372.023
425.3051, 1367.193
425.7873, 1366.908
426.2694, 1367.160
426.7515, 1364.495
427.2336, 1359.914
427.7157, 1357.090
428.1978, 1357.169
428.6800, 1356.347
429.1621, 1350.300
429.6442, 1340.077
430.1263, 1333.154
430.6084, 1333.144
431.0905, 1333.517
431.5727, 1329.197
432.0548, 1322.487
432.5369, 1320.095
433.0190, 1325.235
433.5011, 1332.164
433.9832, 1329.000
434.4654, 1306.768
434.9475, 1291.338
435.4296, 1284.881
435.9117, 1282.478
436.3938, 1282.512
436.8759, 1284.054
437.3581, 1285.956
437.8402, 1288.063
438.3223, 1289.566
438.8044, 1286.540
439.2865, 1277.517
439.7686, 1267.297
440.2508, 1254.149
440.7329, 1242.354
441.2150, 1237.501
441.6971, 1241.730
442.1792, 1247.071
442.6613, 1247.878
443.1435, 1245.442
443.6256, 1243.074
444.1077, 1241.349
444.5898, 1239.819
445.0719, 1238.301
445.5540, 1236.781
446.0362, 1234.023
446.5183, 1231.100
447.0004, 1225.899
447.4825, 1214.407
447.9646, 1200.319
448.4467, 1190.637
448.9289, 1188.561
449.4110, 1191.508
449.8931, 1194.355
450.3752, 1196.636
450.8573, 1199.976
451.3394, 1207.293
451.8216, 1213.167
452.3037, 1215.734
452.7858, 1214.340
453.2679, 1207.803
453.7500, 1192.200
454.2321, 1172.375
454.7143, 1160.595
455.1964, 1157.884
455.6785, 1157.862
456.1606, 1159.986
456.6428, 1161.941
457.1249, 1159.369
457.6070, 1149.982
458.0891, 1142.837
458.5712, 1142.749
459.0533, 1146.685
459.5355, 1151.224
460.0176, 1155.677
460.4997, 1159.557
460.9818, 1163.208
461.4639, 1166.681
461.9460, 1162.202
462.4282, 1138.107
462.9103, 1119.958
463.3924, 1116.819
463.8745, 1121.766
464.3566, 1127.144
464.8387, 1130.197
465.3209, 1130.444
465.8030, 1125.119
466.2851, 1113.318
466.7672, 1108.934
467.2493, 1119.232
467.7314, 1129.079
468.2136, 1126.689
468.6957, 1116.128
469.1778, 1109.040
469.6599, 1113.349
470.1420, 1119.063
470.6241, 1115.232
471.1063, 1103.930
471.5884, 1094.248
472.0705, 1089.531
472.5526, 1088.098
473.0347, 1086.966
473.5168, 1084.802
473.9990, 1086.672
474.4811, 1098.547
474.9632, 1109.482
475.4453, 1109.987
475.9274, 1102.962
476.4095, 1098.941
476.8917, 1105.554
477.3738, 1118.328
477.8559, 1121.809
478.3380, 1111.509
478.8201, 1103.068
479.3022, 1103.877
479.7844, 1105.178
480.2665, 1099.051
480.7486, 1085.187
481.2307, 1073.155
481.7128, 1068.428
482.1949, 1069.456
482.6771, 1076.144
483.1592, 1088.695
483.6413, 1096.259
484.1234, 1090.255
484.6055, 1074.768
485.0876, 1066.963
485.5698, 1070.512
486.0519, 1075.280
486.5340, 1082.097
487.0161, 1087.754
487.4982, 1088.622
487.9803, 1084.368
488.4625, 1077.222
488.9446, 1068.449
489.4267, 1058.240
489.9088, 1053.216
490.3909, 1056.877
490.8730, 1060.391
491.3552, 1060.474
491.8373, 1059.060
492.3194, 1058.351
492.8015, 1058.910
493.2836, 1059.943
493.7657, 1061.882
494.2479, 1063.800
494.7300, 1062.537
495.2121, 1057.288
495.6942, 1050.798
496.1763, 1044.572
496.6584, 1038.859
497.1406, 1036.315
497.6227, 1040.214
498.1048, 1043.333
498.5869, 1041.273
499.0690, 1037.696
499.5511, 1038.970
500.0333, 1046.606
500.5154, 1054.705
500.9975, 1054.956
501.4796, 1046.118
501.9617, 1038.722
502.4438, 1031.073
502.9260, 1027.303
503.4081, 1033.360
503.8902, 1043.168
504.3723, 1045.058
504.8544, 1031.574
505.3365, 1017.879
505.8187, 1020.575
506.3008, 1034.931
506.7829, 1044.280
507.2650, 1044.472
507.7471, 1040.176
508.2292, 1035.432
508.7114, 1029.881
509.1935, 1027.850
509.6756, 1035.762
510.1577, 1040.076
510.6398, 1031.626
511.1219, 1017.066
511.6041, 1006.902
512.0862, 1005.144
512.5683, 1008.052
513.0504, 1010.563
513.5325, 1012.643
514.0146, 1014.672
514.4968, 1017.844
514.9789, 1019.319
515.4610, 1016.939
515.9431, 1011.847
516.4252, 1006.594
516.9073, 1001.803
517.3895, 997.1931
517.8716, 992.8320
518.3537, 988.4672
518.8358, 982.1425
519.3179, 972.8920
519.8000, 966.1544
520.2822, 969.9357
520.7643, 987.8188
521.2464, 995.1605
521.7285, 982.6913
522.2106, 971.4473
522.6927, 969.4954
523.1749, 973.4019
523.6570, 978.0267
524.1391, 981.5070
524.6212, 983.3624
525.1033, 982.3696
525.5854, 978.5992
526.0676, 975.2172
526.5497, 972.1379
527.0318, 970.2747
527.5139, 971.7017
527.9960, 975.0792
528.4781, 976.3086
528.9603, 973.8459
529.4424, 970.1230
529.9245, 964.0597
530.4066, 958.1909
530.8887, 959.3232
531.3708, 968.7856
531.8530, 976.7116
532.3351, 969.5458
532.8172, 944.2432
533.2993, 932.7216
533.7814, 948.3610
534.2635, 962.5500
534.7457, 967.4444
535.2278, 966.5549
535.7099, 964.6283
536.1920, 962.9923
536.6741, 960.6543
537.1563, 955.7900
537.6384, 949.4224
538.1205, 945.5666
538.6026, 945.1402
539.0847, 944.3843
539.5668, 939.6014
540.0490, 931.7799
540.5311, 928.6495
541.0132, 934.8690
541.4953, 939.4044
541.9774, 939.6973
542.4595, 937.0804
542.9417, 932.6278
543.4238, 926.7537
543.9059, 919.6176
544.3880, 909.8275
544.8701, 898.5173
545.3522, 896.9608
545.8344, 910.2137
546.3165, 920.9755
546.7986, 921.6525
547.2807, 916.6209
547.7628, 909.9509
548.2449, 901.6074
548.7271, 893.7623
549.2092, 886.2941
549.6913, 880.4766
550.1734, 877.5624
550.6555, 877.8053
551.1376, 882.5350
551.6198, 893.4543
552.1019, 907.8004
552.5840, 916.1341
553.0661, 918.1357
553.5482, 914.1641
554.0303, 897.1314
554.5125, 880.8673
554.9946, 875.4380
555.4767, 879.4866
555.9588, 884.1816
556.4409, 884.1537
556.9230, 882.0734
557.4052, 883.2192
557.8873, 887.1765
558.3694, 887.1011
558.8515, 879.2037
559.3336, 869.4716
559.8157, 866.4230
560.2979, 871.9861
560.7800, 876.7633
561.2621, 882.2292
561.7442, 885.3042
562.2263, 884.7415
562.7084, 880.6156
563.1906, 870.9902
563.6727, 854.9309
564.1548, 840.8105
564.6369, 845.1404
565.1190, 868.7858
565.6011, 878.7869
566.0833, 866.5319
566.5654, 850.8940
567.0475, 843.3923
567.5296, 842.0183
568.0117, 843.0550
568.4938, 849.1544
568.9760, 853.0621
569.4581, 850.2413
569.9402, 843.6797
570.4223, 836.2771
570.9044, 829.1189
571.3865, 824.4886
571.8687, 825.1043
572.3508, 830.2332
572.8329, 831.8779
573.3150, 828.2671
573.7971, 824.2872
574.2792, 819.6856
574.7614, 816.1127
575.2435, 816.3969
575.7256, 820.5164
576.2077, 822.0753
576.6898, 815.1268
577.1719, 804.9764
577.6541, 798.1671
578.1362, 794.8006
578.6183, 794.2186
579.1004, 796.6456
579.5825, 799.8867
580.0646, 799.3892
580.5468, 793.1932
581.0289, 787.5630
581.5110, 779.7733
581.9931, 775.1094
582.4752, 779.0674
582.9573, 787.5737
583.4395, 792.3215
583.9216, 789.1687
584.4037, 783.1550
584.8858, 778.7354
585.3679, 776.3483
585.8500, 779.6710
586.3322, 790.7176
586.8143, 800.9851
587.2964, 804.0117
587.7785, 799.8862
588.2606, 790.7934
588.7427, 764.8869
589.2249, 749.5857
589.7070, 760.7872
590.1891, 779.1949
590.6712, 785.2495
591.1533, 776.8027
591.6354, 765.1829
592.1176, 759.1159
592.5997, 757.3908
593.0818, 756.3557
593.5639, 756.1488
594.0460, 755.8070
594.5281, 755.5963
595.0103, 754.4813
595.4924, 750.0165
595.9745, 741.5569
596.4566, 735.7658
596.9387, 735.2913
597.4208, 736.1839
597.9030, 736.5110
598.3851, 736.2023
598.8672, 735.2401
599.3493, 733.6292
599.8314, 732.2550
600.3135, 733.0533
600.7957, 736.2410
601.2778, 737.1458
601.7599, 735.4451
602.2420, 731.6210
602.7241, 723.8126
603.2062, 714.5540
603.6884, 708.5186
604.1705, 706.4415
604.6526, 706.9767
605.1347, 713.4761
605.6168, 719.9412
606.0989, 717.7787
606.5811, 707.9536
607.0632, 699.6387
607.5453, 699.5859
608.0274, 704.6799
608.5095, 704.5911
608.9916, 696.8987
609.4738, 692.0923
609.9559, 693.4781
610.4380, 696.6496
610.9201, 699.6647
611.4022, 701.9962
611.8843, 701.4465
612.3665, 695.2881
612.8486, 688.1849
613.3307, 681.6125
613.8128, 676.6397
614.2949, 676.8749
614.7770, 682.6884
615.2592, 687.3193
615.7413, 682.7417
616.2234, 669.5763
616.7055, 664.6326
617.1876, 673.9854
617.6697, 680.4609
618.1519, 676.7918
618.6340, 669.9233
619.1161, 666.1142
619.5982, 665.8481
620.0803, 664.8596
620.5624, 660.0945
621.0446, 654.5744
621.5267, 651.7122
622.0088, 650.8454
622.4909, 649.7243
622.9730, 647.4703
623.4551, 643.8400
623.9373, 637.7150
624.4194, 627.7776
624.9015, 622.6840
625.3836, 625.5113
625.8657, 629.3051
626.3478, 631.8071
626.8300, 633.5943
