##NAMES=Zinnwaldite
##RRUFFID=R040138
##IDEAL CHEMISTRY=K(Al,Fe,Li)_3_(Si,Al)_4_O_10_(OH)F
##LOCALITY=TÃ¸rdal, Telemark, Norway
##OWNER=RRUFF
##SOURCE=University of Arizona Mineral Museum
##DESCRIPTION=Dark green mica book, polytype 1M
##STATUS=The identification of this mineral has been confirmed by X-ray diffraction and chemical analysis
##URL=rruff.info/R040138
##MEASURED CHEMISTRY=(K_0.96_Na_0.04_)(Al_0.35_Fe^2+^_0.29_Li_0.27_Mg_0.04_Mn_0.03_Ti_0.02_)_3_(Si_0.66_Al_0.34_)_4_O_10_((OH)_0.64_F_0.36_)_2_
151.5903, 1478.137
152.0724, 1506.662
152.5545, 1529.353
153.0366, 1541.998
153.5188, 1547.947
154.0009, 1553.756
154.4830, 1560.935
154.9651, 1567.788
155.4472, 1573.525
155.9293, 1576.732
156.4115, 1580.738
156.8936, 1585.748
157.3757, 1591.964
157.8578, 1600.125
158.3399, 1617.345
158.8221, 1632.588
159.3042, 1638.786
159.7863, 1622.997
160.2684, 1608.918
160.7505, 1604.236
161.2326, 1608.242
161.7148, 1615.899
162.1969, 1630.574
162.6790, 1645.815
163.1611, 1655.240
163.6432, 1649.527
164.1253, 1643.335
164.6075, 1644.637
165.0896, 1653.728
165.5717, 1664.966
166.0538, 1678.021
166.5359, 1690.760
167.0180, 1700.194
167.5002, 1703.688
167.9823, 1704.391
168.4644, 1703.106
168.9465, 1699.133
169.4286, 1698.456
169.9107, 1709.958
170.3929, 1728.157
170.8750, 1741.804
171.3571, 1740.854
171.8392, 1734.143
172.3213, 1731.083
172.8034, 1733.375
173.2856, 1737.671
173.7677, 1741.198
174.2498, 1744.237
174.7319, 1747.674
175.2140, 1753.129
175.6961, 1759.083
176.1783, 1762.922
176.6604, 1763.410
177.1425, 1762.938
177.6246, 1765.024
178.1067, 1769.180
178.5888, 1772.386
179.0710, 1771.503
179.5531, 1768.027
180.0352, 1765.301
180.5173, 1764.508
180.9994, 1764.465
181.4815, 1761.918
181.9637, 1757.005
182.4458, 1754.687
182.9279, 1763.493
183.4100, 1779.605
183.8921, 1788.347
184.3742, 1781.798
184.8564, 1766.840
185.3385, 1760.192
185.8206, 1762.295
186.3027, 1766.634
186.7848, 1765.938
187.2669, 1761.008
187.7491, 1758.051
188.2312, 1761.340
188.7133, 1768.368
189.1954, 1769.663
189.6775, 1764.732
190.1596, 1756.171
190.6418, 1744.311
191.1239, 1729.420
191.6060, 1719.581
192.0881, 1721.585
192.5702, 1733.519
193.0524, 1737.808
193.5345, 1733.077
194.0166, 1724.285
194.4987, 1719.657
194.9808, 1719.593
195.4629, 1717.640
195.9451, 1709.713
196.4272, 1695.863
196.9093, 1683.989
197.3914, 1674.510
197.8735, 1666.735
198.3556, 1658.720
198.8378, 1650.000
199.3199, 1644.077
199.8020, 1645.077
200.2841, 1653.825
200.7662, 1656.641
201.2483, 1651.554
201.7305, 1641.200
202.2126, 1631.907
202.6947, 1623.992
203.1768, 1615.954
203.6589, 1606.547
204.1410, 1595.536
204.6232, 1585.435
205.1053, 1576.497
205.5874, 1568.601
206.0695, 1560.494
206.5516, 1550.749
207.0337, 1544.549
207.5159, 1548.838
207.9980, 1568.135
208.4801, 1574.810
208.9622, 1560.160
209.4443, 1530.407
209.9264, 1518.104
210.4086, 1529.948
210.8907, 1545.827
211.3728, 1549.875
211.8549, 1539.025
212.3370, 1526.596
212.8191, 1513.055
213.3013, 1499.109
213.7834, 1490.265
214.2655, 1488.302
214.7476, 1488.577
215.2297, 1486.695
215.7118, 1480.892
216.1940, 1478.125
216.6761, 1481.500
217.1582, 1490.486
217.6403, 1491.611
218.1224, 1480.560
218.6045, 1467.408
219.0867, 1462.980
219.5688, 1472.716
220.0509, 1478.179
220.5330, 1473.933
221.0151, 1459.629
221.4972, 1449.990
221.9794, 1446.005
222.4615, 1445.476
222.9436, 1446.798
223.4257, 1452.495
223.9078, 1454.639
224.3899, 1450.046
224.8721, 1437.805
225.3542, 1429.764
225.8363, 1425.550
226.3184, 1425.800
226.8005, 1432.451
227.2827, 1450.669
227.7648, 1465.315
228.2469, 1472.103
228.7290, 1470.094
229.2111, 1467.501
229.6932, 1464.789
230.1754, 1461.149
230.6575, 1455.272
231.1396, 1446.092
231.6217, 1436.409
232.1038, 1424.846
232.5859, 1408.673
233.0681, 1406.932
233.5502, 1429.529
234.0323, 1459.410
234.5144, 1470.476
234.9965, 1449.740
235.4786, 1432.089
235.9608, 1430.168
236.4429, 1449.573
236.9250, 1458.064
237.4071, 1449.580
237.8892, 1433.863
238.3713, 1426.313
238.8535, 1429.823
239.3356, 1436.858
239.8177, 1447.455
240.2998, 1466.069
240.7819, 1469.570
241.2640, 1447.961
241.7462, 1417.110
242.2283, 1405.616
242.7104, 1425.684
243.1925, 1445.038
243.6746, 1452.568
244.1567, 1444.433
244.6389, 1437.281
245.1210, 1430.620
245.6031, 1425.231
246.0852, 1422.647
246.5673, 1423.496
247.0494, 1426.125
247.5316, 1430.760
248.0137, 1439.236
248.4958, 1443.128
248.9779, 1440.058
249.4600, 1433.717
249.9421, 1430.898
250.4243, 1432.228
250.9064, 1435.944
251.3885, 1442.475
251.8706, 1454.358
252.3527, 1459.912
252.8348, 1455.417
253.3170, 1446.901
253.7991, 1446.987
254.2812, 1461.490
254.7633, 1473.403
255.2454, 1474.839
255.7275, 1461.177
256.2097, 1454.553
256.6918, 1457.677
257.1739, 1466.046
257.6560, 1471.119
258.1381, 1470.968
258.6202, 1471.517
259.1024, 1475.257
259.5845, 1482.995
260.0666, 1490.723
260.5487, 1499.482
261.0308, 1507.416
261.5129, 1511.612
261.9951, 1512.048
262.4772, 1508.620
262.9593, 1499.026
263.4414, 1479.749
263.9235, 1472.255
264.4056, 1482.211
264.8878, 1498.589
265.3699, 1500.136
265.8520, 1480.630
266.3341, 1464.112
266.8162, 1461.183
267.2983, 1474.502
267.7805, 1484.801
268.2626, 1492.086
268.7447, 1496.217
269.2268, 1495.682
269.7089, 1488.658
270.1910, 1483.556
270.6732, 1485.277
271.1553, 1495.132
271.6374, 1498.143
272.1195, 1492.489
272.6016, 1482.651
273.0837, 1475.693
273.5659, 1471.823
274.0480, 1469.525
274.5301, 1468.041
275.0122, 1467.340
275.4943, 1469.695
275.9764, 1476.587
276.4586, 1483.747
276.9407, 1483.559
277.4228, 1475.068
277.9049, 1467.585
278.3870, 1465.030
278.8691, 1467.200
279.3513, 1469.721
279.8334, 1472.866
280.3155, 1475.663
280.7976, 1477.035
281.2798, 1476.984
281.7619, 1475.205
282.2440, 1470.876
282.7261, 1464.417
283.2082, 1457.879
283.6903, 1450.354
284.1725, 1446.103
284.6546, 1455.099
285.1367, 1476.492
285.6188, 1489.500
286.1009, 1482.132
286.5830, 1459.968
287.0652, 1447.575
287.5473, 1446.051
288.0294, 1448.392
288.5115, 1447.049
288.9936, 1442.512
289.4757, 1438.804
289.9579, 1436.431
290.4400, 1436.026
290.9221, 1441.800
291.4042, 1454.451
291.8863, 1464.534
292.3684, 1459.391
292.8506, 1442.418
293.3327, 1428.344
293.8148, 1422.549
294.2969, 1421.979
294.7790, 1420.806
295.2611, 1419.026
295.7433, 1417.746
296.2254, 1418.854
296.7075, 1421.326
297.1896, 1422.030
297.6717, 1418.413
298.1538, 1414.016
298.6360, 1414.890
299.1181, 1420.672
299.6002, 1426.977
300.0823, 1431.721
300.5644, 1434.510
301.0465, 1434.533
301.5287, 1430.940
302.0108, 1425.304
302.4929, 1416.289
302.9750, 1405.198
303.4571, 1400.003
303.9392, 1414.578
304.4214, 1435.685
304.9035, 1444.508
305.3856, 1430.641
305.8677, 1412.609
306.3498, 1406.747
306.8319, 1410.514
307.3141, 1414.865
307.7962, 1414.775
308.2783, 1412.525
308.7604, 1410.363
309.2425, 1409.011
309.7246, 1407.280
310.2068, 1403.149
310.6889, 1397.878
311.1710, 1394.678
311.6531, 1398.299
312.1352, 1402.629
312.6173, 1402.228
313.0995, 1393.985
313.5816, 1387.606
314.0637, 1388.342
314.5458, 1394.049
315.0279, 1400.659
315.5100, 1409.334
315.9922, 1416.455
316.4743, 1419.572
316.9564, 1417.506
317.4385, 1415.176
317.9206, 1413.358
318.4027, 1412.438
318.8849, 1412.953
319.3670, 1417.982
319.8491, 1421.891
320.3312, 1421.505
320.8133, 1415.457
321.2954, 1412.140
321.7776, 1414.301
322.2597, 1419.521
322.7418, 1425.222
323.2239, 1437.681
323.7060, 1443.956
324.1881, 1436.974
324.6703, 1414.857
325.1524, 1401.663
325.6345, 1407.017
326.1166, 1417.845
326.5987, 1423.645
327.0808, 1417.698
327.5630, 1414.578
328.0451, 1417.404
328.5272, 1425.797
329.0093, 1431.471
329.4914, 1432.698
329.9735, 1432.659
330.4557, 1433.321
330.9378, 1434.769
331.4199, 1436.739
331.9020, 1438.921
332.3841, 1441.566
332.8662, 1446.416
333.3484, 1455.832
333.8305, 1463.798
334.3126, 1467.516
334.7947, 1467.417
335.2768, 1460.440
335.7589, 1441.609
336.2411, 1418.495
336.7232, 1412.252
337.2053, 1429.019
337.6874, 1444.859
338.1695, 1445.864
338.6516, 1429.251
339.1338, 1423.843
339.6159, 1434.223
340.0980, 1449.464
340.5801, 1447.626
341.0622, 1426.221
341.5443, 1410.718
342.0265, 1415.508
342.5086, 1437.693
342.9907, 1448.797
343.4728, 1446.595
343.9549, 1441.659
344.4370, 1449.921
344.9192, 1469.536
345.4013, 1482.746
345.8834, 1478.472
346.3655, 1464.518
346.8476, 1463.518
347.3297, 1475.881
347.8119, 1489.111
348.2940, 1489.990
348.7761, 1482.053
349.2582, 1475.941
349.7403, 1475.293
350.2225, 1477.081
350.7046, 1476.694
351.1867, 1474.477
351.6688, 1473.124
352.1509, 1476.147
352.6331, 1480.867
353.1152, 1482.857
353.5973, 1479.711
354.0794, 1476.291
354.5615, 1477.395
355.0436, 1481.893
355.5258, 1486.340
356.0079, 1488.381
356.4900, 1489.798
356.9721, 1493.597
357.4542, 1502.604
357.9363, 1505.964
358.4185, 1488.908
358.9006, 1462.995
359.3827, 1448.221
359.8648, 1463.034
360.3469, 1482.549
360.8290, 1494.004
361.3112, 1495.445
361.7933, 1495.156
362.2754, 1495.073
362.7575, 1494.914
363.2396, 1494.368
363.7217, 1492.124
364.2039, 1490.735
364.6860, 1490.727
365.1681, 1492.127
365.6502, 1494.932
366.1323, 1498.734
366.6144, 1504.187
367.0966, 1511.803
367.5787, 1523.686
368.0608, 1535.156
368.5429, 1548.546
369.0250, 1562.151
369.5071, 1566.717
369.9893, 1556.933
370.4714, 1544.332
370.9535, 1533.978
371.4356, 1525.470
371.9177, 1520.603
372.3998, 1520.807
372.8820, 1523.954
373.3641, 1524.872
373.8462, 1522.002
374.3283, 1520.982
374.8104, 1525.156
375.2925, 1535.325
375.7747, 1541.533
376.2568, 1543.367
376.7389, 1542.173
377.2210, 1538.006
377.7031, 1530.380
378.1852, 1527.234
378.6674, 1533.944
379.1495, 1546.918
379.6316, 1548.599
380.1137, 1537.713
380.5958, 1526.947
381.0779, 1528.613
381.5601, 1540.974
382.0422, 1556.561
382.5243, 1578.184
383.0064, 1596.813
383.4885, 1592.782
383.9706, 1568.890
384.4528, 1546.071
384.9349, 1540.502
385.4170, 1544.699
385.8991, 1545.671
386.3812, 1540.452
386.8633, 1535.275
387.3455, 1537.490
387.8276, 1544.266
388.3097, 1549.162
388.7918, 1547.752
389.2739, 1543.854
389.7560, 1539.226
390.2382, 1533.657
390.7203, 1531.612
391.2024, 1538.360
391.6845, 1548.967
392.1666, 1557.844
392.6487, 1559.675
393.1309, 1562.641
393.6130, 1571.987
394.0951, 1586.929
394.5772, 1597.628
395.0593, 1599.011
395.5414, 1597.007
396.0236, 1595.290
396.5057, 1594.248
396.9878, 1593.646
397.4699, 1594.767
397.9520, 1596.489
398.4341, 1595.202
398.9163, 1586.689
399.3984, 1579.523
399.8805, 1576.569
400.3626, 1578.049
400.8447, 1583.781
401.3268, 1598.237
401.8090, 1613.630
402.2911, 1618.440
402.7732, 1609.149
403.2553, 1598.191
403.7374, 1587.856
404.2195, 1578.286
404.7017, 1572.545
405.1838, 1571.461
405.6659, 1571.956
406.1480, 1571.221
406.6301, 1569.227
407.1122, 1567.658
407.5944, 1566.635
408.0765, 1566.398
408.5586, 1567.677
409.0407, 1570.455
409.5228, 1573.943
410.0049, 1580.583
410.4871, 1587.572
410.9692, 1585.764
411.4513, 1572.810
411.9334, 1556.720
412.4155, 1544.026
412.8976, 1535.074
413.3798, 1531.150
413.8619, 1539.878
414.3440, 1549.703
414.8261, 1545.560
415.3082, 1527.233
415.7903, 1511.508
416.2725, 1513.035
416.7546, 1521.761
417.2367, 1526.324
417.7188, 1519.951
418.2009, 1512.141
418.6830, 1506.090
419.1652, 1501.848
419.6473, 1499.847
420.1294, 1502.439
420.6115, 1505.645
421.0937, 1507.195
421.5758, 1505.676
422.0579, 1504.845
422.5400, 1504.886
423.0221, 1505.959
423.5042, 1508.486
423.9864, 1520.352
424.4685, 1524.686
424.9506, 1514.028
425.4327, 1486.558
425.9148, 1469.915
426.3969, 1469.057
426.8791, 1473.361
427.3612, 1473.785
427.8433, 1469.034
428.3254, 1464.464
428.8075, 1460.784
429.2896, 1457.802
429.7718, 1454.687
430.2539, 1451.183
430.7360, 1448.800
431.2181, 1449.157
431.7002, 1451.997
432.1823, 1453.184
432.6645, 1452.060
433.1466, 1450.807
433.6287, 1455.448
434.1108, 1463.901
434.5929, 1465.308
435.0750, 1448.131
435.5572, 1424.140
436.0393, 1416.749
436.5214, 1425.173
437.0035, 1432.786
437.4856, 1422.459
437.9677, 1404.419
438.4499, 1392.922
438.9320, 1392.672
439.4141, 1397.954
439.8962, 1410.224
440.3783, 1425.355
440.8604, 1433.062
441.3426, 1417.474
441.8247, 1401.644
442.3068, 1400.643
442.7889, 1419.792
443.2710, 1435.947
443.7531, 1444.020
444.2353, 1445.510
444.7174, 1442.208
445.1995, 1427.374
445.6816, 1415.409
446.1637, 1409.612
446.6458, 1409.455
447.1280, 1408.856
447.6101, 1406.205
448.0922, 1404.892
448.5743, 1407.277
449.0564, 1415.742
449.5385, 1421.357
450.0207, 1422.658
450.5028, 1422.124
450.9849, 1425.519
451.4670, 1434.257
451.9491, 1439.462
452.4312, 1435.650
452.9134, 1424.519
453.3955, 1419.399
453.8776, 1420.653
454.3597, 1425.285
454.8418, 1433.017
455.3239, 1442.373
455.8061, 1446.529
456.2882, 1442.660
456.7703, 1435.007
457.2524, 1428.745
457.7345, 1423.754
458.2166, 1419.415
458.6988, 1411.675
459.1809, 1406.309
459.6630, 1412.629
460.1451, 1433.638
460.6272, 1451.271
461.1093, 1450.950
461.5915, 1441.526
462.0736, 1433.962
462.5557, 1427.086
463.0378, 1427.372
463.5199, 1443.904
464.0020, 1473.343
464.4842, 1491.639
464.9663, 1482.378
465.4484, 1468.948
465.9305, 1464.230
466.4126, 1478.986
466.8947, 1483.888
467.3769, 1470.918
467.8590, 1451.614
468.3411, 1446.035
468.8232, 1463.327
469.3053, 1475.800
469.7874, 1472.941
470.2696, 1456.207
470.7517, 1454.828
471.2338, 1472.932
471.7159, 1493.645
472.1980, 1501.514
472.6801, 1496.856
473.1623, 1493.798
473.6444, 1495.498
474.1265, 1497.355
474.6086, 1486.567
475.0907, 1466.048
475.5728, 1454.629
476.0550, 1471.865
476.5371, 1501.265
477.0192, 1513.081
477.5013, 1506.149
477.9834, 1500.641
478.4655, 1517.678
478.9477, 1543.810
479.4298, 1560.986
479.9119, 1558.615
480.3940, 1552.961
480.8761, 1552.590
481.3582, 1555.632
481.8404, 1556.727
482.3225, 1552.404
482.8046, 1547.157
483.2867, 1542.422
483.7688, 1537.510
484.2509, 1535.962
484.7331, 1541.796
485.2152, 1549.213
485.6973, 1551.883
486.1794, 1539.346
486.6615, 1541.191
487.1436, 1569.782
487.6258, 1616.335
488.1079, 1636.224
488.5900, 1620.597
489.0721, 1602.369
489.5542, 1602.556
490.0363, 1621.395
490.5185, 1626.161
491.0006, 1612.405
491.4827, 1596.511
491.9648, 1605.253
492.4470, 1633.347
492.9291, 1650.839
493.4112, 1639.894
493.8933, 1619.127
494.3754, 1618.201
494.8575, 1634.711
495.3397, 1653.548
495.8218, 1669.401
496.3039, 1680.351
496.7860, 1682.397
497.2681, 1672.354
497.7502, 1664.110
498.2324, 1667.125
498.7145, 1675.766
499.1966, 1682.438
499.6787, 1684.139
500.1608, 1684.261
500.6429, 1681.925
501.1251, 1677.606
501.6072, 1678.005
502.0893, 1683.761
502.5714, 1694.179
503.0535, 1711.275
503.5356, 1746.589
504.0178, 1758.879
504.4999, 1736.285
504.9820, 1701.337
505.4641, 1688.510
505.9462, 1701.084
506.4283, 1719.696
506.9105, 1743.573
507.3926, 1768.124
507.8747, 1768.899
508.3568, 1744.367
508.8389, 1724.491
509.3210, 1739.805
509.8032, 1776.801
510.2853, 1796.993
510.7674, 1793.375
511.2495, 1782.365
511.7316, 1779.175
512.2137, 1781.103
512.6959, 1782.685
513.1780, 1774.751
513.6601, 1771.415
514.1422, 1788.313
514.6243, 1821.618
515.1064, 1845.001
515.5886, 1838.754
516.0707, 1825.997
516.5528, 1820.718
517.0349, 1827.326
517.5170, 1835.799
517.9991, 1848.173
518.4813, 1860.710
518.9634, 1867.910
519.4455, 1863.336
519.9276, 1864.707
520.4097, 1877.553
520.8918, 1899.671
521.3740, 1919.094
521.8561, 1936.706
522.3382, 1948.700
522.8203, 1950.649
523.3024, 1943.165
523.7845, 1935.718
524.2667, 1927.713
524.7488, 1923.983
525.2309, 1934.178
525.7130, 1954.343
526.1951, 1970.320
526.6772, 1974.744
527.1594, 1975.153
527.6415, 1979.813
528.1236, 1988.024
528.6057, 1996.871
529.0878, 2005.219
529.5699, 2013.147
530.0521, 2020.595
530.5342, 2027.629
531.0163, 2034.179
531.4984, 2038.061
531.9805, 2042.438
532.4626, 2050.682
532.9448, 2072.604
533.4269, 2086.921
533.9090, 2086.504
534.3911, 2076.238
534.8732, 2075.129
535.3553, 2085.391
535.8375, 2100.938
536.3196, 2121.665
536.8017, 2148.572
537.2838, 2162.996
537.7659, 2161.976
538.2480, 2158.680
538.7302, 2169.633
539.2123, 2192.477
539.6944, 2210.416
540.1765, 2219.851
540.6586, 2222.760
541.1407, 2218.181
541.6229, 2208.624
542.1050, 2203.024
542.5871, 2211.255
543.0692, 2222.260
543.5513, 2224.007
544.0334, 2215.978
544.5156, 2211.959
544.9977, 2227.344
545.4798, 2244.252
545.9619, 2247.395
546.4440, 2214.541
546.9261, 2196.692
547.4083, 2211.775
547.8904, 2244.154
548.3725, 2265.593
548.8546, 2272.498
549.3367, 2274.343
549.8188, 2271.280
550.3010, 2264.137
550.7831, 2264.071
551.2652, 2273.541
551.7473, 2281.886
552.2294, 2278.723
552.7115, 2265.719
553.1937, 2261.118
553.6758, 2267.871
554.1579, 2276.763
554.6400, 2277.230
555.1221, 2270.636
555.6042, 2260.563
556.0864, 2243.339
556.5685, 2228.081
557.0506, 2225.224
557.5327, 2232.315
558.0148, 2240.373
558.4969, 2248.446
558.9791, 2253.566
559.4612, 2253.823
559.9433, 2248.797
560.4254, 2240.208
560.9075, 2223.138
561.3896, 2205.613
561.8718, 2194.837
562.3539, 2198.233
562.8360, 2195.148
563.3181, 2179.940
563.8002, 2159.357
564.2823, 2151.629
564.7645, 2160.517
565.2466, 2165.330
565.7287, 2154.534
566.2108, 2132.716
566.6929, 2125.821
567.1750, 2134.652
567.6572, 2141.492
568.1393, 2125.955
568.6214, 2098.637
569.1035, 2082.136
569.5856, 2081.653
570.0677, 2084.666
570.5499, 2082.961
571.0320, 2077.400
571.5141, 2069.371
571.9962, 2055.410
572.4783, 2043.031
572.9604, 2038.573
573.4426, 2039.651
573.9247, 2033.683
574.4068, 2012.210
574.8889, 1989.142
575.3710, 1968.992
575.8531, 1951.617
576.3353, 1939.790
576.8174, 1936.662
577.2995, 1934.577
577.7816, 1925.131
578.2637, 1907.436
578.7458, 1892.376
579.2280, 1881.790
579.7101, 1874.016
580.1922, 1865.886
580.6743, 1857.768
581.1564, 1851.740
581.6385, 1850.877
582.1207, 1851.512
582.6028, 1850.480
583.0849, 1847.383
583.5670, 1839.112
584.0491, 1815.642
584.5313, 1791.496
585.0134, 1779.697
585.4955, 1787.195
585.9776, 1790.670
586.4597, 1779.079
586.9418, 1762.593
587.4240, 1753.196
587.9061, 1760.138
588.3882, 1759.999
588.8703, 1747.667
589.3524, 1727.365
589.8345, 1710.814
590.3167, 1697.850
590.7988, 1689.324
591.2809, 1686.990
591.7630, 1689.650
592.2451, 1691.750
592.7272, 1693.301
593.2094, 1694.067
593.6915, 1693.491
594.1736, 1692.067
594.6557, 1691.536
595.1378, 1693.122
595.6199, 1691.595
596.1021, 1678.910
596.5842, 1661.717
597.0663, 1649.449
597.5485, 1648.500
598.0306, 1649.725
598.5127, 1649.965
598.9948, 1649.930
599.4769, 1653.047
599.9590, 1665.871
600.4412, 1674.113
600.9233, 1670.843
601.4054, 1654.780
601.8875, 1648.354
602.3696, 1654.691
602.8517, 1663.124
603.3339, 1663.829
603.8160, 1657.511
604.2981, 1653.034
604.7802, 1651.411
605.2623, 1651.838
605.7444, 1654.435
606.2266, 1658.365
606.7087, 1661.330
607.1908, 1663.415
607.6729, 1663.327
608.1550, 1656.170
608.6371, 1645.307
609.1193, 1641.425
609.6014, 1658.088
610.0835, 1674.836
610.5656, 1680.124
611.0477, 1671.177
611.5298, 1667.499
612.0120, 1674.402
612.4941, 1682.106
612.9762, 1683.289
613.4583, 1674.811
613.9404, 1670.959
614.4225, 1672.237
614.9047, 1678.456
615.3868, 1694.317
615.8689, 1718.448
616.3510, 1729.525
616.8331, 1715.109
617.3152, 1692.660
617.7974, 1690.090
618.2795, 1703.356
618.7616, 1716.479
619.2437, 1717.529
619.7258, 1717.387
620.2079, 1728.951
620.6901, 1752.462
621.1722, 1763.054
621.6543, 1731.963
622.1364, 1699.221
622.6185, 1693.584
623.1006, 1737.363
623.5828, 1760.647
624.0649, 1751.850
624.5470, 1733.187
625.0291, 1733.211
625.5112, 1756.638
625.9933, 1772.716
626.4755, 1773.464
626.9576, 1767.030
627.4397, 1770.435
627.9218, 1782.617
628.4039, 1795.480
628.8860, 1805.811
629.3682, 1814.155
629.8503, 1821.202
630.3324, 1826.925
630.8145, 1830.804
631.2966, 1833.766
631.7787, 1833.874
632.2609, 1827.439
632.7430, 1810.111
633.2251, 1801.780
633.7072, 1814.651
634.1893, 1833.069
634.6714, 1844.221
635.1536, 1845.326
635.6357, 1845.021
636.1178, 1843.186
636.5999, 1840.987
637.0820, 1840.008
637.5641, 1840.200
638.0463, 1843.739
638.5284, 1853.731
639.0105, 1865.436
639.4926, 1867.983
639.9747, 1862.866
640.4568, 1858.693
640.9390, 1863.456
641.4211, 1869.741
641.9032, 1869.288
642.3853, 1861.539
642.8674, 1856.303
643.3495, 1857.603
643.8317, 1862.730
644.3138, 1870.146
644.7959, 1881.882
645.2780, 1891.670
