##NAMES=Zinnwaldite
##RRUFFID=R040138
##IDEAL CHEMISTRY=K(Al,Fe,Li)_3_(Si,Al)_4_O_10_(OH)F
##LOCALITY=TÃ¸rdal, Telemark, Norway
##OWNER=RRUFF
##SOURCE=University of Arizona Mineral Museum
##DESCRIPTION=Dark green mica book, polytype 1M
##STATUS=The identification of this mineral has been confirmed by X-ray diffraction and chemical analysis
##URL=rruff.info/R040138
##MEASURED CHEMISTRY=(K_0.96_Na_0.04_)(Al_0.35_Fe^2+^_0.29_Li_0.27_Mg_0.04_Mn_0.03_Ti_0.02_)_3_(Si_0.66_Al_0.34_)_4_O_10_((OH)_0.64_F_0.36_)_2_
162.9636, 1616.247
163.4457, 1612.549
163.9278, 1617.141
164.4099, 1627.910
164.8920, 1642.606
165.3741, 1663.452
165.8563, 1681.812
166.3384, 1689.159
166.8205, 1690.710
167.3026, 1695.353
167.7847, 1709.468
168.2668, 1728.093
168.7490, 1739.665
169.2311, 1741.146
169.7132, 1742.480
170.1953, 1751.052
170.6774, 1762.717
171.1595, 1770.737
171.6417, 1770.661
172.1238, 1765.540
172.6059, 1762.991
173.0880, 1763.872
173.5701, 1765.753
174.0522, 1768.800
174.5344, 1771.822
175.0165, 1772.965
175.4986, 1771.168
175.9807, 1767.031
176.4628, 1760.671
176.9449, 1746.450
177.4271, 1741.220
177.9092, 1758.826
178.3913, 1786.132
178.8734, 1804.844
179.3555, 1804.486
179.8376, 1791.417
180.3197, 1784.738
180.8019, 1788.448
181.2840, 1791.698
181.7661, 1789.603
182.2482, 1785.517
182.7303, 1783.530
183.2124, 1785.654
183.6946, 1791.070
184.1767, 1797.854
184.6588, 1807.612
185.1409, 1815.765
185.6230, 1821.578
186.1051, 1825.246
186.5873, 1826.771
187.0694, 1825.947
187.5515, 1823.546
188.0336, 1821.647
188.5157, 1820.954
188.9978, 1819.521
189.4800, 1816.891
189.9621, 1813.484
190.4442, 1809.888
190.9263, 1806.457
191.4084, 1802.523
191.8905, 1795.805
192.3727, 1782.113
192.8548, 1773.384
193.3369, 1774.456
193.8190, 1779.193
194.3011, 1781.894
194.7832, 1780.301
195.2654, 1775.852
195.7475, 1771.328
196.2296, 1765.510
196.7117, 1762.059
197.1938, 1764.600
197.6759, 1767.606
198.1581, 1765.110
198.6402, 1755.274
199.1223, 1742.946
199.6044, 1737.450
200.0865, 1742.565
200.5686, 1747.333
201.0508, 1751.648
201.5329, 1754.798
202.0150, 1756.034
202.4971, 1755.208
202.9792, 1752.931
203.4613, 1750.712
203.9435, 1750.972
204.4256, 1745.399
204.9077, 1725.721
205.3898, 1706.415
205.8719, 1700.643
206.3540, 1709.474
206.8362, 1720.311
207.3183, 1713.436
207.8004, 1676.436
208.2825, 1653.832
208.7646, 1654.454
209.2467, 1660.910
209.7289, 1664.498
210.2110, 1663.637
210.6931, 1660.992
211.1752, 1659.538
211.6573, 1659.578
212.1395, 1659.762
212.6216, 1664.534
213.1037, 1665.758
213.5858, 1654.422
214.0679, 1633.771
214.5500, 1617.174
215.0322, 1620.254
215.5143, 1647.818
215.9964, 1662.861
216.4785, 1653.902
216.9606, 1643.336
217.4427, 1640.130
217.9249, 1642.858
218.4070, 1644.391
218.8891, 1637.323
219.3712, 1621.104
219.8533, 1616.395
220.3354, 1638.021
220.8176, 1657.288
221.2997, 1667.585
221.7818, 1669.498
222.2639, 1664.981
222.7460, 1654.297
223.2281, 1638.413
223.7103, 1628.666
224.1924, 1628.609
224.6745, 1631.537
225.1566, 1640.486
225.6387, 1650.679
226.1208, 1654.300
226.6030, 1645.942
227.0851, 1629.685
227.5672, 1623.087
228.0493, 1635.791
228.5314, 1645.589
229.0135, 1646.200
229.4957, 1642.972
229.9778, 1642.764
230.4599, 1648.802
230.9420, 1657.602
231.4241, 1660.259
231.9062, 1652.487
232.3884, 1645.611
232.8705, 1638.542
233.3526, 1634.182
233.8347, 1636.091
234.3168, 1645.256
234.7989, 1657.806
235.2811, 1668.462
235.7632, 1681.031
236.2453, 1681.875
236.7274, 1655.691
237.2095, 1628.696
237.6916, 1621.232
238.1738, 1635.844
238.6559, 1656.587
239.1380, 1663.224
239.6201, 1651.518
240.1022, 1641.248
240.5843, 1631.919
241.0665, 1625.121
241.5486, 1622.094
242.0307, 1622.633
242.5128, 1625.479
242.9949, 1631.248
243.4770, 1640.791
243.9592, 1642.776
244.4413, 1627.075
244.9234, 1613.098
245.4055, 1607.134
245.8876, 1608.783
246.3697, 1616.046
246.8519, 1630.432
247.3340, 1650.184
247.8161, 1657.898
248.2982, 1642.587
248.7803, 1629.539
249.2624, 1627.199
249.7446, 1632.740
250.2267, 1641.959
250.7088, 1653.908
251.1909, 1666.709
251.6730, 1675.026
252.1551, 1678.194
252.6373, 1677.918
253.1194, 1671.394
253.6015, 1663.505
254.0836, 1660.296
254.5657, 1664.706
255.0478, 1671.625
255.5300, 1664.196
256.0121, 1675.608
256.4942, 1682.479
256.9763, 1685.052
257.4584, 1670.459
257.9406, 1678.033
258.4227, 1676.724
258.9048, 1675.050
259.3869, 1685.745
259.8690, 1673.648
260.3511, 1684.146
260.8333, 1685.625
261.3154, 1691.232
261.7975, 1687.900
262.2796, 1687.329
262.7617, 1695.700
263.2438, 1699.119
263.7260, 1694.759
264.2081, 1700.628
264.6902, 1688.219
265.1723, 1692.032
265.6544, 1691.895
266.1365, 1691.881
266.6187, 1692.099
267.1008, 1695.262
267.5829, 1698.218
268.0650, 1692.495
268.5471, 1675.031
269.0292, 1658.302
269.5114, 1651.039
269.9935, 1650.440
270.4756, 1652.850
270.9577, 1658.605
271.4398, 1665.950
271.9219, 1673.161
272.4041, 1680.252
272.8862, 1687.618
273.3683, 1698.440
273.8504, 1707.886
274.3325, 1706.684
274.8146, 1688.519
275.2968, 1670.370
275.7789, 1666.698
276.2610, 1673.577
276.7431, 1673.354
277.2252, 1656.153
277.7073, 1634.126
278.1895, 1629.173
278.6716, 1644.564
279.1537, 1657.501
279.6358, 1658.004
280.1179, 1651.123
280.6000, 1645.622
281.0822, 1643.617
281.5643, 1641.732
282.0464, 1634.094
282.5285, 1619.679
283.0106, 1613.181
283.4927, 1623.835
283.9749, 1638.316
284.4570, 1645.245
284.9391, 1643.640
285.4212, 1636.776
285.9033, 1624.941
286.3854, 1608.802
286.8676, 1604.719
287.3497, 1628.621
287.8318, 1648.038
288.3139, 1640.630
288.7960, 1615.264
289.2781, 1597.679
289.7603, 1603.348
290.2424, 1625.527
290.7245, 1635.712
291.2066, 1622.795
291.6887, 1612.527
292.1708, 1611.164
292.6530, 1613.661
293.1351, 1613.942
293.6172, 1609.853
294.0993, 1602.742
294.5814, 1594.677
295.0635, 1582.616
295.5457, 1575.773
296.0278, 1578.695
296.5099, 1583.180
296.9920, 1582.770
297.4741, 1577.245
297.9562, 1571.317
298.4384, 1570.137
298.9205, 1574.703
299.4026, 1577.076
299.8847, 1573.577
300.3668, 1571.610
300.8489, 1576.231
301.3310, 1584.380
301.8131, 1589.237
302.2953, 1585.901
302.7774, 1576.120
303.2595, 1568.771
303.7416, 1564.758
304.2237, 1562.113
304.7058, 1560.446
305.1880, 1559.744
305.6701, 1560.092
306.1522, 1561.530
306.6343, 1563.789
307.1164, 1567.765
307.5985, 1575.607
308.0807, 1577.030
308.5628, 1561.215
309.0449, 1544.618
309.5270, 1537.764
310.0091, 1541.262
310.4912, 1547.653
310.9734, 1551.212
311.4555, 1552.121
311.9376, 1552.332
312.4197, 1552.278
312.9018, 1550.964
313.3839, 1545.285
313.8661, 1537.728
314.3482, 1535.112
314.8303, 1544.055
315.3124, 1558.255
315.7945, 1566.608
316.2766, 1568.472
316.7588, 1568.096
317.2409, 1565.943
317.7230, 1563.541
318.2051, 1563.839
318.6872, 1569.214
319.1693, 1573.756
319.6515, 1572.320
320.1336, 1566.017
320.6157, 1560.015
321.0978, 1556.597
321.5799, 1553.403
322.0620, 1544.531
322.5442, 1527.869
323.0263, 1518.500
323.5084, 1527.402
323.9905, 1543.098
324.4726, 1549.214
324.9547, 1543.077
325.4369, 1535.869
325.9190, 1538.472
326.4011, 1552.084
326.8832, 1564.379
327.3653, 1577.102
327.8474, 1587.062
328.3296, 1592.612
328.8117, 1593.912
329.2938, 1591.046
329.7759, 1583.516
330.2580, 1572.809
330.7401, 1565.919
331.2223, 1565.494
331.7044, 1565.611
332.1865, 1565.146
332.6686, 1565.162
333.1507, 1567.418
333.6328, 1572.259
334.1150, 1577.642
334.5971, 1580.281
335.0792, 1578.421
335.5613, 1578.573
336.0434, 1582.924
336.5255, 1587.112
337.0077, 1589.735
337.4898, 1590.285
337.9719, 1587.861
338.4540, 1580.529
338.9361, 1569.398
339.4182, 1565.124
339.9004, 1574.371
340.3825, 1580.690
340.8646, 1575.619
341.3467, 1566.502
341.8288, 1563.208
342.3109, 1570.040
342.7931, 1580.919
343.2752, 1586.857
343.7573, 1587.239
344.2394, 1586.983
344.7215, 1586.009
345.2036, 1585.843
345.6858, 1589.174
346.1679, 1595.886
346.6500, 1599.670
347.1321, 1591.315
347.6142, 1577.054
348.0963, 1576.494
348.5785, 1595.583
349.0606, 1615.843
349.5427, 1621.462
350.0248, 1616.425
350.5069, 1611.856
350.9890, 1611.683
351.4712, 1611.069
351.9533, 1602.511
352.4354, 1588.465
352.9175, 1583.403
353.3996, 1597.368
353.8817, 1620.789
354.3639, 1626.913
354.8460, 1607.388
355.3281, 1592.235
355.8102, 1590.223
356.2923, 1595.100
356.7744, 1599.895
357.2566, 1603.074
357.7387, 1606.851
358.2208, 1614.437
358.7029, 1627.744
359.1850, 1633.663
359.6671, 1629.263
360.1493, 1621.623
360.6314, 1610.262
361.1135, 1598.279
361.5956, 1591.747
362.0777, 1594.626
362.5598, 1604.180
363.0420, 1610.299
363.5241, 1610.099
364.0062, 1611.002
364.4883, 1614.448
364.9704, 1618.875
365.4525, 1623.903
365.9347, 1629.067
366.4168, 1632.346
366.8989, 1630.125
367.3810, 1621.858
367.8631, 1617.088
368.3452, 1618.450
368.8274, 1620.767
369.3095, 1620.012
369.7916, 1618.047
370.2737, 1619.723
370.7558, 1629.991
371.2379, 1642.993
371.7201, 1648.377
372.2022, 1645.539
372.6843, 1640.776
373.1664, 1635.592
373.6485, 1630.613
374.1306, 1625.704
374.6128, 1619.438
375.0949, 1618.397
375.5770, 1633.584
376.0591, 1655.157
376.5412, 1660.399
377.0233, 1643.052
377.5055, 1622.092
377.9876, 1617.177
378.4697, 1630.396
378.9518, 1641.303
379.4339, 1652.266
379.9160, 1658.516
380.3982, 1654.725
380.8803, 1643.553
381.3624, 1630.790
381.8445, 1618.696
382.3266, 1610.180
382.8087, 1614.411
383.2909, 1652.849
383.7730, 1675.708
384.2551, 1670.504
384.7372, 1656.974
385.2193, 1651.352
385.7014, 1655.970
386.1836, 1662.508
386.6657, 1661.764
387.1478, 1653.195
387.6299, 1647.970
388.1120, 1649.319
388.5941, 1650.388
389.0763, 1648.558
389.5584, 1645.087
390.0405, 1641.649
390.5226, 1638.459
391.0047, 1636.990
391.4868, 1640.410
391.9690, 1649.285
392.4511, 1657.576
392.9332, 1664.000
393.4153, 1668.849
393.8974, 1671.734
394.3795, 1672.736
394.8617, 1674.964
395.3438, 1684.361
395.8259, 1694.459
396.3080, 1691.895
396.7901, 1674.807
397.2722, 1658.004
397.7544, 1651.741
398.2365, 1654.672
398.7186, 1657.164
399.2007, 1656.265
399.6828, 1658.173
400.1649, 1666.441
400.6471, 1678.819
401.1292, 1693.730
401.6113, 1710.773
402.0934, 1724.016
402.5755, 1723.680
403.0576, 1702.357
403.5398, 1690.017
404.0219, 1692.832
404.5040, 1697.464
404.9861, 1699.639
405.4682, 1697.871
405.9503, 1688.654
406.4325, 1667.828
406.9146, 1642.328
407.3967, 1639.943
407.8788, 1678.168
408.3609, 1703.413
408.8430, 1697.985
409.3252, 1681.648
409.8073, 1667.368
410.2894, 1657.782
410.7715, 1652.368
411.2536, 1650.616
411.7357, 1652.629
412.2179, 1660.627
412.7000, 1678.136
413.1821, 1693.428
413.6642, 1696.757
414.1463, 1692.135
414.6284, 1686.570
415.1106, 1681.584
415.5927, 1675.688
416.0748, 1666.167
416.5569, 1654.635
417.0390, 1645.531
417.5211, 1639.904
418.0033, 1639.230
418.4854, 1647.381
418.9675, 1669.361
419.4496, 1682.550
419.9317, 1679.618
420.4138, 1672.956
420.8960, 1672.509
421.3781, 1676.173
421.8602, 1674.822
422.3423, 1662.135
422.8244, 1640.675
423.3065, 1620.998
423.7887, 1597.300
424.2708, 1585.256
424.7529, 1591.679
425.2350, 1605.652
425.7171, 1620.653
426.1992, 1634.635
426.6814, 1645.572
427.1635, 1650.630
427.6456, 1650.314
428.1277, 1650.393
428.6098, 1651.755
429.0919, 1651.767
429.5741, 1648.728
430.0562, 1643.616
430.5383, 1637.584
431.0204, 1630.521
431.5025, 1623.408
431.9846, 1616.848
432.4668, 1610.877
432.9489, 1605.760
433.4310, 1601.708
433.9131, 1597.967
434.3952, 1592.817
434.8773, 1585.811
435.3595, 1583.645
435.8416, 1589.377
436.3237, 1597.648
436.8058, 1607.250
437.2879, 1616.709
437.7701, 1623.659
438.2522, 1626.991
438.7343, 1626.273
439.2164, 1619.808
439.6985, 1601.181
440.1806, 1588.371
440.6628, 1581.361
441.1449, 1579.643
441.6270, 1587.547
442.1091, 1601.500
442.5912, 1609.475
443.0733, 1598.785
443.5555, 1576.448
444.0376, 1572.728
444.5197, 1596.840
445.0018, 1613.673
445.4839, 1599.164
445.9660, 1576.246
446.4482, 1569.918
446.9303, 1585.765
447.4124, 1598.031
447.8945, 1584.354
448.3766, 1557.209
448.8587, 1544.078
449.3409, 1549.282
449.8230, 1557.866
450.3051, 1558.284
450.7872, 1551.431
451.2693, 1547.579
451.7514, 1548.978
452.2336, 1550.511
452.7157, 1552.465
453.1978, 1552.846
453.6799, 1545.888
454.1620, 1530.876
454.6441, 1518.324
455.1263, 1523.589
455.6084, 1551.426
456.0905, 1570.038
456.5726, 1572.194
457.0547, 1571.891
457.5368, 1573.795
458.0190, 1575.829
458.5011, 1572.924
458.9832, 1561.830
459.4653, 1550.490
459.9474, 1553.446
460.4295, 1571.018
460.9117, 1579.101
461.3938, 1566.172
461.8759, 1551.995
462.3580, 1558.252
462.8401, 1580.458
463.3222, 1594.705
463.8044, 1587.147
464.2865, 1574.762
464.7686, 1573.733
465.2507, 1581.447
465.7328, 1586.193
466.2149, 1582.579
466.6971, 1574.433
467.1792, 1568.994
467.6613, 1566.185
468.1434, 1566.788
468.6255, 1571.631
469.1076, 1579.074
469.5898, 1590.735
470.0719, 1604.254
470.5540, 1613.929
471.0361, 1616.020
471.5182, 1612.396
472.0003, 1607.877
472.4825, 1601.308
472.9646, 1597.099
473.4467, 1597.160
473.9288, 1599.307
474.4109, 1602.310
474.8930, 1606.127
475.3752, 1611.371
475.8573, 1619.767
476.3394, 1629.259
476.8215, 1636.734
477.3036, 1642.098
477.7857, 1644.847
478.2679, 1643.577
478.7500, 1640.463
479.2321, 1641.450
479.7142, 1649.508
480.1963, 1653.712
480.6784, 1645.965
481.1606, 1637.517
481.6427, 1641.673
482.1248, 1656.880
482.6069, 1669.331
483.0890, 1668.263
483.5711, 1656.337
484.0533, 1647.814
484.5354, 1639.895
485.0175, 1640.657
485.4996, 1656.489
485.9817, 1676.555
486.4638, 1694.532
486.9460, 1708.686
487.4281, 1716.578
487.9102, 1710.850
488.3923, 1697.652
488.8744, 1698.216
489.3565, 1715.534
489.8387, 1729.930
490.3208, 1729.522
490.8029, 1720.834
491.2850, 1717.852
491.7671, 1721.927
492.2492, 1727.594
492.7314, 1735.158
493.2135, 1742.135
493.6956, 1743.949
494.1777, 1741.181
494.6598, 1740.504
495.1419, 1747.282
495.6241, 1760.324
496.1062, 1772.250
496.5883, 1785.447
497.0704, 1793.730
497.5525, 1791.793
498.0346, 1788.223
498.5168, 1791.444
498.9989, 1801.468
499.4810, 1810.386
499.9631, 1809.348
500.4452, 1802.080
500.9273, 1804.555
501.4095, 1819.934
501.8916, 1831.294
502.3737, 1826.220
502.8558, 1815.931
503.3379, 1819.895
503.8200, 1843.052
504.3022, 1860.810
504.7843, 1858.345
505.2664, 1848.840
505.7485, 1846.991
506.2306, 1853.733
506.7127, 1863.795
507.1949, 1874.169
507.6770, 1884.399
508.1591, 1892.488
508.6412, 1899.755
509.1233, 1902.605
509.6054, 1894.649
510.0876, 1887.195
510.5697, 1888.498
511.0518, 1898.633
511.5339, 1913.351
512.0161, 1932.830
512.4982, 1952.626
512.9803, 1958.043
513.4624, 1946.119
513.9445, 1937.591
514.4266, 1940.468
514.9088, 1949.683
515.3909, 1959.074
515.8730, 1968.798
516.3551, 1976.996
516.8372, 1982.746
517.3193, 1987.020
517.8015, 1989.729
518.2836, 1991.602
518.7657, 1994.860
519.2478, 2000.564
519.7299, 2008.832
520.2120, 2020.758
520.6942, 2044.137
521.1763, 2055.948
521.6584, 2048.695
522.1405, 2038.356
522.6226, 2030.321
523.1047, 2026.366
523.5869, 2029.922
524.0690, 2045.791
524.5511, 2063.345
525.0332, 2061.433
525.5153, 2040.226
525.9974, 2028.470
526.4796, 2037.764
526.9617, 2050.675
527.4438, 2041.847
527.9259, 2015.105
528.4080, 2009.286
528.8901, 2052.845
529.3723, 2096.022
529.8544, 2107.469
530.3365, 2097.683
530.8186, 2086.433
531.3007, 2080.712
531.7828, 2079.497
532.2650, 2083.029
532.7471, 2093.917
533.2292, 2092.965
533.7113, 2061.978
534.1934, 2040.094
534.6755, 2048.585
535.1577, 2069.440
535.6398, 2076.396
536.1219, 2060.803
536.6040, 2041.993
537.0861, 2040.262
537.5682, 2049.880
538.0504, 2050.730
538.5325, 2039.241
539.0146, 2028.851
539.4967, 2030.516
539.9788, 2041.077
540.4609, 2044.656
540.9431, 2038.402
541.4252, 2030.008
541.9073, 2017.984
542.3894, 2006.475
542.8715, 2001.236
543.3536, 2001.407
543.8358, 1999.436
544.3179, 1988.249
544.8000, 1971.093
545.2821, 1963.235
545.7642, 1968.887
546.2463, 1972.340
546.7285, 1969.803
547.2106, 1963.331
547.6926, 1951.020
548.1747, 1934.136
548.6569, 1924.347
549.1390, 1935.776
549.6211, 1950.553
550.1032, 1946.261
550.5853, 1926.874
551.0674, 1911.583
551.5496, 1908.321
552.0317, 1910.602
552.5138, 1908.279
552.9959, 1901.008
553.4780, 1889.924
553.9601, 1862.044
554.4423, 1844.650
554.9244, 1862.000
555.4065, 1892.937
555.8886, 1902.231
556.3707, 1876.545
556.8528, 1839.484
557.3350, 1818.709
557.8171, 1812.383
558.2992, 1806.277
558.7813, 1800.013
559.2634, 1790.880
559.7455, 1774.561
560.2277, 1754.281
560.7098, 1740.236
561.1919, 1733.595
561.6740, 1731.175
562.1561, 1738.787
562.6382, 1746.000
563.1204, 1739.529
563.6025, 1720.043
564.0846, 1698.261
564.5667, 1680.750
565.0488, 1668.925
565.5309, 1670.397
566.0131, 1694.657
566.4952, 1708.240
566.9773, 1702.704
567.4594, 1686.381
567.9415, 1656.977
568.4236, 1619.144
568.9058, 1591.534
569.3879, 1588.159
569.8700, 1592.763
570.3521, 1589.133
570.8342, 1579.516
571.3163, 1571.087
571.7985, 1565.927
572.2806, 1563.725
572.7627, 1564.737
573.2448, 1569.640
573.7269, 1571.312
574.2090, 1571.859
574.6912, 1566.863
575.1733, 1547.430
575.6554, 1525.952
576.1375, 1517.875
576.6196, 1525.772
577.1017, 1536.527
577.5839, 1540.305
578.0660, 1537.406
578.5481, 1525.119
579.0302, 1501.381
579.5123, 1487.539
579.9944, 1498.509
580.4766, 1520.540
580.9587, 1526.559
581.4408, 1514.203
581.9229, 1500.086
582.4050, 1482.923
582.8871, 1467.919
583.3693, 1457.596
583.8514, 1452.356
584.3335, 1454.243
584.8156, 1464.324
585.2977, 1475.019
585.7798, 1471.418
586.2620, 1451.435
586.7441, 1443.078
587.2262, 1455.578
587.7083, 1466.666
588.1904, 1463.419
588.6725, 1450.512
589.1547, 1433.499
589.6368, 1409.409
590.1189, 1390.962
590.6010, 1386.111
591.0831, 1389.329
591.5652, 1395.091
592.0474, 1402.155
592.5295, 1410.342
593.0116, 1420.325
593.4937, 1428.920
593.9758, 1425.309
594.4579, 1403.214
594.9401, 1383.893
595.4222, 1364.024
595.9043, 1352.250
596.3864, 1359.499
596.8685, 1378.364
597.3506, 1390.100
597.8328, 1385.664
598.3149, 1376.091
598.7970, 1368.613
599.2791, 1363.996
599.7612, 1366.354
600.2433, 1376.519
600.7255, 1384.160
601.2076, 1379.067
601.6897, 1363.736
602.1718, 1358.694
602.6539, 1378.644
603.1360, 1388.777
603.6182, 1376.319
604.1003, 1361.304
604.5824, 1359.889
605.0645, 1370.641
605.5466, 1381.183
606.0287, 1384.391
606.5109, 1383.631
606.9930, 1383.119
607.4751, 1382.978
607.9572, 1384.687
608.4393, 1389.203
608.9214, 1393.483
609.4036, 1394.994
609.8857, 1393.697
610.3678, 1388.183
610.8499, 1373.944
611.3320, 1361.649
611.8141, 1352.108
612.2963, 1346.699
612.7784, 1347.866
613.2605, 1355.065
613.7426, 1364.836
614.2247, 1376.722
614.7068, 1387.549
615.1890, 1387.042
615.6711, 1374.520
616.1532, 1366.545
616.6353, 1369.586
617.1174, 1375.763
617.5995, 1375.220
618.0817, 1367.790
618.5638, 1366.083
619.0459, 1376.849
619.5280, 1386.163
620.0101, 1388.044
620.4922, 1385.748
620.9744, 1382.011
621.4565, 1378.257
621.9386, 1377.368
622.4207, 1382.736
622.9028, 1392.705
623.3849, 1401.727
623.8671, 1410.533
624.3492, 1413.717
624.8313, 1407.331
625.3134, 1397.249
625.7955, 1388.924
626.2776, 1382.264
626.7598, 1380.830
627.2419, 1387.621
627.7240, 1397.051
628.2061, 1412.398
628.6882, 1426.117
629.1703, 1423.987
629.6525, 1404.760
630.1346, 1384.406
630.6167, 1378.894
631.0988, 1385.674
631.5809, 1390.257
632.0630, 1391.793
632.5452, 1394.835
633.0273, 1403.650
633.5094, 1411.728
633.9915, 1410.300
634.4736, 1399.978
634.9557, 1392.555
635.4379, 1390.320
635.9200, 1391.637
636.4021, 1398.943
636.8842, 1407.972
637.3663, 1411.416
637.8484, 1408.025
638.3306, 1403.110
638.8127, 1400.975
639.2948, 1402.093
639.7769, 1411.451
640.2590, 1433.397
640.7411, 1447.990
641.2233, 1446.095
641.7054, 1437.648
642.1875, 1432.891
642.6696, 1431.443
643.1517, 1428.581
643.6339, 1419.728
644.1160, 1413.069
644.5981, 1414.181
645.0802, 1419.961
645.5623, 1427.069
646.0444, 1434.019
646.5266, 1437.878
647.0087, 1434.659
647.4908, 1426.785
647.9729, 1427.494
648.4550, 1440.485
648.9371, 1446.365
649.4193, 1432.664
649.9014, 1418.397
650.3835, 1425.500
650.8656, 1450.396
651.3477, 1467.875
651.8298, 1471.437
652.3120, 1469.392
652.7941, 1462.970
653.2762, 1454.588
653.7583, 1445.025
654.2404, 1435.918
654.7225, 1434.241
655.2047, 1448.407
655.6868, 1470.534
656.1689, 1470.021
656.6510, 1440.947
