##NAMES=Zircon
##RRUFFID=R100144
##IDEAL CHEMISTRY=Zr^4+^SiO_4_
##LOCALITY=Sri Lanka
##OWNER=RRUFF
##SOURCE=William W. Pinch
##DESCRIPTION=Brown, red, and green cut gemstones
##STATUS=The identification of this mineral has been confirmed by single-crystal X-ray diffraction.
##URL=rruff.info/R100144
90.60547, 12810.94
91.08759, 12512.15
91.56970, 12456.96
92.05182, 12553.86
92.53394, 12876.17
93.01605, 13194.15
93.49817, 13443.49
93.98029, 13643.93
94.46240, 13797.71
94.94452, 13892.91
95.42664, 13953.53
95.90874, 13997.70
96.39086, 14031.09
96.87298, 14054.91
97.35509, 14058.58
97.83721, 14016.63
98.31933, 13978.44
98.80145, 13947.20
99.28356, 13921.96
99.76568, 13901.78
100.2478, 13885.85
100.7299, 13875.29
101.2120, 13875.05
101.6941, 13887.07
102.1763, 13907.09
102.6584, 13935.08
103.1405, 13969.41
103.6226, 14008.51
104.1047, 14051.85
104.5868, 14098.51
105.0690, 14140.41
105.5511, 14170.70
106.0332, 14201.96
106.5153, 14240.82
106.9974, 14286.29
107.4795, 14332.02
107.9617, 14371.81
108.4438, 14407.48
108.9259, 14446.69
109.4080, 14492.15
109.8901, 14540.73
110.3722, 14588.25
110.8544, 14633.73
111.3365, 14679.39
111.8186, 14728.23
112.3007, 14778.40
112.7828, 14826.21
113.2649, 14867.27
113.7471, 14902.44
114.2292, 14941.37
114.7113, 14987.06
115.1934, 15034.50
115.6755, 15081.94
116.1576, 15129.36
116.6397, 15177.69
117.1219, 15228.60
117.6040, 15283.94
118.0861, 15336.08
118.5682, 15378.96
119.0503, 15423.37
119.5324, 15477.05
120.0146, 15540.89
120.4967, 15609.38
120.9788, 15672.92
121.4609, 15727.36
121.9430, 15782.01
122.4251, 15835.51
122.9073, 15889.67
123.3894, 15945.76
123.8715, 16004.42
124.3536, 16065.64
124.8357, 16129.67
125.3178, 16197.24
125.8000, 16265.34
126.2821, 16331.95
126.7642, 16397.83
127.2463, 16464.48
127.7284, 16533.26
128.2105, 16603.29
128.6927, 16672.85
129.1748, 16741.12
129.6569, 16810.58
130.1390, 16884.69
130.6211, 16964.39
131.1032, 17043.24
131.5854, 17118.61
132.0675, 17192.12
132.5496, 17263.63
133.0317, 17331.53
133.5138, 17399.77
133.9959, 17479.78
134.4781, 17581.79
134.9602, 17680.26
135.4423, 17766.75
135.9244, 17846.30
136.4065, 17925.24
136.8886, 18007.97
137.3708, 18094.36
137.8529, 18175.68
138.3350, 18249.07
138.8171, 18320.22
139.2992, 18390.46
139.7813, 18459.65
140.2635, 18527.73
140.7456, 18594.81
141.2277, 18661.81
141.7098, 18718.99
142.1919, 18757.80
142.6740, 18795.95
143.1561, 18846.44
143.6383, 18908.63
144.1204, 18968.73
144.6025, 19011.98
145.0846, 19035.15
145.5667, 19058.00
146.0488, 19081.44
146.5310, 19104.77
147.0131, 19128.56
147.4952, 19153.71
147.9773, 19175.39
148.4594, 19184.55
148.9415, 19183.53
149.4237, 19184.81
149.9058, 19194.84
150.3879, 19210.76
150.8700, 19224.90
151.3521, 19237.41
151.8342, 19245.55
152.3164, 19245.38
152.7985, 19238.08
153.2806, 19232.90
153.7627, 19239.18
154.2448, 19257.21
154.7269, 19270.14
155.2091, 19269.73
155.6912, 19267.82
156.1733, 19268.83
156.6554, 19273.68
157.1375, 19282.56
157.6196, 19296.70
158.1018, 19318.40
158.5839, 19338.49
159.0660, 19357.62
159.5481, 19374.44
160.0302, 19385.97
160.5123, 19392.22
160.9945, 19397.71
161.4766, 19410.49
161.9587, 19436.49
162.4408, 19461.81
162.9229, 19485.09
163.4050, 19508.26
163.8871, 19533.34
164.3693, 19561.14
164.8514, 19590.32
165.3335, 19617.59
165.8156, 19640.41
166.2977, 19664.89
166.7798, 19695.14
167.2620, 19727.02
167.7441, 19752.79
168.2262, 19767.81
168.7083, 19777.69
169.1904, 19798.36
169.6725, 19832.51
170.1547, 19869.36
170.6368, 19905.81
171.1189, 19941.78
171.6010, 19976.67
172.0831, 20009.35
172.5652, 20041.43
173.0474, 20076.74
173.5295, 20116.47
174.0116, 20156.95
174.4937, 20193.23
174.9758, 20225.42
175.4579, 20262.99
175.9401, 20314.69
176.4222, 20372.13
176.9043, 20425.81
177.3864, 20473.60
177.8685, 20519.12
178.3506, 20566.87
178.8328, 20617.00
179.3149, 20669.47
179.7970, 20725.29
180.2791, 20782.97
180.7612, 20840.86
181.2433, 20898.54
181.7255, 20956.61
182.2076, 21017.39
182.6897, 21084.71
183.1718, 21147.02
183.6539, 21197.39
184.1360, 21244.16
184.6181, 21296.09
185.1003, 21357.67
185.5824, 21425.79
186.0645, 21488.59
186.5466, 21537.00
187.0287, 21591.54
187.5108, 21658.65
187.9930, 21731.93
188.4751, 21801.79
188.9572, 21862.04
189.4393, 21916.41
189.9214, 21985.47
190.4035, 22083.64
190.8857, 22180.43
191.3678, 22268.53
191.8499, 22351.29
192.3320, 22435.08
192.8141, 22523.53
193.2962, 22616.38
193.7784, 22713.43
194.2605, 22806.06
194.7426, 22910.14
195.2247, 23030.97
195.7068, 23167.73
196.1889, 23316.60
196.6711, 23472.36
197.1532, 23641.25
197.6353, 23844.26
198.1174, 24094.45
198.5995, 24363.04
199.0816, 24646.04
199.5638, 24940.65
200.0459, 25230.71
200.5280, 25535.75
201.0101, 25815.10
201.4922, 25976.62
201.9743, 25986.69
202.4565, 25909.69
202.9386, 25768.15
203.4207, 25559.36
203.9028, 25374.04
204.3849, 25254.62
204.8670, 25195.55
205.3492, 25194.54
205.8313, 25264.99
206.3134, 25376.10
206.7955, 25492.58
207.2776, 25613.50
207.7597, 25744.40
208.2419, 25893.34
208.7240, 26051.79
209.2061, 26214.99
209.6882, 26385.96
210.1703, 26551.79
210.6524, 26693.29
211.1346, 26812.67
211.6167, 26896.46
212.0988, 26934.99
212.5809, 26942.56
213.0630, 26926.37
213.5451, 26886.56
214.0273, 26835.44
214.5094, 26798.13
214.9915, 26766.58
215.4736, 26767.88
215.9557, 26804.91
216.4378, 26871.07
216.9200, 26960.71
217.4021, 27070.97
217.8842, 27202.74
218.3663, 27357.14
218.8484, 27538.73
219.3305, 27740.54
219.8127, 27974.21
220.2948, 28221.19
220.7769, 28472.58
221.2590, 28724.38
221.7411, 28961.12
222.2232, 29137.75
222.7054, 29267.78
223.1875, 29306.31
223.6696, 29241.82
224.1517, 29089.28
224.6338, 28853.35
225.1159, 28535.02
225.5980, 28158.43
226.0802, 27792.29
226.5623, 27409.08
227.0444, 27072.31
227.5265, 26794.44
228.0086, 26563.68
228.4907, 26373.53
228.9729, 26222.01
229.4550, 26100.77
229.9371, 25992.00
230.4192, 25891.41
230.9013, 25808.25
231.3834, 25750.08
231.8656, 25709.27
232.3477, 25675.24
232.8298, 25644.15
233.3119, 25620.04
233.7940, 25598.09
234.2761, 25587.28
234.7583, 25580.05
235.2404, 25578.05
235.7225, 25578.40
236.2046, 25575.22
236.6867, 25565.41
237.1688, 25554.00
237.6510, 25550.78
238.1331, 25556.64
238.6152, 25561.71
239.0973, 25563.07
239.5794, 25561.25
240.0615, 25555.30
240.5437, 25541.67
241.0258, 25530.95
241.5079, 25540.68
241.9900, 25570.53
242.4721, 25597.61
242.9542, 25609.29
243.4364, 25611.04
243.9185, 25616.51
244.4006, 25628.46
244.8827, 25644.89
245.3648, 25665.66
245.8469, 25690.05
246.3290, 25711.71
246.8112, 25726.35
247.2933, 25735.71
247.7754, 25745.27
248.2575, 25755.33
248.7396, 25766.14
249.2217, 25776.18
249.7039, 25786.39
250.1860, 25800.61
250.6681, 25825.00
251.1502, 25855.66
251.6323, 25877.90
252.1144, 25886.98
252.5966, 25893.73
253.0787, 25903.18
253.5608, 25915.28
254.0429, 25930.31
254.5250, 25949.44
255.0071, 25971.66
255.4893, 25992.77
255.9714, 26010.56
256.4535, 26031.15
256.9356, 26061.32
257.4177, 26095.12
257.8998, 26122.25
258.3820, 26134.06
258.8641, 26136.37
259.3462, 26150.93
259.8283, 26186.84
260.3104, 26220.23
260.7925, 26243.16
261.2747, 26259.53
261.7568, 26273.87
262.2389, 26287.93
262.7210, 26302.32
263.2031, 26319.19
263.6852, 26339.74
264.1674, 26360.85
264.6495, 26381.36
265.1316, 26402.08
265.6137, 26423.96
266.0958, 26447.44
266.5779, 26471.88
267.0601, 26495.31
267.5422, 26516.09
268.0243, 26539.13
268.5064, 26570.63
268.9885, 26601.64
269.4706, 26621.85
269.9528, 26628.03
270.4349, 26628.73
270.9170, 26640.65
271.3991, 26669.84
271.8812, 26698.83
272.3633, 26729.07
272.8455, 26756.96
273.3276, 26778.28
273.8097, 26792.63
274.2918, 26804.39
274.7739, 26820.16
275.2560, 26841.52
275.7382, 26863.70
276.2202, 26889.51
276.7024, 26913.82
277.1845, 26931.36
277.6666, 26942.61
278.1487, 26954.06
278.6308, 26974.63
279.1129, 27009.35
279.5951, 27034.99
280.0772, 27041.43
280.5593, 27049.00
281.0414, 27072.61
281.5235, 27109.40
282.0056, 27143.95
282.4878, 27160.99
282.9699, 27158.21
283.4520, 27154.93
283.9341, 27146.16
284.4162, 27141.91
284.8983, 27150.55
285.3805, 27167.98
285.8626, 27182.52
286.3447, 27184.29
286.8268, 27173.75
287.3089, 27173.59
287.7910, 27192.03
288.2732, 27211.21
288.7553, 27228.59
289.2374, 27242.85
289.7195, 27251.57
290.2016, 27252.81
290.6837, 27248.23
291.1659, 27247.33
291.6480, 27251.02
292.1301, 27256.96
292.6122, 27263.68
293.0943, 27272.57
293.5764, 27287.49
294.0586, 27310.54
294.5407, 27336.63
295.0228, 27352.01
295.5049, 27341.45
295.9870, 27338.56
296.4691, 27350.34
296.9513, 27367.97
297.4334, 27382.51
297.9155, 27391.02
298.3976, 27395.79
298.8797, 27400.13
299.3618, 27400.15
299.8440, 27408.27
300.3261, 27431.67
300.8082, 27458.38
301.2903, 27478.18
301.7724, 27489.36
302.2545, 27498.12
302.7367, 27511.56
303.2188, 27530.36
303.7009, 27551.88
304.1830, 27578.20
304.6651, 27605.12
305.1472, 27629.75
305.6294, 27652.16
306.1115, 27674.48
306.5936, 27698.53
307.0757, 27724.51
307.5578, 27749.39
308.0399, 27769.51
308.5221, 27792.28
309.0042, 27823.99
309.4863, 27861.42
309.9684, 27895.09
310.4505, 27918.26
310.9326, 27933.10
311.4148, 27954.15
311.8969, 27985.57
312.3790, 28017.60
312.8611, 28046.86
313.3432, 28075.50
313.8253, 28106.71
314.3075, 28141.69
314.7896, 28181.17
315.2717, 28227.81
315.7538, 28294.44
316.2359, 28350.07
316.7180, 28379.02
317.2001, 28401.71
317.6823, 28442.07
318.1644, 28506.92
318.6465, 28582.90
319.1286, 28650.09
319.6107, 28701.23
320.0928, 28759.84
320.5750, 28827.70
321.0571, 28901.42
321.5392, 28980.59
322.0213, 29063.75
322.5034, 29146.97
322.9855, 29224.84
323.4677, 29296.17
323.9498, 29374.75
324.4319, 29461.96
324.9140, 29553.68
325.3961, 29647.99
325.8782, 29745.05
326.3604, 29847.47
326.8425, 29957.79
327.3246, 30075.13
327.8067, 30191.21
328.2888, 30307.07
328.7709, 30421.43
329.2531, 30529.17
329.7352, 30636.02
330.2173, 30750.13
330.6994, 30875.27
331.1815, 31011.17
331.6636, 31158.36
332.1458, 31322.74
332.6279, 31492.33
333.1100, 31668.57
333.5921, 31848.09
334.0742, 32027.71
334.5563, 32205.49
335.0385, 32385.41
335.5206, 32571.24
336.0027, 32763.14
336.4848, 32963.42
336.9669, 33179.45
337.4490, 33398.65
337.9312, 33609.83
338.4133, 33815.32
338.8954, 34026.74
339.3775, 34255.90
339.8596, 34505.16
340.3417, 34748.32
340.8239, 34966.56
341.3060, 35197.93
341.7881, 35456.08
342.2702, 35738.11
342.7523, 36034.52
343.2344, 36338.37
343.7166, 36650.88
344.1987, 36975.50
344.6808, 37310.85
345.1629, 37662.88
345.6450, 38023.11
346.1271, 38401.92
346.6093, 38813.77
347.0914, 39260.67
347.5735, 39734.76
348.0556, 40211.73
348.5377, 40683.89
349.0198, 41179.80
349.5020, 41727.91
349.9841, 42276.02
350.4662, 42798.62
350.9483, 43283.86
351.4304, 43722.08
351.9125, 44107.14
352.3947, 44448.61
352.8768, 44666.87
353.3589, 44741.22
353.8410, 44714.88
354.3231, 44579.80
354.8052, 44354.19
355.2874, 44063.77
355.7695, 43721.75
356.2516, 43334.77
356.7337, 42930.16
357.2158, 42471.63
357.6979, 42046.48
358.1800, 41667.55
358.6621, 41327.98
359.1443, 41022.07
359.6264, 40745.95
360.1085, 40502.05
360.5906, 40295.11
361.0727, 40134.59
361.5548, 39988.09
362.0370, 39846.98
362.5191, 39722.05
363.0012, 39622.93
363.4833, 39548.43
363.9654, 39489.74
364.4475, 39433.19
364.9297, 39376.83
365.4118, 39355.67
365.8939, 39395.22
366.3760, 39444.27
366.8581, 39474.98
367.3402, 39499.30
367.8224, 39544.96
368.3045, 39633.32
368.7866, 39749.15
369.2687, 39846.34
369.7508, 39914.23
370.2329, 39986.66
370.7151, 40076.29
371.1972, 40175.40
371.6793, 40277.81
372.1614, 40380.75
372.6435, 40489.25
373.1256, 40610.87
373.6078, 40746.41
374.0899, 40881.26
374.5720, 41007.78
375.0541, 41137.50
375.5362, 41285.97
376.0183, 41450.56
376.5005, 41602.14
376.9826, 41710.85
377.4647, 41789.85
377.9468, 41891.40
378.4289, 42027.18
378.9110, 42165.75
379.3932, 42291.13
379.8753, 42403.82
380.3574, 42502.57
380.8395, 42584.89
381.3216, 42654.91
381.8037, 42715.33
382.2859, 42766.18
382.7680, 42813.18
383.2501, 42859.61
383.7322, 42902.80
384.2143, 42942.47
384.6964, 42981.83
385.1786, 43006.30
385.6607, 42998.55
386.1428, 42969.41
386.6249, 42950.57
387.1070, 42954.38
387.5891, 42956.55
388.0713, 42927.40
388.5534, 42870.09
389.0355, 42800.17
389.5176, 42714.98
389.9997, 42622.24
390.4818, 42530.88
390.9640, 42440.54
391.4461, 42343.55
391.9282, 42232.64
392.4103, 42110.39
392.8924, 41992.39
393.3745, 41886.23
393.8567, 41775.10
394.3388, 41650.60
394.8209, 41516.48
395.3030, 41381.49
395.7851, 41247.33
396.2672, 41113.34
396.7494, 40976.55
397.2315, 40835.99
397.7136, 40695.02
398.1957, 40551.42
398.6778, 40407.47
399.1599, 40263.93
399.6420, 40121.21
400.1241, 39980.54
400.6063, 39843.55
401.0884, 39709.93
401.5705, 39576.07
402.0526, 39433.76
402.5347, 39300.59
403.0168, 39185.45
403.4990, 39082.57
403.9811, 38984.05
404.4632, 38886.68
404.9453, 38790.30
405.4274, 38693.86
405.9095, 38593.14
406.3917, 38501.98
406.8738, 38419.87
407.3559, 38347.41
407.8380, 38285.50
408.3201, 38233.66
408.8022, 38189.32
409.2844, 38149.48
409.7665, 38114.13
410.2486, 38083.68
410.7307, 38055.84
411.2128, 38035.67
411.6949, 38024.58
412.1771, 38021.75
412.6592, 38025.89
413.1413, 38036.41
413.6234, 38053.06
414.1055, 38076.89
414.5876, 38111.17
415.0698, 38142.97
415.5519, 38165.14
416.0340, 38186.65
416.5161, 38211.65
416.9982, 38241.47
417.4803, 38279.02
417.9625, 38324.45
418.4446, 38378.84
418.9267, 38453.24
419.4088, 38557.50
419.8909, 38665.11
420.3730, 38756.50
420.8552, 38838.29
421.3373, 38922.67
421.8194, 39013.71
422.3015, 39108.90
422.7836, 39205.20
423.2657, 39302.41
423.7479, 39401.10
424.2300, 39496.32
424.7121, 39598.27
425.1942, 39721.72
425.6763, 39867.79
426.1584, 40026.20
426.6406, 40195.53
427.1227, 40374.00
427.6048, 40552.79
428.0869, 40730.51
428.5690, 40925.55
429.0511, 41156.02
429.5333, 41424.62
430.0154, 41698.63
430.4975, 41971.96
430.9796, 42256.85
431.4617, 42559.44
431.9438, 42877.59
432.4260, 43210.30
432.9081, 43556.48
433.3902, 43910.72
433.8723, 44259.96
434.3544, 44610.18
434.8365, 44942.19
435.3187, 45275.56
435.8008, 45576.94
436.2829, 45825.88
436.7650, 46015.14
437.2471, 46136.30
437.7292, 46180.52
438.2114, 46147.45
438.6935, 46055.19
439.1756, 45880.26
439.6577, 45670.63
440.1398, 45411.69
440.6219, 45132.82
441.1040, 44871.71
441.5862, 44645.30
442.0683, 44442.43
442.5504, 44243.89
443.0325, 44043.75
443.5146, 43865.67
443.9967, 43702.82
444.4789, 43571.09
444.9610, 43486.23
445.4431, 43443.71
445.9252, 43424.15
446.4073, 43415.58
446.8894, 43419.19
447.3716, 43439.56
447.8537, 43476.43
448.3358, 43530.38
448.8179, 43612.37
449.3000, 43706.79
449.7821, 43797.61
450.2643, 43880.54
450.7464, 43963.70
451.2285, 44057.99
451.7106, 44159.89
452.1927, 44250.84
452.6748, 44328.78
453.1570, 44390.49
453.6391, 44432.88
454.1212, 44457.27
454.6033, 44458.83
455.0854, 44440.62
455.5675, 44396.08
456.0497, 44322.32
456.5318, 44218.31
457.0139, 44076.60
457.4960, 43891.82
457.9781, 43668.58
458.4602, 43415.64
458.9424, 43140.04
459.4245, 42828.76
459.9066, 42482.06
460.3887, 42098.13
460.8708, 41666.27
461.3529, 41189.20
461.8351, 40692.84
462.3172, 40196.56
462.7993, 39703.26
463.2814, 39207.79
463.7635, 38711.75
464.2456, 38211.98
464.7278, 37693.73
465.2099, 37171.26
465.6920, 36663.79
466.1741, 36176.31
466.6562, 35708.16
467.1383, 35259.77
467.6205, 34831.27
468.1026, 34410.32
468.5847, 33998.74
469.0668, 33592.42
469.5489, 33187.62
470.0310, 32787.11
470.5132, 32402.41
470.9953, 32040.76
471.4774, 31698.83
471.9595, 31368.24
472.4416, 31049.42
472.9237, 30742.46
473.4059, 30454.55
473.8880, 30176.41
474.3701, 29899.06
474.8522, 29622.95
475.3343, 29353.36
475.8164, 29092.46
476.2986, 28842.54
476.7807, 28606.86
477.2628, 28387.50
477.7449, 28178.19
478.2270, 27974.26
478.7091, 27776.96
479.1913, 27591.65
479.6734, 27426.97
480.1555, 27265.24
480.6376, 27093.54
481.1197, 26918.67
481.6018, 26754.60
482.0839, 26606.00
482.5660, 26467.86
483.0482, 26333.38
483.5303, 26205.04
484.0124, 26072.34
484.4945, 25926.62
484.9766, 25785.20
485.4587, 25657.80
485.9409, 25541.70
486.4230, 25429.62
486.9051, 25317.17
487.3872, 25204.50
487.8693, 25092.82
488.3514, 24978.59
488.8336, 24870.78
489.3157, 24773.64
489.7978, 24679.48
490.2799, 24583.49
490.7620, 24485.71
491.2441, 24389.90
491.7263, 24300.41
492.2084, 24215.72
492.6905, 24126.96
493.1726, 24030.68
493.6547, 23939.47
494.1368, 23863.59
494.6190, 23793.75
495.1011, 23721.29
495.5832, 23644.84
496.0653, 23565.69
496.5474, 23482.04
497.0295, 23396.79
497.5117, 23321.57
497.9938, 23260.38
498.4759, 23198.50
498.9580, 23119.41
499.4401, 23027.38
499.9222, 22946.76
500.4044, 22887.96
500.8865, 22831.28
501.3686, 22764.61
501.8507, 22692.57
502.3328, 22623.96
502.8149, 22562.04
503.2971, 22503.66
503.7792, 22445.48
504.2613, 22389.25
504.7434, 22324.30
505.2255, 22239.21
505.7076, 22157.87
506.1898, 22094.67
506.6719, 22043.66
507.1540, 21993.11
507.6361, 21937.04
508.1182, 21875.49
508.6003, 21807.30
509.0825, 21727.00
509.5646, 21654.62
510.0467, 21598.84
510.5288, 21545.80
511.0109, 21489.93
511.4930, 21430.13
511.9752, 21365.21
512.4573, 21290.65
512.9394, 21212.74
513.4215, 21148.51
513.9036, 21100.63
514.3857, 21047.46
514.8679, 20976.97
515.3500, 20899.08
515.8321, 20826.56
516.3142, 20759.90
516.7963, 20696.34
517.2784, 20637.08
517.7606, 20578.82
518.2427, 20514.90
518.7248, 20445.26
519.2069, 20379.13
519.6890, 20323.79
520.1711, 20276.33
520.6533, 20223.97
521.1354, 20163.16
521.6175, 20102.64
522.0996, 20046.27
522.5817, 19989.65
523.0638, 19927.33
523.5460, 19859.52
524.0281, 19791.38
524.5102, 19727.73
524.9923, 19668.81
525.4744, 19615.76
525.9565, 19581.03
526.4387, 19536.10
526.9208, 19466.16
527.4029, 19388.29
527.8850, 19321.24
528.3671, 19269.49
528.8492, 19222.70
529.3314, 19170.34
529.8135, 19113.22
530.2956, 19057.93
530.7777, 19005.81
531.2598, 18954.00
531.7419, 18899.70
532.2241, 18844.94
532.7062, 18792.75
533.1883, 18745.72
533.6704, 18697.51
534.1525, 18644.69
534.6346, 18587.24
535.1168, 18521.39
535.5989, 18445.23
536.0810, 18372.31
536.5631, 18318.64
537.0452, 18285.18
537.5273, 18242.14
538.0095, 18180.72
538.4916, 18120.25
538.9737, 18068.30
539.4558, 18021.39
539.9379, 17974.33
540.4200, 17925.41
540.9022, 17875.21
541.3843, 17825.50
541.8664, 17777.33
542.3485, 17723.66
542.8306, 17655.18
543.3127, 17591.85
543.7948, 17543.74
544.2769, 17503.91
544.7590, 17462.40
545.2411, 17415.62
545.7233, 17365.41
546.2054, 17314.13
546.6875, 17261.58
547.1696, 17208.39
547.6517, 17154.57
548.1339, 17100.20
548.6160, 17043.87
549.0981, 16986.89
549.5802, 16932.58
550.0623, 16883.90
550.5444, 16835.85
551.0266, 16783.34
551.5087, 16729.01
551.9908, 16679.62
552.4729, 16637.38
552.9550, 16597.06
553.4371, 16552.46
553.9193, 16503.00
554.4014, 16451.65
554.8835, 16395.07
555.3656, 16340.77
555.8477, 16292.89
556.3298, 16248.30
556.8120, 16202.60
557.2941, 16153.98
557.7762, 16105.43
558.2583, 16061.25
558.7404, 16022.31
559.2225, 15982.27
559.7047, 15941.37
560.1868, 15899.02
560.6689, 15854.45
561.1510, 15808.43
561.6331, 15761.52
562.1152, 15713.41
562.5974, 15666.12
563.0795, 15620.91
563.5616, 15577.94
564.0437, 15538.75
564.5258, 15504.10
565.0079, 15469.99
565.4901, 15431.54
565.9722, 15389.45
566.4543, 15353.72
566.9364, 15333.57
567.4185, 15309.39
567.9006, 15269.85
568.3828, 15223.35
568.8649, 15181.63
569.3470, 15147.93
569.8291, 15116.83
570.3112, 15082.41
570.7933, 15044.21
571.2755, 15009.00
571.7576, 14977.48
572.2397, 14948.14
572.7218, 14919.63
573.2039, 14893.28
573.6860, 14871.21
574.1682, 14853.71
574.6503, 14837.55
575.1324, 14820.48
575.6145, 14802.21
576.0966, 14781.55
576.5787, 14758.28
577.0609, 14733.01
577.5430, 14704.96
578.0251, 14675.68
578.5072, 14648.48
578.9893, 14622.01
579.4714, 14600.86
579.9536, 14591.60
580.4357, 14586.18
580.9178, 14574.91
581.3999, 14556.74
581.8820, 14534.50
582.3641, 14509.56
582.8463, 14483.17
583.3284, 14462.34
583.8105, 14449.63
584.2926, 14439.29
584.7747, 14435.70
585.2568, 14430.61
585.7390, 14414.86
586.2211, 14390.45
586.7032, 14368.76
587.1853, 14358.25
587.6674, 14356.03
588.1495, 14355.85
588.6317, 14358.68
589.1138, 14357.23
589.5959, 14345.44
