##NAMES=Zircon
##RRUFFID=R050034
##IDEAL CHEMISTRY=Zr^4+^SiO_4_
##LOCALITY=Oaxaca, Mexico
##OWNER=RRUFF
##SOURCE=University of Arizona Mineral Museum
##DESCRIPTION=Reddish brown single crystal fragments
##STATUS=The identification of this mineral has been confirmed by X-ray diffraction and chemical analysis
##URL=rruff.info/R050034
##MEASURED CHEMISTRY=Zr_1.00_Si_1.00_O_4_
155.9293, 5552.455
156.4115, 5568.017
156.8936, 5570.603
157.3757, 5567.056
157.8578, 5580.908
158.3399, 5645.218
158.8221, 5713.946
159.3042, 5757.619
159.7863, 5743.371
160.2684, 5728.284
160.7505, 5733.128
161.2326, 5755.435
161.7148, 5775.861
162.1969, 5784.504
162.6790, 5788.069
163.1611, 5792.947
163.6432, 5801.108
164.1253, 5811.274
164.6075, 5822.411
165.0896, 5834.468
165.5717, 5849.207
166.0538, 5868.521
166.5359, 5891.009
167.0180, 5914.669
167.5002, 5936.367
167.9823, 5960.536
168.4644, 5993.546
168.9465, 6037.693
169.4286, 6077.932
169.9107, 6101.433
170.3929, 6112.705
170.8750, 6121.843
171.3571, 6130.107
171.8392, 6140.390
172.3213, 6158.250
172.8034, 6187.275
173.2856, 6213.711
173.7677, 6216.569
174.2498, 6203.518
174.7319, 6200.730
175.2140, 6241.143
175.6961, 6297.906
176.1783, 6327.185
176.6604, 6312.837
177.1425, 6282.967
177.6246, 6263.982
178.1067, 6256.716
178.5888, 6265.542
179.0710, 6308.382
179.5531, 6369.563
180.0352, 6412.318
180.5173, 6420.653
180.9994, 6413.457
181.4815, 6421.672
181.9637, 6444.938
182.4458, 6469.608
182.9279, 6480.737
183.4100, 6482.727
183.8921, 6492.512
184.3742, 6516.856
184.8564, 6551.278
185.3385, 6587.188
185.8206, 6625.328
186.3027, 6659.701
186.7848, 6678.425
187.2669, 6684.541
187.7491, 6701.963
188.2312, 6745.010
188.7133, 6805.900
189.1954, 6856.282
189.6775, 6894.503
190.1596, 6928.132
190.6418, 6969.542
191.1239, 7018.164
191.6060, 7058.912
192.0881, 7073.851
192.5702, 7068.935
193.0524, 7100.022
193.5345, 7172.423
194.0166, 7266.561
194.4987, 7355.536
194.9808, 7439.430
195.4629, 7517.216
195.9451, 7579.747
196.4272, 7628.466
196.9093, 7700.523
197.3914, 7800.653
197.8735, 7918.526
198.3556, 8039.695
198.8378, 8165.688
199.3199, 8282.805
199.8020, 8380.906
200.2841, 8458.061
200.7662, 8533.405
201.2483, 8610.401
201.7305, 8683.980
202.2126, 8739.954
202.6947, 8775.434
203.1768, 8804.099
203.6589, 8831.385
204.1410, 8855.611
204.6232, 8887.938
205.1053, 8927.782
205.5874, 8977.018
206.0695, 9042.847
206.5516, 9127.361
207.0337, 9222.980
207.5159, 9329.664
207.9980, 9450.076
208.4801, 9559.535
208.9622, 9654.615
209.4443, 9736.366
209.9264, 9815.953
210.4086, 9907.096
210.8907, 9968.565
211.3728, 9964.036
211.8549, 9880.212
212.3370, 9774.470
212.8191, 9649.453
213.3013, 9508.094
213.7834, 9362.788
214.2655, 9207.068
214.7476, 9057.244
215.2297, 8927.483
215.7118, 8815.593
216.1940, 8727.182
216.6761, 8667.265
217.1582, 8634.455
217.6403, 8604.479
218.1224, 8575.068
218.6045, 8551.945
219.0867, 8540.616
219.5688, 8541.906
220.0509, 8554.416
220.5330, 8584.321
221.0151, 8632.896
221.4972, 8656.239
221.9794, 8649.106
222.4615, 8622.899
222.9436, 8589.794
223.4257, 8552.375
223.9078, 8502.007
224.3899, 8438.201
224.8721, 8360.328
225.3542, 8264.328
225.8363, 8137.612
226.3184, 8003.937
226.8005, 7888.957
227.2827, 7797.318
227.7648, 7717.287
228.2469, 7647.094
228.7290, 7587.607
229.2111, 7533.064
229.6932, 7484.548
230.1754, 7440.739
230.6575, 7398.936
231.1396, 7357.167
231.6217, 7321.467
232.1038, 7293.750
232.5859, 7274.671
233.0681, 7260.565
233.5502, 7253.933
234.0323, 7250.512
234.5144, 7244.507
234.9965, 7237.072
235.4786, 7224.847
235.9608, 7203.448
236.4429, 7167.655
236.9250, 7148.895
237.4071, 7154.521
237.8892, 7172.805
238.3713, 7185.301
238.8535, 7189.000
239.3356, 7191.951
239.8177, 7197.018
240.2998, 7205.439
240.7819, 7211.615
241.2640, 7217.574
241.7462, 7220.212
242.2283, 7212.533
242.7104, 7184.861
243.1925, 7162.843
243.6746, 7156.231
244.1567, 7170.334
244.6389, 7181.790
245.1210, 7189.360
245.6031, 7195.004
246.0852, 7202.669
246.5673, 7215.456
247.0494, 7224.901
247.5316, 7226.525
248.0137, 7215.873
248.4958, 7212.787
248.9779, 7219.843
249.4600, 7233.063
249.9421, 7245.728
250.4243, 7260.206
250.9064, 7270.006
251.3885, 7270.952
251.8706, 7257.954
252.3527, 7253.069
252.8348, 7257.024
253.3170, 7268.566
253.7991, 7287.803
254.2812, 7322.613
254.7633, 7349.559
255.2454, 7356.863
255.7275, 7336.215
256.2097, 7327.188
256.6918, 7334.354
257.1739, 7350.091
257.6560, 7359.380
258.1381, 7357.164
258.6202, 7359.095
259.1024, 7374.104
259.5845, 7408.488
260.0666, 7427.684
260.5487, 7424.238
261.0308, 7411.222
261.5129, 7413.841
261.9951, 7438.117
262.4772, 7463.558
262.9593, 7480.470
263.4414, 7485.396
263.9235, 7501.746
264.4056, 7539.397
264.8878, 7579.399
265.3699, 7584.460
265.8520, 7541.321
266.3341, 7501.235
266.8162, 7486.229
267.2983, 7501.518
267.7805, 7508.427
268.2626, 7503.501
268.7447, 7493.956
269.2268, 7493.138
269.7089, 7503.640
270.1910, 7513.589
270.6732, 7519.125
271.1553, 7520.200
271.6374, 7514.570
272.1195, 7497.650
272.6016, 7480.748
273.0837, 7487.273
273.5659, 7523.197
274.0480, 7551.986
274.5301, 7554.891
275.0122, 7530.527
275.4943, 7522.212
275.9764, 7535.050
276.4586, 7554.337
276.9407, 7554.625
277.4228, 7532.970
277.9049, 7517.862
278.3870, 7523.305
278.8691, 7548.229
279.3513, 7568.705
279.8334, 7584.933
280.3155, 7596.191
280.7976, 7598.811
281.2798, 7592.273
281.7619, 7589.024
282.2440, 7598.929
282.7261, 7618.448
283.2082, 7617.283
283.6903, 7591.647
284.1725, 7559.262
284.6546, 7539.109
285.1367, 7531.282
285.6188, 7534.279
286.1009, 7552.920
286.5830, 7582.500
287.0652, 7601.929
287.5473, 7609.970
288.0294, 7614.197
288.5115, 7621.644
288.9936, 7632.264
289.4757, 7645.475
289.9579, 7663.925
290.4400, 7684.184
290.9221, 7697.455
291.4042, 7703.609
291.8863, 7704.339
292.3684, 7696.479
292.8506, 7683.037
293.3327, 7677.308
293.8148, 7687.867
294.2969, 7706.136
294.7790, 7714.654
295.2611, 7713.421
295.7433, 7710.891
296.2254, 7713.966
296.7075, 7721.593
297.1896, 7730.775
297.6717, 7741.845
298.1538, 7753.187
298.6360, 7763.010
299.1181, 7771.285
299.6002, 7776.600
300.0823, 7772.692
300.5644, 7765.692
301.0465, 7767.741
301.5287, 7785.449
302.0108, 7809.142
302.4929, 7831.963
302.9750, 7852.970
303.4571, 7865.479
303.9392, 7856.876
304.4214, 7839.642
304.9035, 7831.476
305.3856, 7841.696
305.8677, 7854.077
306.3498, 7847.162
306.8319, 7828.195
307.3141, 7822.803
307.7962, 7860.512
308.2783, 7912.452
308.7604, 7951.596
309.2425, 7971.422
309.7246, 7978.331
310.2068, 7965.779
310.6889, 7942.149
311.1710, 7929.020
311.6531, 7943.056
312.1352, 7967.742
312.6173, 7991.886
313.0995, 8014.036
313.5816, 8033.776
314.0637, 8054.310
314.5458, 8072.173
315.0279, 8081.101
315.5100, 8065.088
315.9922, 8049.754
316.4743, 8049.766
316.9564, 8069.722
317.4385, 8092.961
317.9206, 8117.672
318.4027, 8141.547
318.8849, 8161.359
319.3670, 8176.990
319.8491, 8187.754
320.3312, 8190.328
320.8133, 8181.919
321.2954, 8181.337
321.7776, 8197.495
322.2597, 8221.197
322.7418, 8242.640
323.2239, 8256.393
323.7060, 8271.777
324.1881, 8292.812
324.6703, 8320.432
325.1524, 8342.955
325.6345, 8359.073
326.1166, 8369.797
326.5987, 8375.982
327.0808, 8369.518
327.5630, 8368.005
328.0451, 8371.719
328.5272, 8380.909
329.0093, 8401.658
329.4914, 8440.322
329.9735, 8484.217
330.4557, 8525.509
330.9378, 8565.820
331.4199, 8600.688
331.9020, 8628.990
332.3841, 8651.604
332.8662, 8671.142
333.3484, 8680.154
333.8305, 8697.111
334.3126, 8734.386
334.7947, 8798.892
335.2768, 8861.462
335.7589, 8921.117
336.2411, 8977.671
336.7232, 9031.961
337.2053, 9083.068
337.6874, 9133.458
338.1695, 9180.450
338.6516, 9220.838
339.1338, 9285.229
339.6159, 9379.733
340.0980, 9488.640
340.5801, 9580.266
341.0622, 9653.019
341.5443, 9733.831
342.0265, 9837.461
342.5086, 9961.036
342.9907, 10088.33
343.4728, 10219.06
343.9549, 10350.37
344.4370, 10476.77
344.9192, 10598.05
345.4013, 10718.44
345.8834, 10833.81
346.3655, 10949.29
346.8476, 11073.19
347.3297, 11204.93
347.8119, 11346.03
348.2940, 11498.74
348.7761, 11661.57
349.2582, 11826.77
349.7403, 11998.32
350.2225, 12169.25
350.7046, 12333.03
351.1867, 12490.38
351.6688, 12635.43
352.1509, 12789.25
352.6331, 12922.11
353.1152, 12986.58
353.5973, 12961.48
354.0794, 12885.72
354.5615, 12789.74
355.0436, 12670.74
355.5258, 12520.27
356.0079, 12322.62
356.4900, 12097.59
356.9721, 11855.60
357.4542, 11589.25
357.9363, 11336.55
358.4185, 11120.84
358.9006, 10932.99
359.3827, 10757.17
359.8648, 10589.84
360.3469, 10430.90
360.8290, 10278.26
361.3112, 10129.86
361.7933, 9998.240
362.2754, 9886.938
362.7575, 9793.376
363.2396, 9714.439
363.7217, 9655.012
364.2039, 9605.677
364.6860, 9571.079
365.1681, 9551.109
365.6502, 9517.563
366.1323, 9450.066
366.6144, 9378.150
367.0966, 9321.979
367.5787, 9290.873
368.0608, 9265.628
368.5429, 9245.537
369.0250, 9230.493
369.5071, 9221.053
369.9893, 9224.880
370.4714, 9225.462
370.9535, 9211.235
371.4356, 9162.446
371.9177, 9147.409
372.3998, 9186.508
372.8820, 9249.944
373.3641, 9266.236
373.8462, 9216.214
374.3283, 9168.890
374.8104, 9154.573
375.2925, 9176.637
375.7747, 9190.172
376.2568, 9193.040
376.7389, 9191.860
377.2210, 9195.999
377.7031, 9205.931
378.1852, 9214.032
378.6674, 9215.376
379.1495, 9213.156
379.6316, 9222.723
380.1137, 9244.881
380.5958, 9270.823
381.0779, 9291.906
381.5601, 9309.543
382.0422, 9329.167
382.5243, 9352.840
383.0064, 9378.610
383.4885, 9404.438
383.9706, 9430.255
384.4528, 9453.738
384.9349, 9469.858
385.4170, 9483.683
385.8991, 9506.212
386.3812, 9542.741
386.8633, 9576.804
387.3455, 9587.544
387.8276, 9583.805
388.3097, 9586.025
388.7918, 9613.183
389.2739, 9644.839
389.7560, 9668.656
390.2382, 9684.524
390.7203, 9682.167
391.2024, 9640.540
391.6845, 9583.011
392.1666, 9535.958
392.6487, 9508.950
393.1309, 9493.638
393.6130, 9494.345
394.0951, 9508.777
394.5772, 9512.951
395.0593, 9491.032
395.5414, 9463.094
396.0236, 9441.888
396.5057, 9437.479
396.9878, 9429.920
397.4699, 9411.188
397.9520, 9387.229
398.4341, 9377.132
398.9163, 9397.347
399.3984, 9414.254
399.8805, 9411.874
400.3626, 9374.499
400.8447, 9365.957
401.3268, 9399.333
401.8090, 9451.902
402.2911, 9493.375
402.7732, 9521.992
403.2553, 9542.847
403.7374, 9555.654
404.2195, 9560.858
404.7017, 9563.392
405.1838, 9558.788
405.6659, 9563.854
406.1480, 9602.005
406.6301, 9674.111
407.1122, 9730.199
407.5944, 9759.049
408.0765, 9769.145
408.5586, 9774.771
409.0407, 9776.150
409.5228, 9785.572
410.0049, 9817.066
410.4871, 9862.850
410.9692, 9900.405
411.4513, 9925.989
411.9334, 9949.692
412.4155, 9982.684
412.8976, 10023.73
413.3798, 10067.73
413.8619, 10122.31
414.3440, 10173.69
414.8261, 10200.55
415.3082, 10202.89
415.7903, 10214.78
416.2725, 10269.08
416.7546, 10341.38
417.2367, 10404.75
417.7188, 10431.36
418.2009, 10467.11
418.6830, 10537.33
419.1652, 10635.26
419.6473, 10733.45
420.1294, 10815.58
420.6115, 10901.53
421.0937, 11004.61
421.5758, 11131.80
422.0579, 11260.50
422.5400, 11394.26
423.0221, 11526.70
423.5042, 11649.56
423.9864, 11728.86
424.4685, 11835.03
424.9506, 11990.45
425.4327, 12196.61
425.9148, 12407.77
426.3969, 12625.93
426.8791, 12846.67
427.3612, 13063.08
427.8433, 13271.76
428.3254, 13484.87
428.8075, 13703.56
429.2896, 13927.45
429.7718, 14146.74
430.2539, 14358.10
430.7360, 14583.58
431.2181, 14846.05
431.7002, 15141.33
432.1823, 15407.61
432.6645, 15640.01
433.1466, 15850.36
433.6287, 16061.01
434.1108, 16265.33
434.5929, 16429.49
435.0750, 16527.88
435.5572, 16580.55
436.0393, 16632.04
436.5214, 16680.29
437.0035, 16681.40
437.4856, 16598.06
437.9677, 16447.34
438.4499, 16247.85
438.9320, 15984.52
439.4141, 15707.29
439.8962, 15455.54
440.3783, 15219.13
440.8604, 14964.44
441.3426, 14654.05
441.8247, 14341.95
442.3068, 14060.40
442.7889, 13817.44
443.2710, 13583.22
443.7531, 13331.89
444.2353, 13092.87
444.7174, 12894.32
445.1995, 12785.33
445.6816, 12670.92
446.1637, 12530.13
446.6458, 12367.28
447.1280, 12213.95
447.6101, 12062.62
448.0922, 11928.69
448.5743, 11825.05
449.0564, 11764.85
449.5385, 11696.29
450.0207, 11613.23
450.5028, 11525.84
450.9849, 11455.88
451.4670, 11407.56
451.9491, 11358.39
452.4312, 11297.47
452.9134, 11227.40
453.3955, 11167.68
453.8776, 11119.54
454.3597, 11074.32
454.8418, 11021.91
455.3239, 10964.83
455.8061, 10915.73
456.2882, 10877.08
456.7703, 10847.23
457.2524, 10824.63
457.7345, 10808.93
458.2166, 10798.26
458.6988, 10797.19
459.1809, 10797.87
459.6630, 10789.77
460.1451, 10770.14
460.6272, 10753.71
461.1093, 10753.41
461.5915, 10760.65
462.0736, 10764.80
462.5557, 10756.10
463.0378, 10749.81
463.5199, 10756.94
464.0020, 10774.53
464.4842, 10780.27
464.9663, 10751.14
465.4484, 10722.53
465.9305, 10714.08
466.4126, 10744.44
466.8947, 10763.39
467.3769, 10769.85
467.8590, 10765.41
468.3411, 10751.26
468.8232, 10722.12
469.3053, 10693.41
469.7874, 10666.57
470.2696, 10642.17
470.7517, 10635.77
471.2338, 10654.62
471.7159, 10669.29
472.1980, 10645.70
472.6801, 10585.06
473.1623, 10547.32
473.6444, 10546.49
474.1265, 10560.66
474.6086, 10553.89
475.0907, 10528.22
475.5728, 10496.66
476.0550, 10463.93
476.5371, 10430.30
477.0192, 10396.30
477.5013, 10361.79
477.9834, 10327.96
478.4655, 10289.76
478.9477, 10254.58
479.4298, 10233.12
479.9119, 10237.55
480.3940, 10244.61
480.8761, 10244.79
481.3582, 10238.42
481.8404, 10226.30
482.3225, 10202.05
482.8046, 10177.59
483.2867, 10156.78
483.7688, 10138.12
484.2509, 10129.54
484.7331, 10142.23
485.2152, 10159.92
485.6973, 10167.22
486.1794, 10156.04
486.6615, 10148.89
487.1436, 10153.11
487.6258, 10163.96
488.1079, 10155.57
488.5900, 10120.04
489.0721, 10087.22
489.5542, 10077.64
490.0363, 10091.51
490.5185, 10091.88
491.0006, 10074.77
491.4827, 10054.24
491.9648, 10050.08
492.4470, 10059.59
492.9291, 10067.28
493.4112, 10060.45
493.8933, 10055.29
494.3754, 10085.27
494.8575, 10144.90
495.3397, 10197.89
495.8218, 10217.82
496.3039, 10220.49
496.7860, 10221.98
497.2681, 10224.39
497.7502, 10227.25
498.2324, 10230.68
498.7145, 10234.32
499.1966, 10237.75
499.6787, 10240.08
500.1608, 10242.93
500.6429, 10246.57
501.1251, 10251.05
501.6072, 10256.58
502.0893, 10254.03
502.5714, 10260.71
503.0535, 10289.29
503.5356, 10365.17
504.0178, 10398.59
504.4999, 10368.51
504.9820, 10314.79
505.4641, 10304.25
505.9462, 10348.77
506.4283, 10373.11
506.9105, 10346.07
507.3926, 10284.45
507.8747, 10258.05
508.3568, 10268.42
508.8389, 10284.76
509.3210, 10284.38
509.8032, 10272.33
510.2853, 10263.62
510.7674, 10261.42
511.2495, 10256.96
511.7316, 10234.64
512.2137, 10203.68
512.6959, 10183.13
513.1780, 10195.48
513.6601, 10208.55
514.1422, 10194.23
514.6243, 10157.62
515.1064, 10134.56
515.5886, 10161.92
516.0707, 10191.16
516.5528, 10189.70
517.0349, 10131.39
517.5170, 10088.54
517.9991, 10074.17
518.4813, 10076.76
518.9634, 10083.03
519.4455, 10094.72
519.9276, 10107.88
520.4097, 10126.88
520.8918, 10147.79
521.3740, 10140.13
521.8561, 10093.59
522.3382, 10052.65
522.8203, 10049.73
523.3024, 10082.63
523.7845, 10116.14
524.2667, 10150.61
524.7488, 10177.51
525.2309, 10184.13
525.7130, 10174.49
526.1951, 10162.19
526.6772, 10148.69
527.1594, 10137.86
527.6415, 10136.77
528.1236, 10143.39
528.6057, 10148.71
529.0878, 10147.83
529.5699, 10143.50
530.0521, 10135.45
530.5342, 10120.86
531.0163, 10115.08
531.4984, 10129.18
531.9805, 10151.88
532.4626, 10171.19
532.9448, 10186.70
533.4269, 10197.29
533.9090, 10202.62
534.3911, 10202.91
534.8732, 10198.14
535.3553, 10184.71
535.8375, 10172.73
536.3196, 10165.53
536.8017, 10162.85
537.2838, 10170.89
537.7659, 10192.78
538.2480, 10215.34
538.7302, 10224.91
539.2123, 10222.54
539.6944, 10213.08
540.1765, 10193.53
540.6586, 10174.84
541.1407, 10173.05
541.6229, 10185.35
542.1050, 10201.36
542.5871, 10225.73
543.0692, 10244.67
543.5513, 10238.88
544.0334, 10207.79
544.5156, 10185.16
544.9977, 10196.32
545.4798, 10216.98
545.9619, 10227.86
546.4440, 10218.96
546.9261, 10209.67
547.4083, 10194.86
547.8904, 10182.92
548.3725, 10190.93
548.8546, 10239.83
549.3367, 10273.98
549.8188, 10275.80
550.3010, 10248.44
550.7831, 10227.36
551.2652, 10212.17
551.7473, 10204.53
552.2294, 10209.27
552.7115, 10224.79
553.1937, 10235.12
553.6758, 10238.79
554.1579, 10238.23
554.6400, 10232.79
555.1221, 10225.18
555.6042, 10223.44
556.0864, 10233.42
556.5685, 10247.41
557.0506, 10264.07
557.5327, 10280.10
558.0148, 10282.67
558.4969, 10248.22
558.9791, 10211.35
559.4612, 10195.91
559.9433, 10209.43
560.4254, 10217.92
560.9075, 10212.16
561.3896, 10200.40
561.8718, 10189.74
562.3539, 10178.78
562.8360, 10171.06
563.3181, 10165.60
563.8002, 10164.18
564.2823, 10172.19
564.7645, 10191.08
565.2466, 10212.90
565.7287, 10236.99
566.2108, 10261.52
566.6929, 10277.99
567.1750, 10286.35
567.6572, 10284.87
568.1393, 10265.00
568.6214, 10235.37
569.1035, 10212.08
569.5856, 10196.04
570.0677, 10192.31
570.5499, 10216.99
571.0320, 10254.19
571.5141, 10278.95
571.9962, 10269.18
572.4783, 10258.13
572.9604, 10260.33
573.4426, 10273.25
573.9247, 10283.15
574.4068, 10282.15
574.8889, 10282.93
575.3710, 10291.63
575.8531, 10310.92
576.3353, 10323.96
576.8174, 10330.72
577.2995, 10331.12
577.7816, 10321.53
578.2637, 10300.21
578.7458, 10288.73
579.2280, 10291.38
579.7101, 10303.06
580.1922, 10318.86
580.6743, 10337.28
581.1564, 10349.85
581.6385, 10348.48
582.1207, 10341.30
582.6028, 10341.03
583.0849, 10346.23
583.5670, 10345.61
584.0491, 10313.88
584.5313, 10285.57
585.0134, 10294.11
585.4955, 10361.36
585.9776, 10409.81
586.4597, 10407.96
586.9418, 10381.85
587.4240, 10360.25
587.9061, 10338.16
588.3882, 10330.38
588.8703, 10343.86
589.3524, 10371.22
589.8345, 10391.46
590.3167, 10404.13
590.7988, 10411.27
591.2809, 10411.55
591.7630, 10406.68
592.2451, 10405.66
592.7272, 10408.59
593.2094, 10412.58
593.6915, 10411.53
594.1736, 10410.56
594.6557, 10422.75
595.1378, 10453.83
595.6199, 10481.39
596.1021, 10483.53
596.5842, 10472.79
597.0663, 10467.05
597.5485, 10476.63
598.0306, 10487.65
598.5127, 10494.36
598.9948, 10498.51
599.4769, 10508.38
599.9590, 10536.72
600.4412, 10555.97
600.9233, 10552.65
601.4054, 10524.27
601.8875, 10514.45
602.3696, 10528.88
602.8517, 10548.10
603.3339, 10553.23
603.8160, 10545.86
604.2981, 10546.97
604.7802, 10560.12
605.2623, 10577.76
605.7444, 10588.67
606.2266, 10596.17
606.7087, 10609.00
607.1908, 10638.91
607.6729, 10666.83
608.1550, 10673.74
608.6371, 10665.48
609.1193, 10661.30
609.6014, 10677.94
610.0835, 10692.66
610.5656, 10686.20
611.0477, 10650.58
611.5298, 10651.24
612.0120, 10719.78
612.4941, 10795.22
612.9762, 10835.93
613.4583, 10832.28
613.9404, 10828.21
614.4225, 10825.55
614.9047, 10822.50
615.3868, 10811.96
615.8689, 10795.29
616.3510, 10793.16
616.8331, 10817.15
617.3152, 10851.39
617.7974, 10874.62
618.2795, 10887.58
618.7616, 10894.50
619.2437, 10887.13
619.7258, 10882.43
620.2079, 10896.86
620.6901, 10930.97
621.1722, 10961.19
621.6543, 10982.92
622.1364, 10995.65
622.6185, 10997.08
623.1006, 10977.68
623.5828, 10968.21
624.0649, 10968.83
624.5470, 10979.24
625.0291, 11004.04
625.5112, 11048.97
625.9933, 11075.71
626.4755, 11072.41
626.9576, 11053.61
627.4397, 11050.25
627.9218, 11060.21
628.4039, 11067.28
628.8860, 11058.75
629.3682, 11045.18
629.8503, 11037.18
630.3324, 11035.56
630.8145, 11046.24
631.2966, 11095.63
631.7787, 11142.43
632.2609, 11150.76
632.7430, 11101.92
633.2251, 11070.83
633.7072, 11085.55
634.1893, 11115.85
634.6714, 11138.00
635.1536, 11153.35
635.6357, 11155.94
636.1178, 11139.33
636.5999, 11116.08
637.0820, 11113.11
637.5641, 11131.57
638.0463, 11140.44
638.5284, 11121.95
639.0105, 11094.50
639.4926, 11101.28
639.9747, 11136.23
640.4568, 11163.91
640.9390, 11163.28
641.4211, 11145.42
641.9032, 11112.39
642.3853, 11064.62
642.8674, 11032.62
643.3495, 11046.12
643.8317, 11068.02
644.3138, 11071.07
644.7959, 11031.05
645.2780, 11014.58
645.7601, 11036.09
646.2422, 11068.50
646.7244, 11078.84
647.2065, 11062.45
647.6886, 11048.04
648.1707, 11041.89
648.6528, 11038.52
649.1349, 11018.87
649.6171, 10987.48
650.0992, 10975.53
650.5813, 11020.77
651.0634, 11078.98
651.5455, 11091.14
652.0276, 11064.70
652.5098, 11039.01
652.9919, 11037.25
