##NAMES=Zircon
##RRUFFID=R050286
##IDEAL CHEMISTRY=Zr^4+^SiO_4_
##LOCALITY=Renfrew County, Ontario, Canada
##OWNER=RRUFF
##SOURCE=Marcus Origlieri
##DESCRIPTION=Brownish red prismatic crystal frozen in matrix, associated with apatite
##STATUS=The identification of this mineral has been confirmed by X-ray diffraction and chemical analysis
##URL=rruff.info/R050286
##MEASURED CHEMISTRY=Zr_1.00_Si_1.00_O_4_; trace amounts of Hf
92.10938, 18.30476
92.59149, 17.87114
93.07361, 18.00466
93.55573, 18.66492
94.03784, 19.35368
94.51996, 19.64991
95.00208, 19.62434
95.48419, 19.52733
95.96631, 19.38631
96.44843, 19.23830
96.93054, 19.17365
97.41266, 19.18781
97.89478, 19.31217
98.37689, 19.67758
98.85901, 20.28234
99.34113, 20.76334
99.82324, 20.83820
100.3054, 20.50641
100.7875, 20.62372
101.2696, 21.28199
101.7517, 22.27252
102.2338, 23.22150
102.7159, 24.07738
103.1981, 25.02500
103.6802, 26.14194
104.1623, 27.44979
104.6444, 28.84650
105.1265, 30.13937
105.6086, 31.52821
106.0908, 33.94219
106.5729, 38.11287
107.0550, 42.43033
107.5371, 45.88567
108.0192, 47.28611
108.5013, 49.65535
108.9835, 53.46953
109.4656, 58.68010
109.9477, 64.03664
110.4298, 69.20023
110.9119, 74.70932
111.3940, 81.06323
111.8762, 88.20705
112.3583, 96.18391
112.8404, 105.1348
113.3225, 115.0562
113.8046, 125.5804
114.2867, 137.1765
114.7689, 149.3072
115.2510, 161.2829
115.7331, 172.5711
116.2152, 184.1167
116.6973, 196.5504
117.1794, 210.3735
117.6616, 223.1273
118.1437, 233.2150
118.6258, 241.7989
119.1079, 250.4591
119.5900, 259.4828
120.0721, 269.1271
120.5543, 279.5678
121.0364, 290.8629
121.5185, 302.8306
122.0006, 315.3096
122.4827, 328.4110
122.9648, 342.6504
123.4470, 358.0441
123.9291, 374.6946
124.4112, 392.7874
124.8933, 412.8309
125.3754, 433.6290
125.8575, 453.9713
126.3397, 473.9565
126.8218, 494.2785
127.3039, 515.6971
127.7860, 537.6738
128.2681, 558.9037
128.7502, 578.8141
129.2324, 598.0159
129.7145, 617.7123
130.1966, 637.9986
130.6787, 657.0676
131.1608, 672.7607
131.6429, 685.4503
132.1251, 697.6927
132.6072, 710.3881
133.0893, 723.2100
133.5714, 735.5507
134.0535, 747.4404
134.5356, 758.7089
135.0178, 769.0482
135.4999, 778.3962
135.9820, 787.3851
136.4641, 796.1277
136.9462, 804.6807
137.4283, 813.4966
137.9105, 822.4315
138.3926, 832.0251
138.8747, 842.9007
139.3568, 855.1163
139.8389, 868.8278
140.3210, 884.3924
140.8032, 902.2846
141.2853, 920.0292
141.7674, 937.4708
142.2495, 954.7433
142.7316, 970.9185
143.2137, 982.3318
143.6959, 988.4490
144.1780, 994.8376
144.6601, 1001.864
145.1422, 1008.604
145.6243, 1015.113
146.1064, 1021.376
146.5886, 1027.634
147.0707, 1034.706
147.5528, 1040.887
148.0349, 1045.123
148.5170, 1046.568
148.9991, 1047.557
149.4813, 1048.388
149.9634, 1048.978
150.4455, 1048.471
150.9276, 1044.982
151.4097, 1041.632
151.8918, 1040.385
152.3740, 1042.850
152.8561, 1045.406
153.3382, 1047.905
153.8203, 1050.315
154.3024, 1052.172
154.7845, 1053.603
155.2667, 1054.370
155.7488, 1054.308
156.2309, 1051.414
156.7130, 1049.657
157.1951, 1050.372
157.6772, 1053.688
158.1594, 1056.695
158.6415, 1058.430
159.1236, 1059.700
159.6057, 1061.302
160.0878, 1063.258
160.5699, 1065.688
161.0521, 1069.065
161.5342, 1073.596
162.0163, 1077.222
162.4984, 1078.541
162.9805, 1078.733
163.4626, 1079.291
163.9448, 1081.130
164.4269, 1083.181
164.9090, 1085.048
165.3911, 1086.774
165.8732, 1087.906
166.3553, 1087.769
166.8375, 1086.943
167.3196, 1086.382
167.8017, 1086.465
168.2838, 1086.988
168.7659, 1088.011
169.2480, 1089.767
169.7302, 1091.090
170.2123, 1090.602
170.6944, 1089.035
171.1765, 1088.061
171.6586, 1089.096
172.1407, 1090.835
172.6229, 1091.878
173.1050, 1091.752
173.5871, 1091.655
174.0692, 1093.031
174.5513, 1095.380
175.0334, 1097.216
175.5156, 1096.618
175.9977, 1095.273
176.4798, 1095.728
176.9619, 1098.806
177.4440, 1102.848
177.9261, 1106.059
178.4083, 1108.628
178.8904, 1111.300
179.3725, 1114.336
179.8546, 1117.840
180.3367, 1122.076
180.8188, 1127.374
181.3010, 1132.912
181.7831, 1136.781
182.2652, 1139.285
182.7473, 1143.161
183.2294, 1151.441
183.7115, 1162.741
184.1937, 1173.037
184.6758, 1181.753
185.1579, 1188.948
185.6400, 1194.374
186.1221, 1198.068
186.6042, 1202.135
187.0864, 1208.830
187.5685, 1217.529
188.0506, 1224.846
188.5327, 1229.081
189.0148, 1232.466
189.4969, 1240.502
189.9791, 1253.291
190.4612, 1267.995
190.9433, 1283.017
191.4254, 1298.174
191.9075, 1312.927
192.3896, 1326.760
192.8718, 1340.181
193.3539, 1354.771
193.8360, 1370.623
194.3181, 1387.970
194.8002, 1406.598
195.2823, 1426.690
195.7645, 1449.381
196.2466, 1474.287
196.7287, 1502.083
197.2108, 1535.274
197.6929, 1573.713
198.1750, 1617.992
198.6572, 1669.091
199.1393, 1726.826
199.6214, 1789.683
200.1035, 1858.757
200.5856, 1932.768
201.0677, 2009.327
201.5499, 2096.579
202.0320, 2161.908
202.5141, 2168.222
202.9962, 2110.339
203.4783, 2033.875
203.9604, 1940.068
204.4426, 1833.692
204.9247, 1755.196
205.4068, 1707.566
205.8889, 1681.959
206.3710, 1672.503
206.8531, 1680.955
207.3353, 1696.605
207.8174, 1717.636
208.2995, 1743.962
208.7816, 1775.052
209.2637, 1811.548
209.7458, 1850.883
210.2280, 1891.334
210.7101, 1934.168
211.1922, 1973.839
211.6743, 2011.391
212.1564, 2046.144
212.6385, 2066.392
213.1207, 2070.811
213.6028, 2062.622
214.0849, 2042.738
214.5670, 2007.302
215.0491, 1972.246
215.5313, 1939.183
216.0134, 1908.070
216.4955, 1886.922
216.9776, 1875.554
217.4597, 1874.069
217.9418, 1882.911
218.4239, 1903.011
218.9061, 1930.661
219.3882, 1965.332
219.8703, 2006.699
220.3524, 2056.119
220.8345, 2116.418
221.3166, 2180.552
221.7988, 2244.077
222.2809, 2311.037
222.7630, 2367.472
223.2451, 2414.627
223.7272, 2453.204
224.2093, 2457.136
224.6915, 2423.763
225.1736, 2358.530
225.6557, 2264.606
226.1378, 2125.608
226.6199, 1989.149
227.1020, 1861.786
227.5842, 1742.414
228.0663, 1640.252
228.5484, 1556.605
229.0305, 1487.395
229.5126, 1429.105
229.9947, 1383.754
230.4769, 1345.425
230.9590, 1313.628
231.4411, 1288.502
231.9232, 1266.089
232.4053, 1245.988
232.8874, 1228.732
233.3696, 1215.112
233.8517, 1207.169
234.3338, 1198.790
234.8159, 1188.363
235.2980, 1175.906
235.7801, 1166.605
236.2623, 1161.748
236.7444, 1158.669
237.2265, 1155.298
237.7086, 1151.724
238.1907, 1147.656
238.6728, 1142.651
239.1550, 1136.833
239.6371, 1132.379
240.1192, 1129.699
240.6013, 1127.910
241.0834, 1126.490
241.5655, 1126.031
242.0477, 1124.683
242.5298, 1121.526
243.0119, 1116.894
243.4940, 1114.508
243.9761, 1115.714
244.4582, 1117.553
244.9404, 1117.814
245.4225, 1115.414
245.9046, 1113.625
246.3867, 1112.972
246.8688, 1113.273
247.3509, 1113.231
247.8331, 1112.469
248.3152, 1111.856
248.7973, 1112.114
249.2794, 1114.182
249.7615, 1115.065
250.2436, 1113.928
250.7258, 1111.370
251.2079, 1110.265
251.6900, 1111.159
252.1721, 1112.740
252.6542, 1114.366
253.1363, 1116.273
253.6185, 1117.571
254.1006, 1117.750
254.5827, 1117.322
255.0648, 1118.263
255.5469, 1121.364
256.0291, 1124.558
256.5112, 1126.791
256.9933, 1127.853
257.4754, 1128.412
257.9575, 1128.013
258.4396, 1127.287
258.9218, 1128.180
259.4039, 1131.483
259.8860, 1134.980
260.3681, 1137.794
260.8502, 1140.060
261.3323, 1141.108
261.8145, 1140.275
262.2966, 1138.598
262.7787, 1138.309
263.2608, 1139.640
263.7429, 1141.828
264.2250, 1144.978
264.7072, 1149.729
265.1893, 1152.430
265.6714, 1152.313
266.1535, 1150.720
266.6356, 1150.170
267.1177, 1151.161
267.5999, 1151.804
268.0820, 1151.126
268.5641, 1148.797
269.0462, 1147.912
269.5283, 1149.391
270.0104, 1151.204
270.4926, 1149.950
270.9747, 1144.615
271.4568, 1139.846
271.9389, 1137.154
272.4210, 1136.576
272.9031, 1136.903
273.3853, 1138.560
273.8674, 1140.403
274.3495, 1140.830
274.8316, 1139.588
275.3137, 1138.223
275.7958, 1136.922
276.2780, 1135.740
276.7601, 1135.904
277.2422, 1138.044
277.7243, 1139.853
278.2064, 1138.098
278.6885, 1132.159
279.1707, 1128.045
279.6528, 1127.475
280.1349, 1129.858
280.6170, 1132.382
281.0991, 1135.174
281.5812, 1137.668
282.0634, 1139.523
282.5455, 1140.793
283.0276, 1140.777
283.5097, 1138.816
283.9918, 1135.813
284.4739, 1134.599
284.9561, 1135.280
285.4382, 1136.974
285.9203, 1139.704
286.4024, 1143.302
286.8845, 1145.223
287.3666, 1144.554
287.8488, 1142.675
288.3309, 1142.566
288.8130, 1144.245
289.2951, 1146.450
289.7772, 1148.919
290.2593, 1151.398
290.7415, 1152.217
291.2236, 1150.749
291.7057, 1148.672
292.1878, 1148.939
292.6699, 1151.384
293.1520, 1153.881
293.6342, 1155.139
294.1163, 1155.510
294.5984, 1155.976
295.0805, 1156.541
295.5626, 1157.501
296.0447, 1159.909
296.5269, 1163.338
297.0090, 1165.716
297.4911, 1165.059
297.9732, 1162.781
298.4553, 1161.904
298.9374, 1162.495
299.4196, 1164.056
299.9017, 1166.522
300.3838, 1169.593
300.8659, 1172.448
301.3480, 1174.395
301.8301, 1176.086
302.3123, 1178.905
302.7944, 1182.809
303.2765, 1186.020
303.7586, 1186.286
304.2407, 1184.973
304.7228, 1184.607
305.2050, 1186.474
305.6871, 1189.145
306.1692, 1191.126
306.6513, 1192.526
307.1334, 1193.759
307.6155, 1195.025
308.0977, 1196.335
308.5798, 1197.734
309.0619, 1199.361
309.5440, 1200.878
310.0261, 1201.617
310.5082, 1201.935
310.9904, 1202.928
311.4725, 1205.637
311.9546, 1209.049
312.4367, 1212.339
312.9188, 1215.404
313.4009, 1218.202
313.8831, 1220.173
314.3652, 1221.849
314.8473, 1224.260
315.3294, 1228.442
315.8115, 1233.096
316.2936, 1237.554
316.7758, 1241.788
317.2579, 1245.612
317.7400, 1248.175
318.2221, 1250.539
318.7042, 1254.097
319.1863, 1260.737
319.6685, 1267.373
320.1506, 1272.464
320.6327, 1275.922
321.1148, 1279.913
321.5969, 1284.957
322.0790, 1290.824
322.5612, 1297.441
323.0433, 1306.402
323.5254, 1314.339
324.0075, 1319.440
324.4896, 1322.257
324.9717, 1326.871
325.4539, 1335.895
325.9360, 1345.624
326.4181, 1353.872
326.9002, 1358.122
327.3823, 1363.931
327.8644, 1372.342
328.3466, 1382.655
328.8287, 1392.720
329.3108, 1401.485
329.7929, 1410.981
330.2750, 1421.719
330.7571, 1434.021
331.2393, 1447.077
331.7214, 1460.634
332.2035, 1475.090
332.6856, 1490.707
333.1677, 1506.379
333.6498, 1524.923
334.1320, 1547.436
334.6141, 1573.730
335.0962, 1602.083
335.5783, 1632.565
336.0604, 1665.037
336.5425, 1700.053
337.0247, 1738.699
337.5068, 1777.422
337.9889, 1815.908
338.4710, 1854.098
338.9531, 1892.312
339.4352, 1930.026
339.9173, 1969.664
340.3994, 2012.767
340.8816, 2060.015
341.3637, 2108.849
341.8458, 2159.743
342.3279, 2211.792
342.8100, 2264.595
343.2921, 2317.145
343.7743, 2374.260
344.2564, 2438.544
344.7385, 2510.319
345.2206, 2583.814
345.7027, 2658.428
346.1848, 2737.448
346.6670, 2825.235
347.1491, 2921.863
347.6312, 3028.132
348.1133, 3146.253
348.5954, 3274.932
349.0775, 3411.604
349.5597, 3557.624
350.0418, 3710.447
350.5239, 3869.723
351.0060, 4034.337
351.4881, 4194.908
351.9702, 4354.503
352.4524, 4503.789
352.9345, 4633.463
353.4166, 4741.786
353.8987, 4813.033
354.3808, 4839.662
354.8629, 4820.574
355.3451, 4750.476
355.8272, 4622.323
356.3093, 4455.833
356.7914, 4256.025
357.2735, 4029.260
357.7556, 3797.272
358.2378, 3560.217
358.7199, 3332.014
359.2020, 3125.070
359.6841, 2941.353
360.1662, 2775.562
360.6483, 2626.333
361.1305, 2492.782
361.6126, 2373.670
362.0947, 2270.410
362.5768, 2179.969
363.0589, 2101.854
363.5410, 2035.898
364.0232, 1976.194
364.5053, 1921.495
364.9874, 1871.904
365.4695, 1827.500
365.9516, 1789.580
366.4337, 1755.438
366.9159, 1724.311
367.3980, 1696.317
367.8801, 1671.841
368.3622, 1653.490
368.8443, 1636.888
369.3264, 1620.192
369.8086, 1602.597
370.2907, 1586.057
370.7728, 1569.853
371.2549, 1554.914
371.7370, 1543.031
372.2191, 1536.198
372.7013, 1529.617
373.1834, 1521.924
373.6655, 1512.849
374.1476, 1504.918
374.6297, 1498.141
375.1118, 1492.730
375.5940, 1489.447
376.0761, 1489.477
376.5582, 1487.854
377.0403, 1483.025
377.5224, 1476.049
378.0045, 1471.504
378.4867, 1469.865
378.9688, 1469.218
379.4509, 1468.629
379.9330, 1468.113
380.4151, 1466.875
380.8972, 1464.545
381.3794, 1462.099
381.8615, 1461.410
382.3436, 1462.426
382.8257, 1463.675
383.3078, 1464.292
383.7899, 1464.584
384.2721, 1465.730
384.7542, 1467.762
385.2363, 1470.187
385.7184, 1472.859
386.2005, 1475.560
386.6826, 1477.790
387.1648, 1478.996
387.6469, 1480.054
388.1290, 1482.320
388.6111, 1485.599
389.0932, 1488.762
389.5753, 1491.780
390.0575, 1494.024
390.5396, 1494.915
391.0217, 1494.506
391.5038, 1492.332
391.9859, 1486.883
392.4680, 1479.563
392.9502, 1472.833
393.4323, 1467.859
393.9144, 1463.737
394.3965, 1460.075
394.8786, 1456.816
395.3607, 1453.893
395.8429, 1451.021
396.3250, 1448.559
396.8071, 1446.814
397.2892, 1446.009
397.7713, 1445.756
398.2534, 1445.927
398.7356, 1446.570
399.2177, 1447.928
399.6998, 1450.272
400.1819, 1453.154
400.6640, 1456.450
401.1461, 1460.524
401.6283, 1464.204
402.1104, 1466.496
402.5925, 1468.843
403.0746, 1473.699
403.5567, 1482.591
404.0388, 1491.152
404.5210, 1497.768
405.0031, 1502.426
405.4852, 1509.727
405.9673, 1520.711
406.4494, 1532.451
406.9315, 1542.543
407.4137, 1550.928
407.8958, 1558.353
408.3779, 1564.353
408.8600, 1570.033
409.3421, 1578.667
409.8242, 1590.411
410.3064, 1602.140
410.7885, 1611.669
411.2706, 1619.664
411.7527, 1628.968
412.2348, 1639.732
412.7169, 1651.846
413.1991, 1665.407
413.6812, 1680.236
414.1633, 1695.431
414.6454, 1711.682
415.1275, 1727.310
415.6096, 1739.466
416.0918, 1748.405
416.5739, 1756.852
417.0560, 1766.450
417.5381, 1776.654
418.0202, 1786.511
418.5023, 1794.961
418.9845, 1805.272
419.4666, 1820.045
419.9487, 1838.079
420.4308, 1856.751
420.9129, 1874.599
421.3951, 1893.381
421.8772, 1914.117
422.3593, 1936.518
422.8414, 1961.021
423.3235, 1987.568
423.8056, 2016.208
424.2878, 2046.703
424.7699, 2079.168
425.2520, 2113.327
425.7341, 2148.551
426.2162, 2184.904
426.6983, 2224.600
427.1805, 2267.451
427.6626, 2313.325
428.1447, 2362.570
428.6268, 2414.823
429.1089, 2470.450
429.5910, 2529.429
430.0732, 2592.560
430.5553, 2662.466
431.0374, 2740.073
431.5195, 2820.489
432.0016, 2903.852
432.4837, 2989.451
432.9659, 3075.956
433.4480, 3163.516
433.9301, 3250.889
434.4122, 3339.875
434.8943, 3429.146
435.3764, 3510.162
435.8586, 3583.039
436.3407, 3644.517
436.8228, 3693.382
437.3049, 3728.143
437.7870, 3741.656
438.2691, 3730.667
438.7513, 3697.072
439.2334, 3641.798
439.7155, 3565.196
440.1976, 3472.122
440.6797, 3357.126
441.1618, 3231.067
441.6440, 3105.770
442.1261, 2983.454
442.6082, 2866.438
443.0903, 2754.858
443.5724, 2649.750
444.0545, 2553.377
444.5367, 2467.557
445.0188, 2389.862
445.5009, 2318.195
445.9830, 2252.973
446.4651, 2194.469
446.9472, 2144.875
447.4294, 2100.705
447.9115, 2059.629
448.3936, 2021.384
448.8757, 1985.857
449.3578, 1953.382
449.8399, 1923.944
450.3221, 1895.348
450.8042, 1866.959
451.2863, 1840.443
451.7684, 1816.535
452.2505, 1795.633
452.7326, 1774.929
453.2148, 1754.573
453.6969, 1734.456
454.1790, 1714.831
454.6611, 1695.469
455.1432, 1677.334
455.6253, 1660.428
456.1075, 1645.201
456.5896, 1633.776
457.0717, 1625.996
457.5538, 1619.716
458.0359, 1614.123
458.5180, 1608.888
459.0002, 1602.877
459.4823, 1595.857
459.9644, 1589.301
460.4465, 1585.238
460.9286, 1582.688
461.4107, 1579.862
461.8929, 1574.904
462.3750, 1570.432
462.8571, 1568.943
463.3392, 1569.877
463.8213, 1570.653
464.3034, 1569.926
464.7856, 1568.740
465.2677, 1567.727
465.7498, 1566.891
466.2319, 1566.525
466.7140, 1567.152
467.1961, 1568.140
467.6783, 1568.686
468.1604, 1568.072
468.6425, 1567.669
469.1246, 1568.096
469.6067, 1569.176
470.0888, 1568.922
470.5710, 1567.224
471.0531, 1564.318
471.5352, 1560.347
472.0173, 1555.291
472.4994, 1548.965
472.9815, 1541.062
473.4637, 1532.297
473.9458, 1523.878
474.4279, 1515.805
474.9100, 1507.626
475.3921, 1499.076
475.8742, 1490.389
476.3564, 1482.503
476.8385, 1475.410
477.3206, 1467.993
477.8027, 1458.429
478.2848, 1448.119
478.7669, 1440.266
479.2491, 1435.551
479.7312, 1432.115
480.2133, 1429.129
480.6954, 1426.050
481.1775, 1421.858
481.6596, 1414.651
482.1418, 1407.450
482.6239, 1402.207
483.1060, 1398.725
483.5881, 1395.706
484.0702, 1393.418
484.5523, 1390.834
485.0345, 1387.215
485.5166, 1381.970
485.9987, 1376.898
486.4808, 1372.245
486.9629, 1367.968
487.4450, 1363.988
487.9272, 1359.908
488.4093, 1356.768
488.8914, 1355.069
489.3735, 1354.610
489.8556, 1353.622
490.3377, 1351.951
490.8199, 1350.118
491.3020, 1348.236
491.7841, 1346.221
492.2662, 1345.423
492.7483, 1346.208
493.2304, 1347.369
493.7126, 1346.842
494.1947, 1344.911
494.6768, 1343.885
495.1589, 1344.869
495.6410, 1346.836
496.1231, 1347.604
496.6053, 1347.453
497.0874, 1348.201
497.5695, 1352.443
498.0516, 1357.523
498.5337, 1360.140
499.0158, 1359.542
499.4980, 1358.656
499.9801, 1358.425
500.4622, 1359.206
500.9443, 1361.435
501.4264, 1367.359
501.9085, 1372.484
502.3907, 1375.182
502.8728, 1375.936
503.3549, 1376.801
503.8370, 1378.487
504.3191, 1379.977
504.8012, 1380.964
505.2834, 1381.471
505.7655, 1381.431
506.2476, 1380.763
506.7297, 1379.655
507.2118, 1378.321
507.6939, 1376.855
508.1761, 1374.696
508.6582, 1371.591
509.1403, 1367.890
509.6224, 1364.494
510.1045, 1361.408
510.5866, 1358.087
511.0688, 1353.902
511.5509, 1349.274
512.0330, 1345.557
512.5151, 1342.754
512.9973, 1340.285
513.4794, 1338.020
513.9615, 1335.638
514.4436, 1332.386
514.9257, 1327.438
515.4078, 1323.161
515.8900, 1322.422
516.3721, 1323.539
516.8542, 1323.271
517.3363, 1318.542
517.8184, 1313.915
518.3005, 1311.427
518.7827, 1311.115
519.2648, 1311.080
519.7469, 1311.165
520.2290, 1311.332
520.7111, 1311.570
521.1932, 1311.976
521.6754, 1312.250
522.1575, 1312.436
522.6396, 1312.439
523.1217, 1312.063
523.6038, 1311.185
524.0859, 1310.328
524.5681, 1309.573
525.0502, 1308.940
525.5323, 1308.745
526.0144, 1309.032
526.4965, 1308.807
526.9786, 1306.605
527.4608, 1303.394
527.9429, 1302.314
528.4250, 1303.661
528.9071, 1305.700
529.3892, 1307.114
529.8713, 1308.080
530.3535, 1308.818
530.8356, 1309.186
531.3177, 1309.694
531.7998, 1310.893
532.2819, 1312.505
532.7640, 1313.797
533.2462, 1314.371
533.7283, 1314.724
534.2104, 1314.782
534.6925, 1314.434
535.1746, 1315.109
535.6567, 1317.597
536.1389, 1320.604
536.6210, 1323.352
537.1031, 1325.908
537.5852, 1328.143
538.0673, 1330.068
538.5494, 1331.693
539.0316, 1332.987
539.5137, 1333.932
539.9958, 1334.741
540.4779, 1335.149
540.9600, 1335.660
541.4421, 1338.186
541.9243, 1342.631
542.4064, 1347.096
542.8885, 1350.403
543.3706, 1352.774
543.8527, 1354.560
544.3348, 1355.777
544.8170, 1356.526
545.2991, 1357.222
545.7812, 1357.373
546.2633, 1356.266
546.7454, 1352.318
547.2275, 1348.920
547.7097, 1348.316
548.1918, 1349.282
548.6739, 1348.987
549.1560, 1345.597
549.6381, 1342.128
550.1202, 1339.725
550.6024, 1338.459
551.0845, 1336.241
551.5666, 1332.167
552.0487, 1328.354
552.5308, 1326.421
553.0129, 1326.812
553.4951, 1326.606
553.9772, 1325.702
554.4593, 1324.128
554.9414, 1321.639
555.4235, 1318.325
555.9056, 1315.236
556.3878, 1312.663
556.8699, 1310.540
557.3520, 1309.010
557.8341, 1307.947
558.3162, 1306.835
558.7983, 1305.166
559.2805, 1303.440
559.7626, 1302.485
560.2447, 1302.384
560.7268, 1301.384
561.2089, 1296.932
561.6910, 1292.252
562.1732, 1290.051
562.6553, 1293.408
563.1374, 1295.232
563.6195, 1293.422
564.1016, 1289.955
564.5837, 1287.738
565.0659, 1287.225
565.5480, 1287.103
566.0301, 1287.154
566.5122, 1287.383
566.9943, 1287.966
567.4764, 1289.034
567.9586, 1289.806
568.4407, 1289.591
568.9228, 1288.601
569.4049, 1287.992
569.8870, 1287.784
570.3691, 1287.994
570.8513, 1289.238
571.3334, 1290.822
571.8155, 1291.178
572.2976, 1289.412
572.7797, 1287.654
573.2618, 1287.750
573.7440, 1288.926
574.2261, 1289.800
574.7082, 1289.628
575.1903, 1289.282
575.6724, 1288.714
576.1545, 1288.072
576.6367, 1288.548
577.1188, 1291.805
577.6009, 1294.641
578.0830, 1295.757
578.5651, 1294.849
579.0472, 1293.799
579.5294, 1292.547
580.0115, 1291.260
580.4936, 1290.018
580.9757, 1288.808
581.4578, 1287.963
581.9399, 1287.616
582.4221, 1287.455
582.9042, 1287.013
583.3863, 1286.336
583.8684, 1285.581
584.3505, 1284.522
584.8326, 1283.634
585.3148, 1283.664
585.7969, 1284.397
586.2789, 1284.881
586.7610, 1284.002
587.2432, 1283.146
587.7253, 1283.551
588.2074, 1285.686
