##NAMES=Zircon
##RRUFFID=R100144
##IDEAL CHEMISTRY=Zr^4+^SiO_4_
##LOCALITY=Sri Lanka
##OWNER=RRUFF
##SOURCE=William W. Pinch
##DESCRIPTION=Brown, red, and green cut gemstones
##STATUS=The identification of this mineral has been confirmed by single-crystal X-ray diffraction.
##URL=rruff.info/R100144
91.03516, 56.22528
91.51727, 57.86573
91.99939, 56.54044
92.48151, 53.14027
92.96362, 50.18739
93.44574, 49.12075
93.92786, 49.38927
94.40997, 49.97969
94.89210, 50.95008
95.37421, 51.85541
95.85633, 51.89996
96.33845, 51.12049
96.82056, 50.24740
97.30268, 49.77155
97.78480, 49.65370
98.26691, 49.47144
98.74903, 49.16380
99.23115, 48.77003
99.71326, 48.29280
100.1954, 47.63862
100.6775, 47.27487
101.1596, 47.73957
101.6417, 49.25061
102.1239, 50.51967
102.6060, 51.32662
103.0881, 51.68987
103.5702, 51.81723
104.0523, 51.72660
104.5344, 51.38088
105.0166, 50.59698
105.4987, 48.72301
105.9808, 47.61089
106.4629, 47.96958
106.9450, 50.34711
107.4271, 51.71498
107.9093, 51.80911
108.3914, 50.99657
108.8735, 49.79467
109.3556, 46.97443
109.8377, 44.92689
110.3198, 44.41784
110.8020, 46.46129
111.2841, 48.08807
111.7662, 49.18941
112.2483, 49.81361
112.7304, 50.08480
113.2125, 49.83144
113.6947, 49.36329
114.1768, 48.80340
114.6589, 47.84316
115.1410, 47.21234
115.6231, 47.14554
116.1052, 47.56432
116.5874, 48.17579
117.0695, 49.66105
117.5516, 50.91178
118.0337, 51.06602
118.5158, 48.65830
118.9980, 46.20839
119.4801, 44.58051
119.9622, 43.79694
120.4443, 43.95325
120.9264, 46.30637
121.4085, 49.32705
121.8907, 51.13801
122.3728, 49.50823
122.8549, 47.28173
123.3370, 47.12194
123.8191, 49.18184
124.3012, 51.20874
124.7834, 50.96241
125.2655, 49.31402
125.7476, 48.12655
126.2297, 48.90033
126.7118, 50.48363
127.1939, 51.02744
127.6761, 50.23781
128.1582, 49.31436
128.6403, 49.83675
129.1224, 51.54312
129.6045, 53.17003
130.0867, 53.44139
130.5688, 52.99361
131.0509, 54.06271
131.5330, 57.19707
132.0151, 61.18825
132.4972, 63.66195
132.9794, 64.61446
133.4615, 66.07442
133.9436, 69.79551
134.4257, 75.62125
134.9078, 80.75805
135.3899, 84.40604
135.8721, 87.49673
136.3542, 92.92231
136.8363, 100.9479
137.3184, 110.1721
137.8005, 119.2450
138.2826, 128.0658
138.7648, 138.0838
139.2469, 149.3756
139.7290, 162.0990
140.2111, 176.7554
140.6932, 193.8401
141.1753, 212.1784
141.6575, 230.5799
142.1396, 249.3532
142.6217, 267.8670
143.1038, 285.9728
143.5859, 303.8325
144.0681, 321.1560
144.5502, 338.1461
145.0323, 354.5555
145.5144, 370.4616
145.9965, 386.0737
146.4786, 400.6851
146.9608, 413.6205
147.4429, 424.6308
147.9250, 435.8011
148.4071, 446.2782
148.8892, 457.2615
149.3713, 470.2650
149.8535, 485.5624
150.3356, 502.7950
150.8177, 522.0018
151.2998, 543.6223
151.7819, 566.2394
152.2640, 590.1783
152.7462, 615.1710
153.2283, 640.2722
153.7104, 665.5350
154.1925, 690.8362
154.6746, 716.1832
155.1567, 742.1317
155.6389, 766.5476
156.1210, 789.3212
156.6031, 810.4811
157.0852, 830.3682
157.5673, 849.9039
158.0495, 867.5126
158.5316, 882.5453
159.0137, 894.0361
159.4958, 903.9490
159.9779, 912.3267
160.4600, 919.4745
160.9422, 926.3906
161.4243, 932.0252
161.9064, 938.3347
162.3885, 946.6812
162.8706, 959.1439
163.3527, 971.7845
163.8349, 982.4221
164.3170, 991.6462
164.7991, 1002.273
165.2812, 1016.120
165.7633, 1031.754
166.2454, 1047.885
166.7276, 1064.110
167.2097, 1081.292
167.6918, 1098.355
168.1739, 1116.743
168.6560, 1135.186
169.1381, 1153.891
169.6203, 1171.783
170.1024, 1180.195
170.5845, 1182.739
171.0666, 1184.551
171.5487, 1186.343
172.0309, 1188.124
172.5130, 1189.820
172.9951, 1192.096
173.4772, 1194.176
173.9593, 1194.826
174.4414, 1192.318
174.9236, 1188.828
175.4057, 1186.511
175.8878, 1185.328
176.3699, 1185.139
176.8520, 1186.844
177.3341, 1189.451
177.8163, 1190.807
178.2984, 1188.025
178.7805, 1184.091
179.2626, 1183.251
179.7447, 1185.568
180.2268, 1190.552
180.7090, 1197.768
181.1911, 1207.204
181.6732, 1218.907
182.1553, 1233.108
182.6374, 1249.508
183.1195, 1267.600
183.6017, 1287.866
184.0838, 1308.238
184.5659, 1327.230
185.0480, 1344.754
185.5301, 1361.278
186.0123, 1375.550
186.4944, 1388.799
186.9765, 1404.575
187.4586, 1423.357
187.9407, 1443.785
188.4228, 1463.640
188.9050, 1483.020
189.3871, 1504.376
189.8692, 1529.225
190.3513, 1556.958
190.8334, 1585.047
191.3155, 1612.789
191.7977, 1641.921
192.2798, 1675.678
192.7619, 1714.046
193.2440, 1753.762
193.7261, 1792.716
194.2082, 1831.159
194.6904, 1873.711
195.1725, 1920.413
195.6546, 1971.668
196.1367, 2025.001
196.6188, 2080.140
197.1009, 2143.185
197.5831, 2217.319
198.0652, 2303.128
198.5473, 2396.466
199.0294, 2497.292
199.5115, 2605.175
199.9937, 2722.440
200.4758, 2849.218
200.9579, 2974.888
201.4400, 3104.103
201.9221, 3240.980
202.4042, 3325.807
202.8864, 3354.275
203.3685, 3330.511
203.8506, 3250.247
204.3327, 3100.724
204.8148, 2949.941
205.2969, 2830.545
205.7791, 2742.586
206.2612, 2685.378
206.7433, 2661.668
207.2254, 2666.239
207.7075, 2688.663
208.1896, 2732.345
208.6718, 2784.090
209.1539, 2839.167
209.6360, 2898.416
210.1181, 2954.895
210.6002, 3010.047
211.0823, 3061.348
211.5645, 3103.220
212.0466, 3138.694
212.5287, 3158.136
213.0108, 3155.118
213.4929, 3126.365
213.9750, 3087.453
214.4572, 3034.199
214.9393, 2973.458
215.4214, 2922.607
215.9035, 2879.847
216.3856, 2850.236
216.8678, 2836.522
217.3499, 2837.972
217.8320, 2856.887
218.3141, 2895.798
218.7962, 2951.192
219.2783, 3012.501
219.7605, 3078.898
220.2426, 3151.542
220.7247, 3231.583
221.2068, 3321.996
221.6889, 3412.115
222.1710, 3508.024
222.6532, 3601.612
223.1353, 3667.056
223.6174, 3711.557
224.0995, 3717.309
224.5816, 3675.362
225.0637, 3580.909
225.5459, 3448.206
226.0280, 3269.035
226.5101, 3053.521
226.9922, 2835.220
227.4743, 2600.734
227.9564, 2381.404
228.4386, 2188.909
228.9207, 2029.537
229.4028, 1889.946
229.8849, 1770.164
230.3670, 1669.385
230.8492, 1582.533
231.3313, 1512.454
231.8134, 1453.173
232.2955, 1401.776
232.7776, 1360.641
233.2597, 1323.993
233.7419, 1292.683
234.2240, 1265.484
234.7061, 1239.981
235.1882, 1215.761
235.6703, 1193.970
236.1524, 1175.014
236.6346, 1159.673
237.1167, 1145.566
237.5988, 1132.338
238.0809, 1120.409
238.5630, 1110.751
239.0451, 1104.542
239.5273, 1098.914
240.0094, 1092.640
240.4915, 1085.105
240.9736, 1078.386
241.4557, 1072.416
241.9378, 1067.205
242.4200, 1062.818
242.9021, 1059.247
243.3842, 1056.408
243.8663, 1054.308
244.3484, 1053.084
244.8306, 1052.255
245.3127, 1052.295
245.7948, 1052.490
246.2769, 1051.238
246.7590, 1047.004
247.2411, 1043.997
247.7233, 1044.237
248.2054, 1049.303
248.6875, 1051.576
249.1696, 1049.616
249.6517, 1045.835
250.1338, 1044.116
250.6160, 1045.038
251.0981, 1047.024
251.5802, 1049.859
252.0623, 1053.911
252.5444, 1056.951
253.0265, 1058.386
253.5087, 1059.288
253.9908, 1061.107
254.4729, 1064.014
254.9550, 1067.567
255.4371, 1072.080
255.9192, 1077.851
256.4014, 1081.652
256.8835, 1082.442
257.3656, 1082.296
257.8477, 1083.830
258.3298, 1087.692
258.8120, 1091.811
259.2941, 1095.813
259.7762, 1099.723
260.2583, 1103.299
260.7404, 1106.749
261.2225, 1109.615
261.7047, 1111.390
262.1868, 1111.723
262.6689, 1111.797
263.1510, 1111.720
263.6331, 1111.498
264.1152, 1111.808
264.5974, 1112.998
265.0795, 1114.174
265.5616, 1114.482
266.0437, 1113.826
266.5258, 1112.704
267.0079, 1111.332
267.4901, 1109.636
267.9722, 1106.921
268.4543, 1103.031
268.9364, 1098.437
269.4185, 1093.220
269.9006, 1087.024
270.3828, 1081.860
270.8649, 1078.153
271.3470, 1075.666
271.8291, 1073.234
272.3112, 1070.795
272.7933, 1068.434
273.2755, 1066.140
273.7576, 1063.828
274.2397, 1061.963
274.7218, 1060.634
275.2039, 1059.751
275.6860, 1059.269
276.1682, 1059.393
276.6503, 1059.136
277.1324, 1057.677
277.6145, 1054.936
278.0966, 1052.477
278.5787, 1050.368
279.0609, 1048.740
279.5430, 1048.053
280.0251, 1048.497
280.5072, 1048.931
280.9893, 1048.276
281.4715, 1046.560
281.9536, 1046.949
282.4357, 1050.241
282.9178, 1054.372
283.3999, 1055.085
283.8820, 1052.116
284.3642, 1050.171
284.8463, 1052.451
285.3284, 1058.423
285.8105, 1061.536
286.2926, 1061.155
286.7747, 1059.793
287.2569, 1061.121
287.7390, 1065.024
288.2211, 1068.815
288.7032, 1071.442
289.1853, 1073.068
289.6674, 1074.481
290.1496, 1075.721
290.6317, 1076.625
291.1138, 1076.640
291.5959, 1075.970
292.0780, 1075.970
292.5602, 1077.320
293.0423, 1079.575
293.5244, 1081.683
294.0065, 1083.643
294.4886, 1085.481
294.9707, 1087.492
295.4529, 1089.486
295.9350, 1090.601
296.4171, 1090.068
296.8992, 1089.078
297.3813, 1089.616
297.8634, 1091.629
298.3456, 1094.655
298.8277, 1099.392
299.3098, 1104.815
299.7919, 1108.325
300.2740, 1108.546
300.7561, 1108.107
301.2383, 1110.505
301.7204, 1115.330
302.2025, 1120.563
302.6846, 1125.655
303.1667, 1130.177
303.6488, 1133.381
304.1310, 1134.824
304.6131, 1135.861
305.0952, 1137.354
305.5773, 1139.424
306.0594, 1142.375
306.5415, 1146.845
307.0237, 1152.052
307.5058, 1157.231
307.9879, 1162.250
308.4700, 1167.441
308.9521, 1173.316
309.4343, 1179.527
309.9164, 1185.589
310.3985, 1191.325
310.8806, 1196.861
311.3627, 1202.048
311.8448, 1206.917
312.3270, 1212.324
312.8091, 1219.023
313.2912, 1226.485
313.7733, 1234.085
314.2554, 1240.989
314.7375, 1248.509
315.2197, 1257.629
315.7018, 1268.249
316.1839, 1278.807
316.6660, 1288.596
317.1481, 1298.088
317.6302, 1307.494
318.1124, 1315.927
318.5945, 1325.512
319.0766, 1337.720
319.5587, 1351.863
320.0408, 1365.722
320.5229, 1378.294
321.0051, 1390.601
321.4872, 1403.205
321.9693, 1415.885
322.4514, 1429.173
322.9335, 1443.350
323.4156, 1458.185
323.8978, 1473.232
324.3799, 1486.924
324.8620, 1502.112
325.3441, 1520.354
325.8262, 1542.860
326.3083, 1564.364
326.7905, 1583.862
327.2726, 1602.422
327.7547, 1621.093
328.2368, 1637.158
328.7189, 1656.381
329.2010, 1680.853
329.6832, 1710.902
330.1653, 1739.991
330.6474, 1765.236
331.1295, 1791.567
331.6116, 1823.249
332.0938, 1861.377
332.5759, 1903.269
333.0580, 1947.950
333.5401, 1996.009
334.0222, 2048.620
334.5043, 2106.797
334.9865, 2168.692
335.4686, 2233.765
335.9507, 2302.208
336.4328, 2373.767
336.9149, 2448.703
337.3970, 2527.733
337.8792, 2609.824
338.3613, 2696.410
338.8434, 2785.231
339.3255, 2876.038
339.8076, 2969.225
340.2898, 3063.668
340.7719, 3159.202
341.2540, 3257.717
341.7361, 3364.573
342.2182, 3478.195
342.7003, 3597.696
343.1825, 3720.428
343.6646, 3848.180
344.1467, 3984.262
344.6288, 4129.658
345.1109, 4286.727
345.5930, 4451.409
346.0752, 4628.975
346.5573, 4814.864
347.0394, 5009.831
347.5215, 5212.970
348.0036, 5428.006
348.4857, 5654.007
348.9679, 5888.301
349.4500, 6137.686
349.9321, 6396.785
350.4142, 6650.954
350.8963, 6902.309
351.3784, 7140.138
351.8606, 7356.823
352.3427, 7547.042
352.8248, 7695.047
353.3069, 7801.590
353.7890, 7854.532
354.2711, 7838.519
354.7533, 7752.194
355.2354, 7603.052
355.7175, 7383.150
356.1996, 7107.092
356.6817, 6800.293
357.1638, 6449.699
357.6460, 6089.957
358.1281, 5737.350
358.6102, 5394.426
359.0923, 5067.037
359.5744, 4758.169
360.0565, 4470.232
360.5387, 4205.632
361.0208, 3966.262
361.5029, 3747.871
361.9850, 3552.988
362.4671, 3379.202
362.9492, 3222.073
363.4314, 3083.168
363.9135, 2958.214
364.3956, 2845.504
364.8777, 2746.035
365.3598, 2654.832
365.8419, 2571.393
366.3241, 2495.388
366.8062, 2426.938
367.2883, 2368.679
367.7704, 2315.415
368.2526, 2265.954
368.7347, 2220.084
369.2168, 2178.247
369.6989, 2140.709
370.1810, 2106.747
370.6631, 2075.410
371.1453, 2046.992
371.6274, 2020.636
372.1095, 1995.325
372.5916, 1971.494
373.0737, 1953.148
373.5558, 1942.574
374.0380, 1933.840
374.5201, 1923.260
375.0022, 1909.618
375.4843, 1898.602
375.9664, 1890.917
376.4485, 1885.492
376.9307, 1880.098
377.4128, 1874.695
377.8949, 1869.667
378.3770, 1865.186
378.8591, 1861.259
379.3412, 1857.775
379.8234, 1854.722
380.3055, 1852.256
380.7876, 1850.649
381.2697, 1849.876
381.7518, 1849.599
382.2339, 1849.561
382.7161, 1850.106
383.1982, 1852.281
383.6803, 1856.038
384.1624, 1860.359
384.6445, 1863.626
385.1266, 1866.875
385.6088, 1873.240
386.0909, 1883.933
386.5730, 1895.428
387.0551, 1903.487
387.5372, 1908.849
388.0193, 1913.764
388.5015, 1919.328
388.9836, 1925.001
389.4657, 1930.709
389.9478, 1936.493
390.4299, 1940.557
390.9120, 1941.405
391.3942, 1939.908
391.8763, 1937.109
392.3584, 1932.467
392.8405, 1927.474
393.3226, 1922.292
393.8047, 1917.194
394.2869, 1913.432
394.7690, 1912.090
395.2511, 1911.834
395.7332, 1911.728
396.2154, 1910.947
396.6975, 1911.749
397.1796, 1914.441
397.6617, 1919.071
398.1438, 1925.644
398.6259, 1935.348
399.1081, 1945.863
399.5902, 1956.316
400.0723, 1966.426
400.5544, 1978.318
401.0365, 1992.152
401.5186, 2007.669
402.0008, 2024.600
402.4829, 2043.872
402.9650, 2062.826
403.4471, 2080.449
403.9292, 2097.597
404.4113, 2117.658
404.8935, 2141.642
405.3756, 2166.452
405.8577, 2190.510
406.3398, 2213.406
406.8219, 2237.245
407.3040, 2262.440
407.7862, 2287.993
408.2683, 2312.808
408.7504, 2336.889
409.2325, 2361.063
409.7146, 2385.590
410.1967, 2410.330
410.6789, 2436.805
411.1610, 2465.122
411.6431, 2493.378
412.1252, 2519.061
412.6073, 2543.164
413.0894, 2568.481
413.5716, 2595.344
414.0537, 2622.815
414.5358, 2649.673
415.0179, 2675.836
415.5000, 2702.030
415.9821, 2729.488
416.4643, 2756.293
416.9464, 2779.128
417.4285, 2797.245
417.9106, 2817.154
418.3927, 2841.571
418.8748, 2870.663
419.3570, 2904.176
419.8391, 2940.814
420.3212, 2983.305
420.8033, 3035.548
421.2854, 3095.758
421.7675, 3156.438
422.2497, 3212.066
422.7318, 3270.094
423.2139, 3333.954
423.6960, 3404.428
424.1781, 3479.708
424.6602, 3558.025
425.1424, 3641.385
425.6245, 3731.871
426.1066, 3828.344
426.5887, 3931.711
427.0709, 4041.349
427.5530, 4157.246
428.0351, 4279.791
428.5172, 4410.162
428.9993, 4547.462
429.4814, 4691.922
429.9636, 4844.436
430.4457, 5000.116
430.9278, 5157.434
431.4099, 5318.763
431.8920, 5489.635
432.3741, 5672.327
432.8563, 5858.724
433.3384, 6049.056
433.8205, 6242.232
434.3026, 6426.105
434.7847, 6602.107
435.2668, 6764.875
435.7490, 6915.137
436.2311, 7049.650
436.7132, 7152.422
437.1953, 7221.545
437.6774, 7254.125
438.1595, 7249.325
438.6417, 7206.308
439.1238, 7121.459
439.6059, 6982.964
440.0880, 6806.573
440.5701, 6604.506
441.0522, 6375.149
441.5344, 6135.098
442.0165, 5884.988
442.4986, 5633.222
442.9807, 5391.403
443.4628, 5161.944
443.9449, 4944.471
444.4271, 4736.219
444.9092, 4538.630
445.3913, 4358.448
445.8734, 4207.394
446.3555, 4070.570
446.8376, 3941.656
447.3198, 3820.225
447.8019, 3706.427
448.2840, 3602.927
448.7661, 3506.685
449.2482, 3413.834
449.7303, 3324.471
450.2125, 3239.789
450.6946, 3159.626
451.1767, 3083.668
451.6588, 3012.403
452.1409, 2945.882
452.6230, 2882.662
453.1052, 2822.276
453.5873, 2764.122
454.0694, 2709.865
454.5515, 2659.741
455.0337, 2613.458
455.5158, 2571.820
455.9979, 2534.408
456.4800, 2500.665
456.9621, 2470.406
457.4442, 2443.279
457.9264, 2418.313
458.4085, 2395.598
458.8906, 2374.680
459.3727, 2355.697
459.8548, 2338.367
460.3369, 2322.526
460.8191, 2307.717
461.3012, 2294.993
461.7833, 2285.358
462.2654, 2278.403
462.7475, 2273.288
463.2296, 2271.101
463.7118, 2269.387
464.1939, 2266.503
464.6760, 2262.292
465.1581, 2258.871
465.6402, 2256.993
466.1223, 2256.055
466.6045, 2255.667
467.0866, 2257.599
467.5687, 2257.730
468.0508, 2255.084
468.5329, 2250.532
469.0150, 2246.113
469.4972, 2243.493
469.9793, 2238.580
470.4614, 2229.915
470.9435, 2217.372
471.4256, 2203.981
471.9077, 2190.059
472.3899, 2174.743
472.8720, 2156.898
473.3541, 2136.073
473.8362, 2115.658
474.3183, 2096.131
474.8004, 2076.956
475.2826, 2056.872
475.7647, 2035.956
476.2468, 2015.379
476.7289, 1995.262
477.2110, 1975.896
477.6931, 1958.301
478.1753, 1942.391
478.6574, 1927.783
479.1395, 1914.862
479.6216, 1902.841
480.1037, 1890.561
480.5858, 1877.574
481.0680, 1864.463
481.5501, 1851.631
482.0322, 1838.965
482.5143, 1826.334
482.9964, 1813.244
483.4786, 1800.593
483.9607, 1788.929
484.4428, 1778.465
484.9249, 1767.931
485.4070, 1757.100
485.8892, 1746.240
486.3713, 1735.529
486.8534, 1724.896
487.3355, 1714.643
487.8176, 1704.550
488.2997, 1694.932
488.7819, 1686.202
489.2640, 1678.214
489.7461, 1671.429
490.2282, 1666.633
490.7103, 1663.539
491.1924, 1657.457
491.6746, 1647.490
492.1567, 1638.004
492.6388, 1633.302
493.1209, 1632.851
493.6030, 1632.588
494.0851, 1631.990
494.5673, 1631.248
495.0494, 1630.132
495.5315, 1628.976
496.0136, 1629.028
496.4957, 1632.100
496.9778, 1635.955
497.4600, 1637.791
497.9421, 1637.827
498.4242, 1638.391
498.9063, 1640.135
499.3884, 1643.451
499.8705, 1649.236
500.3527, 1659.188
500.8348, 1667.703
501.3169, 1672.146
501.7990, 1674.011
502.2811, 1675.410
502.7632, 1676.016
503.2454, 1676.924
503.7275, 1679.254
504.2096, 1682.670
504.6917, 1683.299
505.1738, 1680.166
505.6559, 1675.631
506.1381, 1670.865
506.6202, 1665.925
507.1023, 1660.706
507.5844, 1655.426
508.0665, 1649.536
508.5486, 1642.305
509.0308, 1633.676
509.5129, 1624.356
509.9950, 1614.266
510.4771, 1603.747
510.9592, 1593.265
511.4413, 1582.846
511.9235, 1572.566
512.4056, 1562.237
512.8877, 1552.158
513.3698, 1542.490
513.8519, 1533.209
514.3340, 1524.770
514.8162, 1518.374
515.2983, 1512.699
515.7804, 1506.085
516.2625, 1496.451
516.7446, 1487.833
517.2267, 1482.654
517.7089, 1479.788
518.1910, 1476.508
518.6731, 1471.530
519.1552, 1466.737
519.6373, 1462.767
520.1194, 1459.605
520.6016, 1457.155
521.0837, 1455.848
521.5658, 1454.779
522.0479, 1453.265
522.5300, 1451.137
523.0121, 1449.170
523.4943, 1447.422
523.9764, 1445.830
524.4585, 1444.295
524.9406, 1442.839
525.4227, 1441.402
525.9048, 1439.775
526.3870, 1438.258
526.8691, 1437.953
527.3513, 1438.756
527.8334, 1439.096
528.3155, 1436.619
528.7976, 1433.419
529.2797, 1433.172
529.7618, 1436.888
530.2440, 1439.994
530.7261, 1438.014
531.2082, 1433.870
531.6903, 1431.342
532.1724, 1432.993
532.6545, 1434.981
533.1367, 1436.209
533.6188, 1436.801
534.1009, 1437.276
534.5830, 1436.588
535.0651, 1436.913
535.5472, 1439.468
536.0294, 1444.863
536.5115, 1448.078
536.9936, 1447.855
537.4757, 1447.224
537.9578, 1448.919
538.4399, 1453.415
538.9221, 1457.202
539.4042, 1459.663
539.8863, 1461.796
540.3684, 1465.975
540.8505, 1471.949
541.3326, 1476.666
541.8148, 1478.116
542.2969, 1477.999
542.7790, 1479.413
543.2611, 1482.190
543.7432, 1485.006
544.2253, 1487.854
544.7075, 1489.816
545.1896, 1489.769
545.6717, 1487.358
546.1538, 1484.121
546.6359, 1480.122
547.1180, 1475.977
547.6002, 1472.391
548.0823, 1471.038
548.5644, 1468.506
549.0465, 1463.056
549.5286, 1455.907
550.0107, 1450.802
550.4929, 1450.017
550.9750, 1447.770
551.4571, 1441.555
551.9392, 1431.308
552.4213, 1423.460
552.9034, 1418.354
553.3856, 1414.402
553.8677, 1410.750
554.3498, 1407.317
554.8319, 1402.991
555.3140, 1397.497
555.7961, 1391.684
556.2783, 1386.344
556.7604, 1381.595
557.2425, 1377.934
557.7246, 1376.524
558.2067, 1375.265
558.6888, 1372.208
559.1710, 1367.625
559.6531, 1362.402
560.1352, 1355.311
560.6173, 1349.084
561.0994, 1345.955
561.5815, 1346.498
562.0637, 1346.315
562.5458, 1343.570
563.0279, 1340.429
563.5100, 1338.460
563.9921, 1338.429
564.4742, 1338.211
564.9564, 1337.747
565.4385, 1337.053
565.9206, 1336.057
566.4027, 1334.632
566.8848, 1333.520
567.3669, 1333.078
567.8491, 1333.017
568.3312, 1332.361
568.8133, 1331.135
569.2954, 1329.908
569.7775, 1329.081
570.2596, 1328.508
570.7418, 1327.931
571.2239, 1327.332
571.7060, 1326.832
572.1881, 1326.971
572.6702, 1327.072
573.1523, 1326.215
573.6345, 1323.141
574.1166, 1320.985
574.5987, 1321.768
575.0808, 1324.066
575.5629, 1325.530
576.0450, 1324.617
576.5272, 1324.125
577.0093, 1324.860
577.4914, 1326.558
577.9735, 1327.523
578.4556, 1327.675
578.9377, 1327.262
579.4199, 1326.151
579.9020, 1324.344
580.3841, 1323.353
580.8662, 1323.276
581.3483, 1323.579
581.8304, 1323.999
582.3126, 1324.402
582.7947, 1324.218
583.2768, 1323.207
583.7589, 1321.997
584.2410, 1321.344
584.7231, 1320.961
585.2053, 1320.288
585.6874, 1318.174
586.1696, 1316.512
586.6517, 1316.745
587.1338, 1318.408
587.6159, 1319.489
588.0980, 1319.428
588.5801, 1318.659
589.0623, 1317.085
589.5444, 1314.490
590.0265, 1312.676
