##NAMES=Zircon
##RRUFFID=R050203
##IDEAL CHEMISTRY=Zr^4+^SiO_4_
##LOCALITY=Eastern Thailand
##OWNER=RRUFF
##SOURCE=Eric Van Valkenburg
##DESCRIPTION=Dark red water-worn single crystal
##STATUS=The identification of this mineral has been confirmed by X-ray diffraction and chemical analysis
##URL=rruff.info/R050203
##MEASURED CHEMISTRY=(Zr_0.99_Hf_0.01_)_Î£=1_Si_1.00_O_4_
93.77539, 5.545409
94.25751, 5.666855
94.73962, 5.535199
95.22174, 5.230331
95.70386, 5.041973
96.18597, 5.135320
96.66809, 5.435571
97.15021, 5.689134
97.63232, 5.885947
98.11444, 6.084355
98.59656, 6.354259
99.07867, 6.696915
99.56079, 7.094928
100.0429, 7.569817
100.5250, 8.121458
101.0071, 8.591443
101.4893, 8.933870
101.9714, 9.231414
102.4535, 9.675890
102.9356, 10.31096
103.4177, 10.97977
103.8998, 11.55542
104.3820, 11.95521
104.8641, 12.55856
105.3462, 13.49787
105.8283, 14.68162
106.3104, 15.65383
106.7925, 16.35233
107.2747, 16.89696
107.7568, 17.35365
108.2389, 17.66278
108.7210, 17.97811
109.2031, 18.33095
109.6852, 18.72871
110.1674, 19.07771
110.6495, 19.12680
111.1316, 19.24772
111.6137, 19.75794
112.0958, 20.91280
112.5779, 22.22110
113.0601, 23.66726
113.5422, 25.33084
114.0243, 26.78039
114.5064, 27.83872
114.9885, 28.67846
115.4706, 29.52844
115.9528, 30.38313
116.4349, 31.29810
116.9170, 32.28823
117.3991, 33.38317
117.8812, 34.51847
118.3633, 35.86106
118.8455, 37.22943
119.3276, 38.26334
119.8097, 38.39826
120.2918, 38.39642
120.7739, 38.82774
121.2560, 39.94247
121.7382, 41.23904
122.2203, 42.53968
122.7024, 43.80525
123.1845, 44.90490
123.6666, 45.78273
124.1487, 46.44364
124.6309, 46.87884
125.1130, 46.92840
125.5951, 46.90904
126.0772, 47.09700
126.5593, 47.48872
127.0414, 48.05214
127.5236, 48.80876
128.0057, 49.71650
128.4878, 50.70658
128.9699, 51.74660
129.4520, 52.84938
129.9341, 54.02823
130.4162, 55.28313
130.8984, 56.61452
131.3805, 58.09608
131.8626, 59.68835
132.3447, 61.18649
132.8268, 62.41228
133.3089, 63.46496
133.7911, 64.58792
134.2732, 65.61070
134.7553, 66.51462
135.2374, 67.40649
135.7195, 68.29179
136.2016, 69.15866
136.6838, 69.99400
137.1659, 70.79611
137.6480, 71.62817
138.1301, 72.50369
138.6122, 73.40012
139.0943, 74.34427
139.5765, 75.39257
140.0586, 76.27509
140.5407, 76.75461
141.0228, 76.67613
141.5049, 77.06319
141.9870, 78.11852
142.4692, 79.56780
142.9513, 80.50710
143.4334, 80.55598
143.9155, 80.83614
144.3976, 82.12476
144.8797, 85.16745
145.3619, 87.33717
145.8440, 88.15954
146.3261, 87.92080
146.8082, 88.04604
147.2903, 88.91699
147.7724, 89.73928
148.2546, 90.02554
148.7367, 89.45666
149.2188, 88.83146
149.7009, 88.20652
150.1830, 87.58336
150.6651, 86.97740
151.1473, 86.30306
151.6294, 85.70249
152.1115, 85.28391
152.5936, 85.31927
153.0757, 85.23935
153.5578, 84.93185
154.0400, 84.38438
154.5221, 83.88770
155.0042, 83.34844
155.4863, 82.90921
155.9684, 82.69099
156.4505, 83.17886
156.9327, 83.42768
157.4148, 83.02926
157.8969, 81.85827
158.3790, 81.03667
158.8611, 81.01397
159.3432, 81.36195
159.8254, 81.60369
160.3075, 81.47307
160.7896, 81.34547
161.2717, 81.44286
161.7538, 81.86375
162.2359, 82.05714
162.7181, 81.65462
163.2002, 80.95330
163.6823, 80.36475
164.1644, 80.04482
164.6465, 79.86965
165.1286, 79.79403
165.6108, 79.83203
166.0929, 79.88548
166.5750, 79.90269
167.0571, 79.90050
167.5392, 79.91012
168.0213, 79.83578
168.5035, 79.84016
168.9856, 80.15662
169.4677, 81.00307
169.9498, 81.59484
170.4319, 81.13045
170.9140, 79.98283
171.3962, 79.03140
171.8783, 78.76583
172.3604, 78.91683
172.8425, 79.28111
173.3246, 79.94336
173.8067, 80.53465
174.2889, 80.63410
174.7710, 80.37016
175.2531, 80.14771
175.7352, 80.19634
176.2173, 80.44101
176.6994, 80.78364
177.1816, 81.20786
177.6637, 81.72321
178.1458, 82.31943
178.6279, 83.00996
179.1100, 83.83240
179.5921, 84.35519
180.0743, 85.07951
180.5564, 86.92570
181.0385, 90.04785
181.5206, 94.44164
182.0027, 100.0259
182.4848, 106.8086
182.9670, 114.8634
183.4491, 126.2640
183.9312, 139.2852
184.4133, 148.6651
184.8954, 152.5142
185.3775, 153.0819
185.8597, 153.9532
186.3418, 155.1270
186.8239, 156.7005
187.3060, 158.4937
187.7881, 160.6755
188.2702, 163.9241
188.7523, 168.5310
189.2345, 174.2455
189.7166, 180.7415
190.1987, 188.1146
190.6808, 195.6088
191.1629, 202.0778
191.6451, 207.7803
192.1272, 214.8503
192.6093, 224.1159
193.0914, 235.0488
193.5735, 245.8617
194.0556, 256.5084
194.5378, 268.1672
195.0199, 281.0216
195.5020, 295.1343
195.9841, 312.9201
196.4662, 333.9687
196.9483, 359.1656
197.4305, 390.3418
197.9126, 425.9278
198.3947, 473.9177
198.8768, 538.4479
199.3589, 619.3280
199.8410, 723.8332
200.3232, 851.2194
200.8053, 1002.492
201.2874, 1224.217
201.7695, 1555.888
202.2516, 1835.280
202.7337, 1876.263
203.2159, 1656.245
203.6980, 1377.266
204.1801, 1055.803
204.6622, 705.5149
205.1443, 467.4246
205.6264, 358.3973
206.1086, 320.7564
206.5907, 302.5634
207.0728, 306.7351
207.5549, 315.6889
208.0370, 325.6055
208.5191, 336.5981
209.0013, 350.2769
209.4834, 365.8445
209.9655, 385.5549
210.4476, 411.4862
210.9297, 443.1520
211.4118, 482.1937
211.8940, 529.0524
212.3761, 583.7170
212.8582, 648.3503
213.3403, 728.0229
213.8224, 810.0554
214.3045, 886.1076
214.7867, 967.7393
215.2688, 1009.064
215.7509, 990.8834
216.2330, 913.8719
216.7151, 842.8419
217.1972, 772.7933
217.6794, 715.3138
218.1615, 683.2559
218.6436, 678.3556
219.1257, 693.5651
219.6078, 726.6161
220.0899, 777.5529
220.5721, 849.7645
221.0542, 940.7756
221.5363, 1055.398
222.0184, 1196.698
222.5005, 1366.044
222.9826, 1564.103
223.4648, 1800.047
223.9469, 2077.945
224.4290, 2326.488
224.9111, 2596.138
225.3932, 2781.364
225.8753, 2766.898
226.3575, 2485.395
226.8396, 2143.645
227.3217, 1760.527
227.8038, 1329.408
228.2859, 985.7109
228.7680, 746.2633
229.2502, 574.6149
229.7323, 443.7164
230.2144, 363.7030
230.6965, 301.6584
231.1786, 254.2956
231.6607, 221.5880
232.1429, 194.0612
232.6250, 172.6479
233.1071, 155.3480
233.5892, 140.8714
234.0713, 130.0510
234.5534, 120.4097
235.0356, 111.5303
235.5177, 103.5023
235.9998, 96.97958
236.4819, 92.28539
236.9640, 88.65621
237.4461, 85.53006
237.9283, 83.25280
238.4104, 80.78319
238.8925, 77.82877
239.3746, 74.42416
239.8567, 71.58747
240.3388, 69.45840
240.8210, 67.70290
241.3031, 66.05815
241.7852, 64.44171
242.2673, 63.12309
242.7494, 62.26604
243.2315, 61.81176
243.7137, 61.10308
244.1958, 59.95921
244.6779, 58.77752
245.1600, 57.82475
245.6421, 57.10081
246.1242, 56.62730
246.6064, 56.55302
247.0885, 56.78155
247.5706, 56.60607
248.0527, 55.78263
248.5348, 54.88013
249.0169, 54.27376
249.4990, 54.06243
249.9812, 53.91346
250.4633, 53.79015
250.9454, 53.70749
251.4275, 53.76654
251.9096, 54.10663
252.3917, 54.38526
252.8739, 54.36513
253.3560, 53.85359
253.8381, 53.50454
254.3202, 53.33312
254.8023, 53.35268
255.2844, 53.64938
255.7666, 54.37585
256.2487, 55.12263
256.7308, 55.62337
257.2129, 55.68350
257.6950, 56.07082
258.1772, 57.02167
258.6593, 58.23993
259.1414, 58.86488
259.6235, 58.49203
260.1056, 58.26719
260.5877, 58.77748
261.0699, 60.30592
261.5520, 61.69279
262.0341, 63.04329
262.5162, 64.17749
262.9983, 64.65570
263.4804, 64.20061
263.9626, 63.69707
264.4447, 63.53482
264.9268, 63.82500
265.4089, 63.96278
265.8910, 63.95321
266.3731, 63.79027
266.8553, 63.41311
267.3374, 62.72610
267.8195, 62.09480
268.3016, 61.63029
268.7837, 61.31572
269.2658, 61.29841
269.7480, 61.68340
270.2301, 62.22218
270.7122, 62.56403
271.1943, 62.68494
271.6764, 62.68954
272.1585, 62.56327
272.6407, 62.30499
273.1228, 62.18357
273.6049, 62.23274
274.0870, 62.35464
274.5691, 62.44718
275.0512, 62.51012
275.5334, 62.53474
276.0155, 62.51014
276.4976, 62.44045
276.9797, 62.34722
277.4618, 62.19584
277.9439, 62.11615
278.4261, 62.22635
278.9081, 62.52644
279.3903, 63.02488
279.8724, 63.81226
280.3545, 64.78745
280.8366, 65.41937
281.3187, 65.61015
281.8008, 65.89143
282.2830, 66.78042
282.7651, 68.28779
283.2472, 69.80230
283.7293, 71.20151
284.2114, 72.55598
284.6935, 74.00964
285.1757, 75.56046
285.6578, 77.28278
286.1399, 79.27022
286.6220, 81.50768
287.1041, 83.87083
287.5862, 86.47458
288.0684, 89.01145
288.5505, 90.79906
289.0326, 91.84606
289.5147, 92.46624
289.9968, 92.83316
290.4789, 92.93455
290.9611, 92.69491
291.4432, 92.09730
291.9253, 91.18436
292.4074, 90.04237
292.8895, 88.65650
293.3716, 86.98610
293.8538, 84.71399
294.3359, 82.10803
294.8180, 80.07581
295.3001, 78.73779
295.7822, 77.65919
296.2643, 76.23183
296.7465, 74.57546
297.2286, 73.21183
297.7107, 72.40697
298.1928, 72.03413
298.6749, 71.88217
299.1570, 71.95422
299.6392, 72.14819
300.1213, 72.42164
300.6034, 72.74268
301.0855, 73.00671
301.5676, 73.01250
302.0497, 73.04664
302.5319, 73.61829
303.0140, 74.70238
303.4961, 75.82063
303.9782, 76.53979
304.4603, 77.04540
304.9424, 77.70296
305.4246, 78.69059
305.9067, 79.77235
306.3888, 80.76559
306.8709, 81.64956
307.3530, 82.34750
307.8351, 82.84809
308.3173, 83.10937
308.7994, 83.03629
309.2815, 82.48531
309.7636, 81.85686
310.2457, 81.40246
310.7278, 81.11060
311.2100, 80.96342
311.6921, 80.91561
312.1742, 81.02830
312.6563, 81.40044
313.1384, 82.10818
313.6205, 82.83106
314.1027, 83.31158
314.5848, 83.69363
315.0669, 84.22988
315.5490, 85.21364
316.0311, 86.24794
316.5132, 87.05909
316.9954, 87.61046
317.4775, 88.14425
317.9596, 88.64024
318.4417, 89.21204
318.9238, 89.99631
319.4059, 91.08463
319.8881, 92.34512
320.3702, 93.78531
320.8523, 95.39828
321.3344, 96.94702
321.8165, 98.30878
322.2986, 99.60670
322.7808, 100.9344
323.2629, 102.0373
323.7450, 103.4657
324.2271, 105.6097
324.7092, 108.2727
325.1913, 110.5463
325.6735, 111.7246
326.1556, 112.8971
326.6377, 114.6096
327.1198, 117.0906
327.6019, 119.8482
328.0840, 122.9717
328.5662, 126.3461
329.0483, 129.7684
329.5304, 133.0838
330.0125, 136.5569
330.4946, 140.2750
330.9767, 144.2858
331.4589, 148.3735
331.9410, 151.9441
332.4231, 155.8786
332.9052, 161.3960
333.3873, 168.8549
333.8694, 177.4135
334.3516, 186.6099
334.8337, 196.3836
335.3158, 208.0197
335.7979, 220.5617
336.2800, 235.9621
336.7621, 255.8378
337.2443, 280.8389
337.7264, 309.0780
338.2085, 340.8938
338.6906, 375.7403
339.1727, 412.7780
339.6548, 453.3141
340.1370, 493.1424
340.6191, 529.8584
341.1012, 562.4669
341.5833, 594.5209
342.0654, 625.5535
342.5475, 656.5627
343.0297, 689.2051
343.5118, 723.0262
343.9939, 759.8157
344.4760, 799.7479
344.9581, 842.4471
345.4402, 890.4072
345.9224, 943.0574
346.4045, 1001.653
346.8866, 1065.569
347.3687, 1135.651
347.8508, 1215.207
348.3329, 1303.009
348.8151, 1401.713
349.2972, 1516.042
349.7793, 1645.013
350.2614, 1797.936
350.7435, 1973.272
351.2256, 2176.276
351.7078, 2426.493
352.1899, 2728.857
352.6720, 3079.562
353.1541, 3481.968
353.6362, 3936.878
354.1183, 4427.101
354.6005, 4975.324
355.0826, 5539.626
355.5647, 6095.155
356.0468, 6677.835
356.5289, 7128.797
357.0110, 7364.362
357.4932, 7371.299
357.9753, 7118.438
358.4574, 6442.614
358.9395, 5594.922
359.4216, 4738.442
359.9037, 3877.534
360.3859, 3112.454
360.8680, 2514.902
361.3501, 2047.362
361.8322, 1668.311
362.3143, 1395.310
362.7964, 1178.627
363.2786, 1007.092
363.7607, 878.1075
364.2428, 770.3113
364.7249, 684.8791
365.2070, 614.3004
365.6891, 553.9268
366.1713, 506.3646
366.6534, 464.3830
367.1355, 428.0792
367.6176, 396.7309
368.0997, 368.8306
368.5818, 344.6877
369.0640, 323.5724
369.5461, 305.2321
370.0282, 290.2532
370.5103, 276.5089
370.9924, 264.1418
371.4745, 252.8580
371.9567, 242.2130
372.4388, 231.9931
372.9209, 222.8683
373.4030, 214.8826
373.8851, 208.0065
374.3672, 202.5669
374.8494, 199.1337
375.3315, 196.2814
375.8136, 192.7463
376.2957, 188.0185
376.7778, 184.2474
377.2599, 181.9256
377.7421, 180.6268
378.2242, 178.9473
378.7063, 176.7468
379.1884, 174.7841
379.6705, 173.6420
380.1526, 173.3172
380.6348, 172.7684
381.1169, 171.8890
381.5990, 170.9620
382.0811, 170.2857
382.5632, 169.8761
383.0453, 169.8953
383.5275, 170.3874
384.0096, 171.3661
384.4917, 172.9077
384.9738, 175.0199
385.4559, 177.4951
385.9380, 180.0705
386.4202, 182.8813
386.9023, 186.3079
387.3844, 190.5960
387.8665, 195.3753
388.3486, 200.2728
388.8307, 205.2990
389.3129, 210.4967
389.7950, 215.9251
390.2771, 221.5320
390.7592, 227.3404
391.2413, 233.4628
391.7234, 239.1482
392.2056, 244.5004
392.6877, 248.8892
393.1698, 251.4298
393.6519, 251.0903
394.1340, 249.3904
394.6161, 246.9099
395.0983, 243.6921
395.5804, 240.0224
396.0625, 235.5545
396.5446, 230.9316
397.0267, 226.6216
397.5089, 221.9390
397.9910, 218.5085
398.4731, 217.2356
398.9552, 217.5076
399.4373, 217.4870
399.9194, 216.2927
400.4016, 215.3951
400.8837, 215.2632
401.3658, 215.8806
401.8479, 217.3151
402.3300, 219.8931
402.8121, 223.0830
403.2942, 226.1591
403.7763, 228.5010
404.2585, 231.9312
404.7406, 236.8118
405.2227, 243.1036
405.7048, 250.2306
406.1869, 258.0201
406.6690, 266.8632
407.1512, 276.9454
407.6333, 288.2383
408.1154, 301.1182
408.5975, 315.9664
409.0796, 331.9937
409.5617, 348.0385
410.0439, 364.0671
410.5260, 381.4696
411.0081, 401.3105
411.4902, 423.0490
411.9723, 444.9555
412.4544, 467.0967
412.9366, 490.2557
413.4187, 516.2076
413.9008, 544.4494
414.3829, 573.3493
414.8650, 604.3681
415.3471, 633.9951
415.8293, 661.5640
416.3114, 685.3342
416.7935, 695.8439
417.2756, 683.5157
417.7577, 656.8563
418.2398, 622.1168
418.7220, 577.2474
419.2041, 536.2057
419.6862, 504.8620
420.1683, 482.7688
420.6504, 469.9107
421.1325, 468.1701
421.6147, 473.3702
422.0968, 484.9732
422.5789, 502.8139
423.0610, 522.7192
423.5431, 544.6970
424.0252, 567.7773
424.5074, 591.6848
424.9895, 613.8318
425.4716, 639.4102
425.9537, 669.6946
426.4358, 703.7173
426.9179, 739.2645
427.4001, 774.4547
427.8822, 813.9553
428.3643, 858.4470
428.8464, 907.3514
429.3285, 965.1290
429.8106, 1031.630
430.2928, 1106.834
430.7749, 1190.759
431.2570, 1281.699
431.7391, 1386.430
432.2212, 1504.475
432.7033, 1637.957
433.1855, 1793.164
433.6676, 1970.092
434.1497, 2168.597
434.6318, 2389.303
435.1139, 2631.755
435.5960, 2894.722
436.0782, 3182.164
436.5603, 3483.825
437.0424, 3803.678
437.5245, 4130.049
438.0066, 4421.177
438.4887, 4693.034
438.9709, 4897.290
439.4530, 4974.937
439.9351, 4927.330
440.4172, 4765.700
440.8993, 4443.807
441.3814, 4037.107
441.8636, 3613.771
442.3457, 3170.243
442.8278, 2759.676
443.3099, 2405.781
443.7920, 2107.526
444.2741, 1855.661
444.7563, 1665.142
445.2384, 1507.598
445.7205, 1376.494
446.2026, 1271.308
446.6847, 1181.764
447.1668, 1113.169
447.6490, 1055.743
448.1311, 1003.525
448.6132, 959.5513
449.0953, 916.8843
449.5774, 876.7676
450.0595, 837.8904
450.5417, 797.4925
451.0238, 754.7348
451.5059, 712.6996
451.9880, 672.2585
452.4701, 633.0981
452.9522, 595.6175
453.4344, 558.9199
453.9165, 524.6936
454.3986, 494.3045
454.8807, 467.7330
455.3628, 443.2393
455.8449, 420.4806
456.3271, 399.2950
456.8092, 379.0982
457.2913, 359.7724
457.7734, 342.1540
458.2555, 326.1745
458.7376, 312.1987
459.2198, 300.9444
459.7019, 292.5595
460.1840, 285.6634
460.6661, 279.2881
461.1482, 273.5110
461.6303, 268.5876
462.1125, 264.7227
462.5946, 261.5509
463.0767, 258.8867
463.5588, 256.7296
464.0409, 255.1512
464.5230, 254.6005
465.0052, 254.3263
465.4873, 253.8261
465.9694, 252.9365
466.4515, 252.4799
466.9336, 252.5179
467.4157, 253.1499
467.8979, 254.4694
468.3800, 256.9725
468.8621, 259.6027
469.3442, 262.5602
469.8263, 265.6021
470.3084, 267.8177
470.7906, 269.0562
471.2727, 269.6879
471.7548, 270.1471
472.2369, 270.7744
472.7190, 268.9161
473.2011, 264.1553
473.6833, 257.6810
474.1654, 250.8223
474.6475, 243.6008
475.1296, 235.3513
475.6117, 225.4359
476.0938, 214.8488
476.5760, 206.0645
477.0581, 198.9756
477.5402, 192.7809
478.0223, 187.0403
478.5044, 181.8339
478.9865, 177.3406
479.4687, 173.5813
479.9508, 170.4080
480.4329, 167.7919
480.9150, 165.6833
481.3971, 164.0497
481.8792, 163.2240
482.3614, 162.4855
482.8435, 161.3167
483.3256, 159.8714
483.8077, 158.6354
484.2898, 158.4209
484.7719, 157.9720
485.2541, 156.4961
485.7362, 153.6112
486.2183, 151.0891
486.7004, 149.5141
487.1825, 148.2177
487.6646, 146.5552
488.1468, 144.3061
488.6289, 142.0739
489.1110, 139.7601
489.5931, 137.5294
490.0752, 135.9845
490.5573, 135.4262
491.0395, 134.7982
491.5216, 133.5360
492.0037, 131.6076
492.4858, 129.9955
492.9679, 128.6903
493.4500, 127.6536
493.9322, 126.8937
494.4143, 126.3873
494.8964, 125.9768
495.3785, 125.4949
495.8606, 125.3190
496.3427, 126.2845
496.8249, 128.1246
497.3070, 129.8580
497.7891, 130.4648
498.2712, 130.9427
498.7533, 132.2959
499.2354, 134.5905
499.7176, 137.4482
500.1997, 140.5709
500.6818, 144.1880
501.1639, 148.4763
501.6460, 153.3394
502.1281, 159.1565
502.6103, 166.2575
503.0924, 174.4009
503.5745, 182.9606
504.0566, 191.3488
504.5387, 200.5843
505.0208, 211.1105
505.5030, 222.9571
505.9851, 234.5633
506.4672, 246.6453
506.9493, 257.4040
507.4314, 266.0345
507.9135, 273.1805
508.3957, 275.5636
508.8778, 272.8752
509.3599, 265.5828
509.8420, 253.1836
510.3241, 235.8348
510.8062, 218.2969
511.2884, 201.8652
511.7705, 186.7755
512.2526, 174.0527
512.7347, 163.5590
513.2168, 154.4070
513.6989, 146.0642
514.1810, 138.6255
514.6631, 132.3671
515.1453, 127.4447
515.6274, 123.0256
516.1095, 118.2402
516.5916, 113.6429
517.0737, 109.9734
517.5558, 108.1204
518.0380, 106.5826
518.5201, 104.8426
519.0022, 102.9704
519.4843, 101.3255
519.9664, 100.0661
520.4485, 98.97902
520.9307, 98.01717
521.4128, 97.22063
521.8949, 96.35229
522.3770, 95.32742
522.8591, 94.32363
523.3412, 93.49355
523.8234, 92.84914
524.3055, 92.39912
524.7876, 92.17790
525.2697, 92.11662
525.7518, 92.05910
526.2339, 92.00539
526.7161, 92.01801
527.1982, 92.23531
527.6803, 92.52687
528.1624, 92.57378
528.6445, 92.37751
529.1266, 91.96757
529.6088, 91.31461
530.0909, 90.47518
530.5730, 89.51836
531.0551, 88.40611
531.5372, 87.29269
532.0193, 86.21169
532.5015, 85.18002
532.9836, 84.23902
533.4657, 83.51490
533.9478, 82.75660
534.4299, 81.80862
534.9120, 80.70895
535.3942, 79.74776
535.8763, 78.83085
536.3584, 78.19320
536.8405, 77.98547
537.3226, 78.32457
537.8047, 78.63744
538.2869, 78.90662
538.7690, 79.17216
539.2511, 79.41441
539.7332, 79.59831
540.2153, 80.09531
540.6974, 81.02209
541.1796, 82.22330
541.6617, 83.50114
542.1438, 84.82876
542.6259, 85.98991
543.1080, 86.71585
543.5901, 87.26208
544.0723, 88.05800
544.5544, 89.09531
545.0365, 90.19520
545.5186, 91.44955
546.0007, 92.58180
546.4828, 93.27617
546.9650, 93.36018
547.4471, 93.29244
547.9292, 93.52366
548.4113, 93.64021
548.8934, 93.07091
549.3755, 90.96373
549.8577, 88.98724
550.3398, 87.44142
550.8219, 86.28191
551.3040, 85.34056
551.7861, 84.71133
552.2682, 84.11761
552.7504, 83.40101
553.2325, 82.53212
553.7146, 81.93483
554.1967, 81.68575
554.6788, 81.47395
555.1609, 80.95014
555.6431, 80.16076
556.1252, 79.37711
556.6073, 78.64359
557.0894, 77.94748
557.5715, 77.24087
558.0536, 76.55322
558.5358, 75.96757
559.0179, 75.69142
559.5000, 75.41599
559.9821, 74.91237
560.4642, 74.18465
560.9464, 73.28767
561.4285, 71.91920
561.9106, 70.62184
562.3927, 69.77974
562.8748, 69.56843
563.3569, 69.36700
563.8391, 69.21249
564.3212, 68.96504
564.8033, 68.45691
565.2854, 67.38557
565.7675, 66.66332
566.2496, 66.43250
566.7318, 66.57073
567.2139, 66.85307
567.6960, 67.32744
568.1781, 67.63116
568.6602, 67.58341
569.1423, 67.25810
569.6245, 66.89345
570.1066, 66.48629
570.5887, 66.08834
571.0708, 65.60526
571.5529, 65.18734
572.0350, 65.16167
572.5172, 65.63218
572.9993, 66.08907
573.4814, 66.19643
573.9635, 66.06477
574.4456, 65.82630
574.9277, 65.37625
575.4099, 64.98791
575.8920, 64.73650
576.3741, 64.60098
576.8562, 64.52050
577.3383, 64.47724
577.8204, 64.50536
578.3026, 64.67641
578.7847, 64.98177
579.2668, 65.02562
579.7489, 64.71427
580.2310, 64.36899
580.7131, 64.21471
581.1953, 64.24917
581.6774, 64.31214
582.1595, 64.41444
582.6416, 64.46320
583.1237, 64.24428
583.6058, 63.87312
584.0880, 63.69392
584.5701, 63.85754
585.0522, 64.16061
585.5343, 64.44978
586.0164, 64.72216
586.4985, 64.96658
586.9807, 65.32879
587.4628, 65.53152
587.9449, 65.21896
588.4270, 64.43277
588.9091, 64.13554
589.3912, 65.01269
589.8734, 66.01369
590.3555, 66.60713
590.8376, 66.62770
591.3197, 66.76123
