##NAMES=Zircon
##RRUFFID=R100128
##IDEAL CHEMISTRY=Zr^4+^SiO_4_
##LOCALITY=Cambodia
##OWNER=RRUFF
##SOURCE=William W. Pinch
##DESCRIPTION=Blue cut gemstone
##STATUS=The identification of this mineral has been confirmed by single-crystal X-ray diffraction.
##URL=rruff.info/R100128
91.03516, 28.56307
91.51727, 28.19441
91.99939, 28.53202
92.48151, 29.34618
92.96362, 29.98586
93.44574, 29.89662
93.92786, 29.42047
94.40997, 29.40051
94.89210, 30.02676
95.37421, 30.71013
95.85633, 30.28140
96.33845, 28.80353
96.82056, 27.63318
97.30268, 27.98638
97.78480, 29.67604
98.26691, 30.80903
98.74903, 31.10489
99.23115, 30.72893
99.71326, 30.03124
100.1954, 28.94727
100.6775, 27.81572
101.1596, 26.81735
101.6417, 25.89774
102.1239, 25.43811
102.6060, 25.61279
103.0881, 26.38177
103.5702, 27.03025
104.0523, 27.53660
104.5344, 27.95602
105.0166, 28.35101
105.4987, 28.71567
105.9808, 29.06452
106.4629, 29.43184
106.9450, 29.87164
107.4271, 30.09988
107.9093, 30.12860
108.3914, 29.94374
108.8735, 29.51066
109.3556, 28.24595
109.8377, 27.28225
110.3198, 26.97846
110.8020, 27.79122
111.2841, 28.38489
111.7662, 28.96270
112.2483, 29.29776
112.7304, 28.90482
113.2125, 26.65668
113.6947, 24.41426
114.1768, 23.07099
114.6589, 23.10009
115.1410, 23.52963
115.6231, 24.29651
116.1052, 25.32908
116.5874, 26.37643
117.0695, 27.96511
117.5516, 29.22464
118.0337, 29.47249
118.5158, 27.25362
118.9980, 25.12258
119.4801, 24.39983
119.9622, 24.98190
120.4443, 25.59028
120.9264, 25.51638
121.4085, 25.05997
121.8907, 24.58819
122.3728, 23.95510
122.8549, 23.54661
123.3370, 23.85053
123.8191, 24.90845
124.3012, 25.97046
124.7834, 26.56248
125.2655, 26.71804
125.7476, 26.50759
126.2297, 25.36599
126.7118, 24.06441
127.1939, 23.90274
127.6761, 25.11739
128.1582, 26.68675
128.6403, 27.43724
129.1224, 27.49871
129.6045, 27.49777
130.0867, 27.71720
130.5688, 28.14794
131.0509, 28.81148
131.5330, 29.80958
132.0151, 30.84121
132.4972, 31.34427
132.9794, 31.31798
133.4615, 31.16553
133.9436, 31.11514
134.4257, 31.16438
134.9078, 31.24775
135.3899, 31.27057
135.8721, 31.38708
136.3542, 32.11946
136.8363, 33.55932
137.3184, 35.21510
137.8005, 36.76037
138.2826, 38.23014
138.7648, 39.36480
139.2469, 39.86379
139.7290, 39.92805
140.2111, 41.10583
140.6932, 43.71196
141.1753, 46.86510
141.6575, 49.75842
142.1396, 52.41883
142.6217, 54.81325
143.1038, 56.86330
143.5859, 58.56590
144.0681, 60.38134
144.5502, 62.50435
145.0323, 64.58153
145.5144, 66.22938
145.9965, 67.26937
146.4786, 68.12660
146.9608, 68.77958
147.4429, 69.08089
147.9250, 69.84288
148.4071, 70.97029
148.8892, 72.59632
149.3713, 74.89968
149.8535, 78.58049
150.3356, 82.27978
150.8177, 85.65611
151.2998, 88.63386
151.7819, 91.43897
152.2640, 93.64625
152.7462, 95.73215
153.2283, 98.50745
153.7104, 102.8728
154.1925, 107.2434
154.6746, 111.0723
155.1567, 114.2257
155.6389, 116.9027
156.1210, 118.6788
156.6031, 119.9707
157.0852, 121.8224
157.5673, 125.0429
158.0495, 128.4398
158.5316, 131.4916
159.0137, 134.2519
159.4958, 136.4116
159.9779, 137.7051
160.4600, 138.3039
160.9422, 138.7682
161.4243, 139.1672
161.9064, 139.5628
162.3885, 139.9588
162.8706, 139.8287
163.3527, 140.3252
163.8349, 142.4132
164.3170, 145.7484
164.7991, 148.6855
165.2812, 149.8077
165.7633, 150.4606
166.2454, 151.8711
166.7276, 155.0592
167.2097, 158.5203
167.6918, 161.3747
168.1739, 163.6707
168.6560, 166.0270
169.1381, 168.5602
169.6203, 171.3602
170.1024, 173.4460
170.5845, 176.7681
171.0666, 179.7651
171.5487, 180.1342
172.0309, 178.0890
172.5130, 176.2534
172.9951, 176.4774
173.4772, 178.0743
173.9593, 179.9936
174.4414, 182.2134
174.9236, 184.3389
175.4057, 185.9605
175.8878, 187.0987
176.3699, 187.7358
176.8520, 187.1936
177.3341, 186.1224
177.8163, 185.9521
178.2984, 187.4528
178.7805, 190.1233
179.2626, 192.9778
179.7447, 195.8406
180.2268, 199.9575
180.7090, 205.2491
181.1911, 212.4286
181.6732, 223.8735
182.1553, 241.1461
182.6374, 263.2814
183.1195, 289.7860
183.6017, 322.0529
184.0838, 352.4448
184.5659, 372.8195
185.0480, 384.0661
185.5301, 391.4222
186.0123, 394.3465
186.4944, 395.0055
186.9765, 400.3442
187.4586, 411.0065
187.9407, 424.8878
188.4228, 439.2402
188.9050, 454.0777
189.3871, 470.5888
189.8692, 489.2374
190.3513, 509.8360
190.8334, 531.9798
191.3155, 555.3356
191.7977, 580.6562
192.2798, 609.1373
192.7619, 640.7598
193.2440, 674.7822
193.7261, 710.5029
194.2082, 748.0270
194.6904, 789.9357
195.1725, 835.6297
195.6546, 887.0680
196.1367, 945.3664
196.6188, 1010.558
197.1009, 1084.380
197.5831, 1165.884
198.0652, 1255.755
198.5473, 1358.130
199.0294, 1470.300
199.5115, 1598.955
199.9937, 1749.200
200.4758, 1913.215
200.9579, 2131.607
201.4400, 2505.808
201.9221, 3067.286
202.4042, 3338.094
202.8864, 3253.464
203.3685, 2904.851
203.8506, 2448.709
204.3327, 1845.135
204.8148, 1311.903
205.2969, 980.2230
205.7791, 870.6240
206.2612, 813.8254
206.7433, 810.8821
207.2254, 846.6841
207.7075, 885.0341
208.1896, 926.3391
208.6718, 969.3033
209.1539, 1012.424
209.6360, 1053.592
210.1181, 1102.954
210.6002, 1160.082
211.0823, 1226.147
211.5645, 1304.181
212.0466, 1394.144
212.5287, 1497.135
213.0108, 1617.367
213.4929, 1762.435
213.9750, 1902.258
214.4572, 2051.727
214.9393, 2188.332
215.4214, 2242.075
215.9035, 2187.865
216.3856, 2101.826
216.8678, 2017.079
217.3499, 1919.452
217.8320, 1865.216
218.3141, 1860.710
218.7962, 1900.084
219.2783, 1966.954
219.7605, 2060.714
220.2426, 2181.781
220.7247, 2329.383
221.2068, 2502.243
221.6889, 2702.950
222.1710, 2929.014
222.6532, 3183.130
223.1353, 3472.831
223.6174, 3829.511
224.0995, 4174.725
224.5816, 4500.749
225.0637, 4914.120
225.5459, 5037.380
226.0280, 4802.376
226.5101, 4283.622
226.9922, 3693.600
227.4743, 2949.355
227.9564, 2255.937
228.4386, 1702.889
228.9207, 1326.363
229.4028, 1027.529
229.8849, 815.9108
230.3670, 676.6555
230.8492, 565.1263
231.3313, 488.9844
231.8134, 430.4402
232.2955, 381.7628
232.7776, 345.9559
233.2597, 314.9841
233.7419, 289.3674
234.2240, 268.2701
234.7061, 250.3501
235.1882, 236.2275
235.6703, 224.3612
236.1524, 214.1825
236.6346, 206.4452
237.1167, 198.7123
237.5988, 190.5024
238.0809, 182.4407
238.5630, 175.9498
239.0451, 171.7277
239.5273, 168.0946
240.0094, 164.3941
240.4915, 160.5001
240.9736, 156.7975
241.4557, 153.0879
241.9378, 149.6257
242.4200, 147.0193
242.9021, 145.6980
243.3842, 144.5159
243.8663, 142.9990
244.3484, 140.9080
244.8306, 139.2084
245.3127, 138.0652
245.7948, 137.2398
246.2769, 136.2542
246.7590, 134.8240
247.2411, 133.7397
247.7233, 133.3767
248.2054, 134.0194
248.6875, 134.3165
249.1696, 134.1484
249.6517, 133.7166
250.1338, 133.3274
250.6160, 132.9557
251.0981, 132.6675
251.5802, 132.4340
252.0623, 132.1814
252.5444, 132.3475
253.0265, 132.9368
253.5087, 133.9411
253.9908, 135.4655
254.4729, 138.0272
254.9550, 140.0637
255.4371, 140.8925
255.9192, 140.2466
256.4014, 140.5719
256.8835, 142.2878
257.3656, 144.5607
257.8477, 146.3975
258.3298, 147.5506
258.8120, 148.8147
259.2941, 150.2886
259.7762, 151.9533
260.2583, 154.4045
260.7404, 158.0808
261.2225, 162.0234
261.7047, 165.2332
262.1868, 167.3865
262.6689, 169.6710
263.1510, 172.4310
263.6331, 175.6230
264.1152, 178.6243
264.5974, 181.4629
265.0795, 184.0346
265.5616, 186.5967
266.0437, 190.0155
266.5258, 190.5598
267.0079, 186.7312
267.4901, 179.1155
267.9722, 173.2008
268.4543, 169.2029
268.9364, 166.3571
269.4185, 164.0948
269.9006, 162.4353
270.3828, 161.3213
270.8649, 160.8895
271.3470, 160.9776
271.8291, 160.7844
272.3112, 160.2108
272.7933, 159.5981
273.2755, 159.3458
273.7576, 159.5979
274.2397, 159.1572
274.7218, 157.7055
275.2039, 155.5724
275.6860, 153.7139
276.1682, 152.1133
276.6503, 150.7854
277.1324, 149.7860
277.6145, 149.1464
278.0966, 148.6026
278.5787, 148.2260
279.0609, 147.8405
279.5430, 146.7932
280.0251, 144.9034
280.5072, 143.5324
280.9893, 143.6245
281.4715, 145.1710
281.9536, 146.6507
282.4357, 148.0590
282.9178, 149.2684
283.3999, 149.8405
283.8820, 149.7193
284.3642, 149.9278
284.8463, 151.2215
285.3284, 153.4682
285.8105, 155.0678
286.2926, 155.9531
286.7747, 156.3934
287.2569, 156.5485
287.7390, 156.4382
288.2211, 156.6519
288.7032, 157.8488
289.1853, 159.6294
289.6674, 160.1487
290.1496, 159.3205
290.6317, 157.8566
291.1138, 156.2861
291.5959, 154.6630
292.0780, 153.4105
292.5602, 152.7674
293.0423, 152.5416
293.5244, 152.3310
294.0065, 152.1445
294.4886, 151.8075
294.9707, 150.9573
295.4529, 149.7720
295.9350, 148.9372
296.4171, 148.7582
296.8992, 148.8928
297.3813, 148.5605
297.8634, 147.8296
298.3456, 147.4787
298.8277, 148.5783
299.3098, 150.4752
299.7919, 151.6177
300.2740, 151.3623
300.7561, 150.7945
301.2383, 151.5322
301.7204, 153.3085
302.2025, 154.8597
302.6846, 154.8932
303.1667, 154.3483
303.6488, 154.7209
304.1310, 156.3936
304.6131, 158.5038
305.0952, 160.5259
305.5773, 162.3383
306.0594, 163.6078
306.5415, 163.5221
307.0237, 163.1288
307.5058, 163.7861
307.9879, 165.7959
308.4700, 167.5942
308.9521, 167.4959
309.4343, 166.4196
309.9164, 165.9835
310.3985, 167.2012
310.8806, 169.1077
311.3627, 171.1965
311.8448, 173.4653
312.3270, 175.3597
312.8091, 176.2938
313.2912, 176.7532
313.7733, 177.3116
314.2554, 177.9372
314.7375, 178.9156
315.2197, 180.5497
315.7018, 182.7799
316.1839, 184.9891
316.6660, 187.0361
317.1481, 188.8848
317.6302, 190.4485
318.1124, 191.0932
318.5945, 192.2270
319.0766, 194.8002
319.5587, 198.3604
320.0408, 201.3746
320.5229, 202.3797
321.0051, 203.3946
321.4872, 205.6251
321.9693, 209.8919
322.4514, 214.1324
322.9335, 217.8027
323.4156, 221.1779
323.8978, 224.7887
324.3799, 228.5765
324.8620, 232.7446
325.3441, 237.3948
325.8262, 242.5334
326.3083, 248.0130
326.7905, 254.0193
327.2726, 260.3215
327.7547, 266.5524
328.2368, 271.8972
328.7189, 278.0585
329.2010, 285.4269
329.6832, 293.9863
330.1653, 303.1525
330.6474, 312.6509
331.1295, 322.9433
331.6116, 334.4323
332.0938, 346.4569
332.5759, 360.7263
333.0580, 376.7523
333.5401, 394.9772
334.0222, 417.3627
334.5043, 443.8122
334.9865, 474.7774
335.4686, 510.0770
335.9507, 547.7513
336.4328, 595.1951
336.9149, 652.2719
337.3970, 720.4749
337.8792, 801.7164
338.3613, 898.9337
338.8434, 1003.930
339.3255, 1116.551
339.8076, 1239.168
340.2898, 1354.180
340.7719, 1461.782
341.2540, 1563.230
341.7361, 1660.882
342.2182, 1752.264
342.7003, 1847.344
343.1825, 1946.549
343.6646, 2051.613
344.1467, 2166.901
344.6288, 2293.172
345.1109, 2430.751
345.5930, 2581.691
346.0752, 2744.512
346.5573, 2922.288
347.0394, 3116.328
347.5215, 3326.469
348.0036, 3555.285
348.4857, 3802.102
348.9679, 4073.054
349.4500, 4372.080
349.9321, 4701.894
350.4142, 5065.097
350.8963, 5460.176
351.3784, 5896.454
351.8606, 6378.207
352.3427, 6903.322
352.8248, 7477.069
353.3069, 8113.089
353.7890, 8788.429
354.2711, 9498.788
354.7533, 10247.25
355.2354, 10973.99
355.7175, 11741.99
356.1996, 12433.58
356.6817, 12843.36
357.1638, 12954.04
357.6460, 12699.60
358.1281, 11930.42
358.6102, 10680.93
359.0923, 9306.189
359.5744, 7844.076
360.0565, 6438.214
360.5387, 5228.054
361.0208, 4275.812
361.5029, 3492.872
361.9850, 2883.354
362.4671, 2423.003
362.9492, 2047.836
363.4314, 1767.790
363.9135, 1543.395
364.3956, 1356.226
364.8777, 1209.670
365.3598, 1084.281
365.8419, 980.8525
366.3241, 894.8333
366.8062, 820.2340
367.2883, 760.8091
367.7704, 708.2641
368.2526, 660.7758
368.7347, 618.1946
369.2168, 580.5311
369.6989, 548.9019
370.1810, 521.2078
370.6631, 495.4348
371.1453, 471.5649
371.6274, 449.5757
372.1095, 429.0839
372.5916, 410.1885
373.0737, 394.3154
373.5558, 382.2520
374.0380, 371.8317
374.5201, 361.8073
375.0022, 352.2440
375.4843, 343.0905
375.9664, 334.0450
376.4485, 325.6797
376.9307, 319.1153
377.4128, 314.7109
377.8949, 310.8148
378.3770, 306.8102
378.8591, 302.7376
379.3412, 299.0325
379.8234, 295.6739
380.3055, 292.8642
380.7876, 291.0453
381.2697, 290.1584
381.7518, 289.3571
382.2339, 288.1684
382.7161, 287.1171
383.1982, 287.6754
383.6803, 289.7954
384.1624, 292.2149
384.6445, 293.6907
385.1266, 294.7446
385.6088, 296.7088
386.0909, 299.8523
386.5730, 303.6959
387.0551, 307.4234
387.5372, 311.3025
388.0193, 316.1959
388.5015, 323.2640
388.9836, 331.1502
389.4657, 338.1706
389.9478, 344.1933
390.4299, 350.7625
390.9120, 359.9552
391.3942, 370.0087
391.8763, 378.6342
392.3584, 385.9991
392.8405, 390.8456
393.3226, 392.2866
393.8047, 390.5669
394.2869, 386.7986
394.7690, 380.5260
395.2511, 372.9485
395.7332, 364.7116
396.2154, 355.6499
396.6975, 346.5361
397.1796, 336.3750
397.6617, 326.3526
398.1438, 318.5559
398.6259, 313.7332
399.1081, 310.5992
399.5902, 309.3032
400.0723, 310.1778
400.5544, 310.3717
401.0365, 308.5196
401.5186, 306.9971
402.0008, 307.8435
402.4829, 312.2455
402.9650, 316.7335
403.4471, 320.7144
403.9292, 324.5137
404.4113, 329.3379
404.8935, 335.1956
405.3756, 342.0981
405.8577, 350.1390
406.3398, 359.2933
406.8219, 369.2198
407.3040, 379.9579
407.7862, 391.4342
408.2683, 403.9461
408.7504, 417.5281
409.2325, 431.1673
409.7146, 444.7430
410.1967, 457.9934
410.6789, 470.8474
411.1610, 483.3056
411.6431, 495.6176
412.1252, 507.8156
412.6073, 519.9555
413.0894, 532.2216
413.5716, 544.5842
414.0537, 556.6348
414.5358, 569.0349
415.0179, 580.8312
415.5000, 589.3383
415.9821, 594.4818
416.4643, 594.7083
416.9464, 587.0665
417.4285, 570.9987
417.9106, 552.6210
418.3927, 531.2147
418.8748, 511.2422
419.3570, 498.3726
419.8391, 494.4338
420.3212, 497.8237
420.8033, 509.0613
421.2854, 527.4813
421.7675, 550.0164
422.2497, 577.2158
422.7318, 607.1923
423.2139, 638.8937
423.6960, 672.5298
424.1781, 707.0397
424.6602, 741.1432
425.1424, 776.2944
425.6245, 814.2122
426.1066, 853.8426
426.5887, 896.8478
427.0709, 942.7330
427.5530, 991.4988
428.0351, 1045.802
428.5172, 1106.187
428.9993, 1172.244
429.4814, 1242.922
429.9636, 1316.488
430.4457, 1401.126
430.9278, 1497.113
431.4099, 1604.890
431.8920, 1723.501
432.3741, 1853.191
432.8563, 2000.144
433.3384, 2166.453
433.8205, 2353.134
434.3026, 2562.115
434.7847, 2795.137
435.2668, 3043.380
435.7490, 3306.029
436.2311, 3579.342
436.7132, 3845.231
437.1953, 4114.009
437.6774, 4352.721
438.1595, 4538.679
438.6417, 4665.264
439.1238, 4704.878
439.6059, 4632.303
440.0880, 4468.861
440.5701, 4222.089
441.0522, 3883.325
441.5344, 3521.272
442.0165, 3149.594
442.4986, 2788.819
442.9807, 2466.205
443.4628, 2191.052
443.9449, 1955.335
444.4271, 1761.245
444.9092, 1606.126
445.3913, 1474.512
445.8734, 1373.575
446.3555, 1289.920
446.8376, 1218.214
447.3198, 1160.870
447.8019, 1109.963
448.2840, 1067.402
448.7661, 1030.543
449.2482, 996.0893
449.7303, 965.0242
450.2125, 935.4191
450.6946, 907.9910
451.1767, 882.1605
451.6588, 851.2844
452.1409, 814.4816
452.6230, 774.1675
453.1052, 730.9384
453.5873, 683.8773
454.0694, 641.2497
454.5515, 604.0595
455.0337, 570.8776
455.5158, 539.9805
455.9979, 511.2055
456.4800, 486.2224
456.9621, 465.9102
457.4442, 449.5766
457.9264, 435.9233
458.4085, 424.9476
458.8906, 415.2043
459.3727, 404.9832
459.8548, 395.4550
460.3369, 388.8826
460.8191, 386.2216
461.3012, 385.2952
461.7833, 384.7775
462.2654, 384.6767
462.7475, 385.0053
463.2296, 385.1057
463.7118, 386.1862
464.1939, 388.9540
464.6760, 393.4784
465.1581, 399.0887
465.6402, 406.1063
466.1223, 413.7603
466.6045, 421.4214
467.0866, 428.8075
467.5687, 436.3958
468.0508, 444.2718
468.5329, 452.3954
469.0150, 460.8682
469.4972, 470.1053
469.9793, 478.9772
470.4614, 487.7490
470.9435, 496.6297
471.4256, 501.2865
471.9077, 501.6082
472.3899, 497.9554
472.8720, 490.3582
473.3541, 478.5690
473.8362, 464.1721
474.3183, 446.8160
474.8004, 427.7049
475.2826, 408.6176
475.7647, 389.6216
476.2468, 371.7089
476.7289, 355.0009
477.2110, 339.7430
477.6931, 326.8633
478.1753, 316.2971
478.6574, 307.3862
479.1395, 299.8834
479.6216, 293.6055
480.1037, 288.2611
480.5858, 283.6559
481.0680, 280.1715
481.5501, 278.7518
482.0322, 278.6099
482.5143, 278.1205
482.9964, 276.8405
483.4786, 274.9086
483.9607, 272.1428
484.4428, 268.4943
484.9249, 265.0985
485.4070, 262.3026
485.8892, 259.7892
486.3713, 257.3462
486.8534, 255.1020
487.3355, 252.7460
487.8176, 250.1104
488.2997, 247.4172
488.7819, 245.0418
489.2640, 242.8857
489.7461, 241.2908
490.2282, 240.6502
490.7103, 240.8503
491.1924, 239.9276
491.6746, 237.6753
492.1567, 235.1234
492.6388, 232.8730
493.1209, 230.9753
493.6030, 230.2585
494.0851, 231.0289
494.5673, 232.4038
495.0494, 232.8354
495.5315, 232.7058
496.0136, 233.3748
496.4957, 235.5632
496.9778, 238.8320
497.4600, 242.7376
497.9421, 247.2937
498.4242, 252.7417
498.9063, 259.7106
499.3884, 267.3926
499.8705, 275.1205
500.3527, 282.3985
500.8348, 290.4862
501.3169, 299.7596
501.7990, 309.9652
502.2811, 320.8403
502.7632, 332.8485
503.2454, 344.8292
503.7275, 356.9398
504.2096, 369.0421
504.6917, 380.2607
505.1738, 390.6870
505.6559, 399.9528
506.1381, 408.2729
506.6202, 416.6348
507.1023, 420.0587
507.5844, 418.3490
508.0665, 412.1086
508.5486, 401.5573
509.0308, 386.5765
509.5129, 369.5129
509.9950, 350.1142
510.4771, 329.7562
510.9592, 310.6851
511.4413, 293.0049
511.9235, 276.9178
512.4056, 262.4642
512.8877, 249.7563
513.3698, 239.0341
513.8519, 230.3981
514.3340, 222.4946
514.8162, 213.9693
515.2983, 205.7446
515.7804, 198.9660
516.2625, 194.8197
516.7446, 191.0864
517.2267, 186.6409
517.7089, 181.9665
518.1910, 178.3008
518.6731, 176.3643
519.1552, 175.0457
519.6373, 174.1409
520.1194, 173.6811
520.6016, 173.0932
521.0837, 172.4328
521.5658, 171.5889
522.0479, 170.3119
522.5300, 168.2393
523.0121, 167.1790
523.4943, 167.5210
523.9764, 168.5621
524.4585, 169.0693
524.9406, 169.0238
525.4227, 168.9305
525.9048, 168.9478
526.3870, 169.0518
526.8691, 169.2704
527.3513, 169.5859
527.8334, 169.7205
528.3155, 169.5218
528.7976, 169.0020
529.2797, 168.2426
529.7618, 167.2948
530.2440, 165.8327
530.7261, 163.0025
531.2082, 159.7204
531.6903, 157.2112
532.1724, 156.5633
532.6545, 155.9835
533.1367, 154.1360
533.6188, 151.7318
534.1009, 151.2421
534.5830, 155.8843
535.0651, 159.7513
535.5472, 160.7063
536.0294, 158.3277
536.5115, 156.0030
536.9936, 153.3736
537.4757, 151.2993
537.9578, 150.6481
538.4399, 151.6342
538.9221, 152.6545
539.4042, 153.5378
539.8863, 154.4230
540.3684, 155.4724
540.8505, 156.7029
541.3326, 158.3148
541.8148, 160.3023
542.2969, 162.7616
542.7790, 166.3927
543.2611, 170.9797
543.7432, 174.9303
544.2253, 176.7998
544.7075, 177.6814
545.1896, 178.7858
545.6717, 180.4088
546.1538, 181.5063
546.6359, 181.5598
547.1180, 180.8277
547.6002, 179.5800
548.0823, 178.1676
548.5644, 175.9098
549.0465, 171.8522
549.5286, 166.8062
550.0107, 163.1726
550.4929, 161.8081
550.9750, 160.5524
551.4571, 158.5555
551.9392, 155.8022
552.4213, 154.1077
552.9034, 153.5611
553.3856, 153.7475
553.8677, 154.7532
554.3498, 156.4477
554.8319, 157.3792
555.3140, 157.5122
555.7961, 156.4525
556.2783, 152.7566
556.7604, 147.3695
557.2425, 143.0241
557.7246, 141.1686
558.2067, 140.3222
558.6888, 139.2020
559.1710, 137.9185
559.6531, 136.8582
560.1352, 136.6716
560.6173, 136.4099
561.0994, 135.3567
561.5815, 133.3196
562.0637, 131.6774
562.5458, 130.9955
563.0279, 130.6162
563.5100, 130.0299
563.9921, 128.8999
564.4742, 128.1640
564.9564, 127.9775
565.4385, 128.0851
565.9206, 128.1159
566.4027, 128.1013
566.8848, 127.8204
567.3669, 127.1132
567.8491, 126.1445
568.3312, 125.4942
568.8133, 125.1532
569.2954, 124.8227
569.7775, 124.2429
570.2596, 123.5662
570.7418, 123.0551
571.2239, 122.7198
571.7060, 122.5817
572.1881, 122.9363
572.6702, 123.3723
573.1523, 123.3880
573.6345, 122.5333
574.1166, 121.8380
574.5987, 121.9472
575.0808, 122.4153
575.5629, 122.5019
576.0450, 121.7164
576.5272, 120.9473
577.0093, 120.3145
577.4914, 119.8259
577.9735, 119.5567
578.4556, 119.6299
578.9377, 119.6723
579.4199, 119.4039
579.9020, 118.8166
580.3841, 118.7496
580.8662, 119.2935
581.3483, 119.8799
581.8304, 119.8590
582.3126, 119.3938
582.7947, 119.0252
583.2768, 118.8296
583.7589, 118.8270
584.2410, 119.2020
584.7231, 119.7713
585.2053, 120.1725
585.6874, 120.0566
586.1696, 119.9098
586.6517, 119.9524
587.1338, 120.1728
587.6159, 120.5119
588.0980, 121.1607
588.5801, 121.7361
589.0623, 121.9718
589.5444, 121.7511
590.0265, 121.9989
590.5086, 123.0402
