##NAMES=Zircon
##RRUFFID=R050034
##IDEAL CHEMISTRY=Zr^4+^SiO_4_
##LOCALITY=Oaxaca, Mexico
##OWNER=RRUFF
##SOURCE=University of Arizona Mineral Museum
##DESCRIPTION=Reddish brown single crystal fragments
##STATUS=The identification of this mineral has been confirmed by X-ray diffraction and chemical analysis
##URL=rruff.info/R050034
##MEASURED CHEMISTRY=Zr_1.00_Si_1.00_O_4_
171.6417, 23560.95
172.1238, 23607.95
172.6059, 23650.73
173.0880, 23685.05
173.5701, 23724.13
174.0522, 23778.19
174.5344, 23839.66
175.0165, 23897.68
175.4986, 23949.38
175.9807, 23993.16
176.4628, 24023.65
176.9449, 24034.36
177.4271, 24043.13
177.9092, 24051.94
178.3913, 24064.32
178.8734, 24085.06
179.3555, 24116.69
179.8376, 24158.34
180.3197, 24207.95
180.8019, 24266.46
181.2840, 24332.35
181.7661, 24421.11
182.2482, 24511.31
182.7303, 24571.33
183.2124, 24579.40
183.6946, 24558.11
184.1767, 24573.48
184.6588, 24643.54
185.1409, 24721.07
185.6230, 24807.29
186.1051, 24887.53
186.5873, 24936.41
187.0694, 24934.76
187.5515, 24915.82
188.0336, 24976.83
188.5157, 25181.63
188.9978, 25356.90
189.4800, 25450.68
189.9621, 25506.00
190.4442, 25565.54
190.9263, 25646.99
191.4084, 25745.18
191.8905, 25849.17
192.3727, 25966.80
192.8548, 26076.57
193.3369, 26164.41
193.8190, 26249.15
194.3011, 26352.97
194.7832, 26485.03
195.2654, 26628.85
195.7475, 26743.62
196.2296, 26798.95
196.7117, 26885.15
197.1938, 27022.17
197.6759, 27184.69
198.1581, 27354.86
198.6402, 27526.49
199.1223, 27695.59
199.6044, 27854.18
200.0865, 27997.71
200.5686, 28139.56
201.0508, 28288.90
201.5329, 28433.16
202.0150, 28565.72
202.4971, 28684.11
202.9792, 28780.96
203.4613, 28840.97
203.9435, 28844.88
204.4256, 28853.79
204.9077, 28844.54
205.3898, 28857.59
205.8719, 28925.05
206.3540, 29051.19
206.8362, 29211.95
207.3183, 29382.29
207.8004, 29575.80
208.2825, 29739.11
208.7646, 29855.80
209.2467, 29959.16
209.7289, 30068.36
210.2110, 30184.66
210.6931, 30297.85
211.1752, 30403.42
211.6573, 30516.64
212.1395, 30560.24
212.6216, 30492.34
213.1037, 30396.30
213.5858, 30297.34
214.0679, 30204.82
214.5500, 30125.83
215.0322, 30068.42
215.5143, 30034.86
215.9964, 30009.67
216.4785, 29976.59
216.9606, 29966.55
217.4427, 29997.18
217.9249, 30062.83
218.4070, 30143.93
218.8891, 30221.11
219.3712, 30293.12
219.8533, 30407.31
220.3354, 30639.33
220.8176, 30841.31
221.2997, 30959.47
221.7818, 31016.26
222.2639, 31062.24
222.7460, 31133.08
223.2281, 31225.25
223.7103, 31295.41
224.1924, 31357.11
224.6745, 31377.05
225.1566, 31322.18
225.6387, 31226.69
226.1208, 31138.40
226.6030, 31084.67
227.0851, 31059.75
227.5672, 31040.29
228.0493, 31032.16
228.5314, 31021.65
229.0135, 30998.46
229.4957, 30974.70
229.9778, 30961.65
230.4599, 30964.08
230.9420, 30984.14
231.4241, 31032.03
231.9062, 31140.53
232.3884, 31219.02
232.8705, 31221.47
233.3526, 31211.93
233.8347, 31250.88
234.3168, 31357.25
234.7989, 31497.92
235.2811, 31615.83
235.7632, 31701.36
236.2453, 31787.01
236.7274, 31874.31
237.2095, 31964.20
237.6916, 32060.08
238.1738, 32161.50
238.6559, 32262.74
239.1380, 32355.13
239.6201, 32434.04
240.1022, 32522.11
240.5843, 32627.62
241.0665, 32736.21
241.5486, 32843.57
242.0307, 32948.54
242.5128, 33049.91
242.9949, 33145.09
243.4770, 33233.40
243.9592, 33325.86
244.4413, 33430.11
244.9234, 33532.23
245.4055, 33616.47
245.8876, 33693.22
246.3697, 33790.23
246.8519, 33942.38
247.3340, 34138.56
247.8161, 34265.95
248.2982, 34265.54
248.7803, 34272.96
249.2624, 34327.70
249.7446, 34422.14
250.2267, 34544.98
250.7088, 34697.60
251.1909, 34867.63
251.6730, 35019.75
252.1551, 35148.89
252.6373, 35270.57
253.1194, 35374.27
253.6015, 35479.85
254.0836, 35615.65
254.5657, 35797.73
255.0478, 35990.76
255.5300, 36131.85
256.0121, 36202.89
256.4942, 36289.52
256.9763, 36401.91
257.4584, 36548.00
257.9406, 36751.20
258.4227, 37018.15
258.9048, 37295.59
259.3869, 37534.91
259.8690, 37735.99
260.3511, 37907.82
260.8333, 38034.40
261.3154, 38147.48
261.7975, 38261.42
262.2796, 38378.98
262.7617, 38518.53
263.2438, 38700.28
263.7260, 38918.91
264.2081, 39142.05
264.6902, 39369.95
265.1723, 39596.63
265.6544, 39833.13
266.1365, 40069.98
266.6187, 40269.07
267.1008, 40380.51
267.5829, 40447.93
268.0650, 40566.81
268.5471, 40749.53
269.0292, 40949.80
269.5114, 41156.73
269.9935, 41357.14
270.4756, 41523.11
270.9577, 41613.82
271.4398, 41694.59
271.9219, 41849.07
272.4041, 42079.85
272.8862, 42308.25
273.3683, 42502.29
273.8504, 42664.42
274.3325, 42801.18
274.8146, 42898.07
275.2968, 42996.90
275.7789, 43129.90
276.2610, 43289.58
276.7431, 43446.15
277.2252, 43588.18
277.7073, 43723.96
278.1895, 43873.88
278.6716, 44046.32
279.1537, 44193.72
279.6358, 44271.61
280.1179, 44319.11
280.6000, 44405.54
281.0822, 44549.03
281.5643, 44715.95
282.0464, 44871.22
282.5285, 45013.43
283.0106, 45151.76
283.4927, 45285.01
283.9749, 45416.02
284.4570, 45551.20
284.9391, 45689.95
285.4212, 45821.58
285.9033, 45936.47
286.3854, 46033.95
286.8676, 46127.80
287.3497, 46217.77
287.8318, 46304.86
288.3139, 46380.77
288.7960, 46453.53
289.2781, 46542.39
289.7603, 46658.06
290.2424, 46797.73
290.7245, 46948.57
291.2066, 47121.23
291.6887, 47291.25
292.1708, 47474.11
292.6530, 47645.55
293.1351, 47760.16
293.6172, 47803.63
294.0993, 47827.98
294.5814, 47926.25
295.0635, 48147.18
295.5457, 48355.66
296.0278, 48528.33
296.5099, 48704.89
296.9920, 48923.08
297.4741, 49180.89
297.9562, 49436.03
298.4384, 49642.71
298.9205, 49791.32
299.4026, 49960.95
299.8847, 50207.15
300.3668, 50418.45
300.8489, 50505.70
301.3311, 50528.77
301.8131, 50619.39
302.2953, 50874.91
302.7774, 51256.56
303.2595, 51567.15
303.7416, 51784.79
304.2237, 51955.11
304.7058, 52058.17
305.1880, 52137.42
305.6701, 52240.99
306.1522, 52387.25
306.6343, 52551.47
307.1164, 52699.66
307.5985, 52836.35
308.0807, 52937.38
308.5628, 52972.22
309.0449, 52986.75
309.5270, 53004.66
310.0091, 53028.69
310.4912, 53049.20
310.9734, 53063.06
311.4555, 53068.98
311.9376, 53048.03
312.4197, 52977.65
312.9018, 52910.96
313.3839, 52906.43
313.8661, 52933.66
314.3482, 52910.72
314.8303, 52758.07
315.3124, 52551.37
315.7945, 52438.93
316.2766, 52439.84
316.7588, 52423.11
317.2409, 52297.28
317.7230, 52116.02
318.2051, 51971.88
318.6872, 51898.05
319.1693, 51824.45
319.6515, 51695.66
320.1336, 51521.92
320.6157, 51344.48
321.0978, 51174.52
321.5799, 51012.90
322.0620, 50859.42
322.5442, 50714.64
323.0263, 50574.80
323.5084, 50442.98
323.9905, 50313.21
324.4726, 50167.07
324.9547, 50001.20
325.4369, 49858.35
325.9190, 49792.61
326.4011, 49814.44
326.8832, 49765.71
327.3653, 49581.37
327.8474, 49388.82
328.3296, 49253.00
328.8117, 49168.46
329.2938, 49112.89
329.7759, 49078.24
330.2580, 49052.95
330.7401, 48985.62
331.2223, 48839.59
331.7044, 48696.08
332.1865, 48552.36
332.6686, 48419.80
333.1507, 48312.52
333.6328, 48234.29
334.1150, 48173.78
334.5971, 48114.50
335.0792, 48056.50
335.5613, 48000.42
336.0434, 47944.39
336.5255, 47891.71
337.0077, 47844.21
337.4898, 47801.92
337.9719, 47763.96
338.4540, 47730.09
338.9361, 47700.18
339.4182, 47671.15
339.9004, 47630.05
340.3825, 47611.21
340.8646, 47637.79
341.3467, 47684.63
341.8288, 47719.61
342.3109, 47729.75
342.7931, 47728.97
343.2752, 47727.91
343.7573, 47720.88
344.2394, 47757.46
344.7215, 47895.70
345.2036, 48045.84
345.6858, 48127.14
346.1679, 48137.84
346.6500, 48154.76
347.1321, 48228.24
347.6142, 48344.68
348.0963, 48465.68
348.5785, 48584.16
349.0606, 48718.95
349.5427, 48907.62
350.0248, 49127.72
350.5069, 49309.10
350.9890, 49416.57
351.4712, 49499.82
351.9533, 49612.23
352.4354, 49742.75
352.9175, 49831.79
353.3996, 49848.29
353.8817, 49809.42
354.3639, 49762.36
354.8460, 49748.63
355.3281, 49649.23
355.8102, 49385.14
356.2923, 49045.11
356.7744, 48736.51
357.2566, 48480.57
357.7387, 48235.76
358.2208, 47952.89
358.7029, 47619.26
359.1850, 47315.82
359.6671, 47052.73
360.1493, 46805.79
360.6314, 46571.90
361.1135, 46345.40
361.5956, 46116.94
362.0777, 45879.23
362.5598, 45637.10
363.0420, 45405.39
363.5241, 45177.13
364.0062, 44973.13
364.4883, 44802.21
364.9704, 44649.35
365.4525, 44506.89
365.9347, 44371.80
366.4168, 44234.66
366.8989, 44083.91
367.3810, 43917.16
367.8631, 43755.49
368.3452, 43588.13
368.8274, 43440.82
369.3095, 43333.61
369.7916, 43254.02
370.2737, 43172.95
370.7558, 43075.36
371.2379, 42969.55
371.7201, 42874.95
372.2022, 42794.55
372.6843, 42697.02
373.1664, 42555.50
373.6485, 42397.84
374.1306, 42267.75
374.6128, 42173.04
375.0949, 42082.77
375.5770, 41986.21
376.0591, 41882.72
376.5412, 41770.40
377.0233, 41648.45
377.5055, 41520.30
377.9876, 41384.52
378.4697, 41240.16
378.9518, 41118.73
379.4339, 41052.18
379.9160, 40980.65
380.3982, 40862.74
380.8803, 40709.98
381.3624, 40561.66
381.8445, 40440.15
382.3266, 40333.65
382.8087, 40203.56
383.2909, 40021.66
383.7730, 39853.48
384.2551, 39713.42
384.7372, 39579.38
385.2193, 39427.73
385.7014, 39258.09
386.1836, 39092.12
386.6657, 38954.57
387.1478, 38847.82
387.6299, 38734.30
388.1120, 38612.57
388.5941, 38483.87
389.0763, 38350.43
389.5584, 38210.37
390.0405, 38060.77
390.5226, 37896.85
391.0047, 37728.48
391.4868, 37569.33
391.9690, 37420.80
392.4511, 37273.72
392.9332, 37124.94
393.4153, 36978.46
393.8974, 36840.73
394.3795, 36711.10
394.8617, 36579.77
395.3438, 36437.39
395.8259, 36291.91
396.3080, 36162.61
396.7901, 36053.17
397.2722, 35926.32
397.7544, 35741.39
398.2365, 35517.16
398.7186, 35347.95
399.2007, 35282.14
399.6828, 35217.47
400.1649, 35109.55
400.6471, 34978.21
401.1292, 34856.94
401.6113, 34756.09
402.0934, 34662.06
402.5755, 34550.68
403.0576, 34405.00
403.5398, 34297.52
404.0219, 34258.24
404.5040, 34222.72
404.9861, 34163.43
405.4682, 34079.71
405.9503, 33976.86
406.4325, 33855.44
406.9146, 33723.68
407.3967, 33615.52
407.8788, 33549.64
408.3609, 33469.00
408.8430, 33341.17
409.3252, 33209.02
409.8073, 33107.54
410.2894, 33041.42
410.7715, 32987.70
411.2536, 32916.24
411.7357, 32836.89
412.2179, 32814.34
412.7000, 32880.27
413.1821, 32936.92
413.6642, 32893.68
414.1463, 32794.20
414.6284, 32724.84
415.1106, 32720.08
415.5927, 32726.53
416.0748, 32693.41
416.5569, 32638.05
417.0390, 32621.66
417.5211, 32671.79
418.0033, 32743.32
418.4854, 32766.05
418.9675, 32718.53
419.4496, 32694.35
419.9317, 32700.47
420.4138, 32727.85
420.8960, 32781.98
421.3781, 32853.57
421.8602, 32917.67
422.3423, 32957.46
422.8244, 32979.65
423.3065, 33013.32
423.7887, 33067.30
424.2708, 33119.64
424.7529, 33157.72
425.2350, 33200.21
425.7171, 33260.88
426.1992, 33342.39
426.6814, 33439.66
427.1635, 33547.91
427.6456, 33668.11
428.1277, 33803.59
428.6098, 33961.25
429.0919, 34120.80
429.5741, 34257.64
430.0562, 34394.03
430.5383, 34569.81
431.0204, 34813.03
431.5025, 35056.94
431.9846, 35238.14
432.4668, 35372.72
432.9489, 35522.09
433.4310, 35706.93
433.9131, 35893.86
434.3952, 36048.64
434.8773, 36169.66
435.3595, 36251.84
435.8416, 36293.82
436.3237, 36297.00
436.8058, 36270.00
437.2879, 36205.29
437.7701, 36084.02
438.2522, 35896.14
438.7343, 35647.79
439.2164, 35352.45
439.6985, 34977.25
440.1806, 34613.39
440.6628, 34285.05
441.1449, 33946.14
441.6270, 33552.83
442.1091, 33117.00
442.5912, 32686.31
443.0733, 32291.17
443.5555, 31933.68
444.0376, 31631.09
444.5197, 31404.45
445.0018, 31173.36
445.4839, 30893.44
445.9660, 30598.75
446.4482, 30318.40
446.9303, 30056.56
447.4124, 29813.27
447.8945, 29592.58
448.3766, 29389.61
448.8587, 29195.09
449.3409, 29006.67
449.8230, 28831.24
450.3051, 28674.22
450.7872, 28535.09
451.2693, 28403.77
451.7514, 28298.96
452.2336, 28179.85
452.7157, 28007.12
453.1978, 27821.67
453.6799, 27690.79
454.1620, 27630.74
454.6441, 27591.05
455.1263, 27506.36
455.6084, 27369.17
456.0905, 27230.30
456.5726, 27059.84
457.0547, 26920.79
457.5368, 26856.72
458.0190, 26831.43
458.5011, 26783.53
458.9832, 26683.45
459.4653, 26569.77
459.9474, 26502.78
460.4295, 26483.61
460.9117, 26450.06
461.3938, 26384.80
461.8759, 26309.20
462.3580, 26244.96
462.8401, 26188.70
463.3222, 26120.45
463.8044, 26014.82
464.2865, 25910.16
464.7686, 25847.14
465.2507, 25816.94
465.7328, 25783.40
466.2149, 25731.25
466.6971, 25666.29
467.1792, 25600.17
467.6613, 25530.20
468.1434, 25464.70
468.6255, 25399.46
469.1076, 25342.09
469.5898, 25306.19
470.0719, 25283.26
470.5540, 25250.53
471.0361, 25192.38
471.5182, 25117.50
472.0003, 25049.07
472.4825, 24988.22
472.9646, 24931.99
473.4467, 24889.00
473.9288, 24844.00
474.4109, 24777.90
474.8930, 24694.46
475.3752, 24628.96
475.8573, 24614.36
476.3394, 24625.54
476.8215, 24628.84
477.3036, 24623.50
477.7857, 24582.77
478.2679, 24481.11
478.7500, 24345.65
479.2321, 24240.74
479.7142, 24171.21
480.1963, 24114.97
480.6784, 24075.07
481.1606, 24041.89
481.6427, 24007.97
482.1248, 23972.09
482.6069, 23935.28
483.0890, 23898.00
483.5711, 23860.46
484.0533, 23822.81
484.5354, 23783.86
485.0175, 23746.76
485.4996, 23711.21
485.9817, 23677.93
486.4638, 23646.30
486.9460, 23616.86
487.4281, 23593.64
487.9102, 23587.49
488.3923, 23589.62
488.8744, 23568.32
489.3565, 23518.18
489.8387, 23475.66
490.3208, 23465.30
490.8029, 23471.21
491.2850, 23457.88
491.7671, 23415.73
492.2492, 23382.30
492.7314, 23387.91
493.2135, 23399.21
493.6956, 23373.61
494.1777, 23310.42
494.6598, 23240.16
495.1419, 23184.59
495.6241, 23142.97
496.1062, 23109.48
496.5883, 23093.93
497.0704, 23073.05
497.5525, 23030.10
498.0346, 22990.92
498.5168, 22983.70
498.9989, 23007.11
499.4810, 23030.07
499.9631, 23030.07
500.4452, 23009.00
500.9273, 22970.82
501.4095, 22911.60
501.8916, 22850.76
502.3737, 22788.55
502.8558, 22734.75
503.3379, 22707.73
503.8200, 22716.38
504.3022, 22715.82
504.7843, 22671.86
505.2664, 22619.88
505.7485, 22603.95
506.2306, 22624.51
506.7127, 22656.01
507.1949, 22683.86
507.6770, 22705.70
508.1591, 22710.66
508.6412, 22681.96
509.1233, 22660.44
509.6054, 22662.79
510.0876, 22661.70
510.5697, 22631.96
511.0518, 22577.14
511.5339, 22522.75
512.0161, 22486.37
512.4982, 22464.07
512.9803, 22444.83
513.4624, 22428.21
513.9445, 22418.74
514.4266, 22423.03
514.9088, 22431.02
515.3909, 22428.82
515.8730, 22415.66
516.3551, 22403.33
516.8372, 22399.70
517.3193, 22395.28
517.8015, 22374.39
518.2836, 22342.86
518.7657, 22328.04
519.2478, 22346.94
519.7299, 22380.26
520.2120, 22381.29
520.6942, 22332.10
521.1763, 22283.82
521.6584, 22237.70
522.1405, 22191.38
522.6226, 22133.42
523.1047, 22074.12
523.5869, 22040.85
524.0690, 22053.32
524.5511, 22086.32
525.0332, 22100.95
525.5153, 22097.27
525.9974, 22085.17
526.4796, 22062.63
526.9617, 22039.38
527.4438, 22029.14
527.9259, 22029.84
528.4080, 22022.50
528.8901, 21992.47
529.3723, 21965.51
529.8544, 21965.20
530.3365, 21977.34
530.8186, 21970.47
531.3007, 21934.38
531.7828, 21891.61
532.2650, 21875.80
532.7471, 21894.15
533.2292, 21893.84
533.7113, 21852.10
534.1934, 21817.46
534.6755, 21811.62
535.1577, 21818.81
535.6398, 21818.51
536.1219, 21805.01
536.6040, 21781.56
537.0861, 21748.18
537.5682, 21707.25
538.0504, 21664.38
538.5325, 21619.43
539.0146, 21580.59
539.4967, 21554.80
539.9788, 21540.33
540.4609, 21528.51
540.9431, 21526.07
541.4252, 21516.71
541.9073, 21491.90
542.3894, 21462.12
542.8715, 21436.14
543.3536, 21415.38
543.8358, 21398.85
544.3179, 21387.27
544.8000, 21377.66
545.2821, 21354.81
545.7642, 21311.52
546.2463, 21274.93
546.7285, 21261.54
547.2106, 21250.33
547.6927, 21220.97
548.1748, 21175.06
548.6569, 21137.21
549.1390, 21128.02
549.6211, 21125.52
550.1032, 21100.79
550.5853, 21059.76
551.0674, 21031.58
551.5496, 21028.72
552.0317, 21038.57
552.5138, 21042.13
552.9959, 21041.96
553.4780, 21025.89
553.9601, 20973.05
554.4423, 20928.86
554.9244, 20922.34
555.4065, 20933.14
555.8886, 20924.06
556.3707, 20880.68
556.8528, 20835.80
557.3350, 20840.71
557.8171, 20886.25
558.2992, 20892.14
558.7813, 20839.61
559.2634, 20783.62
559.7455, 20760.22
560.2277, 20761.39
560.7098, 20758.78
561.1919, 20750.94
561.6740, 20741.44
562.1561, 20732.03
562.6382, 20721.14
563.1204, 20705.18
563.6025, 20685.20
564.0846, 20666.64
564.5667, 20652.74
565.0488, 20644.36
565.5309, 20650.66
566.0131, 20693.73
566.4952, 20695.54
566.9773, 20596.32
567.4594, 20488.32
567.9415, 20427.39
568.4236, 20409.88
568.9058, 20404.89
569.3879, 20408.74
569.8700, 20411.02
570.3521, 20391.30
570.8342, 20359.84
571.3163, 20358.35
571.7985, 20402.33
572.2806, 20451.21
572.7627, 20453.64
573.2448, 20402.91
573.7269, 20369.10
574.2090, 20361.39
574.6912, 20358.33
575.1733, 20356.23
575.6554, 20355.17
576.1375, 20361.00
576.6196, 20372.86
577.1017, 20372.04
577.5839, 20328.17
578.0660, 20258.18
578.5481, 20222.13
579.0302, 20224.02
579.5123, 20231.74
579.9944, 20229.38
580.4766, 20225.64
580.9587, 20239.03
581.4408, 20272.73
581.9229, 20306.02
582.4050, 20351.45
582.8871, 20381.49
583.3693, 20356.65
583.8514, 20304.36
584.3335, 20289.64
584.8156, 20342.73
585.2977, 20419.96
585.7798, 20451.23
586.2620, 20432.54
586.7441, 20411.71
587.2262, 20384.28
587.7083, 20365.78
588.1904, 20374.40
588.6725, 20395.21
589.1547, 20401.84
589.6368, 20382.59
590.1189, 20371.00
590.6010, 20393.70
591.0831, 20427.46
591.5652, 20441.71
592.0474, 20435.58
592.5295, 20422.96
593.0116, 20410.70
593.4937, 20405.37
593.9758, 20432.40
594.4579, 20518.19
594.9401, 20573.15
595.4222, 20548.40
595.9043, 20528.79
596.3864, 20574.42
596.8685, 20658.58
597.3506, 20707.83
597.8328, 20681.04
598.3149, 20638.24
598.7970, 20632.02
599.2791, 20652.21
599.7612, 20673.43
600.2433, 20690.87
600.7255, 20710.05
601.2076, 20737.85
601.6897, 20771.46
602.1718, 20787.49
602.6539, 20747.50
603.1360, 20743.43
603.6182, 20825.39
604.1003, 20911.07
604.5824, 20928.45
605.0645, 20888.01
605.5466, 20855.52
606.0287, 20866.84
606.5109, 20908.97
606.9930, 20979.24
607.4751, 21070.65
607.9572, 21121.97
608.4393, 21112.29
608.9214, 21082.11
609.4036, 21071.08
609.8857, 21079.29
610.3678, 21079.53
610.8499, 21057.90
611.3320, 21046.64
611.8141, 21050.54
612.2963, 21070.03
612.7784, 21114.98
613.2605, 21179.58
613.7426, 21235.00
614.2247, 21258.04
614.7068, 21257.68
615.1890, 21251.75
615.6711, 21239.63
616.1532, 21238.88
616.6353, 21263.17
617.1174, 21284.82
617.5995, 21263.74
618.0817, 21198.82
618.5638, 21165.57
619.0459, 21176.43
619.5280, 21208.26
620.0101, 21282.70
620.4922, 21358.01
620.9744, 21369.64
621.4565, 21314.44
621.9386, 21260.82
622.4207, 21275.37
622.9028, 21338.55
623.3849, 21372.70
623.8671, 21373.29
624.3492, 21371.14
624.8313, 21375.90
625.3134, 21381.34
625.7955, 21378.33
626.2776, 21367.44
626.7598, 21360.64
627.2419, 21357.17
627.7240, 21360.75
628.2061, 21389.83
628.6882, 21420.47
629.1703, 21411.12
629.6525, 21356.42
630.1346, 21293.91
630.6167, 21258.81
631.0988, 21247.79
631.5809, 21245.32
632.0630, 21256.86
632.5452, 21255.23
633.0273, 21226.97
633.5094, 21186.81
633.9915, 21146.67
634.4736, 21106.99
634.9557, 21080.04
635.4379, 21081.87
635.9200, 21083.07
636.4021, 21064.57
636.8842, 21035.60
637.3663, 21011.84
637.8484, 20996.59
638.3306, 20980.77
638.8127, 20954.66
639.2948, 20920.31
639.7769, 20892.33
640.2590, 20874.14
640.7411, 20849.54
641.2233, 20810.14
641.7054, 20766.17
642.1875, 20731.92
642.6696, 20705.73
643.1517, 20665.57
643.6339, 20580.74
644.1160, 20508.77
644.5981, 20499.55
645.0802, 20516.36
645.5623, 20500.56
646.0444, 20441.67
646.5266, 20374.19
647.0087, 20332.71
647.4908, 20308.31
647.9729, 20253.44
648.4550, 20157.38
648.9371, 20076.14
649.4193, 20033.35
649.9014, 20000.26
650.3835, 19948.23
650.8656, 19879.97
651.3477, 19812.67
651.8298, 19745.40
652.3120, 19683.68
652.7941, 19631.43
653.2762, 19585.17
653.7583, 19544.22
654.2404, 19506.03
654.7225, 19460.65
655.2047, 19398.57
655.6868, 19325.26
656.1689, 19259.50
656.6510, 19201.99
657.1331, 19149.31
657.6152, 19110.08
658.0974, 19062.55
658.5795, 18979.03
659.0616, 18868.16
659.5437, 18769.62
660.0258, 18688.58
660.5079, 18617.86
660.9901, 18568.20
661.4722, 18519.32
661.9543, 18440.49
662.4364, 18337.78
662.9185, 18249.56
663.4006, 18204.55
663.8828, 18180.17
664.3649, 18123.79
664.8470, 18034.07
665.3291, 17960.03
665.8112, 17918.71
666.2933, 17869.49
666.7755, 17769.61
667.2576, 17636.62
667.7397, 17546.47
668.2218, 17529.45
668.7039, 17505.95
