##NAMES=Zircon
##RRUFFID=R100128
##IDEAL CHEMISTRY=Zr^4+^SiO_4_
##LOCALITY=Cambodia
##OWNER=RRUFF
##SOURCE=William W. Pinch
##DESCRIPTION=Blue cut gemstone
##STATUS=The identification of this mineral has been confirmed by single-crystal X-ray diffraction.
##URL=rruff.info/R100128
90.60547, 4130.904
91.08759, 4029.360
91.56970, 4008.781
92.05182, 4040.742
92.53394, 4148.172
93.01605, 4255.643
93.49817, 4342.745
93.98029, 4415.313
94.46240, 4471.165
94.94452, 4505.867
95.42664, 4527.880
95.90874, 4543.881
96.39086, 4555.696
96.87298, 4562.959
97.35509, 4560.596
97.83721, 4538.380
98.31933, 4520.692
98.80145, 4510.587
99.28356, 4504.182
99.76568, 4499.144
100.2478, 4494.469
100.7299, 4490.722
101.2120, 4489.978
101.6941, 4492.653
102.1763, 4497.778
102.6584, 4505.321
103.1405, 4514.800
103.6226, 4525.341
104.1047, 4536.235
104.5868, 4547.877
105.0690, 4562.354
105.5511, 4580.322
106.0332, 4599.156
106.5153, 4617.720
106.9974, 4635.905
107.4795, 4654.015
107.9617, 4671.162
108.4438, 4688.297
108.9259, 4708.712
109.4080, 4734.708
109.8901, 4763.485
110.3722, 4791.156
110.8544, 4816.885
111.3365, 4842.963
111.8186, 4870.896
112.3007, 4900.195
112.7828, 4930.167
113.2649, 4959.868
113.7471, 4989.547
114.2292, 5020.834
114.7113, 5053.045
115.1934, 5088.244
115.6755, 5129.136
116.1576, 5174.426
116.6397, 5220.006
117.1219, 5261.092
117.6040, 5294.803
118.0861, 5333.183
118.5682, 5378.218
119.0503, 5425.443
119.5324, 5472.175
120.0146, 5517.775
120.4967, 5563.789
120.9788, 5612.438
121.4609, 5665.848
121.9430, 5718.963
122.4251, 5770.356
122.9073, 5822.008
123.3894, 5875.564
123.8715, 5931.921
124.3536, 5990.585
124.8357, 6050.292
125.3178, 6111.310
125.8000, 6172.672
126.2821, 6233.032
126.7642, 6293.059
127.2463, 6354.184
127.7284, 6417.860
128.2105, 6482.939
128.6927, 6547.395
129.1748, 6610.722
129.6569, 6674.427
130.1390, 6739.283
130.6211, 6804.885
131.1032, 6874.093
131.5854, 6950.983
132.0675, 7031.624
132.5496, 7112.421
133.0317, 7192.065
133.5138, 7271.294
133.9959, 7352.920
134.4781, 7439.500
134.9602, 7525.093
135.4423, 7607.468
135.9244, 7688.258
136.4065, 7769.415
136.8886, 7852.709
137.3708, 7938.179
137.8529, 8019.081
138.3350, 8096.565
138.8171, 8168.360
139.2992, 8233.233
139.7813, 8291.949
140.2635, 8346.777
140.7456, 8399.870
141.2277, 8452.253
141.7098, 8491.777
142.1919, 8517.507
142.6740, 8534.370
143.1561, 8545.386
143.6383, 8550.548
144.1204, 8547.411
144.6025, 8533.166
145.0846, 8506.101
145.5667, 8471.265
146.0488, 8427.713
146.5310, 8377.045
147.0131, 8319.953
147.4952, 8255.902
147.9773, 8188.420
148.4594, 8119.487
148.9415, 8049.498
149.4237, 7979.219
149.9058, 7909.847
150.3879, 7840.478
150.8700, 7769.383
151.3521, 7693.938
151.8342, 7618.984
152.3164, 7546.850
152.7985, 7477.830
153.2806, 7411.700
153.7627, 7349.289
154.2448, 7290.494
154.7269, 7232.750
155.2091, 7175.024
155.6912, 7119.237
156.1733, 7065.855
156.6554, 7014.972
157.1375, 6967.766
157.6196, 6925.800
158.1018, 6890.033
158.5839, 6857.125
159.0660, 6828.550
159.5481, 6801.122
160.0302, 6771.604
160.5123, 6739.721
160.9945, 6709.179
161.4766, 6687.123
161.9587, 6681.515
162.4408, 6672.767
162.9229, 6657.212
163.4050, 6640.410
163.8871, 6627.288
164.3693, 6619.662
164.8514, 6616.467
165.3335, 6615.406
165.8156, 6617.962
166.2977, 6620.620
166.7798, 6622.932
167.2620, 6625.178
167.7441, 6627.209
168.2262, 6628.509
168.7083, 6630.648
169.1904, 6638.563
169.6725, 6654.722
170.1547, 6670.714
170.6368, 6682.515
171.1189, 6691.252
171.6010, 6700.653
172.0831, 6712.026
172.5652, 6725.528
173.0474, 6741.034
173.5295, 6759.210
174.0116, 6778.027
174.4937, 6794.587
174.9758, 6808.934
175.4579, 6827.062
175.9401, 6855.283
176.4222, 6887.072
176.9043, 6914.990
177.3864, 6937.025
177.8685, 6956.903
178.3506, 6978.915
178.8328, 7002.924
179.3149, 7029.968
179.7970, 7061.847
180.2791, 7096.160
180.7612, 7130.588
181.2433, 7164.297
181.7255, 7198.472
182.2076, 7236.374
182.6897, 7281.322
183.1718, 7323.766
183.6539, 7361.362
184.1360, 7396.086
184.6181, 7429.001
185.1003, 7460.461
185.5824, 7491.616
186.0645, 7526.169
186.5466, 7564.536
187.0287, 7606.692
187.5108, 7652.805
187.9930, 7702.233
188.4751, 7754.106
188.9572, 7807.651
189.4393, 7863.269
189.9214, 7922.899
190.4035, 7989.951
190.8857, 8057.102
191.3678, 8120.827
191.8499, 8183.653
192.3320, 8249.682
192.8141, 8321.044
193.2962, 8397.979
193.7784, 8484.456
194.2605, 8577.287
194.7426, 8679.869
195.2247, 8787.902
195.7068, 8905.754
196.1889, 9042.205
196.6711, 9196.257
197.1532, 9379.215
197.6353, 9626.643
198.1174, 9922.105
198.5995, 10288.35
199.0816, 10779.34
199.5638, 11377.54
200.0459, 11978.10
200.5280, 12610.84
201.0101, 13155.40
201.4922, 13343.97
201.9743, 13016.37
202.4565, 12483.08
202.9386, 11928.19
203.4207, 11346.24
203.9028, 10887.80
204.3849, 10682.91
204.8670, 10647.24
205.3492, 10671.05
205.8313, 10751.11
206.3134, 10863.67
206.7955, 10981.46
207.2776, 11103.82
207.7597, 11234.66
208.2419, 11372.66
208.7240, 11521.56
209.2061, 11686.27
209.6882, 11868.89
210.1703, 12066.99
210.6524, 12278.35
211.1346, 12504.39
211.6167, 12737.19
212.0988, 12998.44
212.5809, 13253.47
213.0630, 13473.86
213.5451, 13648.69
214.0273, 13776.28
214.5094, 13845.39
214.9915, 13822.39
215.4736, 13798.04
215.9557, 13772.84
216.4378, 13762.90
216.9200, 13781.43
217.4021, 13833.94
217.8842, 13921.87
218.3663, 14047.38
218.8484, 14202.96
219.3305, 14416.50
219.8127, 14669.87
220.2948, 14984.84
220.7769, 15390.04
221.2590, 15898.50
221.7411, 16491.62
222.2232, 17118.61
222.7054, 17967.39
223.1875, 18609.23
223.6696, 19101.33
224.1517, 19350.32
224.6338, 19210.82
225.1159, 18617.00
225.5980, 17684.71
226.0802, 16741.96
226.5623, 15646.87
227.0444, 14718.61
227.5265, 14018.31
228.0086, 13487.83
228.4907, 13078.87
228.9729, 12773.52
229.4550, 12550.67
229.9371, 12366.12
230.4192, 12231.99
230.9013, 12113.35
231.3834, 12007.15
231.8656, 11913.43
232.3477, 11833.42
232.8298, 11768.24
233.3119, 11714.42
233.7940, 11665.31
234.2761, 11620.06
234.7583, 11579.71
235.2404, 11546.08
235.7225, 11517.30
236.2046, 11489.33
236.6867, 11459.99
237.1688, 11432.73
237.6510, 11415.12
238.1331, 11408.50
238.6152, 11400.31
239.0973, 11383.98
239.5794, 11363.18
240.0615, 11345.30
240.5437, 11331.55
241.0258, 11322.87
241.5079, 11321.75
241.9900, 11327.95
242.4721, 11334.76
242.9542, 11337.98
243.4364, 11339.71
243.9185, 11345.56
244.4006, 11357.50
244.8827, 11372.38
245.3648, 11385.51
245.8469, 11397.45
246.3290, 11414.07
246.8112, 11441.43
247.2933, 11475.90
247.7754, 11506.45
248.2575, 11529.41
248.7396, 11552.04
249.2217, 11580.76
249.7039, 11613.97
250.1860, 11646.18
250.6681, 11671.96
251.1502, 11693.86
251.6323, 11722.04
252.1144, 11758.19
252.5966, 11798.80
253.0787, 11842.61
253.5608, 11888.54
254.0429, 11934.82
254.5250, 11980.07
255.0071, 12024.64
255.4893, 12070.41
255.9714, 12117.76
256.4535, 12165.62
256.9356, 12214.07
257.4177, 12262.49
257.8998, 12309.92
258.3820, 12354.58
258.8641, 12398.19
259.3462, 12446.73
259.8283, 12500.39
260.3104, 12559.40
260.7925, 12626.72
261.2747, 12697.99
261.7568, 12766.71
262.2389, 12829.38
262.7210, 12888.84
263.2031, 12955.73
263.6852, 13040.02
264.1674, 13114.10
264.6495, 13163.74
265.1316, 13204.64
265.6137, 13252.84
266.0958, 13315.29
266.5779, 13387.81
267.0601, 13460.89
267.5422, 13534.68
268.0243, 13608.49
268.5064, 13685.39
268.9885, 13760.74
269.4706, 13829.87
269.9528, 13891.21
270.4349, 13946.81
270.9170, 13999.84
271.3991, 14046.39
271.8812, 14097.70
272.3633, 14157.90
272.8455, 14220.04
273.3276, 14278.69
273.8097, 14332.64
274.2918, 14383.88
274.7739, 14435.45
275.2560, 14488.50
275.7382, 14539.28
276.2202, 14590.34
276.7024, 14637.89
277.1845, 14678.97
277.6666, 14713.67
278.1487, 14744.86
278.6308, 14776.69
279.1129, 14811.62
279.5951, 14837.52
280.0772, 14847.02
280.5593, 14855.51
281.0414, 14874.46
281.5235, 14901.60
282.0056, 14925.07
282.4878, 14933.46
282.9699, 14925.48
283.4520, 14910.95
283.9341, 14883.74
284.4162, 14857.03
284.8983, 14838.42
285.3805, 14825.31
285.8626, 14809.69
286.3447, 14785.07
286.8268, 14751.77
287.3089, 14720.02
287.7910, 14694.42
288.2732, 14665.56
288.7553, 14628.67
289.2374, 14586.75
289.7195, 14546.06
290.2016, 14510.39
290.6837, 14478.81
291.1659, 14445.25
291.6480, 14411.31
292.1301, 14373.59
292.6122, 14327.67
293.0943, 14278.46
293.5764, 14232.84
294.0586, 14193.76
294.5407, 14159.58
295.0228, 14125.74
295.5049, 14095.31
295.9870, 14061.28
296.4691, 14019.02
296.9513, 13975.00
297.4334, 13936.58
297.9155, 13906.24
298.3976, 13879.98
298.8797, 13851.15
299.3618, 13816.34
299.8440, 13785.62
300.3261, 13760.93
300.8082, 13739.21
301.2903, 13718.41
301.7724, 13697.99
302.2545, 13677.34
302.7367, 13655.31
303.2188, 13630.85
303.7009, 13609.60
304.1830, 13592.32
304.6651, 13577.05
305.1472, 13562.66
305.6294, 13549.05
306.1115, 13536.65
306.5936, 13525.92
307.0757, 13516.91
307.5578, 13508.49
308.0399, 13502.05
308.5221, 13494.77
309.0042, 13484.20
309.4863, 13471.66
309.9684, 13461.09
310.4505, 13455.43
310.9326, 13453.63
311.4148, 13448.20
311.8969, 13433.34
312.3790, 13422.17
312.8611, 13420.74
313.3432, 13424.61
313.8253, 13426.10
314.3075, 13421.55
314.7896, 13413.96
315.2717, 13411.00
315.7538, 13415.48
316.2359, 13420.75
316.7180, 13424.72
317.2001, 13429.99
317.6823, 13439.93
318.1644, 13455.49
318.6465, 13473.80
319.1286, 13490.21
319.6107, 13500.75
320.0928, 13519.79
320.5750, 13552.44
321.0571, 13589.68
321.5392, 13622.67
322.0213, 13651.31
322.5034, 13684.59
322.9855, 13731.62
323.4677, 13794.86
323.9498, 13858.14
324.4319, 13915.62
324.9140, 13978.41
325.3961, 14053.18
325.8782, 14138.35
326.3604, 14229.08
326.8425, 14322.24
327.3246, 14417.86
327.8067, 14517.99
328.2888, 14618.95
328.7709, 14728.09
329.2531, 14847.11
329.7352, 14975.49
330.2173, 15112.39
330.6994, 15257.50
331.1815, 15410.32
331.6636, 15570.88
332.1458, 15737.50
332.6279, 15915.08
333.1100, 16103.59
333.5921, 16302.20
334.0742, 16510.61
334.5563, 16727.45
335.0385, 16955.70
335.5206, 17197.78
336.0027, 17457.24
336.4848, 17725.85
336.9669, 18008.45
337.4490, 18297.50
337.9312, 18587.51
338.4133, 18879.84
338.8954, 19177.90
339.3775, 19484.92
339.8596, 19801.81
340.3417, 20124.62
340.8239, 20441.80
341.3060, 20774.63
341.7881, 21133.38
342.2702, 21514.16
342.7523, 21905.26
343.2344, 22297.60
343.7166, 22694.40
344.1987, 23107.95
344.6808, 23539.92
345.1629, 23988.00
345.6450, 24454.82
346.1271, 24937.09
346.6093, 25438.86
347.0914, 25958.02
347.5735, 26505.62
348.0556, 27089.76
348.5377, 27701.28
349.0198, 28379.98
349.5020, 29088.81
349.9841, 29880.08
350.4662, 30768.36
350.9483, 31762.16
351.4304, 32883.52
351.9125, 34153.20
352.3947, 35574.95
352.8768, 37108.88
353.3589, 38901.36
353.8410, 40655.73
354.3231, 42435.49
354.8052, 44089.62
355.2874, 45394.62
355.7695, 46218.71
356.2516, 46535.10
356.7337, 46183.08
357.2158, 44767.39
357.6979, 43156.00
358.1800, 41307.40
358.6621, 39443.40
359.1443, 37784.16
359.6264, 36405.87
360.1085, 35289.56
360.5906, 34405.45
361.0727, 33797.44
361.5548, 33318.71
362.0370, 32986.61
362.5191, 32744.60
363.0012, 32574.22
363.4833, 32465.63
363.9654, 32405.81
364.4475, 32381.23
364.9297, 32391.30
365.4118, 32446.10
365.8939, 32562.57
366.3760, 32709.94
366.8581, 32870.67
367.3402, 33051.12
367.8224, 33266.15
368.3045, 33525.18
368.7866, 33821.94
369.2687, 34141.16
369.7508, 34485.61
370.2329, 34846.72
370.7151, 35220.85
371.1972, 35609.63
371.6793, 36021.05
372.1614, 36454.42
372.6435, 36909.49
373.1256, 37387.66
373.6078, 37889.54
374.0899, 38394.36
374.5720, 38903.30
375.0541, 39409.70
375.5362, 39915.57
376.0183, 40420.07
376.5005, 40901.16
376.9826, 41350.42
377.4647, 41766.79
377.9468, 42151.05
378.4289, 42505.23
378.9110, 42820.43
379.3932, 43086.98
379.8753, 43312.67
380.3574, 43506.79
380.8395, 43677.41
381.3216, 43812.92
381.8037, 43894.96
382.2859, 43923.38
382.7680, 43919.69
383.2501, 43890.20
383.7322, 43832.41
384.2143, 43751.21
384.6964, 43649.88
385.1786, 43515.96
385.6607, 43339.12
386.1428, 43125.57
386.6249, 42890.75
387.1070, 42640.80
387.5891, 42366.37
388.0713, 42054.67
388.5534, 41709.34
389.0355, 41322.74
389.5176, 40885.63
389.9997, 40411.19
390.4818, 39910.83
390.9640, 39383.67
391.4461, 38831.85
391.9282, 38252.70
392.4103, 37648.58
392.8924, 37037.96
393.3745, 36417.56
393.8567, 35793.73
394.3388, 35164.95
394.8209, 34535.24
395.3030, 33919.48
395.7851, 33316.68
396.2672, 32730.70
396.7494, 32160.33
397.2315, 31605.15
397.7136, 31073.85
398.1957, 30562.93
398.6778, 30073.72
399.1599, 29602.50
399.6420, 29150.68
400.1241, 28727.50
400.6063, 28343.50
401.0884, 27998.10
401.5705, 27666.74
402.0526, 27341.84
402.5347, 27036.90
403.0168, 26759.38
403.4990, 26503.82
403.9811, 26262.44
404.4632, 26032.36
404.9453, 25816.81
405.4274, 25624.79
405.9095, 25466.57
406.3917, 25319.34
406.8738, 25180.94
407.3559, 25053.48
407.8380, 24936.30
408.3201, 24830.38
408.8022, 24738.62
409.2844, 24663.78
409.7665, 24606.63
410.2486, 24557.51
410.7307, 24517.24
411.2128, 24484.79
411.6949, 24456.82
412.1771, 24436.82
412.6592, 24431.21
413.1413, 24444.15
413.6234, 24469.63
414.1055, 24493.85
414.5876, 24513.31
415.0698, 24542.80
415.5519, 24588.46
416.0340, 24643.77
416.5161, 24705.05
416.9982, 24772.24
417.4803, 24846.35
417.9625, 24926.60
418.4446, 25013.84
418.9267, 25117.78
419.4088, 25244.85
419.8909, 25377.69
420.3730, 25504.59
420.8552, 25628.15
421.3373, 25751.98
421.8194, 25874.49
422.3015, 26000.49
422.7836, 26138.28
423.2657, 26287.43
423.7479, 26434.69
424.2300, 26574.15
424.7121, 26709.16
425.1942, 26846.77
425.6763, 26987.46
426.1584, 27126.66
426.6406, 27262.59
427.1227, 27396.08
427.6048, 27525.50
428.0869, 27650.97
428.5690, 27780.58
429.0511, 27926.31
429.5333, 28087.41
430.0154, 28224.53
430.4975, 28323.22
430.9796, 28411.56
431.4617, 28501.93
431.9438, 28593.86
432.4260, 28685.94
432.9081, 28777.25
433.3902, 28866.69
433.8723, 28951.56
434.3544, 29032.76
434.8365, 29106.37
435.3187, 29180.03
435.8008, 29240.71
436.2829, 29285.63
436.7650, 29309.47
437.2471, 29297.71
437.7292, 29238.79
438.2114, 29132.69
438.6935, 28967.38
439.1756, 28723.72
439.6577, 28440.00
440.1398, 28103.87
440.6219, 27739.67
441.1040, 27377.74
441.5862, 27032.33
442.0683, 26698.45
442.5504, 26370.23
443.0325, 26045.37
443.5146, 25730.90
443.9967, 25425.18
444.4789, 25132.92
444.9610, 24862.27
445.4431, 24611.03
445.9252, 24365.54
446.4073, 24118.47
446.8894, 23871.46
447.3716, 23630.83
447.8537, 23396.60
448.3358, 23168.92
448.8179, 22946.74
449.3000, 22730.17
449.7821, 22519.75
450.2643, 22315.85
450.7464, 22115.89
451.2285, 21918.08
451.7106, 21722.15
452.1927, 21532.68
452.6748, 21351.28
453.1570, 21176.94
453.6391, 21011.31
454.1212, 20852.80
454.6033, 20695.18
455.0854, 20535.33
455.5675, 20377.94
456.0497, 20227.47
456.5318, 20083.71
457.0139, 19941.43
457.4960, 19798.73
457.9781, 19654.96
458.4602, 19507.39
458.9424, 19356.32
459.4245, 19201.95
459.9066, 19047.71
460.3887, 18888.83
460.8708, 18720.93
461.3529, 18543.15
461.8351, 18356.20
462.3172, 18158.37
462.7993, 17950.43
463.2814, 17742.80
463.7635, 17534.92
464.2456, 17327.99
464.7278, 17118.21
465.2099, 16909.03
465.6920, 16706.03
466.1741, 16510.23
466.6562, 16319.71
467.1383, 16131.17
467.6205, 15942.20
468.1026, 15757.71
468.5847, 15578.87
469.0668, 15403.56
469.5489, 15230.50
470.0310, 15060.50
470.5132, 14897.78
470.9953, 14745.31
471.4774, 14601.19
471.9595, 14460.83
472.4416, 14324.79
472.9237, 14191.47
473.4059, 14062.73
473.8880, 13935.81
474.3701, 13807.39
474.8522, 13677.71
475.3343, 13550.63
475.8164, 13428.00
476.2986, 13310.74
476.7807, 13200.61
477.2628, 13099.09
477.7449, 13000.09
478.2270, 12898.61
478.7091, 12795.80
479.1913, 12697.51
479.6734, 12603.91
480.1555, 12515.11
480.6376, 12434.42
481.1197, 12358.28
481.6018, 12277.41
482.0839, 12188.40
482.5660, 12099.18
483.0482, 12020.67
483.5303, 11956.73
484.0124, 11891.34
484.4945, 11823.99
484.9766, 11755.95
485.4587, 11686.21
485.9409, 11616.05
486.4230, 11548.12
486.9051, 11483.59
487.3872, 11422.34
487.8693, 11365.27
488.3514, 11316.14
488.8336, 11263.20
489.3157, 11201.73
489.7978, 11139.98
490.2799, 11084.12
490.7620, 11033.91
491.2441, 10985.08
491.7263, 10933.89
492.2084, 10881.51
492.6905, 10833.84
493.1726, 10792.68
493.6547, 10752.31
494.1368, 10711.66
494.6190, 10670.38
495.1011, 10627.43
495.5832, 10582.33
496.0653, 10538.28
496.5474, 10499.28
497.0295, 10463.54
497.5117, 10425.49
497.9938, 10383.54
498.4759, 10342.06
498.9580, 10304.22
499.4401, 10269.57
499.9222, 10235.70
500.4044, 10203.64
500.8865, 10170.96
501.3686, 10133.65
501.8507, 10094.96
502.3328, 10062.30
502.8149, 10038.53
503.2971, 10017.20
503.7792, 9989.122
504.2613, 9951.572
504.7434, 9916.046
505.2255, 9882.337
505.7076, 9850.720
506.1898, 9822.736
506.6719, 9796.797
507.1540, 9770.438
507.6361, 9742.410
508.1182, 9712.573
508.6003, 9680.328
509.0825, 9644.044
509.5646, 9609.646
510.0467, 9577.605
510.5288, 9547.745
511.0109, 9521.239
511.4930, 9497.022
511.9752, 9471.713
512.4573, 9442.667
512.9394, 9411.407
513.4215, 9381.375
513.9036, 9352.611
514.3857, 9324.081
514.8679, 9296.057
515.3500, 9267.288
515.8321, 9236.077
516.3142, 9202.071
516.7963, 9168.554
517.2784, 9136.974
517.7606, 9106.550
518.2427, 9076.090
518.7248, 9045.502
519.2069, 9015.375
519.6890, 8986.229
520.1711, 8957.725
520.6533, 8929.188
521.1354, 8900.516
521.6175, 8871.736
522.0996, 8843.074
522.5817, 8814.270
523.0638, 8784.593
523.5460, 8754.417
524.0281, 8725.495
524.5102, 8699.801
524.9923, 8677.343
525.4744, 8655.312
525.9565, 8637.728
526.4387, 8615.223
526.9208, 8582.764
527.4029, 8546.288
527.8850, 8512.045
528.3671, 8481.599
528.8492, 8452.304
529.3314, 8421.623
529.8135, 8389.737
530.2956, 8357.421
530.7777, 8324.423
531.2598, 8291.882
531.7419, 8261.017
532.2241, 8231.068
532.7062, 8200.611
533.1883, 8170.322
533.6704, 8137.753
534.1525, 8100.362
534.6346, 8059.443
535.1168, 8016.654
535.5989, 7972.055
536.0810, 7929.140
536.5631, 7892.741
537.0452, 7863.120
537.5273, 7827.826
538.0095, 7781.836
538.4916, 7736.180
538.9737, 7695.876
539.4558, 7657.972
539.9379, 7618.062
540.4200, 7574.730
540.9022, 7528.761
541.3843, 7481.283
541.8664, 7432.034
542.3485, 7382.814
542.8306, 7333.573
543.3127, 7284.816
543.7948, 7236.699
544.2769, 7189.333
544.7590, 7143.494
545.2411, 7099.584
545.7233, 7055.646
546.2054, 7009.860
546.6875, 6962.115
547.1696, 6913.565
547.6517, 6864.419
548.1339, 6814.518
548.6160, 6761.709
549.0981, 6707.866
549.5802, 6658.220
550.0623, 6617.375
550.5444, 6577.394
551.0266, 6531.729
551.5087, 6483.043
551.9908, 6437.882
552.4729, 6398.352
552.9550, 6360.197
553.4371, 6318.042
553.9193, 6270.767
554.4014, 6225.437
554.8835, 6182.125
555.3656, 6140.450
555.8477, 6099.897
556.3298, 6060.751
556.8120, 6024.377
557.2941, 5990.977
557.7762, 5959.067
558.2583, 5925.875
558.7404, 5891.141
559.2225, 5858.703
559.7047, 5829.316
560.1868, 5801.866
560.6689, 5776.818
561.1510, 5752.813
561.6331, 5726.675
562.1152, 5696.186
562.5974, 5667.174
563.0795, 5645.597
563.5616, 5630.058
564.0437, 5616.100
564.5258, 5603.201
565.0079, 5589.739
565.4901, 5573.634
565.9722, 5555.153
566.4543, 5539.044
566.9364, 5525.927
567.4185, 5514.500
567.9006, 5505.568
568.3828, 5497.585
568.8649, 5487.736
569.3470, 5475.614
569.8291, 5463.834
570.3112, 5455.657
570.7933, 5451.245
571.2755, 5447.161
571.7576, 5444.002
572.2397, 5440.366
572.7218, 5434.223
573.2039, 5428.227
573.6860, 5425.669
574.1682, 5427.282
574.6503, 5430.333
575.1324, 5432.532
575.6145, 5434.000
576.0966, 5435.509
576.5787, 5437.297
577.0609, 5438.261
577.5430, 5437.557
578.0251, 5435.541
578.5072, 5433.283
578.9893, 5430.924
579.4714, 5428.055
579.9536, 5424.014
580.4357, 5419.660
580.9178, 5415.263
581.3999, 5411.275
581.8820, 5409.705
582.3641, 5412.336
582.8463, 5418.508
583.3284, 5424.305
583.8105, 5429.183
584.2926, 5434.575
584.7747, 5442.489
585.2568, 5449.569
585.7390, 5452.366
586.2211, 5451.498
586.7032, 5450.881
587.1853, 5453.265
587.6674, 5457.930
588.1495, 5462.932
588.6317, 5468.223
589.1138, 5474.336
589.5959, 5482.108
590.0780, 5490.189
