##NAMES=Zoisite
##RRUFFID=X060001
##IDEAL CHEMISTRY=Ca_2_Al_3_(Si_2_O_7_)(SiO_4_)O(OH)
##LOCALITY=unknown
##OWNER=
##SOURCE=Michael Scott
##DESCRIPTION=Colorless to blue bicolored gem stone
##STATUS=The identification of this mineral has been determined only by Raman spectroscopy
##URL=rruff.info/X060001
115.2599, 245.9867
115.7420, 267.1214
116.2241, 282.3727
116.7062, 291.2870
117.1884, 297.9941
117.6705, 300.9937
118.1526, 302.2660
118.6347, 311.0159
119.1168, 336.5393
119.5989, 365.7380
120.0811, 377.9867
120.5632, 368.1789
121.0453, 354.3691
121.5274, 348.3214
122.0095, 349.9799
122.4916, 356.8172
122.9738, 369.2452
123.4559, 386.1623
123.9380, 407.6496
124.4201, 436.8548
124.9022, 464.5136
125.3843, 478.6407
125.8665, 476.9352
126.3486, 473.4148
126.8307, 468.3720
127.3128, 466.5792
127.7949, 474.3557
128.2770, 496.0196
128.7592, 524.8495
129.2413, 548.1686
129.7234, 561.7399
130.2055, 580.2488
130.6876, 615.4229
131.1697, 656.3450
131.6519, 689.7936
132.1340, 708.8619
132.6161, 717.1995
133.0982, 726.3303
133.5803, 738.9330
134.0624, 747.7520
134.5446, 750.5560
135.0267, 748.7299
135.5088, 743.9689
135.9909, 736.6204
136.4730, 727.2531
136.9551, 719.2649
137.4373, 711.0493
137.9194, 706.5393
138.4015, 709.1152
138.8836, 715.9844
139.3657, 721.4966
139.8478, 720.0122
140.3300, 711.8146
140.8121, 715.0783
141.2942, 742.9171
141.7763, 771.0278
142.2584, 790.3544
142.7405, 804.2311
143.2227, 821.1914
143.7048, 847.3310
144.1869, 881.9736
144.6690, 932.5836
145.1511, 1005.486
145.6333, 1087.186
146.1154, 1179.921
146.5975, 1279.042
147.0796, 1375.223
147.5617, 1460.329
148.0438, 1536.250
148.5260, 1590.120
149.0081, 1623.838
149.4902, 1639.439
149.9723, 1633.615
150.4544, 1608.822
150.9365, 1572.972
151.4187, 1534.475
151.9008, 1493.438
152.3829, 1447.156
152.8650, 1390.297
153.3471, 1333.023
153.8292, 1280.235
154.3114, 1232.914
154.7935, 1190.603
155.2756, 1152.816
155.7577, 1119.361
156.2398, 1093.168
156.7219, 1080.216
157.2041, 1069.872
157.6862, 1052.674
158.1683, 1027.679
158.6504, 1002.973
159.1325, 988.7220
159.6146, 988.9600
160.0968, 991.8419
160.5789, 1003.807
161.0610, 1014.663
161.5431, 1014.436
162.0252, 1001.230
162.5073, 981.9506
162.9895, 964.9721
163.4716, 948.6962
163.9537, 940.4789
164.4358, 946.6286
164.9179, 957.9790
165.4000, 963.9128
165.8822, 961.7628
166.3643, 959.6196
166.8464, 970.4719
167.3285, 1000.437
167.8106, 1024.271
168.2927, 1039.166
168.7749, 1046.905
169.2570, 1047.242
169.7391, 1039.613
170.2212, 1030.377
170.7033, 1029.202
171.1854, 1037.528
171.6676, 1047.695
172.1497, 1059.046
172.6318, 1071.453
173.1139, 1084.038
173.5960, 1096.341
174.0781, 1110.655
174.5603, 1131.233
175.0424, 1158.904
175.5245, 1187.467
176.0066, 1218.588
176.4887, 1249.181
176.9708, 1274.325
177.4530, 1292.639
177.9351, 1306.310
178.4172, 1318.544
178.8993, 1330.398
179.3814, 1337.423
179.8635, 1333.841
180.3457, 1325.773
180.8278, 1322.234
181.3099, 1325.214
181.7920, 1334.173
182.2741, 1349.346
182.7562, 1369.962
183.2384, 1395.527
183.7205, 1425.387
184.2026, 1460.124
184.6847, 1501.998
185.1668, 1552.198
185.6489, 1606.713
186.1311, 1660.702
186.6132, 1714.206
187.0953, 1767.213
187.5774, 1815.435
188.0595, 1863.948
188.5416, 1924.642
189.0238, 2004.266
189.5059, 2085.907
189.9880, 2151.032
190.4701, 2202.814
190.9522, 2232.451
191.4343, 2227.226
191.9165, 2199.941
192.3986, 2174.359
192.8807, 2156.791
193.3628, 2137.496
193.8449, 2102.304
194.3270, 2052.474
194.8092, 1999.625
195.2913, 1945.335
195.7734, 1890.521
196.2555, 1836.797
196.7376, 1784.143
197.2197, 1733.069
197.7019, 1683.138
198.1840, 1633.777
198.6661, 1590.414
199.1482, 1558.505
199.6303, 1532.481
200.1124, 1502.187
200.5946, 1464.513
201.0767, 1427.070
201.5588, 1397.556
202.0409, 1374.976
202.5230, 1359.515
203.0051, 1354.325
203.4873, 1355.454
203.9694, 1356.796
204.4515, 1357.155
204.9336, 1358.984
205.4157, 1362.067
205.8978, 1366.881
206.3800, 1383.389
206.8621, 1422.491
207.3442, 1471.833
207.8263, 1510.984
208.3084, 1535.302
208.7905, 1563.296
209.2727, 1612.772
209.7548, 1681.224
210.2369, 1759.771
210.7190, 1850.463
211.2011, 1948.363
211.6832, 2048.583
212.1654, 2150.732
212.6475, 2252.023
213.1296, 2358.941
213.6117, 2465.838
214.0938, 2537.430
214.5759, 2557.273
215.0581, 2545.238
215.5402, 2520.750
216.0223, 2485.144
216.5044, 2433.919
216.9865, 2356.391
217.4686, 2257.760
217.9508, 2165.557
218.4329, 2080.422
218.9150, 2004.433
219.3971, 1940.723
219.8792, 1888.988
220.3613, 1844.337
220.8435, 1802.883
221.3256, 1766.650
221.8077, 1740.133
222.2898, 1734.838
222.7719, 1730.338
223.2540, 1709.424
223.7362, 1673.673
224.2183, 1638.209
224.7004, 1612.320
225.1825, 1594.032
225.6646, 1573.832
226.1467, 1548.897
226.6289, 1524.580
227.1110, 1504.432
227.5931, 1487.692
228.0752, 1471.129
228.5573, 1452.745
229.0394, 1433.667
229.5216, 1417.605
230.0037, 1404.025
230.4858, 1393.665
230.9679, 1389.784
231.4500, 1389.820
231.9321, 1385.911
232.4143, 1373.257
232.8964, 1356.291
233.3785, 1347.511
233.8606, 1351.280
234.3427, 1354.070
234.8248, 1347.885
235.3070, 1338.153
235.7891, 1336.783
236.2712, 1349.556
236.7533, 1368.401
237.2354, 1374.726
237.7175, 1360.608
238.1997, 1353.503
238.6818, 1367.258
239.1639, 1388.380
239.6460, 1396.843
240.1281, 1386.223
240.6102, 1367.504
241.0924, 1358.376
241.5745, 1363.971
242.0566, 1366.160
242.5387, 1364.357
243.0208, 1358.182
243.5029, 1344.229
243.9851, 1322.432
244.4672, 1301.454
244.9493, 1292.835
245.4314, 1302.480
245.9135, 1307.271
246.3956, 1301.371
246.8778, 1294.853
247.3599, 1294.814
247.8420, 1302.039
248.3241, 1313.673
248.8062, 1327.098
249.2883, 1342.317
249.7705, 1360.062
250.2526, 1383.452
250.7347, 1406.257
251.2168, 1424.488
251.6989, 1438.885
252.1810, 1452.130
252.6632, 1465.307
253.1453, 1478.151
253.6274, 1502.782
254.1095, 1554.974
254.5916, 1601.036
255.0737, 1620.883
255.5559, 1626.062
256.0380, 1641.742
256.5201, 1684.860
257.0022, 1750.647
257.4843, 1807.791
257.9665, 1845.508
258.4486, 1885.536
258.9307, 1939.958
259.4128, 1996.061
259.8949, 2038.569
260.3770, 2060.311
260.8592, 2061.999
261.3413, 2045.340
261.8234, 2002.974
262.3055, 1950.677
262.7876, 1881.646
263.2697, 1808.365
263.7519, 1742.210
264.2340, 1687.031
264.7161, 1639.109
265.1982, 1591.395
265.6803, 1537.390
266.1624, 1499.216
266.6446, 1483.879
267.1267, 1478.465
267.6088, 1476.557
268.0909, 1476.386
268.5730, 1477.805
269.0551, 1479.451
269.5373, 1479.923
270.0194, 1487.934
270.5015, 1508.732
270.9836, 1533.732
271.4657, 1560.443
271.9478, 1588.514
272.4300, 1617.866
272.9121, 1647.338
273.3942, 1677.102
273.8763, 1714.715
274.3584, 1769.089
274.8405, 1819.463
275.3227, 1852.959
275.8048, 1875.611
276.2869, 1900.974
276.7690, 1938.591
277.2511, 1983.124
277.7332, 2021.599
278.2154, 2056.809
278.6975, 2078.412
279.1796, 2081.113
279.6617, 2068.178
280.1438, 2041.239
280.6259, 1997.439
281.1081, 1944.768
281.5902, 1889.029
282.0723, 1828.517
282.5544, 1780.399
283.0365, 1763.413
283.5186, 1756.492
284.0008, 1731.154
284.4829, 1678.611
284.9650, 1625.790
285.4471, 1597.308
285.9292, 1588.453
286.4113, 1570.611
286.8935, 1530.260
287.3756, 1484.411
287.8577, 1457.006
288.3398, 1449.539
288.8219, 1443.744
289.3040, 1432.941
289.7862, 1418.863
290.2683, 1401.373
290.7504, 1378.490
291.2325, 1362.380
291.7146, 1372.599
292.1967, 1409.865
292.6789, 1434.639
293.1610, 1430.604
293.6431, 1418.602
294.1252, 1417.696
294.6073, 1429.050
295.0894, 1442.651
295.5716, 1448.702
296.0537, 1448.114
296.5358, 1464.230
297.0179, 1513.118
297.5000, 1561.453
297.9821, 1591.024
298.4643, 1606.641
298.9464, 1623.770
299.4285, 1652.132
299.9106, 1686.577
300.3927, 1705.026
300.8748, 1692.689
301.3570, 1682.617
301.8391, 1680.071
302.3212, 1681.905
302.8033, 1683.398
303.2854, 1682.932
303.7675, 1683.815
304.2497, 1691.282
304.7318, 1699.308
305.2139, 1726.657
305.6960, 1782.039
306.1781, 1847.796
306.6602, 1912.342
307.1424, 1973.837
307.6245, 2037.644
308.1066, 2109.574
308.5887, 2190.443
309.0708, 2274.284
309.5529, 2357.768
310.0351, 2447.476
310.5172, 2557.234
310.9993, 2675.462
311.4814, 2777.844
311.9635, 2849.445
312.4456, 2891.052
312.9278, 2906.679
313.4099, 2897.371
313.8920, 2857.037
314.3741, 2776.295
314.8562, 2671.109
315.3383, 2557.450
315.8205, 2437.893
316.3026, 2321.682
316.7847, 2221.618
317.2668, 2138.798
317.7489, 2065.283
318.2310, 1999.620
318.7132, 1942.333
319.1953, 1892.406
319.6774, 1849.860
320.1595, 1817.770
320.6416, 1803.656
321.1237, 1803.080
321.6059, 1797.198
322.0880, 1778.044
322.5701, 1761.615
323.0522, 1768.202
323.5343, 1794.624
324.0164, 1819.388
324.4986, 1829.657
324.9807, 1838.623
325.4628, 1865.467
325.9449, 1911.441
326.4270, 1956.741
326.9091, 1983.951
327.3913, 1996.601
327.8734, 2026.095
328.3555, 2081.919
328.8376, 2144.381
329.3197, 2206.217
329.8018, 2267.069
330.2840, 2326.826
330.7661, 2384.474
331.2482, 2443.028
331.7303, 2511.666
332.2124, 2597.049
332.6945, 2683.665
333.1767, 2769.039
333.6588, 2855.979
334.1409, 2948.761
334.6230, 3047.812
335.1051, 3149.291
335.5872, 3249.992
336.0694, 3350.261
336.5515, 3446.647
337.0336, 3544.279
337.5157, 3633.849
337.9978, 3710.581
338.4799, 3775.726
338.9621, 3832.781
339.4442, 3880.584
339.9263, 3923.281
340.4084, 3989.333
340.8905, 4082.228
341.3727, 4197.068
341.8548, 4333.602
342.3369, 4487.607
342.8190, 4659.363
343.3011, 4852.754
343.7832, 5046.442
344.2654, 5222.687
344.7475, 5388.421
345.2296, 5487.507
345.7117, 5493.122
346.1938, 5431.068
346.6759, 5325.751
347.1581, 5178.060
347.6402, 4977.322
348.1223, 4687.962
348.6044, 4338.958
349.0865, 4010.344
349.5686, 3709.102
350.0508, 3431.816
350.5329, 3175.869
351.0150, 2940.265
351.4971, 2733.752
351.9792, 2565.430
352.4613, 2422.244
352.9435, 2297.523
353.4256, 2190.081
353.9077, 2094.278
354.3898, 2009.329
354.8719, 1933.405
355.3540, 1860.486
355.8362, 1782.695
356.3183, 1718.075
356.8004, 1678.574
357.2825, 1651.969
357.7646, 1624.644
358.2467, 1592.285
358.7289, 1555.684
359.2110, 1514.559
359.6931, 1464.127
360.1752, 1424.351
360.6573, 1397.838
361.1394, 1378.055
361.6216, 1363.056
362.1037, 1351.816
362.5858, 1343.080
363.0679, 1336.167
363.5500, 1330.860
364.0321, 1325.642
364.5143, 1320.819
364.9964, 1315.562
365.4785, 1309.003
365.9606, 1302.222
366.4427, 1297.230
366.9248, 1294.996
367.4070, 1291.820
367.8891, 1281.510
368.3712, 1263.270
368.8533, 1246.511
369.3354, 1229.208
369.8175, 1218.072
370.2997, 1221.942
370.7818, 1239.216
371.2639, 1252.159
371.7460, 1247.813
372.2281, 1233.969
372.7102, 1225.535
373.1924, 1224.229
373.6745, 1223.613
374.1566, 1217.698
374.6387, 1208.845
375.1208, 1206.442
375.6029, 1217.138
376.0851, 1228.253
376.5672, 1234.629
377.0493, 1236.293
377.5314, 1231.161
378.0135, 1217.144
378.4956, 1201.800
378.9778, 1200.249
379.4599, 1224.942
379.9420, 1240.882
380.4241, 1243.550
380.9062, 1240.292
381.3883, 1232.273
381.8705, 1222.441
382.3526, 1219.383
382.8347, 1232.112
383.3168, 1260.698
383.7989, 1284.169
384.2810, 1296.877
384.7632, 1310.671
385.2453, 1325.526
385.7274, 1343.883
386.2095, 1369.657
386.6916, 1404.968
387.1737, 1444.792
387.6559, 1477.007
388.1380, 1497.485
388.6201, 1534.774
389.1022, 1607.587
389.5843, 1688.986
390.0664, 1758.200
390.5486, 1815.968
391.0307, 1877.997
391.5128, 1961.592
391.9949, 2054.586
392.4770, 2130.458
392.9591, 2185.625
393.4413, 2234.552
393.9234, 2295.849
394.4055, 2357.452
394.8876, 2379.653
395.3697, 2345.516
395.8518, 2287.985
396.3340, 2219.534
396.8161, 2140.532
397.2982, 2047.368
397.7803, 1937.057
398.2624, 1824.811
398.7445, 1735.701
399.2267, 1681.801
399.7088, 1626.844
400.1909, 1560.908
400.6730, 1501.900
401.1551, 1462.316
401.6372, 1441.041
402.1194, 1428.815
402.6015, 1419.378
403.0836, 1412.596
403.5657, 1407.426
404.0478, 1400.798
404.5299, 1400.852
405.0121, 1415.722
405.4942, 1434.174
405.9763, 1441.889
406.4584, 1434.699
406.9405, 1427.974
407.4226, 1442.544
407.9048, 1477.815
408.3869, 1506.966
408.8690, 1522.941
409.3511, 1537.095
409.8332, 1561.409
410.3153, 1592.421
410.7975, 1615.882
411.2796, 1619.646
411.7617, 1618.170
412.2438, 1627.263
412.7259, 1646.442
413.2080, 1669.131
413.6902, 1693.614
414.1723, 1717.794
414.6544, 1734.348
415.1365, 1735.579
415.6186, 1744.765
416.1007, 1770.072
416.5829, 1803.339
417.0650, 1840.665
417.5471, 1879.370
418.0292, 1910.377
418.5113, 1923.616
418.9934, 1917.872
419.4756, 1912.357
419.9577, 1913.937
420.4398, 1908.125
420.9219, 1887.996
421.4040, 1859.139
421.8861, 1829.896
422.3683, 1803.778
422.8504, 1777.204
423.3325, 1742.270
423.8146, 1697.133
424.2967, 1657.417
424.7788, 1626.586
425.2610, 1601.675
425.7431, 1579.838
426.2252, 1561.267
426.7073, 1547.918
427.1894, 1541.063
427.6715, 1539.764
428.1537, 1544.338
428.6358, 1554.789
429.1179, 1565.348
429.6000, 1573.402
430.0821, 1578.954
430.5642, 1581.734
431.0464, 1576.130
431.5285, 1577.127
432.0106, 1595.136
432.4927, 1618.955
432.9748, 1632.948
433.4569, 1634.769
433.9391, 1636.436
434.4212, 1651.487
434.9033, 1681.683
435.3854, 1707.492
435.8675, 1727.434
436.3496, 1744.336
436.8318, 1757.161
437.3139, 1767.849
437.7960, 1780.589
438.2781, 1797.561
438.7602, 1812.623
439.2423, 1813.750
439.7245, 1798.991
440.2066, 1786.694
440.6887, 1780.866
441.1708, 1777.406
441.6529, 1774.567
442.1350, 1771.740
442.6172, 1765.789
443.0993, 1753.489
443.5814, 1738.333
444.0635, 1724.031
444.5456, 1710.743
445.0277, 1699.009
445.5099, 1688.692
445.9920, 1680.536
446.4741, 1677.394
446.9562, 1681.143
447.4383, 1685.335
447.9204, 1691.733
448.4026, 1696.437
448.8847, 1692.630
449.3668, 1681.351
449.8489, 1672.521
450.3310, 1674.998
450.8131, 1688.560
451.2953, 1706.879
451.7774, 1738.223
452.2595, 1763.644
452.7416, 1776.982
453.2237, 1783.587
453.7059, 1789.031
454.1880, 1794.913
454.6701, 1800.663
455.1522, 1806.862
455.6343, 1813.100
456.1165, 1814.467
456.5986, 1809.549
457.0807, 1801.141
457.5628, 1793.416
458.0449, 1784.376
458.5270, 1766.425
459.0092, 1722.306
459.4913, 1682.925
459.9734, 1672.499
460.4555, 1684.592
460.9376, 1703.849
461.4197, 1725.609
461.9019, 1744.282
462.3840, 1749.003
462.8661, 1730.042
463.3482, 1722.539
463.8303, 1729.422
464.3124, 1744.177
464.7946, 1768.239
465.2767, 1797.173
465.7588, 1821.376
466.2409, 1834.333
466.7230, 1841.450
467.2051, 1857.375
467.6873, 1883.937
468.1694, 1913.479
468.6515, 1941.215
469.1336, 1973.996
469.6157, 2019.696
470.0978, 2077.497
470.5800, 2135.059
471.0621, 2180.522
471.5442, 2223.547
472.0263, 2282.533
472.5084, 2358.107
472.9905, 2434.563
473.4727, 2502.105
473.9548, 2564.546
474.4369, 2634.135
474.9190, 2719.230
475.4011, 2796.349
475.8832, 2863.364
476.3654, 2919.564
476.8475, 2963.312
477.3296, 2995.172
477.8117, 3018.945
478.2938, 3037.517
478.7759, 3051.060
479.2581, 3060.990
479.7402, 3060.321
480.2223, 3067.070
480.7044, 3078.973
481.1865, 3102.817
481.6686, 3144.445
482.1508, 3205.209
482.6329, 3285.714
483.1150, 3392.507
483.5971, 3520.015
484.0792, 3648.288
484.5613, 3772.976
485.0435, 3906.695
485.5256, 4060.601
486.0077, 4232.042
486.4898, 4403.995
486.9719, 4568.592
487.4540, 4743.678
487.9362, 4948.387
488.4183, 5162.744
488.9004, 5350.936
489.3825, 5506.455
489.8646, 5663.861
490.3467, 5869.968
490.8289, 6133.812
491.3110, 6349.741
491.7931, 6514.228
492.2752, 6629.021
492.7573, 6710.990
493.2394, 6738.188
493.7216, 6677.620
494.2037, 6516.403
494.6858, 6289.364
495.1679, 6023.271
495.6500, 5720.675
496.1321, 5395.284
496.6143, 5039.459
497.0964, 4687.359
497.5785, 4366.858
498.0606, 4074.352
498.5427, 3801.502
499.0248, 3545.561
499.5070, 3311.150
499.9891, 3100.797
500.4712, 2914.253
500.9533, 2754.963
501.4354, 2623.526
501.9175, 2512.982
502.3997, 2416.758
502.8818, 2337.239
503.3639, 2257.465
503.8460, 2170.019
504.3281, 2090.539
504.8102, 2023.931
505.2924, 1968.449
505.7745, 1922.498
506.2566, 1885.960
506.7387, 1854.819
507.2208, 1824.156
507.7029, 1794.358
508.1851, 1768.168
508.6672, 1746.707
509.1493, 1727.197
509.6314, 1707.659
510.1135, 1688.092
510.5956, 1669.045
511.0778, 1651.068
511.5599, 1632.956
512.0420, 1609.215
512.5241, 1586.183
513.0062, 1576.275
513.4883, 1582.769
513.9705, 1596.346
514.4526, 1605.575
514.9347, 1610.219
515.4168, 1612.191
515.8989, 1601.993
516.3810, 1600.096
516.8632, 1618.529
517.3453, 1646.459
517.8274, 1668.125
518.3095, 1677.646
518.7916, 1686.015
519.2737, 1703.678
519.7559, 1729.666
520.2380, 1760.748
520.7201, 1797.411
521.2022, 1834.797
521.6843, 1867.011
522.1664, 1895.836
522.6486, 1933.621
523.1307, 1986.304
523.6128, 2041.089
524.0949, 2095.573
524.5770, 2148.758
525.0591, 2198.852
525.5413, 2245.735
526.0234, 2291.824
526.5055, 2340.944
526.9876, 2392.823
527.4697, 2438.522
527.9518, 2486.220
528.4340, 2513.559
528.9161, 2510.583
529.3982, 2487.869
529.8803, 2457.305
530.3624, 2421.437
530.8445, 2374.624
531.3267, 2307.706
531.8088, 2227.655
532.2909, 2145.842
532.7730, 2063.276
533.2551, 1989.619
533.7372, 1933.788
534.2194, 1891.052
534.7015, 1840.656
535.1836, 1768.464
535.6657, 1708.148
536.1478, 1667.470
536.6299, 1637.107
537.1121, 1611.560
537.5942, 1588.857
538.0763, 1566.714
538.5584, 1541.437
539.0405, 1516.589
539.5226, 1509.400
540.0048, 1527.903
540.4869, 1535.182
540.9690, 1508.966
541.4511, 1475.122
541.9332, 1460.911
542.4153, 1467.295
542.8975, 1473.968
543.3796, 1475.143
543.8617, 1471.966
544.3438, 1460.015
544.8259, 1443.407
545.3080, 1439.283
545.7902, 1457.086
546.2723, 1486.105
546.7544, 1503.764
547.2365, 1504.337
547.7186, 1506.317
548.2007, 1506.866
548.6829, 1511.442
549.1650, 1524.098
549.6471, 1542.619
550.1292, 1563.894
550.6113, 1589.165
551.0934, 1608.950
551.5756, 1606.677
552.0577, 1585.303
552.5398, 1568.059
553.0219, 1559.535
553.5040, 1556.780
553.9861, 1557.786
554.4683, 1562.732
554.9504, 1569.452
555.4325, 1580.948
555.9146, 1590.788
556.3967, 1594.334
556.8788, 1595.827
557.3610, 1600.700
557.8431, 1610.300
558.3252, 1622.533
558.8073, 1634.662
559.2894, 1646.941
559.7715, 1664.661
560.2537, 1688.826
560.7358, 1716.408
561.2179, 1742.151
561.7000, 1772.883
562.1821, 1817.356
562.6642, 1877.352
563.1464, 1944.139
563.6285, 2016.177
564.1106, 2090.896
564.5927, 2162.217
565.0748, 2231.541
565.5569, 2307.454
566.0391, 2395.575
566.5212, 2493.204
567.0033, 2591.811
567.4854, 2676.635
567.9675, 2791.874
568.4496, 2959.760
568.9318, 3134.600
569.4139, 3288.821
569.8960, 3429.734
570.3781, 3580.804
570.8602, 3757.966
571.3423, 3939.149
571.8245, 4105.469
572.3066, 4252.815
572.7887, 4362.443
573.2708, 4432.028
573.7529, 4454.048
574.2350, 4417.799
574.7172, 4321.611
575.1993, 4196.952
575.6814, 4027.547
576.1635, 3850.713
576.6456, 3676.871
577.1277, 3502.737
577.6099, 3318.717
578.0920, 3125.518
578.5741, 2934.909
579.0562, 2754.252
579.5383, 2585.651
580.0204, 2444.287
580.5026, 2334.573
580.9847, 2234.287
581.4668, 2134.118
581.9489, 2040.493
582.4310, 1960.998
582.9131, 1895.652
583.3953, 1841.339
583.8774, 1801.589
584.3595, 1768.600
584.8416, 1734.252
585.3237, 1700.762
585.8058, 1674.925
586.2880, 1660.018
586.7701, 1655.341
587.2522, 1661.717
587.7343, 1682.724
588.2164, 1699.271
588.6985, 1705.331
589.1807, 1713.863
589.6628, 1725.723
590.1449, 1745.023
590.6270, 1780.222
591.1091, 1836.667
591.5912, 1899.895
592.0734, 1959.104
592.5555, 2018.689
593.0376, 2086.316
593.5197, 2163.329
594.0018, 2249.156
594.4839, 2344.706
594.9661, 2447.023
595.4482, 2541.009
595.9303, 2639.885
596.4124, 2708.150
596.8945, 2754.331
597.3766, 2763.688
597.8588, 2720.318
598.3409, 2630.404
598.8230, 2516.151
599.3051, 2382.627
599.7872, 2238.798
600.2693, 2087.142
600.7515, 1932.661
601.2336, 1796.704
601.7157, 1685.455
602.1978, 1593.349
602.6799, 1516.523
603.1620, 1455.766
603.6442, 1397.582
604.1263, 1335.241
604.6084, 1283.611
605.0905, 1248.561
605.5726, 1224.469
606.0547, 1206.820
606.5369, 1194.382
607.0190, 1186.199
607.5011, 1184.363
607.9832, 1185.303
608.4653, 1176.975
608.9474, 1158.858
609.4296, 1149.419
609.9117, 1157.120
610.3938, 1173.971
610.8759, 1189.525
611.3580, 1203.759
611.8401, 1216.300
612.3223, 1225.080
612.8044, 1234.324
613.2865, 1241.223
613.7686, 1251.581
614.2507, 1276.572
