##NAMES=Zoisite
##RRUFFID=X060001
##IDEAL CHEMISTRY=Ca_2_Al_3_(Si_2_O_7_)(SiO_4_)O(OH)
##LOCALITY=unknown
##OWNER=
##SOURCE=Michael Scott
##DESCRIPTION=Colorless to blue bicolored gem stone
##STATUS=The identification of this mineral has been determined only by Raman spectroscopy
##URL=rruff.info/X060001
101.7563, 185.2903
102.2384, 188.5179
102.7205, 191.9255
103.2026, 189.0964
103.6847, 174.9925
104.1668, 165.2362
104.6490, 166.5466
105.1311, 184.9869
105.6132, 198.5464
106.0953, 205.7537
106.5774, 208.1664
107.0595, 210.4014
107.5417, 209.9972
108.0238, 211.6706
108.5059, 217.6235
108.9880, 228.7965
109.4701, 243.1394
109.9522, 260.2975
110.4344, 280.5204
110.9165, 304.0437
111.3986, 330.3312
111.8807, 360.3465
112.3628, 394.5244
112.8449, 424.9139
113.3271, 466.8700
113.8092, 526.1826
114.2913, 604.2536
114.7734, 689.1778
115.2555, 767.9474
115.7376, 853.9204
116.2198, 962.3369
116.7019, 1089.685
117.1840, 1246.173
117.6661, 1439.757
118.1482, 1673.635
118.6303, 1937.227
119.1124, 2290.406
119.5946, 2675.525
120.0767, 2954.414
120.5588, 3025.220
121.0409, 2973.307
121.5230, 2866.566
122.0051, 2684.102
122.4873, 2500.736
122.9694, 2384.205
123.4515, 2326.392
123.9336, 2284.098
124.4157, 2232.758
124.8979, 2176.154
125.3800, 2120.731
125.8621, 2071.659
126.3442, 2023.437
126.8263, 1964.994
127.3084, 1896.279
127.7905, 1829.753
128.2727, 1780.128
128.7548, 1744.214
129.2369, 1711.466
129.7190, 1675.011
130.2011, 1637.993
130.6832, 1611.457
131.1654, 1597.664
131.6475, 1588.099
132.1296, 1565.916
132.6117, 1531.631
133.0938, 1505.973
133.5759, 1505.253
134.0581, 1527.593
134.5402, 1544.370
135.0223, 1549.433
135.5044, 1551.405
135.9865, 1573.655
136.4686, 1618.652
136.9508, 1670.717
137.4329, 1716.806
137.9150, 1754.259
138.3971, 1803.156
138.8792, 1869.435
139.3613, 1950.418
139.8434, 2027.133
140.3256, 2096.093
140.8077, 2168.323
141.2898, 2257.349
141.7719, 2368.837
142.2540, 2479.827
142.7361, 2580.834
143.2183, 2670.189
143.7004, 2777.336
144.1825, 2899.954
144.6646, 3042.178
145.1467, 3207.194
145.6288, 3400.644
146.1110, 3612.046
146.5931, 3845.810
147.0752, 4130.599
147.5573, 4367.917
148.0394, 4577.248
148.5215, 4735.642
149.0037, 4795.906
149.4858, 4738.400
149.9679, 4600.158
150.4500, 4388.645
150.9321, 4034.662
151.4142, 3706.025
151.8964, 3399.642
152.3785, 3118.518
152.8606, 2874.539
153.3427, 2667.003
153.8248, 2495.000
154.3069, 2357.989
154.7890, 2275.009
155.2712, 2204.367
155.7533, 2142.471
156.2354, 2089.316
156.7175, 2040.355
157.1996, 1987.527
157.6817, 1941.596
158.1639, 1910.582
158.6460, 1910.216
159.1281, 1912.068
159.6102, 1907.467
160.0923, 1895.785
160.5744, 1882.634
161.0566, 1863.788
161.5387, 1846.121
162.0208, 1837.430
162.5029, 1849.467
162.9850, 1864.020
163.4671, 1872.455
163.9493, 1873.561
164.4314, 1870.770
164.9135, 1862.224
165.3956, 1851.213
165.8777, 1843.051
166.3598, 1843.233
166.8420, 1845.285
167.3241, 1843.589
167.8062, 1835.546
168.2883, 1829.753
168.7704, 1832.894
169.2525, 1842.783
169.7346, 1853.983
170.2168, 1865.323
170.6989, 1875.712
171.1810, 1883.027
171.6631, 1884.186
172.1452, 1887.305
172.6273, 1899.808
173.1095, 1920.507
173.5916, 1944.903
174.0737, 1971.254
174.5558, 1999.323
175.0379, 2028.419
175.5201, 2058.858
176.0022, 2090.140
176.4843, 2121.243
176.9664, 2152.100
177.4485, 2183.590
177.9306, 2218.072
178.4128, 2253.468
178.8949, 2286.210
179.3770, 2315.963
179.8591, 2341.937
180.3412, 2359.176
180.8233, 2367.639
181.3055, 2380.093
181.7876, 2410.300
182.2697, 2454.836
182.7518, 2503.230
183.2339, 2546.717
183.7160, 2591.902
184.1982, 2653.582
184.6803, 2732.289
185.1624, 2822.945
185.6445, 2925.985
186.1266, 3038.677
186.6087, 3150.618
187.0908, 3237.303
187.5730, 3315.337
188.0551, 3452.660
188.5372, 3661.081
189.0193, 3898.669
189.5014, 4126.753
189.9835, 4346.009
190.4657, 4528.988
190.9478, 4684.273
191.4299, 4803.436
191.9120, 4803.494
192.3941, 4663.938
192.8762, 4439.958
193.3584, 4210.432
193.8405, 3975.498
194.3226, 3752.559
194.8047, 3552.642
195.2868, 3375.571
195.7689, 3216.995
196.2511, 3073.619
196.7332, 2949.304
197.2153, 2858.653
197.6974, 2804.517
198.1795, 2760.373
198.6616, 2710.050
199.1438, 2652.605
199.6259, 2598.567
200.1080, 2547.081
200.5901, 2500.741
201.0722, 2470.208
201.5543, 2457.580
202.0364, 2451.482
202.5186, 2444.184
203.0007, 2435.290
203.4828, 2427.487
203.9649, 2420.009
204.4470, 2413.929
204.9291, 2413.663
205.4113, 2418.377
205.8934, 2430.793
206.3755, 2454.974
206.8576, 2493.246
207.3397, 2531.179
207.8218, 2564.291
208.3040, 2594.327
208.7861, 2635.398
209.2682, 2688.568
209.7503, 2749.843
210.2324, 2814.109
210.7145, 2877.667
211.1967, 2956.240
211.6788, 3056.560
212.1609, 3177.544
212.6430, 3297.542
213.1251, 3421.681
213.6072, 3535.647
214.0894, 3632.190
214.5715, 3723.516
215.0536, 3762.260
215.5357, 3729.552
216.0178, 3623.850
216.4999, 3505.608
216.9820, 3370.292
217.4642, 3229.103
217.9463, 3089.978
218.4284, 2947.660
218.9105, 2823.091
219.3926, 2722.656
219.8747, 2648.505
220.3569, 2586.079
220.8390, 2538.115
221.3211, 2499.461
221.8032, 2462.044
222.2853, 2425.391
222.7674, 2391.921
223.2496, 2363.622
223.7317, 2341.507
224.2138, 2317.108
224.6959, 2288.474
225.1780, 2259.086
225.6601, 2232.267
226.1423, 2206.477
226.6244, 2186.786
227.1065, 2177.225
227.5886, 2181.900
228.0707, 2176.813
228.5528, 2156.615
229.0350, 2129.788
229.5171, 2109.805
229.9992, 2096.182
230.4813, 2089.616
230.9634, 2091.835
231.4455, 2106.324
231.9276, 2116.695
232.4098, 2121.589
232.8919, 2123.132
233.3740, 2124.440
233.8561, 2123.395
234.3382, 2125.642
234.8203, 2134.062
235.3025, 2151.553
235.7846, 2165.843
236.2667, 2175.405
236.7488, 2182.546
237.2309, 2191.313
237.7130, 2200.935
238.1952, 2213.376
238.6773, 2231.391
239.1594, 2261.646
239.6415, 2277.493
240.1236, 2272.236
240.6057, 2255.383
241.0879, 2246.395
241.5700, 2247.621
242.0521, 2253.283
242.5342, 2262.690
243.0163, 2280.234
243.4984, 2289.165
243.9806, 2285.646
244.4627, 2274.860
244.9448, 2267.169
245.4269, 2259.601
245.9090, 2259.515
246.3911, 2270.350
246.8732, 2295.451
247.3554, 2322.866
247.8375, 2353.737
248.3196, 2386.390
248.8017, 2416.398
249.2838, 2439.042
249.7659, 2466.056
250.2481, 2503.460
250.7302, 2556.817
251.2123, 2605.386
251.6944, 2645.806
252.1765, 2682.899
252.6586, 2727.821
253.1408, 2780.491
253.6229, 2841.610
254.1050, 2913.707
254.5871, 3000.921
255.0692, 3084.786
255.5513, 3160.478
256.0334, 3235.045
256.5156, 3327.692
256.9977, 3448.083
257.4798, 3570.199
257.9619, 3682.667
258.4440, 3782.647
258.9261, 3887.950
259.4083, 4013.812
259.8904, 4137.487
260.3725, 4209.687
260.8546, 4230.229
261.3367, 4199.896
261.8188, 4114.213
262.3010, 3960.775
262.7831, 3789.083
263.2652, 3584.725
263.7473, 3371.035
264.2294, 3190.338
264.7115, 3048.290
265.1937, 2929.985
265.6758, 2832.321
266.1579, 2759.047
266.6400, 2693.935
267.1221, 2635.624
267.6042, 2587.318
268.0864, 2557.199
268.5685, 2547.370
269.0506, 2549.300
269.5327, 2562.357
270.0148, 2589.245
270.4969, 2609.727
270.9791, 2619.108
271.4612, 2627.599
271.9433, 2654.647
272.4254, 2703.792
272.9075, 2757.999
273.3896, 2811.248
273.8718, 2863.125
274.3539, 2911.678
274.8360, 2953.361
275.3181, 2997.790
275.8002, 3065.229
276.2823, 3160.738
276.7645, 3252.552
277.2466, 3329.100
277.7287, 3389.873
278.2108, 3446.793
278.6929, 3502.937
279.1750, 3549.625
279.6572, 3570.914
280.1393, 3564.553
280.6214, 3552.715
281.1035, 3540.739
281.5856, 3529.059
282.0677, 3527.789
282.5499, 3540.226
283.0320, 3553.835
283.5141, 3547.013
283.9962, 3518.875
284.4783, 3500.559
284.9604, 3511.398
285.4425, 3544.925
285.9247, 3555.135
286.4068, 3539.865
286.8889, 3511.438
287.3710, 3488.390
287.8531, 3469.368
288.3352, 3430.637
288.8174, 3356.409
289.2995, 3256.052
289.7816, 3163.464
290.2637, 3080.544
290.7458, 3003.239
291.2279, 2926.224
291.7101, 2850.749
292.1922, 2784.484
292.6743, 2730.168
293.1564, 2687.156
293.6385, 2656.121
294.1206, 2637.492
294.6028, 2625.919
295.0849, 2615.886
295.5670, 2608.603
296.0491, 2608.337
296.5312, 2616.719
297.0133, 2632.684
297.4955, 2658.943
297.9776, 2694.618
298.4597, 2726.825
298.9418, 2743.777
299.4239, 2748.939
299.9060, 2749.697
300.3882, 2747.266
300.8703, 2742.031
301.3524, 2732.447
301.8345, 2719.171
302.3166, 2707.940
302.7987, 2705.841
303.2809, 2707.749
303.7630, 2704.176
304.2451, 2688.513
304.7272, 2673.019
305.2093, 2668.151
305.6914, 2673.894
306.1736, 2690.264
306.6557, 2717.224
307.1378, 2755.009
307.6199, 2804.997
308.1020, 2871.139
308.5841, 2942.932
309.0663, 3009.705
309.5484, 3075.714
310.0305, 3149.744
310.5126, 3247.015
310.9947, 3349.740
311.4768, 3445.861
311.9590, 3539.618
312.4411, 3607.735
312.9232, 3637.085
313.4053, 3629.824
313.8874, 3590.611
314.3695, 3495.197
314.8517, 3386.381
315.3337, 3291.411
315.8159, 3216.063
316.2980, 3144.087
316.7801, 3062.726
317.2622, 2980.783
317.7443, 2910.833
318.2264, 2855.766
318.7086, 2815.750
319.1907, 2792.953
319.6728, 2788.934
320.1549, 2792.619
320.6370, 2801.600
321.1191, 2816.347
321.6013, 2837.463
322.0834, 2861.055
322.5655, 2894.549
323.0476, 2942.763
323.5297, 3006.734
324.0118, 3071.150
324.4940, 3125.411
324.9761, 3183.200
325.4582, 3255.931
325.9403, 3347.520
326.4224, 3451.236
326.9045, 3569.604
327.3867, 3702.277
327.8688, 3836.813
328.3509, 3966.477
328.8330, 4102.137
329.3151, 4251.505
329.7972, 4412.788
330.2794, 4590.641
330.7615, 4788.524
331.2436, 5005.691
331.7257, 5230.857
332.2078, 5460.582
332.6899, 5704.183
333.1721, 5967.452
333.6542, 6249.448
334.1363, 6551.715
334.6184, 6894.294
335.1005, 7252.022
335.5826, 7571.536
336.0648, 7862.957
336.5469, 8097.595
337.0290, 8274.092
337.5111, 8407.389
337.9932, 8415.682
338.4753, 8277.896
338.9575, 8038.933
339.4396, 7757.687
339.9217, 7419.382
340.4038, 7095.068
340.8859, 6798.520
341.3680, 6532.263
341.8502, 6331.172
342.3323, 6206.390
342.8144, 6127.243
343.2965, 6063.273
343.7786, 6014.111
344.2607, 5979.885
344.7429, 5975.206
345.2250, 5985.125
345.7071, 5952.463
346.1892, 5877.350
346.6713, 5754.329
347.1534, 5560.033
347.6355, 5304.875
348.1176, 5039.127
348.5998, 4764.321
349.0819, 4492.603
349.5640, 4242.953
350.0461, 4012.343
350.5282, 3805.425
351.0103, 3625.082
351.4925, 3468.684
351.9746, 3328.657
352.4567, 3205.318
352.9388, 3096.958
353.4209, 3002.126
353.9030, 2920.795
354.3852, 2852.749
354.8673, 2805.094
355.3494, 2767.613
355.8315, 2729.026
356.3136, 2687.858
356.7957, 2646.262
357.2779, 2605.044
357.7600, 2564.874
358.2421, 2527.646
358.7242, 2488.549
359.2063, 2456.265
359.6884, 2439.580
360.1706, 2440.513
360.6527, 2441.572
361.1348, 2433.126
361.6169, 2420.606
362.0990, 2410.538
362.5811, 2408.592
363.0633, 2405.786
363.5454, 2397.498
364.0275, 2383.892
364.5096, 2372.531
364.9917, 2367.605
365.4738, 2364.304
365.9560, 2359.188
366.4381, 2349.813
366.9202, 2340.883
367.4023, 2330.402
367.8844, 2319.875
368.3665, 2316.865
368.8487, 2332.345
369.3308, 2347.045
369.8129, 2352.633
370.2950, 2345.340
370.7771, 2335.130
371.2592, 2316.360
371.7414, 2296.230
372.2235, 2290.895
372.7056, 2311.314
373.1877, 2329.124
373.6698, 2333.883
374.1519, 2323.485
374.6341, 2310.915
375.1162, 2292.525
375.5983, 2276.654
376.0804, 2275.333
376.5625, 2291.444
377.0446, 2310.264
377.5267, 2328.141
378.0089, 2345.451
378.4910, 2365.352
378.9731, 2389.291
379.4552, 2409.900
379.9373, 2417.224
380.4194, 2412.050
380.9016, 2411.809
381.3837, 2421.458
381.8658, 2436.307
382.3479, 2444.280
382.8300, 2445.787
383.3121, 2450.642
383.7943, 2466.515
384.2764, 2490.773
384.7585, 2517.265
385.2406, 2545.346
385.7227, 2574.434
386.2048, 2596.782
386.6870, 2617.492
387.1691, 2652.398
387.6512, 2716.075
388.1333, 2794.476
388.6154, 2871.711
389.0975, 2946.108
389.5797, 3026.684
390.0618, 3113.875
390.5439, 3212.294
391.0260, 3326.584
391.5081, 3468.719
391.9902, 3618.029
392.4724, 3773.761
392.9545, 3932.179
393.4366, 4070.787
393.9187, 4207.503
394.4008, 4304.100
394.8829, 4334.110
395.3651, 4265.635
395.8472, 4165.884
396.3293, 4041.108
396.8114, 3896.349
397.2935, 3744.940
397.7756, 3564.532
398.2578, 3398.749
398.7399, 3263.408
399.2220, 3165.990
399.7041, 3082.586
400.1862, 3014.523
400.6683, 2959.672
401.1505, 2915.676
401.6326, 2885.001
402.1147, 2861.389
402.5968, 2842.554
403.0789, 2828.493
403.5610, 2826.007
404.0432, 2837.236
404.5253, 2856.842
405.0074, 2879.411
405.4895, 2903.101
405.9716, 2939.157
406.4537, 2990.724
406.9359, 3054.318
407.4180, 3120.795
407.9001, 3190.801
408.3822, 3260.935
408.8643, 3330.905
409.3464, 3400.348
409.8285, 3465.031
410.3106, 3522.933
410.7928, 3580.352
411.2749, 3642.512
411.7570, 3711.053
412.2391, 3792.310
412.7212, 3896.508
413.2033, 4014.013
413.6855, 4120.132
414.1676, 4214.831
414.6497, 4325.137
415.1318, 4474.438
415.6139, 4652.820
416.0960, 4842.111
416.5782, 5040.090
417.0603, 5246.315
417.5424, 5481.459
418.0245, 5729.004
418.5066, 5930.542
418.9887, 6074.617
419.4709, 6152.773
419.9530, 6157.779
420.4351, 6080.964
420.9172, 5952.268
421.3993, 5764.384
421.8814, 5535.537
422.3636, 5292.459
422.8457, 5015.891
423.3278, 4750.462
423.8099, 4509.877
424.2920, 4292.663
424.7741, 4098.191
425.2563, 3923.566
425.7384, 3772.120
426.2205, 3650.498
426.7026, 3570.054
427.1847, 3498.700
427.6668, 3434.051
428.1490, 3376.877
428.6311, 3328.805
429.1132, 3285.214
429.5953, 3259.167
430.0774, 3260.277
430.5595, 3291.787
431.0417, 3326.519
431.5238, 3365.570
432.0059, 3405.113
432.4880, 3437.059
432.9701, 3461.193
433.4522, 3491.726
433.9344, 3536.531
434.4165, 3590.639
434.8986, 3641.152
435.3807, 3688.085
435.8628, 3732.574
436.3449, 3775.690
436.8271, 3817.142
437.3092, 3858.885
437.7913, 3906.865
438.2734, 3942.873
438.7555, 3942.182
439.2376, 3911.976
439.7197, 3873.933
440.2018, 3836.601
440.6840, 3798.427
441.1661, 3757.819
441.6482, 3714.847
442.1303, 3670.375
442.6124, 3626.357
443.0945, 3580.381
443.5767, 3530.318
444.0588, 3467.205
444.5409, 3407.914
445.0230, 3356.530
445.5051, 3312.958
445.9872, 3277.103
446.4694, 3253.397
446.9515, 3234.158
447.4336, 3216.289
447.9157, 3205.425
448.3978, 3185.259
448.8799, 3146.379
449.3621, 3102.084
449.8442, 3076.368
450.3263, 3071.730
450.8084, 3080.669
451.2905, 3103.810
451.7726, 3140.697
452.2548, 3176.174
452.7369, 3208.763
453.2190, 3243.843
453.7011, 3289.931
454.1832, 3346.983
454.6653, 3398.652
455.1475, 3446.034
455.6296, 3481.882
456.1117, 3500.622
456.5938, 3500.361
457.0759, 3460.587
457.5580, 3350.088
458.0402, 3195.742
458.5223, 3044.478
459.0044, 2896.487
459.4865, 2765.935
459.9686, 2662.568
460.4507, 2584.509
460.9329, 2526.319
461.4150, 2494.120
461.8971, 2475.694
462.3792, 2466.507
462.8613, 2465.525
463.3434, 2467.148
463.8256, 2465.781
464.3077, 2468.351
464.7898, 2480.351
465.2719, 2507.397
465.7540, 2533.122
466.2361, 2555.400
466.7183, 2574.418
467.2004, 2589.914
467.6825, 2587.640
468.1646, 2597.843
468.6467, 2629.355
469.1288, 2682.423
469.6110, 2735.540
470.0930, 2788.767
470.5752, 2842.130
471.0573, 2893.871
471.5394, 2939.811
472.0215, 3000.971
472.5036, 3081.127
472.9857, 3174.921
473.4679, 3272.985
473.9500, 3374.529
474.4321, 3478.978
474.9142, 3585.809
475.3963, 3695.219
475.8784, 3812.023
476.3606, 3937.261
476.8427, 4055.684
477.3248, 4148.934
477.8069, 4224.304
478.2890, 4292.705
478.7711, 4344.776
479.2533, 4411.263
479.7354, 4531.150
480.2175, 4691.472
480.6996, 4853.999
481.1817, 4986.701
481.6638, 5121.358
482.1460, 5277.457
482.6281, 5455.404
483.1102, 5656.006
483.5923, 5879.207
484.0744, 6124.843
484.5565, 6393.840
485.0387, 6691.152
485.5208, 7002.230
486.0029, 7337.417
486.4850, 7688.860
486.9671, 8022.087
487.4492, 8315.632
487.9314, 8613.167
488.4135, 8929.688
488.8956, 9259.470
489.3777, 9629.269
489.8598, 10051.71
490.3419, 10499.63
490.8241, 10971.60
491.3062, 11479.87
491.7883, 11897.55
492.2704, 12208.92
492.7525, 12402.77
493.2346, 12463.36
493.7168, 12389.36
494.1989, 12163.30
494.6810, 11724.81
495.1631, 11133.87
495.6452, 10484.05
496.1273, 9781.487
496.6095, 9073.801
497.0916, 8396.978
497.5737, 7762.394
498.0558, 7184.576
498.5379, 6680.316
499.0201, 6232.197
499.5022, 5849.750
499.9843, 5523.289
500.4664, 5217.118
500.9485, 4910.261
501.4306, 4628.619
501.9127, 4391.861
502.3948, 4215.123
502.8770, 4056.782
503.3591, 3921.310
503.8412, 3801.061
504.3233, 3683.811
504.8054, 3557.819
505.2875, 3456.720
505.7697, 3392.649
506.2518, 3360.093
506.7339, 3319.819
507.2160, 3269.117
507.6981, 3218.776
508.1802, 3178.188
508.6624, 3146.883
509.1445, 3106.124
509.6266, 3051.817
510.1087, 2997.835
510.5908, 2962.458
511.0729, 2943.667
511.5551, 2933.067
512.0372, 2930.169
512.5193, 2931.781
513.0014, 2932.556
513.4835, 2933.401
513.9656, 2939.495
514.4478, 2958.474
514.9299, 2981.586
515.4120, 2999.914
515.8941, 3009.347
516.3762, 3023.316
516.8583, 3050.651
517.3405, 3084.344
517.8226, 3115.477
518.3047, 3130.602
518.7868, 3155.476
519.2689, 3200.129
519.7510, 3261.766
520.2332, 3319.363
520.7153, 3368.801
521.1974, 3417.910
521.6795, 3469.234
522.1616, 3521.449
522.6437, 3580.866
523.1259, 3645.346
523.6080, 3719.741
524.0901, 3814.664
524.5722, 3931.445
525.0543, 4043.736
525.5364, 4144.397
526.0186, 4238.913
526.5007, 4348.871
526.9828, 4469.492
527.4649, 4567.187
527.9470, 4610.104
528.4291, 4619.929
528.9113, 4632.384
529.3934, 4653.358
529.8755, 4652.477
530.3576, 4608.705
530.8397, 4531.164
531.3218, 4430.050
531.8040, 4283.517
532.2861, 4140.641
532.7682, 4017.890
533.2503, 3912.156
533.7324, 3819.170
534.2145, 3740.494
534.6967, 3671.808
535.1788, 3612.047
535.6609, 3563.176
536.1430, 3515.438
536.6251, 3470.077
537.1072, 3425.522
537.5894, 3381.492
538.0715, 3338.591
538.5536, 3293.337
539.0357, 3244.783
539.5178, 3194.832
539.9999, 3142.546
540.4821, 3089.186
540.9642, 3047.628
541.4463, 3031.039
541.9284, 3028.716
542.4105, 3017.734
542.8926, 2998.123
543.3748, 2978.815
543.8569, 2965.872
544.3390, 2957.772
544.8211, 2952.633
545.3032, 2950.250
545.7853, 2950.149
546.2675, 2954.308
546.7495, 2960.237
547.2316, 2963.670
547.7137, 2955.465
548.1959, 2952.852
548.6780, 2963.499
549.1601, 2987.274
549.6422, 3007.293
550.1243, 3024.999
550.6064, 3037.292
551.0886, 3040.428
551.5707, 3029.552
552.0528, 3029.350
552.5349, 3043.819
553.0170, 3062.063
553.4991, 3068.432
553.9813, 3063.154
554.4634, 3056.864
554.9455, 3052.434
555.4276, 3048.871
555.9097, 3037.884
556.3918, 3022.870
556.8740, 3023.598
557.3561, 3066.794
557.8382, 3124.760
558.3203, 3165.236
558.8024, 3184.488
559.2845, 3201.866
559.7667, 3220.591
560.2488, 3246.681
560.7309, 3286.267
561.2130, 3349.193
561.6951, 3415.541
562.1772, 3483.443
562.6594, 3552.479
563.1415, 3621.070
563.6236, 3676.907
564.1057, 3748.692
564.5878, 3848.550
565.0699, 3974.814
565.5521, 4096.650
566.0342, 4210.514
566.5163, 4330.497
566.9984, 4470.887
567.4805, 4630.157
567.9626, 4790.510
568.4448, 4950.063
568.9269, 5116.515
569.4090, 5309.495
569.8911, 5519.513
570.3732, 5725.463
570.8553, 5920.896
571.3375, 6105.607
571.8196, 6282.173
572.3017, 6447.474
572.7838, 6579.233
573.2659, 6695.929
573.7480, 6755.229
574.2302, 6727.295
574.7123, 6599.218
575.1944, 6432.891
575.6765, 6229.007
576.1586, 5996.043
576.6407, 5739.338
577.1229, 5431.523
577.6050, 5147.746
578.0871, 4894.903
578.5692, 4667.088
579.0513, 4458.866
579.5334, 4271.181
580.0156, 4096.546
580.4977, 3928.710
580.9798, 3772.672
581.4619, 3647.460
581.9440, 3553.063
582.4261, 3477.052
582.9083, 3415.432
583.3904, 3365.642
583.8725, 3323.231
584.3546, 3287.933
584.8367, 3258.162
585.3188, 3235.806
585.8010, 3216.989
586.2831, 3196.752
586.7652, 3167.062
587.2473, 3142.908
587.7294, 3125.148
588.2115, 3115.428
588.6937, 3119.469
589.1758, 3141.935
589.6579, 3171.777
590.1400, 3205.258
590.6221, 3242.241
591.1042, 3290.588
591.5864, 3351.968
592.0685, 3418.971
592.5506, 3478.006
593.0327, 3531.586
593.5148, 3625.074
593.9969, 3771.125
594.4791, 3928.697
594.9612, 4055.056
595.4433, 4152.809
595.9254, 4227.557
596.4075, 4289.777
596.8896, 4320.552
597.3718, 4302.243
597.8539, 4238.814
598.3360, 4142.278
598.8181, 4002.223
599.3002, 3842.794
599.7823, 3669.182
600.2645, 3477.091
600.7466, 3302.306
