##NAMES=Zoisite
##RRUFFID=R050041
##IDEAL CHEMISTRY=Ca_2_Al_3_(Si_2_O_7_)(SiO_4_)O(OH)
##LOCALITY=Franklin County, Conway, Massachussetts, USA
##OWNER=RRUFF
##SOURCE=University of Arizona Mineral Museum
##DESCRIPTION=Tan colored fragment
##STATUS=The identification of this mineral has been confirmed by X-ray diffraction and chemical analysis
##URL=rruff.info/R050041
##MEASURED CHEMISTRY=(Ca_.993_Mg_.004_Na_.002_Mn_.001_)_2_(Al_.980_Fe^3+^_.020_)_3_(Si_.986_Fe^3+^_.014_)_3_O_12_(OH)
144.9337, 1412.201
145.4158, 1471.753
145.8979, 1535.310
146.3801, 1617.484
146.8622, 1719.839
147.3443, 1819.544
147.8264, 1919.637
148.3085, 2007.978
148.7906, 2075.787
149.2728, 2121.625
149.7549, 2150.973
150.2370, 2172.460
150.7191, 2188.982
151.2012, 2182.485
151.6833, 2129.684
152.1655, 2065.950
152.6476, 2008.431
153.1297, 1961.040
153.6118, 1921.383
154.0939, 1888.850
154.5760, 1868.171
155.0582, 1838.760
155.5403, 1784.569
156.0224, 1731.318
156.5045, 1696.411
156.9866, 1682.395
157.4688, 1677.610
157.9509, 1664.242
158.4330, 1632.526
158.9151, 1616.956
159.3972, 1629.699
159.8793, 1648.253
160.3615, 1659.033
160.8436, 1659.327
161.3257, 1654.806
161.8078, 1653.186
162.2899, 1654.980
162.7720, 1658.987
163.2542, 1665.399
163.7363, 1673.386
164.2184, 1681.233
164.7005, 1689.195
165.1826, 1700.324
165.6647, 1719.504
166.1469, 1752.539
166.6290, 1779.975
167.1111, 1795.577
167.5932, 1810.861
168.0753, 1835.777
168.5574, 1870.836
169.0396, 1907.645
169.5217, 1935.369
170.0038, 1951.121
170.4859, 1964.115
170.9680, 1968.596
171.4501, 1974.544
171.9323, 1991.324
172.4144, 2019.299
172.8965, 2048.862
173.3786, 2068.592
173.8607, 2073.883
174.3428, 2086.184
174.8250, 2112.209
175.3071, 2140.171
175.7892, 2160.834
176.2713, 2173.472
176.7534, 2183.569
177.2355, 2196.191
177.7177, 2211.681
178.1998, 2230.421
178.6819, 2253.187
179.1640, 2278.479
179.6461, 2307.244
180.1282, 2338.857
180.6104, 2367.751
181.0925, 2386.835
181.5746, 2395.200
182.0567, 2414.986
182.5388, 2457.004
183.0209, 2502.649
183.5031, 2537.553
183.9852, 2561.272
184.4673, 2582.476
184.9494, 2607.489
185.4315, 2636.322
185.9136, 2664.796
186.3958, 2691.250
186.8779, 2718.541
187.3600, 2749.789
187.8421, 2784.771
188.3242, 2819.830
188.8063, 2853.644
189.2885, 2885.157
189.7706, 2912.056
190.2527, 2936.416
190.7348, 2954.640
191.2169, 2963.041
191.6990, 2962.053
192.1812, 2956.838
192.6633, 2953.164
193.1454, 2945.258
193.6275, 2920.496
194.1096, 2867.745
194.5917, 2811.035
195.0739, 2769.454
195.5560, 2741.133
196.0381, 2709.270
196.5202, 2664.401
197.0023, 2611.581
197.4844, 2560.814
197.9666, 2510.552
198.4487, 2465.524
198.9308, 2431.028
199.4129, 2405.685
199.8950, 2382.452
200.3771, 2361.056
200.8593, 2338.095
201.3414, 2307.168
201.8235, 2265.198
202.3056, 2227.292
202.7877, 2205.933
203.2698, 2198.358
203.7520, 2190.195
204.2341, 2178.351
204.7162, 2163.089
205.1983, 2143.459
205.6804, 2118.944
206.1625, 2098.204
206.6447, 2088.751
207.1268, 2087.909
207.6089, 2084.367
208.0910, 2073.766
208.5731, 2063.223
209.0552, 2061.528
209.5374, 2067.427
210.0195, 2070.113
210.5016, 2059.586
210.9837, 2041.056
211.4658, 2031.139
211.9479, 2034.225
212.4301, 2041.695
212.9122, 2047.373
213.3943, 2051.680
213.8764, 2055.782
214.3585, 2059.612
214.8406, 2063.676
215.3228, 2069.959
215.8049, 2080.164
216.2870, 2088.634
216.7691, 2090.437
217.2512, 2088.032
217.7333, 2085.638
218.2155, 2083.404
218.6976, 2082.808
219.1797, 2087.553
219.6618, 2099.317
220.1439, 2110.583
220.6260, 2116.492
221.1082, 2119.594
221.5903, 2122.852
222.0724, 2127.139
222.5545, 2131.927
223.0366, 2136.773
223.5187, 2141.814
224.0009, 2146.114
224.4830, 2150.680
224.9651, 2153.504
225.4472, 2151.920
225.9293, 2144.764
226.4114, 2135.143
226.8936, 2123.785
227.3757, 2110.252
227.8578, 2104.619
228.3399, 2118.186
228.8220, 2135.222
229.3041, 2140.560
229.7863, 2132.236
230.2684, 2120.139
230.7505, 2110.690
231.2326, 2103.950
231.7147, 2101.077
232.1968, 2104.759
232.6790, 2109.942
233.1611, 2113.585
233.6432, 2115.444
234.1253, 2113.696
234.6074, 2104.412
235.0895, 2089.731
235.5717, 2079.748
236.0538, 2077.376
236.5359, 2077.065
237.0180, 2073.724
237.5001, 2068.657
237.9822, 2066.228
238.4644, 2069.776
238.9465, 2077.381
239.4286, 2083.796
239.9107, 2087.628
240.3928, 2093.735
240.8749, 2108.398
241.3571, 2127.021
241.8392, 2141.766
242.3213, 2149.326
242.8034, 2152.238
243.2855, 2153.426
243.7676, 2152.413
244.2498, 2152.247
244.7319, 2153.709
245.2140, 2157.271
245.6961, 2164.418
246.1782, 2177.146
246.6603, 2189.978
247.1425, 2195.399
247.6246, 2193.447
248.1067, 2195.732
248.5888, 2208.757
249.0709, 2226.423
249.5530, 2241.190
250.0352, 2252.161
250.5173, 2263.264
250.9994, 2276.624
251.4815, 2292.184
251.9636, 2310.951
252.4457, 2336.793
252.9279, 2360.474
253.4100, 2368.933
253.8921, 2363.487
254.3742, 2364.175
254.8563, 2383.641
255.3384, 2415.659
255.8206, 2446.559
256.3027, 2474.435
256.7848, 2501.791
257.2669, 2533.404
257.7490, 2566.932
258.2311, 2594.257
258.7133, 2610.258
259.1954, 2620.123
259.6775, 2631.040
260.1596, 2643.631
260.6417, 2653.124
261.1238, 2657.800
261.6060, 2656.447
262.0881, 2647.077
262.5702, 2630.170
263.0523, 2604.344
263.5344, 2563.019
264.0165, 2508.393
264.4987, 2460.284
264.9808, 2430.178
265.4629, 2409.465
265.9450, 2378.300
266.4271, 2329.804
266.9092, 2288.602
267.3914, 2269.830
267.8735, 2267.490
268.3556, 2267.103
268.8377, 2264.980
269.3198, 2262.274
269.8019, 2260.167
270.2841, 2258.292
270.7662, 2258.949
271.2483, 2259.314
271.7304, 2263.932
272.2125, 2282.681
272.6946, 2317.864
273.1768, 2352.167
273.6589, 2366.714
274.1410, 2361.036
274.6231, 2364.973
275.1052, 2387.449
275.5873, 2414.271
276.0695, 2434.850
276.5516, 2449.625
277.0337, 2464.873
277.5158, 2485.630
277.9979, 2510.207
278.4800, 2528.602
278.9622, 2529.259
279.4443, 2537.071
279.9264, 2567.065
280.4085, 2610.455
280.8906, 2650.633
281.3727, 2681.147
281.8549, 2702.030
282.3370, 2711.965
282.8191, 2698.974
283.3012, 2697.190
283.7833, 2720.392
284.2654, 2751.811
284.7476, 2773.127
285.2297, 2780.279
285.7118, 2781.573
286.1939, 2787.934
286.6760, 2803.153
287.1581, 2809.001
287.6403, 2803.378
288.1224, 2791.163
288.6045, 2774.519
289.0866, 2753.882
289.5687, 2728.201
290.0508, 2695.260
290.5330, 2655.581
291.0151, 2628.436
291.4972, 2626.758
291.9793, 2622.420
292.4614, 2602.971
292.9435, 2577.327
293.4257, 2560.060
293.9078, 2558.524
294.3899, 2568.151
294.8720, 2576.289
295.3541, 2581.951
295.8362, 2587.402
296.3184, 2586.519
296.8005, 2589.147
297.2826, 2604.599
297.7647, 2634.483
298.2468, 2672.063
298.7289, 2709.517
299.2111, 2746.404
299.6932, 2784.088
300.1753, 2821.830
300.6574, 2860.979
301.1395, 2901.484
301.6216, 2943.839
302.1038, 2988.996
302.5859, 3037.041
303.0680, 3088.438
303.5501, 3147.730
304.0322, 3221.164
304.5143, 3294.818
304.9965, 3358.739
305.4786, 3422.062
305.9607, 3498.393
306.4428, 3595.715
306.9249, 3700.922
307.4070, 3790.931
307.8892, 3862.425
308.3713, 3930.762
308.8534, 4002.191
309.3355, 4070.253
309.8176, 4135.604
310.2997, 4197.079
310.7819, 4239.793
311.2640, 4246.122
311.7461, 4218.565
312.2282, 4186.930
312.7103, 4161.929
313.1924, 4120.945
313.6746, 4047.036
314.1567, 3946.805
314.6388, 3838.140
315.1209, 3728.558
315.6030, 3616.141
316.0851, 3492.738
316.5673, 3354.654
317.0494, 3227.737
317.5315, 3127.928
318.0136, 3048.492
318.4957, 2976.841
318.9778, 2912.343
319.4600, 2854.273
319.9421, 2800.325
320.4242, 2751.669
320.9063, 2711.893
321.3884, 2682.588
321.8705, 2662.504
322.3527, 2652.856
322.8348, 2654.458
323.3169, 2653.643
323.7990, 2639.905
324.2811, 2624.691
324.7632, 2622.925
325.2454, 2636.619
325.7275, 2658.151
326.2096, 2682.153
326.6917, 2708.656
327.1738, 2733.939
327.6559, 2752.465
328.1381, 2775.092
328.6202, 2809.777
329.1023, 2853.167
329.5844, 2895.924
330.0665, 2932.688
330.5486, 2966.545
331.0308, 3006.997
331.5129, 3056.688
331.9950, 3109.318
332.4771, 3162.846
332.9592, 3219.858
333.4413, 3287.145
333.9235, 3364.039
334.4056, 3438.181
334.8877, 3492.650
335.3698, 3521.313
335.8519, 3557.542
336.3340, 3604.848
336.8162, 3655.049
337.2983, 3700.661
337.7804, 3746.397
338.2625, 3804.462
338.7446, 3884.050
339.2267, 3979.234
339.7089, 4063.531
340.1910, 4125.959
340.6731, 4195.222
341.1552, 4282.073
341.6373, 4373.934
342.1194, 4460.063
342.6016, 4537.039
343.0837, 4607.998
343.5658, 4681.440
344.0479, 4760.585
344.5300, 4813.270
345.0121, 4831.552
345.4943, 4824.576
345.9764, 4802.284
346.4585, 4761.126
346.9406, 4689.426
347.4227, 4570.445
347.9048, 4418.762
348.3870, 4269.417
348.8691, 4124.575
349.3512, 3974.373
349.8333, 3802.756
350.3154, 3627.620
350.7975, 3474.200
351.2797, 3350.612
351.7618, 3238.337
352.2439, 3122.078
352.7260, 3005.518
353.2081, 2902.654
353.6902, 2819.172
354.1724, 2746.742
354.6545, 2675.486
355.1366, 2604.931
355.6187, 2539.862
356.1008, 2481.872
356.5829, 2429.264
357.0651, 2377.877
357.5472, 2328.270
358.0293, 2289.557
358.5114, 2270.927
358.9935, 2268.460
359.4756, 2252.432
359.9578, 2208.958
360.4399, 2170.754
360.9220, 2151.662
361.4041, 2141.791
361.8862, 2125.839
362.3683, 2098.876
362.8505, 2068.861
363.3326, 2048.630
363.8147, 2041.883
364.2968, 2036.080
364.7789, 2033.388
365.2610, 2029.612
365.7432, 2022.096
366.2253, 2011.332
366.7074, 1998.989
367.1895, 1985.515
367.6716, 1972.008
368.1537, 1965.009
368.6359, 1968.913
369.1180, 1973.108
369.6001, 1976.523
370.0822, 1978.608
370.5643, 1979.374
371.0464, 1978.742
371.5286, 1975.321
372.0107, 1963.445
372.4928, 1941.981
372.9749, 1935.163
373.4570, 1958.743
373.9391, 1982.100
374.4213, 1983.899
374.9034, 1969.780
375.3855, 1957.616
375.8676, 1955.478
376.3497, 1960.336
376.8318, 1969.060
377.3140, 1982.174
377.7961, 1992.800
378.2782, 1998.372
378.7603, 1998.727
379.2424, 1992.982
379.7245, 1976.816
380.2067, 1967.121
380.6888, 1977.574
381.1709, 1998.512
381.6530, 2011.822
382.1351, 2013.500
382.6172, 2011.527
383.0994, 2014.102
383.5815, 2021.870
384.0636, 2026.382
384.5457, 2021.142
385.0278, 2018.988
385.5099, 2029.918
385.9921, 2049.116
386.4742, 2064.225
386.9563, 2068.700
387.4384, 2067.717
387.9205, 2074.692
388.4026, 2096.996
388.8848, 2116.318
389.3669, 2127.424
389.8490, 2139.355
390.3311, 2161.051
390.8132, 2191.316
391.2953, 2220.528
391.7775, 2239.054
392.2596, 2247.727
392.7417, 2262.231
393.2238, 2287.240
393.7059, 2311.432
394.1880, 2331.627
394.6702, 2349.150
395.1523, 2365.923
395.6344, 2382.693
396.1165, 2397.850
396.5986, 2410.732
397.0807, 2421.354
397.5629, 2424.614
398.0450, 2418.392
398.5271, 2405.688
399.0092, 2389.743
399.4913, 2370.274
399.9734, 2345.809
400.4556, 2307.526
400.9377, 2268.641
401.4198, 2246.962
401.9019, 2241.893
402.3840, 2239.818
402.8661, 2232.880
403.3483, 2225.262
403.8304, 2228.760
404.3125, 2248.059
404.7946, 2266.059
405.2767, 2277.476
405.7589, 2285.911
406.2410, 2294.368
406.7231, 2303.798
407.2052, 2315.860
407.6873, 2332.431
408.1694, 2353.612
408.6516, 2376.451
409.1337, 2402.403
409.6158, 2428.193
410.0979, 2456.834
410.5800, 2483.681
411.0621, 2501.629
411.5443, 2508.025
412.0264, 2508.399
412.5085, 2512.706
412.9906, 2523.810
413.4727, 2528.301
413.9548, 2514.374
414.4370, 2503.409
414.9191, 2507.385
415.4012, 2522.720
415.8833, 2537.990
416.3654, 2547.530
416.8475, 2552.567
417.3297, 2555.115
417.8118, 2554.955
418.2939, 2554.020
418.7760, 2553.637
419.2581, 2552.293
419.7402, 2548.465
420.2224, 2542.109
420.7045, 2533.224
421.1866, 2520.507
421.6687, 2505.711
422.1508, 2492.398
422.6329, 2480.952
423.1151, 2466.911
423.5972, 2444.910
424.0793, 2416.760
424.5614, 2399.073
425.0435, 2403.801
425.5256, 2403.567
426.0078, 2380.708
426.4899, 2351.820
426.9720, 2341.026
427.4541, 2354.750
427.9362, 2379.502
428.4183, 2397.931
428.9005, 2408.734
429.3826, 2419.305
429.8647, 2428.987
430.3468, 2439.114
430.8289, 2449.224
431.3110, 2460.315
431.7932, 2475.019
432.2753, 2495.312
432.7574, 2516.266
433.2395, 2530.300
433.7216, 2537.819
434.2037, 2535.062
434.6859, 2509.289
435.1680, 2484.661
435.6501, 2485.746
436.1322, 2507.772
436.6143, 2519.615
437.0964, 2493.689
437.5786, 2456.200
438.0607, 2450.870
438.5428, 2476.759
439.0249, 2489.031
439.5070, 2459.929
439.9891, 2407.841
440.4713, 2379.344
440.9534, 2386.007
441.4355, 2383.369
441.9176, 2355.298
442.3997, 2317.626
442.8818, 2284.436
443.3640, 2257.884
443.8461, 2235.285
444.3282, 2214.707
444.8103, 2195.980
445.2924, 2176.472
445.7745, 2151.632
446.2567, 2132.057
446.7388, 2122.140
447.2209, 2116.280
447.7030, 2108.663
448.1851, 2098.083
448.6672, 2087.994
449.1494, 2083.438
449.6315, 2084.224
450.1136, 2079.237
450.5957, 2061.652
451.0778, 2049.946
451.5599, 2059.356
452.0421, 2078.783
452.5242, 2090.578
453.0063, 2087.393
453.4884, 2082.913
453.9705, 2092.027
454.4526, 2109.511
454.9348, 2116.922
455.4169, 2108.507
455.8990, 2095.624
456.3811, 2091.658
456.8632, 2097.495
457.3453, 2092.454
457.8275, 2068.829
458.3096, 2041.779
458.7917, 2014.024
459.2738, 1989.183
459.7559, 1974.454
460.2380, 1972.791
460.7202, 1978.807
461.2023, 1983.074
461.6844, 1983.252
462.1665, 1988.475
462.6486, 2000.027
463.1307, 2015.111
463.6129, 2035.286
464.0950, 2057.889
464.5771, 2077.105
465.0592, 2088.311
465.5413, 2098.780
466.0234, 2123.424
466.5056, 2163.723
466.9877, 2200.659
467.4698, 2225.802
467.9519, 2250.880
468.4340, 2288.251
468.9161, 2336.544
469.3983, 2383.917
469.8804, 2423.979
470.3625, 2463.112
470.8446, 2506.843
471.3267, 2555.156
471.8088, 2608.095
472.2910, 2665.599
472.7731, 2727.074
473.2552, 2790.779
473.7373, 2863.052
474.2194, 2924.225
474.7015, 2964.027
475.1837, 3001.090
475.6658, 3044.227
476.1479, 3095.207
476.6300, 3156.166
477.1121, 3230.103
477.5942, 3309.847
478.0764, 3373.430
478.5585, 3413.805
479.0406, 3456.190
479.5227, 3497.820
480.0048, 3548.806
480.4869, 3619.472
480.9691, 3707.800
481.4512, 3799.417
481.9333, 3876.168
482.4154, 3954.881
482.8975, 4070.880
483.3796, 4224.414
483.8618, 4371.860
484.3439, 4491.115
484.8260, 4597.212
485.3081, 4720.066
485.7902, 4858.795
486.2723, 5011.640
486.7545, 5189.056
487.2366, 5372.451
487.7187, 5553.382
488.2008, 5727.824
488.6829, 5883.613
489.1650, 6012.241
489.6472, 6118.112
490.1293, 6218.549
490.6114, 6343.064
491.0935, 6402.913
491.5756, 6382.930
492.0577, 6310.809
492.5399, 6201.405
493.0220, 6056.120
493.5041, 5869.289
493.9862, 5621.517
494.4683, 5340.582
494.9504, 5085.838
495.4326, 4860.780
495.9147, 4633.114
496.3968, 4384.584
496.8789, 4134.900
497.3610, 3906.143
497.8431, 3697.978
498.3253, 3511.350
498.8074, 3348.126
499.2895, 3204.386
499.7716, 3079.439
500.2537, 2971.065
500.7358, 2873.343
501.2180, 2782.875
501.7001, 2699.765
502.1822, 2623.737
502.6643, 2553.930
503.1464, 2493.625
503.6285, 2445.844
504.1107, 2402.927
504.5928, 2361.178
505.0749, 2320.501
505.5570, 2282.044
506.0391, 2244.997
506.5212, 2212.485
507.0034, 2190.813
507.4855, 2180.570
507.9676, 2175.462
508.4497, 2176.515
508.9318, 2179.138
509.4139, 2178.933
509.8961, 2176.130
510.3782, 2172.215
510.8603, 2163.454
511.3424, 2157.243
511.8245, 2163.148
512.3066, 2176.655
512.7888, 2182.968
513.2709, 2175.666
513.7530, 2165.588
514.2351, 2171.528
514.7172, 2201.750
515.1993, 2220.254
515.6815, 2217.883
516.1636, 2214.768
516.6457, 2217.128
517.1278, 2224.701
517.6099, 2236.214
518.0920, 2251.231
518.5742, 2268.874
519.0563, 2289.072
519.5384, 2311.742
520.0205, 2332.542
520.5026, 2351.174
520.9847, 2367.575
521.4669, 2378.375
521.9490, 2386.844
522.4311, 2402.078
522.9132, 2431.365
523.3953, 2459.761
523.8774, 2477.132
524.3596, 2489.025
524.8417, 2505.424
525.3238, 2528.331
525.8059, 2551.902
526.2880, 2571.718
526.7701, 2587.694
527.2523, 2588.678
527.7344, 2563.724
528.2165, 2536.047
528.6986, 2508.853
529.1807, 2480.905
529.6628, 2449.658
530.1450, 2415.040
530.6271, 2381.162
531.1092, 2354.169
531.5913, 2330.947
532.0734, 2298.485
532.5555, 2254.613
533.0377, 2212.393
533.5198, 2178.704
534.0019, 2150.129
534.4840, 2120.205
534.9661, 2089.026
535.4482, 2055.965
535.9304, 2016.158
536.4125, 1977.806
536.8946, 1948.334
537.3767, 1927.303
537.8588, 1911.389
538.3409, 1899.177
538.8231, 1888.092
539.3052, 1869.737
539.7873, 1835.470
540.2694, 1814.568
540.7515, 1821.551
541.2336, 1830.693
541.7158, 1830.523
542.1979, 1821.906
542.6800, 1808.698
543.1621, 1789.946
543.6442, 1772.083
544.1263, 1763.857
544.6085, 1763.926
545.0906, 1764.903
545.5727, 1765.054
546.0548, 1765.706
546.5369, 1769.270
547.0190, 1775.788
547.5012, 1776.597
547.9833, 1762.312
548.4654, 1753.375
548.9475, 1763.159
549.4296, 1779.357
549.9117, 1784.392
550.3939, 1775.220
550.8760, 1765.239
551.3581, 1768.847
551.8402, 1785.080
552.3223, 1800.740
552.8044, 1815.219
553.2866, 1830.742
553.7687, 1846.827
554.2508, 1865.169
554.7329, 1889.322
555.2150, 1920.148
555.6971, 1948.101
556.1793, 1965.709
556.6614, 1979.733
557.1435, 1995.136
557.6256, 2013.754
558.1077, 2044.174
558.5898, 2092.438
559.0720, 2148.812
559.5541, 2191.767
560.0362, 2211.604
560.5183, 2239.763
561.0004, 2280.661
561.4825, 2324.212
561.9647, 2365.473
562.4468, 2405.897
562.9289, 2449.462
563.4110, 2497.564
563.8931, 2549.133
564.3752, 2607.871
564.8574, 2671.274
565.3395, 2716.758
565.8216, 2734.975
566.3037, 2756.906
566.7858, 2805.198
567.2679, 2876.914
567.7501, 2953.774
568.2322, 3053.088
568.7143, 3133.173
569.1964, 3177.661
569.6785, 3200.324
570.1606, 3213.781
570.6428, 3220.160
571.1249, 3216.764
571.6070, 3201.575
572.0891, 3175.113
572.5712, 3139.505
573.0533, 3096.089
573.5355, 3038.959
574.0176, 2955.998
574.4997, 2868.547
574.9818, 2793.271
575.4639, 2728.133
575.9460, 2659.728
576.4282, 2583.086
576.9103, 2502.102
577.3924, 2410.382
577.8745, 2317.364
578.3566, 2251.673
578.8387, 2221.392
579.3209, 2202.210
579.8030, 2166.247
580.2851, 2112.356
580.7672, 2070.189
581.2493, 2039.826
581.7314, 2022.037
582.2136, 2025.890
582.6957, 2036.874
583.1778, 2041.919
583.6599, 2038.840
584.1420, 2032.424
584.6241, 2020.562
585.1063, 2009.620
585.5884, 2016.035
586.0705, 2039.785
586.5526, 2063.471
587.0347, 2079.968
587.5168, 2094.037
587.9990, 2113.171
588.4811, 2139.012
588.9632, 2163.308
589.4453, 2183.723
589.9274, 2204.852
590.4095, 2226.144
590.8917, 2250.530
591.3738, 2283.187
591.8559, 2325.450
592.3380, 2371.511
592.8201, 2416.602
593.3022, 2460.218
593.7844, 2495.681
594.2665, 2522.545
594.7486, 2541.904
595.2307, 2555.934
595.7128, 2561.030
596.1949, 2553.998
596.6771, 2535.633
597.1592, 2500.799
597.6413, 2442.032
598.1234, 2371.353
598.6055, 2293.884
599.0876, 2212.784
599.5698, 2131.559
600.0519, 2051.727
600.5340, 1976.854
601.0161, 1913.404
601.4982, 1862.175
601.9803, 1816.685
602.4625, 1775.789
602.9446, 1742.576
603.4267, 1725.050
603.9088, 1712.986
604.3909, 1690.136
604.8730, 1650.817
605.3552, 1615.400
605.8373, 1594.100
606.3194, 1583.787
606.8015, 1583.498
607.2836, 1591.273
607.7657, 1599.126
608.2479, 1602.881
608.7300, 1603.152
609.2121, 1600.636
609.6942, 1591.739
610.1763, 1588.898
610.6584, 1596.231
611.1406, 1605.520
611.6227, 1613.870
612.1048, 1622.008
612.5869, 1632.208
613.0690, 1645.892
613.5511, 1657.730
614.0333, 1660.362
614.5154, 1658.754
614.9975, 1663.195
615.4796, 1674.741
615.9617, 1691.081
616.4438, 1711.907
616.9260, 1734.877
617.4081, 1753.151
617.8902, 1760.917
618.3723, 1774.672
618.8544, 1798.541
619.3365, 1823.737
619.8187, 1846.971
620.3008, 1867.788
620.7829, 1886.626
621.2650, 1904.038
621.7471, 1917.408
622.2292, 1921.518
622.7114, 1919.196
623.1935, 1920.693
623.6756, 1927.451
624.1577, 1932.995
624.6398, 1933.840
625.1219, 1930.077
625.6041, 1921.810
626.0862, 1905.570
626.5683, 1890.620
627.0504, 1884.677
627.5325, 1872.856
628.0146, 1842.175
628.4968, 1799.568
628.9789, 1759.403
629.4610, 1727.849
629.9431, 1701.334
630.4252, 1676.023
630.9073, 1652.261
631.3895, 1630.857
631.8716, 1611.476
632.3537, 1598.223
632.8358, 1597.411
633.3179, 1601.964
633.8000, 1590.568
634.2822, 1550.459
634.7643, 1521.582
635.2464, 1511.440
635.7285, 1508.567
636.2106, 1510.270
636.6927, 1512.970
637.1749, 1511.159
637.6570, 1502.428
638.1391, 1490.217
638.6212, 1476.604
639.1033, 1462.675
639.5854, 1454.369
