##NAMES=Zoisite
##RRUFFID=R050038
##IDEAL CHEMISTRY=Ca_2_Al_3_(Si_2_O_7_)(SiO_4_)O(OH)
##LOCALITY=Elf Shooting Creek, Clay County, North Carolina, USA
##OWNER=RRUFF
##SOURCE=University of Arizona Mineral Museum
##DESCRIPTION=Tan colored fragments of single crystals
##STATUS=The identification of this mineral has been confirmed by X-ray diffraction and chemical analysis
##URL=rruff.info/R050038
##MEASURED CHEMISTRY=(Ca_.998_Na_.002_)_2_(Al_.982_Fe^3+^_.018_)_3_(Si_.982_Fe^3+^_.018_)_3_O_12_(OH)
163.2542, 1622.399
163.7363, 1630.110
164.2184, 1646.431
164.7005, 1671.607
165.1826, 1700.688
165.6647, 1727.597
166.1469, 1753.424
166.6290, 1773.524
167.1111, 1783.472
167.5932, 1791.742
168.0753, 1803.963
168.5574, 1821.049
169.0396, 1840.764
169.5217, 1860.524
170.0038, 1881.468
170.4859, 1898.552
170.9680, 1909.634
171.4501, 1918.780
171.9323, 1929.416
172.4144, 1941.781
172.8965, 1952.614
173.3786, 1957.537
173.8607, 1953.315
174.3428, 1955.691
174.8250, 1969.880
175.3071, 1986.630
175.7892, 1999.560
176.2713, 2007.867
176.7534, 2013.676
177.2355, 2018.715
177.7177, 2022.633
178.1998, 2028.603
178.6819, 2035.871
179.1640, 2045.606
179.6461, 2061.653
180.1282, 2083.352
180.6104, 2101.338
181.0925, 2104.527
181.5746, 2091.468
182.0567, 2092.842
182.5388, 2119.983
183.0209, 2153.271
183.5031, 2180.644
183.9852, 2200.884
184.4673, 2213.139
184.9494, 2212.403
185.4315, 2200.721
185.9136, 2203.899
186.3958, 2234.786
186.8779, 2271.185
187.3600, 2295.493
187.8421, 2308.062
188.3242, 2322.434
188.8063, 2351.094
189.2885, 2389.152
189.7706, 2413.996
190.2527, 2420.387
190.7348, 2417.391
191.2169, 2406.874
191.6990, 2389.830
192.1812, 2378.422
192.6633, 2383.898
193.1454, 2398.662
193.6275, 2401.052
194.1096, 2385.018
194.5917, 2363.181
195.0739, 2344.616
195.5560, 2328.684
196.0381, 2308.571
196.5202, 2275.124
197.0023, 2239.572
197.4844, 2224.339
197.9666, 2241.438
198.4487, 2255.485
198.9308, 2235.461
199.4129, 2186.552
199.8950, 2147.104
200.3771, 2135.077
200.8593, 2136.491
201.3414, 2127.949
201.8235, 2106.634
202.3056, 2086.414
202.7877, 2077.001
203.2698, 2076.851
203.7520, 2078.961
204.2341, 2086.042
204.7162, 2088.711
205.1983, 2074.000
205.6804, 2040.718
206.1625, 2010.500
206.6447, 1995.050
207.1268, 1992.879
207.6089, 2000.154
208.0910, 2023.118
208.5731, 2045.148
209.0552, 2046.873
209.5374, 2030.929
210.0195, 2019.204
210.5016, 2031.158
210.9837, 2056.975
211.4658, 2063.635
211.9479, 2038.596
212.4301, 2010.531
212.9122, 2003.334
213.3943, 2012.084
213.8764, 2021.987
214.3585, 2027.484
214.8406, 2029.293
215.3228, 2028.213
215.8049, 2022.469
216.2870, 2018.203
216.7691, 2020.559
217.2512, 2027.115
217.7333, 2033.718
218.2155, 2039.379
218.6976, 2043.858
219.1797, 2046.564
219.6618, 2047.240
220.1439, 2047.016
220.6260, 2046.948
221.1082, 2046.248
221.5903, 2043.108
222.0724, 2034.819
222.5545, 2026.777
223.0366, 2028.417
223.5187, 2041.923
224.0009, 2051.753
224.4830, 2046.473
224.9651, 2036.025
225.4472, 2030.502
225.9293, 2032.417
226.4114, 2037.417
226.8936, 2039.876
227.3757, 2039.483
227.8578, 2044.567
228.3399, 2067.514
228.8220, 2089.611
229.3041, 2090.646
229.7863, 2067.400
230.2684, 2041.659
230.7505, 2033.397
231.2326, 2041.069
231.7147, 2043.267
232.1968, 2029.336
232.6790, 2015.891
233.1611, 2019.519
233.6432, 2038.792
234.1253, 2055.705
234.6074, 2057.087
235.0895, 2045.860
235.5717, 2034.952
236.0538, 2025.887
236.5359, 2017.011
237.0180, 2004.565
237.5001, 1990.619
237.9822, 1982.323
238.4644, 1987.916
238.9465, 2001.234
239.4286, 2005.571
239.9107, 1996.440
240.3928, 1989.087
240.8749, 1994.018
241.3571, 2006.973
241.8392, 2022.025
242.3213, 2040.972
242.8034, 2058.166
243.2855, 2062.867
243.7676, 2052.583
244.2498, 2043.382
244.7319, 2044.576
245.2140, 2051.033
245.6961, 2056.720
246.1782, 2059.966
246.6603, 2063.361
247.1425, 2070.389
247.6246, 2081.032
248.1067, 2089.883
248.5888, 2093.510
249.0709, 2095.441
249.5530, 2099.869
250.0352, 2107.299
250.5173, 2115.271
250.9994, 2123.078
251.4815, 2130.276
251.9636, 2133.842
252.4457, 2130.352
252.9279, 2126.861
253.4100, 2130.059
253.8921, 2139.582
254.3742, 2152.785
254.8563, 2170.392
255.3384, 2190.570
255.8206, 2208.968
256.3027, 2224.347
256.7848, 2239.792
257.2669, 2258.744
257.7490, 2280.081
258.2311, 2300.692
258.7133, 2323.647
259.1954, 2343.537
259.6775, 2351.815
260.1596, 2347.559
260.6417, 2339.599
261.1238, 2333.046
261.6060, 2326.762
262.0881, 2318.278
262.5702, 2309.619
263.0523, 2296.197
263.5344, 2271.239
264.0165, 2236.211
264.4987, 2203.662
264.9808, 2178.766
265.4629, 2160.039
265.9450, 2143.366
266.4271, 2128.593
266.9092, 2115.825
267.3914, 2103.787
267.8735, 2093.747
268.3556, 2090.609
268.8377, 2098.016
269.3198, 2107.396
269.8019, 2101.879
270.2841, 2080.021
270.7662, 2068.151
271.2483, 2081.299
271.7304, 2104.606
272.2125, 2117.371
272.6946, 2115.976
273.1768, 2112.789
273.6589, 2120.625
274.1410, 2139.669
274.6231, 2153.533
275.1052, 2156.136
275.5873, 2157.247
276.0695, 2166.349
276.5516, 2182.115
277.0337, 2192.811
277.5158, 2187.805
277.9979, 2171.835
278.4800, 2173.691
278.9622, 2209.956
279.4443, 2243.257
279.9264, 2257.284
280.4085, 2258.766
280.8906, 2260.988
281.3727, 2269.328
281.8549, 2282.849
282.3370, 2300.155
282.8191, 2326.100
283.3012, 2347.140
283.7833, 2361.122
284.2654, 2369.904
284.7476, 2374.978
285.2297, 2376.827
285.7118, 2375.824
286.1939, 2372.335
286.6760, 2365.847
287.1581, 2358.034
287.6403, 2348.629
288.1224, 2338.266
288.6045, 2327.788
289.0866, 2316.905
289.5687, 2304.092
290.0508, 2287.642
290.5330, 2267.776
291.0151, 2252.322
291.4972, 2244.276
291.9793, 2237.022
292.4614, 2228.019
292.9435, 2218.914
293.4257, 2213.225
293.9078, 2212.851
294.3899, 2215.005
294.8720, 2211.098
295.3541, 2188.337
295.8362, 2179.370
296.3184, 2194.947
296.8005, 2218.630
297.2826, 2237.971
297.7647, 2249.677
298.2468, 2256.309
298.7289, 2259.503
299.2111, 2255.321
299.6932, 2261.910
300.1753, 2292.149
300.6574, 2321.125
301.1395, 2335.461
301.6216, 2338.407
302.1038, 2342.165
302.5859, 2356.034
303.0680, 2379.062
303.5501, 2402.708
304.0322, 2426.110
304.5143, 2451.790
304.9965, 2478.228
305.4786, 2507.690
305.9607, 2544.836
306.4428, 2593.260
306.9249, 2644.179
307.4070, 2681.370
307.8892, 2701.574
308.3713, 2719.673
308.8534, 2735.604
309.3355, 2753.114
309.8176, 2779.655
310.2997, 2815.221
310.7819, 2842.639
311.2640, 2844.727
311.7461, 2823.226
312.2282, 2797.659
312.7103, 2769.763
313.1924, 2738.120
313.6746, 2699.161
314.1567, 2655.730
314.6388, 2616.060
315.1209, 2591.984
315.6030, 2571.314
316.0851, 2527.030
316.5673, 2453.945
317.0494, 2388.268
317.5315, 2354.933
318.0136, 2340.490
318.4957, 2320.975
318.9778, 2290.228
319.4600, 2260.630
319.9421, 2239.687
320.4242, 2227.091
320.9063, 2222.081
321.3884, 2226.961
321.8705, 2235.223
322.3527, 2237.432
322.8348, 2233.973
323.3169, 2226.534
323.7990, 2207.817
324.2811, 2188.915
324.7632, 2184.039
325.2454, 2195.124
325.7275, 2215.864
326.2096, 2242.952
326.6917, 2276.368
327.1738, 2304.652
327.6559, 2322.225
328.1381, 2340.260
328.6202, 2364.888
329.1023, 2394.574
329.5844, 2423.909
330.0665, 2449.319
330.5486, 2474.330
331.0308, 2509.994
331.5129, 2572.290
331.9950, 2623.670
332.4771, 2651.626
332.9592, 2672.991
333.4413, 2704.320
333.9235, 2748.846
334.4056, 2798.836
334.8877, 2844.954
335.3698, 2886.619
335.8519, 2926.256
336.3340, 2967.342
336.8162, 3003.131
337.2983, 3022.568
337.7804, 3034.441
338.2625, 3058.348
338.7446, 3108.166
339.2267, 3177.535
339.7089, 3239.425
340.1910, 3293.633
340.6731, 3339.602
341.1552, 3364.191
341.6373, 3388.766
342.1194, 3435.791
342.6016, 3510.580
343.0837, 3595.890
343.5658, 3676.572
344.0479, 3755.044
344.5300, 3806.427
345.0121, 3813.181
345.4943, 3805.484
345.9764, 3807.509
346.4585, 3811.298
346.9406, 3789.751
347.4227, 3720.886
347.9048, 3617.510
348.3870, 3507.748
348.8691, 3389.723
349.3512, 3273.006
349.8333, 3162.627
350.3154, 3057.017
350.7975, 2954.225
351.2797, 2853.353
351.7618, 2757.141
352.2439, 2666.662
352.7260, 2582.894
353.2081, 2509.369
353.6902, 2449.098
354.1724, 2395.312
354.6545, 2337.152
355.1366, 2274.206
355.6187, 2222.507
356.1008, 2193.337
356.5829, 2171.928
357.0651, 2143.011
357.5472, 2106.096
358.0293, 2069.492
358.5114, 2037.713
358.9935, 2011.180
359.4756, 1992.228
359.9578, 1985.929
360.4399, 1979.646
360.9220, 1971.099
361.4041, 1960.071
361.8862, 1945.234
362.3683, 1926.375
362.8505, 1906.834
363.3326, 1892.310
363.8147, 1885.699
364.2968, 1876.724
364.7789, 1861.963
365.2610, 1848.193
365.7432, 1839.955
366.2253, 1836.198
366.7074, 1832.730
367.1895, 1826.275
367.6716, 1817.678
368.1537, 1812.069
368.6359, 1812.989
369.1180, 1811.549
369.6001, 1802.557
370.0822, 1792.450
370.5643, 1787.978
371.0464, 1791.042
371.5286, 1796.962
372.0107, 1800.189
372.4928, 1800.562
372.9749, 1801.829
373.4570, 1808.807
373.9391, 1811.146
374.4213, 1798.178
374.9034, 1775.183
375.3855, 1758.458
375.8676, 1757.828
376.3497, 1766.680
376.8318, 1775.789
377.3140, 1785.426
377.7961, 1791.807
378.2782, 1791.781
378.7603, 1788.012
379.2424, 1784.869
379.7245, 1780.767
380.2067, 1781.979
380.6888, 1798.122
381.1709, 1820.067
381.6530, 1829.561
382.1351, 1822.337
382.6172, 1810.169
383.0994, 1804.774
383.5815, 1807.000
384.0636, 1808.042
384.5457, 1803.841
385.0278, 1802.389
385.5099, 1810.814
385.9921, 1825.198
386.4742, 1835.627
386.9563, 1836.820
387.4384, 1833.136
387.9205, 1836.084
388.4026, 1855.230
388.8848, 1866.215
389.3669, 1857.883
389.8490, 1849.924
390.3311, 1859.062
390.8132, 1884.393
391.2953, 1911.520
391.7775, 1926.862
392.2596, 1931.305
392.7417, 1941.624
393.2238, 1961.544
393.7059, 1982.194
394.1880, 2004.288
394.6702, 2024.230
395.1523, 2037.737
395.6344, 2043.307
396.1165, 2042.995
396.5986, 2039.787
397.0807, 2033.643
397.5629, 2019.729
398.0450, 1992.092
398.5271, 1963.009
399.0092, 1943.919
399.4913, 1932.719
399.9734, 1920.135
400.4556, 1899.767
400.9377, 1877.862
401.4198, 1861.539
401.9019, 1850.818
402.3840, 1844.345
402.8661, 1841.931
403.3483, 1843.008
403.8304, 1846.421
404.3125, 1853.629
404.7946, 1859.564
405.2767, 1865.424
405.7589, 1868.125
406.2410, 1859.839
406.7231, 1841.044
407.2052, 1826.604
407.6873, 1832.144
408.1694, 1859.128
408.6516, 1876.845
409.1337, 1879.563
409.6158, 1880.409
410.0979, 1882.160
410.5800, 1884.399
411.0621, 1885.700
411.5443, 1885.557
412.0264, 1885.823
412.5085, 1891.205
412.9906, 1905.462
413.4727, 1910.997
413.9548, 1892.898
414.4370, 1878.091
414.9191, 1882.730
415.4012, 1901.323
415.8833, 1916.358
416.3654, 1915.733
416.8475, 1907.567
417.3297, 1909.805
417.8118, 1924.225
418.2939, 1935.446
418.7760, 1935.951
419.2581, 1931.100
419.7402, 1928.368
420.2224, 1928.321
420.7045, 1927.496
421.1866, 1922.849
421.6687, 1916.960
422.1508, 1914.441
422.6329, 1915.809
423.1151, 1917.753
423.5972, 1919.007
424.0793, 1918.786
424.5614, 1910.436
425.0435, 1883.922
425.5256, 1862.252
426.0078, 1855.971
426.4899, 1857.181
426.9720, 1854.555
427.4541, 1845.003
427.9362, 1834.777
428.4183, 1832.803
428.9005, 1841.865
429.3826, 1846.199
429.8647, 1840.375
430.3468, 1835.480
430.8289, 1831.844
431.3110, 1832.442
431.7932, 1843.909
432.2753, 1871.079
432.7574, 1902.421
433.2395, 1916.214
433.7216, 1909.821
434.2037, 1903.046
434.6859, 1899.418
435.1680, 1896.882
435.6501, 1893.898
436.1322, 1890.514
436.6143, 1887.365
437.0964, 1883.527
437.5786, 1880.721
438.0607, 1885.319
438.5428, 1896.755
439.0249, 1897.022
439.5070, 1872.104
439.9891, 1834.793
440.4713, 1817.902
440.9534, 1830.155
441.4355, 1837.255
441.9176, 1829.831
442.3997, 1815.138
442.8818, 1796.981
443.3640, 1777.654
443.8461, 1763.775
444.3282, 1761.679
444.8103, 1770.060
445.2924, 1773.096
445.7745, 1770.704
446.2567, 1762.368
446.7388, 1741.908
447.2209, 1718.834
447.7030, 1702.251
448.1851, 1694.208
448.6672, 1691.227
449.1494, 1690.129
449.6315, 1690.905
450.1136, 1693.289
450.5957, 1697.714
451.0778, 1703.059
451.5599, 1711.202
452.0421, 1719.248
452.5242, 1721.472
453.0063, 1713.678
453.4884, 1706.472
453.9705, 1711.805
454.4526, 1725.260
454.9348, 1731.151
455.4169, 1724.529
455.8990, 1715.425
456.3811, 1716.033
456.8632, 1727.318
457.3453, 1728.333
457.8275, 1704.390
458.3096, 1684.680
458.7917, 1688.741
459.2738, 1706.862
459.7559, 1719.789
460.2380, 1719.609
460.7202, 1712.810
461.2023, 1710.569
461.6844, 1714.892
462.1665, 1718.030
462.6486, 1712.923
463.1307, 1713.542
463.6129, 1729.844
464.0950, 1756.180
464.5771, 1780.455
465.0592, 1796.085
465.5413, 1807.304
466.0234, 1821.547
466.5056, 1839.115
466.9877, 1856.103
467.4698, 1870.503
467.9519, 1885.426
468.4340, 1902.658
468.9161, 1922.372
469.3983, 1946.597
469.8804, 1981.249
470.3625, 2016.984
470.8446, 2040.448
471.3267, 2054.806
471.8088, 2079.129
472.2910, 2124.066
472.7731, 2178.764
473.2552, 2219.408
473.7373, 2237.603
474.2194, 2256.989
474.7015, 2275.284
475.1837, 2296.635
475.6658, 2325.007
476.1479, 2358.920
476.6300, 2394.892
477.1121, 2431.652
477.5942, 2466.084
478.0764, 2486.483
478.5585, 2483.245
479.0406, 2491.349
479.5227, 2523.504
480.0048, 2564.618
480.4869, 2609.212
480.9691, 2655.481
481.4512, 2698.372
481.9333, 2729.422
482.4154, 2757.459
482.8975, 2796.698
483.3796, 2847.294
483.8618, 2905.901
484.3439, 2972.742
484.8260, 3045.323
485.3081, 3119.004
485.7902, 3191.690
486.2723, 3272.441
486.7545, 3370.885
487.2366, 3472.056
487.7187, 3564.774
488.2008, 3648.991
488.6829, 3729.218
489.1650, 3809.445
489.6472, 3883.583
490.1293, 3929.984
490.6114, 3939.402
491.0935, 3937.135
491.5756, 3929.169
492.0577, 3908.614
492.5399, 3874.891
493.0220, 3825.178
493.5041, 3751.044
493.9862, 3640.888
494.4683, 3506.930
494.9504, 3373.071
495.4326, 3239.970
495.9147, 3104.386
496.3968, 2959.415
496.8789, 2817.363
497.3610, 2692.831
497.8431, 2585.975
498.3253, 2491.729
498.8074, 2412.732
499.2895, 2342.338
499.7716, 2274.443
500.2537, 2209.395
500.7358, 2150.825
501.2180, 2100.679
501.7001, 2057.065
502.1822, 2014.759
502.6643, 1971.005
503.1464, 1933.954
503.6285, 1899.839
504.1107, 1874.466
504.5928, 1868.162
505.0749, 1873.714
505.5570, 1872.296
506.0391, 1851.414
506.5212, 1820.787
507.0034, 1798.194
507.4855, 1783.952
507.9676, 1775.295
508.4497, 1774.346
508.9318, 1775.426
509.4139, 1771.740
509.8961, 1764.051
510.3782, 1759.485
510.8603, 1761.851
511.3424, 1766.274
511.8245, 1770.398
512.3066, 1773.454
512.7888, 1772.142
513.2709, 1764.724
513.7530, 1757.674
514.2351, 1762.719
514.7172, 1786.823
515.1993, 1799.546
515.6815, 1793.862
516.1636, 1785.515
516.6457, 1775.073
517.1278, 1767.673
517.6099, 1772.712
518.0920, 1794.968
518.5742, 1821.589
519.0563, 1833.601
519.5384, 1831.524
520.0205, 1834.731
520.5026, 1848.727
520.9847, 1862.455
521.4669, 1864.586
521.9490, 1859.867
522.4311, 1860.620
522.9132, 1871.220
523.3953, 1884.154
523.8774, 1897.741
524.3596, 1910.358
524.8417, 1918.062
525.3238, 1920.303
525.8059, 1921.918
526.2880, 1928.573
526.7701, 1940.214
527.2523, 1944.018
527.7344, 1935.052
528.2165, 1923.629
528.6986, 1909.070
529.1807, 1894.163
529.6628, 1883.179
530.1450, 1876.124
530.6271, 1866.072
531.1092, 1846.265
531.5913, 1818.570
532.0734, 1787.136
532.5555, 1750.095
533.0377, 1720.337
533.5198, 1708.597
534.0019, 1705.075
534.4840, 1689.364
534.9661, 1656.940
535.4482, 1629.635
535.9304, 1617.191
536.4125, 1609.470
536.8946, 1595.813
537.3767, 1577.697
537.8588, 1564.303
538.3409, 1561.394
538.8231, 1565.021
539.3052, 1564.272
539.7873, 1555.881
540.2694, 1550.915
540.7515, 1556.365
541.2336, 1559.599
541.7158, 1550.629
542.1979, 1534.156
542.6800, 1523.304
543.1621, 1526.179
543.6442, 1533.416
544.1263, 1534.467
544.6085, 1529.916
545.0906, 1521.103
545.5727, 1506.294
546.0548, 1495.257
546.5369, 1500.046
547.0190, 1521.257
547.5012, 1535.019
547.9833, 1535.787
548.4654, 1535.654
548.9475, 1538.027
549.4296, 1542.190
549.9117, 1547.907
550.3939, 1554.701
550.8760, 1560.134
551.3581, 1559.642
551.8402, 1554.414
552.3223, 1562.186
552.8044, 1591.044
553.2866, 1615.643
553.7687, 1612.456
554.2508, 1608.231
554.7329, 1635.000
555.2150, 1697.984
555.6971, 1753.853
556.1793, 1783.532
556.6614, 1793.880
557.1435, 1783.393
557.6256, 1757.859
558.1077, 1745.266
558.5898, 1760.591
559.0720, 1794.345
559.5541, 1826.604
560.0362, 1856.158
560.5183, 1886.575
561.0004, 1917.146
561.4825, 1949.039
561.9647, 1984.371
562.4468, 2021.121
562.9289, 2055.056
563.4110, 2083.330
563.8931, 2113.181
564.3752, 2156.866
564.8574, 2212.062
565.3395, 2261.406
565.8216, 2302.654
566.3037, 2338.072
566.7858, 2366.333
567.2679, 2389.948
567.7501, 2420.334
568.2322, 2460.148
568.7143, 2502.957
569.1964, 2553.198
569.6785, 2601.758
570.1606, 2642.487
570.6428, 2672.752
571.1249, 2687.370
571.6070, 2681.986
572.0891, 2659.176
572.5712, 2628.003
573.0533, 2588.439
573.5355, 2540.246
574.0176, 2477.156
574.4997, 2410.842
574.9818, 2350.670
575.4639, 2295.500
575.9460, 2237.385
576.4282, 2171.400
576.9103, 2103.839
577.3924, 2035.343
577.8745, 1969.741
578.3566, 1919.754
578.8387, 1888.924
579.3209, 1862.978
579.8030, 1824.601
580.2851, 1772.716
580.7672, 1735.178
581.2493, 1722.628
581.7314, 1712.236
582.2136, 1698.183
582.6957, 1685.837
583.1778, 1683.438
583.6599, 1690.685
584.1420, 1694.982
584.6241, 1682.329
585.1063, 1661.507
585.5884, 1652.916
586.0705, 1656.528
586.5526, 1657.974
587.0347, 1649.197
587.5168, 1640.046
587.9990, 1646.738
588.4811, 1674.081
588.9632, 1696.950
589.4453, 1711.445
589.9274, 1724.973
590.4095, 1740.219
590.8917, 1757.116
591.3738, 1775.327
591.8559, 1794.670
592.3380, 1814.456
592.8201, 1834.151
593.3022, 1853.655
593.7844, 1873.453
594.2665, 1897.020
594.7486, 1909.563
595.2307, 1897.739
595.7128, 1874.025
596.1949, 1860.721
596.6771, 1861.304
597.1592, 1855.866
597.6413, 1837.838
598.1234, 1812.314
598.6055, 1782.450
599.0876, 1748.625
599.5698, 1709.265
600.0519, 1663.543
600.5340, 1616.176
601.0161, 1574.554
601.4982, 1538.379
601.9803, 1508.983
602.4625, 1488.861
602.9446, 1472.204
603.4267, 1458.333
603.9088, 1445.356
604.3909, 1429.247
604.8730, 1407.572
605.3552, 1391.739
605.8373, 1392.769
606.3194, 1400.760
606.8015, 1401.566
607.2836, 1395.406
607.7657, 1391.502
608.2479, 1395.219
608.7300, 1403.051
609.2121, 1406.946
609.6942, 1405.014
610.1763, 1403.755
610.6584, 1398.183
611.1406, 1398.544
611.6227, 1415.364
612.1048, 1439.137
612.5869, 1453.163
613.0690, 1451.284
613.5511, 1445.201
614.0333, 1440.554
614.5154, 1439.613
614.9975, 1451.009
615.4796, 1474.823
615.9617, 1492.983
616.4438, 1492.995
616.9260, 1482.572
617.4081, 1483.719
617.8902, 1506.005
618.3723, 1522.363
618.8544, 1520.305
619.3365, 1525.053
619.8187, 1557.621
620.3008, 1604.888
620.7829, 1640.519
621.2650, 1653.946
621.7471, 1657.816
622.2292, 1664.530
622.7114, 1672.622
623.1935, 1676.963
623.6756, 1676.875
624.1577, 1674.964
624.6398, 1672.875
625.1219, 1670.149
625.6041, 1665.710
626.0862, 1665.507
626.5683, 1652.673
627.0504, 1615.008
627.5325, 1575.993
628.0146, 1547.885
628.4968, 1529.213
628.9789, 1515.420
629.4610, 1505.117
629.9431, 1494.911
630.4252, 1481.165
630.9073, 1464.111
631.3895, 1443.481
631.8716, 1418.401
632.3537, 1395.184
632.8358, 1376.970
633.3179, 1363.744
633.8000, 1356.059
634.2822, 1357.413
634.7643, 1356.677
635.2464, 1353.722
635.7285, 1347.947
636.2106, 1334.942
636.6927, 1319.581
637.1749, 1313.049
637.6570, 1320.494
638.1391, 1329.335
638.6212, 1320.435
639.1033, 1298.039
639.5854, 1287.122
640.0676, 1291.212
640.5497, 1297.554
641.0318, 1300.349
641.5139, 1299.804
641.9960, 1295.809
642.4781, 1286.587
642.9603, 1278.903
643.4424, 1271.474
643.9245, 1267.477
644.4066, 1270.683
644.8887, 1278.182
645.3708, 1284.208
645.8530, 1286.632
646.3351, 1289.478
646.8172, 1299.815
647.2993, 1315.261
647.7814, 1322.385
648.2635, 1319.809
648.7457, 1314.498
649.2278, 1307.922
649.7099, 1302.618
650.1920, 1304.805
650.6741, 1318.374
651.1563, 1325.621
651.6384, 1317.296
652.1205, 1311.325
652.6026, 1319.772
653.0847, 1335.351
653.5668, 1346.790
654.0490, 1350.641
654.5311, 1350.382
655.0132, 1348.345
655.4953, 1345.028
655.9774, 1341.854
656.4595, 1338.756
656.9417, 1337.324
657.4238, 1338.657
