##NAMES=Zoisite
##RRUFFID=R050041
##IDEAL CHEMISTRY=Ca_2_Al_3_(Si_2_O_7_)(SiO_4_)O(OH)
##LOCALITY=Franklin County, Conway, Massachussetts, USA
##OWNER=RRUFF
##SOURCE=University of Arizona Mineral Museum
##DESCRIPTION=Tan colored fragment
##STATUS=The identification of this mineral has been confirmed by X-ray diffraction and chemical analysis
##URL=rruff.info/R050041
##MEASURED CHEMISTRY=(Ca_.993_Mg_.004_Na_.002_Mn_.001_)_2_(Al_.980_Fe^3+^_.020_)_3_(Si_.986_Fe^3+^_.014_)_3_O_12_(OH)
152.5922, 18635.17
153.0743, 18645.70
153.5564, 18662.03
154.0385, 18685.70
154.5206, 18715.38
155.0028, 18751.92
155.4849, 18795.59
155.9670, 18841.50
156.4491, 18893.27
156.9312, 18945.24
157.4133, 18991.46
157.8955, 19019.35
158.3776, 19050.36
158.8597, 19094.92
159.3418, 19157.97
159.8239, 19219.32
160.3060, 19264.03
160.7882, 19303.59
161.2703, 19357.83
161.7524, 19446.90
162.2345, 19544.65
162.7166, 19635.32
163.1987, 19714.23
163.6808, 19789.56
164.1630, 19862.57
164.6451, 19934.93
165.1272, 20011.95
165.6093, 20095.57
166.0914, 20185.37
166.5735, 20280.95
167.0557, 20382.26
167.5378, 20489.75
168.0199, 20608.28
168.5020, 20736.29
168.9841, 20856.97
169.4662, 20955.12
169.9484, 21039.89
170.4305, 21125.34
170.9126, 21222.26
171.3947, 21319.34
171.8768, 21404.29
172.3589, 21477.47
172.8411, 21544.49
173.3232, 21606.52
173.8053, 21666.25
174.2874, 21729.77
174.7695, 21802.92
175.2516, 21879.95
175.7338, 21949.92
176.2159, 22008.84
176.6980, 22072.67
177.1801, 22165.00
177.6622, 22279.81
178.1443, 22391.41
178.6264, 22478.82
179.1086, 22554.42
179.5907, 22644.49
180.0728, 22757.45
180.5549, 22875.99
181.0370, 22975.47
181.5191, 23057.05
182.0013, 23138.61
182.4834, 23234.97
182.9655, 23341.24
183.4476, 23444.41
183.9297, 23537.89
184.4118, 23629.27
184.8940, 23739.72
185.3761, 23870.81
185.8582, 23993.78
186.3403, 24073.83
186.8224, 24118.69
187.3046, 24178.16
187.7867, 24270.05
188.2688, 24386.38
188.7509, 24516.01
189.2330, 24665.21
189.7151, 24789.47
190.1973, 24827.36
190.6794, 24781.87
191.1615, 24730.22
191.6436, 24703.07
192.1257, 24695.49
192.6078, 24669.57
193.0900, 24622.43
193.5721, 24564.25
194.0542, 24510.34
194.5363, 24461.52
195.0184, 24406.13
195.5005, 24327.39
195.9826, 24226.13
196.4648, 24165.65
196.9469, 24156.60
197.4290, 24175.57
197.9111, 24185.55
198.3932, 24187.94
198.8753, 24172.29
199.3575, 24120.79
199.8396, 24028.85
200.3217, 23966.20
200.8038, 23941.91
201.2859, 23947.58
201.7680, 23966.54
202.2502, 24003.80
202.7323, 24037.61
203.2144, 24057.99
203.6965, 24067.32
204.1786, 24042.46
204.6607, 23961.01
205.1429, 23845.44
205.6250, 23807.39
206.1071, 23868.08
206.5892, 23955.80
207.0713, 24014.39
207.5534, 24038.34
208.0356, 24054.96
208.5177, 24063.55
208.9998, 24066.35
209.4819, 24090.98
209.9640, 24143.41
210.4461, 24207.98
210.9282, 24271.35
211.4104, 24337.66
211.8925, 24391.43
212.3746, 24429.98
212.8567, 24453.11
213.3388, 24454.43
213.8209, 24418.29
214.3031, 24379.83
214.7852, 24386.22
215.2673, 24453.70
215.7494, 24526.15
216.2315, 24588.54
216.7136, 24639.04
217.1958, 24689.76
217.6779, 24742.94
218.1600, 24794.80
218.6421, 24839.66
219.1242, 24874.32
219.6063, 24908.52
220.0885, 24945.93
220.5706, 24987.00
221.0527, 25028.09
221.5348, 25066.60
222.0169, 25106.73
222.4990, 25161.04
222.9812, 25242.29
223.4633, 25314.96
223.9454, 25363.08
224.4275, 25379.00
224.9096, 25389.34
225.3917, 25389.49
225.8739, 25385.46
226.3560, 25394.29
226.8381, 25422.71
227.3202, 25453.88
227.8023, 25480.26
228.2844, 25499.58
228.7665, 25517.98
229.2487, 25531.36
229.7308, 25543.76
230.2129, 25573.33
230.6950, 25636.18
231.1771, 25694.32
231.6592, 25724.82
232.1414, 25709.72
232.6235, 25702.73
233.1056, 25705.77
233.5877, 25719.40
234.0698, 25749.75
234.5519, 25814.60
235.0341, 25874.26
235.5162, 25899.92
235.9983, 25863.94
236.4804, 25847.64
236.9625, 25866.21
237.4446, 25915.08
237.9268, 25952.06
238.4089, 25968.21
238.8910, 25982.79
239.3731, 26011.07
239.8552, 26061.10
240.3373, 26109.59
240.8195, 26152.86
241.3016, 26190.82
241.7837, 26230.22
242.2658, 26267.35
242.7479, 26309.84
243.2300, 26367.38
243.7122, 26457.85
244.1943, 26529.16
244.6764, 26567.27
245.1585, 26571.43
245.6406, 26583.88
246.1227, 26605.73
246.6048, 26634.78
247.0870, 26668.30
247.5691, 26702.67
248.0512, 26749.33
248.5333, 26819.65
249.0154, 26916.33
249.4975, 26974.83
249.9797, 26967.76
250.4618, 26949.69
250.9439, 26985.12
251.4260, 27110.76
251.9081, 27219.07
252.3902, 27279.18
252.8724, 27283.89
253.3545, 27318.38
253.8366, 27397.19
254.3187, 27491.15
254.8008, 27562.21
255.2829, 27592.27
255.7651, 27637.03
256.2472, 27718.28
256.7293, 27844.57
257.2114, 27940.24
257.6935, 27997.56
258.1756, 28031.95
258.6577, 28060.64
259.1399, 28080.71
259.6220, 28102.51
260.1041, 28132.27
260.5862, 28173.36
261.0683, 28198.02
261.5504, 28207.12
262.0326, 28199.00
262.5147, 28167.17
262.9968, 28101.79
263.4789, 28037.40
263.9610, 27980.15
264.4431, 27926.51
264.9253, 27908.16
265.4074, 27936.97
265.8895, 27987.42
266.3716, 28023.27
266.8537, 28040.51
267.3358, 28053.34
267.8180, 28060.42
268.3001, 28057.68
268.7822, 28090.60
269.2643, 28175.48
269.7464, 28275.62
270.2285, 28333.76
270.7107, 28337.51
271.1928, 28341.05
271.6749, 28364.81
272.1570, 28410.88
272.6391, 28453.70
273.1212, 28491.17
273.6034, 28528.43
274.0855, 28571.77
274.5676, 28620.26
275.0497, 28679.35
275.5318, 28750.53
276.0139, 28834.46
276.4961, 28934.35
276.9782, 29057.07
277.4603, 29184.30
277.9424, 29281.08
278.4245, 29343.45
278.9066, 29409.65
279.3888, 29500.83
279.8709, 29617.51
280.3530, 29712.17
280.8351, 29781.13
281.3172, 29836.23
281.7993, 29892.84
282.2815, 29951.33
282.7636, 30009.32
283.2457, 30066.35
283.7278, 30122.32
284.2099, 30177.16
284.6920, 30232.52
285.1741, 30282.41
285.6563, 30321.58
286.1384, 30350.20
286.6205, 30358.20
287.1026, 30331.98
287.5847, 30277.95
288.0668, 30235.34
288.5490, 30206.39
289.0311, 30180.77
289.5132, 30132.31
289.9953, 30066.39
290.4774, 30029.35
290.9595, 30063.16
291.4417, 30145.12
291.9238, 30191.86
292.4059, 30198.67
292.8880, 30189.07
293.3701, 30180.06
293.8522, 30174.78
294.3344, 30189.33
294.8165, 30240.53
295.2986, 30315.98
295.7807, 30378.86
296.2628, 30426.11
296.7449, 30486.44
297.2271, 30607.26
297.7092, 30769.85
298.1913, 30916.64
298.6734, 31000.01
299.1555, 31057.67
299.6376, 31152.79
300.1198, 31287.72
300.6019, 31438.41
301.0840, 31586.57
301.5661, 31732.20
302.0482, 31874.66
302.5303, 31995.97
303.0125, 32123.12
303.4946, 32291.36
303.9767, 32499.82
304.4588, 32738.98
304.9409, 33022.19
305.4230, 33324.12
305.9052, 33611.36
306.3873, 33880.22
306.8694, 34119.58
307.3515, 34302.17
307.8336, 34429.04
308.3157, 34553.84
308.7979, 34721.00
309.2800, 34904.93
309.7621, 35071.68
310.2442, 35248.31
310.7263, 35372.75
311.2084, 35403.54
311.6906, 35341.96
312.1727, 35216.82
312.6548, 35026.40
313.1369, 34785.86
313.6190, 34516.20
314.1011, 34183.55
314.5833, 33856.96
315.0654, 33563.64
315.5475, 33300.98
316.0296, 33069.30
316.5117, 32885.49
316.9938, 32723.71
317.4760, 32562.40
317.9580, 32374.55
318.4402, 32210.76
318.9223, 32088.86
319.4044, 32004.56
319.8865, 31941.99
320.3686, 31904.46
320.8507, 31882.10
321.3329, 31869.11
321.8150, 31884.59
322.2971, 31885.71
322.7792, 31852.14
323.2613, 31794.50
323.7434, 31754.87
324.2256, 31734.32
324.7077, 31737.26
325.1898, 31766.71
325.6719, 31850.64
326.1540, 31923.43
326.6361, 31973.97
327.1183, 32009.89
327.6004, 32055.30
328.0825, 32125.29
328.5646, 32191.72
329.0467, 32240.66
329.5288, 32245.15
330.0110, 32283.01
330.4931, 32363.98
330.9752, 32476.90
331.4573, 32597.71
331.9394, 32742.28
332.4215, 32873.96
332.9037, 32974.96
333.3858, 33027.59
333.8679, 33106.25
334.3500, 33222.01
334.8321, 33356.20
335.3142, 33480.55
335.7964, 33591.86
336.2785, 33700.96
336.7606, 33809.54
337.2427, 33916.60
337.7248, 34042.59
338.2069, 34199.80
338.6891, 34356.43
339.1712, 34454.29
339.6533, 34472.34
340.1354, 34544.11
340.6175, 34737.20
341.0996, 35036.28
341.5818, 35247.49
342.0639, 35358.61
342.5460, 35423.19
343.0281, 35494.02
343.5102, 35570.38
343.9923, 35646.82
344.4745, 35736.92
344.9566, 35821.19
345.4387, 35827.75
345.9208, 35754.65
346.4029, 35636.85
346.8850, 35502.99
347.3672, 35350.29
347.8493, 35169.09
348.3314, 34947.51
348.8135, 34706.37
349.2956, 34479.26
349.7777, 34268.44
350.2599, 34077.30
350.7419, 33910.59
351.2241, 33764.27
351.7062, 33627.34
352.1883, 33494.27
352.6704, 33376.70
353.1525, 33296.21
353.6346, 33246.87
354.1168, 33203.03
354.5989, 33154.39
355.0810, 33101.07
355.5631, 33041.23
356.0452, 32970.59
356.5273, 32905.95
357.0095, 32862.74
357.4916, 32834.44
357.9737, 32807.73
358.4558, 32778.36
358.9379, 32746.76
359.4200, 32710.78
359.9022, 32668.09
360.3843, 32632.68
360.8664, 32599.49
361.3485, 32579.92
361.8306, 32589.78
362.3127, 32676.26
362.7949, 32754.91
363.2770, 32787.70
363.7591, 32768.52
364.2412, 32752.27
364.7233, 32745.31
365.2054, 32749.40
365.6876, 32766.15
366.1697, 32813.48
366.6518, 32854.85
367.1339, 32882.53
367.6160, 32896.77
368.0981, 32907.01
368.5803, 32899.13
369.0624, 32897.64
369.5445, 32919.35
370.0266, 32993.40
370.5087, 33044.82
370.9908, 33059.77
371.4730, 33046.90
371.9551, 33042.46
372.4372, 33042.20
372.9193, 33056.72
373.4014, 33096.39
373.8835, 33174.60
374.3657, 33233.66
374.8478, 33266.88
375.3299, 33283.66
375.8120, 33303.70
376.2941, 33329.18
376.7762, 33349.90
377.2584, 33357.88
377.7405, 33352.50
378.2226, 33355.65
378.7047, 33366.84
379.1868, 33387.73
379.6689, 33419.35
380.1511, 33461.55
380.6332, 33520.68
381.1153, 33615.18
381.5974, 33727.77
382.0795, 33785.30
382.5616, 33785.35
383.0438, 33775.44
383.5259, 33807.03
384.0080, 33867.27
384.4901, 33913.89
384.9722, 33922.56
385.4543, 33923.88
385.9364, 33966.33
386.4185, 34045.28
386.9007, 34125.57
387.3828, 34185.82
387.8649, 34232.34
388.3470, 34271.40
388.8291, 34296.89
389.3112, 34330.02
389.7934, 34394.33
390.2755, 34479.84
390.7576, 34559.30
391.2397, 34606.53
391.7218, 34652.31
392.2039, 34719.44
392.6861, 34814.80
393.1682, 34917.67
393.6503, 35025.26
394.1324, 35134.09
394.6145, 35239.09
395.0966, 35368.75
395.5788, 35466.96
396.0609, 35510.38
396.5430, 35493.76
397.0251, 35456.88
397.5072, 35367.82
397.9893, 35279.39
398.4715, 35237.90
398.9536, 35314.51
399.4357, 35351.85
399.9178, 35307.25
400.3999, 35194.48
400.8820, 35141.20
401.3642, 35175.82
401.8463, 35236.43
402.3284, 35287.11
402.8105, 35318.12
403.2926, 35365.47
403.7747, 35433.26
404.2569, 35517.37
404.7390, 35613.47
405.2211, 35730.83
405.7032, 35830.70
406.1853, 35886.57
406.6674, 35896.63
407.1496, 35935.56
407.6317, 36010.74
408.1138, 36096.61
408.5959, 36154.68
409.0780, 36187.16
409.5602, 36232.06
410.0423, 36302.42
410.5244, 36394.46
411.0065, 36511.50
411.4886, 36655.13
411.9707, 36778.10
412.4529, 36838.77
412.9350, 36848.89
413.4171, 36828.33
413.8992, 36753.85
414.3813, 36690.77
414.8634, 36724.71
415.3456, 36836.80
415.8277, 36945.99
416.3098, 37011.96
416.7919, 37049.28
417.2740, 37067.13
417.7561, 37057.66
418.2382, 37056.14
418.7203, 37093.66
419.2025, 37150.02
419.6846, 37189.84
420.1667, 37184.66
420.6488, 37175.14
421.1309, 37189.01
421.6130, 37234.80
422.0952, 37242.18
422.5773, 37156.89
423.0594, 37047.29
423.5415, 36973.23
424.0236, 36953.45
424.5057, 36955.45
424.9879, 36980.81
425.4700, 37026.90
425.9521, 37080.42
426.4342, 37153.96
426.9163, 37219.30
427.3984, 37257.32
427.8806, 37252.58
428.3627, 37263.87
428.8448, 37293.78
429.3269, 37340.07
429.8090, 37402.94
430.2911, 37487.27
430.7733, 37565.84
431.2554, 37624.22
431.7375, 37664.04
432.2196, 37711.83
432.7017, 37768.79
433.1838, 37828.10
433.6660, 37878.38
434.1481, 37922.21
434.6302, 37976.16
435.1123, 38059.47
435.5944, 38143.43
436.0765, 38175.39
436.5587, 38158.19
437.0408, 38118.31
437.5229, 38057.85
438.0050, 37992.26
438.4871, 37947.39
438.9692, 37936.63
439.4514, 37925.00
439.9335, 37882.26
440.4156, 37818.56
440.8977, 37755.11
441.3798, 37696.56
441.8619, 37645.71
442.3441, 37600.41
442.8262, 37558.70
443.3083, 37540.03
443.7904, 37583.93
444.2725, 37639.25
444.7546, 37657.41
445.2368, 37592.78
445.7189, 37530.26
446.2010, 37477.95
446.6831, 37437.50
447.1652, 37422.00
447.6473, 37448.63
448.1295, 37483.33
448.6116, 37509.72
449.0937, 37525.31
449.5758, 37538.99
450.0579, 37552.55
450.5400, 37562.82
451.0221, 37558.38
451.5042, 37530.70
451.9864, 37520.61
452.4685, 37542.80
452.9506, 37596.13
453.4327, 37677.07
453.9148, 37792.33
454.3969, 37899.36
454.8791, 37955.95
455.3612, 37966.09
455.8433, 37947.57
456.3254, 37897.04
456.8075, 37829.80
457.2896, 37768.01
457.7718, 37711.27
458.2539, 37662.33
458.7360, 37628.85
459.2181, 37601.10
459.7002, 37556.95
460.1823, 37484.74
460.6645, 37442.00
461.1466, 37493.61
461.6287, 37595.87
462.1108, 37682.61
462.5929, 37720.06
463.0750, 37745.82
463.5572, 37773.16
464.0393, 37803.02
464.5214, 37837.95
465.0035, 37877.50
465.4856, 37922.78
465.9677, 37973.94
466.4499, 38023.69
466.9320, 38088.93
467.4141, 38174.69
467.8962, 38275.70
468.3783, 38381.88
468.8604, 38500.19
469.3426, 38611.70
469.8247, 38704.03
470.3068, 38771.55
470.7889, 38884.83
471.2710, 39058.02
471.7531, 39248.99
472.2353, 39421.44
472.7174, 39576.73
473.1995, 39691.27
473.6816, 39743.71
474.1637, 39769.66
474.6458, 39853.09
475.1280, 39992.67
475.6101, 40157.54
476.0922, 40347.34
476.5743, 40545.67
477.0564, 40708.50
477.5385, 40827.66
478.0207, 40940.78
478.5028, 41067.78
478.9849, 41216.26
479.4670, 41400.04
479.9491, 41656.32
480.4312, 41925.18
480.9134, 42154.19
481.3955, 42350.96
481.8776, 42576.98
482.3597, 42868.57
482.8418, 43188.18
483.3239, 43510.97
483.8060, 43834.56
484.2881, 44161.21
484.7703, 44477.33
485.2524, 44794.84
485.7345, 45132.09
486.2166, 45499.63
486.6987, 45874.15
487.1808, 46258.76
487.6630, 46655.63
488.1451, 47030.76
488.6272, 47396.15
489.1093, 47713.58
489.5914, 47952.80
490.0735, 48109.48
490.5557, 48216.25
491.0378, 48293.10
491.5199, 48301.36
492.0020, 48132.87
492.4841, 47791.87
492.9662, 47396.50
493.4484, 47030.54
493.9305, 46652.46
494.4126, 46151.88
494.8947, 45513.54
495.3768, 44873.29
495.8589, 44332.02
496.3411, 43865.95
496.8232, 43432.03
497.3053, 43009.54
497.7874, 42623.14
498.2695, 42301.19
498.7516, 42035.10
499.2338, 41790.20
499.7159, 41539.80
500.1980, 41318.79
500.6801, 41157.87
501.1622, 41077.75
501.6443, 40994.70
502.1265, 40886.42
502.6086, 40775.91
503.0907, 40689.22
503.5728, 40643.91
504.0549, 40592.89
504.5370, 40517.98
505.0192, 40429.36
505.5013, 40390.91
505.9834, 40416.88
506.4655, 40456.38
506.9476, 40482.87
507.4297, 40496.34
507.9119, 40504.39
508.3940, 40508.10
508.8761, 40503.93
509.3582, 40468.90
509.8403, 40414.13
510.3224, 40402.11
510.8046, 40483.23
511.2867, 40596.77
511.7688, 40654.35
512.2509, 40660.37
512.7330, 40651.74
513.2151, 40642.26
513.6973, 40635.25
514.1794, 40631.13
514.6615, 40625.38
515.1436, 40638.31
515.6257, 40691.48
516.1078, 40766.82
516.5900, 40836.91
517.0721, 40901.00
517.5542, 40954.27
518.0363, 40986.64
518.5184, 40999.70
519.0005, 41033.29
519.4827, 41101.02
519.9648, 41175.88
520.4469, 41238.78
520.9290, 41275.17
521.4111, 41349.88
521.8932, 41481.27
522.3754, 41629.39
522.8575, 41721.26
523.3396, 41751.80
523.8217, 41795.50
524.3038, 41884.13
524.7859, 41998.62
525.2681, 42095.98
525.7502, 42176.21
526.2323, 42229.01
526.7144, 42241.05
527.1965, 42222.52
527.6786, 42184.71
528.1608, 42122.71
528.6429, 42070.18
529.1250, 42079.86
529.6071, 42113.10
530.0892, 42107.88
530.5714, 41991.10
531.0535, 41876.94
531.5356, 41834.05
532.0176, 41852.80
532.4998, 41837.69
532.9819, 41721.32
533.4640, 41602.89
533.9461, 41534.52
534.4282, 41539.39
534.9103, 41545.59
535.3925, 41558.80
535.8746, 41569.04
536.3567, 41559.15
536.8388, 41520.86
537.3209, 41493.35
537.8030, 41490.92
538.2852, 41504.86
538.7673, 41503.63
539.2494, 41487.11
539.7315, 41455.68
540.2136, 41397.03
540.6957, 41323.65
541.1779, 41273.31
541.6600, 41251.06
542.1421, 41239.26
542.6242, 41211.61
543.1063, 41184.05
543.5884, 41184.95
544.0706, 41249.93
544.5527, 41321.84
545.0348, 41372.67
545.5169, 41403.50
545.9990, 41418.59
546.4811, 41395.11
546.9633, 41376.04
547.4454, 41384.38
547.9275, 41430.72
548.4096, 41475.98
548.8917, 41521.38
549.3738, 41563.46
549.8560, 41599.99
550.3381, 41634.00
550.8202, 41651.58
551.3023, 41638.52
551.7844, 41615.25
552.2665, 41648.12
552.7487, 41743.05
553.2308, 41835.28
553.7129, 41896.65
554.1950, 41929.20
554.6771, 41925.80
555.1592, 41883.63
555.6414, 41858.93
556.1235, 41921.36
556.6056, 42030.25
557.0877, 42117.11
557.5698, 42154.29
558.0519, 42187.34
558.5341, 42240.99
559.0162, 42314.25
559.4983, 42402.73
559.9804, 42556.63
560.4625, 42678.57
560.9446, 42704.38
561.4268, 42624.24
561.9089, 42608.49
562.3910, 42709.56
562.8731, 42840.24
563.3552, 42947.31
563.8373, 43006.13
564.3195, 43114.21
564.8016, 43301.50
565.2837, 43502.85
565.7658, 43595.31
566.2479, 43571.37
566.7300, 43570.82
567.2122, 43650.05
567.6943, 43772.83
568.1764, 43846.32
568.6585, 43875.04
569.1406, 43901.47
569.6227, 43948.81
570.1049, 44014.14
570.5870, 44111.05
571.0691, 44249.90
571.5512, 44341.69
572.0333, 44295.27
572.5154, 44183.22
572.9976, 44088.55
573.4797, 44052.64
573.9618, 44015.16
574.4439, 43969.06
574.9260, 43910.87
575.4081, 43828.80
575.8903, 43682.50
576.3724, 43562.73
576.8545, 43502.38
577.3366, 43504.19
577.8187, 43511.64
578.3008, 43530.50
578.7830, 43540.59
579.2651, 43516.04
579.7472, 43459.59
580.2293, 43422.61
580.7114, 43414.10
581.1935, 43419.36
581.6757, 43403.63
582.1578, 43381.90
582.6399, 43401.71
583.1220, 43535.94
583.6041, 43683.15
584.0862, 43729.27
584.5684, 43694.47
585.0505, 43688.92
585.5326, 43800.67
586.0147, 43931.82
586.4968, 44017.62
586.9789, 44029.52
587.4611, 44061.34
587.9432, 44131.32
588.4253, 44221.77
588.9074, 44319.71
589.3895, 44433.28
589.8716, 44534.11
590.3538, 44608.61
590.8359, 44674.88
591.3180, 44790.27
591.8001, 44960.76
592.2822, 45121.01
592.7643, 45239.69
593.2465, 45325.87
593.7286, 45410.56
594.2107, 45494.21
594.6928, 45560.82
595.1749, 45590.24
595.6570, 45599.73
596.1392, 45626.83
596.6213, 45703.07
597.1034, 45712.58
597.5854, 45534.16
598.0676, 45264.53
598.5497, 45038.91
599.0318, 44923.56
599.5139, 44818.46
599.9960, 44687.46
600.4781, 44543.69
600.9603, 44451.43
601.4424, 44441.85
601.9245, 44432.98
602.4066, 44392.45
602.8887, 44319.74
603.3708, 44235.53
603.8530, 44131.54
604.3351, 44050.79
604.8172, 44056.48
605.2993, 44128.25
605.7814, 44165.96
606.2635, 44149.18
606.7457, 44108.95
607.2278, 44063.11
607.7099, 44021.18
608.1920, 44004.45
608.6741, 44040.21
609.1563, 44087.25
609.6384, 44126.90
610.1205, 44158.62
610.6026, 44180.91
611.0847, 44193.18
611.5668, 44196.25
612.0490, 44178.06
612.5311, 44119.88
613.0132, 44135.82
613.4953, 44267.89
613.9774, 44422.65
614.4595, 44519.17
614.9417, 44554.21
615.4238, 44563.08
615.9059, 44544.07
616.3880, 44512.38
616.8701, 44480.48
617.3522, 44453.18
617.8344, 44457.59
618.3165, 44516.56
618.7986, 44602.67
619.2807, 44693.24
619.7628, 44784.64
620.2449, 44859.43
620.7271, 44889.46
621.2092, 44913.66
621.6913, 44964.13
622.1734, 45052.84
622.6555, 45116.66
623.1376, 45139.22
623.6198, 45134.62
624.1019, 45109.92
624.5840, 45040.35
625.0661, 45005.54
625.5482, 45020.02
626.0303, 45060.22
626.5125, 45086.97
626.9946, 45099.70
627.4767, 45108.32
627.9588, 45115.18
628.4409, 45120.55
628.9230, 45133.04
629.4052, 45148.71
629.8873, 45142.82
630.3694, 45059.73
630.8515, 44971.62
631.3336, 44965.52
631.8157, 45050.97
632.2979, 45122.01
632.7800, 45096.58
633.2621, 45056.73
633.7442, 45071.39
634.2263, 45219.89
634.7084, 45307.81
635.1906, 45302.18
635.6727, 45249.74
636.1548, 45210.79
636.6369, 45183.38
637.1190, 45177.03
637.6011, 45197.60
638.0833, 45237.47
638.5654, 45280.43
639.0475, 45325.75
639.5296, 45364.96
640.0117, 45382.08
640.4938, 45394.41
640.9760, 45441.00
641.4581, 45518.98
641.9402, 45583.55
642.4223, 45597.50
642.9044, 45590.31
643.3865, 45585.88
643.8687, 45588.35
644.3508, 45593.12
644.8329, 45580.70
645.3150, 45579.73
645.7971, 45621.99
646.2792, 45739.31
646.7614, 45840.59
647.2435, 45919.51
