##NAMES=Zoisite
##RRUFFID=R060567
##IDEAL CHEMISTRY=Ca_2_Al_3_(Si_2_O_7_)(SiO_4_)O(OH)
##LOCALITY=Umba Valley, Tanzania
##OWNER=RRUFF
##SOURCE=Michael Scott
##DESCRIPTION=Purple prismatic crystals
##STATUS=The identification of this mineral has been confirmed by X-ray diffraction and chemical analysis
##URL=rruff.info/R060567
##MEASURED CHEMISTRY=Ca_2.00_Al_3.00_(Si_1.00_O_4_)(Si_2.00_O_7_)O(OH)
99.344, 221.437
99.826, 215.944
100.309, 211.541
100.791, 208.101
101.273, 206.086
101.755, 207.025
102.237, 211.605
102.719, 217.590
103.201, 223.738
103.683, 230.205
104.165, 236.093
104.648, 240.986
105.130, 244.933
105.612, 249.441
106.094, 254.609
106.576, 260.310
107.058, 266.249
107.540, 270.275
108.022, 277.136
108.505, 286.716
108.987, 295.690
109.469, 316.270
109.951, 355.127
110.433, 404.481
110.915, 451.657
111.397, 487.117
111.879, 526.652
112.362, 576.991
112.844, 644.040
113.326, 714.025
113.808, 782.237
114.290, 851.289
114.772, 928.749
115.254, 996.996
115.736, 1084.755
116.218, 1212.020
116.701, 1370.577
117.183, 1581.392
117.665, 1868.259
118.147, 2229.072
118.629, 2604.358
119.111, 3059.756
119.593, 3491.520
120.075, 3760.140
120.558, 3728.005
121.040, 3567.255
121.522, 3390.217
122.004, 3204.809
122.486, 3011.218
122.968, 2807.795
123.450, 2596.013
123.932, 2379.577
124.414, 2143.990
124.897, 1909.718
125.379, 1702.846
125.861, 1530.236
126.343, 1386.855
126.825, 1270.788
127.307, 1181.301
127.789, 1112.598
128.271, 1067.112
128.753, 1040.169
129.236, 1020.666
129.718, 1009.542
130.200, 1002.045
130.682, 986.016
131.164, 960.837
131.646, 935.255
132.128, 918.439
132.610, 910.039
133.093, 904.576
133.575, 898.841
134.057, 893.720
134.539, 895.910
135.021, 906.266
135.503, 922.051
135.985, 937.917
136.467, 953.330
136.949, 973.646
137.432, 1002.082
137.914, 1039.266
138.396, 1079.084
138.878, 1120.858
139.360, 1164.945
139.842, 1211.481
140.324, 1259.141
140.806, 1311.768
141.288, 1369.158
141.771, 1426.851
142.253, 1504.855
142.735, 1607.271
143.217, 1733.572
143.699, 1866.044
144.181, 2002.089
144.663, 2148.543
145.145, 2314.907
145.628, 2499.435
146.110, 2705.903
146.592, 2949.214
147.074, 3247.762
147.556, 3480.343
148.038, 3664.670
148.520, 3776.384
149.002, 3783.960
149.484, 3636.229
149.967, 3437.019
150.449, 3203.437
150.931, 2904.008
151.413, 2635.681
151.895, 2398.348
152.377, 2190.298
152.859, 2017.115
153.342, 1889.829
153.824, 1786.779
154.306, 1702.177
154.788, 1647.823
155.270, 1594.625
155.752, 1534.068
156.234, 1470.500
156.716, 1418.782
157.198, 1354.675
157.680, 1318.516
158.163, 1303.237
158.645, 1287.954
159.127, 1272.675
159.609, 1257.396
160.091, 1242.116
160.573, 1226.837
161.055, 1211.557
161.538, 1196.275
162.020, 1180.995
162.502, 1165.716
162.984, 1150.437
163.466, 1135.157
163.948, 1119.878
164.430, 1104.595
164.912, 1089.316
165.394, 1080.785
165.876, 1075.585
166.359, 1071.430
166.841, 1069.000
167.323, 1068.284
167.805, 1068.954
168.287, 1073.239
168.769, 1085.158
169.251, 1101.782
169.733, 1117.310
170.216, 1123.690
170.698, 1130.100
171.180, 1147.269
171.662, 1181.307
172.144, 1215.318
172.626, 1232.478
173.108, 1237.121
173.590, 1244.234
174.072, 1260.213
174.555, 1284.761
175.037, 1318.776
175.519, 1366.049
176.001, 1417.857
176.483, 1466.685
176.965, 1512.491
177.447, 1551.880
177.929, 1582.085
178.412, 1604.261
178.894, 1619.479
179.376, 1621.745
179.858, 1621.799
180.340, 1635.002
180.822, 1661.344
181.304, 1697.101
181.786, 1741.853
182.268, 1793.914
182.751, 1847.857
183.233, 1901.312
183.715, 1955.254
184.197, 2009.646
184.679, 2064.704
185.161, 2122.195
185.643, 2186.680
186.125, 2256.168
186.607, 2326.423
187.090, 2395.272
187.572, 2462.579
188.054, 2530.385
188.536, 2598.813
189.018, 2665.073
189.500, 2731.748
189.982, 2796.753
190.464, 2839.172
190.947, 2842.369
191.429, 2810.533
191.911, 2771.312
192.393, 2726.139
192.875, 2674.333
193.357, 2611.701
193.839, 2538.692
194.321, 2463.123
194.803, 2386.066
195.286, 2308.236
195.768, 2239.416
196.250, 2183.690
196.732, 2134.039
197.214, 2070.178
197.696, 1989.392
198.178, 1911.147
198.661, 1850.403
199.143, 1807.961
199.625, 1761.038
200.107, 1704.207
200.589, 1641.593
201.071, 1585.688
201.553, 1535.856
202.035, 1494.468
202.517, 1464.162
202.999, 1445.859
203.482, 1431.094
203.964, 1418.518
204.446, 1408.266
204.928, 1401.301
205.410, 1397.743
205.892, 1397.046
206.374, 1398.075
206.857, 1400.050
207.339, 1407.356
207.821, 1421.187
208.303, 1441.342
208.785, 1465.288
209.267, 1493.360
209.749, 1524.879
210.231, 1557.641
210.713, 1589.411
211.195, 1631.400
211.678, 1689.215
212.160, 1763.736
212.642, 1835.413
213.124, 1909.876
213.606, 1975.245
214.088, 2017.194
214.570, 2037.089
215.052, 2030.794
215.535, 1993.827
216.017, 1923.052
216.499, 1842.668
216.981, 1742.189
217.463, 1641.574
217.945, 1572.510
218.427, 1546.447
218.909, 1528.554
219.391, 1507.615
219.874, 1481.097
220.356, 1464.268
220.838, 1462.410
221.320, 1466.602
221.802, 1459.568
222.284, 1434.286
222.766, 1411.735
223.248, 1400.730
223.731, 1405.443
224.213, 1407.465
224.695, 1404.831
225.177, 1400.598
225.659, 1400.730
226.141, 1404.632
226.623, 1414.037
227.105, 1430.749
227.587, 1458.722
228.070, 1483.463
228.552, 1504.266
229.034, 1521.936
229.516, 1539.600
229.998, 1564.773
230.480, 1578.167
230.962, 1570.464
231.444, 1536.187
231.926, 1492.996
232.409, 1437.080
232.891, 1373.424
233.373, 1315.185
233.855, 1260.290
234.337, 1214.415
234.819, 1180.667
235.301, 1162.730
235.783, 1148.275
236.266, 1136.800
236.748, 1128.519
237.230, 1120.230
237.712, 1112.889
238.194, 1106.476
238.676, 1100.995
239.158, 1096.443
239.640, 1092.822
240.122, 1090.130
240.605, 1088.368
241.087, 1087.535
241.569, 1087.633
242.051, 1088.661
242.533, 1090.619
243.015, 1093.506
243.497, 1097.323
243.980, 1102.072
244.462, 1107.749
244.944, 1114.356
245.426, 1121.893
245.908, 1130.359
246.390, 1139.758
246.872, 1150.084
247.354, 1161.341
247.836, 1173.527
248.318, 1186.644
248.801, 1200.690
249.283, 1215.669
249.765, 1231.575
250.247, 1248.411
250.729, 1266.176
251.211, 1284.889
251.693, 1326.377
252.176, 1390.437
252.658, 1442.736
253.140, 1473.590
253.622, 1506.269
254.104, 1558.467
254.586, 1638.196
255.068, 1716.911
255.550, 1789.297
256.032, 1857.381
256.514, 1933.042
256.997, 2021.380
257.479, 2110.141
257.961, 2191.211
258.443, 2262.038
258.925, 2334.646
259.407, 2422.001
259.889, 2515.244
260.371, 2559.181
260.854, 2540.525
261.336, 2493.200
261.818, 2437.718
262.300, 2370.178
262.782, 2306.431
263.264, 2248.118
263.746, 2194.825
264.228, 2149.887
264.711, 2119.312
265.193, 2085.171
265.675, 2031.880
266.157, 1954.245
266.639, 1876.504
267.121, 1801.151
267.603, 1729.194
268.085, 1664.502
268.567, 1606.539
269.050, 1558.386
269.532, 1523.419
270.014, 1502.693
270.496, 1490.739
270.978, 1487.685
271.460, 1492.881
271.942, 1504.829
272.424, 1524.716
272.906, 1548.010
273.389, 1569.039
273.871, 1585.123
274.353, 1616.623
274.835, 1669.744
275.317, 1738.253
275.799, 1800.928
276.281, 1856.229
276.763, 1909.878
277.246, 1968.509
277.728, 2033.098
278.210, 2086.698
278.692, 2123.544
279.174, 2149.386
279.656, 2182.222
280.138, 2222.461
280.620, 2267.414
281.103, 2315.491
281.585, 2366.667
282.067, 2421.172
282.549, 2480.358
283.031, 2541.521
283.513, 2597.743
283.995, 2648.167
284.477, 2701.963
284.959, 2774.071
285.441, 2861.632
285.924, 2924.657
286.406, 2955.121
286.888, 2962.912
287.370, 2971.505
287.852, 2981.345
288.334, 2974.617
288.816, 2937.546
289.298, 2872.993
289.781, 2793.489
290.263, 2698.081
290.745, 2592.484
291.227, 2483.105
291.709, 2369.763
292.191, 2265.604
292.673, 2178.700
293.155, 2106.683
293.638, 2040.666
294.120, 1979.401
294.602, 1926.431
295.084, 1888.149
295.566, 1863.983
296.048, 1848.503
296.530, 1835.657
297.012, 1829.282
297.494, 1840.781
297.977, 1873.989
298.459, 1915.506
298.941, 1948.517
299.423, 1976.015
299.905, 2007.770
300.387, 2045.182
300.869, 2091.450
301.351, 2154.379
301.833, 2236.577
302.316, 2326.987
302.798, 2413.580
303.280, 2499.158
303.762, 2592.712
304.244, 2682.079
304.726, 2788.539
305.208, 2937.407
305.690, 3130.661
306.173, 3355.036
306.655, 3609.718
307.137, 3885.278
307.619, 4164.101
308.101, 4444.034
308.583, 4720.559
309.065, 4983.484
309.547, 5234.287
310.030, 5482.621
310.512, 5774.671
310.994, 6060.378
311.476, 6270.134
311.958, 6397.467
312.440, 6424.959
312.922, 6333.176
313.404, 6122.226
313.886, 5832.218
314.369, 5427.088
314.851, 4971.950
315.333, 4546.247
315.815, 4161.679
316.297, 3818.894
316.779, 3519.665
317.261, 3264.491
317.743, 3045.646
318.225, 2871.012
318.708, 2727.945
319.190, 2608.051
319.672, 2516.378
320.154, 2438.574
320.636, 2371.995
321.118, 2316.488
321.600, 2271.238
322.082, 2236.454
322.565, 2211.472
323.047, 2196.206
323.529, 2192.544
324.011, 2195.917
324.493, 2206.843
324.975, 2224.603
325.457, 2246.508
325.939, 2266.953
326.422, 2295.491
326.904, 2336.428
327.386, 2389.466
327.868, 2455.395
328.350, 2546.334
328.832, 2650.239
329.314, 2736.855
329.796, 2790.068
330.278, 2842.889
330.760, 2908.845
331.243, 3000.512
331.725, 3071.799
332.207, 3109.604
332.689, 3132.884
333.171, 3174.284
333.653, 3239.967
334.135, 3314.485
334.617, 3395.002
335.100, 3484.856
335.582, 3566.200
336.064, 3640.427
336.546, 3704.538
337.028, 3753.889
337.510, 3786.769
337.992, 3808.113
338.474, 3814.426
338.957, 3806.367
339.439, 3810.776
339.921, 3827.381
340.403, 3856.607
340.885, 3899.011
341.367, 3955.218
341.849, 4021.763
342.331, 4099.326
342.813, 4186.828
343.296, 4286.938
343.778, 4402.434
344.260, 4509.972
344.742, 4604.217
345.224, 4681.523
345.706, 4692.025
346.188, 4620.203
346.670, 4484.278
347.152, 4313.007
347.635, 4107.045
348.117, 3883.397
348.599, 3640.739
349.081, 3387.351
349.563, 3154.439
350.045, 2947.504
350.527, 2759.325
351.009, 2590.180
351.491, 2437.402
351.974, 2294.028
352.456, 2148.835
352.938, 2011.640
353.420, 1898.340
353.902, 1812.965
354.384, 1739.416
354.866, 1665.642
355.349, 1594.175
355.831, 1528.643
356.313, 1467.987
356.795, 1415.963
357.277, 1378.780
357.759, 1356.922
358.241, 1337.110
358.723, 1312.513
359.205, 1284.869
359.688, 1255.941
360.170, 1215.584
360.652, 1183.575
361.134, 1167.425
361.616, 1152.164
362.098, 1137.671
362.580, 1123.944
363.062, 1110.988
363.544, 1098.801
364.027, 1087.381
364.509, 1076.731
364.991, 1066.849
365.473, 1057.734
365.955, 1049.388
366.437, 1041.812
366.919, 1035.004
367.401, 1028.964
367.884, 1023.693
368.366, 1019.189
368.848, 1015.455
369.330, 1012.490
369.812, 1010.292
370.294, 1008.864
370.776, 1008.203
371.258, 1008.312
371.741, 1009.188
372.223, 1010.833
372.705, 1013.247
373.187, 1016.429
373.669, 1020.380
374.151, 1025.100
374.633, 1030.588
375.115, 1036.844
375.597, 1043.869
376.079, 1051.661
376.562, 1060.350
377.044, 1065.189
377.526, 1066.891
378.008, 1064.666
378.490, 1066.462
378.972, 1073.273
379.454, 1085.361
379.936, 1107.463
380.419, 1140.575
380.901, 1170.740
381.383, 1182.871
381.865, 1181.037
382.347, 1188.437
382.829, 1209.037
383.311, 1237.828
383.793, 1269.597
384.276, 1303.608
384.758, 1336.530
385.240, 1367.877
385.722, 1396.114
386.204, 1415.662
386.686, 1424.413
387.168, 1436.819
387.650, 1469.618
388.132, 1515.929
388.615, 1561.900
389.097, 1593.100
389.579, 1627.588
390.061, 1681.553
390.543, 1754.736
391.025, 1837.707
391.507, 1927.500
391.989, 2023.119
392.471, 2123.328
392.954, 2232.605
393.436, 2342.501
393.918, 2452.020
394.400, 2560.137
394.882, 2663.160
395.364, 2779.484
395.846, 2874.844
396.328, 2932.826
396.810, 2952.075
397.293, 2930.766
397.775, 2858.873
398.257, 2747.414
398.739, 2616.060
399.221, 2439.491
399.703, 2270.528
400.185, 2120.071
400.668, 1987.080
401.150, 1878.112
401.632, 1798.145
402.114, 1738.281
402.596, 1689.666
403.078, 1651.293
403.560, 1626.326
404.042, 1615.371
404.524, 1618.250
405.007, 1634.149
405.489, 1665.001
405.971, 1704.078
406.453, 1748.115
406.935, 1797.775
407.417, 1847.424
407.899, 1896.559
408.381, 1945.053
408.863, 1992.163
409.346, 2038.065
409.828, 2082.878
410.310, 2129.947
410.792, 2176.945
411.274, 2212.974
411.756, 2236.706
412.238, 2255.149
412.720, 2270.956
413.203, 2286.847
413.685, 2311.155
414.167, 2348.556
414.649, 2395.363
415.131, 2449.349
415.613, 2510.387
416.095, 2572.038
416.577, 2624.515
417.060, 2677.731
417.542, 2748.133
418.024, 2862.946
418.506, 2958.014
418.988, 2991.649
419.470, 2975.630
419.952, 2937.782
420.434, 2885.619
420.916, 2817.008
421.398, 2724.938
421.881, 2599.910
422.363, 2484.802
422.845, 2393.389
423.327, 2316.374
423.809, 2242.300
424.291, 2152.910
424.773, 2084.730
425.255, 2046.682
425.738, 2038.710
426.220, 2045.147
426.702, 2067.487
427.184, 2102.688
427.666, 2148.375
428.148, 2199.881
428.630, 2272.835
429.112, 2368.724
429.595, 2486.807
430.077, 2623.101
430.559, 2779.228
431.041, 2948.785
431.523, 3148.199
432.005, 3377.407
432.487, 3553.365
432.969, 3676.311
433.451, 3744.473
433.934, 3742.660
434.416, 3676.256
434.898, 3589.161
435.380, 3482.489
435.862, 3372.635
436.344, 3296.780
436.826, 3253.465
437.308, 3218.476
437.790, 3178.861
438.273, 3133.696
438.755, 3081.654
439.237, 3020.996
439.719, 2955.964
440.201, 2889.542
440.683, 2821.406
441.165, 2750.824
441.647, 2678.296
442.129, 2602.186
442.612, 2519.551
443.094, 2429.145
443.576, 2343.772
444.058, 2265.782
444.540, 2196.106
445.022, 2135.687
445.504, 2095.037
445.987, 2052.548
446.469, 1998.734
446.951, 1936.538
447.433, 1886.603
447.915, 1852.484
448.397, 1828.081
448.879, 1811.127
449.361, 1803.331
449.843, 1799.128
450.326, 1797.417
450.808, 1800.105
451.290, 1809.642
451.772, 1825.167
452.254, 1850.532
452.736, 1886.404
453.218, 1932.902
453.700, 1997.709
454.182, 2085.993
454.665, 2166.093
455.147, 2211.177
455.629, 2222.237
456.111, 2199.197
456.593, 2138.833
457.075, 2049.962
457.557, 1937.741
458.039, 1805.155
458.522, 1677.685
459.004, 1560.494
459.486, 1458.241
459.968, 1379.847
460.450, 1326.774
460.932, 1282.857
461.414, 1232.600
461.896, 1184.612
462.379, 1150.360
462.861, 1137.254
463.343, 1135.687
463.825, 1146.388
464.307, 1167.060
464.789, 1184.712
465.271, 1194.838
465.753, 1201.561
466.235, 1206.103
466.717, 1200.497
467.200, 1207.477
467.682, 1234.503
468.164, 1272.807
468.646, 1308.852
469.128, 1338.388
469.610, 1372.784
470.092, 1414.855
470.574, 1464.781
471.057, 1518.351
471.539, 1574.036
472.021, 1636.955
472.503, 1711.896
472.985, 1798.745
473.467, 1896.753
473.949, 2009.329
474.431, 2127.853
474.914, 2233.988
475.396, 2328.762
475.878, 2419.373
476.360, 2515.896
476.842, 2609.744
477.324, 2677.438
477.806, 2717.907
478.288, 2754.858
478.770, 2801.514
479.253, 2860.189
479.735, 2934.835
480.217, 3030.104
480.699, 3137.326
481.181, 3246.785
481.663, 3362.246
482.145, 3499.020
482.627, 3664.692
483.109, 3850.683
483.592, 4050.872
484.074, 4262.783
484.556, 4498.200
485.038, 4772.599
485.520, 5067.085
486.002, 5362.914
486.484, 5631.931
486.966, 5929.937
487.448, 6266.332
487.931, 6639.492
488.413, 7028.706
488.895, 7437.435
489.377, 7861.569
489.859, 8301.610
490.341, 8766.908
490.823, 9223.038
491.306, 9691.141
491.788, 10099.440
492.270, 10355.810
492.752, 10462.110
493.234, 10406.110
493.716, 10159.410
494.198, 9761.582
494.680, 9287.547
495.162, 8735.047
495.645, 8142.734
496.127, 7487.421
496.609, 6822.554
497.091, 6204.440
497.573, 5643.515
498.055, 5141.781
498.537, 4711.481
499.019, 4340.783
499.501, 4005.504
499.984, 3698.328
500.466, 3427.858
500.948, 3207.673
501.430, 3036.936
501.912, 2879.925
502.394, 2737.601
502.876, 2605.797
503.358, 2480.429
503.841, 2355.069
504.323, 2249.334
504.805, 2165.077
505.287, 2098.540
505.769, 2043.551
506.251, 2006.683
506.733, 1972.160
507.215, 1940.105
507.698, 1910.532
508.180, 1883.436
508.662, 1858.814
509.144, 1836.670
509.626, 1817.000
510.108, 1799.803
510.590, 1785.084
511.072, 1772.842
511.554, 1763.075
512.036, 1755.785
512.519, 1750.969
513.001, 1748.629
513.483, 1748.765
513.965, 1751.377
514.447, 1756.464
514.929, 1764.028
515.411, 1774.067
515.893, 1786.580
516.375, 1801.570
516.858, 1819.041
517.340, 1838.981
517.822, 1861.399
518.304, 1886.194
518.786, 1897.049
519.268, 1920.086
519.750, 1963.813
520.232, 2008.002
520.715, 2046.539
521.197, 2080.020
521.679, 2123.326
522.161, 2176.994
522.643, 2238.731
523.125, 2306.867
523.607, 2381.130
524.089, 2468.402
524.571, 2571.749
525.054, 2679.813
525.536, 2776.980
526.018, 2863.297
526.500, 2942.294
526.982, 3021.433
527.464, 3091.112
527.946, 3135.949
528.429, 3156.708
528.911, 3156.739
529.393, 3139.145
529.875, 3101.343
530.357, 3038.028
530.839, 2942.510
531.321, 2839.888
531.803, 2735.678
532.286, 2631.734
532.768, 2531.921
533.250, 2432.462
533.732, 2341.120
534.214, 2257.933
534.696, 2183.568
535.178, 2118.117
535.660, 2068.269
536.142, 2019.827
536.625, 1965.447
537.107, 1903.699
537.589, 1843.460
538.071, 1784.912
538.553, 1727.756
539.035, 1670.073
539.517, 1612.108
539.999, 1557.511
540.481, 1505.266
540.964, 1458.209
541.446, 1425.419
541.928, 1404.818
542.410, 1382.364
542.892, 1341.624
543.374, 1297.862
543.856, 1280.388
544.338, 1265.092
544.820, 1251.032
545.303, 1238.209
545.785, 1226.623
546.267, 1216.275
546.749, 1207.161
547.231, 1199.288
547.713, 1192.651
548.195, 1187.251
548.677, 1183.088
549.159, 1180.163
549.642, 1178.474
550.124, 1178.023
550.606, 1178.810
551.088, 1180.833
551.570, 1184.094
552.052, 1188.591
552.534, 1194.328
553.016, 1201.299
553.499, 1209.509
553.981, 1218.955
554.463, 1229.639
554.945, 1241.559
555.427, 1254.721
555.909, 1270.090
556.391, 1284.114
556.873, 1303.755
557.356, 1320.377
557.838, 1334.795
558.320, 1352.424
558.802, 1378.975
559.284, 1408.603
559.766, 1434.379
560.248, 1450.942
560.730, 1478.162
561.213, 1527.782
561.695, 1589.212
562.177, 1649.772
562.659, 1704.078
563.141, 1762.262
563.623, 1827.011
564.105, 1897.200
564.587, 1964.930
565.069, 2024.645
565.552, 2094.318
566.034, 2183.341
566.516, 2291.861
566.998, 2393.697
567.480, 2481.609
567.962, 2594.014
568.444, 2807.109
568.926, 3086.025
569.408, 3277.512
569.891, 3329.612
570.373, 3341.624
570.855, 3428.135
571.337, 3562.049
571.819, 3680.997
572.301, 3766.159
572.783, 3816.817
573.265, 3834.976
573.747, 3820.242
574.230, 3763.568
574.712, 3638.784
575.194, 3488.016
575.676, 3335.535
576.158, 3183.384
576.640, 3023.271
577.122, 2849.539
577.604, 2674.122
578.086, 2514.471
578.569, 2372.055
579.051, 2240.844
579.533, 2118.809
580.015, 2009.198
580.497, 1924.684
580.979, 1865.082
581.461, 1813.138
581.943, 1756.858
582.426, 1702.168
582.908, 1661.088
583.390, 1634.224
583.872, 1615.214
584.354, 1598.707
584.836, 1587.669
585.318, 1585.497
585.800, 1592.938
586.282, 1609.283
586.765, 1637.416
587.247, 1673.576
587.729, 1711.694
588.211, 1753.598
588.693, 1793.891
589.175, 1826.694
589.657, 1854.890
590.140, 1900.203
590.622, 1961.482
591.104, 2042.161
591.586, 2147.380
592.068, 2278.792
592.550, 2412.331
593.032, 2548.268
593.514, 2689.921
593.996, 2848.935
594.479, 3019.253
594.961, 3184.085
595.443, 3349.585
595.925, 3487.540
596.407, 3582.130
596.889, 3624.230
597.371, 3593.840
597.853, 3459.455
598.335, 3269.721
598.818, 3028.410
599.300, 2743.250
599.782, 2475.328
600.264, 2231.575
600.746, 2018.616
601.228, 1838.185
601.710, 1694.998
602.192, 1568.850
602.674, 1458.587
603.157, 1365.124
603.639, 1293.166
604.121, 1244.651
604.603, 1201.037
605.085, 1159.638
605.567, 1121.423
606.049, 1089.241
606.531, 1062.610
607.013, 1040.444
607.496, 1022.168
607.978, 1007.774
608.460, 996.735
608.942, 989.238
609.424, 986.562
609.906, 990.684
610.388, 999.150
610.870, 1009.834
611.353, 1021.705
611.835, 1038.502
612.317, 1069.751
612.799, 1101.773
613.281, 1120.000
613.763, 1111.946
614.245, 1115.170
614.727, 1135.977
615.209, 1168.379
615.692, 1198.294
616.174, 1225.106
616.656, 1252.023
617.138, 1279.036
617.620, 1307.246
618.102, 1340.284
618.584, 1378.195
619.067, 1417.737
619.549, 1460.206
620.031, 1500.910
620.513, 1532.851
620.995, 1554.598
621.477, 1574.423
621.959, 1598.650
622.441, 1622.227
622.923, 1640.260
623.406, 1651.156
623.888, 1656.699
624.370, 1657.885
624.852, 1653.690
