##NAMES=Zoisite
##RRUFFID=R060567
##IDEAL CHEMISTRY=Ca_2_Al_3_(Si_2_O_7_)(SiO_4_)O(OH)
##LOCALITY=Umba Valley, Tanzania
##OWNER=RRUFF
##SOURCE=Michael Scott
##DESCRIPTION=Purple prismatic crystals
##STATUS=The identification of this mineral has been confirmed by X-ray diffraction and chemical analysis
##URL=rruff.info/R060567
##MEASURED CHEMISTRY=Ca_2.00_Al_3.00_(Si_1.00_O_4_)(Si_2.00_O_7_)O(OH)
140.5947, 1008.268
141.0768, 1025.652
141.5589, 1045.760
142.0410, 1066.519
142.5232, 1091.594
143.0053, 1128.668
143.4874, 1182.464
143.9695, 1235.130
144.4516, 1277.291
144.9337, 1316.509
145.4159, 1358.785
145.8980, 1405.434
146.3801, 1459.067
146.8622, 1527.303
147.3443, 1618.318
147.8264, 1707.677
148.3086, 1794.535
148.7907, 1874.565
149.2728, 1944.403
149.7549, 2003.457
150.2370, 2048.861
150.7191, 2072.761
151.2013, 2067.972
151.6834, 2050.156
152.1655, 2022.172
152.6476, 1985.367
153.1297, 1938.648
153.6118, 1880.461
154.0940, 1816.486
154.5761, 1767.252
155.0582, 1749.663
155.5403, 1725.179
156.0224, 1679.155
156.5045, 1625.881
156.9867, 1582.034
157.4688, 1556.706
157.9509, 1546.562
158.4330, 1538.286
158.9151, 1536.016
159.3972, 1530.762
159.8794, 1514.405
160.3615, 1496.294
160.8436, 1489.460
161.3257, 1501.282
161.8078, 1527.186
162.2899, 1547.410
162.7721, 1554.780
163.2542, 1564.051
163.7363, 1579.107
164.2184, 1596.605
164.7005, 1611.678
165.1826, 1621.793
165.6648, 1627.859
166.1469, 1633.779
166.6290, 1638.747
167.1111, 1644.531
167.5932, 1652.967
168.0753, 1662.129
168.5575, 1669.139
169.0396, 1672.479
169.5217, 1672.789
170.0038, 1672.542
170.4859, 1664.808
170.9680, 1664.504
171.4502, 1678.269
171.9323, 1700.642
172.4144, 1723.269
172.8965, 1742.192
173.3786, 1758.268
173.8607, 1774.484
174.3429, 1788.487
174.8250, 1805.322
175.3071, 1829.935
175.7892, 1857.634
176.2713, 1878.617
176.7534, 1886.905
177.2356, 1889.191
177.7177, 1907.312
178.1998, 1952.920
178.6819, 1994.568
179.1640, 2020.150
179.6461, 2037.024
180.1283, 2058.921
180.6104, 2092.365
181.0925, 2132.380
181.5746, 2166.360
182.0567, 2192.390
182.5388, 2217.769
183.0210, 2244.173
183.5031, 2271.382
183.9852, 2298.114
184.4673, 2323.496
184.9494, 2349.725
185.4315, 2382.390
185.9137, 2421.729
186.3958, 2463.644
186.8779, 2505.958
187.3600, 2550.153
187.8421, 2602.594
188.3242, 2668.235
188.8064, 2735.180
189.2885, 2779.495
189.7706, 2800.822
190.2527, 2815.068
190.7348, 2827.142
191.2169, 2835.585
191.6991, 2839.144
192.1812, 2839.144
192.6633, 2829.634
193.1454, 2796.113
193.6275, 2737.645
194.1096, 2681.185
194.5918, 2633.844
195.0739, 2594.258
195.5560, 2562.944
196.0381, 2543.467
196.5202, 2522.519
197.0023, 2477.771
197.4845, 2410.818
197.9666, 2348.220
198.4487, 2299.552
198.9308, 2259.878
199.4129, 2222.072
199.8950, 2185.269
200.3772, 2148.506
200.8593, 2107.356
201.3414, 2063.040
201.8235, 2025.828
202.3056, 2001.958
202.7877, 1986.025
203.2699, 1970.834
203.7520, 1955.759
204.2341, 1939.819
204.7162, 1920.286
205.1983, 1898.381
205.6804, 1879.852
206.1626, 1867.035
206.6447, 1857.914
207.1268, 1850.486
207.6089, 1844.941
208.0910, 1839.078
208.5731, 1830.635
209.0553, 1820.401
209.5374, 1810.736
210.0195, 1801.266
210.5016, 1793.094
210.9837, 1787.294
211.4658, 1783.854
211.9480, 1783.148
212.4301, 1785.969
212.9122, 1791.853
213.3943, 1799.664
213.8764, 1809.891
214.3585, 1821.577
214.8407, 1834.303
215.3228, 1848.156
215.8049, 1861.658
216.2870, 1874.986
216.7691, 1886.952
217.2512, 1894.718
217.7334, 1893.391
218.2155, 1893.859
218.6976, 1908.108
219.1797, 1935.044
219.6618, 1959.174
220.1439, 1972.222
220.6261, 1978.899
221.1082, 1988.522
221.5903, 2003.159
222.0724, 2016.687
222.5545, 2025.517
223.0366, 2029.769
223.5188, 2029.101
224.0009, 2019.287
224.4830, 2008.732
224.9651, 2011.246
225.4472, 2030.316
225.9293, 2046.671
226.4115, 2046.832
226.8936, 2034.964
227.3757, 2024.308
227.8578, 2015.591
228.3399, 2013.794
228.8220, 2028.492
229.3041, 2060.292
229.7863, 2086.924
230.2684, 2097.706
230.7505, 2096.549
231.2326, 2092.198
231.7147, 2086.187
232.1968, 2077.270
232.6790, 2064.652
233.1611, 2048.661
233.6432, 2026.954
234.1253, 1992.606
234.6074, 1953.978
235.0895, 1924.583
235.5717, 1906.513
236.0538, 1893.780
236.5359, 1881.434
237.0180, 1870.105
237.5001, 1863.090
237.9822, 1863.184
238.4644, 1866.765
238.9465, 1869.391
239.4286, 1870.739
239.9107, 1874.705
240.3928, 1885.743
240.8749, 1901.658
241.3571, 1914.396
241.8392, 1921.727
242.3213, 1926.880
242.8034, 1928.948
243.2855, 1929.000
243.7676, 1938.165
244.2498, 1969.673
244.7319, 2010.839
245.2140, 2026.407
245.6961, 2002.413
246.1782, 1973.888
246.6603, 1958.304
247.1425, 1953.173
247.6246, 1949.555
248.1067, 1942.975
248.5888, 1937.370
249.0709, 1942.045
249.5530, 1960.815
250.0352, 1977.101
250.5173, 1980.840
250.9994, 1978.755
251.4815, 1985.632
251.9636, 2007.680
252.4457, 2031.774
252.9279, 2032.843
253.4100, 2004.371
253.8921, 1993.645
254.3742, 2021.325
254.8563, 2065.750
255.3384, 2101.796
255.8206, 2124.867
256.3027, 2144.495
256.7848, 2170.800
257.2669, 2205.301
257.7490, 2235.179
258.2311, 2255.373
258.7133, 2274.208
259.1954, 2301.312
259.6775, 2335.484
260.1596, 2364.704
260.6417, 2380.135
261.1238, 2381.226
261.6060, 2373.717
262.0881, 2356.931
262.5702, 2333.451
263.0523, 2299.857
263.5344, 2260.069
264.0165, 2223.999
264.4987, 2197.212
264.9808, 2178.173
265.4629, 2159.702
265.9450, 2144.163
266.4271, 2126.371
266.9092, 2097.937
267.3914, 2068.513
267.8735, 2053.933
268.3556, 2060.693
268.8377, 2079.179
269.3198, 2089.422
269.8019, 2076.905
270.2841, 2078.058
270.7662, 2102.226
271.2483, 2134.782
271.7304, 2164.035
272.2125, 2187.102
272.6946, 2206.108
273.1768, 2222.931
273.6589, 2234.152
274.1410, 2255.395
274.6231, 2292.219
275.1052, 2332.491
275.5873, 2372.360
276.0695, 2410.130
276.5516, 2442.957
277.0337, 2467.453
277.5158, 2483.231
277.9979, 2505.741
278.4800, 2536.308
278.9622, 2572.156
279.4443, 2617.214
279.9264, 2666.452
280.4085, 2710.494
280.8906, 2743.107
281.3727, 2769.073
281.8549, 2808.402
282.3370, 2872.437
282.8191, 2934.112
283.3012, 2989.481
283.7833, 3040.922
284.2654, 3091.905
284.7476, 3143.158
285.2297, 3193.098
285.7118, 3240.598
286.1939, 3291.522
286.6760, 3323.813
287.1581, 3325.543
287.6403, 3317.435
288.1224, 3311.442
288.6045, 3308.642
289.0866, 3302.587
289.5687, 3289.750
290.0508, 3270.805
290.5330, 3233.833
291.0151, 3165.911
291.4972, 3092.315
291.9793, 3020.175
292.4614, 2950.986
292.9435, 2887.279
293.4257, 2830.042
293.9078, 2779.437
294.3899, 2736.600
294.8720, 2701.889
295.3541, 2674.396
295.8362, 2651.516
296.3184, 2635.804
296.8005, 2632.881
297.2826, 2647.466
297.7647, 2668.390
298.2468, 2679.691
298.7289, 2680.094
299.2111, 2684.711
299.6932, 2697.713
300.1753, 2718.196
300.6574, 2746.767
301.1395, 2784.383
301.6216, 2821.445
302.1038, 2848.490
302.5859, 2868.873
303.0680, 2895.496
303.5501, 2930.307
304.0322, 2972.720
304.5143, 3020.579
304.9964, 3073.845
305.4785, 3139.313
305.9607, 3226.740
306.4428, 3323.639
306.9249, 3414.123
307.4070, 3496.585
307.8891, 3576.060
308.3712, 3656.371
308.8534, 3736.489
309.3355, 3811.410
309.8176, 3886.128
310.2997, 3951.068
310.7818, 4003.721
311.2639, 4042.859
311.7461, 4065.954
312.2282, 4072.387
312.7103, 4061.280
313.1924, 4028.534
313.6745, 3979.329
314.1566, 3904.438
314.6388, 3788.615
315.1209, 3651.556
315.6030, 3512.869
316.0851, 3378.008
316.5672, 3250.250
317.0493, 3133.214
317.5315, 3026.977
318.0136, 2935.402
318.4957, 2857.948
318.9778, 2794.563
319.4599, 2749.085
319.9420, 2718.997
320.4242, 2696.251
320.9063, 2675.035
321.3884, 2655.716
321.8705, 2643.819
322.3526, 2639.686
322.8347, 2643.150
323.3169, 2658.190
323.7990, 2679.595
324.2811, 2700.863
324.7632, 2719.269
325.2453, 2737.180
325.7274, 2759.222
326.2096, 2785.055
326.6917, 2816.181
327.1738, 2849.594
327.6559, 2889.989
328.1380, 2942.343
328.6201, 3005.941
329.1023, 3074.876
329.5844, 3142.885
330.0665, 3210.227
330.5486, 3283.188
331.0307, 3363.093
331.5128, 3448.114
331.9950, 3540.157
332.4771, 3636.046
332.9592, 3727.406
333.4413, 3806.886
333.9234, 3883.293
334.4055, 3976.094
334.8877, 4089.527
335.3698, 4198.975
335.8519, 4294.138
336.3340, 4379.306
336.8161, 4456.430
337.2982, 4524.091
337.7804, 4591.533
338.2625, 4660.029
338.7446, 4732.460
339.2267, 4824.384
339.7088, 4945.732
340.1909, 5074.397
340.6731, 5182.352
341.1552, 5272.549
341.6373, 5374.987
342.1194, 5498.153
342.6015, 5637.996
343.0836, 5797.290
343.5658, 5975.027
344.0479, 6146.289
344.5300, 6305.876
345.0121, 6442.527
345.4942, 6511.438
345.9763, 6512.003
346.4585, 6452.468
346.9406, 6320.890
347.4227, 6133.486
347.9048, 5915.971
348.3869, 5676.449
348.8690, 5416.582
349.3512, 5136.913
349.8333, 4819.857
350.3154, 4518.392
350.7975, 4216.601
351.2796, 3940.256
351.7617, 3712.406
352.2439, 3530.341
352.7260, 3372.078
353.2081, 3220.442
353.6902, 3074.583
354.1723, 2939.324
354.6544, 2806.320
355.1366, 2695.590
355.6187, 2620.561
356.1008, 2567.703
356.5829, 2519.776
357.0650, 2469.464
357.5471, 2419.622
358.0293, 2374.994
358.5114, 2335.830
358.9935, 2301.733
359.4756, 2280.527
359.9577, 2258.683
360.4398, 2226.244
360.9220, 2183.893
361.4041, 2141.830
361.8862, 2105.413
362.3683, 2075.414
362.8504, 2057.343
363.3326, 2056.080
363.8147, 2056.517
364.2968, 2048.285
364.7789, 2035.622
365.2610, 2025.630
365.7431, 2021.001
366.2253, 2018.575
366.7074, 2017.276
367.1895, 2016.462
367.6716, 2009.744
368.1537, 1990.823
368.6358, 1970.211
369.1180, 1967.925
369.6001, 1986.891
370.0822, 2003.040
370.5643, 2011.338
371.0464, 2012.549
371.5285, 2003.562
372.0107, 1985.154
372.4928, 1969.699
372.9749, 1968.617
373.4570, 1982.162
373.9391, 1993.353
374.4212, 2004.392
374.9034, 2011.080
375.3855, 2008.770
375.8676, 2001.741
376.3497, 1996.518
376.8318, 1995.941
377.3139, 1999.125
377.7961, 2003.684
378.2782, 2004.583
378.7603, 2017.291
379.2424, 2056.256
379.7245, 2093.556
380.2066, 2108.584
380.6888, 2103.798
381.1709, 2097.825
381.6530, 2107.044
382.1351, 2129.174
382.6172, 2143.526
383.0993, 2142.048
383.5815, 2146.516
384.0636, 2172.294
384.5457, 2204.461
385.0278, 2224.269
385.5099, 2224.560
385.9920, 2217.504
386.4742, 2215.066
386.9563, 2217.155
387.4384, 2222.259
387.9205, 2230.870
388.4026, 2241.495
388.8847, 2252.380
389.3669, 2263.639
389.8490, 2276.459
390.3311, 2288.040
390.8132, 2303.331
391.2953, 2329.926
391.7774, 2367.656
392.2596, 2407.266
392.7417, 2442.833
393.2238, 2476.356
393.7059, 2514.848
394.1880, 2558.298
394.6701, 2605.719
395.1523, 2658.626
395.6344, 2714.757
396.1165, 2775.560
396.5986, 2840.019
397.0807, 2895.098
397.5628, 2925.734
398.0450, 2931.610
398.5271, 2912.308
399.0092, 2860.402
399.4913, 2794.318
399.9734, 2708.825
400.4555, 2616.221
400.9377, 2535.050
401.4197, 2475.787
401.9019, 2433.073
402.3840, 2393.683
402.8661, 2357.059
403.3482, 2325.894
403.8303, 2300.482
404.3124, 2280.868
404.7946, 2266.316
405.2767, 2257.270
405.7588, 2256.402
406.2409, 2271.453
406.7230, 2296.600
407.2051, 2310.096
407.6873, 2307.553
408.1694, 2306.175
408.6515, 2318.425
409.1336, 2338.544
409.6157, 2355.945
410.0978, 2371.206
410.5800, 2380.547
411.0621, 2379.827
411.5442, 2371.536
412.0263, 2359.057
412.5084, 2342.080
412.9905, 2329.600
413.4727, 2334.944
413.9548, 2364.114
414.4369, 2384.661
414.9190, 2390.463
415.4011, 2392.962
415.8832, 2397.479
416.3654, 2404.236
416.8475, 2412.834
417.3296, 2423.445
417.8117, 2434.323
418.2938, 2440.379
418.7759, 2442.131
419.2581, 2437.491
419.7402, 2422.073
420.2223, 2404.260
420.7044, 2391.544
421.1865, 2383.463
421.6686, 2372.474
422.1508, 2349.912
422.6329, 2318.060
423.1150, 2293.247
423.5971, 2278.216
424.0792, 2264.583
424.5613, 2247.721
425.0435, 2230.348
425.5256, 2215.763
426.0077, 2204.289
426.4898, 2196.697
426.9719, 2193.102
427.4540, 2193.787
427.9362, 2201.447
428.4183, 2218.793
428.9004, 2235.712
429.3825, 2239.842
429.8646, 2231.250
430.3467, 2228.495
430.8289, 2236.183
431.3110, 2246.825
431.7931, 2254.813
432.2752, 2262.236
432.7573, 2275.000
433.2394, 2296.044
433.7216, 2322.111
434.2037, 2346.497
434.6858, 2369.528
435.1679, 2389.712
435.6500, 2406.330
436.1321, 2420.979
436.6143, 2434.655
437.0964, 2447.323
437.5785, 2458.449
438.0606, 2467.499
438.5427, 2474.790
439.0248, 2482.872
439.5070, 2496.289
439.9891, 2499.057
440.4712, 2480.582
440.9533, 2452.553
441.4354, 2421.144
441.9175, 2387.226
442.3997, 2358.349
442.8818, 2342.333
443.3639, 2334.874
443.8460, 2325.475
444.3281, 2312.948
444.8102, 2299.776
445.2924, 2287.375
445.7745, 2275.778
446.2566, 2265.013
446.7387, 2261.324
447.2208, 2251.043
447.7029, 2221.060
448.1851, 2183.907
448.6672, 2158.073
449.1493, 2148.597
449.6314, 2149.147
450.1135, 2152.643
450.5956, 2159.138
451.0778, 2168.210
451.5599, 2185.545
452.0420, 2199.125
452.5241, 2204.512
453.0062, 2203.781
453.4883, 2198.031
453.9705, 2187.191
454.4526, 2179.003
454.9347, 2191.516
455.4168, 2229.116
455.8989, 2247.301
456.3810, 2229.277
456.8632, 2202.275
457.3453, 2181.920
457.8274, 2168.309
458.3095, 2161.149
458.7916, 2166.689
459.2737, 2173.827
459.7559, 2167.547
460.2380, 2150.141
460.7201, 2136.175
461.2022, 2130.798
461.6843, 2132.922
462.1664, 2142.127
462.6486, 2161.131
463.1307, 2177.480
463.6128, 2183.879
464.0949, 2192.277
464.5770, 2216.623
465.0591, 2251.582
465.5413, 2277.296
466.0234, 2280.030
466.5055, 2269.030
466.9876, 2276.173
467.4697, 2311.132
467.9518, 2346.392
468.4340, 2380.702
468.9161, 2413.062
469.3982, 2440.122
469.8803, 2463.561
470.3624, 2490.848
470.8445, 2524.827
471.3267, 2567.286
471.8088, 2627.469
472.2909, 2709.672
472.7730, 2785.842
473.2551, 2839.028
473.7372, 2881.801
474.2194, 2937.514
474.7015, 3011.431
475.1836, 3077.245
475.6657, 3114.557
476.1478, 3144.212
476.6299, 3198.073
477.1121, 3276.097
477.5942, 3346.206
478.0763, 3384.178
478.5584, 3394.542
479.0405, 3405.949
479.5226, 3409.065
480.0048, 3425.716
480.4869, 3463.616
480.9690, 3512.134
481.4511, 3562.820
481.9332, 3614.215
482.4153, 3666.786
482.8975, 3717.268
483.3796, 3768.516
483.8617, 3845.449
484.3438, 3955.572
484.8259, 4073.330
485.3080, 4190.140
485.7902, 4307.218
486.2723, 4422.380
486.7544, 4532.914
487.2365, 4658.403
487.7186, 4815.097
488.2007, 4993.043
488.6829, 5177.710
489.1650, 5367.163
489.6471, 5553.499
490.1292, 5731.935
490.6113, 5903.049
491.0934, 6070.293
491.5756, 6273.101
492.0577, 6423.441
492.5398, 6503.975
493.0219, 6526.058
493.5040, 6501.876
493.9861, 6433.027
494.4683, 6310.421
494.9504, 6120.602
495.4325, 5866.153
495.9146, 5598.931
496.3967, 5308.723
496.8788, 5024.887
497.3610, 4755.236
497.8431, 4497.570
498.3252, 4247.542
498.8073, 4003.516
499.2894, 3785.280
499.7715, 3611.737
500.2536, 3471.917
500.7357, 3341.665
501.2179, 3218.566
501.7000, 3108.130
502.1821, 3014.462
502.6642, 2936.546
503.1463, 2868.825
503.6284, 2813.950
504.1106, 2764.606
504.5927, 2721.816
505.0748, 2682.632
505.5569, 2640.297
506.0390, 2596.621
506.5211, 2563.252
507.0033, 2552.599
507.4854, 2560.350
507.9675, 2554.976
508.4496, 2523.011
508.9317, 2503.703
509.4138, 2517.670
509.8960, 2540.136
510.3781, 2549.250
510.8602, 2542.930
511.3423, 2538.314
511.8244, 2551.348
512.3066, 2571.925
512.7887, 2578.440
513.2708, 2570.011
513.7529, 2563.619
514.2350, 2568.515
514.7172, 2580.988
515.1993, 2591.821
515.6814, 2601.660
516.1635, 2608.975
516.6456, 2613.760
517.1277, 2615.763
517.6099, 2612.478
518.0920, 2605.827
518.5741, 2601.554
519.0562, 2603.478
519.5383, 2610.411
520.0204, 2618.033
520.5026, 2623.589
520.9847, 2637.354
521.4668, 2669.484
521.9489, 2703.773
522.4310, 2727.178
522.9131, 2742.548
523.3953, 2765.678
523.8774, 2810.528
524.3595, 2862.482
524.8416, 2904.332
525.3237, 2936.900
525.8058, 2964.006
526.2880, 2986.060
526.7701, 3006.972
527.2522, 3033.973
527.7343, 3072.093
528.2164, 3096.065
528.6985, 3109.425
529.1807, 3105.669
529.6628, 3073.667
530.1449, 3023.946
530.6270, 2976.008
531.1091, 2937.887
531.5912, 2899.287
532.0734, 2840.602
532.5555, 2758.498
533.0376, 2688.252
533.5197, 2635.969
534.0018, 2590.319
534.4839, 2547.154
534.9661, 2505.434
535.4482, 2462.881
535.9303, 2417.809
536.4124, 2374.160
536.8945, 2331.653
537.3766, 2293.513
537.8588, 2270.264
538.3409, 2263.761
538.8230, 2257.001
539.3051, 2233.769
539.7872, 2195.198
540.2693, 2163.064
540.7515, 2140.217
541.2336, 2120.121
541.7157, 2101.488
542.1978, 2085.297
542.6799, 2073.031
543.1620, 2064.509
543.6442, 2057.350
544.1263, 2048.032
544.6084, 2038.713
545.0905, 2039.279
545.5726, 2051.956
546.0547, 2063.362
546.5369, 2069.750
547.0190, 2070.919
547.5011, 2065.536
547.9832, 2052.488
548.4653, 2042.204
548.9474, 2035.376
549.4296, 2034.126
549.9116, 2042.095
550.3937, 2057.485
550.8759, 2075.345
551.3580, 2093.452
551.8401, 2111.008
552.3222, 2126.249
552.8043, 2138.187
553.2864, 2150.416
553.7686, 2162.038
554.2507, 2174.995
554.7328, 2186.669
555.2149, 2200.865
555.6970, 2226.240
556.1791, 2269.100
556.6613, 2313.426
557.1434, 2338.642
557.6255, 2351.390
558.1076, 2374.901
558.5897, 2413.585
559.0718, 2460.902
559.5540, 2513.820
560.0361, 2571.602
560.5182, 2626.338
561.0003, 2672.873
561.4824, 2723.671
561.9645, 2782.922
562.4467, 2846.394
562.9288, 2909.951
563.4109, 2973.002
563.8930, 3037.194
564.3751, 3102.503
564.8572, 3170.544
565.3394, 3246.045
565.8215, 3329.745
566.3036, 3418.954
566.7857, 3511.500
567.2678, 3611.064
567.7499, 3722.606
568.2321, 3845.526
568.7142, 3966.986
569.1963, 4085.427
569.6784, 4199.312
570.1605, 4309.414
570.6426, 4413.878
571.1248, 4510.044
571.6069, 4596.490
572.0890, 4670.130
572.5711, 4727.193
573.0532, 4768.521
573.5353, 4788.139
574.0175, 4796.850
574.4996, 4767.940
574.9817, 4686.354
575.4638, 4567.822
575.9459, 4425.453
576.4280, 4261.521
576.9102, 4096.091
577.3923, 3941.106
577.8744, 3794.680
578.3565, 3649.719
578.8386, 3505.981
579.3207, 3373.197
579.8029, 3256.945
580.2850, 3154.879
580.7671, 3061.557
581.2492, 2982.095
581.7313, 2902.446
582.2134, 2807.352
582.6956, 2726.660
583.1777, 2682.348
583.6598, 2666.378
584.1419, 2660.588
584.6240, 2657.524
585.1061, 2653.915
585.5883, 2638.721
586.0704, 2613.660
586.5525, 2615.153
587.0346, 2657.694
587.5167, 2701.102
587.9988, 2713.920
588.4810, 2704.377
588.9631, 2704.375
589.4452, 2711.141
589.9273, 2732.760
590.4094, 2780.759
590.8915, 2839.189
591.3737, 2893.563
591.8558, 2941.818
592.3379, 2985.796
592.8200, 3025.615
593.3021, 3065.698
593.7842, 3122.215
594.2664, 3200.161
594.7485, 3277.129
595.2306, 3363.125
595.7127, 3432.599
596.1948, 3469.132
596.6769, 3475.723
597.1591, 3464.743
597.6412, 3444.641
598.1233, 3401.736
598.6054, 3320.210
599.0875, 3211.191
599.5696, 3091.932
600.0518, 2967.315
600.5339, 2838.418
601.0160, 2704.272
601.4981, 2567.513
601.9802, 2455.283
602.4623, 2376.358
602.9445, 2307.783
603.4266, 2244.382
603.9087, 2190.107
604.3908, 2149.773
604.8729, 2122.275
605.3550, 2101.195
605.8372, 2087.062
606.3193, 2074.563
606.8014, 2054.343
607.2835, 2029.980
607.7656, 2015.541
608.2477, 2015.580
608.7299, 2022.278
609.2120, 2027.619
609.6941, 2031.627
610.1762, 2033.445
610.6583, 2029.727
611.1404, 2027.962
611.6226, 2027.362
612.1047, 2030.611
612.5868, 2040.286
613.0689, 2056.600
613.5510, 2077.803
614.0331, 2105.518
614.5153, 2135.843
614.9974, 2160.236
615.4795, 2179.349
615.9616, 2200.484
616.4437, 2225.369
616.9258, 2255.160
617.4080, 2292.683
617.8901, 2339.934
618.3722, 2379.352
618.8543, 2404.615
619.3364, 2430.333
619.8185, 2458.200
620.3007, 2490.310
620.7828, 2532.454
621.2649, 2583.730
621.7470, 2631.838
622.2291, 2663.040
622.7112, 2684.222
623.1934, 2718.982
623.6755, 2768.627
624.1576, 2801.787
624.6397, 2804.657
625.1218, 2791.042
625.6039, 2778.613
626.0861, 2768.224
626.5682, 2751.336
627.0503, 2725.833
627.5324, 2696.104
628.0145, 2664.095
628.4966, 2628.824
628.9788, 2589.478
629.4609, 2545.650
629.9430, 2497.502
630.4251, 2443.669
630.9072, 2385.862
631.3893, 2329.543
631.8715, 2274.369
632.3536, 2224.076
632.8357, 2177.614
633.3178, 2139.900
633.7999, 2122.858
634.2820, 2128.813
634.7642, 2121.873
635.2463, 2087.765
635.7284, 2053.563
636.2105, 2029.726
636.6926, 2013.826
637.1747, 2003.093
