##NAMES=Zorite
##RRUFFID=R060953
##IDEAL CHEMISTRY=Na_6_Ti^4+^_5_Si_12_O_34_(O,OH)_5_&#183;11H_2_O
##LOCALITY=Lovozero Massif, Kola Peninsula, Russia
##OWNER=RRUFF
##SOURCE=Bob Jenkins
##DESCRIPTION=Groups of pale pink transparent acicular crystals
##STATUS=The identification of this mineral has been confirmed only by single crystal X-ray diffraction.
##URL=rruff.info/R060953
172.1452, 1983.317
172.6273, 1983.673
173.1095, 1984.963
173.5916, 1988.553
174.0737, 1997.078
174.5558, 2007.713
175.0379, 2016.090
175.5201, 2020.577
176.0022, 2025.622
176.4843, 2039.689
176.9664, 2059.780
177.4485, 2074.245
177.9306, 2068.823
178.4128, 2053.516
178.8949, 2047.071
179.3770, 2055.173
179.8591, 2070.085
180.3412, 2081.416
180.8233, 2089.685
181.3055, 2098.591
181.7876, 2111.893
182.2697, 2128.124
182.7518, 2143.707
183.2339, 2157.794
183.7160, 2170.563
184.1982, 2181.953
184.6803, 2191.948
185.1624, 2200.797
185.6445, 2211.177
186.1266, 2221.487
186.6087, 2223.742
187.0908, 2208.464
187.5730, 2185.842
188.0551, 2187.407
188.5372, 2215.425
189.0193, 2249.952
189.5014, 2272.127
189.9835, 2282.834
190.4657, 2289.026
190.9478, 2291.315
191.4299, 2290.800
191.9120, 2291.354
192.3941, 2292.383
192.8762, 2296.962
193.3584, 2312.787
193.8405, 2339.775
194.3226, 2360.885
194.8047, 2366.646
195.2868, 2358.583
195.7689, 2353.691
196.2511, 2351.649
196.7332, 2353.530
197.2153, 2361.688
197.6974, 2376.541
198.1795, 2393.622
198.6616, 2413.045
199.1438, 2435.228
199.6259, 2449.999
200.1080, 2455.401
200.5901, 2456.133
201.0722, 2460.887
201.5543, 2470.347
202.0364, 2480.171
202.5186, 2486.723
203.0007, 2489.014
203.4828, 2498.283
203.9649, 2517.004
204.4470, 2540.942
204.9291, 2560.141
205.4113, 2574.003
205.8934, 2585.282
206.3755, 2595.867
206.8576, 2606.305
207.3397, 2611.865
207.8218, 2609.939
208.3040, 2604.070
208.7861, 2605.513
209.2682, 2615.966
209.7503, 2629.563
210.2324, 2644.162
210.7145, 2661.182
211.1967, 2672.843
211.6788, 2676.553
212.1609, 2674.793
212.6430, 2677.872
213.1251, 2687.170
213.6072, 2698.731
214.0894, 2710.526
214.5715, 2723.202
215.0536, 2733.929
215.5357, 2741.391
216.0178, 2746.330
216.4999, 2753.293
216.9820, 2762.140
217.4642, 2772.857
217.9463, 2785.675
218.4284, 2800.767
218.9105, 2817.103
219.3926, 2836.311
219.8747, 2857.325
220.3569, 2870.645
220.8390, 2872.945
221.3211, 2871.992
221.8032, 2874.063
222.2853, 2880.216
222.7674, 2887.182
223.2496, 2894.942
223.7317, 2903.538
224.2138, 2910.175
224.6959, 2912.295
225.1780, 2915.704
225.6601, 2926.782
226.1423, 2950.999
226.6244, 2970.856
227.1065, 2980.706
227.5886, 2980.503
228.0707, 2988.549
228.5528, 3009.535
229.0350, 3034.057
229.5171, 3052.721
229.9992, 3063.455
230.4813, 3072.818
230.9634, 3082.227
231.4455, 3091.882
231.9276, 3098.949
232.4098, 3103.158
232.8919, 3105.055
233.3740, 3105.009
233.8561, 3102.451
234.3382, 3099.153
234.8203, 3095.797
235.3025, 3092.613
235.7846, 3086.742
236.2667, 3076.587
236.7488, 3065.210
237.2309, 3055.964
237.7130, 3048.877
238.1952, 3044.274
238.6773, 3043.744
239.1594, 3048.348
239.6415, 3046.694
240.1236, 3034.372
240.6057, 3019.384
241.0879, 3011.888
241.5700, 3018.534
242.0521, 3021.038
242.5342, 3014.307
243.0163, 2997.114
243.4984, 2979.217
243.9806, 2956.362
244.4627, 2936.101
244.9448, 2929.554
245.4269, 2948.950
245.9090, 2960.174
246.3911, 2951.912
246.8732, 2919.958
247.3554, 2898.078
247.8375, 2889.557
248.3196, 2888.367
248.8017, 2887.917
249.2838, 2891.343
249.7659, 2889.658
250.2481, 2879.337
250.7302, 2858.941
251.2123, 2841.080
251.6944, 2824.862
252.1765, 2812.216
252.6586, 2806.898
253.1408, 2816.110
253.6229, 2818.848
254.1050, 2806.917
254.5871, 2777.552
255.0692, 2758.576
255.5513, 2753.365
256.0334, 2755.465
256.5156, 2757.676
256.9977, 2762.315
257.4798, 2762.025
257.9619, 2753.818
258.4440, 2736.635
258.9261, 2720.293
259.4083, 2703.471
259.8904, 2688.457
260.3725, 2678.665
260.8546, 2675.469
261.3367, 2674.107
261.8188, 2675.079
262.3010, 2679.087
262.7831, 2673.482
263.2652, 2653.480
263.7473, 2629.492
264.2294, 2614.450
264.7115, 2611.648
265.1937, 2609.150
265.6758, 2603.629
266.1579, 2595.073
266.6400, 2588.623
267.1221, 2587.236
267.6042, 2583.824
268.0864, 2568.088
268.5685, 2535.207
269.0506, 2505.555
269.5327, 2484.326
270.0148, 2471.500
270.4969, 2463.764
270.9791, 2464.262
271.4612, 2464.249
271.9433, 2450.708
272.4254, 2418.944
272.9075, 2395.720
273.3896, 2391.018
273.8718, 2403.123
274.3539, 2408.630
274.8360, 2407.072
275.3181, 2400.042
275.8002, 2386.662
276.2823, 2365.107
276.7645, 2349.710
277.2466, 2346.669
277.7287, 2353.676
278.2108, 2350.848
278.6929, 2336.131
279.1750, 2317.994
279.6572, 2307.181
280.1393, 2304.767
280.6214, 2292.720
281.1035, 2261.435
281.5856, 2217.486
282.0677, 2193.870
282.5499, 2193.515
283.0320, 2200.048
283.5141, 2197.807
283.9962, 2186.857
284.4783, 2179.623
284.9604, 2180.747
285.4425, 2186.834
285.9247, 2184.397
286.4068, 2172.410
286.8889, 2161.538
287.3710, 2163.894
287.8531, 2177.835
288.3352, 2186.908
288.8174, 2188.350
289.2995, 2182.350
289.7816, 2165.021
290.2637, 2136.260
290.7458, 2110.464
291.2279, 2104.464
291.7101, 2113.250
292.1922, 2110.125
292.6743, 2083.962
293.1564, 2051.286
293.6385, 2047.971
294.1206, 2072.592
294.6028, 2096.853
295.0849, 2098.656
295.5670, 2084.243
296.0491, 2071.643
296.5312, 2063.718
297.0133, 2059.448
297.4955, 2058.991
297.9776, 2061.821
298.4597, 2064.134
298.9418, 2064.895
299.4239, 2063.256
299.9060, 2055.617
300.3882, 2038.780
300.8703, 2022.875
301.3524, 2022.093
301.8345, 2033.496
302.3166, 2045.955
302.7987, 2052.917
303.2809, 2056.983
303.7630, 2061.870
304.2451, 2067.915
304.7272, 2074.673
305.2093, 2082.614
305.6914, 2091.012
306.1736, 2097.694
306.6557, 2102.257
307.1378, 2104.351
307.6199, 2102.733
308.1020, 2096.708
308.5841, 2090.941
309.0663, 2089.176
309.5484, 2090.188
310.0305, 2091.749
310.5126, 2091.069
310.9947, 2091.810
311.4768, 2099.188
311.9590, 2114.226
312.4411, 2125.001
312.9232, 2119.029
313.4053, 2105.711
313.8874, 2097.828
314.3695, 2105.741
314.8517, 2115.578
315.3337, 2118.820
315.8159, 2115.161
316.2980, 2113.271
316.7801, 2123.360
317.2622, 2134.516
317.7443, 2135.796
318.2264, 2114.205
318.7086, 2091.464
319.1907, 2072.394
319.6728, 2057.550
320.1549, 2051.450
320.6370, 2064.703
321.1191, 2082.106
321.6013, 2092.583
322.0834, 2085.868
322.5655, 2080.401
323.0476, 2082.430
323.5297, 2089.917
324.0118, 2091.718
324.4940, 2080.339
324.9761, 2066.691
325.4582, 2056.649
325.9403, 2056.304
326.4224, 2052.593
326.9045, 2038.020
327.3867, 2018.116
327.8688, 2011.695
328.3509, 2035.850
328.8330, 2059.367
329.3151, 2070.792
329.7972, 2065.577
330.2794, 2056.190
330.7615, 2038.774
331.2436, 2017.983
331.7257, 2003.748
332.2078, 1999.142
332.6899, 1996.873
333.1721, 1995.533
333.6542, 1996.762
334.1363, 1992.263
334.6184, 1978.001
335.1005, 1961.245
335.5826, 1953.246
336.0648, 1958.812
336.5469, 1962.225
337.0290, 1959.053
337.5111, 1949.026
337.9932, 1936.095
338.4753, 1918.396
338.9575, 1900.970
339.4396, 1889.538
339.9217, 1885.006
340.4038, 1881.591
340.8859, 1878.032
341.3680, 1874.463
341.8502, 1872.361
342.3323, 1872.589
342.8144, 1870.955
343.2965, 1862.176
343.7786, 1846.366
344.2607, 1833.654
344.7429, 1826.522
345.2250, 1823.002
345.7071, 1818.085
346.1892, 1811.693
346.6713, 1805.540
347.1534, 1800.681
347.6355, 1796.962
348.1176, 1793.327
348.5998, 1789.054
349.0819, 1785.869
349.5640, 1788.282
350.0461, 1795.139
350.5282, 1799.475
351.0103, 1794.225
351.4925, 1784.409
351.9746, 1780.584
352.4567, 1785.078
352.9388, 1788.371
353.4209, 1777.852
353.9030, 1758.448
354.3852, 1741.934
354.8673, 1732.254
355.3494, 1729.109
355.8315, 1735.529
356.3136, 1751.849
356.7957, 1765.627
357.2779, 1764.751
357.7600, 1756.748
358.2421, 1751.918
358.7242, 1757.700
359.2063, 1764.667
359.6884, 1769.206
360.1706, 1770.954
360.6527, 1767.119
361.1348, 1748.277
361.6169, 1727.420
362.0990, 1715.576
362.5811, 1720.644
363.0633, 1728.242
363.5454, 1737.124
364.0275, 1745.730
364.5096, 1748.703
364.9917, 1735.542
365.4738, 1723.191
365.9560, 1721.080
366.4381, 1738.787
366.9202, 1751.123
367.4023, 1751.632
367.8844, 1745.593
368.3665, 1742.960
368.8487, 1750.772
369.3308, 1755.766
369.8129, 1752.650
370.2950, 1737.648
370.7771, 1730.335
371.2592, 1735.244
371.7414, 1744.885
372.2235, 1750.958
372.7056, 1752.331
373.1877, 1751.944
373.6698, 1749.326
374.1519, 1744.657
374.6341, 1743.573
375.1162, 1747.354
375.5983, 1752.394
376.0804, 1755.601
376.5625, 1756.436
377.0446, 1758.046
377.5267, 1761.468
378.0089, 1765.664
378.4910, 1766.001
378.9731, 1761.575
379.4552, 1759.098
379.9373, 1764.703
380.4194, 1777.697
380.9016, 1786.868
381.3837, 1791.088
381.8658, 1792.271
382.3479, 1792.417
382.8300, 1791.777
383.3121, 1792.358
383.7943, 1796.340
384.2764, 1802.115
384.7585, 1805.637
385.2406, 1806.608
385.7227, 1806.975
386.2048, 1809.803
386.6870, 1813.418
387.1691, 1813.966
387.6512, 1805.711
388.1333, 1796.811
388.6154, 1796.394
389.0975, 1803.822
389.5797, 1813.515
390.0618, 1826.983
390.5439, 1838.532
391.0260, 1840.877
391.5081, 1826.632
391.9902, 1812.300
392.4724, 1807.410
392.9545, 1809.661
393.4366, 1812.558
393.9187, 1813.734
394.4008, 1814.701
394.8829, 1816.441
395.3651, 1819.413
395.8472, 1822.180
396.3293, 1825.120
396.8114, 1827.451
397.2935, 1828.109
397.7756, 1822.721
398.2578, 1819.744
398.7399, 1820.656
399.2220, 1825.415
399.7041, 1835.562
400.1862, 1864.021
400.6683, 1888.600
401.1505, 1891.027
401.6326, 1849.206
402.1147, 1822.853
402.5968, 1822.009
403.0789, 1841.234
403.5610, 1857.120
404.0432, 1870.713
404.5253, 1879.043
405.0074, 1877.420
405.4895, 1861.463
405.9716, 1859.027
406.4537, 1874.524
406.9359, 1898.478
407.4180, 1915.971
407.9001, 1926.987
408.3822, 1931.586
408.8643, 1925.418
409.3464, 1911.824
409.8285, 1912.410
410.3106, 1929.159
410.7928, 1946.289
411.2749, 1944.723
411.7570, 1929.067
412.2391, 1917.900
412.7212, 1916.607
413.2033, 1922.082
413.6855, 1930.748
414.1676, 1942.325
414.6497, 1955.505
415.1318, 1971.989
415.6139, 1988.489
416.0960, 2000.847
416.5782, 2008.812
417.0603, 2011.449
417.5424, 1999.445
418.0245, 1981.955
418.5066, 1976.761
418.9887, 2004.403
419.4709, 2036.253
419.9530, 2055.681
420.4351, 2060.618
420.9172, 2064.059
421.3993, 2067.214
421.8814, 2072.564
422.3636, 2082.359
422.8457, 2102.671
423.3278, 2121.373
423.8099, 2135.515
424.2920, 2145.831
424.7741, 2156.321
425.2563, 2170.433
425.7384, 2182.023
426.2205, 2187.649
426.7026, 2182.844
427.1847, 2181.449
427.6668, 2182.691
428.1490, 2187.775
428.6311, 2200.154
429.1132, 2224.258
429.5953, 2244.927
430.0774, 2255.828
430.5595, 2257.431
431.0417, 2264.603
431.5238, 2279.723
432.0059, 2293.343
432.4880, 2291.053
432.9701, 2273.409
433.4522, 2271.181
433.9344, 2296.695
434.4165, 2333.900
434.8986, 2347.532
435.3807, 2338.989
435.8628, 2327.363
436.3449, 2322.507
436.8271, 2323.712
437.3092, 2331.116
437.7913, 2345.736
438.2734, 2360.488
438.7555, 2368.371
439.2376, 2371.381
439.7197, 2373.493
440.2018, 2372.630
440.6840, 2374.264
441.1661, 2384.550
441.6482, 2402.689
442.1303, 2419.818
442.6124, 2435.143
443.0945, 2445.607
443.5767, 2447.935
444.0588, 2434.254
444.5409, 2423.219
445.0230, 2422.376
445.5051, 2427.810
445.9872, 2429.967
446.4694, 2425.824
446.9515, 2419.671
447.4336, 2412.953
447.9157, 2406.077
448.3978, 2396.670
448.8799, 2377.621
449.3621, 2361.540
449.8442, 2363.560
450.3263, 2394.737
450.8084, 2418.195
451.2905, 2428.857
451.7726, 2427.092
452.2548, 2409.992
452.7369, 2370.582
453.2190, 2339.176
453.7011, 2342.725
454.1832, 2380.233
454.6653, 2395.747
455.1475, 2382.674
455.6296, 2356.470
456.1117, 2336.128
456.5938, 2321.493
457.0759, 2310.369
457.5580, 2302.024
458.0402, 2296.723
458.5223, 2297.658
459.0044, 2304.311
459.4865, 2307.417
459.9686, 2296.881
460.4507, 2279.658
460.9329, 2264.405
461.4150, 2252.770
461.8971, 2244.998
462.3792, 2245.917
462.8613, 2250.859
463.3434, 2249.413
463.8256, 2222.283
464.3077, 2200.156
464.7898, 2203.883
465.2719, 2241.051
465.7540, 2264.500
466.2361, 2252.581
466.7183, 2229.166
467.2004, 2215.142
467.6825, 2216.757
468.1646, 2221.989
468.6467, 2233.989
469.1288, 2249.591
469.6110, 2254.352
470.0930, 2243.010
470.5752, 2229.814
471.0573, 2221.167
471.5394, 2218.119
472.0215, 2212.789
472.5036, 2202.771
472.9857, 2194.947
473.4679, 2202.831
473.9500, 2226.648
474.4321, 2242.162
474.9142, 2241.190
475.3963, 2228.163
475.8784, 2210.667
476.3606, 2189.151
476.8427, 2171.850
477.3248, 2167.557
477.8069, 2171.216
478.2890, 2174.320
478.7711, 2176.012
479.2533, 2175.975
479.7354, 2170.250
480.2175, 2162.938
480.6996, 2161.588
481.1817, 2176.366
481.6638, 2192.234
482.1460, 2199.825
482.6281, 2199.327
483.1102, 2198.748
483.5923, 2201.187
484.0744, 2204.102
484.5565, 2205.993
485.0387, 2209.359
485.5208, 2207.382
486.0029, 2195.912
486.4850, 2179.316
486.9671, 2165.131
487.4492, 2152.929
487.9314, 2144.079
488.4135, 2139.286
488.8956, 2138.673
489.3777, 2140.819
489.8598, 2147.616
490.3419, 2153.416
490.8241, 2151.522
491.3062, 2141.215
491.7883, 2137.319
492.2704, 2142.873
492.7525, 2153.824
493.2346, 2163.002
493.7168, 2170.546
494.1989, 2179.188
494.6810, 2193.256
495.1631, 2208.351
495.6452, 2215.531
496.1273, 2214.540
496.6095, 2212.046
497.0916, 2215.356
497.5737, 2219.667
498.0558, 2217.802
498.5379, 2201.166
499.0201, 2188.698
499.5022, 2191.943
499.9843, 2207.387
500.4664, 2226.818
500.9485, 2255.293
501.4306, 2280.147
501.9127, 2294.200
502.3948, 2294.795
502.8770, 2298.257
503.3591, 2305.813
503.8412, 2316.658
504.3233, 2330.841
504.8054, 2351.768
505.2875, 2369.029
505.7697, 2379.803
506.2518, 2387.238
506.7339, 2400.286
507.2160, 2420.308
507.6981, 2440.678
508.1802, 2459.380
508.6624, 2476.238
509.1445, 2489.146
509.6266, 2498.021
510.1087, 2503.741
510.5908, 2504.049
511.0729, 2501.502
511.5551, 2505.011
512.0372, 2518.462
512.5193, 2535.600
513.0014, 2549.926
513.4835, 2561.903
513.9656, 2572.623
514.4478, 2581.966
514.9299, 2590.736
515.4120, 2599.944
515.8941, 2609.712
516.3762, 2617.721
516.8583, 2623.032
517.3405, 2626.008
517.8226, 2626.914
518.3047, 2623.267
518.7868, 2620.495
519.2689, 2617.110
519.7510, 2615.057
520.2332, 2620.539
520.7153, 2644.940
521.1974, 2658.584
521.6795, 2647.170
522.1616, 2609.494
522.6437, 2590.973
523.1259, 2597.529
523.6080, 2608.762
524.0901, 2605.907
524.5722, 2589.097
525.0543, 2573.351
525.5364, 2560.244
526.0186, 2549.692
526.5007, 2541.771
526.9828, 2536.399
527.4649, 2532.887
527.9470, 2532.925
528.4291, 2533.576
528.9113, 2531.294
529.3934, 2526.091
529.8755, 2518.998
530.3576, 2511.225
530.8397, 2501.578
531.3218, 2487.995
531.8040, 2466.159
532.2861, 2448.338
532.7682, 2443.915
533.2503, 2445.304
533.7324, 2440.302
534.2145, 2411.423
534.6967, 2393.446
535.1788, 2399.900
535.6609, 2429.065
536.1430, 2441.061
536.6251, 2427.289
537.1072, 2409.983
537.5894, 2403.490
538.0715, 2409.816
538.5536, 2412.907
539.0357, 2411.801
539.5178, 2407.924
539.9999, 2401.632
540.4821, 2393.462
540.9642, 2388.275
541.4463, 2388.541
541.9284, 2391.804
542.4105, 2394.705
542.8926, 2397.073
543.3748, 2398.167
543.8569, 2400.395
544.3390, 2399.418
544.8211, 2387.770
545.3032, 2362.039
545.7853, 2342.324
546.2675, 2345.516
546.7495, 2357.052
547.2316, 2361.501
547.7137, 2342.805
548.1959, 2331.092
548.6780, 2338.589
549.1601, 2358.191
549.6422, 2364.662
550.1243, 2350.772
550.6064, 2333.902
551.0886, 2319.047
551.5707, 2306.077
552.0528, 2296.990
552.5349, 2291.916
553.0170, 2290.586
553.4991, 2295.406
553.9813, 2305.730
554.4634, 2308.939
554.9455, 2300.689
555.4276, 2290.201
555.9097, 2296.305
556.3918, 2313.475
556.8740, 2322.269
557.3561, 2304.697
557.8382, 2279.899
558.3203, 2266.241
558.8024, 2263.291
559.2845, 2264.625
559.7667, 2272.176
560.2488, 2279.202
560.7309, 2280.248
561.2130, 2271.348
561.6951, 2263.959
562.1772, 2259.376
562.6594, 2257.755
563.1415, 2259.572
563.6236, 2269.890
564.1057, 2275.364
564.5878, 2272.523
565.0699, 2263.335
565.5521, 2255.461
566.0342, 2248.418
566.5163, 2244.298
566.9984, 2245.972
567.4805, 2252.612
567.9626, 2253.908
568.4448, 2249.148
568.9269, 2244.719
569.4090, 2247.682
569.8911, 2255.733
570.3732, 2263.758
570.8553, 2270.752
571.3375, 2276.801
571.8196, 2283.956
572.3017, 2290.058
572.7838, 2290.399
573.2659, 2274.728
573.7480, 2260.463
574.2302, 2255.596
574.7123, 2260.306
575.1944, 2268.499
575.6765, 2286.165
576.1586, 2301.305
576.6407, 2307.683
577.1229, 2302.063
577.6050, 2296.195
578.0871, 2289.597
578.5692, 2283.413
579.0513, 2278.801
579.5334, 2275.613
580.0156, 2275.948
580.4977, 2281.758
580.9798, 2289.735
581.4619, 2291.977
581.9440, 2289.022
582.4261, 2285.387
582.9083, 2283.224
583.3904, 2282.136
583.8725, 2282.156
584.3546, 2283.194
584.8367, 2283.088
585.3188, 2273.311
585.8010, 2265.468
586.2831, 2272.683
586.7652, 2311.749
587.2473, 2338.435
587.7294, 2331.126
588.2115, 2307.355
588.6937, 2295.114
589.1758, 2303.515
589.6579, 2311.969
590.1400, 2317.256
590.6221, 2319.827
591.1042, 2321.803
591.5864, 2322.811
592.0685, 2324.471
592.5506, 2326.099
593.0327, 2328.301
593.5148, 2341.375
593.9969, 2367.366
594.4791, 2388.386
594.9612, 2380.395
595.4433, 2355.447
595.9254, 2338.452
596.4075, 2335.925
596.8896, 2340.525
597.3718, 2350.510
597.8539, 2362.879
598.3360, 2372.173
598.8181, 2371.285
599.3002, 2371.931
599.7823, 2380.427
600.2645, 2395.916
600.7466, 2407.768
601.2287, 2412.085
601.7108, 2415.831
602.1929, 2422.901
602.6750, 2435.213
603.1572, 2438.921
603.6393, 2430.210
604.1214, 2420.825
604.6035, 2425.186
605.0856, 2442.700
605.5677, 2454.000
606.0499, 2454.130
606.5320, 2450.988
607.0141, 2453.934
607.4962, 2463.081
607.9783, 2478.995
608.4604, 2515.610
608.9425, 2548.666
609.4246, 2550.735
609.9067, 2527.505
610.3889, 2510.489
610.8710, 2518.955
611.3531, 2532.827
611.8352, 2540.246
612.3173, 2537.031
612.7994, 2539.872
613.2816, 2553.313
613.7637, 2569.820
614.2458, 2584.468
614.7279, 2599.416
615.2100, 2603.752
615.6921, 2591.947
616.1743, 2575.686
616.6564, 2579.407
617.1385, 2602.141
617.6206, 2621.381
618.1027, 2625.900
618.5848, 2624.569
619.0670, 2633.641
619.5491, 2651.531
620.0312, 2669.801
620.5133, 2686.562
620.9954, 2699.479
621.4775, 2703.884
621.9597, 2698.290
622.4418, 2698.018
622.9239, 2718.241
623.4060, 2739.711
623.8881, 2747.566
624.3702, 2723.388
624.8524, 2711.572
625.3345, 2715.950
625.8166, 2730.064
626.2987, 2745.989
626.7808, 2765.663
627.2629, 2777.729
627.7451, 2776.956
628.2272, 2768.980
628.7093, 2769.145
629.1914, 2776.889
629.6735, 2785.111
630.1556, 2791.624
630.6378, 2795.152
631.1199, 2790.135
631.6020, 2777.225
632.0841, 2770.693
632.5662, 2788.130
633.0483, 2810.150
633.5305, 2819.664
634.0126, 2806.651
634.4947, 2799.036
634.9768, 2807.799
635.4589, 2821.530
635.9410, 2827.532
636.4232, 2819.608
636.9053, 2816.503
637.3874, 2819.329
637.8695, 2828.933
638.3516, 2852.188
638.8337, 2890.731
639.3159, 2918.628
639.7980, 2922.599
640.2801, 2910.658
640.7622, 2898.352
641.2443, 2886.106
641.7264, 2878.165
642.2086, 2882.965
642.6907, 2890.171
643.1728, 2888.818
643.6549, 2877.191
644.1370, 2864.670
644.6191, 2848.465
645.1013, 2836.849
645.5834, 2836.809
646.0655, 2863.182
646.5476, 2880.148
647.0297, 2883.730
647.5118, 2880.376
647.9940, 2878.697
648.4761, 2878.265
648.9582, 2881.012
649.4403, 2887.811
649.9224, 2897.471
650.4045, 2908.803
650.8867, 2921.410
651.3688, 2931.323
651.8509, 2935.552
652.3330, 2936.371
652.8151, 2935.950
653.2972, 2934.529
653.7794, 2933.389
654.2615, 2934.885
654.7436, 2935.890
655.2257, 2933.539
655.7078, 2925.846
656.1899, 2921.091
656.6721, 2928.786
657.1542, 2933.984
657.6363, 2922.077
658.1184, 2881.218
658.6005, 2859.561
659.0826, 2865.919
659.5648, 2885.171
660.0469, 2893.268
660.5290, 2890.693
661.0111, 2885.694
661.4932, 2880.529
661.9753, 2874.828
662.4575, 2864.648
662.9396, 2852.772
663.4217, 2848.652
663.9038, 2865.503
664.3859, 2885.290
664.8680, 2895.143
665.3502, 2895.244
665.8323, 2896.265
666.3144, 2905.230
666.7965, 2911.805
667.2786, 2909.454
667.7607, 2893.930
668.2429, 2887.613
668.7250, 2894.358
669.2071, 2903.346
