##NAMES=Zunyite
##RRUFFID=R050263
##IDEAL CHEMISTRY=Al_13_Si_5_O_20_(OH,F)_18_Cl
##LOCALITY=Ruby Mountain, Tintic District, Utah, USA
##OWNER=RRUFF
##SOURCE=Marcus Origlieri
##DESCRIPTION=Colorless tetrahedral crystals
##STATUS=The identification of this mineral has been confirmed by X-ray diffraction and chemical analysis
##URL=rruff.info/R050263
##MEASURED CHEMISTRY=Al_13.00_Si_5.00_O_20_((OH)_14.80_F_3.20_)_Σ=18_Cl_1.00_ ; gray phase. (Al_12.92_Fe^3+^_0.08_)_Σ=13_Si_5.00_O_20_((OH)_14.86_F_3.14_)_Σ=18_Cl_1.00_ rim, lighter phase
133.1706, 813.2698
133.6528, 811.7172
134.1349, 811.2205
134.6170, 812.3163
135.0991, 813.7070
135.5812, 815.1044
136.0633, 816.4061
136.5455, 817.1259
137.0276, 816.3639
137.5097, 814.6312
137.9918, 814.6106
138.4739, 817.5365
138.9560, 821.6915
139.4382, 825.5420
139.9203, 829.1228
140.4024, 831.9044
140.8845, 832.6569
141.3666, 832.3116
141.8487, 832.5998
142.3309, 835.0880
142.8130, 838.8860
143.2951, 841.0251
143.7772, 841.1118
144.2593, 839.7932
144.7414, 836.8503
145.2236, 832.8849
145.7057, 829.2661
146.1878, 827.0446
146.6699, 826.2795
147.1520, 825.9905
147.6341, 826.6846
148.1163, 827.4686
148.5984, 828.1088
149.0805, 828.5573
149.5626, 828.8231
150.0447, 828.8054
150.5268, 828.0797
151.0090, 828.4611
151.4911, 831.0264
151.9732, 833.6594
152.4553, 835.0701
152.9374, 835.0157
153.4195, 834.0748
153.9017, 832.9801
154.3838, 831.0565
154.8659, 830.5460
155.3480, 832.1905
155.8301, 834.9152
156.3122, 838.0975
156.7944, 841.6649
157.2765, 844.5916
157.7586, 844.3121
158.2407, 839.9740
158.7228, 836.5959
159.2049, 836.2899
159.6871, 837.9601
160.1692, 838.9763
160.6513, 838.0370
161.1334, 836.7512
161.6155, 837.6262
162.0976, 840.9709
162.5798, 844.5576
163.0619, 846.9479
163.5440, 848.2133
164.0261, 849.2925
164.5082, 850.1134
164.9903, 851.1327
165.4725, 852.9631
165.9546, 855.7743
166.4367, 858.5814
166.9188, 860.3270
167.4009, 860.9902
167.8830, 860.6445
168.3652, 858.9435
168.8473, 856.5007
169.3294, 853.5837
169.8115, 850.2704
170.2936, 846.6975
170.7757, 842.8990
171.2579, 837.7899
171.7400, 834.6531
172.2221, 834.8682
172.7042, 836.4263
173.1863, 837.5290
173.6684, 837.3784
174.1506, 836.3428
174.6327, 835.5336
175.1148, 833.9750
175.5969, 833.9006
176.0790, 836.6595
176.5611, 840.6865
177.0432, 843.9637
177.5254, 845.3945
178.0075, 845.3998
178.4896, 846.0180
178.9717, 847.4305
179.4538, 849.1573
179.9359, 851.1865
180.4181, 853.4551
180.9002, 855.8528
181.3823, 858.3194
181.8644, 860.8609
182.3465, 863.4392
182.8286, 866.1203
183.3108, 868.7679
183.7929, 871.4968
184.2750, 874.2176
184.7571, 876.4500
185.2392, 877.6998
185.7213, 878.2853
186.2035, 879.3035
186.6856, 881.0585
187.1677, 882.9673
187.6498, 884.1339
188.1319, 884.4807
188.6140, 885.8467
189.0962, 890.4915
189.5783, 896.4485
190.0604, 900.9828
190.5425, 902.9760
191.0246, 903.9048
191.5067, 905.6420
191.9889, 908.1683
192.4710, 911.6379
192.9531, 916.9740
193.4352, 922.9410
193.9173, 928.2792
194.3994, 932.4863
194.8816, 935.8116
195.3637, 938.7682
195.8458, 941.0050
196.3279, 943.5274
196.8100, 946.7451
197.2921, 950.3196
197.7743, 953.9145
198.2564, 957.4089
198.7385, 960.7083
199.2206, 963.4691
199.7027, 965.6901
200.1848, 967.2386
200.6670, 968.0306
201.1491, 968.1888
201.6312, 967.8546
202.1133, 967.1091
202.5954, 965.9474
203.0775, 964.3070
203.5597, 961.7322
204.0418, 959.1345
204.5239, 956.5756
205.0060, 954.0953
205.4881, 951.7585
205.9702, 949.5986
206.4524, 947.6165
206.9345, 945.9015
207.4166, 944.2884
207.8987, 943.0804
208.3808, 942.5421
208.8629, 942.4911
209.3451, 942.5447
209.8272, 942.4619
210.3093, 942.2836
210.7914, 942.3304
211.2735, 942.8840
211.7556, 943.3200
212.2378, 943.1205
212.7199, 942.5264
213.2020, 942.3570
213.6841, 943.2198
214.1662, 944.8663
214.6483, 946.0528
215.1305, 946.8987
215.6126, 947.2348
216.0947, 946.9587
216.5768, 946.0822
217.0589, 944.5552
217.5410, 941.7599
218.0232, 938.5848
218.5053, 937.2094
218.9874, 938.5386
219.4695, 940.5986
219.9516, 942.1025
220.4337, 943.0535
220.9159, 943.3404
221.3980, 942.2097
221.8801, 940.7109
222.3622, 940.5056
222.8443, 942.3804
223.3264, 944.5254
223.8086, 944.7537
224.2907, 942.8258
224.7728, 941.3123
225.2549, 941.7252
225.7370, 942.8688
226.2191, 943.7128
226.7013, 943.9792
227.1834, 944.0616
227.6655, 944.5303
228.1476, 945.5292
228.6297, 946.2772
229.1118, 946.1104
229.5940, 945.8245
230.0761, 946.0157
230.5582, 946.8571
231.0403, 948.0889
231.5224, 949.5774
232.0045, 951.8168
232.4867, 952.7776
232.9688, 950.9628
233.4509, 948.5381
233.9330, 947.0527
234.4151, 946.9395
234.8972, 947.5397
235.3794, 947.9060
235.8615, 948.2120
236.3436, 947.8242
236.8257, 945.9268
237.3078, 943.9255
237.7899, 942.9915
238.2720, 943.3557
238.7542, 944.1901
239.2363, 944.0401
239.7184, 941.9612
240.2005, 940.7868
240.6826, 941.0993
241.1647, 941.8293
241.6469, 942.3365
242.1290, 942.4247
242.6111, 942.1646
243.0932, 941.6522
243.5753, 940.8173
244.0574, 939.8245
244.5396, 938.3398
245.0217, 936.9424
245.5038, 936.0589
245.9859, 935.7587
246.4680, 935.8282
246.9501, 936.0014
247.4323, 936.3583
247.9144, 936.6042
248.3965, 936.9847
248.8786, 937.0977
249.3607, 936.4097
249.8428, 934.9384
250.3250, 933.4308
250.8071, 932.8157
251.2892, 933.4776
251.7713, 933.6840
252.2534, 932.8309
252.7355, 931.9589
253.2177, 932.2443
253.6998, 933.6566
254.1819, 934.6550
254.6640, 933.4799
255.1461, 929.6362
255.6283, 926.9338
256.1104, 925.9966
256.5925, 925.7415
257.0746, 925.4276
257.5567, 924.9944
258.0388, 924.7576
258.5210, 925.1252
259.0031, 926.0898
259.4852, 926.3972
259.9673, 925.3045
260.4494, 924.1146
260.9315, 923.9238
261.4137, 924.7125
261.8958, 925.5662
262.3779, 925.9053
262.8600, 925.7241
263.3421, 925.3533
263.8242, 924.6445
264.3064, 923.8585
264.7885, 923.0506
265.2706, 922.2490
265.7527, 921.7785
266.2348, 921.8979
266.7169, 922.5087
267.1990, 923.2248
267.6812, 924.2987
268.1633, 925.1545
268.6454, 925.0275
269.1275, 924.0562
269.6096, 923.7469
270.0917, 925.3852
270.5739, 927.7037
271.0560, 928.4863
271.5381, 927.4252
272.0202, 925.4444
272.5023, 922.5306
272.9844, 918.9156
273.4666, 916.5908
273.9487, 917.0532
274.4308, 918.4337
274.9129, 918.1185
275.3950, 915.8067
275.8771, 913.4727
276.3593, 912.6607
276.8414, 913.1136
277.3235, 913.1389
277.8056, 912.0894
278.2877, 910.7534
278.7698, 910.0057
279.2520, 909.8156
279.7341, 909.5349
280.2162, 908.6207
280.6983, 907.2146
281.1804, 906.0089
281.6625, 904.9830
282.1447, 904.3759
282.6268, 904.5903
283.1089, 905.4109
283.5910, 905.9325
284.0731, 905.3400
284.5552, 903.9858
285.0374, 903.2175
285.5195, 903.3562
286.0016, 903.6522
286.4837, 903.4629
286.9658, 903.0713
287.4479, 903.1204
287.9301, 904.3033
288.4122, 906.0652
288.8943, 906.7256
289.3764, 905.6747
289.8585, 904.8524
290.3406, 905.1609
290.8228, 906.2241
291.3049, 907.6215
291.7870, 909.2636
292.2691, 911.0316
292.7512, 912.9311
293.2333, 915.3422
293.7155, 916.7253
294.1976, 915.3972
294.6797, 913.3416
295.1618, 912.5238
295.6439, 913.7053
296.1260, 915.5782
296.6082, 915.9340
297.0903, 914.1338
297.5724, 913.5199
298.0545, 916.4313
298.5366, 919.9457
299.0187, 921.9418
299.5009, 922.0369
299.9830, 921.7172
300.4651, 922.8286
300.9472, 925.6494
301.4293, 927.7772
301.9114, 927.8737
302.3936, 927.9642
302.8757, 929.3566
303.3578, 931.9576
303.8399, 934.5638
304.3220, 935.9433
304.8041, 936.0641
305.2863, 936.7344
305.7684, 938.5869
306.2505, 940.4041
306.7326, 941.4481
307.2147, 941.9766
307.6968, 942.7245
308.1790, 944.3447
308.6611, 946.6466
309.1432, 948.4382
309.6253, 949.5789
310.1074, 950.3439
310.5895, 950.6038
311.0717, 950.6570
311.5538, 950.9586
312.0359, 951.7867
312.5180, 952.9415
313.0001, 953.9274
313.4822, 954.7784
313.9644, 955.3533
314.4465, 955.2892
314.9286, 955.1135
315.4107, 955.4360
315.8928, 956.4977
316.3749, 957.7957
316.8571, 958.5618
317.3392, 958.7537
317.8213, 958.5417
318.3034, 957.5620
318.7855, 956.4605
319.2676, 955.4979
319.7498, 954.7634
320.2319, 954.4978
320.7140, 955.4423
321.1961, 957.9359
321.6782, 958.8609
322.1603, 956.5203
322.6425, 953.6923
323.1246, 951.3445
323.6067, 949.6350
324.0888, 948.5868
324.5709, 948.3758
325.0530, 948.9516
325.5352, 949.5597
326.0173, 950.3032
326.4994, 950.9377
326.9815, 951.2095
327.4636, 951.3303
327.9457, 951.7468
328.4279, 952.9103
328.9100, 954.3824
329.3921, 954.7112
329.8742, 953.3313
330.3563, 951.9453
330.8384, 951.2631
331.3206, 950.8049
331.8027, 949.9208
332.2848, 948.2938
332.7669, 946.6583
333.2490, 946.2994
333.7311, 947.5585
334.2133, 948.7503
334.6954, 949.5745
335.1775, 950.1163
335.6596, 950.3011
336.1417, 950.1425
336.6238, 949.9467
337.1060, 949.9155
337.5881, 950.0389
338.0702, 950.6396
338.5523, 952.2218
339.0344, 953.8278
339.5165, 954.8677
339.9987, 955.4407
340.4808, 955.9680
340.9629, 956.7904
341.4450, 957.8256
341.9271, 958.5320
342.4092, 958.5012
342.8914, 958.8827
343.3735, 960.4553
343.8556, 962.7104
344.3377, 964.8632
344.8198, 966.5685
345.3019, 968.0236
345.7841, 969.5617
346.2662, 971.1892
346.7483, 972.8600
347.2304, 973.8468
347.7125, 975.2199
348.1946, 978.2576
348.6768, 983.4062
349.1589, 989.0595
349.6410, 993.8124
350.1231, 997.6512
350.6052, 1000.683
351.0873, 1002.024
351.5695, 1003.467
352.0516, 1006.546
352.5337, 1011.196
353.0158, 1016.292
353.4979, 1021.518
353.9800, 1026.669
354.4622, 1030.771
354.9443, 1033.094
355.4264, 1035.782
355.9085, 1040.912
356.3906, 1047.575
356.8727, 1053.825
357.3549, 1059.605
357.8370, 1064.245
358.3191, 1066.043
358.8012, 1064.591
359.2833, 1063.887
359.7654, 1067.109
360.2476, 1071.877
360.7297, 1074.435
361.2118, 1073.950
361.6939, 1072.161
362.1760, 1069.755
362.6581, 1066.947
363.1403, 1065.053
363.6224, 1064.831
364.1045, 1065.251
364.5866, 1064.724
365.0687, 1063.160
365.5508, 1062.257
366.0330, 1063.251
366.5151, 1065.219
366.9972, 1066.563
367.4793, 1067.003
367.9614, 1066.975
368.4435, 1066.415
368.9257, 1065.553
369.4078, 1065.859
369.8899, 1068.645
370.3720, 1071.864
370.8541, 1073.735
371.3362, 1074.342
371.8184, 1074.787
372.3005, 1075.741
372.7826, 1076.961
373.2647, 1077.598
373.7468, 1077.124
374.2289, 1076.957
374.7111, 1077.649
375.1932, 1079.040
375.6753, 1080.962
376.1574, 1083.426
376.6395, 1086.032
377.1216, 1088.196
377.6038, 1089.960
378.0859, 1091.082
378.5680, 1091.111
379.0501, 1090.740
379.5322, 1090.252
380.0143, 1089.812
380.4965, 1090.237
380.9786, 1092.600
381.4607, 1096.975
381.9428, 1098.891
382.4249, 1096.298
382.9070, 1093.740
383.3892, 1093.177
383.8713, 1094.079
384.3534, 1095.314
384.8355, 1096.361
385.3176, 1097.068
385.7997, 1096.966
386.2819, 1094.438
386.7640, 1093.158
387.2461, 1094.561
387.7282, 1096.545
388.2103, 1097.045
388.6924, 1095.651
389.1746, 1093.503
389.6567, 1092.056
390.1388, 1091.706
390.6209, 1090.406
391.1030, 1087.231
391.5851, 1084.143
392.0672, 1082.052
392.5493, 1080.770
393.0315, 1079.634
393.5136, 1078.195
393.9957, 1076.515
394.4778, 1075.027
394.9599, 1073.970
395.4420, 1072.756
395.9242, 1071.345
396.4063, 1069.726
396.8884, 1067.817
397.3705, 1065.609
397.8526, 1063.294
398.3347, 1061.196
398.8169, 1059.399
399.2990, 1057.513
399.7811, 1055.271
400.2632, 1053.141
400.7453, 1051.448
401.2274, 1050.115
401.7096, 1048.805
402.1917, 1047.328
402.6738, 1045.674
403.1559, 1043.576
403.6380, 1040.173
404.1201, 1037.920
404.6023, 1038.350
405.0844, 1040.094
405.5665, 1041.555
406.0486, 1042.206
406.5307, 1042.355
407.0128, 1042.309
407.4950, 1042.046
407.9771, 1041.821
408.4592, 1041.296
408.9413, 1041.246
409.4234, 1042.662
409.9055, 1045.458
410.3877, 1047.859
410.8698, 1048.600
411.3519, 1048.225
411.8340, 1048.062
412.3161, 1048.190
412.7982, 1048.601
413.2804, 1049.129
413.7625, 1049.958
414.2446, 1051.609
414.7267, 1054.668
415.2088, 1058.045
415.6909, 1060.802
416.1731, 1063.055
416.6552, 1065.460
417.1373, 1068.327
417.6194, 1071.397
418.1015, 1074.084
418.5836, 1076.206
419.0658, 1078.797
419.5479, 1082.341
420.0300, 1086.411
420.5121, 1090.440
420.9942, 1094.355
421.4763, 1098.481
421.9585, 1103.229
422.4406, 1108.585
422.9227, 1113.372
423.4048, 1117.435
423.8869, 1121.127
424.3690, 1124.308
424.8512, 1127.227
425.3333, 1130.367
425.8154, 1133.955
426.2975, 1137.846
426.7796, 1141.794
427.2617, 1146.337
427.7439, 1150.015
428.2260, 1151.699
428.7081, 1153.346
429.1902, 1156.402
429.6723, 1161.014
430.1544, 1166.627
430.6366, 1172.947
431.1187, 1180.001
431.6008, 1185.714
432.0829, 1188.728
432.5650, 1191.809
433.0471, 1195.744
433.5293, 1200.040
434.0114, 1203.966
434.4935, 1207.174
434.9756, 1210.077
435.4577, 1213.519
435.9398, 1217.789
436.4220, 1221.610
436.9041, 1224.472
437.3862, 1227.123
437.8683, 1229.954
438.3504, 1232.953
438.8326, 1235.885
439.3147, 1238.685
439.7968, 1241.279
440.2789, 1243.346
440.7610, 1244.772
441.2431, 1245.909
441.7253, 1246.514
442.2074, 1247.073
442.6895, 1248.367
443.1716, 1250.885
443.6537, 1253.286
444.1358, 1254.269
444.6180, 1253.991
445.1001, 1253.523
445.5822, 1253.234
446.0643, 1252.641
446.5464, 1251.083
447.0285, 1248.671
447.5107, 1246.066
447.9928, 1243.973
448.4749, 1241.449
448.9570, 1237.047
449.4391, 1230.883
449.9212, 1225.044
450.4034, 1220.994
450.8855, 1218.077
451.3676, 1213.792
451.8497, 1207.474
452.3318, 1201.074
452.8139, 1195.243
453.2961, 1189.520
453.7782, 1183.435
454.2603, 1176.843
454.7424, 1169.682
455.2245, 1161.643
455.7066, 1152.303
456.1888, 1144.660
456.6709, 1139.975
457.1530, 1135.359
457.6351, 1129.795
458.1172, 1123.395
458.5993, 1116.224
459.0815, 1108.240
459.5636, 1100.219
460.0457, 1094.389
460.5278, 1092.812
461.0099, 1089.191
461.4920, 1082.031
461.9742, 1073.766
462.4563, 1065.276
462.9384, 1057.032
463.4205, 1049.916
463.9026, 1045.425
464.3847, 1042.870
464.8669, 1037.384
465.3490, 1027.027
465.8311, 1017.438
466.3132, 1011.067
466.7953, 1006.506
467.2774, 1002.476
467.7596, 998.8358
468.2417, 994.7748
468.7238, 989.0148
469.2059, 981.8444
469.6880, 975.9473
470.1701, 972.3739
470.6523, 969.1718
471.1344, 964.2462
471.6165, 958.0184
472.0986, 952.2982
472.5807, 947.5251
473.0628, 943.4357
473.5450, 940.1708
474.0271, 937.5355
474.5092, 934.2679
474.9913, 929.5034
475.4734, 924.1898
475.9555, 920.7906
476.4377, 920.3226
476.9198, 918.9191
477.4019, 914.9716
477.8840, 910.4830
478.3661, 907.4139
478.8482, 905.8766
479.3304, 904.8212
479.8125, 903.3994
480.2946, 901.6340
480.7767, 899.8005
481.2588, 898.0535
481.7409, 896.0469
482.2231, 893.4720
482.7052, 890.7155
483.1873, 888.1219
483.6694, 885.8052
484.1515, 883.8229
484.6336, 882.3752
485.1158, 881.6124
485.5979, 880.4344
486.0800, 878.4142
486.5621, 876.4239
487.0442, 874.7832
487.5263, 873.4128
488.0085, 872.1714
488.4906, 871.0274
488.9727, 869.9269
489.4548, 868.7468
489.9369, 867.4800
490.4190, 866.4098
490.9012, 865.8793
491.3833, 865.2961
491.8654, 864.0082
492.3475, 862.0764
492.8296, 860.1721
493.3117, 858.6171
493.7939, 857.2325
494.2760, 855.5343
494.7581, 853.5515
495.2402, 852.4462
495.7223, 853.2159
496.2044, 855.0670
496.6866, 855.4905
497.1687, 853.6354
497.6508, 852.3248
498.1329, 852.8565
498.6150, 853.9022
499.0971, 854.0149
499.5793, 852.9882
500.0614, 851.3922
500.5435, 849.6566
501.0256, 847.7786
501.5077, 846.5228
501.9898, 846.2423
502.4720, 846.1699
502.9541, 845.9951
503.4362, 846.0333
503.9183, 846.9485
504.4004, 848.8369
504.8825, 850.6633
505.3647, 850.8864
505.8468, 849.2347
506.3289, 848.1158
506.8110, 848.0238
507.2931, 847.9059
507.7752, 847.1082
508.2574, 846.0204
508.7395, 845.3843
509.2216, 845.5969
509.7037, 846.0928
510.1858, 846.1509
510.6679, 845.7969
511.1501, 845.4354
511.6322, 845.0113
512.1143, 844.8464
512.5964, 845.4461
513.0785, 846.6952
513.5606, 847.8154
514.0427, 848.6402
514.5248, 849.2184
515.0070, 849.3701
515.4891, 849.2441
515.9712, 849.6238
516.4533, 851.0564
516.9354, 852.7221
517.4175, 852.7455
517.8997, 849.8908
518.3818, 847.8682
518.8639, 847.0711
519.3460, 846.8756
519.8281, 846.9482
520.3102, 847.2126
520.7924, 847.7188
521.2745, 848.5588
521.7566, 849.5417
522.2387, 849.7730
522.7208, 848.5985
523.2029, 847.8780
523.6851, 848.5095
524.1672, 849.1508
524.6493, 848.6020
525.1314, 846.9110
525.6135, 845.2528
526.0956, 844.4012
526.5778, 844.3168
527.0599, 844.9980
527.5420, 846.6826
528.0241, 848.3116
528.5062, 849.5480
528.9883, 850.3705
529.4705, 850.7164
529.9526, 850.5139
530.4347, 850.1440
530.9168, 849.8377
531.3989, 849.4833
531.8810, 848.6768
532.3632, 847.3722
532.8453, 846.5430
533.3274, 847.1211
533.8095, 848.8500
534.2916, 849.6781
534.7737, 849.0797
535.2559, 848.4091
535.7380, 847.5829
536.2201, 847.0330
536.7022, 847.4714
537.1843, 848.9035
537.6664, 850.4418
538.1486, 851.1027
538.6307, 850.8770
539.1128, 850.9534
539.5949, 851.5279
540.0770, 852.1735
540.5591, 852.9500
541.0413, 853.6630
541.5234, 853.9896
542.0055, 853.8616
542.4876, 853.7986
542.9697, 854.6663
543.4518, 856.2317
543.9340, 856.5226
544.4161, 854.7273
544.8982, 853.2800
545.3803, 854.1578
545.8624, 856.4396
546.3445, 858.4884
546.8267, 860.1402
547.3088, 861.4050
547.7909, 862.1251
548.2730, 862.4965
548.7551, 862.7719
549.2372, 863.0026
549.7194, 863.6221
550.2015, 865.1588
550.6836, 867.6411
551.1657, 869.7450
551.6478, 871.3710
552.1299, 872.7962
552.6121, 874.2015
553.0942, 875.4137
553.5763, 876.3707
554.0584, 876.9918
554.5405, 876.8618
555.0226, 874.9037
555.5048, 870.8123
555.9869, 869.9061
556.4690, 874.9241
556.9511, 879.3544
557.4332, 880.4189
557.9153, 879.8272
558.3975, 879.5447
558.8796, 880.0381
559.3617, 881.3940
559.8438, 884.4305
560.3259, 888.4957
560.8080, 890.9293
561.2902, 891.1129
561.7723, 890.8387
562.2544, 891.6592
562.7365, 893.1500
563.2186, 893.3472
563.7007, 890.4092
564.1829, 888.5182
564.6650, 889.9980
565.1471, 893.1732
565.6292, 895.9701
566.1113, 897.8763
566.5934, 899.1533
567.0756, 899.9745
567.5577, 900.3411
568.0398, 901.0162
568.5219, 901.8573
569.0040, 903.2197
569.4861, 905.4338
569.9683, 908.0403
570.4504, 910.6940
570.9325, 913.2889
571.4146, 915.6218
571.8967, 917.5501
572.3788, 919.0681
572.8610, 920.0053
573.3431, 919.9951
573.8252, 920.4865
574.3073, 922.7185
574.7894, 925.6586
575.2715, 927.7283
575.7537, 928.5383
576.2358, 929.6445
576.7179, 932.1417
577.2000, 935.2072
577.6821, 937.5229
578.1642, 939.0344
578.6464, 940.7979
579.1285, 943.5684
579.6106, 947.1375
580.0927, 950.5936
580.5748, 954.1513
581.0569, 957.2970
581.5391, 959.9261
582.0212, 962.2336
582.5033, 964.3495
582.9854, 966.2932
583.4675, 967.8749
583.9496, 968.7265
584.4318, 969.4383
584.9139, 972.2106
585.3960, 977.7501
585.8781, 982.9736
586.3602, 987.4274
586.8423, 990.9736
587.3245, 992.8524
587.8066, 993.3432
588.2887, 994.7274
588.7708, 999.1525
589.2529, 1004.211
589.7350, 1006.439
590.2172, 1006.408
590.6993, 1007.846
591.1814, 1012.517
591.6635, 1018.412
592.1456, 1022.159
592.6277, 1022.763
593.1099, 1024.451
593.5920, 1028.031
594.0741, 1031.866
594.5562, 1035.364
595.0383, 1038.466
595.5204, 1041.283
596.0026, 1043.853
596.4847, 1046.012
596.9668, 1047.087
597.4489, 1046.656
597.9310, 1048.269
598.4131, 1053.309
598.8953, 1058.768
599.3774, 1063.503
599.8595, 1067.547
600.3416, 1070.860
600.8237, 1073.200
601.3058, 1075.476
601.7880, 1078.730
602.2701, 1082.420
602.7522, 1085.118
603.2343, 1086.538
603.7164, 1087.655
604.1985, 1089.219
604.6807, 1091.159
605.1628, 1092.931
605.6449, 1095.190
606.1270, 1096.454
606.6091, 1095.774
607.0912, 1094.459
607.5734, 1093.660
608.0555, 1093.518
608.5376, 1093.611
609.0197, 1093.638
609.5018, 1093.603
609.9839, 1093.632
610.4661, 1094.064
610.9482, 1093.590
611.4303, 1091.469
611.9124, 1088.613
612.3945, 1085.475
612.8766, 1082.153
613.3588, 1079.065
613.8409, 1076.602
614.3230, 1074.305
614.8051, 1071.599
615.2872, 1068.582
615.7693, 1066.004
616.2515, 1064.315
616.7336, 1062.313
617.2157, 1058.138
617.6978, 1051.028
618.1799, 1045.094
618.6620, 1041.235
619.1442, 1037.428
619.6263, 1032.771
620.1084, 1027.743
620.5905, 1023.141
621.0726, 1019.184
621.5547, 1015.483
622.0369, 1011.601
622.5190, 1007.552
623.0011, 1003.454
623.4832, 999.2836
623.9653, 995.1473
624.4474, 991.1668
624.9296, 987.2499
625.4117, 983.3698
625.8938, 979.6404
626.3759, 975.3967
