##NAMES=Zunyite
##RRUFFID=R050553
##IDEAL CHEMISTRY=Al_13_Si_5_O_20_(OH,F)_18_Cl
##LOCALITY=near Quartzsite, Yuma/La Paz Counties, Arizona, USA
##OWNER=RRUFF
##SOURCE=Dave Bunk Minerals
##DESCRIPTION=Light gray crystals showing combined octahedral and tetrahedral forms
##STATUS=The identification of this mineral has been confirmed by X-ray diffraction and chemical analysis
##URL=rruff.info/R050553
##MEASURED CHEMISTRY=(Al_12.99_Fe^3+^_0.01_)_Σ=13_Si_5.00_O_20_((OH)_14.89_F_3.11_)_Σ=18_Cl_1.00_
92.06543, 170.7055
92.54755, 168.6368
93.02966, 168.9557
93.51178, 171.7361
93.99390, 173.7257
94.47601, 174.9350
94.95813, 175.4898
95.44025, 175.4600
95.92236, 174.8570
96.40448, 173.5818
96.88660, 172.3879
97.36871, 171.1487
97.85082, 170.1856
98.33294, 169.8554
98.81506, 170.0971
99.29717, 170.1132
99.77929, 169.8824
100.2614, 169.5037
100.7435, 168.7273
101.2256, 166.9218
101.7078, 164.6390
102.1899, 163.2663
102.6720, 163.4051
103.1541, 164.0823
103.6362, 164.3155
104.1183, 164.1083
104.6005, 163.8120
105.0826, 163.7266
105.5647, 163.8774
106.0468, 163.9753
106.5289, 163.8851
107.0110, 163.7106
107.4931, 163.5032
107.9753, 163.2752
108.4574, 163.0159
108.9395, 162.7020
109.4216, 162.2785
109.9037, 161.8667
110.3858, 161.6046
110.8680, 161.3132
111.3501, 160.7469
111.8322, 159.7527
112.3143, 158.4435
112.7964, 157.5413
113.2785, 157.3421
113.7607, 157.1876
114.2428, 156.8373
114.7249, 156.3819
115.2070, 156.1107
115.6891, 156.3043
116.1712, 156.9344
116.6534, 157.1611
117.1355, 156.8266
117.6176, 156.2290
118.0997, 155.4694
118.5818, 154.5364
119.0639, 153.7454
119.5461, 153.4935
120.0282, 153.6429
120.5103, 153.8493
120.9924, 154.0943
121.4745, 154.3233
121.9566, 154.4090
122.4388, 154.3214
122.9209, 154.0941
123.4030, 153.7170
123.8851, 153.2294
124.3672, 152.7637
124.8493, 152.3920
125.3315, 152.1074
125.8136, 151.9897
126.2957, 152.2242
126.7778, 152.5033
127.2599, 152.7484
127.7420, 152.9281
128.2242, 153.0165
128.7063, 152.9461
129.1884, 152.5503
129.6705, 152.3455
130.1526, 152.6043
130.6347, 152.8630
131.1169, 152.6741
131.5990, 151.9146
132.0811, 150.9138
132.5632, 150.3991
133.0453, 150.6007
133.5274, 151.0536
134.0096, 151.9595
134.4917, 153.0658
134.9738, 153.9914
135.4559, 154.5427
135.9380, 154.8460
136.4201, 155.3192
136.9023, 155.9351
137.3844, 156.7053
137.8665, 157.6482
138.3486, 158.7535
138.8307, 159.9665
139.3128, 161.1740
139.7950, 162.5320
140.2771, 164.3716
140.7592, 167.3850
141.2413, 170.2075
141.7234, 171.5031
142.2055, 171.1761
142.6877, 169.7594
143.1698, 166.9167
143.6519, 163.3246
144.1340, 159.5901
144.6161, 155.7135
145.0982, 151.9717
145.5803, 149.0674
146.0625, 147.1410
146.5446, 145.9749
147.0267, 145.8632
147.5088, 146.2712
147.9909, 146.3653
148.4730, 145.5076
148.9552, 143.7623
149.4373, 142.4808
149.9194, 141.9606
150.4015, 141.6712
150.8836, 141.6390
151.3657, 141.7551
151.8479, 141.8178
152.3300, 141.6240
152.8121, 141.0911
153.2942, 140.8183
153.7763, 141.0373
154.2584, 141.2555
154.7406, 141.1559
155.2227, 140.7559
155.7048, 140.3396
156.1869, 140.2070
156.6690, 140.4249
157.1511, 140.8214
157.6333, 141.4865
158.1154, 142.2736
158.5975, 143.0330
159.0796, 143.7305
159.5617, 144.4711
160.0438, 145.3640
160.5260, 146.3813
161.0081, 147.6799
161.4902, 149.3517
161.9723, 151.3203
162.4544, 153.4796
162.9365, 155.8364
163.4187, 158.2999
163.9008, 160.8393
164.3829, 163.4454
164.8650, 165.8438
165.3471, 168.1639
165.8292, 170.2851
166.3113, 171.3673
166.7935, 171.2057
167.2756, 169.7840
167.7577, 166.9464
168.2398, 162.7362
168.7219, 158.0738
169.2040, 153.7837
169.6862, 149.9126
170.1683, 146.1394
170.6504, 141.8621
171.1325, 138.0703
171.6146, 135.3749
172.0967, 133.8894
172.5789, 133.2244
173.0610, 132.9023
173.5431, 133.0892
174.0252, 133.2571
174.5073, 133.1359
174.9894, 133.1187
175.4716, 133.5988
175.9537, 134.6694
176.4358, 136.0038
176.9179, 136.9291
177.4000, 137.0409
177.8821, 137.2688
178.3643, 137.6600
178.8464, 138.1632
179.3285, 138.7275
179.8106, 139.3338
180.2927, 139.9886
180.7748, 140.7073
181.2570, 141.6079
181.7391, 142.4286
182.2212, 143.0494
182.7033, 143.5879
183.1854, 144.2404
183.6675, 145.1179
184.1497, 146.1189
184.6318, 146.9033
185.1139, 147.3331
185.5960, 147.8104
186.0781, 148.4928
186.5602, 149.3321
187.0423, 150.1833
187.5245, 150.9467
188.0066, 151.7079
188.4887, 152.6450
188.9708, 153.7486
189.4529, 155.0080
189.9350, 156.5089
190.4172, 158.2181
190.8993, 159.8498
191.3814, 161.2629
191.8635, 162.5159
192.3456, 163.6444
192.8277, 164.4866
193.3099, 165.5277
193.7920, 167.3307
194.2741, 169.9798
194.7562, 172.7966
195.2383, 175.3614
195.7204, 178.0439
196.2026, 181.0630
196.6847, 184.3950
197.1668, 188.3854
197.6489, 193.6479
198.1310, 200.4391
198.6131, 207.8395
199.0953, 216.6701
199.5774, 225.4671
200.0595, 233.1443
200.5416, 239.4336
201.0237, 243.8410
201.5058, 245.0852
201.9880, 242.0041
202.4701, 237.4987
202.9522, 231.5666
203.4343, 224.9970
203.9164, 218.3405
204.3985, 211.8232
204.8807, 205.7715
205.3628, 201.2500
205.8449, 199.4138
206.3270, 197.8044
206.8091, 196.2431
207.2912, 194.7255
207.7733, 193.1800
208.2555, 191.5671
208.7376, 190.0375
209.2197, 189.1627
209.7018, 189.3495
210.1839, 189.7906
210.6660, 190.5103
211.1482, 191.4194
211.6303, 192.4810
212.1124, 193.7049
212.5945, 194.9621
213.0766, 195.7218
213.5587, 195.8120
214.0409, 195.6682
214.5230, 195.3920
215.0051, 194.9372
215.4872, 194.1786
215.9693, 193.0190
216.4514, 191.5629
216.9336, 190.2103
217.4157, 188.8300
217.8978, 187.6720
218.3799, 186.8356
218.8620, 186.2834
219.3441, 185.9312
219.8263, 185.7753
220.3084, 185.7691
220.7905, 185.7801
221.2726, 185.8446
221.7547, 185.8659
222.2368, 185.6217
222.7190, 185.2350
223.2011, 185.2619
223.6832, 186.1390
224.1653, 187.4095
224.6474, 188.1637
225.1295, 188.2447
225.6117, 188.2015
226.0938, 188.4517
226.5759, 188.9459
227.0580, 189.2205
227.5401, 188.8285
228.0222, 188.3565
228.5043, 188.5760
228.9865, 189.6543
229.4686, 190.8958
229.9507, 191.7355
230.4328, 192.1750
230.9149, 192.5247
231.3970, 192.7109
231.8792, 192.9676
232.3613, 193.5815
232.8434, 194.6131
233.3255, 195.6201
233.8076, 196.1352
234.2897, 196.1202
234.7719, 196.0700
235.2540, 196.1422
235.7361, 196.1756
236.2182, 196.1407
236.7003, 196.0193
237.1824, 195.6496
237.6646, 194.7265
238.1467, 193.0998
238.6288, 191.7369
239.1109, 190.8160
239.5930, 190.1706
240.0751, 189.8792
240.5573, 189.8870
241.0394, 189.8611
241.5215, 189.3453
242.0036, 188.1616
242.4857, 187.2009
242.9678, 186.6952
243.4500, 186.2717
243.9321, 185.7862
244.4142, 185.2073
244.8963, 184.5487
245.3784, 183.7805
245.8605, 182.8108
246.3427, 182.0862
246.8248, 181.6287
247.3069, 181.3785
247.7890, 181.5616
248.2711, 182.0326
248.7532, 182.2606
249.2354, 181.5910
249.7175, 179.6981
250.1996, 178.3179
250.6817, 177.8577
251.1638, 177.4843
251.6459, 176.7769
252.1281, 175.7623
252.6102, 174.7473
253.0923, 174.0291
253.5744, 173.6605
254.0565, 173.2890
254.5386, 173.0488
255.0208, 172.6852
255.5029, 172.0880
255.9850, 171.2582
256.4671, 170.1926
256.9492, 168.7980
257.4313, 166.9779
257.9135, 166.0701
258.3956, 166.7804
258.8777, 167.5022
259.3598, 167.5082
259.8419, 166.9163
260.3240, 166.2676
260.8062, 165.9844
261.2883, 166.0630
261.7704, 165.8709
262.2525, 164.9744
262.7346, 164.3030
263.2167, 164.3160
263.6989, 164.8746
264.1810, 165.5480
264.6631, 166.0451
265.1452, 166.4219
265.6273, 167.1887
266.1094, 168.8299
266.5916, 170.2600
267.0737, 170.9173
267.5558, 171.0509
268.0379, 171.2704
268.5200, 171.9178
269.0021, 172.8862
269.4843, 173.7379
269.9664, 174.6379
270.4485, 175.2624
270.9306, 175.6694
271.4127, 175.7241
271.8948, 175.0320
272.3770, 173.2926
272.8591, 170.9353
273.3412, 169.0589
273.8233, 167.8724
274.3054, 166.6135
274.7875, 164.8547
275.2697, 162.8890
275.7518, 161.3084
276.2339, 160.3618
276.7160, 159.7683
277.1981, 159.0556
277.6802, 158.2418
278.1623, 157.3168
278.6444, 156.2323
279.1266, 155.0405
279.6087, 153.7681
280.0908, 152.3709
280.5729, 151.0885
281.0550, 150.2896
281.5371, 149.9368
282.0193, 149.8069
282.5014, 150.0003
282.9835, 150.3328
283.4656, 150.5846
283.9477, 150.7386
284.4298, 150.7017
284.9120, 150.2498
285.3941, 149.4458
285.8762, 148.7585
286.3583, 148.1665
286.8404, 147.7946
287.3225, 147.9462
287.8047, 148.7104
288.2868, 149.4046
288.7689, 149.3211
289.2510, 148.6885
289.7331, 148.3298
290.2152, 148.4809
290.6974, 148.9020
291.1795, 149.4442
291.6616, 150.1120
292.1437, 150.6450
292.6258, 150.7688
293.1079, 150.6657
293.5901, 150.7805
294.0722, 151.2831
294.5543, 151.8745
295.0364, 152.2676
295.5185, 152.4791
296.0006, 152.7906
296.4828, 153.4051
296.9649, 154.1577
297.4470, 154.7528
297.9291, 155.1474
298.4112, 155.4623
298.8933, 155.7129
299.3755, 155.9247
299.8576, 156.2451
300.3397, 156.6608
300.8218, 157.2975
301.3039, 158.3402
301.7860, 159.8409
302.2682, 161.3205
302.7503, 162.5549
303.2324, 163.5671
303.7145, 164.4023
304.1966, 164.9406
304.6787, 165.5363
305.1609, 166.5341
305.6430, 167.9024
306.1251, 169.5072
306.6072, 171.6135
307.0893, 173.8775
307.5714, 175.4528
308.0536, 176.0555
308.5357, 176.4996
309.0178, 177.5462
309.4999, 178.9940
309.9820, 180.3214
310.4641, 181.2727
310.9463, 182.0385
311.4284, 182.8805
311.9105, 183.8084
312.3926, 184.7737
312.8747, 185.8966
313.3568, 187.0020
313.8390, 187.7350
314.3211, 187.8586
314.8032, 187.7601
315.2853, 187.9080
315.7674, 188.3106
316.2495, 188.4670
316.7317, 188.0149
317.2138, 187.2386
317.6959, 186.5819
318.1780, 186.0896
318.6601, 185.6787
319.1422, 185.3425
319.6243, 185.0589
320.1064, 184.6648
320.5886, 184.0112
321.0707, 183.3391
321.5528, 182.9762
322.0349, 182.9430
322.5170, 182.8792
322.9991, 182.4736
323.4813, 181.8837
323.9634, 181.6163
324.4455, 181.9021
324.9276, 182.2252
325.4097, 181.9611
325.8918, 181.2341
326.3740, 180.6549
326.8561, 180.4454
327.3382, 180.5107
327.8203, 180.7800
328.3024, 181.3065
328.7845, 181.7470
329.2667, 181.7475
329.7488, 181.4611
330.2309, 181.2601
330.7130, 181.2748
331.1951, 181.3595
331.6772, 181.4132
332.1594, 181.4341
332.6415, 181.3226
333.1236, 180.9560
333.6057, 180.4449
334.0878, 180.0246
334.5699, 179.6865
335.0521, 179.4699
335.5342, 179.4959
336.0163, 179.6953
336.4984, 179.7756
336.9805, 179.6433
337.4626, 179.3309
337.9448, 178.9137
338.4269, 178.4106
338.9090, 177.7405
339.3911, 176.5543
339.8732, 175.2336
340.3553, 174.5946
340.8375, 174.8876
341.3196, 175.5043
341.8017, 175.7571
342.2838, 175.6890
342.7659, 175.8054
343.2480, 176.3170
343.7302, 176.9942
344.2123, 177.6556
344.6944, 178.2805
345.1765, 178.7258
345.6586, 178.7083
346.1407, 178.3978
346.6229, 178.7363
347.1050, 180.2869
347.5871, 181.9861
348.0692, 183.1481
348.5513, 183.8922
349.0334, 184.6584
349.5156, 185.5379
349.9977, 186.7124
350.4798, 188.7437
350.9619, 192.0445
351.4440, 195.1860
351.9261, 197.2358
352.4083, 198.9181
352.8904, 201.5012
353.3725, 205.3952
353.8546, 210.0057
354.3367, 214.6026
354.8188, 219.2232
355.3010, 223.6303
355.7831, 227.9250
356.2652, 231.9139
356.7473, 235.4609
357.2294, 238.5423
357.7115, 241.2305
358.1937, 243.7364
358.6758, 246.0340
359.1579, 246.8086
359.6400, 245.2948
360.1221, 243.1792
360.6042, 241.1807
361.0863, 239.2432
361.5685, 237.0520
362.0506, 234.3718
362.5327, 231.3861
363.0148, 228.8600
363.4969, 226.7900
363.9790, 225.1490
364.4612, 224.1207
364.9433, 223.4483
365.4254, 222.8492
365.9075, 222.2281
366.3896, 221.6560
366.8717, 221.2345
367.3539, 220.9258
367.8360, 220.9094
368.3181, 221.1996
368.8002, 221.7441
369.2823, 222.7131
369.7644, 223.9797
370.2466, 225.0484
370.7287, 225.4010
371.2108, 224.9645
371.6929, 225.0918
372.1750, 226.3757
372.6571, 227.5454
373.1393, 228.1158
373.6214, 228.3315
374.1035, 228.6429
374.5856, 229.2932
375.0677, 230.2175
375.5498, 231.2219
376.0320, 232.3950
376.5141, 233.5198
376.9962, 234.6833
377.4783, 235.7355
377.9604, 236.4473
378.4425, 236.8047
378.9247, 237.1059
379.4068, 237.8227
379.8889, 239.1688
380.3710, 240.1782
380.8531, 240.5844
381.3352, 240.8940
381.8174, 241.2407
382.2995, 241.6712
382.7816, 242.2474
383.2637, 243.0703
383.7458, 244.0786
384.2279, 244.8535
384.7101, 245.4585
385.1922, 245.6885
385.6743, 245.2577
386.1564, 244.5631
386.6385, 244.0734
387.1206, 243.9799
387.6028, 244.1238
388.0849, 244.3248
388.5670, 244.6402
389.0491, 244.7353
389.5312, 244.5113
390.0133, 244.0355
390.4955, 243.2254
390.9776, 242.1133
391.4597, 241.0445
391.9418, 240.2839
392.4239, 239.7974
392.9060, 239.4482
393.3882, 239.3683
393.8703, 239.1684
394.3524, 238.6540
394.8345, 237.8486
395.3166, 236.7580
395.7987, 235.3137
396.2809, 233.6445
396.7630, 231.8204
397.2451, 229.7988
397.7272, 228.0781
398.2093, 227.0042
398.6914, 226.2980
399.1736, 225.5177
399.6557, 224.6557
400.1378, 223.6728
400.6199, 222.3684
401.1020, 220.9192
401.5841, 219.8277
402.0662, 219.2501
402.5483, 218.9307
403.0305, 218.5982
403.5126, 218.2537
403.9947, 218.0290
404.4768, 218.0958
404.9589, 218.1933
405.4410, 218.0273
405.9232, 217.6115
406.4053, 217.2017
406.8874, 216.9151
407.3695, 216.7899
407.8516, 216.9875
408.3337, 217.6751
408.8159, 218.4394
409.2980, 219.1206
409.7801, 219.8062
410.2622, 220.6439
410.7443, 221.6939
411.2264, 222.8768
411.7086, 224.0611
412.1907, 225.1652
412.6728, 226.5028
413.1549, 228.2846
413.6370, 230.1255
414.1191, 231.6315
414.6013, 232.9011
415.0834, 234.4725
415.5655, 236.8530
416.0476, 239.9655
416.5297, 242.3053
417.0118, 242.6863
417.4940, 243.6272
417.9761, 245.7487
418.4582, 248.5952
418.9403, 251.7108
419.4224, 254.9132
419.9045, 257.9523
420.3867, 260.2969
420.8688, 261.4415
421.3509, 263.2214
421.8330, 266.0094
422.3151, 269.1472
422.7972, 272.4408
423.2794, 275.7864
423.7615, 279.0463
424.2436, 282.1108
424.7257, 284.9912
425.2078, 287.7859
425.6899, 290.4203
426.1721, 293.0939
426.6542, 295.8547
427.1363, 298.7088
427.6184, 301.7128
428.1005, 304.9138
428.5826, 308.1221
429.0648, 311.0288
429.5469, 313.6447
430.0290, 316.3935
430.5111, 319.4411
430.9932, 322.5519
431.4753, 325.3786
431.9575, 327.9885
432.4396, 330.9373
432.9217, 334.9889
433.4038, 339.3625
433.8859, 342.6107
434.3680, 344.5564
434.8502, 346.3269
435.3323, 348.6631
435.8144, 351.3235
436.2965, 353.6180
436.7786, 355.3142
437.2607, 356.9593
437.7429, 358.9426
438.2250, 361.0808
438.7071, 362.9897
439.1892, 364.5663
439.6713, 365.7890
440.1534, 366.5365
440.6356, 366.6671
441.1177, 366.9596
441.5998, 367.4547
442.0819, 368.1216
442.5640, 369.2502
443.0461, 370.6144
443.5282, 371.4181
444.0103, 371.0894
444.4925, 369.7952
444.9746, 368.4518
445.4567, 366.8369
445.9388, 365.4586
446.4209, 364.8096
446.9030, 364.2045
447.3852, 362.8629
447.8673, 360.6270
448.3494, 358.0255
448.8315, 355.8178
449.3136, 354.2515
449.7957, 351.8220
450.2779, 347.8875
450.7600, 343.6744
451.2421, 339.5023
451.7242, 335.3594
452.2063, 331.1661
452.6884, 326.9302
453.1706, 322.5612
453.6527, 317.8380
454.1348, 312.6314
454.6169, 307.5507
455.0990, 302.5872
455.5811, 297.9216
456.0633, 293.8831
456.5454, 290.4525
457.0275, 286.9197
457.5096, 282.3728
457.9917, 277.2616
458.4738, 273.2775
458.9560, 270.8528
459.4381, 268.6032
459.9202, 265.5401
460.4023, 262.0145
460.8844, 258.6515
461.3665, 255.6770
461.8487, 252.7316
462.3308, 249.4090
462.8129, 245.8641
463.2950, 242.7710
463.7771, 240.4834
464.2592, 238.2951
464.7414, 235.1335
465.2235, 230.9069
465.7056, 226.4319
466.1877, 221.4468
466.6698, 216.4657
467.1519, 211.9158
467.6341, 207.7637
468.1162, 203.8220
468.5983, 200.0118
469.0804, 196.2547
469.5625, 192.3336
470.0446, 187.6328
470.5268, 183.5623
471.0089, 180.5181
471.4910, 177.9957
471.9731, 175.6340
472.4552, 173.3152
472.9373, 171.0078
473.4195, 168.6850
473.9016, 166.3543
474.3837, 163.9514
474.8658, 161.3314
475.3479, 158.8093
475.8300, 156.3198
476.3122, 154.0340
476.7943, 152.2203
477.2764, 151.0347
477.7585, 150.1040
478.2406, 148.8220
478.7227, 147.1462
479.2049, 145.5442
479.6870, 144.0825
480.1691, 142.7426
480.6512, 141.4946
481.1333, 140.3484
481.6154, 139.3367
482.0976, 138.5393
482.5797, 137.8597
483.0618, 137.1927
483.5439, 136.5415
484.0260, 135.7564
484.5081, 134.7519
484.9902, 133.5630
485.4724, 132.2736
485.9545, 130.8674
486.4366, 129.4239
486.9187, 127.8336
487.4008, 126.2724
487.8829, 124.9835
488.3651, 123.9980
488.8472, 123.2228
489.3293, 122.6336
489.8114, 122.2236
490.2935, 121.5338
490.7756, 120.1426
491.2578, 119.0165
491.7399, 118.5830
492.2220, 118.5180
492.7041, 118.4660
493.1862, 118.2862
493.6683, 117.8977
494.1505, 117.0917
494.6326, 115.6390
495.1147, 114.6881
495.5968, 114.7227
496.0789, 114.8042
496.5610, 114.7577
497.0432, 114.4862
497.5253, 113.7802
498.0074, 112.4275
498.4895, 110.9056
498.9716, 110.1658
499.4537, 110.3237
499.9359, 110.5412
500.4180, 110.7520
500.9001, 110.8338
501.3822, 110.6216
501.8643, 110.1489
502.3464, 109.7441
502.8286, 109.5807
503.3107, 109.5669
503.7928, 109.5939
504.2749, 109.6575
504.7570, 109.6910
505.2391, 109.6969
505.7213, 109.6200
506.2034, 109.2797
506.6855, 108.4684
507.1676, 107.9043
507.6497, 107.9523
508.1318, 108.2510
508.6140, 108.4166
509.0961, 108.3907
509.5782, 108.2889
510.0603, 108.2024
510.5424, 108.1317
511.0245, 108.0947
511.5067, 108.2679
511.9888, 108.2594
512.4709, 107.8656
512.9530, 107.3264
513.4351, 106.8771
513.9172, 106.5876
514.3994, 106.4154
514.8815, 106.3426
515.3636, 106.3829
515.8457, 106.3283
516.3278, 106.0564
516.8099, 105.8558
517.2921, 105.9658
517.7742, 106.1822
518.2563, 106.1713
518.7384, 105.7847
519.2205, 105.2737
519.7026, 104.8569
520.1848, 104.5400
520.6669, 104.3829
521.1490, 104.4299
521.6311, 104.5746
522.1132, 104.7922
522.5953, 105.0503
523.0775, 105.1150
523.5596, 104.8041
524.0417, 104.4145
524.5238, 104.0919
525.0059, 103.8584
525.4880, 103.7961
525.9702, 103.9581
526.4523, 104.1747
526.9344, 104.1346
527.4165, 103.6438
527.8986, 103.4143
528.3807, 103.7149
528.8629, 104.0057
529.3450, 103.9175
529.8271, 103.5806
530.3092, 103.3462
530.7913, 103.4163
531.2734, 103.6824
531.7556, 103.8801
532.2377, 103.9771
532.7198, 104.0962
533.2019, 104.3837
533.6840, 104.5890
534.1661, 104.4950
534.6483, 104.1664
535.1304, 103.8911
535.6125, 103.7579
536.0946, 103.8242
536.5767, 104.3589
537.0588, 105.3998
537.5410, 106.0780
538.0231, 105.8884
538.5052, 105.3126
538.9873, 105.1031
539.4694, 105.2854
539.9515, 105.5339
540.4337, 105.7553
540.9158, 106.0036
541.3979, 106.3822
541.8800, 106.8599
542.3621, 107.2323
542.8442, 107.3356
543.3264, 107.3137
543.8085, 107.6663
544.2906, 109.0492
544.7726, 109.8815
545.2548, 109.6207
545.7369, 109.2117
546.2190, 109.3957
546.7011, 110.1279
547.1832, 110.8798
547.6653, 111.2117
548.1475, 111.2811
548.6296, 111.7575
549.1117, 112.8352
549.5938, 113.8030
550.0759, 114.4212
550.5580, 114.8698
551.0402, 115.2849
551.5223, 115.6724
552.0044, 115.9327
552.4865, 115.7727
552.9686, 115.5354
553.4507, 115.9184
553.9329, 116.9524
554.4150, 118.0228
554.8971, 118.8147
555.3792, 119.4265
555.8613, 120.1025
556.3434, 120.8840
556.8256, 121.6146
557.3077, 122.1585
557.7898, 122.7161
558.2719, 123.5169
558.7540, 124.5285
559.2361, 125.5139
559.7183, 126.3162
560.2004, 126.9573
560.6825, 127.5377
561.1646, 127.9227
561.6467, 128.4783
562.1288, 129.2316
562.6110, 130.1491
563.0931, 131.3344
563.5752, 132.7025
564.0573, 133.9272
564.5394, 134.6903
565.0215, 135.1977
565.5037, 135.9967
565.9858, 137.1311
566.4679, 138.2895
566.9500, 139.3185
567.4321, 140.3547
567.9142, 141.6185
568.3964, 143.1325
568.8785, 144.5403
569.3606, 145.7066
569.8427, 146.7200
570.3248, 147.5545
570.8069, 148.2840
571.2891, 149.2622
571.7712, 150.6968
572.2533, 152.4199
572.7354, 153.9991
573.2175, 155.3625
573.6996, 156.7068
574.1818, 157.9514
574.6639, 159.2540
575.1460, 160.7608
575.6281, 162.4121
576.1102, 164.0461
576.5923, 165.5862
577.0745, 166.9979
577.5566, 168.1184
578.0387, 168.8420
578.5208, 169.8349
579.0029, 171.1547
579.4850, 172.8703
579.9672, 175.2259
580.4493, 178.0439
580.9314, 180.5725
581.4135, 182.4856
581.8956, 184.0356
582.3777, 185.2306
582.8599, 186.2283
583.3420, 187.7403
583.8241, 190.0810
584.3062, 192.6801
584.7883, 194.7290
585.2704, 196.0420
585.7526, 197.7743
586.2347, 200.2757
