##NAMES=Zunyite
##RRUFFID=R050553
##IDEAL CHEMISTRY=Al_13_Si_5_O_20_(OH,F)_18_Cl
##LOCALITY=near Quartzsite, Yuma/La Paz Counties, Arizona, USA
##OWNER=RRUFF
##SOURCE=Dave Bunk Minerals
##DESCRIPTION=Light gray crystals showing combined octahedral and tetrahedral forms
##STATUS=The identification of this mineral has been confirmed by X-ray diffraction and chemical analysis
##URL=rruff.info/R050553
##MEASURED CHEMISTRY=(Al_12.99_Fe^3+^_0.01_)_Σ=13_Si_5.00_O_20_((OH)_14.89_F_3.11_)_Σ=18_Cl_1.00_
91.11523, 8.170574
91.59735, 8.315493
92.07947, 8.191580
92.56158, 7.880234
93.04370, 7.637642
93.52582, 7.636940
94.00793, 7.805004
94.49006, 8.022961
94.97218, 8.321521
95.45429, 8.569175
95.93641, 8.490849
96.41853, 8.094596
96.90064, 7.710210
97.38276, 7.619082
97.86488, 7.790519
98.34699, 7.869170
98.82911, 7.768986
99.31123, 7.554662
99.79334, 7.432338
100.2755, 7.407135
100.7576, 7.460089
101.2397, 7.629644
101.7218, 7.975523
102.2039, 8.143583
102.6861, 7.976661
103.1682, 7.479393
103.6503, 7.298327
104.1324, 7.586668
104.6145, 8.019873
105.0966, 8.189138
105.5788, 7.900139
106.0609, 7.683344
106.5430, 7.712775
107.0251, 8.107039
107.5072, 8.315516
107.9893, 8.166198
108.4715, 7.874662
108.9536, 7.827575
109.4357, 8.213744
109.9178, 8.676475
110.3999, 9.121426
110.8820, 9.600300
111.3642, 9.970534
111.8463, 9.894916
112.3284, 9.665906
112.8105, 10.08412
113.2926, 10.09532
113.7747, 11.57101
114.2569, 15.55258
114.7390, 26.64592
115.2211, 35.17778
115.7032, 37.45156
116.1853, 34.61089
116.6674, 32.47014
117.1496, 33.68100
117.6317, 36.06470
118.1138, 37.80440
118.5959, 37.15853
119.0780, 36.78048
119.5602, 38.70916
120.0423, 42.79153
120.5244, 45.61605
121.0065, 43.85405
121.4886, 39.99266
121.9707, 37.30302
122.4529, 37.65721
122.9350, 39.44488
123.4171, 41.54584
123.8992, 43.93335
124.3813, 46.35670
124.8634, 48.67164
125.3456, 50.87238
125.8277, 52.95449
126.3098, 54.70631
126.7919, 56.38042
127.2740, 58.37885
127.7561, 60.78126
128.2383, 63.31521
128.7204, 65.62357
129.2025, 67.75578
129.6846, 69.97150
130.1667, 72.29477
130.6488, 74.78497
131.1310, 77.81985
131.6131, 81.53365
132.0952, 85.64141
132.5773, 89.63326
133.0594, 93.52283
133.5416, 97.49902
134.0237, 101.7280
134.5058, 106.2240
134.9879, 110.8979
135.4700, 115.8719
135.9521, 120.9648
136.4343, 125.6921
136.9164, 129.9861
137.3985, 134.2533
137.8806, 138.5087
138.3627, 142.5697
138.8448, 148.5492
139.3270, 158.3258
139.8091, 171.0236
140.2912, 177.4988
140.7733, 176.1110
141.2554, 171.5015
141.7375, 168.1239
142.2197, 165.9633
142.7018, 165.0733
143.1839, 165.9937
143.6660, 168.9478
144.1481, 170.0872
144.6303, 168.2565
145.1124, 165.5761
145.5945, 164.7737
146.0766, 166.9428
146.5587, 169.3075
147.0408, 170.9976
147.5230, 171.5271
148.0051, 173.1990
148.4872, 175.8677
148.9693, 178.4177
149.4514, 180.5512
149.9335, 181.8987
150.4157, 183.2645
150.8978, 184.8843
151.3799, 187.0742
151.8620, 188.9235
152.3441, 190.2136
152.8262, 191.2111
153.3084, 192.3837
153.7905, 194.2440
154.2726, 195.8768
154.7547, 196.9650
155.2368, 197.2476
155.7189, 197.3624
156.2011, 197.0231
156.6832, 196.5329
157.1653, 196.6641
157.6474, 198.2646
158.1295, 200.0088
158.6117, 201.2064
159.0938, 201.3020
159.5759, 201.4629
160.0580, 201.6060
160.5401, 201.9383
161.0222, 203.1965
161.5044, 206.1306
161.9865, 209.7559
162.4686, 213.3765
162.9507, 216.1246
163.4328, 219.6172
163.9149, 224.7441
164.3971, 231.3097
164.8792, 238.1417
165.3613, 246.4576
165.8434, 254.0557
166.3255, 258.9684
166.8076, 261.4913
167.2898, 260.3767
167.7719, 253.8721
168.2540, 242.4245
168.7361, 229.7761
169.2182, 216.5916
169.7004, 203.8790
170.1825, 192.8456
170.6646, 183.8623
171.1467, 176.7485
171.6288, 171.5051
172.1109, 168.1346
172.5931, 165.7878
173.0752, 163.9475
173.5573, 162.7155
174.0394, 162.2613
174.5215, 163.1193
175.0036, 164.5503
175.4858, 165.8424
175.9679, 167.0006
176.4500, 167.9261
176.9321, 168.6081
177.4142, 169.0128
177.8963, 169.0547
178.3785, 168.2208
178.8606, 167.1559
179.3427, 166.8662
179.8248, 167.3783
180.3069, 168.4229
180.7891, 169.8887
181.2712, 171.6922
181.7533, 173.5580
182.2354, 175.3463
182.7175, 177.1037
183.1996, 178.8860
183.6818, 180.7221
184.1639, 182.5493
184.6460, 184.3743
185.1281, 186.1744
185.6102, 187.9273
186.0923, 189.5752
186.5745, 191.1596
187.0566, 192.6830
187.5387, 194.1097
188.0208, 195.6791
188.5029, 197.9725
188.9850, 200.9139
189.4672, 203.6713
189.9493, 205.5956
190.4314, 206.8971
190.9135, 208.7217
191.3956, 211.0978
191.8778, 214.0563
192.3599, 217.9414
192.8420, 222.7423
193.3241, 227.6557
193.8062, 231.7688
194.2883, 235.3086
194.7705, 240.4088
195.2526, 247.1312
195.7347, 255.5149
196.2168, 265.6276
196.6989, 277.4603
197.1810, 291.0054
197.6632, 306.4769
198.1453, 323.9971
198.6274, 342.4361
199.1095, 362.2868
199.5916, 382.3368
200.0737, 401.3818
200.5559, 420.4268
201.0380, 433.0074
201.5201, 434.8197
202.0022, 425.4076
202.4843, 411.7155
202.9665, 393.1064
203.4486, 371.5233
203.9307, 350.6637
204.4128, 330.3006
204.8949, 312.3219
205.3770, 298.1130
205.8592, 288.0151
206.3413, 279.1505
206.8234, 271.3475
207.3055, 264.6867
207.7876, 259.4461
208.2697, 255.7891
208.7519, 253.1513
209.2340, 251.2873
209.7161, 250.2466
210.1982, 249.7537
210.6803, 249.9424
211.1624, 250.5829
211.6446, 250.9907
212.1267, 250.9904
212.6088, 251.1885
213.0909, 252.1981
213.5730, 254.5921
214.0551, 255.5912
214.5373, 254.9166
215.0194, 252.8350
215.5015, 249.9337
215.9836, 245.8786
216.4657, 241.6605
216.9479, 237.6373
217.4300, 233.7138
217.9121, 230.2642
218.3942, 227.3313
218.8763, 224.8860
219.3584, 222.9085
219.8406, 221.4701
220.3227, 220.3813
220.8048, 219.6256
221.2869, 219.3958
221.7690, 218.8761
222.2511, 217.8235
222.7333, 216.5269
223.2154, 215.8792
223.6975, 216.0581
224.1796, 216.5812
224.6617, 217.3661
225.1438, 218.8576
225.6260, 219.3585
226.1081, 218.2922
226.5902, 216.3590
227.0723, 215.6473
227.5544, 216.7586
228.0366, 218.1349
228.5187, 219.0373
229.0008, 219.2015
229.4829, 219.5304
229.9650, 220.0652
230.4471, 220.7590
230.9293, 221.5236
231.4114, 222.4901
231.8935, 223.3272
232.3756, 223.8658
232.8577, 224.0015
233.3398, 224.0831
233.8220, 224.0701
234.3041, 224.0117
234.7862, 224.0519
235.2683, 224.3139
235.7504, 224.4878
236.2325, 224.4387
236.7147, 224.0994
237.1968, 223.7323
237.6789, 223.3631
238.1610, 222.9682
238.6431, 222.4975
239.1253, 221.9748
239.6074, 221.3430
240.0895, 220.5051
240.5716, 219.2348
241.0537, 218.4618
241.5358, 218.3703
242.0180, 218.6853
242.5001, 218.8571
242.9822, 218.7337
243.4643, 218.7077
243.9464, 219.0062
244.4285, 219.8974
244.9107, 220.1693
245.3928, 219.5706
245.8749, 218.4954
246.3570, 217.6077
246.8391, 216.9061
247.3212, 216.3881
247.8034, 216.0827
248.2855, 216.0458
248.7676, 215.9971
249.2497, 215.9776
249.7318, 215.9219
250.2140, 215.6873
250.6961, 215.0611
251.1782, 214.6636
251.6603, 214.7744
252.1424, 215.5479
252.6245, 215.9224
253.1067, 215.7884
253.5888, 215.3647
254.0709, 214.9378
254.5530, 214.5729
255.0351, 214.0585
255.5172, 213.2566
255.9994, 212.1024
256.4815, 211.3244
256.9636, 211.0808
257.4457, 211.0502
257.9278, 210.8624
258.4099, 210.4461
258.8921, 210.0181
259.3742, 209.5369
259.8563, 208.9983
260.3384, 208.9315
260.8205, 209.4570
261.3026, 210.2949
261.7848, 211.1955
262.2669, 212.1495
262.7490, 213.1379
263.2311, 213.9682
263.7132, 214.7063
264.1953, 216.4785
264.6775, 219.5695
265.1596, 223.2186
265.6417, 226.7859
266.1238, 230.2012
266.6059, 233.7460
267.0880, 237.4736
267.5702, 241.3768
268.0523, 245.3174
268.5344, 249.6851
269.0165, 253.3809
269.4987, 255.5489
269.9808, 256.0022
270.4629, 255.8209
270.9450, 255.1040
271.4271, 253.8640
271.9092, 252.2510
272.3914, 250.3804
272.8735, 247.8078
273.3556, 243.9190
273.8377, 238.4252
274.3198, 233.6348
274.8019, 229.8212
275.2841, 226.7491
275.7662, 223.7921
276.2483, 220.9911
276.7304, 218.1599
277.2125, 215.1302
277.6946, 211.8429
278.1768, 209.0569
278.6589, 206.8884
279.1410, 205.1516
279.6231, 203.4340
280.1052, 201.6774
280.5873, 200.2357
281.0695, 199.3908
281.5516, 199.1307
282.0337, 198.8825
282.5158, 198.6462
282.9979, 198.3888
283.4800, 197.9795
283.9622, 197.4007
284.4443, 197.0073
284.9264, 197.0024
285.4085, 197.3467
285.8906, 197.7233
286.3727, 198.1375
286.8549, 198.5540
287.3370, 198.9203
287.8191, 199.2378
288.3012, 199.5524
288.7833, 199.7998
289.2654, 200.0557
289.7476, 200.6600
290.2297, 201.6436
290.7118, 202.7440
291.1939, 203.6995
291.6761, 204.5261
292.1582, 205.3684
292.6403, 206.3025
293.1224, 207.2641
293.6045, 208.0746
294.0866, 208.7268
294.5688, 209.4426
295.0509, 210.4499
295.5330, 211.6889
296.0151, 212.9095
296.4972, 213.9935
296.9793, 215.1273
297.4615, 216.6717
297.9436, 218.5928
298.4257, 220.5218
298.9078, 221.9986
299.3899, 223.2956
299.8720, 224.9588
300.3542, 227.1236
300.8363, 229.6438
301.3184, 232.4979
301.8005, 235.6288
302.2826, 238.6772
302.7647, 241.3669
303.2469, 243.8818
303.7290, 246.4938
304.2111, 249.1723
304.6932, 252.1262
305.1753, 255.6843
305.6574, 259.6554
306.1396, 263.4527
306.6217, 266.8269
307.1038, 269.9028
307.5859, 272.7324
308.0680, 275.3198
308.5501, 277.9477
309.0323, 280.8877
309.5144, 284.0071
309.9965, 287.0821
310.4786, 290.1781
310.9607, 293.1213
311.4428, 295.7844
311.9250, 298.1594
312.4071, 300.3731
312.8892, 302.5524
313.3713, 304.5384
313.8534, 306.1770
314.3355, 307.4510
314.8177, 308.3120
315.2998, 308.5180
315.7819, 308.1893
316.2640, 307.9726
316.7462, 308.6020
317.2283, 309.2006
317.7104, 309.0704
318.1925, 307.6078
318.6746, 306.0645
319.1567, 304.7679
319.6389, 303.6930
320.1210, 302.8123
320.6031, 302.4461
321.0852, 302.0257
321.5673, 301.1837
322.0494, 299.5618
322.5316, 298.2523
323.0137, 297.6308
323.4958, 297.4397
323.9779, 297.2589
324.4600, 296.9434
324.9421, 296.7014
325.4243, 296.5361
325.9064, 296.3688
326.3885, 296.6412
326.8706, 297.7516
327.3527, 299.1730
327.8348, 300.3628
328.3170, 301.3882
328.7991, 302.0868
329.2812, 302.3409
329.7633, 302.1387
330.2454, 301.9394
330.7275, 301.7997
331.2097, 301.6069
331.6918, 301.3078
332.1739, 301.1372
332.6560, 300.4312
333.1381, 298.9585
333.6202, 296.8723
334.1024, 294.9367
334.5845, 293.1430
335.0666, 291.5395
335.5487, 290.2670
336.0308, 289.6915
336.5129, 288.3901
336.9951, 286.0842
337.4772, 283.2238
337.9593, 280.6129
338.4414, 278.2961
338.9236, 276.1049
339.4057, 273.8585
339.8878, 271.5346
340.3699, 269.7441
340.8520, 268.4215
341.3341, 267.7604
341.8163, 268.2129
342.2984, 269.8853
342.7805, 271.5171
343.2626, 272.9356
343.7447, 274.0049
344.2268, 273.5862
344.7090, 271.4176
345.1911, 269.2550
345.6732, 268.7672
346.1553, 269.8080
346.6374, 271.3376
347.1195, 273.2421
347.6017, 275.4224
348.0838, 277.4653
348.5659, 279.4362
349.0480, 282.1295
349.5301, 286.1642
350.0122, 291.3370
350.4944, 297.0234
350.9765, 303.1427
351.4586, 309.7380
351.9407, 316.7803
352.4228, 324.2705
352.9049, 332.2022
353.3871, 340.4590
353.8692, 349.2081
354.3513, 358.9430
354.8334, 369.7365
355.3155, 380.3864
355.7976, 390.2738
356.2798, 399.4016
356.7619, 407.8915
357.2440, 416.6178
357.7261, 423.9503
358.2082, 428.4872
358.6903, 430.3970
359.1725, 430.8825
359.6546, 430.6336
360.1367, 429.2361
360.6188, 426.2042
361.1009, 420.6952
361.5831, 414.7461
362.0652, 409.3431
362.5473, 404.1720
363.0294, 398.4544
363.5115, 390.3427
363.9937, 382.8266
364.4758, 377.5429
364.9579, 374.9889
365.4400, 373.4545
365.9221, 373.0376
366.4042, 373.2916
366.8864, 373.6494
367.3685, 374.0700
367.8506, 374.5609
368.3327, 375.1789
368.8148, 375.9433
369.2969, 376.5826
369.7791, 377.1207
370.2612, 377.5209
370.7433, 377.7137
371.2254, 377.1360
371.7075, 377.2357
372.1896, 378.2836
372.6718, 380.1099
373.1539, 382.0500
373.6360, 384.3168
374.1181, 386.3370
374.6002, 387.6783
375.0823, 387.9789
375.5645, 388.9747
376.0466, 390.8829
376.5287, 393.2284
377.0108, 395.2012
377.4929, 396.6715
377.9750, 398.2537
378.4572, 400.2476
378.9393, 402.5834
379.4214, 404.4731
379.9035, 405.8650
380.3856, 406.9760
380.8677, 407.9187
381.3499, 408.7082
381.8320, 409.5964
382.3141, 410.8003
382.7962, 411.9547
383.2783, 412.1934
383.7604, 411.5522
384.2426, 410.7452
384.7247, 410.1134
385.2068, 409.6706
385.6889, 409.4857
386.1711, 409.6214
386.6532, 409.7739
387.1353, 409.7980
387.6174, 409.5995
388.0995, 408.9436
388.5816, 407.4977
389.0638, 405.6721
389.5459, 403.8932
390.0280, 402.1533
390.5101, 400.2210
390.9922, 397.9788
391.4743, 395.4585
391.9565, 392.6653
392.4386, 389.6747
392.9207, 386.3387
393.4028, 382.5215
393.8849, 378.3157
394.3670, 373.9594
394.8492, 369.1002
395.3313, 364.4766
395.8134, 360.6605
396.2955, 358.1912
396.7776, 355.1834
397.2597, 350.8846
397.7419, 345.9636
398.2240, 341.2563
398.7061, 337.2627
399.1882, 333.1352
399.6703, 328.5565
400.1524, 323.4895
400.6346, 318.7698
401.1167, 314.5660
401.5988, 310.6168
402.0809, 306.7485
402.5630, 302.8326
403.0451, 299.2525
403.5273, 296.2081
404.0094, 293.4834
404.4915, 290.4538
404.9736, 286.9142
405.4557, 283.5399
405.9378, 280.6576
406.4200, 278.3195
406.9021, 275.7812
407.3842, 272.9485
407.8663, 270.1978
408.3484, 268.0183
408.8306, 266.4108
409.3127, 265.1396
409.7948, 264.2464
410.2769, 263.5903
410.7590, 262.6751
411.2411, 261.4990
411.7233, 260.6069
412.2054, 260.6596
412.6875, 261.3201
413.1696, 261.5617
413.6517, 261.1168
414.1339, 260.6344
414.6160, 260.9085
415.0981, 261.7588
415.5802, 262.7038
416.0623, 263.4765
416.5444, 264.2292
417.0266, 265.0963
417.5087, 266.0844
417.9908, 267.1096
418.4729, 268.1398
418.9550, 269.1608
419.4371, 270.1261
419.9193, 270.7928
420.4014, 271.6999
420.8835, 273.2256
421.3656, 275.1904
421.8477, 277.0854
422.3298, 278.4433
422.8120, 279.9335
423.2941, 281.9930
423.7762, 284.9633
424.2583, 287.5246
424.7404, 289.0521
425.2225, 290.2649
425.7047, 292.0408
426.1868, 294.8986
426.6689, 297.6057
427.1510, 299.8853
427.6331, 301.7897
428.1152, 304.0288
428.5974, 306.7478
429.0795, 309.6291
429.5616, 312.5891
430.0437, 315.7171
430.5258, 318.4471
431.0079, 320.5922
431.4901, 322.4998
431.9722, 324.8770
432.4543, 327.7755
432.9364, 330.5082
433.4185, 332.6858
433.9007, 334.4427
434.3828, 336.4083
434.8649, 338.6090
435.3470, 340.6979
435.8291, 342.1966
436.3112, 343.3152
436.7934, 344.7476
437.2755, 346.7672
437.7576, 348.8882
438.2397, 350.5758
438.7218, 351.8501
439.2039, 352.7669
439.6861, 353.0629
440.1682, 353.1859
440.6503, 353.5948
441.1324, 354.3266
441.6145, 355.1295
442.0966, 356.2517
442.5788, 357.1967
443.0609, 357.4256
443.5430, 356.1727
444.0251, 354.7996
444.5072, 353.6682
444.9893, 352.7704
445.4715, 352.0675
445.9536, 351.8182
446.4357, 351.5344
446.9178, 351.0846
447.3999, 350.6445
447.8820, 349.5246
448.3642, 347.4088
448.8463, 344.8053
449.3284, 342.2390
449.8105, 339.9982
450.2926, 337.3233
450.7747, 333.9669
451.2569, 330.0325
451.7390, 326.3281
452.2211, 322.9680
452.7032, 319.4370
453.1853, 315.2452
453.6674, 310.2787
454.1496, 305.9345
454.6317, 302.2522
455.1138, 299.1311
455.5959, 296.5877
456.0781, 294.5671
456.5602, 292.7357
457.0423, 291.0675
457.5244, 289.4629
458.0065, 287.5255
458.4886, 285.3294
458.9708, 283.4675
459.4529, 282.5983
459.9350, 282.2968
460.4171, 281.9293
460.8992, 281.3376
461.3813, 280.8734
461.8635, 281.2128
462.3456, 281.8081
462.8277, 281.7272
463.3098, 280.6813
463.7919, 278.7838
464.2740, 275.9812
464.7562, 272.2999
465.2383, 268.1036
465.7204, 263.2183
466.2025, 258.0294
466.6846, 252.8170
467.1667, 247.6904
467.6489, 242.4258
468.1310, 236.6234
468.6131, 230.7588
469.0952, 225.4616
469.5773, 220.9251
470.0594, 216.6656
470.5416, 212.5171
471.0237, 208.5055
471.5058, 204.8723
471.9879, 201.7583
472.4700, 198.7005
472.9521, 195.2813
473.4343, 191.4475
473.9164, 188.0628
474.3985, 185.2010
474.8806, 182.7564
475.3627, 180.6124
475.8448, 178.7501
476.3270, 176.9671
476.8091, 175.2096
477.2912, 173.4772
477.7733, 171.7075
478.2554, 169.9167
478.7375, 168.3527
479.2197, 167.4771
479.7018, 166.8446
480.1839, 165.7829
480.6660, 163.9857
481.1482, 162.2498
481.6303, 161.1320
482.1124, 160.4256
482.5945, 159.7805
483.0766, 159.2251
483.5587, 158.5572
484.0409, 157.6868
484.5230, 156.6181
485.0051, 155.4404
485.4872, 154.0381
485.9693, 152.6212
486.4514, 151.3253
486.9336, 150.1726
487.4157, 149.0916
487.8978, 148.0930
488.3799, 147.1661
488.8620, 146.2435
489.3441, 145.2666
489.8263, 144.4495
490.3084, 143.9031
490.7905, 143.5722
491.2726, 143.0434
491.7547, 142.2808
492.2368, 141.4823
492.7190, 140.8358
493.2011, 140.3043
493.6832, 139.6498
494.1653, 138.7971
494.6474, 138.0008
495.1295, 137.6633
495.6117, 137.6532
496.0938, 137.5681
496.5759, 137.3731
497.0580, 136.9262
497.5401, 135.8177
498.0222, 134.2024
498.5044, 132.9268
498.9865, 132.7202
499.4686, 132.8794
499.9507, 132.8035
500.4328, 132.2936
500.9149, 131.9855
501.3971, 132.2892
501.8792, 132.8338
502.3613, 133.1894
502.8434, 133.2661
503.3256, 133.1736
503.8077, 132.8220
504.2898, 132.2863
504.7719, 131.9114
505.2540, 131.7311
505.7361, 131.6618
506.2183, 131.7241
506.7004, 131.9766
507.1825, 131.9275
507.6646, 131.4807
508.1467, 130.9392
508.6288, 130.6465
509.1110, 130.6027
509.5931, 130.5750
510.0752, 130.5207
510.5573, 130.4575
511.0394, 130.4512
511.5215, 130.4847
512.0037, 130.4424
512.4858, 130.0162
512.9679, 129.5828
513.4500, 129.9117
513.9321, 131.0091
514.4142, 131.7921
514.8964, 131.2737
515.3785, 130.1429
515.8606, 129.1104
516.3427, 128.2418
516.8248, 127.6609
517.3069, 127.6698
517.7891, 127.9672
518.2712, 127.9954
518.7533, 127.2526
519.2354, 126.6117
519.7175, 126.3753
520.1996, 126.5328
520.6818, 126.6272
521.1639, 126.6733
521.6460, 126.6388
522.1281, 126.4807
522.6102, 126.1423
523.0923, 125.8889
523.5745, 125.7134
524.0566, 125.6437
524.5387, 125.8050
525.0208, 126.1976
525.5029, 126.3883
525.9850, 126.1517
526.4672, 125.7228
526.9493, 125.6709
527.4314, 125.9501
527.9135, 126.1565
528.3956, 125.9753
528.8777, 125.5988
529.3599, 125.2478
529.8420, 124.9313
530.3241, 124.7476
530.8062, 124.7908
531.2883, 124.9895
531.7704, 125.2713
532.2526, 125.8237
532.7347, 126.1925
533.2168, 126.0378
533.6989, 125.6058
534.1810, 125.4685
534.6631, 126.2250
535.1453, 126.7494
535.6274, 126.5704
536.1095, 125.6532
536.5916, 125.3673
537.0737, 126.0132
537.5558, 126.8232
538.0380, 127.2318
538.5201, 127.1505
539.0023, 127.3416
539.4844, 127.9239
539.9665, 128.6024
540.4486, 128.8565
540.9307, 128.7439
541.4128, 128.7797
541.8950, 129.2238
542.3771, 129.8152
542.8592, 130.0619
543.3413, 130.0352
543.8234, 130.1345
544.3055, 130.8105
544.7877, 131.6039
545.2698, 132.0120
545.7519, 131.9570
546.2340, 131.9312
546.7161, 132.0420
547.1982, 132.3604
547.6804, 132.9614
548.1625, 134.3975
548.6446, 135.4370
549.1267, 135.6443
549.6088, 135.3902
550.0909, 135.4126
550.5731, 135.8183
551.0552, 136.3519
551.5373, 137.0256
552.0194, 137.8063
552.5015, 138.2388
552.9836, 138.2077
553.4658, 138.2377
553.9479, 138.7614
554.4300, 139.7203
554.9121, 140.4929
555.3942, 141.0113
555.8763, 141.4744
556.3585, 142.0323
556.8406, 142.7063
557.3227, 143.5823
557.8048, 144.8259
558.2869, 146.0720
558.7690, 146.9589
559.2512, 147.5821
559.7333, 148.1723
560.2154, 148.7648
560.6975, 149.4130
561.1796, 150.1324
561.6617, 150.9253
562.1439, 151.8537
562.6260, 153.1819
563.1081, 154.4602
563.5902, 155.4433
564.0723, 155.9652
564.5544, 156.5449
565.0366, 157.1903
565.5187, 157.8917
566.0008, 158.5478
566.4829, 159.0784
566.9650, 160.0832
567.4471, 161.8246
567.9293, 163.9872
568.4114, 165.7182
568.8935, 167.0500
569.3756, 168.3533
569.8577, 169.8867
570.3398, 171.5096
570.8220, 172.9140
571.3041, 174.1168
571.7862, 175.2255
572.2683, 176.1673
572.7504, 177.1436
573.2325, 178.4258
573.7147, 180.2244
574.1968, 181.8898
574.6789, 183.0677
575.1610, 184.0124
575.6431, 185.0681
576.1252, 185.4102
576.6074, 186.9656
577.0895, 190.9900
577.5716, 196.4783
578.0537, 199.4415
578.5358, 198.8715
579.0179, 198.1230
579.5001, 198.5430
579.9822, 200.0575
580.4643, 201.3285
580.9464, 202.2846
581.4285, 203.4736
581.9106, 205.6067
582.3928, 208.3929
582.8749, 210.8355
583.3570, 212.7844
583.8391, 214.5326
584.3212, 216.2999
584.8033, 218.0939
585.2855, 219.9382
