##NAMES=Zunyite
##RRUFFID=R050263
##IDEAL CHEMISTRY=Al_13_Si_5_O_20_(OH,F)_18_Cl
##LOCALITY=Ruby Mountain, Tintic District, Utah, USA
##OWNER=RRUFF
##SOURCE=Marcus Origlieri
##DESCRIPTION=Colorless tetrahedral crystals
##STATUS=The identification of this mineral has been confirmed by X-ray diffraction and chemical analysis
##URL=rruff.info/R050263
##MEASURED CHEMISTRY=Al_13.00_Si_5.00_O_20_((OH)_14.80_F_3.20_)_Σ=18_Cl_1.00_ ; gray phase. (Al_12.92_Fe^3+^_0.08_)_Σ=13_Si_5.00_O_20_((OH)_14.86_F_3.14_)_Σ=18_Cl_1.00_ rim, lighter phase
138.3424, 1248.910
138.8245, 1252.896
139.3066, 1259.958
139.7887, 1264.133
140.2709, 1264.064
140.7530, 1261.168
141.2351, 1260.167
141.7172, 1261.353
142.1993, 1263.643
142.6814, 1266.704
143.1636, 1271.522
143.6457, 1274.243
144.1278, 1273.650
144.6099, 1270.210
145.0920, 1268.529
145.5741, 1269.167
146.0563, 1270.784
146.5384, 1272.360
147.0205, 1273.764
147.5026, 1275.317
147.9847, 1277.362
148.4668, 1279.964
148.9490, 1281.369
149.4311, 1280.164
149.9132, 1278.640
150.3953, 1278.914
150.8774, 1281.650
151.3595, 1285.452
151.8417, 1290.861
152.3238, 1298.606
152.8059, 1303.920
153.2880, 1305.032
153.7701, 1304.323
154.2522, 1304.358
154.7344, 1306.475
155.2165, 1308.278
155.6986, 1309.097
156.1807, 1308.736
156.6628, 1307.989
157.1449, 1305.876
157.6271, 1303.681
158.1092, 1303.142
158.5913, 1306.324
159.0734, 1309.849
159.5555, 1312.177
160.0376, 1312.525
160.5198, 1313.510
161.0019, 1316.112
161.4840, 1319.837
161.9661, 1323.769
162.4482, 1327.500
162.9303, 1331.437
163.4125, 1335.745
163.8946, 1340.301
164.3767, 1345.581
164.8588, 1352.505
165.3409, 1360.349
165.8230, 1367.548
166.3052, 1373.769
166.7873, 1378.858
167.2694, 1383.015
167.7515, 1387.455
168.2336, 1388.862
168.7157, 1383.724
169.1978, 1373.490
169.6800, 1362.699
170.1621, 1354.260
170.6442, 1346.396
171.1263, 1336.782
171.6084, 1322.877
172.0905, 1309.896
172.5727, 1302.415
173.0548, 1299.851
173.5369, 1299.164
174.0190, 1299.616
174.5011, 1300.433
174.9832, 1300.310
175.4654, 1297.531
175.9475, 1295.203
176.4296, 1297.552
176.9117, 1304.116
177.3938, 1310.757
177.8759, 1314.537
178.3581, 1316.201
178.8402, 1317.003
179.3223, 1316.663
179.8044, 1316.161
180.2865, 1316.687
180.7686, 1318.245
181.2508, 1320.938
181.7329, 1325.325
182.2150, 1330.964
182.6971, 1336.628
183.1792, 1341.679
183.6613, 1346.603
184.1435, 1352.522
184.6256, 1359.526
185.1077, 1366.248
185.5898, 1371.321
186.0719, 1374.934
186.5540, 1378.303
187.0362, 1381.206
187.5183, 1384.266
188.0004, 1389.739
188.4825, 1397.959
188.9646, 1406.095
189.4467, 1410.355
189.9289, 1411.270
190.4110, 1413.175
190.8931, 1417.719
191.3752, 1424.444
191.8573, 1431.701
192.3394, 1439.620
192.8216, 1447.794
193.3037, 1455.496
193.7858, 1462.764
194.2679, 1470.948
194.7500, 1480.730
195.2321, 1491.854
195.7143, 1503.059
196.1964, 1514.213
196.6785, 1525.637
197.1606, 1537.582
197.6427, 1550.187
198.1248, 1563.520
198.6070, 1577.906
199.0891, 1593.273
199.5712, 1609.123
200.0533, 1626.058
200.5354, 1641.944
201.0175, 1654.511
201.4997, 1664.169
201.9818, 1667.823
202.4639, 1663.810
202.9460, 1652.139
203.4281, 1636.994
203.9102, 1617.709
204.3924, 1596.222
204.8745, 1574.333
205.3566, 1551.293
205.8387, 1531.318
206.3208, 1516.332
206.8029, 1506.390
207.2851, 1498.858
207.7672, 1494.214
208.2493, 1491.290
208.7314, 1488.326
209.2135, 1485.154
209.6956, 1482.485
210.1778, 1480.404
210.6599, 1478.780
211.1420, 1478.856
211.6241, 1481.056
212.1062, 1484.414
212.5883, 1487.575
213.0705, 1490.645
213.5526, 1493.207
214.0347, 1495.152
214.5168, 1496.565
214.9989, 1496.892
215.4810, 1496.036
215.9632, 1494.155
216.4453, 1491.348
216.9274, 1487.147
217.4095, 1483.051
217.8916, 1479.514
218.3737, 1476.529
218.8559, 1474.248
219.3380, 1472.975
219.8201, 1472.166
220.3022, 1470.951
220.7843, 1469.148
221.2664, 1467.392
221.7486, 1465.916
222.2307, 1464.823
222.7128, 1463.530
223.1949, 1461.474
223.6770, 1459.708
224.1591, 1460.215
224.6413, 1464.585
225.1234, 1468.172
225.6055, 1469.284
226.0876, 1467.225
226.5697, 1466.150
227.0518, 1466.197
227.5340, 1467.115
228.0161, 1468.571
228.4982, 1470.744
228.9803, 1473.140
229.4624, 1475.633
229.9445, 1478.274
230.4267, 1480.891
230.9088, 1483.789
231.3909, 1486.456
231.8730, 1488.069
232.3551, 1487.908
232.8372, 1487.969
233.3194, 1488.923
233.8015, 1491.035
234.2836, 1492.621
234.7657, 1493.626
235.2478, 1494.170
235.7299, 1494.404
236.2121, 1494.300
236.6942, 1493.906
237.1763, 1492.897
237.6584, 1490.939
238.1405, 1490.786
238.6226, 1493.129
239.1048, 1496.716
239.5869, 1500.165
240.0690, 1503.791
240.5511, 1506.699
241.0332, 1508.635
241.5153, 1509.513
241.9975, 1510.000
242.4796, 1509.804
242.9617, 1509.470
243.4438, 1509.706
243.9259, 1511.168
244.4080, 1511.988
244.8902, 1511.503
245.3723, 1509.583
245.8544, 1508.461
246.3365, 1508.335
246.8186, 1508.826
247.3007, 1509.800
247.7829, 1512.337
248.2650, 1513.172
248.7471, 1510.747
249.2292, 1504.915
249.7113, 1502.407
250.1934, 1504.781
250.6756, 1508.726
251.1577, 1511.274
251.6398, 1511.773
252.1219, 1512.206
252.6040, 1513.007
253.0861, 1514.125
253.5683, 1514.518
254.0504, 1513.614
254.5325, 1512.681
255.0146, 1512.845
255.4967, 1514.702
255.9788, 1516.264
256.4609, 1517.145
256.9431, 1517.446
257.4252, 1518.143
257.9073, 1519.620
258.3894, 1520.954
258.8715, 1521.464
259.3536, 1520.940
259.8358, 1520.092
260.3179, 1518.634
260.8000, 1516.862
261.2821, 1516.472
261.7642, 1517.859
262.2463, 1519.960
262.7285, 1522.196
263.2106, 1524.639
263.6927, 1526.909
264.1748, 1528.615
264.6569, 1530.207
265.1390, 1533.565
265.6212, 1539.380
266.1033, 1545.494
266.5854, 1550.606
267.0675, 1554.100
267.5496, 1558.787
268.0317, 1565.363
268.5139, 1572.874
268.9960, 1578.703
269.4781, 1582.642
269.9602, 1585.425
270.4423, 1587.351
270.9244, 1588.426
271.4066, 1588.556
271.8887, 1587.677
272.3708, 1585.899
272.8529, 1583.193
273.3350, 1579.199
273.8171, 1575.565
274.2993, 1573.448
274.7814, 1573.236
275.2635, 1570.686
275.7456, 1564.939
276.2277, 1558.200
276.7098, 1554.419
277.1920, 1554.144
277.6741, 1553.743
278.1562, 1551.651
278.6383, 1547.849
279.1204, 1544.879
279.6025, 1542.792
280.0847, 1541.369
280.5668, 1540.631
281.0489, 1540.697
281.5310, 1540.202
282.0131, 1538.347
282.4952, 1535.423
282.9774, 1533.994
283.4595, 1534.390
283.9416, 1534.964
284.4237, 1533.455
284.9058, 1529.887
285.3879, 1527.461
285.8701, 1527.309
286.3522, 1528.849
286.8343, 1529.834
287.3164, 1530.139
287.7985, 1530.755
288.2806, 1532.822
288.7628, 1536.179
289.2449, 1539.249
289.7270, 1541.559
290.2091, 1543.482
290.6912, 1546.400
291.1733, 1550.290
291.6555, 1553.327
292.1376, 1553.025
292.6197, 1550.326
293.1018, 1549.688
293.5839, 1552.104
294.0660, 1556.413
294.5482, 1561.198
295.0303, 1566.373
295.5124, 1571.079
295.9945, 1574.870
296.4766, 1577.844
296.9587, 1579.822
297.4409, 1580.427
297.9230, 1581.322
298.4051, 1585.051
298.8872, 1591.115
299.3693, 1597.473
299.8514, 1603.597
300.3336, 1609.080
300.8157, 1612.536
301.2978, 1613.497
301.7799, 1614.671
302.2620, 1619.314
302.7441, 1626.430
303.2263, 1633.420
303.7084, 1639.672
304.1905, 1644.894
304.6726, 1647.964
305.1547, 1648.760
305.6368, 1650.477
306.1190, 1657.173
306.6011, 1666.503
307.0832, 1674.134
307.5653, 1677.689
308.0474, 1679.609
308.5295, 1681.542
309.0117, 1683.597
309.4938, 1686.410
309.9759, 1691.118
310.4580, 1696.646
310.9401, 1701.617
311.4222, 1705.820
311.9044, 1709.257
312.3865, 1711.071
312.8686, 1711.823
313.3507, 1713.618
313.8328, 1718.692
314.3149, 1724.657
314.7971, 1729.422
315.2792, 1732.370
315.7613, 1734.666
316.2434, 1737.252
316.7255, 1739.602
317.2076, 1740.588
317.6898, 1738.427
318.1719, 1735.745
318.6540, 1733.912
319.1361, 1733.099
319.6182, 1733.257
320.1003, 1735.544
320.5825, 1738.525
321.0646, 1740.229
321.5467, 1739.282
322.0288, 1737.736
322.5109, 1735.933
322.9930, 1733.781
323.4752, 1732.777
323.9573, 1734.296
324.4394, 1736.590
324.9215, 1738.082
325.4036, 1737.699
325.8857, 1737.376
326.3679, 1737.148
326.8500, 1737.068
327.3321, 1738.102
327.8142, 1742.021
328.2963, 1745.957
328.7784, 1748.218
329.2606, 1747.764
329.7427, 1746.872
330.2248, 1744.967
330.7069, 1742.550
331.1890, 1741.647
331.6711, 1743.754
332.1533, 1745.776
332.6354, 1746.451
333.1175, 1745.393
333.5996, 1743.760
334.0817, 1741.000
334.5638, 1737.884
335.0460, 1736.078
335.5281, 1736.753
336.0102, 1736.475
336.4923, 1733.696
336.9744, 1727.854
337.4565, 1723.721
337.9387, 1721.814
338.4208, 1720.843
338.9029, 1719.261
339.3850, 1716.853
339.8671, 1714.633
340.3492, 1712.623
340.8313, 1710.948
341.3134, 1710.853
341.7956, 1712.771
342.2777, 1714.999
342.7598, 1716.004
343.2419, 1715.731
343.7240, 1715.842
344.2061, 1716.568
344.6883, 1717.907
345.1704, 1719.522
345.6525, 1721.378
346.1346, 1724.583
346.6167, 1730.612
347.0988, 1738.981
347.5810, 1746.012
348.0631, 1751.224
348.5452, 1755.891
349.0273, 1761.561
349.5094, 1768.247
349.9915, 1775.860
350.4737, 1784.686
350.9558, 1794.387
351.4379, 1803.714
351.9200, 1812.620
352.4021, 1821.922
352.8842, 1832.292
353.3664, 1843.714
353.8485, 1856.349
354.3306, 1871.379
354.8127, 1886.818
355.2948, 1899.788
355.7769, 1910.625
356.2591, 1921.032
356.7412, 1932.604
357.2233, 1944.221
357.7054, 1954.827
358.1875, 1964.373
358.6696, 1972.374
359.1518, 1978.754
359.6339, 1983.313
360.1160, 1985.452
360.5981, 1983.310
361.0802, 1979.704
361.5623, 1976.803
362.0445, 1975.338
362.5266, 1972.306
363.0087, 1964.725
363.4908, 1955.336
363.9729, 1947.666
364.4550, 1942.933
364.9372, 1939.860
365.4193, 1938.717
365.9014, 1939.518
366.3835, 1939.476
366.8656, 1936.633
367.3477, 1933.557
367.8299, 1932.056
368.3120, 1933.086
368.7941, 1934.823
369.2762, 1937.205
369.7583, 1940.202
370.2404, 1943.719
370.7226, 1949.360
371.2047, 1953.933
371.6868, 1955.754
372.1689, 1952.177
372.6510, 1952.193
373.1331, 1957.951
373.6153, 1966.123
374.0974, 1971.050
374.5795, 1971.057
375.0616, 1971.165
375.5437, 1972.882
376.0258, 1976.235
376.5080, 1979.204
376.9901, 1981.458
377.4722, 1983.940
377.9543, 1987.885
378.4364, 1993.539
378.9185, 1998.660
379.4007, 2002.792
379.8828, 2006.030
380.3649, 2008.154
380.8470, 2008.968
381.3291, 2010.175
381.8112, 2013.717
382.2934, 2019.083
382.7755, 2022.040
383.2576, 2021.882
383.7397, 2020.327
384.2218, 2019.622
384.7039, 2019.643
385.1861, 2019.716
385.6682, 2019.575
386.1503, 2019.272
386.6324, 2019.019
387.1145, 2018.827
387.5966, 2018.209
388.0788, 2016.723
388.5609, 2014.510
389.0430, 2011.808
389.5251, 2008.505
390.0072, 2004.901
390.4893, 2001.570
390.9715, 1998.291
391.4536, 1994.034
391.9357, 1987.609
392.4178, 1980.380
392.8999, 1973.324
393.3820, 1966.336
393.8642, 1960.229
394.3463, 1956.154
394.8284, 1953.074
395.3105, 1949.440
395.7926, 1945.004
396.2747, 1939.717
396.7569, 1933.275
397.2390, 1925.634
397.7211, 1918.302
398.2032, 1911.716
398.6853, 1905.439
399.1674, 1899.221
399.6496, 1893.061
400.1317, 1886.821
400.6138, 1880.071
401.0959, 1873.130
401.5780, 1867.180
402.0602, 1862.793
402.5423, 1858.646
403.0244, 1854.246
403.5065, 1849.414
403.9886, 1844.811
404.4707, 1840.438
404.9529, 1836.292
405.4350, 1832.431
405.9171, 1828.973
406.3992, 1825.355
406.8813, 1821.085
407.3634, 1816.471
407.8456, 1813.520
408.3277, 1812.465
408.8098, 1812.131
409.2919, 1811.923
409.7740, 1811.796
410.2561, 1810.786
410.7383, 1808.548
411.2204, 1805.785
411.7025, 1803.046
412.1846, 1800.483
412.6667, 1799.365
413.1488, 1801.282
413.6310, 1804.946
414.1131, 1807.585
414.5952, 1809.047
415.0773, 1810.530
415.5594, 1813.447
416.0415, 1817.101
416.5237, 1820.265
417.0058, 1822.016
417.4879, 1823.648
417.9700, 1826.512
418.4521, 1830.277
418.9342, 1833.675
419.4164, 1835.205
419.8985, 1836.598
420.3806, 1839.147
420.8627, 1843.226
421.3448, 1847.887
421.8269, 1853.475
422.3091, 1859.252
422.7912, 1864.228
423.2733, 1867.142
423.7554, 1870.208
424.2375, 1874.375
424.7196, 1879.665
425.2018, 1884.324
425.6839, 1886.888
426.1660, 1889.712
426.6481, 1894.303
427.1302, 1902.284
427.6123, 1909.285
428.0945, 1914.637
428.5766, 1919.204
429.0587, 1925.091
429.5408, 1932.769
430.0229, 1940.777
430.5050, 1948.822
430.9872, 1956.871
431.4693, 1963.540
431.9514, 1968.506
432.4335, 1972.950
432.9156, 1978.113
433.3977, 1983.989
433.8799, 1989.703
434.3620, 1994.749
434.8441, 1999.839
435.3262, 2007.251
435.8083, 2016.832
436.2904, 2025.715
436.7726, 2032.014
437.2547, 2036.324
437.7368, 2039.853
438.2189, 2042.653
438.7010, 2045.168
439.1831, 2047.766
439.6652, 2050.458
440.1473, 2053.246
440.6295, 2056.440
441.1116, 2059.528
441.5937, 2062.053
442.0758, 2064.114
442.5579, 2066.058
443.0400, 2067.867
443.5222, 2069.786
444.0043, 2072.245
444.4864, 2075.982
444.9685, 2078.409
445.4506, 2077.964
445.9327, 2075.868
446.4149, 2073.872
446.8970, 2071.752
447.3791, 2070.314
447.8612, 2070.135
448.3433, 2071.239
448.8254, 2071.489
449.3076, 2070.824
449.7897, 2069.351
450.2718, 2067.178
450.7539, 2064.625
451.2360, 2060.644
451.7181, 2054.862
452.2003, 2047.846
452.6824, 2040.640
453.1645, 2033.037
453.6466, 2025.936
454.1287, 2020.138
454.6108, 2015.272
455.0930, 2008.135
455.5751, 1998.145
456.0572, 1988.980
456.5393, 1985.492
457.0214, 1986.362
457.5035, 1984.755
457.9857, 1979.046
458.4678, 1971.225
458.9499, 1962.885
459.4320, 1954.589
459.9141, 1948.213
460.3962, 1946.443
460.8784, 1946.359
461.3605, 1944.812
461.8426, 1941.661
462.3247, 1937.746
462.8068, 1933.370
463.2889, 1928.608
463.7711, 1923.632
464.2532, 1919.037
464.7353, 1913.471
465.2174, 1905.839
465.6995, 1896.867
466.1816, 1888.119
466.6638, 1880.626
467.1459, 1873.031
467.6280, 1864.726
468.1101, 1855.578
468.5922, 1846.312
469.0743, 1836.712
469.5565, 1827.154
470.0386, 1817.956
470.5207, 1808.928
471.0028, 1800.940
471.4849, 1794.480
471.9670, 1789.015
472.4492, 1782.779
472.9313, 1775.544
473.4134, 1768.479
473.8955, 1761.782
474.3776, 1755.494
474.8597, 1751.194
475.3419, 1749.063
475.8240, 1747.792
476.3061, 1746.291
476.7882, 1744.543
477.2703, 1742.465
477.7524, 1739.939
478.2346, 1737.220
478.7167, 1734.591
479.1988, 1732.033
479.6809, 1729.478
480.1630, 1726.869
480.6451, 1724.258
481.1273, 1721.660
481.6094, 1719.066
482.0915, 1716.627
482.5736, 1714.451
483.0557, 1712.440
483.5378, 1710.456
484.0200, 1708.085
484.5021, 1706.175
484.9842, 1705.725
485.4663, 1705.939
485.9484, 1704.715
486.4305, 1699.489
486.9127, 1694.941
487.3948, 1692.656
487.8769, 1692.982
488.3590, 1693.364
488.8411, 1694.627
489.3232, 1695.078
489.8054, 1692.683
490.2875, 1685.962
490.7696, 1682.161
491.2517, 1683.042
491.7338, 1686.400
492.2159, 1687.278
492.6981, 1685.605
493.1802, 1682.944
493.6623, 1678.848
494.1444, 1674.271
494.6265, 1673.903
495.1086, 1677.810
495.5908, 1682.236
496.0729, 1683.994
496.5550, 1683.896
497.0371, 1683.459
497.5192, 1682.747
498.0013, 1682.298
498.4835, 1682.896
498.9656, 1684.070
499.4477, 1684.859
499.9298, 1684.060
500.4119, 1683.407
500.8940, 1684.265
501.3762, 1686.601
501.8583, 1688.211
502.3404, 1688.518
502.8225, 1687.919
503.3046, 1686.563
503.7867, 1683.010
504.2689, 1681.172
504.7510, 1682.144
505.2331, 1684.457
505.7152, 1685.980
506.1973, 1686.517
506.6794, 1686.563
507.1616, 1685.937
507.6437, 1684.835
508.1258, 1685.023
508.6079, 1686.917
509.0900, 1688.433
509.5721, 1687.702
510.0543, 1685.012
510.5364, 1683.460
511.0185, 1683.315
511.5006, 1683.970
511.9827, 1685.172
512.4648, 1686.645
512.9470, 1687.431
513.4291, 1686.666
513.9112, 1685.698
514.3933, 1686.002
514.8754, 1687.373
515.3575, 1689.067
515.8397, 1691.132
516.3218, 1693.037
516.8039, 1694.441
517.2860, 1695.308
517.7681, 1695.573
518.2502, 1694.882
518.7324, 1693.732
519.2145, 1692.574
519.6966, 1690.703
520.1787, 1689.746
520.6608, 1689.991
521.1429, 1691.200
521.6251, 1692.921
522.1072, 1695.793
522.5893, 1698.039
523.0714, 1698.939
523.5535, 1698.528
524.0356, 1698.239
524.5178, 1697.963
524.9999, 1698.238
525.4820, 1699.915
525.9641, 1702.802
526.4462, 1705.136
526.9283, 1706.729
527.4105, 1707.689
527.8926, 1707.952
528.3747, 1707.682
528.8568, 1707.405
529.3389, 1706.882
529.8210, 1706.786
530.3032, 1708.544
530.7853, 1711.651
531.2674, 1713.616
531.7495, 1711.118
532.2316, 1708.222
532.7137, 1708.177
533.1959, 1712.179
533.6780, 1715.824
534.1601, 1717.703
534.6422, 1718.798
535.1243, 1720.156
535.6064, 1722.558
536.0886, 1724.313
536.5707, 1725.260
537.0528, 1725.488
537.5349, 1724.992
538.0170, 1723.201
538.4991, 1722.199
538.9813, 1723.005
539.4634, 1725.550
539.9455, 1728.267
540.4276, 1731.323
540.9097, 1733.682
541.3918, 1734.033
541.8740, 1732.787
542.3561, 1731.215
542.8382, 1729.144
543.3203, 1728.043
543.8024, 1730.299
544.2845, 1734.829
544.7667, 1739.170
545.2488, 1742.483
545.7309, 1744.943
546.2130, 1746.405
546.6951, 1747.018
547.1772, 1747.431
547.6594, 1747.291
548.1415, 1747.509
548.6236, 1748.649
549.1057, 1750.964
549.5878, 1753.476
550.0699, 1756.584
550.5521, 1759.602
551.0342, 1761.843
551.5163, 1762.469
551.9984, 1764.381
552.4805, 1768.813
552.9626, 1774.024
553.4448, 1775.165
553.9269, 1771.528
554.4090, 1769.380
554.8911, 1771.994
555.3732, 1777.823
555.8553, 1781.273
556.3375, 1782.337
556.8196, 1782.705
557.3017, 1783.255
557.7838, 1784.072
558.2659, 1785.260
558.7480, 1786.803
559.2302, 1788.851
559.7123, 1791.727
560.1944, 1795.104
560.6765, 1798.555
561.1586, 1802.833
561.6407, 1806.241
562.1229, 1807.286
562.6050, 1806.945
563.0871, 1808.098
563.5692, 1813.071
564.0513, 1817.613
564.5334, 1820.496
565.0156, 1821.648
565.4977, 1822.697
565.9798, 1823.231
566.4619, 1824.422
566.9440, 1827.547
567.4261, 1832.797
567.9083, 1836.847
568.3904, 1839.310
568.8725, 1840.995
569.3546, 1842.145
569.8367, 1843.208
570.3188, 1846.562
570.8010, 1854.237
571.2831, 1862.815
571.7652, 1867.629
572.2473, 1869.581
572.7294, 1871.478
573.2115, 1874.486
573.6937, 1878.242
574.1758, 1882.911
574.6579, 1888.493
575.1400, 1893.477
575.6221, 1897.006
576.1042, 1900.123
576.5864, 1903.421
577.0685, 1905.951
577.5506, 1910.669
578.0327, 1919.428
578.5148, 1929.079
578.9969, 1935.228
579.4791, 1936.953
579.9612, 1938.348
580.4433, 1939.478
580.9254, 1941.318
581.4075, 1947.468
581.8896, 1957.833
582.3718, 1967.744
582.8539, 1974.052
583.3360, 1978.330
583.8181, 1984.011
584.3002, 1990.991
584.7823, 1997.505
585.2645, 2001.631
585.7466, 2004.949
586.2287, 2009.211
586.7108, 2014.968
587.1929, 2020.937
587.6750, 2026.560
588.1571, 2032.156
588.6392, 2038.155
589.1213, 2046.117
589.6035, 2052.685
590.0856, 2055.963
590.5677, 2057.794
591.0498, 2063.648
591.5319, 2075.754
592.0140, 2086.699
592.4962, 2092.891
592.9783, 2095.274
593.4604, 2102.377
593.9425, 2114.778
594.4246, 2126.591
594.9067, 2131.780
595.3889, 2132.800
595.8710, 2137.560
596.3531, 2147.048
596.8352, 2157.133
597.3173, 2164.133
597.7994, 2169.352
598.2816, 2174.580
598.7637, 2180.260
599.2458, 2186.345
599.7279, 2193.036
600.2100, 2200.086
600.6921, 2207.074
601.1743, 2214.902
601.6564, 2221.672
602.1385, 2226.448
602.6206, 2229.572
603.1027, 2233.439
603.5848, 2238.230
604.0670, 2243.382
604.5491, 2249.000
605.0312, 2255.053
605.5133, 2259.492
605.9954, 2262.060
606.4775, 2263.978
606.9597, 2266.458
607.4418, 2269.212
607.9239, 2271.327
608.4060, 2272.538
608.8881, 2273.391
609.3702, 2275.007
609.8524, 2276.539
610.3345, 2276.525
610.8166, 2272.951
611.2987, 2269.203
611.7808, 2266.811
612.2629, 2265.481
612.7451, 2264.285
613.2272, 2264.297
613.7093, 2263.147
614.1914, 2259.967
614.6735, 2254.756
615.1556, 2249.208
615.6378, 2243.216
616.1199, 2237.069
616.6020, 2231.093
617.0841, 2225.239
617.5662, 2218.433
618.0483, 2210.463
618.5305, 2202.366
619.0126, 2195.430
619.4947, 2189.250
619.9768, 2182.268
620.4589, 2173.779
620.9410, 2165.385
621.4232, 2158.906
621.9053, 2153.469
622.3874, 2147.403
622.8695, 2139.414
623.3516, 2131.400
623.8337, 2124.128
624.3159, 2117.466
624.7980, 2110.717
625.2801, 2103.556
625.7622, 2096.491
626.2443, 2089.815
626.7264, 2083.517
627.2086, 2076.258
627.6907, 2067.614
628.1728, 2058.972
628.6549, 2051.173
629.1370, 2044.194
629.6191, 2038.197
630.1013, 2033.245
630.5834, 2028.675
631.0655, 2024.036
631.5476, 2019.214
