##NAMES=Zussmanite
##RRUFFID=R050448
##IDEAL CHEMISTRY=K(Fe^2+^,Mg,Mn^2+^,Fe^3+^)_13_(Si,Al)_18_O_42_(OH)_14_
##LOCALITY=Longvale Quarry, Mendocino County, California, USA
##OWNER=RRUFF
##SOURCE=Marcus Origlieri
##DESCRIPTION=Aggregate of pale green tabular crystals
##STATUS=The identification of this mineral is confirmed by single-crystal X-ray diffraction and chemical analysis.
##URL=rruff.info/R050448
##MEASURED CHEMISTRY=(K_0.87_[box]_0.13_)_Σ=1_(Fe_10.80_Mg_0.98_Mn_0.89_Al_0.33_)_Σ=13_(Si_16.80_Al_1.20_)_Σ=18_O_42_(OH)_14_
98.60438, 57.06321
99.08649, 56.63256
99.56861, 55.95042
100.0507, 55.40084
100.5328, 54.89521
101.0150, 54.44103
101.4971, 54.05729
101.9792, 53.74319
102.4613, 53.49580
102.9434, 53.35674
103.4255, 53.25039
103.9077, 53.08725
104.3898, 52.80552
104.8719, 52.54834
105.3540, 52.65362
105.8361, 53.43841
106.3182, 54.03381
106.8004, 54.22693
107.2825, 54.15957
107.7646, 53.95624
108.2467, 53.66470
108.7288, 53.30803
109.2109, 53.24193
109.6931, 53.74830
110.1752, 54.25338
110.6573, 54.59031
111.1394, 54.79102
111.6215, 54.98451
112.1037, 55.28478
112.5858, 55.71384
113.0679, 56.09602
113.5500, 56.34078
114.0321, 56.60128
114.5142, 57.00634
114.9964, 57.57588
115.4785, 58.20288
115.9606, 58.81055
116.4427, 59.40094
116.9248, 59.82093
117.4069, 60.07271
117.8891, 60.12528
118.3712, 59.88882
118.8533, 59.26554
119.3354, 58.44908
119.8175, 57.60333
120.2996, 56.73034
120.7818, 55.90172
121.2639, 55.15597
121.7460, 54.49242
122.2281, 53.92585
122.7102, 53.60145
123.1923, 53.28375
123.6745, 52.81550
124.1566, 52.17860
124.6387, 51.52006
125.1208, 51.03703
125.6029, 50.74471
126.0850, 50.62805
126.5672, 50.80658
127.0493, 51.05500
127.5314, 51.19049
128.0135, 51.14117
128.4956, 50.96342
128.9778, 50.81268
129.4599, 50.75780
129.9420, 50.65505
130.4241, 50.43333
130.9062, 50.16655
131.3883, 49.96030
131.8705, 49.87174
132.3526, 49.89097
132.8347, 49.95702
133.3168, 50.16611
133.7989, 50.31885
134.2810, 50.26667
134.7632, 50.05235
135.2453, 49.90249
135.7274, 49.98557
136.2095, 50.25403
136.6916, 50.48763
137.1737, 50.70111
137.6559, 50.86097
138.1380, 50.89774
138.6201, 50.77827
139.1022, 50.69295
139.5843, 50.84491
140.0664, 51.10246
140.5486, 51.27144
141.0307, 51.21907
141.5128, 51.02958
141.9949, 50.95026
142.4770, 51.01094
142.9591, 51.15363
143.4413, 51.40916
143.9234, 51.71466
144.4055, 51.95551
144.8876, 52.02473
145.3697, 51.92073
145.8518, 51.89729
146.3340, 52.10130
146.8161, 52.25967
147.2982, 52.29460
147.7803, 52.20819
148.2624, 52.03902
148.7445, 51.82033
149.2267, 51.55008
149.7088, 51.23597
150.1909, 50.72107
150.6730, 50.29094
151.1551, 50.20399
151.6372, 50.44814
152.1194, 50.71329
152.6015, 50.59264
153.0836, 49.84169
153.5657, 49.36051
154.0478, 49.36565
154.5300, 49.53598
155.0121, 49.56152
155.4942, 49.36267
155.9763, 49.03769
156.4584, 48.69085
156.9405, 48.30679
157.4227, 48.00489
157.9048, 47.84305
158.3869, 47.78489
158.8690, 47.76001
159.3511, 47.76126
159.8332, 47.77400
160.3154, 47.80965
160.7975, 47.87508
161.2796, 47.85821
161.7617, 47.64242
162.2438, 47.24343
162.7259, 46.87648
163.2081, 46.50233
163.6902, 46.26483
164.1723, 46.32439
164.6544, 46.69321
165.1365, 47.12483
165.6186, 47.35146
166.1008, 47.32922
166.5829, 47.29364
167.0650, 47.37160
167.5471, 47.39380
168.0292, 47.17946
168.5113, 46.70092
168.9935, 46.17412
169.4756, 46.00183
169.9577, 46.51698
170.4398, 46.74288
170.9219, 46.42481
171.4040, 45.93650
171.8862, 45.57646
172.3683, 45.45699
172.8504, 45.49636
173.3325, 45.49934
173.8146, 45.32525
174.2967, 45.29154
174.7789, 45.56245
175.2610, 45.92700
175.7431, 46.11622
176.2252, 46.00365
176.7073, 45.69481
177.1894, 45.53996
177.6716, 45.74276
178.1537, 45.83344
178.6358, 45.63775
179.1179, 45.27216
179.6000, 44.93827
180.0822, 44.71453
180.5643, 44.62217
181.0464, 44.72641
181.5285, 45.18703
182.0106, 45.57981
182.4927, 45.66879
182.9749, 45.50423
183.4570, 45.29905
183.9391, 45.10399
184.4212, 44.97175
184.9033, 44.98339
185.3854, 45.19420
185.8676, 45.45991
186.3497, 45.68691
186.8318, 45.87574
187.3139, 46.00581
187.7960, 46.01002
188.2781, 45.97436
188.7603, 46.01418
189.2424, 46.19306
189.7245, 46.35944
190.2066, 46.25941
190.6887, 45.78599
191.1708, 45.43806
191.6530, 45.47240
192.1351, 45.66915
192.6172, 45.86554
193.0993, 46.00848
193.5814, 46.10746
194.0635, 46.18332
194.5457, 46.25300
195.0278, 46.25766
195.5099, 46.07867
195.9920, 45.88572
196.4741, 45.88033
196.9562, 46.16181
197.4384, 46.59980
197.9205, 46.81414
198.4026, 46.62942
198.8847, 46.43650
199.3668, 46.23944
199.8489, 46.07814
200.3311, 46.02008
200.8132, 46.10355
201.2953, 46.26943
201.7774, 46.28266
202.2595, 45.91688
202.7417, 45.64234
203.2238, 45.51138
203.7059, 45.49754
204.1880, 45.57642
204.6701, 45.74230
205.1522, 45.96552
205.6344, 46.11033
206.1165, 46.20017
206.5986, 46.19890
207.0807, 46.03827
207.5628, 45.78353
208.0449, 45.54522
208.5271, 45.37449
209.0092, 45.27195
209.4913, 45.24843
209.9734, 45.41610
210.4555, 45.51431
210.9376, 45.38027
211.4198, 45.09357
211.9019, 44.87826
212.3840, 44.86246
212.8661, 44.98303
213.3482, 45.04681
213.8303, 45.01441
214.3125, 44.99211
214.7946, 45.09404
215.2767, 45.28400
215.7588, 45.35247
216.2409, 45.15553
216.7230, 44.81063
217.2052, 44.53715
217.6873, 44.33019
218.1694, 44.21503
218.6515, 44.25860
219.1336, 44.45397
219.6157, 44.61107
220.0979, 44.64207
220.5800, 44.60625
221.0621, 44.56852
221.5442, 44.53566
222.0263, 44.50039
222.5084, 44.42968
222.9906, 44.31237
223.4727, 44.28034
223.9548, 44.46104
224.4369, 44.69486
224.9190, 44.90088
225.4011, 45.06944
225.8833, 45.13306
226.3654, 44.94517
226.8475, 44.42213
227.3296, 44.05617
227.8117, 44.00195
228.2939, 44.10633
228.7760, 44.35649
229.2581, 44.73500
229.7402, 45.09718
230.2223, 45.21033
230.7044, 44.95324
231.1866, 44.83732
231.6687, 45.07868
232.1508, 45.35271
232.6329, 45.42693
233.1150, 45.27297
233.5971, 45.06556
234.0793, 45.08330
234.5614, 45.50806
235.0435, 45.70000
235.5256, 45.45257
236.0077, 45.14595
236.4898, 45.00859
236.9720, 45.08179
237.4541, 45.26258
237.9362, 45.41766
238.4183, 45.53772
238.9004, 45.65000
239.3825, 45.81292
239.8647, 45.92752
240.3468, 45.88075
240.8289, 45.68330
241.3110, 45.48104
241.7931, 45.46362
242.2752, 45.72703
242.7574, 45.90487
243.2395, 45.96790
243.7216, 45.98131
244.2037, 45.96001
244.6858, 45.91858
245.1679, 45.90381
245.6501, 45.98603
246.1322, 46.22923
246.6143, 46.27558
247.0964, 45.96407
247.5785, 45.59931
248.0606, 45.38817
248.5428, 45.34356
249.0249, 45.34020
249.5070, 45.25367
249.9891, 45.06429
250.4712, 44.94163
250.9533, 44.95596
251.4355, 44.97844
251.9176, 44.90607
252.3997, 44.74224
252.8818, 44.57896
253.3639, 44.49270
253.8461, 44.48867
254.3282, 44.49063
254.8103, 44.52047
255.2924, 44.53924
255.7745, 44.53056
256.2566, 44.49093
256.7387, 44.38990
257.2209, 44.14602
257.7030, 43.82061
258.1851, 43.73972
258.6672, 44.20962
259.1493, 44.67574
259.6314, 44.72683
260.1136, 44.39323
260.5957, 43.97500
261.0778, 43.58052
261.5599, 43.25700
262.0420, 43.09262
262.5241, 43.20903
263.0063, 43.34151
263.4884, 43.30658
263.9705, 43.11682
264.4526, 42.87004
264.9348, 42.55511
265.4169, 42.25128
265.8990, 42.10037
266.3811, 42.15354
266.8632, 42.24919
267.3453, 42.29766
267.8275, 42.29815
268.3096, 42.22631
268.7917, 41.99196
269.2738, 41.75802
269.7559, 41.75945
270.2380, 42.04425
270.7202, 42.32208
271.2023, 42.38023
271.6844, 42.24603
272.1665, 42.10395
272.6486, 42.00615
273.1307, 41.90720
273.6129, 41.73405
274.0950, 41.48732
274.5771, 41.30180
275.0592, 41.31774
275.5413, 41.49303
276.0234, 41.57313
276.5056, 41.46032
276.9877, 41.32191
277.4698, 41.28963
277.9519, 41.34839
278.4340, 41.42131
278.9161, 41.45984
279.3983, 41.47334
279.8804, 41.50660
280.3625, 41.57160
280.8446, 41.64188
281.3267, 41.70804
281.8088, 41.76683
282.2910, 41.80908
282.7731, 41.80484
283.2552, 41.78099
283.7373, 41.84202
284.2194, 42.05100
284.7015, 42.22496
285.1837, 42.29126
285.6658, 42.27161
286.1479, 42.18341
286.6300, 42.00417
287.1121, 41.79136
287.5942, 41.67192
288.0764, 41.65248
288.5585, 41.71842
289.0406, 42.02152
289.5227, 42.33735
290.0048, 42.36759
290.4869, 41.95312
290.9691, 41.40809
291.4512, 41.33475
291.9333, 41.93507
292.4154, 42.36255
292.8975, 42.26370
293.3796, 41.98797
293.8618, 41.77755
294.3439, 41.69453
294.8260, 41.66665
295.3081, 41.60320
295.7902, 41.49611
296.2723, 41.39233
296.7545, 41.27969
297.2366, 41.18688
297.7187, 41.14902
298.2008, 41.16137
298.6829, 41.16975
299.1650, 41.11403
299.6472, 40.98705
300.1293, 40.85890
300.6114, 40.68681
301.0935, 40.55867
301.5756, 40.55157
302.0577, 40.63340
302.5399, 40.69365
303.0220, 40.61400
303.5041, 40.40535
303.9862, 40.31703
304.4683, 40.42242
304.9504, 40.57619
305.4326, 40.81059
305.9147, 41.04650
306.3968, 41.13417
306.8789, 40.94649
307.3610, 40.56272
307.8431, 40.33125
308.3253, 40.33773
308.8074, 40.37313
309.2895, 40.41733
309.7716, 40.43987
310.2537, 40.39286
310.7358, 40.24827
311.2180, 40.05723
311.7001, 39.95400
312.1822, 40.03085
312.6643, 39.98183
313.1465, 39.56696
313.6286, 39.12329
314.1107, 38.95166
314.5928, 39.12801
315.0749, 39.44744
315.5570, 39.63034
316.0392, 39.65529
316.5213, 39.61783
317.0034, 39.42954
317.4855, 39.25627
317.9676, 39.20021
318.4497, 39.26262
318.9319, 39.36811
319.4140, 39.48122
319.8961, 39.61934
320.3782, 39.59006
320.8603, 39.08158
321.3424, 38.70056
321.8246, 38.75923
322.3067, 39.14251
322.7888, 39.55032
323.2709, 39.79152
323.7530, 39.87123
324.2351, 39.79543
324.7173, 39.35183
325.1994, 39.05551
325.6815, 39.16780
326.1636, 39.48027
326.6457, 39.70568
327.1278, 39.70113
327.6100, 39.53519
328.0921, 39.35606
328.5742, 39.12511
329.0563, 38.96865
329.5384, 38.94810
330.0205, 38.98641
330.5027, 39.02273
330.9848, 39.03952
331.4669, 39.05211
331.9490, 39.09797
332.4311, 39.20156
332.9132, 39.23072
333.3954, 39.06514
333.8775, 38.89295
334.3596, 38.63173
334.8417, 38.87450
335.3238, 39.01673
335.8059, 39.06384
336.2881, 38.73092
336.7702, 38.88873
337.2523, 38.84987
337.7344, 38.80295
338.2165, 39.02983
338.6986, 38.75218
339.1808, 38.97472
339.6629, 38.99759
340.1450, 39.11184
340.6271, 39.02822
341.1092, 39.00571
341.5913, 39.18114
342.0735, 39.24698
342.5556, 39.14057
343.0377, 39.26064
343.5198, 38.97607
344.0019, 39.04657
344.4840, 39.27027
344.9662, 39.17381
345.4483, 39.29749
345.9304, 39.33733
346.4125, 38.99615
346.8946, 39.31760
347.3767, 39.35249
347.8589, 39.09314
348.3410, 39.39188
348.8231, 39.38328
349.3052, 39.51510
349.7873, 39.52148
350.2694, 39.50951
350.7516, 39.56017
351.2337, 39.66043
351.7158, 39.74961
352.1979, 39.81056
352.6800, 39.83406
353.1621, 39.76666
353.6443, 39.54984
354.1264, 39.37531
354.6085, 39.42923
355.0906, 39.58472
355.5727, 39.62875
356.0548, 39.41918
356.5370, 39.15578
357.0191, 39.14485
357.5012, 39.41359
357.9833, 39.63414
358.4654, 39.65564
358.9475, 39.56366
359.4297, 39.44157
359.9118, 39.28046
360.3939, 39.16380
360.8760, 39.13121
361.3581, 39.18848
361.8402, 39.39857
362.3224, 39.87338
362.8045, 40.34905
363.2866, 40.52028
363.7687, 40.41860
364.2509, 40.31504
364.7330, 40.34632
365.2151, 40.43315
365.6972, 40.42887
366.1793, 40.30728
366.6614, 40.17854
367.1436, 40.11352
367.6257, 40.10819
368.1078, 40.15020
368.5899, 40.31771
369.0720, 40.46666
369.5541, 40.41302
370.0363, 40.19812
370.5184, 40.12146
371.0005, 40.39560
371.4826, 40.82771
371.9647, 40.97009
372.4468, 40.72642
372.9290, 40.47644
373.4111, 40.31225
373.8932, 40.25028
374.3753, 40.36255
374.8574, 40.68707
375.3395, 41.06434
375.8217, 41.28639
376.3038, 41.33503
376.7859, 41.38518
377.2680, 41.42145
377.7501, 41.48662
378.2322, 41.63390
378.7144, 41.85757
379.1965, 42.09524
379.6786, 42.31301
380.1607, 42.50452
380.6428, 42.62341
381.1249, 42.60083
381.6071, 42.59200
382.0892, 42.63349
382.5713, 42.72991
383.0534, 42.91246
383.5355, 43.20457
384.0176, 43.52251
384.4998, 43.68160
384.9819, 43.50679
385.4640, 43.45750
385.9461, 43.72100
386.4282, 44.00362
386.9103, 44.00010
387.3925, 43.69666
387.8746, 43.34789
388.3567, 43.22855
388.8388, 43.37064
389.3209, 43.51872
389.8030, 43.77788
390.2852, 43.93786
390.7673, 43.83429
391.2494, 43.57548
391.7315, 43.38039
392.2136, 43.38049
392.6957, 43.52682
393.1779, 43.63496
393.6600, 43.71898
394.1421, 43.73580
394.6242, 43.56803
395.1063, 43.40051
395.5884, 43.44600
396.0706, 43.73709
396.5527, 44.07576
397.0348, 44.17005
397.5169, 43.91951
397.9990, 43.82329
398.4811, 44.19901
398.9633, 44.44054
399.4454, 44.19761
399.9275, 43.60687
400.4096, 43.04393
400.8917, 42.77098
401.3738, 42.72545
401.8560, 42.64081
402.3381, 42.49919
402.8202, 42.35189
403.3023, 42.21177
403.7844, 42.07568
404.2665, 41.93554
404.7487, 41.78773
405.2308, 41.65209
405.7129, 41.55943
406.1950, 41.51170
406.6771, 41.46331
407.1592, 41.41316
407.6414, 41.35302
408.1235, 41.24956
408.6056, 41.11932
409.0877, 41.04836
409.5698, 41.15968
410.0519, 41.35461
410.5341, 41.38265
411.0162, 41.20288
411.4983, 40.99149
411.9804, 40.87799
412.4626, 40.79636
412.9447, 40.61518
413.4268, 40.21267
413.9089, 39.87761
414.3910, 39.94300
414.8731, 40.31421
415.3553, 40.52085
415.8374, 40.37580
416.3195, 40.06564
416.8016, 39.87942
417.2837, 39.83100
417.7658, 39.68568
418.2480, 39.19436
418.7301, 38.67279
419.2122, 38.56521
419.6943, 38.89810
420.1764, 39.22548
420.6585, 39.18261
421.1407, 38.80310
421.6228, 38.54546
422.1049, 38.49933
422.5870, 38.46045
423.0691, 38.31144
423.5512, 38.11965
424.0334, 38.02811
424.5155, 38.09849
424.9976, 38.23385
425.4797, 38.24897
425.9618, 38.04174
426.4439, 37.91719
426.9261, 37.94398
427.4082, 37.99714
427.8903, 37.95564
428.3724, 37.84102
428.8545, 37.79766
429.3366, 37.96427
429.8188, 38.32574
430.3009, 38.52268
430.7830, 38.44144
431.2651, 38.30782
431.7472, 38.09465
432.2293, 37.87114
432.7115, 37.70377
433.1936, 37.61865
433.6757, 37.62471
434.1578, 37.78157
434.6399, 38.18135
435.1220, 38.40224
435.6042, 38.22270
436.0863, 38.01386
436.5684, 37.93858
437.0505, 37.98933
437.5326, 38.08971
438.0147, 38.21284
438.4969, 38.33823
438.9790, 38.38474
439.4611, 38.32379
439.9432, 38.25565
440.4253, 38.15018
440.9074, 38.09142
441.3896, 38.21348
441.8717, 38.57674
442.3538, 38.93523
442.8359, 39.05175
443.3180, 38.96189
443.8001, 38.85884
444.2823, 38.75309
444.7644, 38.69137
445.2465, 38.72121
445.7286, 38.83132
446.2107, 38.99923
446.6928, 39.31632
447.1750, 39.62312
447.6571, 39.70953
448.1392, 39.59814
448.6213, 39.52111
449.1034, 39.59381
449.5855, 39.78847
450.0677, 40.04158
450.5498, 40.40239
451.0319, 40.70782
451.5140, 40.82840
451.9961, 40.91081
452.4782, 41.19168
452.9604, 41.69740
453.4425, 42.16299
453.9246, 42.29010
454.4067, 42.02809
454.8888, 41.96646
455.3709, 42.18449
455.8531, 42.47686
456.3352, 42.81108
456.8173, 43.16017
457.2994, 43.48998
457.7815, 43.78334
458.2636, 44.06239
458.7458, 44.37502
459.2279, 44.72963
459.7100, 45.10450
460.1921, 45.49954
460.6742, 45.91161
461.1564, 46.39734
461.6385, 46.91291
462.1206, 47.30531
462.6027, 47.40713
463.0848, 47.29840
463.5670, 47.41042
464.0491, 47.83634
464.5312, 48.29521
465.0133, 48.80415
465.4954, 49.23870
465.9775, 49.39943
466.4597, 49.21885
466.9418, 49.07027
467.4239, 49.44061
467.9060, 50.21911
468.3881, 50.61590
468.8702, 50.36694
469.3524, 50.01515
469.8345, 49.98882
470.3166, 50.22137
470.7987, 50.56574
471.2808, 51.04836
471.7629, 51.57953
472.2451, 52.04897
472.7272, 52.48256
473.2093, 53.03634
473.6914, 53.81665
474.1735, 54.67596
474.6556, 55.31650
475.1378, 55.68693
475.6199, 56.05642
476.1020, 56.41289
476.5841, 56.82035
477.0662, 57.44628
477.5483, 58.23056
478.0305, 58.83897
478.5126, 58.99324
478.9947, 58.74756
479.4768, 58.57657
479.9589, 58.49948
480.4410, 58.47336
480.9232, 58.58931
481.4053, 58.70336
481.8874, 58.66760
482.3695, 58.44764
482.8516, 58.10986
483.3337, 57.69138
483.8159, 57.15966
484.2980, 56.83166
484.7801, 56.89994
485.2622, 56.96294
485.7443, 56.89673
486.2264, 56.73082
486.7086, 56.52431
487.1907, 56.30460
487.6728, 56.04286
488.1549, 55.63953
488.6370, 55.07718
489.1191, 54.69141
489.6013, 54.72713
490.0834, 54.76579
490.5655, 54.38977
491.0476, 53.65750
491.5297, 52.97461
492.0118, 52.57507
492.4940, 52.27237
492.9761, 51.81572
493.4582, 51.20661
493.9403, 50.62487
494.4224, 50.18003
494.9045, 49.80414
495.3867, 49.33037
495.8688, 48.74903
496.3509, 48.11560
496.8330, 47.33059
497.3151, 46.56177
497.7972, 46.05582
498.2794, 45.80366
498.7615, 45.52557
499.2436, 44.96843
499.7257, 44.15516
500.2078, 43.46933
500.6899, 42.98255
501.1721, 42.53711
501.6542, 42.11082
502.1363, 41.71328
502.6184, 41.36177
503.1005, 41.05774
503.5826, 40.77453
504.0648, 40.49397
504.5469, 40.22318
505.0290, 39.87425
505.5111, 39.27339
505.9932, 38.81691
506.4753, 38.77906
506.9575, 38.94630
507.4396, 38.95799
507.9217, 38.64557
508.4038, 38.26211
508.8859, 38.16728
509.3680, 38.33917
509.8502, 38.37516
510.3323, 38.14164
510.8144, 37.82161
511.2965, 37.55874
511.7787, 37.35403
512.2607, 37.23561
512.7429, 37.31849
513.2250, 37.40507
513.7071, 37.30457
514.1892, 37.05030
514.6713, 36.79496
515.1534, 36.60403
515.6356, 36.45001
516.1177, 36.27308
516.5998, 36.02100
517.0819, 35.86749
517.5640, 35.90334
518.0461, 35.96876
518.5283, 35.98696
519.0104, 35.93821
519.4925, 35.79062
519.9746, 35.50930
520.4567, 35.15255
520.9388, 34.94579
521.4210, 34.98220
521.9031, 34.99760
522.3852, 34.94440
522.8673, 34.87421
523.3494, 34.83514
523.8315, 34.82126
524.3137, 34.77891
524.7958, 34.66103
525.2779, 34.48308
525.7600, 34.28959
526.2421, 34.06690
526.7242, 33.88060
527.2064, 33.76344
527.6885, 33.69979
528.1706, 33.68764
528.6527, 33.74462
529.1348, 33.75464
529.6169, 33.61811
530.0991, 33.41093
530.5812, 33.24023
531.0633, 33.12038
531.5454, 33.08079
532.0275, 33.17857
532.5096, 33.37569
532.9918, 33.40190
533.4739, 33.08068
533.9560, 32.84343
534.4381, 32.85238
534.9202, 32.94941
535.4024, 32.94920
535.8845, 32.82619
536.3666, 32.70079
536.8488, 32.70811
537.3309, 32.84747
537.8130, 32.87217
538.2951, 32.61470
538.7772, 32.46392
539.2593, 32.59793
539.7415, 32.83065
540.2236, 32.96410
540.7057, 32.94728
541.1878, 32.87163
541.6699, 32.79869
542.1520, 32.73683
542.6342, 32.75755
543.1163, 32.89671
543.5984, 33.04276
544.0805, 33.10094
544.5626, 33.12051
545.0447, 33.20023
545.5269, 33.39028
546.0090, 33.57011
546.4911, 33.67562
546.9732, 33.72167
547.4553, 33.70765
547.9374, 33.63292
548.4196, 33.60070
548.9017, 33.72424
549.3838, 34.00867
549.8659, 34.22435
550.3480, 34.38399
550.8301, 34.47494
551.3123, 34.39223
551.7944, 34.28381
552.2765, 34.37983
552.7586, 34.71719
553.2407, 35.06136
553.7228, 35.08970
554.2050, 34.77485
554.6871, 34.65452
555.1692, 34.85435
555.6513, 35.07752
556.1334, 35.15138
556.6155, 35.20847
557.0977, 35.47147
557.5798, 36.03146
558.0619, 36.54870
558.5440, 36.65990
559.0261, 36.46580
559.5082, 36.33876
559.9904, 36.33291
560.4725, 36.37730
560.9546, 36.43113
561.4367, 36.49245
561.9188, 36.55223
562.4009, 36.66678
562.8831, 36.70857
563.3652, 36.55525
563.8473, 36.33162
564.3294, 36.20757
564.8115, 36.21884
565.2936, 36.31315
565.7758, 36.46300
566.2579, 36.66972
566.7400, 36.67989
567.2221, 36.30608
567.7042, 35.95179
568.1863, 35.65749
568.6685, 35.42986
569.1506, 35.28794
569.6327, 35.23038
570.1148, 35.21018
570.5969, 35.19120
571.0790, 35.17262
571.5612, 35.13813
572.0433, 35.06369
572.5254, 35.04455
573.0075, 35.18641
573.4896, 35.38887
573.9717, 35.48769
574.4539, 35.43035
574.9360, 35.41363
575.4181, 35.55987
575.9002, 35.78880
576.3823, 35.98757
576.8644, 36.14618
577.3466, 36.31909
577.8287, 36.55477
578.3108, 36.82950
578.7929, 37.02559
579.2750, 37.01071
579.7571, 37.09194
580.2393, 37.38477
580.7214, 37.70426
581.2035, 37.83201
581.6856, 37.81850
582.1677, 37.96450
582.6498, 38.55330
583.1320, 39.41148
583.6141, 39.89603
584.0962, 39.88926
584.5783, 39.91656
585.0604, 40.12688
585.5425, 40.42675
586.0247, 40.72214
586.5068, 41.01886
586.9889, 41.40689
587.4710, 42.01069
587.9531, 42.67072
588.4352, 43.16035
588.9174, 43.51408
589.3995, 43.99840
589.8816, 44.77345
590.3637, 45.59526
590.8458, 46.02952
591.3279, 45.89724
591.8101, 45.86189
