##NAMES=Zwieselite
##RRUFFID=R050279
##IDEAL CHEMISTRY=Fe^2+^_2_PO_4_F
##LOCALITY=Cornelia mine, Hagendorf, Bavaria, Germany
##OWNER=RRUFF
##SOURCE=Marcus Origlieri
##DESCRIPTION=Brown massive associated with bluish-gray triphylite R050366
##STATUS=The identification of this mineral has been confirmed by X-ray diffraction and chemical analysis
##URL=rruff.info/R050279
##MEASURED CHEMISTRY=(Fe^2+^_1.08_Mn^2+^_0.86_Ca_0.06_)_Î£=2_(P_1.00_O_4_)F_1.00_
134.6170, 317.2159
135.0991, 317.2407
135.5812, 318.0342
136.0633, 319.4451
136.5455, 320.5985
137.0276, 320.6690
137.5097, 319.8593
137.9918, 319.5166
138.4739, 320.0349
138.9560, 320.8918
139.4382, 321.6161
139.9203, 322.2144
140.4024, 322.5540
140.8845, 322.2153
141.3666, 321.5405
141.8487, 321.1765
142.3309, 321.7372
142.8130, 322.8693
143.2951, 323.2808
143.7772, 322.2475
144.2593, 321.5013
144.7414, 322.2643
145.2236, 324.0102
145.7057, 325.4355
146.1878, 325.2657
146.6699, 323.3520
147.1520, 322.3372
147.6341, 323.1346
148.1163, 324.1302
148.5984, 324.8315
149.0805, 325.1978
149.5626, 325.4264
150.0447, 325.7314
150.5268, 326.1650
151.0090, 326.5143
151.4911, 326.8892
151.9732, 327.1221
152.4553, 327.0529
152.9374, 326.6762
153.4195, 326.1587
153.9017, 325.7412
154.3838, 325.4780
154.8659, 325.2283
155.3480, 324.9093
155.8301, 324.6358
156.3122, 324.6103
156.7944, 324.9221
157.2765, 325.2909
157.7586, 325.1312
158.2407, 324.3343
158.7228, 323.6001
159.2049, 323.2090
159.6871, 323.0231
160.1692, 322.7061
160.6513, 322.0836
161.1334, 321.3788
161.6155, 320.9101
162.0976, 320.6848
162.5798, 320.5995
163.0619, 320.6776
163.5440, 320.9001
164.0261, 320.9922
164.5082, 320.7776
164.9903, 320.4459
165.4725, 320.1095
165.9546, 319.7685
166.4367, 319.5509
166.9188, 319.6778
167.4009, 320.2610
167.8830, 320.7313
168.3652, 320.8677
168.8473, 320.8965
169.3294, 320.9524
169.8115, 321.0786
170.2936, 321.2701
170.7757, 321.5664
171.2579, 322.2323
171.7400, 322.4828
172.2221, 322.0524
172.7042, 321.3161
173.1863, 320.6028
173.6684, 320.0579
174.1506, 319.6256
174.6327, 319.1389
175.1148, 318.7016
175.5969, 318.0612
176.0790, 316.9743
176.5611, 315.7310
177.0433, 314.7451
177.5254, 314.2558
178.0075, 314.1088
178.4896, 313.5345
178.9717, 312.3897
179.4538, 311.0475
179.9360, 309.3869
180.4181, 307.5856
180.9002, 306.0288
181.3823, 304.9853
181.8644, 304.3401
182.3465, 303.5123
182.8287, 302.3983
183.3108, 301.2392
183.7929, 300.0920
184.2750, 298.9746
184.7571, 297.9866
185.2392, 297.2795
185.7214, 296.7126
186.2035, 295.8535
186.6856, 294.3437
187.1677, 292.8784
187.6498, 292.2432
188.1319, 292.4809
188.6141, 292.5059
189.0962, 291.4773
189.5783, 289.9226
190.0604, 288.5312
190.5425, 287.4482
191.0246, 286.5879
191.5068, 285.8097
191.9889, 285.0793
192.4710, 284.5601
192.9531, 284.5413
193.4352, 284.6930
193.9173, 284.6916
194.3995, 284.4397
194.8816, 283.9266
195.3637, 283.0402
195.8458, 281.4334
196.3279, 280.1158
196.8100, 279.4694
197.2922, 279.1837
197.7743, 278.9418
198.2564, 278.6020
198.7385, 278.1510
199.2206, 277.5259
199.7027, 276.5182
200.1849, 275.5954
200.6670, 274.7972
201.1491, 274.1461
201.6312, 273.6886
202.1133, 273.4641
202.5954, 273.4311
203.0776, 273.3447
203.5597, 273.1009
204.0418, 272.9134
204.5239, 272.7581
205.0060, 272.6895
205.4881, 272.8641
205.9703, 273.4188
206.4524, 274.2521
206.9345, 274.4301
207.4166, 273.3002
207.8987, 272.3053
208.3808, 271.9694
208.8630, 272.0626
209.3451, 272.0270
209.8272, 271.4748
210.3093, 270.5205
210.7914, 270.0354
211.2735, 270.2501
211.7557, 270.5863
212.2378, 270.9502
212.7199, 271.2761
213.2020, 271.3637
213.6841, 271.0249
214.1662, 270.3676
214.6484, 269.9299
215.1305, 269.8575
215.6126, 269.8390
216.0947, 269.7247
216.5768, 269.5205
217.0589, 269.2496
217.5410, 268.8601
218.0232, 268.4469
218.5053, 268.2414
218.9874, 268.3760
219.4695, 268.5618
219.9516, 268.5585
220.4337, 268.3708
220.9159, 268.1891
221.3980, 268.1802
221.8801, 268.1903
222.3622, 267.9625
222.8443, 267.3343
223.3264, 266.7006
223.8086, 266.5170
224.2907, 266.8243
224.7728, 267.1703
225.2549, 267.6205
225.7370, 267.8867
226.2191, 267.5901
226.7013, 266.5448
227.1834, 265.2843
227.6655, 264.4876
228.1476, 264.2373
228.6297, 264.0992
229.1118, 263.9007
229.5940, 263.7846
230.0761, 263.9350
230.5582, 264.4168
231.0403, 264.9641
231.5224, 265.1587
232.0045, 264.8924
232.4867, 264.5871
232.9688, 264.0861
233.4509, 263.7154
233.9330, 263.8349
234.4151, 264.5243
234.8972, 265.3777
235.3794, 265.7109
235.8615, 265.2612
236.3436, 264.8836
236.8257, 264.5478
237.3078, 264.3673
237.7899, 264.4773
238.2721, 264.8934
238.7542, 265.4578
239.2363, 265.8887
239.7184, 265.9964
240.2005, 266.3663
240.6826, 267.4121
241.1648, 268.4178
241.6469, 268.7192
242.1290, 268.2320
242.6111, 267.5173
243.0932, 267.4777
243.5753, 268.7611
244.0575, 269.3851
244.5396, 268.7557
245.0217, 267.9558
245.5038, 267.8788
245.9859, 268.6372
246.4680, 269.5813
246.9502, 269.8159
247.4323, 268.9354
247.9144, 268.3073
248.3965, 268.0448
248.8786, 267.9289
249.3607, 267.7938
249.8429, 267.6169
250.3250, 267.4990
250.8071, 267.5738
251.2892, 267.9214
251.7713, 268.1775
252.2534, 268.3386
252.7356, 268.4132
253.2177, 268.4528
253.6998, 268.4458
254.1819, 268.2562
254.6640, 267.7013
255.1461, 266.7009
255.6283, 265.8730
256.1104, 265.1964
256.5925, 264.7084
257.0746, 264.4876
257.5567, 264.5238
258.0388, 264.6801
258.5210, 264.9389
259.0031, 265.2679
259.4852, 265.1205
259.9673, 264.1255
260.4494, 262.9335
260.9315, 261.9374
261.4137, 261.1651
261.8958, 260.6336
262.3779, 260.4097
262.8600, 260.4635
263.3421, 260.4864
263.8242, 260.4290
264.3064, 260.3723
264.7885, 260.3568
265.2706, 260.3839
265.7527, 260.5024
266.2348, 260.8679
266.7169, 261.2895
267.1991, 261.2641
267.6812, 260.3825
268.1633, 259.5309
268.6454, 259.5080
269.1275, 260.2243
269.6096, 260.7556
270.0918, 260.6049
270.5739, 260.0492
271.0560, 259.6404
271.5381, 259.4193
272.0202, 259.2759
272.5023, 259.1676
272.9845, 259.0866
273.4666, 258.9518
273.9487, 258.6447
274.4308, 258.3629
274.9129, 258.4381
275.3951, 258.9632
275.8772, 259.3024
276.3593, 258.8402
276.8414, 257.7211
277.3235, 256.8827
277.8056, 256.6436
278.2878, 256.6733
278.7699, 256.6473
279.2520, 256.5653
279.7341, 256.4396
280.2162, 256.3142
280.6983, 256.1632
281.1805, 255.8361
281.6626, 255.1953
282.1447, 254.5366
282.6268, 254.1052
283.1089, 253.8582
283.5910, 253.6195
284.0732, 253.3035
284.5553, 252.9187
285.0374, 252.4746
285.5195, 251.9077
286.0016, 251.3966
286.4837, 251.0898
286.9659, 250.9098
287.4480, 250.6890
287.9301, 250.2623
288.4122, 249.7554
288.8943, 249.5404
289.3764, 249.7307
289.8586, 249.9732
290.3407, 250.2243
290.8228, 250.3934
291.3049, 250.3136
291.7870, 249.8267
292.2691, 249.1759
292.7513, 248.8311
293.2334, 248.8838
293.7155, 248.9977
294.1976, 249.0787
294.6797, 249.1456
295.1618, 249.2370
295.6440, 249.3782
296.1261, 249.4788
296.6082, 249.3739
297.0903, 249.0032
297.5724, 248.6805
298.0545, 248.4709
298.5367, 248.3470
299.0188, 248.3289
299.5009, 248.4165
299.9830, 248.5162
300.4651, 248.5307
300.9472, 248.4551
301.4294, 248.3271
301.9115, 248.0515
302.3936, 247.8022
302.8757, 247.6360
303.3578, 247.5708
303.8399, 247.6449
304.3221, 248.0222
304.8042, 248.7121
305.2863, 249.0262
305.7684, 248.6692
306.2505, 248.1998
306.7326, 247.7746
307.2148, 247.4420
307.6969, 247.2832
308.1790, 247.3908
308.6611, 247.7277
309.1432, 248.0782
309.6253, 248.5399
310.1075, 248.8603
310.5896, 248.9741
311.0717, 248.9034
311.5538, 248.6680
312.0359, 248.2566
312.5180, 247.7159
313.0002, 247.1223
313.4823, 246.3271
313.9644, 245.8022
314.4465, 245.8522
314.9286, 246.1113
315.4107, 246.2328
315.8929, 246.0972
316.3750, 245.7971
316.8571, 245.4581
317.3392, 245.0499
317.8213, 244.6918
318.3034, 244.3950
318.7856, 244.1616
319.2677, 244.0757
319.7498, 244.1249
320.2319, 244.0862
320.7140, 243.6006
321.1961, 242.5728
321.6783, 241.8835
322.1604, 242.1028
322.6425, 242.2559
323.1246, 241.8235
323.6067, 240.8748
324.0888, 239.8098
324.5710, 238.8396
325.0531, 237.9849
325.5352, 237.5258
326.0173, 237.8384
326.4994, 238.0852
326.9815, 237.8966
327.4637, 237.4126
327.9458, 236.8674
328.4279, 236.3236
328.9100, 235.8624
329.3921, 235.8053
329.8742, 236.4703
330.3564, 236.8828
330.8385, 236.5703
331.3206, 235.9412
331.8027, 235.4246
332.2848, 235.1803
332.7669, 235.0440
333.2491, 234.7403
333.7312, 234.2080
334.2133, 233.7423
334.6954, 233.4210
335.1775, 233.1897
335.6596, 233.0867
336.1418, 233.1010
336.6239, 233.0435
337.1060, 232.6016
337.5881, 231.7544
338.0702, 231.2778
338.5523, 231.5864
339.0345, 231.9578
339.5165, 231.9892
339.9987, 231.7229
340.4808, 231.3765
340.9629, 231.0359
341.4450, 230.7216
341.9271, 230.5938
342.4092, 230.8409
342.8914, 230.9362
343.3735, 230.4690
343.8556, 229.7294
344.3377, 229.1878
344.8198, 229.1013
345.3019, 229.2365
345.7841, 229.1593
346.2662, 228.8068
346.7483, 228.4902
347.2304, 228.3451
347.7125, 228.2927
348.1946, 228.3548
348.6768, 228.5840
349.1589, 228.6304
349.6410, 227.8779
350.1231, 226.3418
350.6052, 225.4583
351.0873, 226.0588
351.5695, 226.9312
352.0516, 226.9671
352.5337, 226.2087
353.0158, 225.4938
353.4979, 225.4018
353.9800, 225.7755
354.4622, 226.1283
354.9443, 226.5179
355.4264, 226.6669
355.9085, 226.1152
356.3906, 225.1746
356.8727, 224.5740
357.3549, 224.9198
357.8370, 225.5416
358.3191, 225.2801
358.8012, 223.9922
359.2833, 223.0731
359.7654, 223.6229
360.2476, 224.8381
360.7297, 225.4350
361.2118, 225.1081
361.6939, 224.5244
362.1760, 224.1101
362.6581, 223.8547
363.1403, 223.7258
363.6224, 223.7798
364.1045, 223.8701
364.5866, 223.7767
365.0687, 223.4901
365.5508, 223.2478
366.0330, 223.1647
366.5151, 223.1843
366.9972, 223.2248
367.4793, 223.2822
367.9614, 223.3098
368.4435, 223.2180
368.9257, 223.0388
369.4078, 222.9714
369.8899, 223.1406
370.3720, 223.3609
370.8541, 223.4180
371.3362, 223.3395
371.8184, 223.4405
372.3005, 224.0429
372.7826, 224.8716
373.2647, 225.0028
373.7468, 223.9547
374.2289, 223.0375
374.7111, 222.8362
375.1932, 223.1172
375.6753, 223.4699
376.1574, 223.7787
376.6395, 224.0054
377.1216, 224.0526
377.6038, 223.8458
378.0859, 223.7485
378.5680, 223.8835
379.0501, 224.0872
379.5322, 224.2216
380.0143, 224.2683
380.4965, 224.2588
380.9786, 224.1974
381.4607, 224.0820
381.9428, 224.1299
382.4249, 224.3460
382.9070, 224.6931
383.3892, 225.3140
383.8713, 226.0488
384.3534, 226.5274
384.8355, 226.5357
385.3176, 226.2651
385.7997, 226.2790
386.2819, 227.0175
386.7640, 227.4973
387.2461, 227.4191
387.7282, 227.2171
388.2103, 227.3414
388.6924, 227.8713
389.1746, 228.5108
389.6567, 228.8840
390.1388, 228.8929
390.6209, 229.0219
391.1030, 229.2346
391.5851, 229.5752
392.0673, 230.1346
392.5494, 230.8418
393.0315, 231.5040
393.5136, 231.9569
393.9957, 232.2948
394.4778, 233.0928
394.9600, 235.0078
395.4421, 236.5044
395.9242, 236.9385
396.4063, 237.0666
396.8884, 237.7536
397.3705, 239.2586
397.8527, 241.0345
398.3348, 242.1315
398.8169, 242.2113
399.2990, 242.8347
399.7811, 244.4419
400.2632, 246.3412
400.7454, 248.3378
401.2275, 250.3540
401.7096, 252.2918
402.1917, 253.9990
402.6738, 255.5426
403.1559, 257.3673
403.6381, 259.5935
404.1202, 261.8922
404.6023, 264.0970
405.0844, 266.2999
405.5665, 268.5757
406.0486, 270.8934
406.5308, 273.4754
407.0129, 276.8366
407.4950, 281.0660
407.9771, 284.8681
408.4592, 287.5922
408.9413, 290.1040
409.4235, 293.2089
409.9056, 296.9023
410.3877, 300.5067
410.8698, 303.5556
411.3519, 306.2570
411.8340, 309.1414
412.3162, 312.2545
412.7983, 315.5810
413.2804, 319.2151
413.7625, 323.0656
414.2446, 326.8973
414.7267, 330.7276
415.2089, 334.4682
415.6910, 337.9865
416.1731, 341.3155
416.6552, 344.6175
417.1373, 347.9291
417.6194, 351.2825
418.1016, 354.8666
418.5837, 358.8578
419.0658, 362.2977
419.5479, 364.3307
420.0300, 365.9546
420.5121, 368.5360
420.9943, 372.2544
421.4764, 376.1085
421.9585, 379.2812
422.4406, 381.7177
422.9227, 383.6003
423.4048, 384.6600
423.8870, 385.4917
424.3691, 386.7061
424.8512, 387.8506
425.3333, 388.0322
425.8154, 386.8387
426.2975, 384.4428
426.7797, 381.1718
427.2618, 376.5685
427.7439, 371.7106
428.2260, 366.8211
428.7081, 361.5499
429.1902, 355.4174
429.6724, 348.5044
430.1545, 341.3510
430.6366, 334.4189
431.1187, 327.7348
431.6008, 321.2868
432.0829, 315.0176
432.5651, 309.0312
433.0472, 303.2564
433.5293, 297.7966
434.0114, 292.7554
434.4935, 288.2083
434.9756, 284.0429
435.4578, 280.0190
435.9399, 276.0210
436.4220, 272.5890
436.9041, 270.2137
437.3862, 268.0808
437.8683, 265.7904
438.3505, 263.3326
438.8326, 260.8875
439.3147, 258.4087
439.7968, 256.0345
440.2789, 254.4503
440.7610, 253.9878
441.2432, 253.5623
441.7253, 252.4893
442.2074, 251.1929
442.6895, 250.2304
443.1716, 249.8402
443.6537, 249.5013
444.1359, 248.5695
444.6180, 247.1804
445.1001, 246.2150
445.5822, 245.9854
446.0643, 246.0940
446.5464, 246.2186
447.0286, 246.3485
447.5107, 246.2105
447.9928, 245.4258
448.4749, 244.5265
448.9570, 244.1150
449.4391, 244.1861
449.9213, 244.3821
450.4034, 244.5865
450.8855, 244.6989
451.3676, 244.3060
451.8497, 242.9463
452.3318, 241.8745
452.8140, 241.7794
453.2961, 241.9945
453.7782, 241.5346
454.2603, 240.1973
454.7424, 238.7747
455.2245, 238.2625
455.7067, 238.9627
456.1888, 238.7683
456.6709, 236.9342
457.1530, 235.1409
457.6351, 234.1676
458.1172, 233.7215
458.5994, 233.1541
459.0815, 232.1230
459.5636, 230.8216
460.0457, 229.7733
460.5278, 229.2847
461.0099, 228.4145
461.4921, 226.7506
461.9742, 224.9993
462.4563, 223.4902
462.9384, 222.3143
463.4205, 221.5538
463.9026, 221.5200
464.3848, 222.0149
464.8669, 221.6113
465.3490, 219.8482
465.8311, 218.0525
466.3132, 216.5441
466.7953, 215.3736
467.2775, 214.7324
467.7596, 214.7636
468.2417, 214.8358
468.7238, 214.2559
469.2059, 213.1139
469.6880, 212.1292
470.1702, 211.4919
470.6523, 210.9375
471.1344, 210.0957
471.6165, 209.0738
472.0986, 208.4038
472.5807, 208.6273
473.0629, 208.9550
473.5450, 208.5656
474.0271, 207.5632
474.5092, 206.5914
474.9913, 205.9500
475.4734, 205.5346
475.9556, 205.1251
476.4377, 204.7340
476.9198, 204.3208
477.4019, 203.8955
477.8840, 203.4375
478.3661, 202.9209
478.8483, 202.3467
479.3304, 201.7317
479.8125, 201.0531
480.2946, 200.3334
480.7767, 199.9060
481.2589, 200.0840
481.7410, 200.1844
482.2231, 200.0215
482.7052, 199.7611
483.1873, 199.6539
483.6694, 199.7469
484.1516, 199.7834
484.6337, 199.3169
485.1158, 198.1800
485.5979, 197.5359
486.0800, 197.9199
486.5621, 198.2363
487.0443, 198.0794
487.5264, 197.5567
488.0085, 196.8391
488.4906, 195.9185
488.9727, 195.0532
489.4548, 194.7941
489.9370, 195.2019
490.4191, 195.2395
490.9012, 194.2487
491.3833, 193.1985
491.8654, 193.1112
492.3475, 193.9176
492.8297, 194.7019
493.3118, 195.2942
493.7939, 195.5439
494.2760, 194.9622
494.7581, 193.5900
495.2402, 192.6644
495.7224, 193.0632
496.2045, 194.2541
496.6866, 194.5862
497.1687, 193.6899
497.6508, 192.8499
498.1329, 192.3618
498.6151, 192.0736
499.0972, 191.8168
499.5793, 191.5678
500.0614, 191.4132
500.5435, 191.4498
501.0256, 191.6740
501.5078, 191.8061
501.9899, 191.9134
502.4720, 191.8456
502.9541, 191.3593
503.4362, 190.7780
503.9183, 190.4768
504.4004, 190.5625
504.8825, 190.8697
505.3647, 191.2339
505.8468, 191.6811
506.3289, 192.0083
506.8110, 192.3969
507.2931, 192.4132
507.7752, 191.5332
508.2574, 190.2510
508.7395, 189.4598
509.2216, 189.5964
509.7037, 190.1209
510.1858, 190.3928
510.6679, 190.4244
511.1501, 190.4686
511.6322, 190.6663
512.1143, 190.7740
512.5964, 190.3237
513.0786, 189.4230
513.5607, 188.9870
514.0428, 189.6114
514.5249, 190.5250
515.0070, 191.1935
515.4891, 191.5702
515.9713, 191.4972
516.4534, 190.8247
516.9355, 189.8602
517.4176, 189.2694
517.8997, 189.1476
518.3818, 189.2417
518.8640, 189.8380
519.3461, 190.4169
519.8282, 190.5312
520.3103, 190.2622
520.7924, 190.0230
521.2745, 190.1130
521.7567, 190.4226
522.2388, 190.4554
522.7209, 189.8947
523.2030, 189.6479
523.6851, 190.1648
524.1672, 190.7559
524.6494, 190.8883
525.1315, 190.5441
525.6136, 190.0873
526.0957, 189.6911
526.5778, 189.4121
527.0599, 189.5382
527.5421, 190.2161
528.0242, 190.7887
528.5063, 190.9621
528.9884, 190.8468
529.4705, 190.5227
529.9526, 189.9196
530.4348, 189.4683
530.9169, 189.5253
531.3990, 189.8390
531.8811, 190.0200
532.3632, 190.0149
532.8453, 189.8413
533.3275, 189.4429
533.8096, 188.8802
534.2917, 188.6504
534.7738, 189.0659
535.2559, 189.3591
535.7380, 189.1848
536.2202, 188.8901
536.7023, 188.9006
537.1844, 189.2762
537.6665, 189.7495
538.1486, 190.0727
538.6307, 190.2474
539.1129, 190.1065
539.5950, 189.2056
540.0771, 188.5745
540.5592, 188.4974
541.0413, 188.7854
541.5234, 189.2991
542.0056, 189.9908
542.4877, 190.6781
542.9698, 191.2020
543.4519, 191.5628
543.9340, 191.7524
544.4161, 191.7419
544.8983, 191.6264
545.3804, 191.3486
545.8625, 191.0277
546.3446, 190.8998
546.8267, 191.0277
547.3088, 191.2959
547.7910, 191.6680
548.2731, 192.1276
548.7552, 192.6712
549.2373, 193.2963
549.7194, 193.9372
550.2015, 194.5543
550.6837, 195.1499
551.1658, 195.5325
551.6479, 195.5224
552.1300, 195.5488
552.6121, 195.5649
553.0942, 195.7568
553.5764, 196.4703
554.0585, 197.7437
554.5406, 199.0978
555.0227, 199.8943
555.5048, 200.0808
555.9869, 200.6262
556.4691, 201.9785
556.9512, 203.0544
557.4333, 203.2206
557.9154, 203.0269
558.3975, 203.1756
558.8796, 203.8721
559.3618, 204.7856
559.8439, 205.6118
560.3260, 206.4034
560.8081, 207.4447
561.2902, 208.8799
561.7723, 210.1052
562.2545, 210.5219
562.7366, 210.3248
563.2187, 210.5239
563.7008, 211.4277
564.1829, 212.3460
564.6650, 212.8946
565.1472, 213.3472
565.6293, 214.1850
566.1114, 215.4632
566.5935, 216.7032
567.0756, 217.4192
567.5577, 217.6130
568.0399, 217.8066
568.5220, 217.9116
569.0041, 218.1282
569.4862, 218.5766
569.9683, 219.1011
570.4504, 219.5504
570.9326, 219.8947
571.4147, 220.1810
571.8968, 220.4551
572.3789, 220.7128
572.8610, 220.9208
573.3431, 221.0510
573.8253, 221.2070
574.3074, 221.3343
574.7895, 221.5745
575.2716, 222.2202
575.7537, 223.4356
576.2358, 224.4379
576.7180, 224.5560
577.2001, 224.3658
577.6822, 224.7031
578.1643, 225.6318
578.6464, 226.6921
579.1285, 227.5247
579.6107, 228.2797
580.0928, 229.6115
580.5749, 232.4082
581.0570, 234.5997
581.5391, 235.6109
582.0212, 236.3834
582.5034, 237.5935
582.9855, 239.2873
583.4676, 241.1755
583.9497, 243.0568
584.4318, 244.9871
584.9139, 247.1451
585.3961, 249.5813
585.8782, 252.1048
586.3602, 254.7328
586.8423, 257.3809
587.3245, 259.9747
587.8066, 262.5071
588.2887, 264.9582
588.7708, 267.1245
589.2529, 269.3340
589.7350, 272.0135
590.2172, 275.1080
590.6993, 278.2681
591.1814, 281.3943
591.6635, 284.4234
592.1456, 287.2223
592.6277, 289.7059
593.1099, 292.1784
593.5920, 294.5571
594.0741, 297.0087
594.5562, 299.7487
595.0383, 302.5938
595.5204, 305.2331
596.0026, 307.5261
596.4847, 309.6126
596.9668, 311.7403
597.4489, 313.9231
597.9310, 316.0192
598.4131, 318.2396
598.8953, 320.0523
599.3774, 321.0549
599.8595, 321.5677
600.3416, 322.1031
600.8237, 322.7546
601.3058, 323.5568
601.7880, 324.7742
602.2701, 326.1375
602.7522, 326.8230
603.2343, 326.6546
603.7164, 326.6175
604.1985, 327.6086
604.6807, 329.4477
605.1628, 330.6382
605.6449, 330.9158
606.1270, 330.9967
606.6091, 331.0766
607.0912, 330.9623
607.5734, 330.6767
608.0555, 330.0760
608.5376, 328.6393
609.0197, 325.8154
609.5018, 321.9633
609.9839, 318.6429
610.4661, 316.3009
610.9482, 313.2080
611.4303, 308.5055
611.9124, 303.2006
612.3945, 298.0033
612.8766, 292.9229
613.3588, 287.6561
613.8409, 282.0444
614.3230, 276.1894
614.8051, 269.9796
615.2872, 263.5607
615.7693, 257.7280
616.2515, 252.8111
616.7336, 248.5267
617.2157, 244.6040
617.6978, 241.1555
618.1799, 237.3777
618.6620, 232.6240
619.1442, 228.2882
619.6263, 225.1926
620.1084, 222.7474
620.5905, 220.0769
621.0726, 216.9065
621.5547, 213.7436
622.0369, 211.2052
622.5190, 209.2738
623.0011, 207.4469
623.4832, 205.7262
623.9653, 204.1079
624.4474, 202.6465
624.9296, 201.2750
625.4117, 199.8984
625.8938, 198.4992
626.3759, 197.1554
626.8580, 195.9015
627.3401, 194.7161
627.8223, 193.5517
628.3044, 192.4184
628.7865, 191.3899
629.2686, 190.5024
629.7507, 189.7636
