##NAMES=Davyne
##RRUFFID=R140771
##IDEAL CHEMISTRY=(Na,K)_6_Ca_2_(Si_6_Al_6_)O_24_Cl_3_(S^6+^O_4_)_0.5_
##LOCALITY=Monte Somma, Somma-Vesuvius Complex, Naples Province, Campania, Italy
##OWNER=RRUFF
##SOURCE=Ch. and H. Sch√§fer
##DESCRIPTION=Colorless, associated with calcite
##STATUS=The identification of this mineral has been confirmed only by single crystal X-ray diffraction.
##URL=rruff.info/R140771
9.059570e+001, 5.852035e+002
9.107782e+001, 5.807721e+002
9.155994e+001, 5.792249e+002
9.204205e+001, 5.825198e+002
9.252417e+001, 5.873793e+002
9.300629e+001, 5.927362e+002
9.348840e+001, 5.951426e+002
9.397052e+001, 5.909659e+002
9.445264e+001, 5.792567e+002
9.493475e+001, 5.678864e+002
9.541687e+001, 5.572428e+002
9.589898e+001, 5.481979e+002
9.638110e+001, 5.399042e+002
9.686321e+001, 5.314225e+002
9.734533e+001, 5.219630e+002
9.782745e+001, 5.110891e+002
9.830956e+001, 5.022472e+002
9.879168e+001, 4.955816e+002
9.927380e+001, 4.901458e+002
9.975591e+001, 4.862240e+002
1.002380e+002, 4.832855e+002
1.007201e+002, 4.800273e+002
1.012023e+002, 4.754818e+002
1.016844e+002, 4.700102e+002
1.021665e+002, 4.652928e+002
1.026486e+002, 4.614340e+002
1.031307e+002, 4.581245e+002
1.036128e+002, 4.550888e+002
1.040950e+002, 4.522535e+002
1.045771e+002, 4.498185e+002
1.050592e+002, 4.478628e+002
1.055413e+002, 4.462395e+002
1.060234e+002, 4.448492e+002
1.065055e+002, 4.437016e+002
1.069877e+002, 4.427331e+002
1.074698e+002, 4.417967e+002
1.079519e+002, 4.414107e+002
1.084340e+002, 4.402773e+002
1.089161e+002, 4.376557e+002
1.093982e+002, 4.338658e+002
1.098804e+002, 4.297194e+002
1.103625e+002, 4.258184e+002
1.108446e+002, 4.221286e+002
1.113267e+002, 4.189389e+002
1.118088e+002, 4.161043e+002
1.122909e+002, 4.138008e+002
1.127731e+002, 4.123564e+002
1.132552e+002, 4.117010e+002
1.137373e+002, 4.113181e+002
1.142194e+002, 4.104598e+002
1.147015e+002, 4.085811e+002
1.151836e+002, 4.071922e+002
1.156658e+002, 4.067005e+002
1.161479e+002, 4.064814e+002
1.166300e+002, 4.059389e+002
1.171121e+002, 4.048558e+002
1.175942e+002, 4.033936e+002
1.180763e+002, 4.018836e+002
1.185584e+002, 4.002567e+002
1.190406e+002, 3.987179e+002
1.195227e+002, 3.973589e+002
1.200048e+002, 3.961396e+002
1.204869e+002, 3.948809e+002
1.209690e+002, 3.933183e+002
1.214511e+002, 3.918706e+002
1.219333e+002, 3.912468e+002
1.224154e+002, 3.917217e+002
1.228975e+002, 3.925357e+002
1.233796e+002, 3.931931e+002
1.238617e+002, 3.937254e+002
1.243438e+002, 3.938287e+002
1.248260e+002, 3.933106e+002
1.253081e+002, 3.922833e+002
1.257902e+002, 3.906103e+002
1.262723e+002, 3.879897e+002
1.267544e+002, 3.850274e+002
1.272365e+002, 3.831696e+002
1.277187e+002, 3.829694e+002
1.282008e+002, 3.830405e+002
1.286829e+002, 3.829803e+002
1.291650e+002, 3.828745e+002
1.296471e+002, 3.828879e+002
1.301292e+002, 3.831832e+002
1.306114e+002, 3.837116e+002
1.310935e+002, 3.837227e+002
1.315756e+002, 3.827231e+002
1.320577e+002, 3.816507e+002
1.325398e+002, 3.806944e+002
1.330219e+002, 3.798521e+002
1.335041e+002, 3.790211e+002
1.339862e+002, 3.780681e+002
1.344683e+002, 3.768969e+002
1.349504e+002, 3.763413e+002
1.354325e+002, 3.767373e+002
1.359146e+002, 3.773461e+002
1.363968e+002, 3.778085e+002
1.368789e+002, 3.780671e+002
1.373610e+002, 3.781874e+002
1.378431e+002, 3.781922e+002
1.383252e+002, 3.780260e+002
1.388073e+002, 3.780854e+002
1.392895e+002, 3.784565e+002
1.397716e+002, 3.790375e+002
1.402537e+002, 3.798827e+002
1.407358e+002, 3.811246e+002
1.412179e+002, 3.821395e+002
1.417000e+002, 3.819618e+002
1.421821e+002, 3.807245e+002
1.426643e+002, 3.792568e+002
1.431464e+002, 3.775464e+002
1.436285e+002, 3.757934e+002
1.441106e+002, 3.748002e+002
1.445927e+002, 3.752362e+002
1.450748e+002, 3.759502e+002
1.455570e+002, 3.757909e+002
1.460391e+002, 3.747534e+002
1.465212e+002, 3.737140e+002
1.470033e+002, 3.735619e+002
1.474854e+002, 3.744183e+002
1.479675e+002, 3.749688e+002
1.484497e+002, 3.746462e+002
1.489318e+002, 3.741355e+002
1.494139e+002, 3.737903e+002
1.498960e+002, 3.736862e+002
1.503781e+002, 3.736675e+002
1.508602e+002, 3.734926e+002
1.513424e+002, 3.730509e+002
1.518245e+002, 3.726908e+002
1.523066e+002, 3.725029e+002
1.527887e+002, 3.723612e+002
1.532708e+002, 3.720825e+002
1.537529e+002, 3.716137e+002
1.542351e+002, 3.711534e+002
1.547172e+002, 3.712119e+002
1.551993e+002, 3.724991e+002
1.556814e+002, 3.734886e+002
1.561635e+002, 3.742846e+002
1.566456e+002, 3.747010e+002
1.571278e+002, 3.743897e+002
1.576099e+002, 3.731374e+002
1.580920e+002, 3.712275e+002
1.585741e+002, 3.698781e+002
1.590562e+002, 3.695379e+002
1.595383e+002, 3.691596e+002
1.600205e+002, 3.683001e+002
1.605026e+002, 3.671989e+002
1.609847e+002, 3.664580e+002
1.614668e+002, 3.665081e+002
1.619489e+002, 3.671471e+002
1.624310e+002, 3.674073e+002
1.629131e+002, 3.671141e+002
1.633953e+002, 3.666516e+002
1.638774e+002, 3.661354e+002
1.643595e+002, 3.655831e+002
1.648416e+002, 3.651869e+002
1.653237e+002, 3.651492e+002
1.658058e+002, 3.653444e+002
1.662880e+002, 3.654592e+002
1.667701e+002, 3.654024e+002
1.672522e+002, 3.653001e+002
1.677343e+002, 3.653197e+002
1.682164e+002, 3.654960e+002
1.686985e+002, 3.656293e+002
1.691807e+002, 3.655003e+002
1.696628e+002, 3.652803e+002
1.701449e+002, 3.651964e+002
1.706270e+002, 3.654120e+002
1.711091e+002, 3.657693e+002
1.715912e+002, 3.659192e+002
1.720734e+002, 3.658554e+002
1.725555e+002, 3.655618e+002
1.730376e+002, 3.648646e+002
1.735197e+002, 3.640075e+002
1.740018e+002, 3.633592e+002
1.744839e+002, 3.632074e+002
1.749661e+002, 3.634366e+002
1.754482e+002, 3.633298e+002
1.759303e+002, 3.625431e+002
1.764124e+002, 3.617831e+002
1.768945e+002, 3.612382e+002
1.773766e+002, 3.608561e+002
1.778588e+002, 3.605335e+002
1.783409e+002, 3.601982e+002
1.788230e+002, 3.598495e+002
1.793051e+002, 3.594970e+002
1.797872e+002, 3.591630e+002
1.802693e+002, 3.588015e+002
1.807515e+002, 3.583510e+002
1.812336e+002, 3.578513e+002
1.817157e+002, 3.574070e+002
1.821978e+002, 3.571138e+002
1.826799e+002, 3.569906e+002
1.831620e+002, 3.568218e+002
1.836441e+002, 3.565627e+002
1.841263e+002, 3.563047e+002
1.846084e+002, 3.561934e+002
1.850905e+002, 3.561737e+002
1.855726e+002, 3.559569e+002
1.860547e+002, 3.551941e+002
1.865368e+002, 3.537704e+002
1.870190e+002, 3.529438e+002
1.875011e+002, 3.532836e+002
1.879832e+002, 3.537997e+002
1.884653e+002, 3.537914e+002
1.889474e+002, 3.531838e+002
1.894296e+002, 3.522670e+002
1.899117e+002, 3.511976e+002
1.903938e+002, 3.499952e+002
1.908759e+002, 3.490324e+002
1.913580e+002, 3.484757e+002
1.918401e+002, 3.481265e+002
1.923223e+002, 3.478123e+002
1.928044e+002, 3.475365e+002
1.932865e+002, 3.471728e+002
1.937686e+002, 3.466320e+002
1.942507e+002, 3.459224e+002
1.947328e+002, 3.449485e+002
1.952150e+002, 3.434467e+002
1.956971e+002, 3.416927e+002
1.961792e+002, 3.402345e+002
1.966613e+002, 3.391750e+002
1.971434e+002, 3.382892e+002
1.976255e+002, 3.373936e+002
1.981077e+002, 3.365127e+002
1.985898e+002, 3.357473e+002
1.990719e+002, 3.353687e+002
1.995540e+002, 3.352009e+002
2.000361e+002, 3.344269e+002
2.005182e+002, 3.325748e+002
2.010004e+002, 3.307267e+002
2.014825e+002, 3.295391e+002
2.019646e+002, 3.288259e+002
2.024467e+002, 3.281307e+002
2.029288e+002, 3.271315e+002
2.034109e+002, 3.258463e+002
2.038930e+002, 3.245864e+002
2.043752e+002, 3.232735e+002
2.048573e+002, 3.220923e+002
2.053394e+002, 3.211405e+002
2.058215e+002, 3.203829e+002
2.063036e+002, 3.197382e+002
2.067857e+002, 3.192199e+002
2.072679e+002, 3.188550e+002
2.077500e+002, 3.180918e+002
2.082321e+002, 3.164397e+002
2.087142e+002, 3.148123e+002
2.091963e+002, 3.134612e+002
2.096784e+002, 3.123833e+002
2.101606e+002, 3.114955e+002
2.106427e+002, 3.107750e+002
2.111248e+002, 3.102878e+002
2.116069e+002, 3.093992e+002
2.120890e+002, 3.074990e+002
2.125711e+002, 3.058008e+002
2.130533e+002, 3.049624e+002
2.135354e+002, 3.048195e+002
2.140175e+002, 3.047020e+002
2.144996e+002, 3.039724e+002
2.149817e+002, 3.024979e+002
2.154638e+002, 3.013333e+002
2.159460e+002, 3.007780e+002
2.164281e+002, 3.001941e+002
2.169102e+002, 2.991531e+002
2.173923e+002, 2.977314e+002
2.178744e+002, 2.963670e+002
2.183565e+002, 2.954947e+002
2.188387e+002, 2.951981e+002
2.193208e+002, 2.946649e+002
2.198029e+002, 2.936865e+002
2.202850e+002, 2.926682e+002
2.207671e+002, 2.918620e+002
2.212492e+002, 2.912695e+002
2.217314e+002, 2.907312e+002
2.222135e+002, 2.901121e+002
2.226956e+002, 2.894054e+002
2.231777e+002, 2.887416e+002
2.236598e+002, 2.881504e+002
2.241419e+002, 2.875783e+002
2.246240e+002, 2.870544e+002
2.251062e+002, 2.865651e+002
2.255883e+002, 2.859196e+002
2.260704e+002, 2.848566e+002
2.265525e+002, 2.834545e+002
2.270346e+002, 2.823280e+002
2.275167e+002, 2.816559e+002
2.279989e+002, 2.811898e+002
2.284810e+002, 2.807863e+002
2.289631e+002, 2.804453e+002
2.294452e+002, 2.799936e+002
2.299273e+002, 2.791268e+002
2.304094e+002, 2.780575e+002
2.308916e+002, 2.773758e+002
2.313737e+002, 2.776510e+002
2.318558e+002, 2.780977e+002
2.323379e+002, 2.776813e+002
2.328200e+002, 2.762681e+002
2.333021e+002, 2.749309e+002
2.337843e+002, 2.745135e+002
2.342664e+002, 2.745874e+002
2.347485e+002, 2.745217e+002
2.352306e+002, 2.740893e+002
2.357127e+002, 2.735086e+002
2.361948e+002, 2.730869e+002
2.366770e+002, 2.728626e+002
2.371591e+002, 2.726276e+002
2.376412e+002, 2.721671e+002
2.381233e+002, 2.716679e+002
2.386054e+002, 2.713641e+002
2.390875e+002, 2.713922e+002
2.395697e+002, 2.715524e+002
2.400518e+002, 2.715363e+002
2.405339e+002, 2.713189e+002
2.410160e+002, 2.709984e+002
2.414981e+002, 2.704644e+002
2.419802e+002, 2.699115e+002
2.424624e+002, 2.695441e+002
2.429445e+002, 2.694515e+002
2.434266e+002, 2.695106e+002
2.439087e+002, 2.695392e+002
2.443908e+002, 2.695710e+002
2.448729e+002, 2.694690e+002
2.453550e+002, 2.690973e+002
2.458372e+002, 2.686371e+002
2.463193e+002, 2.682189e+002
2.468014e+002, 2.678827e+002
2.472835e+002, 2.676383e+002
2.477656e+002, 2.675562e+002
2.482477e+002, 2.678166e+002
2.487299e+002, 2.677887e+002
2.492120e+002, 2.671483e+002
2.496941e+002, 2.663436e+002
2.501762e+002, 2.657474e+002
2.506583e+002, 2.654669e+002
2.511404e+002, 2.652835e+002
2.516226e+002, 2.647889e+002
2.521047e+002, 2.637578e+002
2.525868e+002, 2.629390e+002
2.530689e+002, 2.625376e+002
2.535510e+002, 2.622479e+002
2.540331e+002, 2.617397e+002
2.545153e+002, 2.609753e+002
2.549974e+002, 2.603134e+002
2.554795e+002, 2.604158e+002
2.559616e+002, 2.619718e+002
2.564437e+002, 2.627803e+002
2.569258e+002, 2.624348e+002
2.574080e+002, 2.617494e+002
2.578901e+002, 2.611234e+002
2.583722e+002, 2.606925e+002
2.588543e+002, 2.604957e+002
2.593364e+002, 2.606278e+002
2.598185e+002, 2.613096e+002
2.603007e+002, 2.617608e+002
2.607828e+002, 2.620244e+002
2.612649e+002, 2.620850e+002
2.617470e+002, 2.617525e+002
2.622291e+002, 2.611097e+002
2.627112e+002, 2.605858e+002
2.631934e+002, 2.607369e+002
2.636755e+002, 2.619066e+002
2.641576e+002, 2.624780e+002
2.646397e+002, 2.621317e+002
2.651218e+002, 2.615806e+002
2.656039e+002, 2.610515e+002
2.660861e+002, 2.606502e+002
2.665682e+002, 2.605309e+002
2.670503e+002, 2.608902e+002
2.675324e+002, 2.618369e+002
2.680145e+002, 2.625627e+002
2.684966e+002, 2.630750e+002
2.689788e+002, 2.634136e+002
2.694609e+002, 2.634274e+002
2.699430e+002, 2.632363e+002
2.704251e+002, 2.632316e+002
2.709072e+002, 2.637914e+002
2.713893e+002, 2.649476e+002
2.718715e+002, 2.655902e+002
2.723536e+002, 2.651728e+002
2.728357e+002, 2.648903e+002
2.733178e+002, 2.653572e+002
2.737999e+002, 2.663978e+002
2.742820e+002, 2.674274e+002
2.747642e+002, 2.680116e+002
2.752463e+002, 2.682236e+002
2.757284e+002, 2.689892e+002
2.762105e+002, 2.709848e+002
2.766926e+002, 2.726720e+002
2.771747e+002, 2.732304e+002
2.776568e+002, 2.730863e+002
2.781389e+002, 2.732253e+002
2.786211e+002, 2.742147e+002
2.791032e+002, 2.758444e+002
2.795853e+002, 2.772334e+002
2.800674e+002, 2.782667e+002
2.805495e+002, 2.792564e+002
2.810316e+002, 2.803616e+002
2.815138e+002, 2.814677e+002
2.819959e+002, 2.823158e+002
2.824780e+002, 2.827559e+002
2.829601e+002, 2.830015e+002
2.834422e+002, 2.835968e+002
2.839243e+002, 2.845990e+002
2.844065e+002, 2.857699e+002
2.848886e+002, 2.872968e+002
2.853707e+002, 2.889054e+002
2.858528e+002, 2.901927e+002
2.863349e+002, 2.910233e+002
2.868170e+002, 2.915290e+002
2.872992e+002, 2.919447e+002
2.877813e+002, 2.923756e+002
2.882634e+002, 2.923912e+002
2.887455e+002, 2.918306e+002
2.892276e+002, 2.908510e+002
2.897097e+002, 2.896335e+002
2.901919e+002, 2.882186e+002
2.906740e+002, 2.865777e+002
2.911561e+002, 2.846438e+002
2.916382e+002, 2.824130e+002
2.921203e+002, 2.799020e+002
2.926024e+002, 2.766152e+002
2.930846e+002, 2.733267e+002
2.935667e+002, 2.708307e+002
2.940488e+002, 2.692146e+002
2.945309e+002, 2.680316e+002
2.950130e+002, 2.669621e+002
2.954951e+002, 2.660045e+002
2.959773e+002, 2.649609e+002
2.964594e+002, 2.637759e+002
2.969415e+002, 2.625362e+002
2.974236e+002, 2.612021e+002
2.979057e+002, 2.598105e+002
2.983878e+002, 2.586539e+002
2.988700e+002, 2.580185e+002
2.993521e+002, 2.578202e+002
2.998342e+002, 2.574033e+002
3.003163e+002, 2.566371e+002
3.007984e+002, 2.557800e+002
3.012805e+002, 2.548718e+002
3.017627e+002, 2.539606e+002
3.022448e+002, 2.532631e+002
3.027269e+002, 2.529517e+002
3.032090e+002, 2.528918e+002
3.036911e+002, 2.526560e+002
3.041732e+002, 2.521386e+002
3.046554e+002, 2.516378e+002
3.051375e+002, 2.512569e+002
3.056196e+002, 2.509929e+002
3.061017e+002, 2.508672e+002
3.065838e+002, 2.509311e+002
3.070659e+002, 2.510607e+002
3.075481e+002, 2.510004e+002
3.080302e+002, 2.507206e+002
3.085123e+002, 2.504346e+002
3.089944e+002, 2.502228e+002
3.094765e+002, 2.500475e+002
3.099586e+002, 2.498363e+002
3.104408e+002, 2.495639e+002
3.109229e+002, 2.492845e+002
3.114050e+002, 2.490433e+002
3.118871e+002, 2.488250e+002
3.123692e+002, 2.487646e+002
3.128513e+002, 2.490365e+002
3.133335e+002, 2.494109e+002
3.138156e+002, 2.496326e+002
3.142977e+002, 2.496634e+002
3.147798e+002, 2.495589e+002
3.152619e+002, 2.493518e+002
3.157440e+002, 2.490374e+002
3.162262e+002, 2.486454e+002
3.167083e+002, 2.478543e+002
3.171904e+002, 2.472143e+002
3.176725e+002, 2.473619e+002
3.181546e+002, 2.482499e+002
3.186367e+002, 2.490611e+002
3.191188e+002, 2.492390e+002
3.196010e+002, 2.488782e+002
3.200831e+002, 2.485994e+002
3.205652e+002, 2.482989e+002
3.210473e+002, 2.481763e+002
3.215294e+002, 2.483215e+002
3.220115e+002, 2.487307e+002
3.224937e+002, 2.495113e+002
3.229758e+002, 2.509262e+002
3.234579e+002, 2.524796e+002
3.239400e+002, 2.528220e+002
3.244221e+002, 2.514998e+002
3.249042e+002, 2.502111e+002
3.253864e+002, 2.495324e+002
3.258685e+002, 2.492961e+002
3.263506e+002, 2.491970e+002
3.268327e+002, 2.491501e+002
3.273148e+002, 2.491819e+002
3.277969e+002, 2.493642e+002
3.282791e+002, 2.497190e+002
3.287612e+002, 2.500585e+002
3.292433e+002, 2.504962e+002
3.297254e+002, 2.508323e+002
3.302075e+002, 2.507546e+002
3.306896e+002, 2.502092e+002
3.311718e+002, 2.495559e+002
3.316539e+002, 2.491109e+002
3.321360e+002, 2.488975e+002
3.326181e+002, 2.488641e+002
3.331002e+002, 2.492904e+002
3.335823e+002, 2.496837e+002
3.340645e+002, 2.494968e+002
3.345466e+002, 2.488192e+002
3.350287e+002, 2.484122e+002
3.355108e+002, 2.488946e+002
3.359929e+002, 2.501146e+002
3.364750e+002, 2.508695e+002
3.369572e+002, 2.508943e+002
3.374393e+002, 2.508001e+002
3.379214e+002, 2.509499e+002
3.384035e+002, 2.511811e+002
3.388856e+002, 2.510335e+002
3.393677e+002, 2.502305e+002
3.398499e+002, 2.490677e+002
3.403320e+002, 2.483546e+002
3.408141e+002, 2.481777e+002
3.412962e+002, 2.482014e+002
3.417783e+002, 2.484588e+002
3.422604e+002, 2.488483e+002
3.427426e+002, 2.493127e+002
3.432247e+002, 2.498352e+002
3.437068e+002, 2.502287e+002
3.441889e+002, 2.501870e+002
3.446710e+002, 2.494529e+002
3.451531e+002, 2.490368e+002
3.456353e+002, 2.491032e+002
3.461174e+002, 2.493837e+002
3.465995e+002, 2.497542e+002
3.470816e+002, 2.501649e+002
3.475637e+002, 2.505240e+002
3.480458e+002, 2.507578e+002
3.485280e+002, 2.508647e+002
3.490101e+002, 2.507760e+002
3.494922e+002, 2.502141e+002
3.499743e+002, 2.497697e+002
3.504564e+002, 2.497464e+002
3.509385e+002, 2.500441e+002
3.514207e+002, 2.504227e+002
3.519028e+002, 2.507528e+002
3.523849e+002, 2.510326e+002
3.528670e+002, 2.512522e+002
3.533491e+002, 2.514555e+002
3.538312e+002, 2.515462e+002
3.543134e+002, 2.513879e+002
3.547955e+002, 2.511599e+002
3.552776e+002, 2.510923e+002
3.557597e+002, 2.512616e+002
3.562418e+002, 2.515316e+002
3.567239e+002, 2.516616e+002
3.572061e+002, 2.514886e+002
3.576882e+002, 2.515170e+002
3.581703e+002, 2.518598e+002
3.586524e+002, 2.522971e+002
3.591345e+002, 2.527206e+002
3.596166e+002, 2.530969e+002
3.600987e+002, 2.533966e+002
3.605808e+002, 2.535820e+002
3.610630e+002, 2.536359e+002
3.615451e+002, 2.537324e+002
3.620272e+002, 2.540822e+002
3.625093e+002, 2.542542e+002
3.629914e+002, 2.539107e+002
3.634735e+002, 2.532960e+002
3.639557e+002, 2.528899e+002
3.644378e+002, 2.529959e+002
3.649199e+002, 2.534919e+002
3.654020e+002, 2.538614e+002
3.658841e+002, 2.540704e+002
3.663662e+002, 2.541835e+002
3.668484e+002, 2.540416e+002
3.673305e+002, 2.538974e+002
3.678126e+002, 2.540498e+002
3.682947e+002, 2.545773e+002
3.687768e+002, 2.552379e+002
3.692589e+002, 2.556721e+002
3.697411e+002, 2.558533e+002
3.702232e+002, 2.558628e+002
3.707053e+002, 2.554056e+002
3.711874e+002, 2.550362e+002
3.716695e+002, 2.551553e+002
3.721516e+002, 2.556866e+002
3.726338e+002, 2.561989e+002
3.731159e+002, 2.562651e+002
3.735980e+002, 2.559039e+002
3.740801e+002, 2.557841e+002
3.745622e+002, 2.562045e+002
3.750443e+002, 2.564980e+002
3.755265e+002, 2.562834e+002
3.760086e+002, 2.558406e+002
3.764907e+002, 2.556262e+002
3.769728e+002, 2.558962e+002
3.774549e+002, 2.564329e+002
3.779370e+002, 2.567148e+002
3.784192e+002, 2.565928e+002
3.789013e+002, 2.566425e+002
3.793834e+002, 2.572224e+002
3.798655e+002, 2.579131e+002
3.803476e+002, 2.583827e+002
3.808297e+002, 2.585671e+002
3.813119e+002, 2.586625e+002
3.817940e+002, 2.588286e+002
3.822761e+002, 2.590663e+002
3.827582e+002, 2.594182e+002
3.832403e+002, 2.600002e+002
3.837224e+002, 2.605682e+002
3.842046e+002, 2.609214e+002
3.846867e+002, 2.611141e+002
3.851688e+002, 2.613563e+002
3.856509e+002, 2.618451e+002
3.861330e+002, 2.624434e+002
3.866151e+002, 2.628223e+002
3.870973e+002, 2.629324e+002
3.875794e+002, 2.629923e+002
3.880615e+002, 2.631509e+002
3.885436e+002, 2.633262e+002
3.890257e+002, 2.634095e+002
3.895078e+002, 2.634076e+002
3.899900e+002, 2.632559e+002
3.904721e+002, 2.627794e+002
3.909542e+002, 2.620323e+002
3.914363e+002, 2.614642e+002
3.919184e+002, 2.612445e+002
3.924005e+002, 2.612464e+002
3.928827e+002, 2.613122e+002
3.933648e+002, 2.614485e+002
3.938469e+002, 2.615636e+002
3.943290e+002, 2.616253e+002
3.948111e+002, 2.616444e+002
3.952932e+002, 2.616852e+002
3.957754e+002, 2.617748e+002
3.962575e+002, 2.616907e+002
3.967396e+002, 2.610716e+002
3.972217e+002, 2.600095e+002
3.977038e+002, 2.594869e+002
3.981859e+002, 2.598424e+002
3.986681e+002, 2.604856e+002
3.991501e+002, 2.611956e+002
3.996323e+002, 2.618995e+002
4.001144e+002, 2.623833e+002
4.005965e+002, 2.625260e+002
4.010786e+002, 2.624002e+002
4.015607e+002, 2.621759e+002
4.020428e+002, 2.616274e+002
4.025250e+002, 2.613782e+002
4.030071e+002, 2.616802e+002
4.034892e+002, 2.622700e+002
4.039713e+002, 2.629170e+002
4.044534e+002, 2.635475e+002
4.049355e+002, 2.640810e+002
4.054177e+002, 2.644232e+002
4.058998e+002, 2.645543e+002
4.063819e+002, 2.645402e+002
4.068640e+002, 2.638582e+002
4.073461e+002, 2.635403e+002
4.078282e+002, 2.645196e+002
4.083104e+002, 2.663055e+002
4.087925e+002, 2.675497e+002
4.092746e+002, 2.673377e+002
4.097567e+002, 2.661245e+002
4.102388e+002, 2.660278e+002
4.107209e+002, 2.684891e+002
4.112031e+002, 2.702288e+002
4.116852e+002, 2.704897e+002
4.121673e+002, 2.701917e+002
4.126494e+002, 2.701283e+002
4.131315e+002, 2.705404e+002
4.136136e+002, 2.712973e+002
4.140958e+002, 2.722685e+002
4.145779e+002, 2.735215e+002
4.150600e+002, 2.747382e+002
4.155421e+002, 2.759800e+002
