##NAMES=Actinolite
##RRUFFID=R050025
##IDEAL CHEMISTRY=Ca_2_(Mg_4.5-2.5_Fe^2+^_0.5-2.5_)Si_8_O_22_(OH)_2_
##LOCALITY=Tyrol, Austria
##OWNER=RRUFF
##SOURCE=Eugene Schlepp
##DESCRIPTION=Green colored bladed single crystals
##STATUS=The identification of this mineral has been confirmed by X-ray diffraction and chemical analysis
##URL=rruff.info/R050025
##MEASURED CHEMISTRY=(Ca_.930_Na_.056_Mn_.010_K_.004_)_2_(Mg_.883_Fe_.117_)_5_(Si_.978_Al_.022_)_8_O_22_(OH)_2_
##PIN_ID=L00400
##ORIENTATION=Laser parallel to c* (0 0 1). Fiducial mark perpendicular to laser is parallel to a [1 0 0]
96.858, 0.000
98.251, 0.467
99.644, 35.202
101.036, 60.699
102.428, 34.346
103.820, 4.836
105.212, 42.608
106.604, 270.637
107.995, 493.172
109.387, 450.951
110.777, 440.186
112.168, 939.725
113.559, 1620.336
114.949, 2397.066
116.339, 3003.532
117.729, 3087.322
119.119, 2532.177
120.508, 2037.487
121.897, 1466.126
123.286, 1174.191
124.675, 813.983
126.063, 479.561
127.452, 330.282
128.840, 209.096
130.228, 175.963
131.615, 106.850
133.003, 82.733
134.390, 69.408
135.777, 7.590
137.164, 2.175
138.550, 43.878
139.937, 148.535
141.323, 116.702
142.709, 108.363
144.094, 74.765
145.480, 39.200
146.865, 41.560
148.250, 8.639
149.635, 1.985
151.019, 256.335
152.403, 627.484
153.788, 1398.516
155.171, 2864.367
156.555, 4891.995
157.939, 7423.413
159.322, 9264.634
160.705, 9485.667
162.088, 7866.520
163.470, 5937.201
164.853, 4247.716
166.235, 3117.072
167.617, 2735.275
168.998, 2705.327
170.380, 3338.238
171.761, 4468.007
173.142, 6367.642
174.523, 9197.144
175.904, 12906.521
177.284, 16135.774
178.664, 17734.908
180.044, 16383.977
181.424, 13173.142
182.803, 9802.960
184.183, 6816.850
185.562, 4731.491
186.940, 3425.958
188.319, 2700.300
189.698, 2193.939
191.076, 1958.332
192.454, 1674.558
193.831, 1587.785
195.209, 1532.158
196.586, 1423.674
197.963, 1390.276
199.340, 1396.802
200.717, 1542.281
202.093, 1593.810
203.470, 1797.330
204.846, 2036.784
206.221, 2224.273
207.597, 2731.842
208.972, 3090.983
210.347, 3911.063
211.722, 4641.316
213.097, 5668.540
214.472, 7235.752
215.846, 9272.953
217.220, 12280.146
218.594, 15647.321
219.967, 19744.467
221.341, 23401.578
222.714, 25458.656
224.087, 24885.686
225.460, 22272.678
226.832, 18719.621
228.204, 15256.511
229.577, 13013.350
230.948, 11020.136
232.320, 9146.874
233.692, 7583.561
235.063, 5860.201
236.434, 4483.788
237.805, 3302.325
239.175, 2599.814
240.545, 2007.253
241.916, 1747.646
243.286, 1597.989
244.655, 1583.285
246.025, 1757.533
247.394, 1999.733
248.763, 2119.887
250.132, 2180.994
251.501, 2164.055
252.869, 1900.070
254.237, 1710.045
255.605, 1513.979
256.973, 1358.871
258.340, 1344.717
259.708, 1424.521
261.075, 1307.282
262.442, 1251.675
263.808, 1176.885
265.175, 949.865
266.541, 672.565
267.907, 451.029
269.273, 341.044
270.639, 172.894
272.004, 25.602
273.369, 75.985
274.734, 46.873
276.099, 75.038
277.463, 151.468
278.828, 75.210
280.192, 104.271
281.556, 64.825
282.919, 19.991
284.283, 105.973
285.646, 328.211
287.009, 449.339
288.372, 643.605
289.734, 807.449
291.097, 865.526
292.459, 835.893
293.821, 960.912
295.183, 1027.405
296.544, 1166.085
297.905, 1391.323
299.266, 1568.755
300.627, 1951.948
301.988, 2138.896
303.348, 2209.488
304.709, 2003.154
306.069, 1632.274
307.428, 1335.379
308.788, 1055.640
310.147, 810.316
311.507, 680.882
312.865, 476.685
314.224, 433.956
315.583, 401.665
316.941, 328.615
318.299, 310.662
319.657, 318.226
321.015, 349.599
322.372, 275.817
323.729, 472.777
325.086, 442.543
326.443, 560.387
327.800, 744.118
329.156, 1015.949
330.512, 1247.853
331.868, 1364.790
333.224, 1493.529
334.579, 1517.586
335.935, 1323.412
337.290, 1317.792
338.645, 1329.167
339.999, 1374.168
341.354, 1622.037
342.708, 1838.615
344.062, 2179.158
345.416, 2702.667
346.769, 3158.137
348.123, 3772.554
349.476, 4210.824
350.829, 4586.921
352.182, 4601.799
353.534, 4502.488
354.887, 4161.104
356.239, 3952.683
357.591, 3608.234
358.942, 3490.759
360.294, 3573.254
361.645, 3782.720
362.996, 4091.157
364.347, 4703.565
365.698, 5622.945
367.048, 6777.295
368.398, 7851.616
369.748, 8495.904
371.098, 8340.152
372.448, 7634.362
373.797, 6878.530
375.146, 5982.667
376.495, 5129.774
377.844, 4278.853
379.192, 3715.903
380.540, 3173.924
381.889, 2856.915
383.236, 2630.878
384.584, 2559.812
385.932, 2701.718
387.279, 2884.594
388.626, 3421.442
389.973, 3984.262
391.319, 4666.052
392.666, 5078.814
394.012, 5178.548
395.358, 4671.253
396.704, 3818.933
398.049, 3003.582
399.394, 2258.204
400.740, 1705.797
402.084, 1371.363
403.429, 1177.929
404.774, 1172.516
406.118, 1157.026
407.462, 1278.838
408.806, 1409.587
410.150, 1630.141
411.493, 1975.923
412.836, 2322.495
414.179, 2598.816
415.522, 2708.109
416.865, 2612.432
418.207, 2426.000
419.549, 2091.213
420.891, 1771.458
422.233, 1495.618
423.575, 1232.951
424.916, 1014.153
426.257, 900.416
427.598, 814.579
428.939, 766.741
430.279, 775.752
431.619, 993.518
432.959, 1085.336
434.299, 1295.043
435.639, 1297.554
436.978, 1082.046
438.318, 944.722
439.657, 674.431
440.996, 543.184
442.334, 364.633
443.673, 191.640
445.011, 109.631
446.349, 44.397
447.687, 9.526
449.024, 31.991
450.361, 42.232
451.699, 46.730
453.036, 73.696
454.372, 61.110
455.709, 72.701
457.045, 37.950
458.381, 52.262
459.717, 28.646
461.053, 25.938
462.388, 9.495
463.724, 53.980
465.059, 37.524
466.394, 18.133
467.728, 3.793
469.063, 13.502
470.397, 10.681
471.731, 12.015
473.065, 5.183
474.398, 14.935
475.732, 7.265
477.065, 4.876
478.398, 1.635
479.731, 36.388
481.063, 54.402
482.396, 78.512
483.728, 127.285
485.060, 161.849
486.391, 131.273
487.723, 147.072
489.054, 111.836
490.385, 83.564
491.716, 64.270
493.047, 100.962
494.377, 25.642
495.708, 59.300
497.038, 154.944
498.368, 146.582
499.697, 225.190
501.027, 246.771
502.356, 377.352
503.685, 477.909
505.014, 535.438
506.342, 723.963
507.671, 916.464
508.999, 1069.945
510.327, 1297.417
511.655, 1662.877
512.982, 1905.330
514.310, 2049.772
515.637, 2099.202
516.964, 2107.606
518.291, 2116.987
519.617, 2181.342
520.944, 2082.681
522.270, 2114.004
523.596, 2356.309
524.921, 2661.600
526.247, 3018.873
527.572, 3350.132
528.897, 3547.376
530.222, 3558.604
531.547, 3166.810
532.871, 2659.999
534.196, 2276.162
535.520, 1819.301
536.844, 1414.415
538.167, 1273.503
539.491, 1024.567
540.814, 901.605
542.137, 806.618
543.460, 695.606
544.783, 624.634
546.105, 554.506
547.427, 497.419
548.749, 462.307
550.071, 405.169
551.393, 453.008
552.714, 367.821
554.035, 402.609
555.356, 378.373
556.677, 311.111
557.998, 333.825
559.318, 255.515
560.638, 249.180
561.958, 233.821
563.278, 220.437
564.597, 231.027
565.917, 150.593
567.236, 158.132
568.555, 196.644
569.874, 134.130
571.192, 176.588
572.511, 249.020
573.829, 258.428
575.147, 212.812
576.464, 146.172
577.782, 226.505
579.099, 207.814
580.416, 272.099
581.733, 171.359
583.050, 188.594
584.366, 159.804
585.683, 169.989
586.999, 156.149
588.315, 106.284
589.630, 40.393
590.946, 36.477
592.261, 11.538
593.576, 40.587
594.891, 29.350
596.206, 1.292
597.520, 27.223
598.834, 9.131
600.148, 46.972
601.462, 18.979
602.776, 40.106
604.089, 14.300
605.402, 41.851
606.715, 36.191
608.028, 47.120
609.341, 86.403
610.653, 175.404
611.965, 118.718
613.277, 181.825
614.589, 177.213
615.901, 180.792
617.212, 263.484
618.523, 247.669
619.834, 321.962
621.145, 332.103
622.456, 374.008
623.766, 403.409
625.076, 462.464
626.386, 536.445
627.696, 578.698
629.006, 673.053
630.315, 721.575
631.624, 858.911
632.933, 929.228
634.242, 1036.015
635.551, 1256.799
636.859, 1253.155
638.167, 1477.570
639.475, 1751.554
640.783, 1962.212
642.090, 2308.332
643.398, 2589.746
644.705, 2965.825
646.012, 3357.939
647.318, 3824.953
648.625, 4317.921
649.931, 4832.418
651.237, 5542.667
652.543, 6164.149
653.849, 6817.428
655.155, 7341.653
656.460, 7650.630
657.765, 8219.704
659.070, 8705.262
660.375, 9664.868
661.679, 10863.524
662.984, 12787.832
664.288, 15597.057
665.592, 19057.332
666.895, 24499.955
668.199, 31102.062
669.502, 39704.703
670.805, 49806.223
672.108, 57127.539
673.411, 60056.082
674.713, 56984.441
676.016, 47232.898
677.318, 38973.195
678.620, 29223.367
679.921, 22903.242
681.223, 17904.002
682.524, 14423.435
683.825, 12444.585
685.126, 10564.510
686.427, 9714.603
687.727, 9333.651
689.028, 8363.078
690.328, 8061.271
691.628, 7429.414
692.927, 6687.458
694.227, 5945.437
695.526, 5065.417
696.825, 4467.363
698.124, 3770.292
699.423, 3237.203
700.721, 2854.100
702.020, 2490.978
703.318, 2155.845
704.616, 1906.689
705.913, 1707.519
707.211, 1603.333
708.508, 1444.146
709.805, 1303.928
711.102, 1171.693
712.399, 1063.443
713.695, 989.177
714.992, 889.896
716.288, 861.599
717.584, 860.287
718.879, 689.933
720.175, 755.514
721.470, 655.130
722.765, 615.400
724.060, 650.693
725.355, 626.139
726.649, 644.313
727.944, 607.658
729.238, 611.211
730.532, 653.751
731.825, 699.222
733.119, 762.645
734.412, 793.903
735.705, 953.328
736.998, 1087.798
738.291, 1251.055
739.584, 1253.376
740.876, 1275.570
742.168, 1267.799
743.460, 1251.474
744.752, 1247.469
746.043, 1203.576
747.334, 1201.218
748.626, 1187.749
749.916, 1138.396
751.207, 1044.821
752.498, 958.235
753.788, 787.761
755.078, 633.973
756.368, 539.612
757.658, 432.127
758.947, 368.727
760.237, 327.272
761.526, 281.820
762.815, 298.411
764.104, 286.069
765.392, 300.920
766.680, 223.171
767.969, 238.228
769.257, 185.539
770.544, 176.867
771.832, 160.204
773.119, 140.553
774.406, 180.909
775.693, 111.261
776.980, 124.610
778.267, 148.972
779.553, 66.342
780.839, 53.714
782.125, 79.085
783.411, 49.452
784.697, 55.814
785.982, 38.176
787.267, 68.534
788.552, 65.893
789.837, 3.251
791.122, 9.600
792.406, 77.942
793.690, 7.279
794.974, 21.393
796.258, 12.911
797.542, 60.795
798.825, 19.453
800.108, 24.693
801.391, 12.926
802.674, 43.851
803.957, 85.662
805.239, 79.530
806.522, 57.452
807.804, 83.415
809.085, 92.433
810.367, 7.512
811.649, 3.608
812.930, 108.721
814.211, 7.904
815.492, 17.893
816.772, 86.319
818.053, 2.591
819.333, 21.878
820.613, 61.192
821.893, 53.550
823.173, 62.742
824.452, 45.396
825.732, 42.877
827.011, 6.607
828.290, 40.081
829.568, 10.547
830.847, 27.995
832.125, 26.563
833.403, 22.156
834.681, 38.020
835.959, 15.416
837.236, 46.079
838.514, 25.775
839.791, 29.494
841.068, 11.238
842.345, 18.997
843.621, 12.226
844.898, 18.650
846.174, 36.653
847.450, 50.859
848.726, 41.062
850.001, 64.260
851.277, 69.454
852.552, 66.001
853.827, 82.832
855.102, 71.015
856.376, 36.196
857.651, 57.373
858.925, 49.548
860.199, 161.719
861.473, 27.888
862.746, 134.054
864.020, 113.218
865.293, 122.380
866.566, 156.543
867.839, 144.704
869.112, 164.267
870.384, 236.021
871.656, 190.177
872.928, 215.333
874.200, 246.487
875.472, 238.640
876.744, 303.794
878.015, 308.949
879.286, 285.104
880.557, 405.261
881.828, 358.419
883.098, 484.578
884.369, 476.737
885.639, 577.896
886.909, 532.060
888.178, 678.224
889.448, 734.388
890.717, 773.566
891.987, 920.746
893.256, 934.927
894.524, 1001.113
895.793, 1115.319
897.061, 1269.533
898.330, 1283.766
899.598, 1339.002
900.865, 1370.263
902.133, 1364.535
903.401, 1393.623
904.668, 1427.105
905.935, 1418.402
907.202, 1401.718
908.468, 1434.651
909.735, 1498.547
911.001, 1545.740
912.267, 1676.111
913.533, 1765.488
914.799, 1849.894
916.064, 2017.304
917.330, 2104.721
918.595, 2367.154
919.860, 2675.590
921.124, 3090.039
922.389, 3475.618
923.653, 3850.963
924.918, 4473.429
926.182, 5073.897
927.445, 5795.388
928.709, 6806.849
929.972, 6863.334
931.236, 7039.828
932.499, 6596.185
933.761, 5882.496
935.024, 5158.917
936.286, 4327.221
937.549, 3809.558
938.811, 3352.832
940.073, 3105.245
941.334, 3096.654
942.596, 2992.491
943.857, 3292.600
945.118, 3537.078
946.379, 3637.124
947.640, 3721.924
948.900, 3630.814
950.161, 3609.880
951.421, 3358.149
952.681, 3075.451
953.940, 2855.715
955.200, 2682.901
956.459, 2508.476
957.719, 2487.464
958.978, 2277.863
960.236, 2325.651
961.495, 2286.892
962.753, 2226.347
964.012, 2176.033
965.270, 2083.322
966.527, 2095.812
967.785, 2019.242
969.043, 1950.012
970.300, 1987.857
971.557, 1868.646
972.814, 1884.074
974.071, 1838.012
975.327, 1777.403
976.583, 1700.914
977.840, 1699.606
979.095, 1542.067
980.351, 1650.719
981.607, 1614.260
982.862, 1496.946
984.117, 1492.748
985.372, 1374.839
986.627, 1430.034
987.882, 1338.558
989.136, 1430.354
990.390, 1469.375
991.644, 1374.213
992.898, 1488.103
994.152, 1450.602
995.405, 1396.328
996.659, 1495.098
997.912, 1510.959
999.165, 1583.886
1000.417, 1576.812
1001.670, 1712.780
1002.922, 1741.759
1004.174, 1817.747
1005.426, 1909.747
1006.678, 2029.768
1007.930, 2180.792
1009.181, 2278.832
1010.432, 2408.894
1011.683, 2550.978
1012.934, 2861.070
1014.185, 3102.278
1015.435, 3439.408
1016.685, 3880.073
1017.935, 4142.221
1019.185, 4753.382
1020.435, 5160.602
1021.684, 5517.792
1022.934, 5695.053
1024.183, 5842.301
1025.432, 6239.505
1026.680, 6656.743
1027.929, 7153.987
1029.177, 7311.420
1030.425, 7158.727
1031.673, 6846.397
1032.921, 6223.786
1034.169, 5621.063
1035.416, 5108.523
1036.663, 4656.311
1037.911, 4593.762
1039.157, 4681.255
1040.404, 4741.389
1041.650, 4838.848
1042.897, 5136.322
1044.143, 5614.333
1045.389, 6295.772
1046.634, 6994.438
1047.880, 7925.509
1049.125, 9313.012
1050.371, 10874.792
1051.615, 12933.544
1052.860, 15311.514
1054.105, 18349.344
1055.349, 21406.865
1056.593, 23995.936
1057.837, 26475.438
1059.081, 27063.068
1060.325, 25663.311
1061.568, 23103.531
1062.812, 19181.152
1064.055, 16364.113
1065.298, 13691.772
1066.540, 11779.508
1067.783, 10519.873
1069.025, 9467.427
1070.267, 8337.198
1071.509, 7196.731
1072.751, 6144.458
1073.993, 5342.278
1075.234, 4549.889
1076.475, 3969.668
1077.716, 3564.758
1078.957, 3184.855
1080.198, 2819.573
1081.438, 2727.736
1082.679, 2468.397
1083.919, 2365.252
1085.159, 2191.919
1086.398, 1959.684
1087.638, 1910.526
1088.877, 1859.652
1090.116, 1868.469
1091.355, 1830.258
1092.594, 1742.116
1093.833, 1713.011
1095.071, 1469.910
1096.309, 1293.896
1097.547, 1411.863
1098.785, 1141.897
1100.023, 1068.717
1101.260, 1072.244
1102.498, 1025.889
1103.735, 933.780
1104.972, 996.650
1106.208, 764.060
1107.445, 962.148
1108.681, 785.068
1109.918, 780.268
1111.154, 761.190
1112.389, 726.262
1113.625, 723.441
1114.860, 711.401
1116.096, 696.555
1117.331, 677.022
1118.566, 589.172
1119.800, 537.176
1121.035, 643.266
1122.269, 507.339
1123.503, 525.253
1124.737, 509.805
1125.971, 462.270
1127.205, 452.390
1128.438, 417.338
1129.671, 366.421
1130.904, 334.315
1132.137, 318.572
1133.370, 317.701
1134.602, 318.789
1135.834, 301.528
1137.066, 271.192
1138.298, 272.459
1139.530, 287.449
1140.762, 274.364
1141.993, 127.159
1143.224, 167.338
1144.455, 126.641
1145.686, 105.662
1146.917, 108.322
1148.147, 158.467
1149.377, 54.470
1150.607, 111.736
1151.837, 78.571
1153.067, 62.370
1154.296, 65.354
1155.526, 71.286
1156.755, 99.544
1157.984, 143.262
1159.213, 97.299
1160.441, 126.514
1161.670, 10.961
1162.898, 98.064
1164.126, 15.785
1165.354, 77.871
1166.581, 84.033
1167.809, 27.784
1169.036, 38.498
1170.263, 25.376
1171.490, 31.963
1172.717, 67.823
1173.943, 41.764
1175.170, 44.537
1176.396, 2.907
1177.622, 36.512
1178.848, 7.994
1180.073, 23.776
1181.299, 55.039
1182.524, 14.596
1183.749, 8.947
1184.974, 23.384
1186.199, 16.723
1187.423, 49.981
1188.648, 31.278
1189.872, 30.565
1191.096, 11.189
1192.320, 67.921
1193.543, 22.721
1194.767, 60.704
1195.990, 38.336
1197.213, 70.697
1198.436, 21.750
1199.659, 6.527
1200.881, 2.615
1202.104, 47.367
1203.326, 24.442
1204.548, 30.703
1205.770, 27.981
1206.991, 41.334
1208.213, 40.489
1209.434, 37.077
1210.655, 82.987
1211.876, 32.578
1213.096, 16.331
1214.317, 40.154
1215.537, 63.544
1216.757, 29.680
1217.977, 25.372
1219.197, 27.583
1220.417, 13.532
1221.636, 64.798
1222.855, 26.371
1224.074, 14.398
1225.293, 1.847
1226.512, 7.562
1227.731, 30.165
1228.949, 61.988
1230.167, 17.773
1231.385, 63.883
1232.603, 42.052
1233.820, 6.965
1235.038, 11.093
1236.255, 33.021
1237.472, 41.371
1238.689, 26.374
1239.906, 19.658
1241.122, 19.700
1242.338, 12.567
1243.555, 14.729
1244.771, 12.517
1245.986, 52.646
1247.202, 3.443
1248.417, 30.022
1249.633, 38.006
1250.848, 47.849
1252.063, 40.518
1253.277, 18.770
1254.492, 53.832
1255.706, 17.304
1256.920, 1.842
1258.134, 32.124
1259.348, 22.111
1260.562, 68.896
1261.775, 29.344
1262.988, 13.917
1264.201, 33.718
1265.414, 67.279
1266.627, 48.566
1267.839, 56.566
1269.052, 62.844
1270.264, 111.100
1271.476, 87.991
1272.688, 59.044
1273.899, 99.818
1275.111, 66.557
1276.322, 111.599
1277.533, 35.543
1278.744, 58.404
1279.955, 69.267
1281.165, 14.881
1282.376, 17.453
1283.586, 39.249
1284.796, 97.710
1286.006, 5.401
1287.215, 145.179
1288.425, 53.853
1289.634, 37.350
1290.843, 88.639
1292.052, 0.817
1293.261, 8.505
1294.469, 22.164
1295.678, 39.002
1296.886, 124.221
1298.094, 22.280
1299.302, 9.583
1300.509, 94.395
1301.717, 37.338
1302.924, 17.784
1304.131, 22.953
1305.338, 25.872
1306.545, 25.562
1307.752, 48.165
1308.958, 41.819
1310.164, 136.916
1311.370, 38.695
1312.576, 108.236
1313.782, 113.731
1314.987, 71.186
1316.193, 137.530
1317.398, 68.858
1318.603, 119.202
1319.807, 38.755
1321.012, 192.000
1322.216, 115.020
1323.421, 138.200
1324.625, 66.919
1325.829, 24.891
1327.032, 110.100
1328.236, 129.939
1329.439, 154.426
1330.642, 148.218
1331.845, 153.938
1333.048, 149.986
1334.251, 138.869
1335.453, 144.134
1336.656, 132.404
1337.858, 132.024
1339.060, 167.383
1340.261, 146.317
1341.463, 158.779
1342.664, 146.282
1343.866, 71.438
1345.067, 139.348
1346.267, 116.475
1347.468, 61.775
1348.669, 159.494
1349.869, 176.754
1351.069, 155.855
1352.269, 104.314
1353.469, 174.763
1354.668, 63.819
1355.868, 130.472
1357.067, 80.403
1358.266, 131.243
1359.465, 73.406
1360.664, 49.357
1361.862, 217.062
1363.061, 12.042
1364.259, 44.269
1365.457, 135.323
1366.655, 56.385
1367.852, 131.944
1369.050, 118.435
1370.247, 32.629
1371.444, 65.409
1372.641, 110.625
1373.838, 1.193
1375.035, 108.550
1376.231, 88.492
1377.427, 126.974
1378.623, 158.284
1379.819, 75.588
1381.015, 23.681
1382.211, 90.848
1383.406, 25.157
1384.601, 67.772
1385.796, 104.175
1386.991, 32.645
1388.185, 105.636
1389.380, 12.924
1390.574, 81.501
1391.768, 149.555
1392.962, 19.683
1394.156, 47.689
1395.350, 91.134
1396.543, 54.062
1397.736, 80.937
1398.929, 106.052
1400.122, 83.962
1401.315, 170.889
1402.507, 0.602
1403.700, 18.181
1404.892, 76.306
1406.084, 39.713
1407.276, 152.303
1408.467, 101.261
1409.659, 78.628
1410.850, 153.545
1412.041, 54.526
1413.232, 45.985
1414.423, 148.554
1415.614, 64.792
1416.804, 140.461
1417.994, 138.374
1419.184, 32.698
1420.374, 48.343
1421.564, 59.834
1422.753, 51.128
1423.943, 101.321
1425.132, 102.835
1426.321, 37.842
1427.510, 133.120
1428.698, 3.718
1429.887, 62.293
1431.075, 31.708
1432.263, 65.001
1433.451, 119.671
1434.639, 37.326
1435.827, 82.394
1437.014, 64.186
1438.201, 94.943
1439.388, 73.296
1440.575, 141.430
1441.762, 75.578
1442.949, 122.663
1444.135, 188.712
1445.321, 125.718
1446.507, 111.581
1447.693, 103.848
1448.879, 125.897
1450.064, 156.712
1451.250, 138.496
1452.435, 106.827
1453.620, 45.665
1454.805, 92.550
1455.989, 81.752
1457.174, 166.838
1458.358, 124.392
1459.542, 165.423
1460.726, 175.284
1461.910, 20.990
1463.093, 206.083
1464.277, 145.192
1465.460, 68.982
1466.643, 191.636
1467.826, 102.304
1469.009, 45.189
1470.191, 203.005
1471.373, 149.246
1472.556, 91.199
1473.738, 166.656
1474.919, 109.566
1476.101, 129.309
1477.283, 143.616
1478.464, 119.113
1479.645, 155.608
1480.826, 113.809
1482.007, 76.470
1483.187, 84.305
1484.368, 1.895
1485.548, 112.345
1486.728, 94.644
1487.908, 52.940
1489.088, 115.207
1490.268, 117.674
1491.447, 137.744
1492.626, 116.088
1493.805, 94.221
1494.984, 115.592
1496.163, 71.750
1497.341, 80.624
1498.520, 80.002
1499.698, 77.578
1500.876, 95.226
1502.054, 96.998
1503.232, 142.893
1504.409, 70.857
1505.586, 114.493
1506.763, 82.762
1507.940, 15.915
1509.117, 98.220
1510.294, 30.751
1511.470, 114.152
1512.647, 44.859
1513.823, 71.013
1514.999, 171.544
1516.174, 118.131
