##NAMES=Actinolite
##RRUFFID=R050025
##IDEAL CHEMISTRY=Ca_2_(Mg_4.5-2.5_Fe^2+^_0.5-2.5_)Si_8_O_22_(OH)_2_
##LOCALITY=Tyrol, Austria
##OWNER=RRUFF
##SOURCE=Eugene Schlepp
##DESCRIPTION=Green colored bladed single crystals
##STATUS=The identification of this mineral has been confirmed by X-ray diffraction and chemical analysis
##URL=rruff.info/R050025
##MEASURED CHEMISTRY=(Ca_.930_Na_.056_Mn_.010_K_.004_)_2_(Mg_.883_Fe_.117_)_5_(Si_.978_Al_.022_)_8_O_22_(OH)_2_
##PIN_ID=L00431
##ORIENTATION=Laser parallel to a* (1 0 0). Fiducial mark perpendicular to laser is parallel to b [0 1 0]
85.706, 0.000
87.101, 0.121
88.496, 2.016
89.890, 211.308
91.284, 360.680
92.678, 236.859
94.071, 401.727
95.465, 111.400
96.858, 96.836
98.251, 121.047
99.644, 293.349
101.036, 139.527
102.428, 151.642
103.820, 364.315
105.212, 446.000
106.604, 799.976
107.995, 965.000
109.387, 1270.626
110.777, 1897.638
112.168, 1834.491
113.559, 1847.988
114.949, 1863.479
116.339, 1531.904
117.729, 1228.089
119.119, 862.999
120.508, 775.287
121.897, 673.726
123.286, 698.277
124.675, 345.914
126.063, 418.611
127.452, 293.352
128.840, 377.141
130.228, 341.996
131.615, 259.921
133.003, 242.048
134.390, 117.675
135.777, 174.072
137.164, 136.065
138.550, 213.155
139.937, 242.145
141.323, 88.016
142.709, 32.766
144.094, 145.597
145.480, 10.269
146.865, 76.170
148.250, 195.320
149.635, 5.595
151.019, 256.936
152.403, 554.280
153.788, 1328.451
155.171, 2191.460
156.555, 3408.318
157.939, 4479.033
159.322, 5519.616
160.705, 4986.071
162.088, 3969.408
163.470, 2713.632
164.853, 1834.749
166.235, 1378.766
167.617, 1236.688
168.998, 1434.595
170.380, 1670.702
171.761, 2326.982
173.142, 2995.406
174.523, 3930.946
175.904, 5009.577
177.284, 5592.269
178.664, 5876.998
180.044, 5062.700
181.424, 4026.934
182.803, 2910.176
184.183, 2114.992
185.562, 1728.736
186.940, 1246.581
188.319, 1029.421
189.698, 858.971
191.076, 744.703
192.454, 662.144
193.831, 617.618
195.209, 637.598
196.586, 654.731
197.963, 734.655
199.340, 855.319
200.717, 968.642
202.093, 1124.213
203.470, 1376.823
204.846, 1719.527
206.221, 1918.087
207.597, 2400.259
208.972, 2982.172
210.347, 3755.173
211.722, 4569.720
213.097, 5718.738
214.472, 7430.306
215.846, 9262.890
217.220, 11916.492
218.594, 14544.104
219.967, 17224.727
221.341, 19811.359
222.714, 21259.998
224.087, 22113.637
225.460, 22566.285
226.832, 23389.943
228.204, 24443.605
229.577, 25892.266
230.948, 26428.926
232.320, 24893.582
233.692, 21904.240
235.063, 17890.895
236.434, 14165.550
237.805, 11087.205
239.175, 8709.858
240.545, 7403.508
241.916, 6622.157
243.286, 6455.806
244.655, 6767.454
246.025, 7251.100
247.394, 7880.744
248.763, 8132.388
250.132, 8256.032
251.501, 7442.056
252.869, 6516.584
254.237, 5548.804
255.605, 4558.828
256.973, 3706.514
258.340, 2993.884
259.708, 2464.883
261.075, 1873.534
262.442, 1792.714
263.808, 1474.588
265.175, 1079.394
266.541, 802.467
267.907, 655.077
269.273, 432.895
270.639, 341.389
272.004, 197.552
273.369, 163.445
274.734, 75.055
276.099, 54.347
277.463, 13.382
278.828, 17.824
280.192, 29.603
281.556, 8.831
282.919, 45.627
284.283, 31.472
285.646, 3.399
287.009, 36.293
288.372, 91.803
289.734, 74.236
291.097, 166.253
292.459, 234.422
293.821, 328.481
295.183, 471.374
296.544, 640.393
297.905, 1061.305
299.266, 1328.490
300.627, 1457.662
301.988, 1695.343
303.348, 1691.331
304.709, 1564.643
306.069, 1421.582
307.428, 1230.856
308.788, 1051.441
310.147, 884.872
311.507, 694.437
312.865, 541.490
314.224, 439.494
315.583, 276.967
316.941, 162.055
318.299, 73.347
319.657, 82.495
321.015, 38.376
322.372, 44.284
323.729, 141.221
325.086, 121.210
326.443, 107.245
327.800, 99.323
329.156, 92.440
330.512, 7.595
331.868, 66.229
333.224, 109.177
334.579, 171.093
335.935, 255.965
337.290, 307.767
338.645, 406.509
339.999, 564.237
341.354, 712.949
342.708, 903.639
344.062, 1147.293
345.416, 1500.900
346.769, 1920.445
348.123, 2383.919
349.476, 2825.310
350.829, 3134.635
352.182, 3198.923
353.534, 3304.185
354.887, 3098.432
356.239, 2875.669
357.591, 2709.896
358.942, 2684.115
360.294, 3129.325
361.645, 3572.530
362.996, 4706.726
364.347, 6230.916
365.698, 8021.095
367.048, 10178.224
368.398, 11352.310
369.748, 11948.294
371.098, 10967.194
372.448, 9321.046
373.797, 7511.882
375.146, 6153.710
376.495, 5250.531
377.844, 4371.349
379.192, 4071.166
380.540, 3941.979
381.889, 4035.790
383.236, 4441.598
384.584, 5152.402
385.932, 6100.203
387.279, 7647.000
388.626, 9566.793
389.973, 11549.583
391.319, 13057.368
392.666, 14589.151
394.012, 14076.926
395.358, 12626.700
396.704, 10501.471
398.049, 8371.235
399.394, 6755.994
400.740, 5411.750
402.084, 4863.501
403.429, 4560.244
404.774, 4558.986
406.118, 4851.720
407.462, 5433.450
408.806, 6291.174
410.150, 7315.893
411.493, 8780.606
412.836, 10097.314
414.179, 11131.978
415.522, 11785.597
416.865, 11355.176
418.207, 10593.712
419.549, 9187.212
420.891, 7818.668
422.233, 6642.090
423.575, 5349.476
424.916, 4556.828
426.257, 4050.146
427.598, 3554.433
428.939, 3402.688
430.279, 3440.397
431.619, 4178.939
432.959, 4216.402
434.299, 4568.466
435.639, 4765.262
436.978, 4260.630
438.318, 3604.271
439.657, 2699.329
440.996, 2135.180
442.334, 1606.680
443.673, 1216.600
445.011, 1013.929
446.349, 728.986
447.687, 647.896
449.024, 440.566
450.361, 537.833
451.699, 427.073
453.036, 387.747
454.372, 365.855
455.709, 347.788
457.045, 410.413
458.381, 419.529
459.717, 399.135
461.053, 419.777
462.388, 395.675
463.724, 350.697
465.059, 348.327
466.394, 391.987
467.728, 423.424
469.063, 506.484
470.397, 433.755
471.731, 300.293
473.065, 333.122
474.398, 322.008
475.732, 363.900
477.065, 333.200
478.398, 377.001
479.731, 467.413
481.063, 464.943
482.396, 603.740
483.728, 647.307
485.060, 742.171
486.391, 675.300
487.723, 583.313
489.054, 484.833
490.385, 415.794
491.716, 397.445
493.047, 337.672
494.377, 341.072
495.708, 347.130
497.038, 360.019
498.368, 413.965
499.697, 447.538
501.027, 522.092
502.356, 601.223
503.685, 726.121
505.014, 892.688
506.342, 1041.201
507.671, 1284.696
508.999, 1497.193
510.327, 1725.675
511.655, 2059.158
512.982, 2504.640
514.310, 2968.114
515.637, 3388.583
516.964, 3774.045
518.291, 4116.492
519.617, 4288.934
520.944, 4392.369
522.270, 4358.800
523.596, 4320.230
524.921, 4684.651
526.247, 4771.069
527.572, 4808.469
528.897, 4661.864
530.222, 4315.242
531.547, 3653.600
532.871, 3190.945
534.196, 2660.269
535.520, 2358.570
536.844, 1976.850
538.167, 1772.107
539.491, 1603.342
540.814, 1507.555
542.137, 1359.744
543.460, 1270.911
544.783, 1246.055
546.105, 1138.176
547.427, 1156.274
548.749, 1072.348
550.071, 964.400
551.393, 901.427
552.714, 947.431
554.035, 900.411
555.356, 936.367
556.677, 810.298
557.998, 895.206
559.318, 770.089
560.638, 811.948
561.958, 761.782
563.278, 681.592
564.597, 701.377
565.917, 686.137
567.236, 683.872
568.555, 743.581
569.874, 744.905
571.192, 750.924
572.511, 801.558
573.829, 739.166
575.147, 756.748
576.464, 678.305
577.782, 749.838
579.099, 679.344
580.416, 624.826
581.733, 687.282
583.050, 571.713
584.366, 591.119
585.683, 545.500
586.999, 390.854
588.315, 260.185
589.630, 204.486
590.946, 125.757
592.261, 6.002
593.576, 19.813
594.891, 54.682
596.206, 45.625
597.520, 58.636
598.834, 165.722
600.148, 138.932
601.462, 159.251
602.776, 118.695
604.089, 131.233
605.402, 154.877
606.715, 80.645
608.028, 96.490
609.341, 50.434
610.653, 32.453
611.965, 82.592
613.277, 6.058
614.589, 27.421
615.901, 15.278
617.212, 28.929
618.523, 27.492
619.834, 99.057
621.145, 72.530
622.456, 155.781
623.766, 143.992
625.076, 195.353
626.386, 284.748
627.696, 329.115
629.006, 336.455
630.315, 461.327
631.624, 513.312
632.933, 482.224
634.242, 703.287
635.551, 719.417
636.859, 816.524
638.167, 896.802
639.475, 1110.328
640.783, 1145.705
642.090, 1428.844
643.398, 1577.316
644.705, 1780.712
646.012, 2159.273
647.318, 2521.797
648.625, 2852.626
649.931, 3230.803
651.237, 3728.023
652.543, 4228.523
653.849, 4767.638
655.155, 5342.505
656.460, 5976.127
657.765, 6753.559
659.070, 7697.239
660.375, 8842.761
661.679, 10681.979
662.984, 13137.704
664.288, 16381.285
665.592, 21388.682
666.895, 27427.176
668.199, 35530.508
669.502, 44608.418
670.805, 52371.121
672.108, 56995.332
673.411, 57451.918
674.713, 49246.199
676.016, 41755.281
677.318, 32272.141
678.620, 25205.775
679.921, 19180.479
681.223, 14781.215
682.524, 11804.661
683.825, 9347.224
685.126, 7781.950
686.427, 6391.498
687.727, 5626.042
689.028, 4848.079
690.328, 4144.432
691.628, 3629.723
692.927, 3163.956
694.227, 2919.140
695.526, 2616.293
696.825, 2332.416
698.124, 2022.509
699.423, 2002.572
700.721, 1781.604
702.020, 1703.607
703.318, 1521.580
704.616, 1414.523
705.913, 1239.436
707.211, 1169.320
708.508, 1208.174
709.805, 1086.998
711.102, 1056.793
712.399, 933.559
713.695, 946.296
714.992, 882.003
716.288, 832.682
717.584, 829.332
718.879, 752.953
720.175, 768.000
721.470, 792.109
722.765, 789.645
724.060, 755.151
725.355, 784.630
726.649, 787.080
727.944, 767.217
729.238, 788.485
730.532, 792.266
731.825, 834.605
733.119, 968.918
734.412, 1074.203
735.705, 1089.462
736.998, 1258.694
738.291, 1341.898
739.584, 1387.076
740.876, 1534.229
742.168, 1713.354
743.460, 1900.454
744.752, 2323.047
746.043, 2603.380
747.334, 2948.358
748.626, 3019.084
749.916, 3039.887
751.207, 2786.448
752.498, 2460.524
753.788, 2052.733
755.078, 1599.173
756.368, 1338.248
757.658, 1116.005
758.947, 975.270
760.237, 818.712
761.526, 775.637
762.815, 664.190
764.104, 581.724
765.392, 546.122
766.680, 502.625
767.969, 432.961
769.257, 431.842
770.544, 326.605
771.832, 352.950
773.119, 373.780
774.406, 303.554
775.693, 285.050
776.980, 202.400
778.267, 248.117
779.553, 265.777
780.839, 206.643
782.125, 212.875
783.411, 184.284
784.697, 178.717
785.982, 216.225
787.267, 140.722
788.552, 143.208
789.837, 82.685
791.122, 125.149
792.406, 104.603
793.690, 43.044
794.974, 73.471
796.258, 146.885
797.542, 47.289
798.825, 65.679
800.108, 25.056
801.391, 32.419
802.674, 4.768
803.957, 2.901
805.239, 25.593
806.522, 80.317
807.804, 6.101
809.085, 19.907
810.367, 50.741
811.649, 7.382
812.930, 18.511
814.211, 68.431
815.492, 26.598
816.772, 57.385
818.053, 1.412
819.333, 86.457
820.613, 1.561
821.893, 87.681
823.173, 65.860
824.452, 46.086
825.732, 56.348
827.011, 46.505
828.290, 23.988
829.568, 57.350
830.847, 54.750
832.125, 69.190
833.403, 71.673
834.681, 56.202
835.959, 69.768
837.236, 18.376
838.514, 60.003
839.791, 20.667
841.068, 5.651
842.345, 33.040
843.621, 31.248
844.898, 36.528
846.174, 40.804
847.450, 94.076
848.726, 47.343
850.001, 113.606
851.277, 127.866
852.552, 84.121
853.827, 112.373
855.102, 77.623
856.376, 139.868
857.651, 136.111
858.925, 158.352
860.199, 169.590
861.473, 130.826
862.746, 170.769
864.020, 253.292
865.293, 218.523
866.566, 272.753
867.839, 309.982
869.112, 312.211
870.384, 298.443
871.656, 302.674
872.928, 348.908
874.200, 329.143
875.472, 325.378
876.744, 388.614
878.015, 332.867
879.286, 444.121
880.557, 382.397
881.828, 474.675
883.098, 490.956
884.369, 506.256
885.639, 633.559
886.909, 596.880
888.178, 603.206
889.448, 638.533
890.717, 680.870
891.987, 699.210
893.256, 716.581
894.524, 685.967
895.793, 772.356
897.061, 757.761
898.330, 841.181
899.598, 825.615
900.865, 802.089
902.133, 879.591
903.401, 1001.130
904.668, 1036.727
905.935, 1152.354
907.202, 1129.027
908.468, 1271.770
909.735, 1282.570
911.001, 1403.446
912.267, 1509.375
913.533, 1619.360
914.799, 1811.642
916.064, 1997.498
917.330, 2244.641
918.595, 2513.832
919.860, 2808.054
921.124, 3318.328
922.389, 3805.622
923.653, 4326.946
924.918, 5046.293
926.182, 5654.656
927.445, 6436.048
928.709, 7049.459
929.972, 7208.891
931.236, 6862.360
932.499, 6285.839
933.761, 5483.330
935.024, 4761.847
936.286, 4074.372
937.549, 3387.912
938.811, 3131.463
940.073, 2814.021
941.334, 2834.600
942.596, 2738.965
943.857, 2848.535
945.118, 3012.034
946.379, 3081.291
947.640, 3162.691
948.900, 3065.328
950.161, 2756.651
951.421, 2586.077
952.681, 2337.349
953.940, 2145.672
955.200, 1921.699
956.459, 1838.368
957.719, 1793.846
958.978, 1640.044
960.236, 1560.641
961.495, 1639.528
962.753, 1372.689
964.012, 1509.022
965.270, 1372.092
966.527, 1367.304
967.785, 1429.801
969.043, 1342.777
970.300, 1416.874
971.557, 1401.145
972.814, 1412.300
974.071, 1415.594
975.327, 1369.295
976.583, 1451.201
977.840, 1375.555
979.095, 1413.538
980.351, 1434.799
981.607, 1372.249
982.862, 1429.902
984.117, 1443.763
985.372, 1407.534
986.627, 1433.267
987.882, 1493.263
989.136, 1415.130
990.390, 1593.814
991.644, 1491.664
992.898, 1595.506
994.152, 1682.837
995.405, 1736.850
996.659, 1831.909
997.912, 1852.010
999.165, 2058.146
1000.417, 2184.295
1001.670, 2241.458
1002.922, 2535.636
1004.174, 2657.828
1005.426, 2828.035
1006.678, 3038.257
1007.930, 3113.493
1009.181, 3289.749
1010.432, 3445.017
1011.683, 3656.302
1012.934, 3947.603
1014.185, 4042.041
1015.435, 4434.368
1016.685, 4740.757
1017.935, 5129.184
1019.185, 5789.560
1020.435, 6370.759
1021.684, 7469.194
1022.934, 8579.092
1024.183, 10185.783
1025.432, 11889.225
1026.680, 13460.983
1027.929, 15034.962
1029.177, 15175.564
1030.425, 14273.883
1031.673, 12728.626
1032.921, 10970.426
1034.169, 9207.179
1035.416, 7878.864
1036.663, 6737.231
1037.911, 6035.083
1039.157, 5503.887
1040.404, 4945.959
1041.650, 4879.782
1042.897, 4732.663
1044.143, 4655.945
1045.389, 4785.882
1046.634, 4841.238
1047.880, 5354.573
1049.125, 5727.190
1050.371, 6290.189
1051.615, 7117.402
1052.860, 7770.406
1054.105, 8829.475
1055.349, 9486.172
1056.593, 10222.514
1057.837, 10336.661
1059.081, 10195.646
1060.325, 9499.721
1061.568, 8727.711
1062.812, 8016.833
1064.055, 7543.997
1065.298, 7410.876
1066.540, 7148.042
1067.783, 7164.093
1069.025, 6736.034
1070.267, 6233.016
1071.509, 5464.938
1072.751, 4791.076
1073.993, 4149.938
1075.234, 3830.004
1076.475, 3254.260
1077.716, 3094.211
1078.957, 2850.497
1080.198, 2550.474
1081.438, 2385.253
1082.679, 2260.358
1083.919, 2123.809
1085.159, 1914.588
1086.398, 1785.503
1087.638, 1691.866
1088.877, 1479.791
1090.116, 1380.599
1091.355, 1358.624
1092.594, 1248.810
1093.833, 1243.029
1095.071, 1185.830
1096.309, 1138.122
1097.547, 1151.146
1098.785, 1096.198
1100.023, 1108.608
1101.260, 1073.591
1102.498, 932.604
1103.735, 1032.769
1104.972, 1018.733
1106.208, 920.306
1107.445, 948.303
1108.681, 898.226
1109.918, 888.215
1111.154, 887.348
1112.389, 828.290
1113.625, 917.127
1114.860, 803.952
1116.096, 796.269
1117.331, 845.509
1118.566, 667.499
1119.800, 739.682
1121.035, 723.657
1122.269, 675.637
1123.503, 810.977
1124.737, 616.878
1125.971, 610.163
1127.205, 670.600
1128.438, 539.618
1129.671, 594.856
1130.904, 528.816
1132.137, 422.766
1133.370, 588.111
1134.602, 422.077
1135.834, 438.262
1137.066, 599.504
1138.298, 667.531
1139.530, 359.893
1140.762, 358.368
1141.993, 180.476
1143.224, 421.805
1144.455, 198.938
1145.686, 291.978
1146.917, 268.557
1148.147, 168.489
1149.377, 214.702
1150.607, 192.907
1151.837, 153.834
1153.067, 163.268
1154.296, 106.410
1155.526, 162.441
1156.755, 139.791
1157.984, 169.633
1159.213, 130.426
1160.441, 100.392
1161.670, 24.354
1162.898, 108.787
1164.126, 46.814
1165.354, 42.880
1166.581, 70.878
1167.809, 16.390
1169.036, 57.700
1170.263, 7.072
1171.490, 7.602
1172.717, 108.587
1173.943, 2.396
1175.170, 57.982
1176.396, 46.906
1177.622, 77.438
1178.848, 22.306
1180.073, 16.048
1181.299, 65.492
1182.524, 51.966
1183.749, 57.591
1184.974, 20.744
1186.199, 36.279
1187.423, 18.426
1188.648, 39.838
1189.872, 93.349
1191.096, 35.179
1192.320, 24.948
1193.543, 34.786
1194.767, 17.724
1195.990, 21.454
1197.213, 106.467
1198.436, 13.562
1199.659, 41.366
1200.881, 73.545
1202.104, 113.208
1203.326, 28.853
1204.548, 9.165
1205.770, 49.533
1206.991, 38.663
1208.213, 53.918
1209.434, 24.712
1210.655, 17.245
1211.876, 86.754
1213.096, 5.342
1214.317, 34.891
1215.537, 78.510
1216.757, 16.783
1217.977, 86.552
1219.197, 37.077
1220.417, 2.581
1221.636, 56.836
1222.855, 34.607
1224.074, 2.570
1225.293, 18.258
1226.512, 75.479
1227.731, 136.542
1228.949, 59.550
1230.167, 49.943
1231.385, 143.968
1232.603, 8.805
1233.820, 23.253
1235.038, 107.077
1236.255, 21.139
1237.472, 87.714
1238.689, 10.561
1239.906, 42.234
1241.122, 142.894
1242.338, 33.527
1243.555, 90.409
1244.771, 83.993
1245.986, 12.280
1247.202, 101.237
1248.417, 11.732
1249.633, 62.267
1250.848, 110.708
1252.063, 26.125
1253.277, 106.620
1254.492, 129.984
1255.706, 16.618
1256.920, 83.295
1258.134, 132.581
1259.348, 22.177
1260.562, 218.696
1261.775, 51.877
1262.988, 68.788
1264.201, 131.913
1265.414, 86.009
1266.627, 141.630
1267.839, 140.669
1269.052, 59.988
1270.264, 174.175
1271.476, 79.115
1272.688, 53.067
1273.899, 147.939
1275.111, 95.779
1276.322, 166.575
1277.533, 171.355
1278.744, 80.105
1279.955, 241.084
1281.165, 123.767
1282.376, 112.473
1283.586, 164.096
1284.796, 85.686
1286.006, 18.467
1287.215, 144.992
1288.425, 13.514
1289.634, 137.121
1290.843, 157.543
1292.052, 50.936
1293.261, 233.473
1294.469, 109.805
1295.678, 109.272
1296.886, 173.980
1298.094, 61.223
1299.302, 117.637
1300.509, 141.819
1301.717, 20.970
1302.924, 204.263
1304.131, 48.331
1305.338, 88.366
1306.545, 144.617
1307.752, 54.449
1308.958, 122.378
1310.164, 110.302
1311.370, 28.099
1312.576, 192.016
1313.782, 92.011
1314.987, 65.734
1316.193, 287.260
1317.398, 104.697
1318.603, 143.359
1319.807, 221.789
1321.012, 105.871
1322.216, 157.311
1323.421, 118.071
1324.625, 22.323
1325.829, 217.562
1327.032, 160.861
1328.236, 160.114
1329.439, 206.790
1330.642, 117.840
1331.845, 179.921
1333.048, 184.929
1334.251, 48.952
1335.453, 200.902
1336.656, 196.431
1337.858, 123.279
1339.060, 279.687
1340.261, 100.099
1341.463, 182.208
1342.664, 153.940
1343.866, 71.414
1345.067, 156.079
1346.267, 187.662
1347.468, 92.588
1348.669, 193.853
1349.869, 128.365
1351.069, 96.948
1352.269, 174.424
1353.469, 78.966
1354.668, 155.355
1355.868, 261.771
1357.067, 35.361
1358.266, 142.652
1359.465, 203.251
1360.664, 52.730
1361.862, 160.155
1363.061, 78.852
1364.259, 78.091
1365.457, 222.595
1366.655, 50.882
1367.852, 130.968
1369.050, 118.340
1370.247, 31.629
1371.444, 228.689
1372.641, 116.266
1373.838, 6.454
1375.035, 197.308
1376.231, 36.087
1377.427, 63.260
1378.623, 131.257
1379.819, 26.396
1381.015, 84.284
1382.211, 137.258
1383.406, 85.188
1384.601, 151.618
1385.796, 163.233
1386.991, 40.459
1388.185, 130.330
1389.380, 64.868
1390.574, 116.736
1391.768, 204.268
1392.962, 30.334
1394.156, 170.118
1395.350, 112.369
1396.543, 78.772
1397.736, 130.846
1398.929, 33.179
1400.122, 15.383
1401.315, 140.751
1402.507, 21.949
1403.700, 30.179
1404.892, 119.307
1406.084, 10.659
1407.276, 152.837
1408.467, 131.331
1409.659, 5.226
1410.850, 152.333
1412.041, 17.418
1413.232, 39.917
1414.423, 173.751
1415.614, 79.842
1416.804, 89.906
1417.994, 169.357
1419.184, 19.438
1420.374, 172.936
1421.564, 85.946
1422.753, 19.344
1423.943, 165.832
1425.132, 69.316
1426.321, 90.530
1427.510, 149.169
1428.698, 26.732
1429.887, 92.035
1431.075, 196.214
1432.263, 33.335
1433.451, 174.037
1434.639, 90.415
1435.827, 33.773
1437.014, 135.104
1438.201, 35.811
1439.388, 7.242
1440.575, 174.872
1441.762, 25.186
1442.949, 74.463
1444.135, 169.530
1445.321, 21.060
1446.507, 107.765
1447.693, 128.446
1448.879, 7.089
1450.064, 182.739
1451.250, 62.190
1452.435, 45.612
1453.620, 189.657
1454.805, 41.880
1455.989, 144.455
1457.174, 144.280
1458.358, 3.559
1459.542, 140.110
1460.726, 175.532
1461.910, 31.242
1463.093, 217.640
1464.277, 78.882
1465.460, 40.655
1466.643, 163.453
1467.826, 40.540
1469.009, 32.776
1470.191, 203.174
1471.373, 21.577
1472.556, 157.601
1473.738, 187.778
1474.919, 0.242
1476.101, 135.780
1477.283, 86.880
1478.464, 89.348
1479.645, 186.246
1480.826, 77.458
1482.007, 69.363
1483.187, 196.623
1484.368, 42.615
1485.548, 130.680
1486.728, 180.422
1487.908, 50.058
1489.088, 193.881
1490.268, 160.009
1491.447, 34.706
1492.626, 219.682
1493.805, 154.743
1494.984, 97.668
1496.163, 207.442
1497.341, 34.606
1498.520, 143.147
1499.698, 194.832
1500.876, 9.710
