##NAMES=Actinolite
##RRUFFID=R040063
##IDEAL CHEMISTRY=Ca_2_(Mg_4.5-2.5_Fe^2+^_0.5-2.5_)Si_8_O_22_(OH)_2_
##LOCALITY=Harford County, Maryland, USA
##OWNER=RRUFF
##SOURCE=University of Arizona Mineral Museum
##DESCRIPTION=Mass of green acicular to bladed crystals associated with chlorite
##STATUS=The identification of this mineral has been confirmed by X-ray diffraction and chemical analysis
##URL=rruff.info/R040063
##MEASURED CHEMISTRY=(Ca_1.90_Na_0.06_Mn_0.04_)_Σ=2_(Mg_4.35_Fe_0.65_)_Σ=5_(Si_7.92_Al_0.08_)_Σ=8_O_22_(OH)_2_
##PIN_ID=S00044
##ORIENTATION=Laser parallel to b* (0 1 0). Fiducial mark perpendicular to laser is parallel to c [0 0 1]
131.615, 0.000
133.003, 101.736
134.390, 1.395
135.777, 103.636
137.164, 101.226
138.550, 23.639
139.937, 56.978
141.323, 0.080
142.709, 51.977
144.094, 13.077
145.480, 104.879
146.865, 298.978
148.250, 574.041
149.635, 946.848
151.019, 1921.417
152.403, 3455.518
153.788, 5380.913
155.171, 7347.430
156.555, 9024.921
157.939, 9603.268
159.322, 9112.373
160.705, 7412.156
162.088, 5562.546
163.470, 3943.484
164.853, 2924.918
166.235, 2661.806
167.617, 2629.262
168.998, 3275.130
170.380, 4190.298
171.761, 5945.572
173.142, 7830.989
174.523, 9956.568
175.904, 11262.305
177.284, 11628.193
178.664, 10744.224
180.044, 9000.392
181.424, 6956.684
182.803, 5013.103
184.183, 3559.637
185.562, 2656.282
186.940, 1963.033
188.319, 1594.884
189.698, 1320.832
191.076, 994.872
192.454, 1010.999
193.831, 878.210
195.209, 883.501
196.586, 788.869
197.963, 801.309
199.340, 850.819
200.717, 928.396
202.093, 1046.053
203.470, 1127.114
204.846, 1422.880
206.221, 1449.584
207.597, 1832.277
208.972, 2185.154
210.347, 2957.115
211.722, 3544.293
213.097, 4481.989
214.472, 5900.052
215.846, 7438.201
217.220, 9546.450
218.594, 11214.736
219.967, 12653.075
221.341, 13211.461
222.714, 12559.896
224.087, 11228.396
225.460, 9426.922
226.832, 7455.460
228.204, 5674.015
229.577, 4272.590
230.948, 3091.243
232.320, 2449.916
233.692, 1745.610
235.063, 1282.328
236.434, 1094.067
237.805, 764.829
239.175, 607.614
240.545, 597.421
241.916, 588.250
243.286, 488.101
244.655, 615.974
246.025, 674.869
247.394, 737.784
248.763, 786.720
250.132, 771.675
251.501, 694.644
252.869, 691.625
254.237, 581.619
255.605, 487.626
256.973, 439.646
258.340, 380.678
259.708, 393.722
261.075, 215.777
262.442, 227.844
263.808, 218.921
265.175, 88.009
266.541, 52.107
267.907, 62.215
269.273, 68.333
270.639, 107.538
272.004, 80.399
273.369, 131.247
274.734, 188.086
276.099, 12.915
277.463, 135.736
278.828, 24.550
280.192, 83.358
281.556, 20.160
282.919, 47.056
284.283, 97.256
285.646, 182.850
287.009, 277.562
288.372, 355.673
289.734, 403.641
291.097, 510.242
292.459, 759.828
293.821, 724.993
295.183, 987.690
296.544, 1151.743
297.905, 1469.173
299.266, 1644.918
300.627, 1684.549
301.988, 1637.469
303.348, 1448.316
304.709, 1299.591
306.069, 969.000
307.428, 911.126
308.788, 760.532
310.147, 569.765
311.507, 540.329
312.865, 450.890
314.224, 409.560
315.583, 367.118
316.941, 401.940
318.299, 439.828
319.657, 301.777
321.015, 373.781
322.372, 444.837
323.729, 474.940
325.086, 579.088
326.443, 780.300
327.800, 928.203
329.156, 1010.466
330.512, 1173.764
331.868, 1256.087
333.224, 1359.431
334.579, 1331.792
335.935, 1357.189
337.290, 1638.586
338.645, 1537.997
339.999, 1667.425
341.354, 1556.866
342.708, 1586.322
344.062, 1475.807
345.416, 1495.287
346.769, 1464.779
348.123, 1424.282
349.476, 1343.796
350.829, 1287.892
352.182, 1222.642
353.534, 1144.393
354.887, 1105.941
356.239, 1055.498
357.591, 1038.046
358.942, 853.633
360.294, 979.209
361.645, 1005.792
362.996, 977.380
364.347, 1214.974
365.698, 1328.507
367.048, 1607.917
368.398, 1657.282
369.748, 1606.621
371.098, 1475.964
372.448, 1455.312
373.797, 1394.670
375.146, 1167.033
376.495, 1196.400
377.844, 1061.770
379.192, 1104.140
380.540, 1201.513
381.889, 1133.885
383.236, 1440.258
384.584, 1709.632
385.932, 1979.005
387.279, 2638.379
388.626, 3197.752
389.973, 3617.123
391.319, 3796.496
392.666, 3875.865
394.012, 3425.235
395.358, 2964.603
396.704, 2373.970
398.049, 1933.334
399.394, 1552.694
400.740, 1182.055
402.084, 1171.411
403.429, 938.766
404.774, 990.143
406.118, 1079.725
407.462, 1019.069
408.806, 1128.411
410.150, 1317.749
411.493, 1427.479
412.836, 1436.810
414.179, 1456.146
415.522, 1335.801
416.865, 1155.119
418.207, 1044.473
419.549, 923.782
420.891, 702.106
422.233, 597.405
423.575, 474.698
424.916, 321.987
426.257, 282.271
427.598, 146.578
428.939, 198.850
430.279, 183.781
431.619, 317.046
432.959, 397.026
434.299, 439.729
435.639, 460.512
436.978, 402.037
438.318, 377.353
439.657, 238.536
440.996, 93.647
442.334, 72.245
443.673, 18.035
445.011, 17.771
446.349, 33.593
447.687, 55.441
449.024, 105.318
450.361, 62.238
451.699, 55.202
453.036, 139.233
454.372, 21.376
455.709, 88.599
457.045, 29.902
458.381, 49.235
459.717, 17.603
461.053, 45.987
462.388, 62.408
463.724, 71.122
465.059, 29.344
466.394, 12.825
467.728, 66.667
469.063, 7.810
470.397, 14.688
471.731, 40.174
473.065, 52.348
474.398, 86.082
475.732, 1.484
477.065, 107.931
478.398, 59.339
479.731, 88.744
481.063, 63.144
482.396, 130.537
483.728, 99.955
485.060, 256.366
486.391, 50.787
487.723, 29.769
489.054, 64.640
490.385, 72.052
491.716, 75.455
493.047, 167.900
494.377, 66.341
495.708, 56.772
497.038, 73.215
498.368, 116.647
499.697, 70.093
501.027, 86.530
502.356, 174.957
503.685, 61.389
505.014, 231.810
506.342, 310.222
507.671, 378.620
508.999, 227.048
510.327, 355.464
511.655, 303.873
512.982, 322.271
514.310, 380.656
515.637, 489.032
516.964, 477.402
518.291, 345.760
519.617, 484.105
520.944, 622.439
522.270, 340.762
523.596, 459.091
524.921, 637.408
526.247, 665.720
527.572, 644.018
528.897, 642.314
530.222, 740.601
531.547, 648.877
532.871, 707.140
534.196, 663.053
535.520, 603.634
536.844, 521.863
538.167, 530.081
539.491, 358.288
540.814, 426.483
542.137, 384.667
543.460, 442.838
544.783, 400.997
546.105, 410.745
547.427, 387.282
548.749, 385.406
550.071, 323.519
551.393, 251.617
552.714, 269.706
554.035, 317.781
555.356, 315.845
556.677, 183.896
557.998, 351.935
559.318, 109.962
560.638, 207.977
561.958, 255.979
563.278, 83.968
564.597, 61.944
565.917, 109.905
567.236, 137.854
568.555, 235.791
569.874, 53.715
571.192, 151.622
572.511, 89.517
573.829, 57.397
575.147, 195.263
576.464, 83.115
577.782, 200.955
579.099, 88.781
580.416, 145.645
581.733, 152.154
583.050, 182.184
584.366, 169.959
585.683, 87.721
586.999, 95.470
588.315, 43.205
589.630, 30.922
590.946, 58.615
592.261, 23.690
593.576, 16.033
594.891, 131.603
596.206, 30.739
597.520, 106.869
598.834, 54.485
600.148, 192.089
601.462, 129.692
602.776, 126.943
604.089, 92.090
605.402, 103.113
606.715, 228.902
608.028, 168.432
609.341, 190.626
610.653, 283.224
611.965, 170.513
613.277, 326.625
614.589, 277.030
615.901, 311.092
617.212, 274.696
618.523, 369.479
619.834, 312.457
621.145, 404.381
622.456, 481.809
623.766, 649.381
625.076, 654.354
626.386, 628.888
627.696, 694.132
629.006, 640.658
630.315, 727.951
631.624, 770.337
632.933, 839.512
634.242, 895.821
635.551, 933.158
636.859, 1161.034
638.167, 1248.354
639.475, 1455.997
640.783, 1560.663
642.090, 1827.957
643.398, 2039.229
644.705, 2143.804
646.012, 2588.638
647.318, 2828.589
648.625, 3495.834
649.931, 3994.950
651.237, 4013.003
652.543, 4170.217
653.849, 4572.361
655.155, 5019.555
656.460, 5532.102
657.765, 6139.273
659.070, 7026.434
660.375, 8107.053
661.679, 9974.177
662.984, 12241.305
664.288, 15108.422
665.592, 19164.219
666.895, 24371.311
668.199, 30028.924
669.502, 35075.992
670.805, 38873.059
672.108, 39340.266
673.411, 37558.031
674.713, 31615.053
676.016, 26142.064
677.318, 20599.076
678.620, 16166.068
679.921, 12367.137
681.223, 9664.106
682.524, 7792.012
683.825, 6428.962
685.126, 5337.732
686.427, 4524.660
687.727, 3991.577
689.028, 3618.481
690.328, 3015.378
691.628, 2712.260
692.927, 2379.135
694.227, 2065.996
695.526, 1812.848
696.825, 1669.689
698.124, 1396.520
699.423, 1313.341
700.721, 980.150
702.020, 1116.950
703.318, 913.739
704.616, 730.518
705.913, 707.287
707.211, 564.046
708.508, 690.795
709.805, 637.534
711.102, 634.264
712.399, 380.983
713.695, 397.694
714.992, 514.395
716.288, 281.085
717.584, 557.768
718.879, 284.439
720.175, 441.078
721.470, 347.500
722.765, 364.146
724.060, 250.783
725.355, 167.411
726.649, 273.636
727.944, 280.248
729.238, 166.841
730.532, 353.104
731.825, 239.691
733.119, 406.229
734.412, 392.801
735.705, 199.346
736.998, 405.901
738.291, 242.451
739.584, 298.992
740.876, 425.526
742.168, 472.025
743.460, 398.545
744.752, 464.395
746.043, 472.095
747.334, 466.062
748.626, 548.667
749.916, 521.748
751.207, 598.229
752.498, 410.376
753.788, 466.847
755.078, 282.898
756.368, 349.356
757.658, 305.810
758.947, 232.261
760.237, 148.716
761.526, 145.185
762.815, 71.671
764.104, 58.188
765.392, 184.724
766.680, 191.277
767.969, 12.128
769.257, 144.461
770.544, 81.077
771.832, 2.295
773.119, 104.342
774.406, 40.987
775.693, 97.648
776.980, 14.332
778.267, 48.989
779.553, 87.670
780.839, 105.663
782.125, 30.939
783.411, 17.549
784.697, 74.159
785.982, 60.769
787.267, 22.604
788.552, 5.995
789.837, 10.611
791.122, 2.787
792.406, 93.807
793.690, 0.396
794.974, 113.020
796.258, 143.498
797.542, 59.986
798.825, 113.509
800.108, 17.097
801.391, 40.683
802.674, 155.705
803.957, 187.908
805.239, 11.626
806.522, 24.646
807.804, 79.083
809.085, 117.144
810.367, 86.633
811.649, 19.544
812.930, 65.720
814.211, 58.104
815.492, 18.039
816.772, 204.182
818.053, 130.324
819.333, 143.533
820.613, 32.534
821.893, 11.398
823.173, 34.662
824.452, 10.723
825.732, 3.216
827.011, 17.155
828.290, 88.896
829.568, 74.950
830.847, 91.004
832.125, 197.060
833.403, 76.885
834.681, 109.137
835.959, 24.841
837.236, 11.173
838.514, 42.812
839.791, 133.188
841.068, 79.189
842.345, 165.193
843.621, 121.198
844.898, 147.207
846.174, 173.218
847.450, 239.231
848.726, 195.247
850.001, 41.268
851.277, 187.290
852.552, 213.317
853.827, 369.347
855.102, 185.382
856.376, 381.419
857.651, 407.461
858.925, 593.506
860.199, 459.556
861.473, 555.608
862.746, 471.666
864.020, 527.729
865.293, 303.797
866.566, 199.870
867.839, 415.947
869.112, 232.039
870.384, 338.135
871.656, 214.255
872.928, 330.380
874.200, 286.538
875.472, 252.707
876.744, 268.883
878.015, 285.071
879.286, 351.268
880.557, 137.471
881.828, 233.681
883.098, 249.897
884.369, 476.122
885.639, 242.359
886.909, 398.603
888.178, 234.855
889.448, 381.114
890.717, 457.382
891.987, 403.657
893.256, 529.940
894.524, 326.240
895.793, 522.584
897.061, 538.935
898.330, 485.298
899.598, 681.674
900.865, 558.061
902.133, 554.507
903.401, 850.979
904.668, 667.460
905.935, 703.971
907.202, 750.489
908.468, 827.044
909.735, 1093.606
911.001, 1160.178
912.267, 1266.811
913.533, 1263.451
914.799, 1330.102
916.064, 1366.762
917.330, 1463.431
918.595, 1820.136
919.860, 2036.851
921.124, 2412.117
922.389, 2678.851
923.653, 3305.594
924.918, 3661.564
926.182, 4408.328
927.445, 4875.098
928.709, 5041.877
929.972, 5058.666
931.236, 4671.850
932.499, 4418.659
933.761, 3828.342
935.024, 2995.172
936.286, 2812.012
937.549, 2208.859
938.811, 2085.725
940.073, 1870.781
941.334, 1756.894
942.596, 1653.788
943.857, 1530.146
945.118, 1597.061
946.379, 1673.653
947.640, 1453.223
948.900, 1660.168
950.161, 1113.138
951.421, 1362.782
952.681, 1198.516
953.940, 1122.809
955.200, 1049.811
956.459, 1054.946
957.719, 801.146
958.978, 918.187
960.236, 680.286
961.495, 797.356
962.753, 729.073
964.012, 686.169
965.270, 703.278
966.527, 716.929
967.785, 684.064
969.043, 643.056
970.300, 608.381
971.557, 516.869
972.814, 464.062
974.071, 440.740
975.327, 477.962
976.583, 415.198
977.840, 502.291
979.095, 468.833
980.351, 376.110
981.607, 543.401
982.862, 443.597
984.117, 528.027
985.372, 401.278
986.627, 418.629
987.882, 425.050
989.136, 332.429
990.390, 367.995
991.644, 445.406
992.898, 272.833
994.152, 490.279
995.405, 497.737
996.659, 495.269
997.912, 572.814
999.165, 610.376
1000.417, 747.962
1001.670, 855.564
1002.922, 763.183
1004.174, 820.817
1005.426, 718.467
1006.678, 726.137
1007.930, 703.832
1009.181, 621.541
1010.432, 819.266
1011.683, 727.006
1012.934, 824.759
1014.185, 912.525
1015.435, 1020.323
1016.685, 1118.163
1017.935, 1192.347
1019.185, 1275.384
1020.435, 1373.268
1021.684, 1405.246
1022.934, 1563.157
1024.183, 1797.198
1025.432, 1566.041
1026.680, 1773.997
1027.929, 1983.437
1029.177, 1771.420
1030.425, 1909.417
1031.673, 1927.560
1032.921, 1955.582
1034.169, 1913.629
1035.416, 1892.604
1036.663, 1980.677
1037.911, 2239.003
1039.157, 2247.398
1040.404, 2825.529
1041.650, 2843.862
1042.897, 3442.019
1044.143, 3692.086
1045.389, 4358.574
1046.634, 5216.771
1047.880, 6125.279
1049.125, 7375.719
1050.371, 8791.968
1051.615, 10288.377
1052.860, 11886.777
1054.105, 13645.463
1055.349, 14994.044
1056.593, 16242.352
1057.837, 15466.210
1059.081, 14794.537
1060.325, 13142.869
1061.568, 10883.400
1062.812, 9311.759
1064.055, 7920.217
1065.298, 6688.953
1066.540, 5707.339
1067.783, 4842.045
1069.025, 4350.800
1070.267, 3769.248
1071.509, 3008.151
1072.751, 2766.699
1073.993, 2185.188
1075.234, 1983.868
1076.475, 1792.374
1077.716, 1530.896
1078.957, 1460.083
1080.198, 1288.622
1081.438, 1107.492
1082.679, 1066.080
1083.919, 984.858
1085.159, 993.713
1086.398, 992.363
1087.638, 872.438
1088.877, 771.102
1090.116, 789.778
1091.355, 668.471
1092.594, 917.343
1093.833, 616.047
1095.071, 674.757
1096.309, 643.473
1097.547, 482.224
1098.785, 621.071
1100.023, 529.847
1101.260, 458.700
1102.498, 487.521
1103.735, 366.357
1104.972, 475.904
1106.208, 624.796
1107.445, 433.739
1108.681, 513.281
1109.918, 352.210
1111.154, 471.404
1112.389, 490.361
1113.625, 259.319
1114.860, 348.280
1116.096, 227.260
1117.331, 236.865
1118.566, 475.847
1119.800, 224.827
1121.035, 224.208
1122.269, 323.229
1123.503, 162.253
1124.737, 341.277
1125.971, 180.302
1127.205, 259.326
1128.438, 298.354
1129.671, 127.379
1130.904, 36.401
1132.137, 195.531
1133.370, 44.552
1134.602, 283.984
1135.834, 103.020
1137.066, 212.072
1138.298, 21.850
1139.530, 210.890
1140.762, 270.031
1141.993, 144.328
1143.224, 234.547
1144.455, 168.477
1145.686, 230.914
1146.917, 69.931
1148.147, 91.597
1149.377, 70.601
1150.607, 120.401
1151.837, 129.730
1153.067, 119.074
1154.296, 139.382
1155.526, 100.877
1156.755, 49.839
1157.984, 69.194
1159.213, 49.829
1160.441, 97.077
1161.670, 86.005
1162.898, 24.924
1164.126, 94.619
1165.354, 113.518
1166.581, 37.594
1167.809, 312.004
1169.036, 79.145
1170.263, 120.234
1171.490, 109.945
1172.717, 21.217
1173.943, 157.762
1175.170, 32.775
1176.396, 145.893
1177.622, 94.723
1178.848, 33.730
1180.073, 202.359
1181.299, 124.213
1182.524, 17.186
1183.749, 171.809
1184.974, 22.098
1186.199, 10.646
1187.423, 162.961
1188.648, 42.184
1189.872, 200.844
1191.096, 29.447
1192.320, 130.869
1193.543, 207.941
1194.767, 28.381
1195.990, 47.307
1197.213, 225.615
1198.436, 124.895
1199.659, 73.309
1200.881, 14.971
1202.104, 43.303
1203.326, 212.115
1204.548, 79.125
1205.770, 168.936
1206.991, 146.977
1208.213, 182.721
1209.434, 205.180
1210.655, 103.061
1211.876, 42.508
1213.096, 310.348
1214.317, 81.500
1215.537, 66.246
1216.757, 283.975
1217.977, 45.285
1219.197, 132.969
1220.417, 180.734
1221.636, 109.373
1222.855, 246.994
1224.074, 166.502
1225.293, 25.488
1226.512, 253.584
1227.731, 96.180
1228.949, 263.943
1230.167, 132.055
1231.385, 123.379
1232.603, 410.820
1233.820, 9.203
1235.038, 376.938
1236.255, 294.314
1237.472, 293.682
1238.689, 141.031
1239.906, 258.363
1241.122, 186.553
1242.338, 323.857
1243.555, 281.143
1244.771, 168.732
1245.986, 295.982
1247.202, 183.219
1248.417, 210.783
1249.633, 537.984
1250.848, 55.164
1252.063, 322.326
1253.277, 189.473
1254.492, 67.863
1255.706, 264.969
1256.920, 142.057
1258.134, 229.498
1259.348, 326.541
1260.562, 234.086
1261.775, 491.248
1262.988, 78.154
1264.201, 275.336
1265.414, 452.180
1266.627, 128.998
1267.839, 246.672
1269.052, 353.422
1270.264, 250.152
1271.476, 387.256
1272.688, 363.877
1273.899, 250.512
1275.111, 347.080
1276.322, 423.615
1277.533, 200.170
1278.744, 356.652
1279.955, 133.109
1281.165, 229.922
1282.376, 226.295
1283.586, 82.617
1284.796, 289.346
1286.006, 165.600
1287.215, 61.945
1288.425, 318.125
1289.634, 155.732
1290.843, 120.494
1292.052, 306.496
1293.261, 12.471
1294.469, 278.393
1295.678, 84.275
1296.886, 160.051
1298.094, 155.801
1299.302, 51.494
1300.509, 17.145
1301.717, 402.740
1302.924, 148.293
1304.131, 493.771
1305.338, 353.033
1306.545, 964.559
1307.752, 329.900
1308.958, 114.828
1310.164, 300.381
1311.370, 305.557
1312.576, 99.195
1313.782, 364.295
1314.987, 115.279
1316.193, 70.309
1317.398, 339.176
1318.603, 173.215
1319.807, 88.109
1321.012, 311.498
1322.216, 196.312
1323.421, 151.082
1324.625, 315.684
1325.829, 0.375
1327.032, 435.014
1328.236, 138.703
1329.439, 33.270
1330.642, 267.545
1331.845, 8.277
1333.048, 96.139
1334.251, 200.322
1335.453, 54.656
1336.656, 207.051
1337.858, 122.998
1339.060, 17.213
1340.261, 101.086
1341.463, 265.000
1342.664, 49.096
1343.866, 235.000
1345.067, 11.109
1346.267, 182.473
1347.468, 86.135
1348.669, 90.049
1349.869, 288.387
1351.069, 232.238
1352.269, 6.057
1353.469, 407.660
1354.668, 231.412
1355.868, 15.049
1357.067, 338.387
1358.266, 127.939
1359.465, 219.395
1360.664, 203.578
1361.862, 22.857
1363.061, 240.244
1364.259, 173.691
1365.457, 37.189
1366.655, 470.492
1367.852, 4.838
1369.050, 18.295
1370.247, 81.033
1371.444, 45.613
1372.641, 137.414
1373.838, 70.625
1375.035, 26.428
1376.231, 216.354
1377.427, 39.271
1378.623, 113.279
1379.819, 438.656
1381.015, 3.805
1382.211, 299.084
1383.406, 374.229
1384.601, 49.381
1385.796, 344.533
1386.991, 308.883
1388.185, 123.203
1389.380, 287.918
1390.574, 222.873
1391.768, 117.777
1392.962, 371.936
1394.156, 386.336
1395.350, 281.088
1396.543, 455.799
1397.736, 30.461
1398.929, 335.082
1400.122, 259.533
1401.315, 113.586
1402.507, 287.146
1403.700, 91.227
1404.892, 164.352
1406.084, 341.682
1407.276, 112.424
1408.467, 365.422
1409.659, 218.488
1410.850, 37.369
1412.041, 340.656
1413.232, 194.424
1414.423, 88.152
1415.614, 257.109
1416.804, 159.584
1417.994, 302.248
1419.184, 304.279
1420.374, 156.268
1421.564, 279.453
1422.753, 412.318
1423.943, 70.867
1425.132, 570.924
1426.321, 348.365
1427.510, 60.117
1428.698, 391.059
1429.887, 120.152
1431.075, 222.227
1432.263, 613.326
1433.451, 100.369
1434.639, 541.137
1435.827, 504.096
1437.014, 413.199
1438.201, 523.461
1439.388, 388.135
1440.575, 380.889
1441.762, 737.045
1442.949, 477.600
1444.135, 456.541
1445.321, 985.256
1446.507, 367.271
1447.693, 730.555
1448.879, 950.564
1450.064, 491.703
1451.250, 779.240
1452.435, 618.896
1453.620, 470.227
1454.805, 1090.736
1455.989, 661.010
1457.174, 541.906
1458.358, 1012.648
1459.542, 550.238
1460.726, 799.689
1461.910, 918.590
1463.093, 468.367
1464.277, 677.838
1465.460, 575.650
1466.643, 385.668
1467.826, 664.578
1469.009, 544.482
1470.191, 554.252
1471.373, 813.990
1472.556, 342.508
1473.738, 510.861
1474.919, 750.061
1476.101, 309.586
1477.283, 418.504
1478.464, 667.920
1479.645, 237.537
1480.826, 617.332
1482.007, 317.174
1483.187, 227.199
1484.368, 607.588
1485.548, 118.002
1486.728, 428.471
1487.908, 458.912
1489.088, 299.318
1490.268, 459.842
1491.447, 480.461
1492.626, 261.197
1493.805, 232.062
1494.984, 343.035
1496.163, 264.145
1497.341, 575.506
1498.520, 127.082
1499.698, 158.902
1500.876, 420.961
1502.054, 16.744
1503.232, 345.787
1504.409, 438.600
1505.586, 101.748
1506.763, 385.285
1507.940, 109.270
1509.117, 6.240
1510.294, 398.816
1511.470, 27.723
1512.647, 221.162
1513.823, 534.174
1514.999, 5.775
1516.174, 207.725
1517.350, 122.375
1518.526, 0.000
##END=



