##NAMES=Actinolite
##RRUFFID=R060041
##IDEAL CHEMISTRY=Ca_2_(Mg_4.5-2.5_Fe^2+^_0.5-2.5_)Si_8_O_22_(OH)_2_
##LOCALITY=Prince of Wales Island, Alaska, USA
##OWNER=RRUFF
##SOURCE=University of Arizona Mineral Museum
##DESCRIPTION=Green acicular crystals forming parallel groups in cylindrical or bladed forms
##STATUS=The identification of this mineral has been confirmed by X-ray diffraction and chemical analysis
##URL=rruff.info/R060041
##MEASURED CHEMISTRY=(Ca_0.97_Na_0.03_)_2_(Mg_0.65_Fe^2+^_0.29_Fe^3+^_0.04_Al_0.01_Mn_0.01_)_5_(Si_0.98_Al_0.02_)_8_O_22_(OH)_2_
95.94800, 0.0000000E+00
97.18200, 238.5850
98.41600, 8.310547
99.64900, 128.9346
100.8830, 153.0732
102.1160, 84.75879
103.3490, 23.92188
104.5820, 349.2334
105.8150, 798.1738
107.0470, 1475.348
108.2800, 1963.550
109.5120, 2692.818
110.7440, 2655.375
111.9760, 1828.600
113.2080, 1383.974
114.4400, 1561.073
115.6710, 1989.528
116.9030, 1813.013
118.1340, 1736.238
119.3650, 1406.974
120.5960, 1292.945
121.8270, 1164.357
123.0580, 878.1475
124.2880, 939.9785
125.5190, 632.4824
126.7490, 485.5625
127.9790, 736.1240
129.2090, 1056.085
130.4390, 1058.366
131.6680, 1203.896
132.8980, 1125.604
134.1270, 1183.391
135.3560, 1256.159
136.5850, 1244.826
137.8140, 1488.334
139.0430, 1763.675
140.2710, 2115.840
141.5000, 2612.808
142.7280, 3202.433
143.9560, 4173.683
145.1840, 5591.533
146.4120, 6686.963
147.6390, 7999.949
148.8670, 9111.501
150.0940, 9777.627
151.3210, 9809.768
152.5490, 10002.57
153.7750, 8718.394
155.0020, 7418.766
156.2290, 5895.686
157.4550, 4539.126
158.6810, 3684.070
159.9080, 2918.495
161.1340, 2408.387
162.3590, 2580.722
163.5850, 2972.486
164.8110, 3317.660
166.0360, 4242.230
167.2610, 5303.181
168.4860, 6242.496
169.7110, 7953.061
170.9360, 9379.529
172.1610, 10759.96
173.3850, 11095.40
174.6100, 10842.91
175.8340, 9611.511
177.0580, 8446.219
178.2820, 7009.061
179.5050, 5407.049
180.7290, 4023.192
181.9520, 3108.414
183.1760, 2418.173
184.3990, 1867.925
185.6220, 1831.550
186.8450, 1769.522
188.0670, 1780.632
189.2900, 1805.933
190.5120, 1836.421
191.7340, 1866.100
192.9560, 2187.967
194.1780, 2117.023
195.4000, 2412.265
196.6220, 2359.693
197.8430, 2732.331
199.0640, 2872.316
200.2860, 3520.752
201.5070, 3872.700
202.7270, 4404.270
203.9480, 4557.000
205.1690, 5029.085
206.3890, 5218.546
207.6090, 5926.429
208.8290, 6804.643
210.0490, 8000.178
211.2690, 9311.048
212.4890, 10850.23
213.7080, 12161.68
214.9280, 13668.34
216.1470, 14768.08
217.3660, 15377.00
218.5850, 15648.02
219.8030, 15676.15
221.0220, 14308.36
222.2400, 13236.66
223.4590, 11730.06
224.6770, 10614.54
225.8950, 8973.121
227.1120, 7821.781
228.3300, 6663.518
229.5480, 5654.334
230.7650, 4545.225
231.9820, 4102.191
233.1990, 3389.230
234.4160, 3179.339
235.6330, 2771.516
236.8490, 2337.762
238.0660, 2117.071
239.2820, 1820.442
240.4980, 1707.878
241.7140, 1593.371
242.9300, 1558.799
244.1460, 1594.497
245.3610, 1376.467
246.5770, 1274.928
247.7920, 1095.125
249.0070, 1141.967
250.2220, 998.1738
251.4370, 1043.116
252.6510, 999.5312
253.8660, 702.3809
255.0800, 574.6328
256.2940, 385.2578
257.5080, 606.2285
258.7220, 568.5234
259.9360, 913.1270
261.1490, 701.1758
262.3630, 1220.176
263.5760, 314.5938
264.7890, 116.2559
266.0020, 140.8516
267.2150, 27.74219
268.4270, 6.574219
269.6400, 26.90430
270.8520, 103.8086
272.0640, 80.29297
273.2760, 143.2188
274.4880, 22.98242
275.7000, 3.417969
276.9120, 26.97656
278.1230, 30.68750
279.3340, 59.48438
280.5450, 105.5430
281.7560, 129.6797
282.9670, 252.9492
284.1780, 356.3457
285.3880, 382.4980
286.5980, 389.5117
287.8090, 505.2715
289.0190, 487.1445
290.2290, 637.1289
291.4380, 679.2207
292.6480, 637.4199
293.8570, 709.7207
295.0670, 576.1211
296.2760, 556.6172
297.4850, 629.2109
298.6930, 300.3398
299.9020, 117.2383
301.1110, 436.3438
302.3190, 377.6270
303.5270, 164.3848
304.7350, 364.0723
305.9430, 166.2930
307.1510, 367.2676
308.3580, 18.16797
309.5660, 125.1406
310.7730, 165.3828
311.9800, 291.3691
313.1870, 319.3145
314.3940, 252.8027
315.6010, 340.1270
316.8070, 131.7051
318.0130, 184.3848
319.2200, 390.0508
320.4260, 550.9922
321.6310, 391.0117
322.8370, 758.6582
324.0430, 805.3574
325.2480, 850.7715
326.4540, 1044.475
327.6590, 970.5723
328.8640, 1252.926
330.0680, 1329.570
331.2730, 1474.035
332.4780, 1624.594
333.6820, 1583.191
334.8860, 1963.109
336.0900, 1795.123
337.2940, 1945.846
338.4980, 1948.822
339.7010, 2149.834
340.9050, 2293.287
342.1080, 2417.137
343.3110, 2358.021
344.5140, 2645.936
345.7170, 2578.879
346.9200, 2625.844
348.1220, 2862.922
349.3240, 2957.934
350.5270, 2965.963
351.7290, 3120.369
352.9310, 3097.434
354.1320, 3281.510
355.3340, 3396.598
356.5350, 3649.695
357.7370, 3720.273
358.9380, 3815.559
360.1390, 3877.041
361.3400, 3881.166
362.5400, 3889.297
363.7410, 3828.434
364.9410, 3782.574
366.1410, 3563.713
367.3410, 3278.857
368.5410, 3177.000
369.7410, 2864.148
370.9400, 2774.463
372.1400, 2763.438
373.3390, 2550.584
374.5380, 2408.727
375.7370, 2264.869
376.9360, 2544.010
378.1350, 2681.146
379.3330, 2834.279
380.5310, 2923.410
381.7300, 3050.717
382.9280, 2989.658
384.1260, 3206.775
385.3230, 3271.889
386.5210, 3227.998
387.7180, 2868.154
388.9160, 3015.361
390.1130, 2638.621
391.3100, 2583.926
392.5060, 2242.268
393.7030, 2204.646
394.9000, 2067.059
396.0960, 1669.500
397.2920, 1571.971
398.4880, 1624.465
399.6840, 1539.982
400.8800, 1452.521
402.0750, 1436.082
403.2710, 1369.697
404.4660, 1338.252
405.6610, 1282.859
406.8560, 1321.480
408.0510, 1263.113
409.2450, 946.7578
410.4400, 1041.871
411.6340, 926.3516
412.8280, 914.0020
414.0220, 1018.504
415.2160, 852.1797
416.4100, 808.6113
417.6030, 498.2480
418.7970, 590.7891
419.9900, 436.4492
421.1830, 389.1348
422.3760, 270.8223
423.5690, 392.5078
424.7610, 376.1875
425.9540, 493.8672
427.1460, 606.5430
428.3380, 678.2109
429.5300, 598.8730
430.7220, 809.5273
431.9140, 800.1758
433.1050, 801.8145
434.2970, 554.6621
435.4880, 641.2832
436.6790, 514.8945
437.8700, 118.4941
439.0610, 99.32812
440.2510, 73.96680
441.4420, 38.85547
442.6320, 154.4297
443.8220, 8.525391
445.0120, 279.5586
446.2020, 70.50391
447.3910, 285.9609
448.5810, 142.4395
449.7700, 118.7988
450.9600, 154.8145
452.1490, 67.60156
453.3370, 94.95703
454.5260, 87.51953
455.7150, 83.54297
456.9030, 88.97266
458.0910, 162.7949
459.2800, 163.6562
460.4670, 82.59570
461.6550, 126.6191
462.8430, 16.63086
464.0300, 46.84766
465.2180, 213.4141
466.4050, 84.16211
467.5920, 38.97852
468.7790, 110.9336
469.9650, 114.9746
471.1520, 5.150391
472.3380, 39.40234
473.5250, 2.644531
474.7110, 157.9297
475.8970, 150.4727
477.0820, 110.9863
478.2680, 18.53516
479.4540, 136.8496
480.6390, 121.2051
481.8240, 123.5195
483.0090, 105.7988
484.1940, 234.0371
485.3780, 152.2441
486.5630, 312.4160
487.7470, 237.5527
488.9320, 268.6562
490.1160, 149.7227
491.3000, 274.7520
492.4830, 418.7461
493.6670, 104.7070
494.8500, 357.6152
496.0340, 356.4902
497.2170, 468.3301
498.4000, 638.1367
499.5820, 673.9062
500.7650, 769.6406
501.9480, 674.3379
503.1300, 719.9980
504.3120, 757.6230
505.4940, 855.2109
506.6760, 1087.764
507.8580, 1046.281
509.0390, 1202.766
510.2210, 1156.219
511.4020, 1328.637
512.5830, 1361.023
513.7640, 1360.375
514.9450, 1747.717
516.1250, 1552.020
517.3060, 1797.318
518.4860, 2031.602
519.6660, 2244.848
520.8460, 2400.971
522.0260, 2404.238
523.2060, 2542.383
524.3850, 2650.561
525.5650, 2444.811
526.7440, 2409.096
527.9230, 2174.391
529.1020, 2099.646
530.2810, 2058.881
531.4590, 1665.076
532.6380, 1485.264
533.8160, 1432.439
534.9940, 1183.584
536.1720, 1078.693
537.3500, 993.7695
538.5270, 1130.805
539.7050, 1038.795
540.8820, 1099.752
542.0590, 699.6797
543.2360, 719.5859
544.4130, 754.4609
545.5900, 645.2969
546.7660, 677.1035
547.9430, 755.8691
549.1190, 817.6270
550.2950, 763.3379
551.4710, 671.0020
552.6470, 577.6309
553.8220, 505.2207
554.9980, 555.7637
556.1730, 513.2656
557.3480, 529.7676
558.5230, 533.2363
559.6980, 501.6680
560.8730, 396.0508
562.0470, 644.3887
563.2220, 737.6758
564.3960, 711.5859
565.5700, 695.1934
566.7440, 685.2812
567.9170, 563.3945
569.0910, 484.4551
570.2640, 680.4668
571.4380, 541.4297
572.6110, 499.8125
573.7840, 507.4492
574.9570, 361.1133
576.1290, 420.9746
577.3020, 513.8066
578.4740, 508.5820
579.6460, 365.3086
580.8180, 411.9805
581.9900, 308.6211
583.1620, 223.7598
584.3330, 307.1582
585.5040, 309.3789
586.6760, 48.44922
587.8470, 96.95898
589.0180, 60.90625
590.1880, 238.7207
591.3590, 34.04102
592.5290, 224.7637
593.7000, 324.7539
594.8700, 258.0645
596.0400, 271.1602
597.2090, 252.5488
598.3790, 170.3984
599.5490, 153.4180
600.7180, 252.1836
601.8870, 51.85742
603.0560, 162.5371
604.2250, 366.9473
605.3940, 296.2871
606.5620, 314.0078
607.7300, 272.6797
608.8990, 271.6445
610.0670, 371.3262
611.2350, 486.6016
612.4020, 300.6211
613.5700, 215.3496
614.7370, 368.9902
615.9050, 630.0430
617.0720, 482.8066
618.2390, 689.2480
619.4060, 402.5918
620.5720, 493.2246
621.7390, 737.5996
622.9050, 926.9316
624.0710, 1031.820
625.2370, 1005.301
626.4030, 1178.742
627.5690, 1452.143
628.7340, 1720.504
629.9000, 1681.824
631.0650, 1969.805
632.2300, 2023.256
633.3950, 2255.723
634.5600, 2539.523
635.7240, 2552.797
636.8890, 2745.680
638.0530, 3106.807
639.2170, 3310.533
640.3810, 3566.793
641.5450, 3884.363
642.7080, 4066.406
643.8720, 4472.609
645.0350, 4774.854
646.1980, 5047.566
647.3610, 5218.193
648.5240, 5579.613
649.6870, 5986.791
650.8490, 6743.553
652.0120, 7399.617
653.1740, 8023.371
654.3360, 9231.232
655.4980, 10507.28
656.6600, 12188.97
657.8210, 14407.13
658.9830, 16588.59
660.1440, 19608.27
661.3050, 23285.44
662.4660, 26669.21
663.6270, 31031.38
664.7870, 35131.27
665.9480, 37585.82
667.1080, 39663.61
668.2680, 40417.59
669.4280, 39304.03
670.5880, 36294.83
671.7480, 32551.16
672.9070, 28198.20
674.0670, 23784.01
675.2260, 19809.88
676.3850, 16601.09
677.5440, 14050.69
678.7030, 11944.87
679.8610, 10417.88
681.0200, 9030.311
682.1780, 7910.988
683.3360, 7090.035
684.4940, 6185.545
685.6520, 5867.232
686.8090, 5436.578
687.9670, 4617.492
689.1240, 4281.254
690.2810, 3914.977
691.4380, 3523.871
692.5950, 3017.424
693.7520, 2773.404
694.9080, 2444.113
696.0650, 2600.773
697.2210, 2251.305
698.3770, 1887.943
699.5330, 1977.008
700.6880, 1731.588
701.8440, 1508.512
702.9990, 1168.744
704.1550, 1113.922
705.3100, 1179.031
706.4650, 1391.688
707.6190, 1093.225
708.7740, 1164.879
709.9290, 993.7637
711.0830, 824.9824
712.2370, 1091.154
713.3910, 1122.850
714.5450, 799.5391
715.6980, 846.9238
716.8520, 796.9199
718.0050, 877.1152
719.1580, 803.7051
720.3110, 815.1133
721.4640, 815.5371
722.6170, 809.6484
723.7700, 770.8535
724.9220, 847.0293
726.0740, 781.9180
727.2260, 782.2285
728.3780, 878.4121
729.5300, 892.6133
730.6810, 929.4180
731.8330, 1054.420
732.9840, 844.0391
734.1350, 1135.404
735.2860, 947.8418
736.4370, 1221.221
737.5880, 1057.887
738.7380, 1138.463
739.8880, 848.9883
741.0390, 1115.490
742.1890, 945.5996
743.3380, 1045.350
744.4880, 1170.092
745.6380, 766.8652
746.7870, 954.6406
747.9360, 1053.383
749.0850, 790.1367
750.2340, 775.8965
751.3830, 518.6426
752.5310, 816.2773
753.6800, 612.0000
754.8280, 541.6777
755.9760, 619.3164
757.1240, 378.9160
758.2720, 442.5039
759.4190, 563.0527
760.5670, 557.5625
761.7140, 517.0371
762.8610, 561.0742
764.0080, 455.8711
765.1550, 549.2285
766.3020, 421.5469
767.4480, 399.8281
768.5950, 524.0664
769.7410, 389.2695
770.8870, 287.4355
772.0330, 451.5605
773.1780, 313.6543
774.3240, 157.7051
775.4690, 328.7168
776.6140, 174.6875
777.7590, 372.6152
778.9040, 394.5059
780.0490, 320.3594
781.1940, 259.1777
782.3380, 239.3418
783.4820, 117.6855
784.6260, 128.3750
785.7700, 167.0234
786.9140, 52.62695
788.0580, 89.18164
789.2010, 53.69141
790.3450, 79.15234
791.4880, 52.43359
792.6310, 194.8887
793.7730, 67.83398
794.9160, 44.65234
796.0590, 85.43945
797.2010, 54.48633
798.3430, 114.4844
799.4850, 38.44336
800.6270, 241.6465
801.7690, 365.9238
802.9100, 250.4570
804.0520, 128.1816
805.1930, 90.96484
806.3340, 29.92773
807.4750, 105.1035
808.6160, 78.90820
809.7560, 76.01758
810.8970, 10.22266
812.0370, 62.51172
813.1770, 3.798828
814.3170, 80.83594
815.4570, 165.4277
816.5960, 21.98633
817.7360, 45.50000
818.8750, 35.06445
820.0140, 26.69922
821.1530, 46.60352
822.2920, 40.13672
823.4310, 51.05078
824.5690, 110.8008
825.7070, 148.2441
826.8460, 144.2520
827.9840, 90.22656
829.1220, 2.162109
830.2590, 49.05664
831.3970, 93.91211
832.5340, 166.2656
833.6710, 22.57617
834.8080, 71.06055
835.9450, 194.6582
837.0820, 58.23047
838.2190, 200.7637
839.3550, 114.2715
840.4910, 43.25586
841.6270, 116.1562
842.7630, 4.535156
843.8990, 225.8789
845.0350, 184.1973
846.1700, 115.4844
847.3060, 361.7422
848.4410, 368.9766
849.5760, 399.8145
850.7100, 56.15234
851.8450, 63.91211
852.9800, 245.9609
854.1140, 184.8086
855.2480, 17.63086
856.3820, 72.57812
857.5160, 212.1504
858.6500, 142.8555
859.7830, 426.5449
860.9170, 282.2129
862.0500, 344.5527
863.1830, 453.5176
864.3160, 333.2207
865.4480, 165.9551
866.5810, 149.6699
867.7130, 242.3867
868.8460, 377.0879
869.9780, 398.7695
871.1100, 228.4297
872.2410, 401.0723
873.3730, 226.6934
874.5050, 281.2969
875.6360, 463.8828
876.7670, 437.4512
877.8980, 330.0078
879.0290, 458.5488
880.1590, 438.0723
881.2900, 342.6133
882.4200, 367.1426
883.5500, 413.6504
884.6800, 394.1348
885.8100, 670.6113
886.9400, 717.1035
888.0690, 688.5762
889.1990, 742.0312
890.3280, 712.4629
891.4570, 792.8730
892.5860, 828.2656
893.7140, 886.6914
894.8430, 939.0996
895.9710, 1362.535
897.1000, 1169.949
898.2280, 1211.393
899.3560, 1364.850
900.4830, 1113.291
901.6110, 1192.713
902.7380, 1162.119
903.8660, 1373.535
904.9930, 1422.934
906.1200, 1421.332
907.2460, 1623.473
908.3730, 1741.910
909.5000, 1615.203
910.6260, 1684.836
911.7520, 1970.168
912.8780, 2221.840
914.0040, 2354.238
915.1290, 2589.627
916.2550, 2612.889
917.3800, 2845.877
918.5050, 3265.797
919.6300, 3799.215
920.7550, 3757.662
921.8800, 4261.260
923.0040, 4562.043
924.1290, 5117.193
925.2530, 5123.984
926.3770, 5317.031
927.5010, 5706.912
928.6250, 5306.555
929.7480, 5160.500
930.8720, 4597.918
931.9950, 4023.992
933.1180, 3994.793
934.2410, 3471.113
935.3640, 3029.844
936.4860, 2862.160
937.6090, 2819.703
938.7310, 2573.531
939.8530, 2783.068
940.9750, 2692.352
942.0970, 2440.162
943.2180, 2413.547
944.3400, 2272.369
945.4610, 2580.416
946.5820, 2414.645
947.7030, 2338.766
948.8240, 2101.492
949.9450, 2078.787
951.0650, 1973.441
952.1860, 1848.217
953.3060, 1616.521
954.4260, 1827.531
955.5460, 1581.117
956.6650, 1602.195
957.7850, 1576.041
958.9040, 1797.180
960.0230, 1527.699
961.1420, 1578.322
962.2610, 1338.936
963.3800, 1574.326
964.4990, 1780.014
965.6170, 1395.229
966.7350, 1313.660
967.8530, 1324.094
968.9710, 1580.609
970.0890, 1295.969
971.2070, 1379.871
972.3240, 1238.213
973.4410, 1307.158
974.5580, 1356.750
975.6750, 1445.346
976.7920, 1291.967
977.9090, 1367.994
979.0250, 1264.098
980.1410, 1397.037
981.2580, 1318.699
982.3740, 1361.984
983.4890, 1489.271
984.6050, 1434.295
985.7200, 1511.674
986.8360, 1484.609
987.9510, 1436.891
989.0660, 1436.928
990.1810, 1492.275
991.2950, 1608.947
992.4100, 1631.139
993.5240, 1729.326
994.6390, 1772.377
995.7530, 1781.703
996.8660, 1856.039
997.9800, 1785.373
999.0940, 2069.717
1000.207, 2325.014
1001.320, 2129.061
1002.433, 2392.822
1003.546, 2484.645
1004.659, 2504.012
1005.772, 2887.383
1006.884, 3067.758
1007.996, 3185.137
1009.108, 3574.521
1010.220, 3689.910
1011.332, 3930.303
1012.444, 4119.701
1013.555, 4576.551
1014.666, 4777.635
1015.777, 4768.859
1016.888, 4627.271
1017.999, 5230.746
1019.110, 5307.385
1020.220, 5447.527
1021.331, 5715.348
1022.441, 5461.113
1023.551, 5890.590
1024.661, 5956.326
1025.770, 6203.938
1026.880, 6004.973
1027.989, 5911.914
1029.098, 5651.371
1030.207, 5618.113
1031.316, 5290.008
1032.425, 5196.053
1033.533, 4793.680
1034.642, 4880.559
1035.750, 5093.445
1036.858, 5649.770
1037.966, 5854.844
1039.073, 6583.434
1040.181, 6950.197
1041.288, 7826.910
1042.396, 8839.031
1043.503, 9631.035
1044.610, 11415.06
1045.716, 11725.52
1046.823, 12919.61
1047.929, 14178.35
1049.036, 14910.12
1050.142, 16128.58
1051.248, 16537.29
1052.353, 16907.50
1053.459, 16492.53
1054.564, 15532.72
1055.670, 14970.49
1056.775, 13592.35
1057.880, 12665.88
1058.985, 11768.43
1060.089, 10840.00
1061.194, 10279.77
1062.298, 9575.336
1063.402, 9218.465
1064.506, 8407.441
1065.610, 7747.939
1066.713, 7018.740
1067.817, 6130.668
1068.920, 5343.568
1070.023, 4843.730
1071.126, 3947.990
1072.229, 3684.828
1073.332, 3035.473
1074.435, 2631.900
1075.537, 2329.500
1076.639, 2027.791
1077.741, 1931.893
1078.843, 1764.396
1079.945, 1713.895
1081.046, 1751.855
1082.148, 1677.229
1083.249, 1238.865
1084.350, 1203.832
1085.451, 1302.799
1086.551, 1091.783
1087.652, 1183.984
1088.752, 1198.992
1089.853, 873.0801
1090.953, 1180.375
1092.053, 859.3965
1093.152, 1102.504
1094.252, 738.5586
1095.351, 872.6055
1096.451, 733.4844
1097.550, 1020.531
1098.649, 870.5762
1099.748, 610.7266
1100.846, 640.8145
1101.945, 540.0566
1103.043, 681.5312
1104.141, 727.6172
1105.239, 521.7617
1106.337, 589.8398
1107.434, 459.9746
1108.532, 328.1406
1109.629, 468.5742
1110.726, 402.0020
1111.823, 543.5801
1112.920, 445.6426
1114.017, 535.6992
1115.113, 183.7480
1116.210, 47.78906
1117.306, 137.9277
1118.402, 501.0625
1119.498, 455.2090
1120.593, 702.3457
1121.689, 567.4766
1122.784, 366.6113
1123.879, 293.7520
1124.974, 397.8809
1126.069, 502.0020
1127.164, 452.1133
1128.259, 202.2148
1129.353, 308.3066
1130.447, 351.3438
1131.541, 79.41602
1132.635, 208.0000
1133.729, 34.05273
1134.822, 22.09570
1135.916, 179.1211
1137.009, 246.1367
1138.102, 170.1426
1139.195, 180.1348
1140.288, 324.1172
1141.380, 211.0879
1142.473, 177.0488
1143.565, 232.9980
1144.657, 40.93359
1145.749, 157.1426
1146.841, 28.31836
1147.932, 153.4785
1149.024, 141.2617
1150.115, 33.96680
1151.206, 137.2305
1152.297, 66.41602
1153.388, 81.04492
1154.479, 153.6582
1155.569, 93.26172
1156.659, 125.8496
1157.750, 193.5762
1158.839, 50.87500
1159.929, 166.6934
1161.019, 103.6309
1162.108, 156.0605
1163.198, 125.8574
1164.287, 136.2559
1165.376, 77.35352
1166.465, 77.43359
1167.553, 95.45312
1168.642, 35.58594
1169.730, 50.39453
1170.818, 68.43164
1171.906, 162.5234
1172.994, 88.73047
1174.082, 9.988281
1175.170, 108.6797
1176.257, 214.3594
1177.344, 37.97656
1178.431, 0.6953130
1179.518, 122.3555
1180.605, 198.0039
1181.691, 77.36719
1182.778, 36.80859
1183.864, 67.70312
1184.950, 27.19141
1186.036, 129.9023
1187.122, 109.1172
1188.207, 193.5469
1189.292, 189.9688
1190.378, 184.2422
1191.463, 146.7539
1192.548, 167.1211
1193.632, 100.7578
1194.717, 113.7930
1195.801, 16.89844
1196.886, 132.6367
1197.970, 293.4805
1199.054, 53.51562
1200.137, 94.39062
1201.221, 97.26953
1202.305, 411.1250
1203.388, 34.96094
1204.471, 39.22656
1205.554, 51.52734
1206.637, 83.25391
1207.719, 230.9570
1208.802, 89.64453
1209.884, 94.30469
1210.966, 274.9453
1212.048, 127.5625
1213.130, 64.16406
1214.212, 228.7344
1215.293, 420.2852
1216.374, 462.8164
1217.456, 179.3320
1218.536, 361.8281
1219.617, 210.3047
1220.698, 164.7617
1221.778, 235.1953
1222.859, 218.6133
1223.939, 244.0156
1225.019, 359.3945
1226.099, 41.77344
1227.178, 264.1289
1228.258, 345.4609
1229.337, 209.7773
1230.417, 385.0703
1231.496, 201.3516
1232.574, 11.39453
1233.653, 289.8125
1234.732, 223.9961
1235.810, 506.1602
1236.888, 224.3008
1237.966, 220.4258
1239.044, 155.5352
1240.122, 157.4180
1241.199, 120.6758
1242.277, 356.7109
1243.354, 286.7266
1244.431, 489.7266
1245.508, 298.7070
1246.585, 331.4375
1247.661, 331.3828
1248.738, 296.2969
1249.814, 291.5000
1250.890, 419.0703
1251.966, 244.9180
1253.042, 299.7500
1254.117, 309.6055
1255.193, 519.4453
1256.268, 326.2617
1257.343, 546.0547
1258.418, 602.8242
1259.493, 49.56641
1260.567, 363.2812
1261.642, 127.7734
1262.716, 433.4453
1263.790, 350.6953
1264.864, 580.8633
1265.938, 441.4648
1267.011, 516.0469
1268.085, 704.6016
1269.158, 419.1367
1270.231, 540.6484
1271.304, 475.1328
1272.377, 871.7227
1273.450, 388.1797
1274.522, 766.1562
