##NAMES=Actinolite
##RRUFFID=R060045
##IDEAL CHEMISTRY=Ca_2_(Mg_4.5-2.5_Fe^2+^_0.5-2.5_)Si_8_O_22_(OH)_2_
##LOCALITY=Colorado, USA
##OWNER=RRUFF
##SOURCE=University of Arizona Mineral Museum
##DESCRIPTION=Green prismatic crystals in a radial arrangement
##STATUS=The identification of this mineral has been confirmed by X-ray diffraction and chemical analysis
##URL=rruff.info/R060045
##MEASURED CHEMISTRY=(Ca_1.99_Na_0.01_)_Σ=2_(Mg_4.20_Fe^2+^_0.59_Al_0.09_Fe^3+^_0.08_Mn_0.02_Ti_0.01_)_Σ=5_(Si_7.82_Al_0.18_)_Σ=8_O_22_(OH)_2_
##PIN_ID=M00122
##ORIENTATION=Laser parallel to (1 0 1). Fiducial mark perpendicular to laser is parallel to b [0 1 0]
125.5190, 0.0000000E+00
126.7490, 173.5898
127.9790, 172.2793
129.2090, 1.093750
130.4390, 92.65820
131.6680, 17.63672
132.8980, 12.89844
134.1270, 125.4219
135.3560, 17.28516
136.5850, 157.9961
137.8140, 113.1602
139.0430, 249.4531
140.2710, 243.6172
141.5000, 222.4375
142.7280, 190.7383
143.9560, 239.3789
145.1840, 256.2402
146.4120, 214.2070
147.6390, 414.1719
148.8670, 280.0410
150.0940, 529.7344
151.3210, 637.1914
152.5490, 1056.357
153.7750, 2356.188
155.0020, 1727.635
156.2290, 2385.662
157.4550, 2840.236
158.6810, 2755.326
159.9080, 2329.900
161.1340, 2016.934
162.3590, 1787.473
163.5850, 1689.463
164.8110, 1471.828
166.0360, 1412.520
167.2610, 1507.508
168.4860, 1546.771
169.7110, 1846.297
170.9360, 2348.074
172.1610, 2742.102
173.3850, 3654.383
174.6100, 4988.908
175.8340, 6049.670
177.0580, 6333.672
178.2820, 5857.914
179.5050, 4662.385
180.7290, 3485.074
181.9520, 2608.977
183.1760, 1881.080
184.3990, 1583.387
185.6220, 1029.883
186.8450, 972.5664
188.0670, 671.4297
189.2900, 458.4609
190.5120, 630.6602
191.7340, 754.0176
192.9560, 663.5293
194.1780, 551.1875
195.4000, 646.9883
196.6220, 547.9238
197.8430, 656.9727
199.0640, 628.1680
200.2860, 661.2656
201.5070, 857.4277
202.7270, 954.4805
203.9480, 1036.006
205.1690, 991.1074
206.3890, 978.2520
207.6090, 1092.443
208.8290, 1488.691
210.0490, 1600.000
211.2690, 2231.369
212.4890, 2417.805
213.7080, 3285.307
214.9280, 4374.879
216.1470, 5187.746
217.3660, 6115.559
218.5850, 7234.672
219.8030, 8302.031
221.0220, 8928.457
222.2400, 8648.939
223.4590, 7603.484
224.6770, 6721.184
225.8950, 5734.062
227.1120, 5025.398
228.3300, 4421.402
229.5480, 3776.789
230.7650, 3350.238
231.9820, 2946.748
233.1990, 2581.318
234.4160, 2089.932
235.6330, 1659.590
236.8490, 1401.297
238.0660, 1039.062
239.2820, 937.8945
240.4980, 880.8086
241.7140, 782.8047
242.9300, 792.9277
244.1460, 781.4980
245.3610, 788.2891
246.5770, 824.5254
247.7920, 807.7988
249.0070, 807.1113
250.2220, 754.4570
251.4370, 792.8418
252.6510, 662.2598
253.8660, 684.7148
255.0800, 605.2031
256.2940, 534.7246
257.5080, 503.2773
258.7220, 661.8672
259.9360, 636.4824
261.1490, 619.1328
262.3630, 444.8145
263.5760, 471.5254
264.7890, 293.2656
266.0020, 326.0371
267.2150, 242.8340
268.4270, 49.34180
269.6400, 175.5137
270.8520, 79.60938
272.0640, 138.6992
273.2760, 91.88477
274.4880, 153.8906
275.7000, 54.18750
276.9120, 68.28711
278.1230, 83.57031
279.3340, 130.4863
280.5450, 204.3906
281.7560, 30.10938
282.9670, 274.3359
284.1780, 117.9316
285.3880, 39.67578
286.5980, 228.5508
287.8090, 172.5469
289.0190, 145.6602
290.2290, 223.8809
291.4380, 165.2051
292.6480, 176.6270
293.8570, 221.1406
295.0670, 218.6445
296.2760, 297.4336
297.4850, 293.2051
298.6930, 411.0547
299.9020, 480.9766
301.1110, 447.9727
302.3190, 570.0332
303.5270, 506.3379
304.7350, 400.0098
305.9430, 381.7031
307.1510, 254.2637
308.3580, 76.66211
309.5660, 220.6738
310.7730, 14.47070
311.9800, 207.1016
313.1870, 199.7715
314.3940, 246.4844
315.6010, 145.2461
316.8070, 59.05469
318.0130, 152.9062
319.2200, 60.79883
320.4260, 56.73828
321.6310, 131.5391
322.8370, 177.1406
324.0430, 231.1953
325.2480, 335.8262
326.4540, 284.7246
327.6590, 454.2207
328.8640, 464.4199
330.0680, 644.4316
331.2730, 314.0566
332.4780, 541.3457
333.6820, 515.7637
334.8860, 564.1113
336.0900, 786.4824
337.2940, 735.7207
338.4980, 925.1445
339.7010, 937.5918
340.9050, 1064.062
342.1080, 1180.559
343.3110, 1235.072
344.5140, 1349.596
345.7170, 1416.141
346.9200, 1527.705
348.1220, 1584.693
349.3240, 1636.500
350.5270, 1707.127
351.7290, 1704.363
352.9310, 1774.031
354.1320, 1603.049
355.3340, 1548.764
356.5350, 1425.434
357.7370, 1627.285
358.9380, 1808.061
360.1390, 1902.850
361.3400, 2045.658
362.5400, 2213.375
363.7410, 2609.328
364.9410, 2590.188
366.1410, 2817.709
367.3410, 3106.945
368.5410, 2883.848
369.7410, 2946.762
370.9400, 2683.691
372.1400, 2313.631
373.3390, 2066.580
374.5380, 1943.545
375.7370, 1685.518
376.9360, 1558.031
378.1350, 1516.494
379.3330, 1318.498
380.5310, 1175.508
381.7300, 1127.529
382.9280, 1120.559
384.1260, 1095.596
385.3230, 1315.643
386.5210, 1411.695
387.7180, 1734.756
388.9160, 1779.822
390.1130, 1902.895
391.3100, 1925.977
392.5060, 1734.061
393.7030, 1515.152
394.9000, 1191.250
396.0960, 1197.352
397.2920, 948.4609
398.4880, 743.5723
399.6840, 527.6875
400.8800, 744.8105
402.0750, 697.9355
403.2710, 684.0625
404.4660, 671.1953
405.6610, 881.3340
406.8560, 559.4727
408.0510, 588.6152
409.2450, 478.7617
410.4400, 892.9102
411.6340, 1027.059
412.8280, 827.7246
414.0220, 645.2695
415.2160, 731.3906
416.4100, 814.5664
417.6030, 372.7617
418.7970, 590.9805
419.9900, 431.7617
421.1830, 423.0215
422.3760, 294.7930
423.5690, 52.37891
424.7610, 310.6855
425.9540, 350.7617
427.1460, 99.09375
428.3380, 200.2227
429.5300, 391.8984
430.7220, 156.2676
431.9140, 311.6445
433.1050, 404.0293
434.2970, 294.4238
435.4880, 500.8281
436.6790, 331.2969
437.8700, 323.7109
439.0610, 218.6582
440.2510, 133.0859
441.4420, 75.52148
442.6320, 124.9570
443.8220, 213.5879
445.0120, 56.03320
446.2020, 40.88477
447.3910, 119.5098
448.5810, 99.11523
449.7700, 19.76758
450.9600, 124.5703
452.1490, 161.5664
453.3370, 16.75000
454.5260, 212.2598
455.7150, 56.09961
456.9030, 161.3496
458.0910, 106.5098
459.2800, 117.8418
460.4670, 979.3398
461.6550, 1090.486
462.8430, 561.3594
464.0300, 95.47656
465.2180, 223.4141
466.4050, 43.56836
467.5920, 64.44922
468.7790, 83.16992
469.9650, 107.2910
471.1520, 235.8750
472.3380, 176.3203
473.5250, 13.52539
474.7110, 162.2188
475.8970, 1.097656
477.0820, 53.57227
478.2680, 103.2344
479.4540, 13.10547
480.6390, 92.53516
481.8240, 72.16992
483.0090, 116.0645
484.1940, 135.0547
485.3780, 110.3027
486.5630, 156.9141
487.7470, 45.57812
488.9320, 69.23438
490.1160, 82.88672
491.3000, 18.45898
492.4830, 263.1641
493.6670, 17.77734
494.8500, 57.39648
496.0340, 74.99219
497.2170, 99.55273
498.4000, 13.09180
499.5820, 85.38477
500.7650, 177.0664
501.9480, 318.5137
503.1300, 292.9551
504.3120, 267.3828
505.4940, 410.8027
506.6760, 461.2090
507.8580, 773.6094
509.0390, 981.0449
510.2210, 659.4902
511.4020, 999.9453
512.5830, 1028.432
513.7640, 1149.908
514.9450, 960.3750
516.1250, 948.8262
517.3060, 703.2871
518.4860, 797.7344
519.6660, 953.1973
520.8460, 947.6602
522.0260, 1045.281
523.2060, 1045.574
524.3850, 1151.031
525.5650, 1165.504
526.7440, 1222.977
527.9230, 1140.439
529.1020, 1175.000
530.2810, 1215.328
531.4590, 1133.754
532.6380, 979.1641
533.8160, 882.5605
534.9940, 1037.943
536.1720, 696.3125
537.3500, 526.6680
538.5270, 632.0078
539.7050, 438.3320
540.8820, 257.6445
542.0590, 316.9453
543.2360, 238.9512
544.4130, 185.5059
545.5900, 276.7637
546.7660, 316.0059
547.9430, 296.2344
549.1190, 315.8359
550.2950, 368.6426
551.4710, 314.8203
552.6470, 285.9941
553.8220, 377.1504
554.9980, 73.29297
556.1730, 267.4180
557.3480, 324.5703
558.5230, 146.7070
559.6980, 186.8242
560.8730, 26.92969
562.0470, 178.0020
563.2220, 76.05469
564.3960, 49.08398
565.5700, 237.0996
566.7440, 214.0957
567.9170, 166.0762
569.0910, 39.03711
570.2640, 91.96094
571.4380, 184.8633
572.6110, 172.1250
573.7840, 175.6660
574.9570, 259.5098
576.1290, 158.3301
577.3020, 146.1309
578.4740, 335.9102
579.6460, 88.66992
580.8180, 179.4141
581.9900, 174.1367
583.1620, 297.8301
584.3330, 125.5020
585.5040, 323.1523
586.6760, 101.7812
587.8470, 31.61328
589.0180, 286.2969
590.1880, 190.4980
591.3590, 272.8730
592.5290, 47.34180
593.7000, 64.76562
594.8700, 101.3359
596.0400, 34.36914
597.2090, 121.8945
598.3790, 144.1387
599.5490, 103.3613
600.7180, 80.56250
601.8870, 149.8418
603.0560, 59.89844
604.2250, 274.0273
605.3940, 223.1367
606.5620, 231.7676
607.7300, 256.9277
608.8990, 71.45703
610.0670, 140.7344
611.2350, 17.42383
612.4020, 248.4160
613.5700, 90.61133
614.7370, 342.2266
615.9050, 161.1621
617.0720, 362.9785
618.2390, 160.8730
619.4060, 504.1777
620.5720, 608.7188
621.7390, 351.0059
622.9050, 68.92383
624.0710, 293.7188
625.2370, 358.4629
626.4030, 324.2168
627.5690, 719.1250
628.7340, 425.8379
629.9000, 457.3984
631.0650, 548.8379
632.2300, 424.9609
633.3950, 462.6094
634.5600, 562.1914
635.7240, 638.1719
636.8890, 782.5117
638.0530, 730.7617
639.2170, 1075.207
640.3810, 1254.941
641.5450, 1132.324
642.7080, 1458.430
643.8720, 1490.875
645.0350, 1737.289
646.1980, 1907.688
647.3610, 2120.242
648.5240, 2297.219
649.6870, 2483.656
650.8490, 2661.789
652.0120, 2821.992
653.1740, 2994.305
654.3360, 3116.414
655.4980, 3325.656
656.6600, 3499.293
657.8210, 3688.797
658.9830, 4202.641
660.1440, 4799.176
661.3050, 5223.523
662.4660, 5996.598
663.6270, 7317.180
664.7870, 8554.992
665.9480, 10277.08
667.1080, 12286.57
668.2680, 14350.91
669.4280, 16225.38
670.5880, 17710.40
671.7480, 18029.26
672.9070, 17377.10
674.0670, 15707.91
675.2260, 13198.82
676.3850, 11211.59
677.5440, 9317.688
678.7030, 7246.691
679.8610, 6159.777
681.0200, 5042.992
682.1780, 4195.008
683.3360, 3798.266
684.4940, 3192.055
685.6520, 3250.625
686.8090, 2886.461
687.9670, 2546.961
689.1240, 2557.617
690.2810, 2430.062
691.4380, 1784.555
692.5950, 1866.949
693.7520, 1546.727
694.9080, 1504.027
696.0650, 1154.832
697.2210, 1136.121
698.3770, 917.3828
699.5330, 892.9648
700.6880, 862.0547
701.8440, 821.2383
702.9990, 765.8242
704.1550, 602.2461
705.3100, 643.5117
706.4650, 632.5977
707.6190, 580.6562
708.7740, 342.9102
709.9290, 475.5977
711.0830, 216.5742
712.2370, 299.5312
713.3910, 348.4570
714.5450, 389.3867
715.6980, 401.2578
716.8520, 246.0391
718.0050, 426.8555
719.1580, 228.1250
720.3110, 227.8906
721.4640, 506.0039
722.6170, 450.7148
723.7700, 284.5000
724.9220, 618.1602
726.0740, 230.5430
727.2260, 372.3359
728.3780, 200.1289
729.5300, 198.7344
730.6810, 333.5039
731.8330, 263.3281
732.9840, 564.3477
734.1350, 534.6602
735.2860, 732.0156
736.4370, 795.6094
737.5880, 562.3789
738.7380, 636.6836
739.8880, 600.2031
741.0390, 760.6445
742.1890, 650.3281
743.3380, 758.0664
744.4880, 580.9375
745.6380, 421.3477
746.7870, 430.9102
747.9360, 240.1445
749.0850, 384.5508
750.2340, 228.6055
751.3830, 210.9883
752.5310, 44.46484
753.6800, 322.8477
754.8280, 320.2070
755.9760, 320.5508
757.1240, 23.89453
758.2720, 90.23047
759.4190, 102.7578
760.5670, 186.9961
761.7140, 298.1836
762.8610, 45.37109
764.0080, 301.5312
765.1550, 187.3359
766.3020, 210.6523
767.4480, 51.62109
768.5950, 6.351563
769.7410, 190.5352
770.8870, 204.4102
772.0330, 35.73438
773.1780, 113.0664
774.3240, 182.8320
775.4690, 62.60938
776.6140, 48.35156
777.7590, 125.0742
778.9040, 43.80078
780.0490, 68.49609
781.1940, 202.1602
782.3380, 205.8047
783.4820, 217.4297
784.6260, 160.1719
785.7700, 151.3945
786.9140, 31.93359
788.0580, 59.53906
789.2010, 109.2070
790.3450, 45.01953
791.4880, 173.2188
792.6310, 192.3984
793.7730, 39.44141
794.9160, 117.6484
796.0590, 60.27344
797.2010, 8.273438
798.3430, 13.87500
799.4850, 50.38672
800.6270, 4.472656
801.7690, 79.69922
802.9100, 21.24219
804.0520, 66.74609
805.1930, 94.42188
806.3340, 61.07422
807.4750, 157.6992
808.6160, 223.3047
809.7560, 199.6523
810.8970, 326.4570
812.0370, 152.0039
813.1770, 184.5352
814.3170, 92.04297
815.4570, 108.5312
816.5960, 82.10547
817.7360, 50.66016
818.8750, 83.86328
820.0140, 37.26172
821.1530, 122.6406
822.2920, 168.9922
823.4310, 97.32812
824.5690, 275.6484
825.7070, 125.9453
826.8460, 338.2227
827.9840, 15.51953
829.1220, 198.7070
830.2590, 66.91797
831.3970, 80.10547
832.5340, 135.7305
833.6710, 267.3438
834.8080, 526.3984
835.9450, 7.562500
837.0820, 214.4414
838.2190, 194.4414
839.3550, 145.4336
840.4910, 43.60156
841.6270, 112.3281
842.7630, 182.4570
843.8990, 167.3516
845.0350, 233.2305
846.1700, 405.1055
847.3060, 338.6953
848.4410, 173.7422
849.5760, 329.5742
850.7100, 137.3867
851.8450, 171.1836
852.9800, 372.9688
854.1140, 231.7344
855.2480, 388.4883
856.3820, 254.2188
857.5160, 47.93359
858.6500, 168.9727
859.7830, 66.80859
860.9170, 204.0195
862.0500, 95.68750
863.1830, 49.33984
864.3160, 86.00391
865.4480, 240.5508
866.5810, 84.07812
867.7130, 27.30078
868.8460, 203.2930
869.9780, 130.9102
871.1100, 187.5156
872.2410, 85.12891
873.3730, 56.73047
874.5050, 348.3203
875.6360, 19.89844
876.7670, 250.5273
877.8980, 200.1719
879.0290, 36.80078
880.1590, 59.58594
881.2900, 17.52734
882.4200, 71.56250
883.5500, 66.12109
884.6800, 227.6641
885.8100, 221.1992
886.9400, 182.7266
888.0690, 54.23828
889.1990, 419.7188
890.3280, 364.2539
891.4570, 297.7812
892.5860, 93.29688
893.7140, 83.37109
894.8430, 33.34766
895.9710, 241.3750
897.1000, 35.80078
898.2280, 195.3086
899.3560, 336.8398
900.4830, 237.3281
901.6110, 368.6406
902.7380, 371.1055
903.8660, 51.69922
904.9930, 408.3828
906.1200, 374.7461
907.2460, 95.16406
908.3730, 442.0234
909.5000, 192.0391
910.6260, 559.3477
911.7520, 289.0391
912.8780, 456.5664
914.0040, 627.6133
915.1290, 300.0820
916.2550, 346.8398
917.3800, 565.2188
918.5050, 495.6016
919.6300, 918.9922
920.7550, 787.1953
921.8800, 1161.949
923.0040, 983.2148
924.1290, 1276.816
925.2530, 1244.316
926.3770, 1445.910
927.5010, 1636.211
928.6250, 1936.586
929.7480, 1411.539
930.8720, 1630.598
931.9950, 1714.285
933.1180, 1406.254
934.2410, 1470.379
935.3640, 1080.754
936.4860, 782.5859
937.6090, 766.1641
938.7310, 521.4414
939.8530, 561.1797
940.9750, 702.2812
942.0970, 689.1211
943.2180, 1002.395
944.3400, 1122.789
945.4610, 985.1797
946.5820, 877.5664
947.7030, 1036.855
948.8240, 658.2695
949.9450, 888.3125
951.0650, 1031.430
952.1860, 469.4375
953.3060, 425.2891
954.4260, 574.3125
955.5460, 352.0664
956.6650, 687.2578
957.7850, 628.6445
958.9040, 217.7383
960.0230, 578.1484
961.1420, 453.3789
962.2610, 137.7930
963.3800, 328.1289
964.4990, 282.5391
965.6170, 235.5352
966.7350, 176.5977
967.8530, 389.5117
968.9710, 231.9297
970.0890, 390.3398
971.2070, 274.3984
972.3240, 111.8125
973.4410, 613.2266
974.5580, 137.6016
975.6750, 243.5430
976.7920, 112.2109
977.9090, 247.1797
979.0250, 753.5820
980.1410, 803.9805
981.2580, 57.38281
982.3740, 314.7852
983.4890, 99.19141
984.6050, 126.5977
985.7200, 394.9766
986.8360, 59.38672
987.9510, 207.8008
989.0660, 224.2188
990.1810, 201.6367
991.2950, 115.0547
992.4100, 105.1055
993.5240, 98.53125
994.6390, 458.6719
995.7530, 333.1016
996.8660, 380.3789
997.9800, 438.4766
999.0940, 417.7305
1000.207, 463.5234
1001.320, 552.4375
1002.433, 508.0938
1003.546, 507.5430
1004.659, 548.9922
1005.772, 607.4453
1006.884, 527.3203
1007.996, 766.5156
1009.108, 835.9844
1010.220, 988.9805
1011.332, 784.0078
1012.444, 987.4805
1013.555, 1149.641
1014.666, 1430.699
1015.777, 1199.996
1016.888, 1475.379
1017.999, 1499.750
1019.110, 1790.301
1020.220, 1730.852
1021.331, 2013.406
1022.441, 1900.758
1023.551, 2246.184
1024.661, 2313.746
1025.770, 2530.312
1026.880, 2651.902
1027.989, 2827.012
1029.098, 2907.391
1030.207, 2636.945
1031.316, 2539.352
1032.425, 2188.000
1033.533, 1958.656
1034.642, 1838.305
1035.750, 1580.020
1036.858, 1231.742
1037.966, 1504.367
1039.073, 1357.102
1040.181, 1053.840
1041.288, 1662.574
1042.396, 1876.332
1043.503, 1547.094
1044.610, 1559.859
1045.716, 1945.633
1046.823, 2375.406
1047.929, 2567.184
1049.036, 3228.816
1050.142, 3800.602
1051.248, 4139.391
1052.353, 4702.305
1053.459, 4942.094
1054.564, 5526.152
1055.670, 6132.992
1056.775, 6253.805
1057.880, 6298.695
1058.985, 5897.621
1060.089, 5405.551
1061.194, 5062.480
1062.298, 4573.414
1063.402, 4299.359
1064.506, 3958.312
1065.610, 3576.289
1066.713, 3190.281
1067.817, 2932.316
1068.920, 2470.289
1070.023, 2405.316
1071.126, 2015.363
1072.229, 1714.438
1073.332, 1389.180
1074.435, 1163.676
1075.537, 941.3281
1076.639, 841.4023
1077.741, 807.4727
1078.843, 818.5469
1079.945, 664.2734
1081.046, 546.3477
1082.148, 695.4180
1083.249, 571.4922
1084.350, 647.5625
1085.451, 747.6406
1086.551, 581.7188
1087.652, 605.4922
1088.752, 287.8672
1089.853, 532.9492
1090.953, 385.0234
1092.053, 515.3164
1093.152, 418.3906
1094.252, 304.4688
1095.351, 437.5430
1096.451, 287.6289
1097.550, 143.7109
1098.649, 385.7969
1099.748, 197.8828
1100.846, 292.0039
1101.945, 321.1289
1103.043, 234.2461
1104.141, 219.3750
1105.239, 184.0000
1106.337, 148.2852
1107.434, 119.7500
1108.532, 115.8906
1109.629, 121.0977
1110.726, 133.1680
1111.823, 202.2969
1112.920, 207.4336
1114.017, 165.5625
1115.113, 271.6992
1116.210, 271.1328
1117.306, 152.9492
1118.402, 329.0742
1119.498, 321.2031
1120.593, 282.3281
1121.689, 221.4453
1122.784, 261.5664
1123.879, 166.6836
1124.974, 159.8008
1126.069, 182.0078
1127.164, 71.03516
1128.259, 212.1484
1129.353, 81.26172
1130.447, 42.37109
1131.541, 392.4844
1132.635, 106.5938
1133.729, 298.7031
1134.822, 331.8164
1135.916, 149.9258
1137.009, 205.0391
1138.102, 4.851563
1139.195, 104.2461
1140.288, 371.3477
1141.380, 266.5547
1142.473, 68.24219
1143.565, 297.6680
1144.657, 44.57812
1145.749, 62.82422
1146.841, 63.25391
1147.932, 121.6289
1149.024, 134.5078
1150.115, 70.37891
1151.206, 426.2539
1152.297, 292.1211
1153.388, 132.9883
1154.479, 159.1484
1155.569, 168.6172
1156.659, 56.38672
1157.750, 223.5898
1158.839, 13.34766
1159.929, 268.3711
1161.019, 167.8789
1162.108, 227.7578
1163.198, 181.3945
1164.287, 247.0195
1165.376, 99.65234
1166.465, 136.3633
1167.553, 132.8945
1168.642, 105.5117
1169.730, 228.1250
1170.818, 193.7305
1171.906, 327.3320
1172.994, 341.9336
1174.082, 134.5312
1175.170, 458.1250
1176.257, 464.7148
1177.344, 137.3008
1178.431, 163.8828
1179.518, 100.5430
1180.605, 150.9609
1181.691, 175.4648
1182.778, 25.04297
1183.864, 120.4180
1184.950, 4.878906
1186.036, 395.3164
1187.122, 181.2461
1188.207, 74.07031
1189.292, 232.3828
1190.378, 92.69531
1191.463, 138.0000
1192.548, 312.3008
1193.632, 381.5977
1194.717, 276.8906
1195.801, 203.1758
1196.886, 284.4570
1197.970, 195.7344
1199.054, 472.0039
1200.137, 74.27344
1201.221, 70.53516
1202.305, 150.7930
1203.388, 96.95703
1204.471, 109.2188
1205.554, 364.3945
1206.637, 71.56250
1207.719, 395.7266
1208.802, 160.8828
1209.884, 80.96094
1210.966, 267.1250
1212.048, 365.2109
1213.130, 154.2891
1214.212, 273.3672
1215.293, 240.4375
1216.374, 213.4961
1217.456, 242.5586
1218.536, 190.6133
1219.617, 75.66016
1220.698, 374.7109
1221.778, 4.750000
1222.859, 300.7695
1223.939, 679.7852
1225.019, 226.7969
1226.099, 260.8047
1227.178, 481.8047
1228.258, 151.8008
1229.337, 485.7969
1230.417, 413.7852
1231.496, 288.7695
1232.574, 289.7461
1233.653, 403.7188
1234.732, 153.6875
1235.810, 281.6523
1236.888, 394.6133
1237.966, 334.5664
1239.044, 355.5156
1240.122, 2.480469
1241.199, 507.4219
1242.277, 252.3633
1243.354, 130.2969
1244.431, 436.2227
1245.508, 152.1484
1246.585, 371.0664
1247.661, 129.9883
1248.738, 366.8984
1249.814, 122.8047
1250.890, 65.71094
1251.966, 374.6094
1253.042, 283.5039
1254.117, 282.3984
1255.193, 319.2852
1256.268, 190.1680
1257.343, 219.1172
1258.418, 248.9258
1259.493, 242.8008
1260.567, 248.6680
1261.642, 402.5352
1262.716, 292.3984
1263.790, 397.2578
1264.864, 227.1172
1265.938, 506.9727
1267.011, 156.8555
1268.085, 333.1680
1269.158, 111.0430
1270.231, 398.9141
1271.304, 12.15234
1272.377, 414.1523
1273.450, 119.0000
1274.522, 222.1484
1275.594, 244.5781
1276.666, 370.5742
1277.738, 341.2969
1278.810, 212.0234
1279.882, 491.7500
1280.953, 129.4688
1282.025, 214.1914
1283.096, 455.9102
1284.167, 368.7656
1285.238, 37.48438
1286.308, 185.7930
1287.379, 310.8320
1288.449, 40.08594
1289.519, 332.5195
1290.589, 132.2031
1291.659, 137.8086
1292.729, 28.41797
1293.798, 369.0234
1294.868, 375.6328
1295.937, 459.2422
