##NAMES=Actinolite
##RRUFFID=R060045
##IDEAL CHEMISTRY=Ca_2_(Mg_4.5-2.5_Fe^2+^_0.5-2.5_)Si_8_O_22_(OH)_2_
##LOCALITY=Colorado, USA
##OWNER=RRUFF
##SOURCE=University of Arizona Mineral Museum
##DESCRIPTION=Green prismatic crystals in a radial arrangement
##STATUS=The identification of this mineral has been confirmed by X-ray diffraction and chemical analysis
##URL=rruff.info/R060045
##MEASURED CHEMISTRY=(Ca_1.99_Na_0.01_)_Σ=2_(Mg_4.20_Fe^2+^_0.59_Al_0.09_Fe^3+^_0.08_Mn_0.02_Ti_0.01_)_Σ=5_(Si_7.82_Al_0.18_)_Σ=8_O_22_(OH)_2_
##PIN_ID=M00311
##ORIENTATION=Laser parallel to c* (0 0 1). Fiducial mark perpendicular to laser is parallel to a [1 0 0]
134.1270, 0.0000000E+00
135.3560, 196.7256
136.5850, 3.593750
137.8140, 173.4248
139.0430, 184.3828
140.2710, 32.07422
141.5000, 5.221680
142.7280, 11.85449
143.9560, 51.53516
145.1840, 414.8145
146.4120, 1048.050
147.6390, 1701.487
148.8670, 2788.519
150.0940, 3224.646
151.3210, 3190.468
152.5490, 3324.787
153.7750, 3342.566
155.0020, 3463.480
156.2290, 3434.225
157.4550, 3485.557
158.6810, 3197.312
159.9080, 2907.348
161.1340, 2488.525
162.3590, 2351.728
163.5850, 2214.861
164.8110, 2484.848
166.0360, 3030.611
167.2610, 3773.096
168.4860, 4327.244
169.7110, 4621.718
170.9360, 4454.506
172.1610, 4440.592
173.3850, 4362.004
174.6100, 4330.563
175.8340, 4243.273
177.0580, 3934.135
178.2820, 3413.150
179.5050, 2874.321
180.7290, 2361.656
181.9520, 1694.531
183.1760, 1355.573
184.3990, 788.8896
185.6220, 719.3066
186.8450, 490.8799
188.0670, 387.6152
189.2900, 641.5107
190.5120, 437.5664
191.7340, 596.7803
192.9560, 556.1504
194.1780, 556.6738
195.4000, 819.3496
196.6220, 1120.176
197.8430, 1281.149
199.0640, 1609.028
200.2860, 1883.533
201.5070, 2197.938
202.7270, 2725.481
203.9480, 3058.238
205.1690, 3472.353
206.3890, 4318.328
207.6090, 5383.131
208.8290, 6598.259
210.0490, 8286.291
211.2690, 10032.99
212.4890, 11746.31
213.7080, 13171.72
214.9280, 14635.21
216.1470, 16028.00
217.3660, 17430.92
218.5850, 18661.31
219.8030, 20113.24
221.0220, 21484.30
222.2400, 22650.51
223.4590, 23168.84
224.6770, 22892.29
225.8950, 22246.91
227.1120, 21459.73
228.3300, 20599.55
229.5480, 19479.91
230.7650, 17917.22
231.9820, 16494.66
233.1990, 15616.24
234.4160, 12918.93
235.6330, 11170.74
236.8490, 9810.663
238.0660, 8965.701
239.2820, 8293.851
240.4980, 7726.169
241.7140, 7511.590
242.9300, 7443.117
244.1460, 7041.737
245.3610, 6745.450
246.5770, 6347.252
247.7920, 6026.142
249.0070, 5564.119
250.2220, 5115.182
251.4370, 4495.328
252.6510, 3906.560
253.8660, 3351.183
255.0800, 2844.265
256.2940, 2308.736
257.5080, 2045.283
258.7220, 1857.908
259.9360, 1734.607
261.1490, 1343.381
262.3630, 852.2266
263.5760, 626.1445
264.7890, 357.1318
266.0020, 504.1895
267.2150, 302.3154
268.4270, 175.5078
269.6400, 51.76465
270.8520, 103.0869
272.0640, 35.47363
273.2760, 126.0771
274.4880, 36.56641
275.7000, 229.9951
276.9120, 86.38477
278.1230, 271.7861
279.3340, 195.2432
280.5450, 190.9473
281.7560, 2.105469
282.9670, 160.8828
284.1780, 117.8213
285.3880, 63.68359
286.5980, 6.395508
287.8090, 65.84277
289.0190, 270.3389
290.2290, 285.2314
291.4380, 362.3828
292.6480, 421.7734
293.8570, 482.2686
295.0670, 631.1846
296.2760, 604.1758
297.4850, 736.3389
298.6930, 752.6631
299.9020, 792.1348
301.1110, 690.7461
302.3190, 759.4883
303.5270, 760.3535
304.7350, 677.3340
305.9430, 728.4248
307.1510, 545.3789
308.3580, 395.6982
309.5660, 325.1484
310.7730, 166.7354
311.9800, 246.4736
313.1870, 111.3174
314.3940, 267.3027
315.6010, 150.4043
316.8070, 138.6895
318.0130, 64.06250
319.2200, 58.65820
320.4260, 89.63770
321.6310, 85.43945
322.8370, 41.77637
324.0430, 21.33789
325.2480, 14.63086
326.4540, 331.3398
327.6590, 181.3086
328.8640, 392.3555
330.0680, 361.8271
331.2730, 514.0195
332.4780, 662.2598
333.6820, 785.5518
334.8860, 984.8955
336.0900, 1157.281
337.2940, 1527.714
338.4980, 1814.188
339.7010, 2084.701
340.9050, 2337.257
342.1080, 2630.849
343.3110, 2878.721
344.5140, 3062.411
345.7170, 3320.931
346.9200, 3344.664
348.1220, 3419.432
349.3240, 3463.189
350.5270, 3674.889
351.7290, 3658.498
352.9310, 3647.016
354.1320, 3746.517
355.3340, 4134.020
356.5350, 4542.559
357.7370, 5178.137
358.9380, 5944.753
360.1390, 6528.404
361.3400, 7293.094
362.5400, 7439.820
363.7410, 7693.581
364.9410, 7875.375
366.1410, 7557.208
367.3410, 7573.072
368.5410, 7387.970
369.7410, 6825.898
370.9400, 6448.860
372.1400, 5961.852
373.3390, 5596.822
374.5380, 5365.801
375.7370, 5341.537
376.9360, 5459.841
378.1350, 5767.902
379.3330, 6236.990
380.5310, 6926.104
381.7300, 8061.242
382.9280, 8711.406
384.1260, 9590.596
385.3230, 10174.81
386.5210, 10543.04
387.7180, 10350.30
388.9160, 10414.58
390.1130, 10297.88
391.3100, 9538.205
392.5060, 8992.548
393.7030, 8245.912
394.9000, 7236.295
396.0960, 6839.695
397.2920, 6277.117
398.4880, 5524.558
399.6840, 5796.014
400.8800, 5750.490
402.0750, 6048.982
403.2710, 6439.491
404.4660, 6817.018
405.6610, 7456.559
406.8560, 7593.115
408.0510, 7776.688
409.2450, 7999.275
410.4400, 7973.877
411.6340, 7731.492
412.8280, 7453.120
414.0220, 6756.762
415.2160, 6187.417
416.4100, 5611.083
417.6030, 4896.395
418.7970, 4408.027
419.9900, 3817.773
421.1830, 3408.674
422.3760, 2957.504
423.5690, 2932.865
424.7610, 2941.469
425.9540, 3253.142
427.1460, 3381.172
428.3380, 3471.040
429.5300, 3761.952
430.7220, 3622.666
431.9140, 3603.634
433.1050, 3391.627
434.2970, 3211.644
435.4880, 2936.681
436.6790, 2612.739
437.8700, 2036.815
439.0610, 1788.911
440.2510, 1328.023
441.4420, 1025.152
442.6320, 660.2949
443.8220, 498.4531
445.0120, 442.6240
446.2020, 250.8076
447.3910, 142.0029
448.5810, 165.6055
449.7700, 54.26172
450.9600, 72.31250
452.1490, 121.5635
453.3370, 50.24805
454.5260, 120.7559
455.7150, 50.74707
456.9030, 24.17773
458.0910, 105.7979
459.2800, 76.05469
460.4670, 31.55078
461.6550, 93.87793
462.8430, 54.27246
464.0300, 133.4863
465.2180, 66.57422
466.4050, 42.91016
467.5920, 35.03906
468.7790, 25.19238
469.9650, 142.1982
471.1520, 85.82715
472.3380, 38.01270
473.5250, 220.8467
474.7110, 88.74414
475.8970, 122.2559
477.0820, 113.5273
478.2680, 243.6367
479.4540, 202.8682
480.6390, 297.0068
481.8240, 336.8262
483.0090, 203.5244
484.1940, 239.3184
485.3780, 55.09961
486.5630, 28.13867
487.7470, 111.5732
488.9320, 150.2715
490.1160, 290.9541
491.3000, 219.6230
492.4830, 316.2783
493.6670, 412.9180
494.8500, 369.5430
496.0340, 383.1533
497.2170, 698.7500
498.4000, 592.3311
499.5820, 883.8965
500.7650, 909.4453
501.9480, 1133.979
503.1300, 1235.500
504.3120, 1671.003
505.4940, 1802.502
506.6760, 1992.996
507.8580, 2392.495
509.0390, 2654.035
510.2210, 3017.439
511.4020, 3381.891
512.5830, 3677.325
513.7640, 4019.742
514.9450, 4007.155
516.1250, 4278.582
517.3060, 4264.017
518.4860, 4701.467
519.6660, 4626.895
520.8460, 4754.363
522.0260, 4513.839
523.2060, 4574.293
524.3850, 4526.739
525.5650, 4134.164
526.7440, 4046.567
527.9230, 3810.948
529.1020, 3706.310
530.2810, 3322.647
531.4590, 2990.979
532.6380, 2561.324
533.8160, 2427.677
534.9940, 2100.904
536.1720, 1931.586
537.3500, 1740.653
538.5270, 1554.935
539.7050, 1426.250
540.8820, 1273.505
542.0590, 1228.777
543.2360, 1234.037
544.4130, 1263.272
545.5900, 1151.492
546.7660, 1175.700
547.9430, 1193.889
549.1190, 1140.083
550.2950, 1109.921
551.4710, 930.3896
552.6470, 947.5127
553.8220, 893.6045
554.9980, 743.6680
556.1730, 886.7021
557.3480, 831.7051
558.5230, 942.6777
559.6980, 785.6436
560.8730, 716.5820
562.0470, 827.5303
563.2220, 798.4590
564.3960, 857.4033
565.5700, 952.3496
566.7440, 952.2949
567.9170, 954.0801
569.0910, 942.7461
570.2640, 884.0078
571.4380, 861.8652
572.6110, 819.6904
573.7840, 793.4795
574.9570, 802.2344
576.1290, 933.9551
577.3020, 711.6387
578.4740, 860.2871
579.6460, 682.9004
580.8180, 587.4746
581.9900, 639.0137
583.1620, 467.5156
584.3330, 435.9805
585.5040, 436.4082
586.6760, 426.7969
587.8470, 365.1465
589.0180, 234.4590
590.1880, 94.72852
591.3590, 115.1885
592.5290, 21.66797
593.7000, 59.63379
594.8700, 135.7314
596.0400, 41.00000
597.2090, 85.35059
598.3790, 71.85449
599.5490, 143.4902
600.7180, 49.64453
601.8870, 25.30859
603.0560, 61.50781
604.2250, 50.15625
605.3940, 67.70117
606.5620, 95.01660
607.7300, 47.83105
608.8990, 9.856445
610.0670, 37.30273
611.2350, 25.03906
612.4020, 17.88281
613.5700, 22.82129
614.7370, 183.7891
615.9050, 144.7070
617.0720, 106.5703
618.2390, 265.3701
619.4060, 161.1279
620.5720, 256.8320
621.7390, 330.4932
622.9050, 198.1133
624.0710, 376.6846
625.2370, 575.2139
626.4030, 409.4600
627.5690, 491.0625
628.7340, 706.4707
629.9000, 675.8379
631.0650, 774.1631
632.2300, 995.7666
633.3950, 1152.013
634.5600, 1258.235
635.7240, 1426.427
636.8890, 1508.550
638.0530, 1664.631
639.2170, 1864.671
640.3810, 2246.672
641.5450, 2129.648
642.7080, 2513.845
643.8720, 2866.775
645.0350, 3371.455
646.1980, 3659.889
647.3610, 4119.021
648.5240, 4512.869
649.6870, 4831.234
650.8490, 5301.512
652.0120, 5953.764
653.1740, 6623.795
654.3360, 7618.498
655.4980, 8750.549
656.6600, 10007.30
657.8210, 11676.46
658.9830, 14147.97
660.1440, 17209.20
661.3050, 20748.44
662.4660, 25218.92
663.6270, 29722.83
664.7870, 34112.19
665.9480, 38128.49
667.1080, 40867.72
668.2680, 41898.05
669.4280, 42180.21
670.5880, 41347.29
671.7480, 38548.07
672.9070, 35250.06
674.0670, 31166.29
675.2260, 26697.51
676.3850, 22360.35
677.5440, 18320.96
678.7030, 15303.90
679.8610, 12708.54
681.0200, 10534.55
682.1780, 9172.290
683.3360, 7786.865
684.4940, 7055.223
685.6520, 6246.271
686.8090, 5631.859
687.9670, 5103.184
689.1240, 4898.320
690.2810, 4118.408
691.4380, 3951.980
692.5950, 3516.973
693.7520, 3087.918
694.9080, 2788.816
696.0650, 2678.668
697.2210, 2449.480
698.3770, 2246.648
699.5330, 2080.359
700.6880, 1794.023
701.8440, 1893.637
702.9990, 1547.207
704.1550, 1518.729
705.3100, 1393.203
706.4650, 1324.629
707.6190, 1341.010
708.7740, 1280.344
709.9290, 1161.631
711.0830, 1256.871
712.2370, 1021.064
713.3910, 1006.211
714.5450, 1005.311
715.6980, 957.3672
716.8520, 915.3730
718.0050, 929.3379
719.1580, 990.2539
720.3110, 815.1250
721.4640, 982.9512
722.6170, 882.7324
723.7700, 783.4688
724.9220, 958.1602
726.0740, 815.8066
727.2260, 879.4082
728.3780, 938.5723
729.5300, 1046.170
730.6810, 948.2793
731.8330, 1150.678
732.9840, 1051.607
734.1350, 1472.680
735.2860, 1443.232
736.4370, 1562.309
737.5880, 1697.162
738.7380, 1948.445
739.8880, 1976.215
741.0390, 2182.980
742.1890, 2235.643
743.3380, 2253.582
744.4880, 2232.209
745.6380, 2302.064
746.7870, 2228.141
747.9360, 2087.822
749.0850, 2048.934
750.2340, 1685.217
751.3830, 1513.906
752.5310, 1286.902
753.6800, 1153.799
754.8280, 949.0410
755.9760, 975.4844
757.1240, 933.0508
758.2720, 678.4531
759.4190, 868.9082
760.5670, 490.6445
761.7140, 521.4629
762.8610, 408.1445
764.0080, 334.8008
765.1550, 326.4297
766.3020, 239.0547
767.4480, 487.6523
768.5950, 204.2246
769.7410, 101.7715
770.8870, 337.2910
772.0330, 332.7852
773.1780, 159.2559
774.3240, 336.6992
775.4690, 176.1211
776.6140, 213.5195
777.7590, 183.8965
778.9040, 153.2480
780.0490, 88.57812
781.1940, 139.8848
782.3380, 15.83203
783.4820, 13.59961
784.6260, 42.41211
785.7700, 109.7129
786.9140, 21.81641
788.0580, 22.89062
789.2010, 18.93945
790.3450, 31.96289
791.4880, 30.03906
792.6310, 101.0898
793.7730, 82.22656
794.9160, 106.4395
796.0590, 73.25781
797.2010, 207.0625
798.3430, 81.51953
799.4850, 39.95117
800.6270, 32.59570
801.7690, 40.70898
802.9100, 43.66797
804.0520, 41.56836
805.1930, 8.921875
806.3340, 34.25781
807.4750, 63.42383
808.6160, 124.1621
809.7560, 113.7520
810.8970, 23.87891
812.0370, 73.80664
813.1770, 24.21094
814.3170, 152.2148
815.4570, 75.79492
816.5960, 168.8574
817.7360, 9.017578
818.8750, 63.19727
820.0140, 3.580078
821.1530, 45.65625
822.2920, 74.92383
823.4310, 35.23438
824.5690, 147.5703
825.7070, 76.01367
826.8460, 27.58984
827.9840, 62.84180
829.1220, 91.69336
830.2590, 131.2207
831.3970, 49.74023
832.5340, 19.25586
833.6710, 4.763672
834.8080, 17.73438
835.9450, 142.7578
837.0820, 30.24219
838.2190, 210.7266
839.3550, 156.2031
840.4910, 314.6758
841.6270, 200.1465
842.7630, 163.6152
843.8990, 152.0801
845.0350, 162.5430
846.1700, 143.0039
847.3060, 191.4629
848.4410, 130.9199
849.5760, 102.3750
850.7100, 133.8281
851.8450, 91.18359
852.9800, 104.5586
854.1140, 96.19336
855.2480, 117.6504
856.3820, 183.1074
857.5160, 207.1602
858.6500, 183.0293
859.7830, 260.4922
860.9170, 213.9570
862.0500, 266.4277
863.1830, 351.8984
864.3160, 354.3750
865.4480, 275.8535
866.5810, 189.3516
867.7130, 242.8652
868.8460, 151.4219
869.9780, 257.0254
871.1100, 215.7031
872.2410, 111.4062
873.3730, 118.1699
874.5050, 314.9902
875.6360, 203.8828
876.7670, 332.8027
877.8980, 326.7676
879.0290, 226.3672
880.1590, 211.3105
881.2900, 169.9297
882.4200, 32.08984
883.5500, 305.2734
884.6800, 274.4961
885.8100, 328.7676
886.9400, 199.0801
888.0690, 471.4375
889.1990, 337.8281
890.3280, 520.2324
891.4570, 282.6738
892.5860, 516.1367
893.7140, 501.6250
894.8430, 495.1328
895.9710, 528.6523
897.1000, 522.1836
898.2280, 562.6699
899.3560, 585.9023
900.4830, 645.9160
901.6110, 659.5645
902.7380, 706.2402
903.8660, 769.0078
904.9930, 792.6855
906.1200, 1006.139
907.2460, 1030.922
908.3730, 1159.721
909.5000, 1367.521
910.6260, 1265.383
911.7520, 1455.270
912.8780, 1400.203
914.0040, 1772.152
915.1290, 2086.131
916.2550, 2247.865
917.3800, 2690.848
918.5050, 2763.055
919.6300, 3332.484
920.7550, 3979.186
921.8800, 4421.152
923.0040, 4770.570
924.1290, 5252.070
925.2530, 5571.570
926.3770, 5736.270
927.5010, 5710.289
928.6250, 5594.957
929.7480, 5505.893
930.8720, 4718.414
931.9950, 4268.559
933.1180, 3813.000
934.2410, 3432.420
935.3640, 3117.178
936.4860, 2847.279
937.6090, 2683.525
938.7310, 2500.818
939.8530, 2533.182
940.9750, 2421.434
942.0970, 2641.859
943.2180, 2644.318
944.3400, 2778.096
945.4610, 2565.633
946.5820, 2271.938
947.7030, 2450.223
948.8240, 1909.871
949.9450, 1878.744
951.0650, 1862.256
952.1860, 1690.053
953.3060, 1295.484
954.4260, 1290.166
955.5460, 1241.992
956.6650, 1246.061
957.7850, 1221.414
958.9040, 1213.215
960.0230, 1029.305
961.1420, 898.5664
962.2610, 903.3887
963.3800, 960.6504
964.4990, 922.0020
965.6170, 901.3867
966.7350, 1007.803
967.8530, 1013.250
968.9710, 959.7188
970.0890, 971.8105
971.2070, 1050.352
972.3240, 1245.922
973.4410, 1220.469
974.5580, 1135.150
975.6750, 1259.809
976.7920, 1158.492
977.9090, 1137.211
979.0250, 1146.955
980.1410, 1031.730
981.2580, 1153.537
982.3740, 1090.371
983.4890, 1215.236
984.6050, 1089.133
985.7200, 1142.057
986.8360, 1259.010
987.9510, 1266.994
989.0660, 1492.006
990.1810, 1335.049
991.2950, 1312.121
992.4100, 1447.223
993.5240, 1796.354
994.6390, 1716.516
995.7530, 1911.707
996.8660, 1977.928
997.9800, 1900.178
999.0940, 2163.869
1000.207, 2401.771
1001.320, 2537.111
1002.433, 2784.480
1003.546, 2950.879
1004.659, 2922.309
1005.772, 3404.764
1006.884, 3326.250
1007.996, 3766.764
1009.108, 4287.305
1010.220, 4534.873
1011.332, 4301.471
1012.444, 4969.094
1013.555, 5331.748
1014.666, 5559.426
1015.777, 6197.133
1016.888, 6888.863
1017.999, 7581.621
1019.110, 8399.406
1020.220, 9418.219
1021.331, 10568.71
1022.441, 11706.57
1023.551, 12868.46
1024.661, 13875.58
1025.770, 13881.54
1026.880, 13918.86
1027.989, 13233.85
1029.098, 12498.91
1030.207, 11352.95
1031.316, 9870.096
1032.425, 8857.852
1033.533, 7608.197
1034.642, 6614.182
1035.750, 5932.668
1036.858, 5164.842
1037.966, 4836.539
1039.073, 4513.758
1040.181, 4408.016
1041.288, 4473.277
1042.396, 4645.543
1043.503, 4803.922
1044.610, 5017.781
1045.716, 5302.748
1046.823, 5821.223
1047.929, 6242.311
1049.036, 6961.086
1050.142, 7548.971
1051.248, 8037.408
1052.353, 8591.883
1053.459, 9004.383
1054.564, 9202.926
1055.670, 9263.668
1056.775, 8964.568
1057.880, 9035.305
1058.985, 8630.926
1060.089, 8283.143
1061.194, 8020.352
1062.298, 7962.074
1063.402, 7834.797
1064.506, 7581.615
1065.610, 7221.750
1066.713, 6804.660
1067.817, 6360.445
1068.920, 5516.652
1070.023, 5007.740
1071.126, 4134.830
1072.229, 3587.488
1073.332, 3234.117
1074.435, 2709.230
1075.537, 2522.533
1076.639, 2097.672
1077.741, 1882.816
1078.843, 1781.389
1079.945, 1646.873
1081.046, 1538.113
1082.148, 1322.404
1083.249, 1076.668
1084.350, 1254.281
1085.451, 930.9023
1086.551, 1180.416
1087.652, 1078.803
1088.752, 892.7422
1089.853, 1020.158
1090.953, 1250.602
1092.053, 1048.680
1093.152, 1049.180
1094.252, 921.3379
1095.351, 944.8477
1096.451, 830.1426
1097.550, 884.2812
1098.649, 790.9395
1099.748, 782.4492
1100.846, 783.0020
1101.945, 823.5586
1103.043, 722.3848
1104.141, 649.0547
1105.239, 618.7520
1106.337, 708.2891
1107.434, 597.8691
1108.532, 607.4512
1109.629, 807.2520
1110.726, 746.8398
1111.823, 735.5293
1112.920, 533.0527
1114.017, 654.0215
1115.113, 647.7305
1116.210, 740.3574
1117.306, 547.9902
1118.402, 508.6191
1119.498, 666.2520
1120.593, 421.8848
1121.689, 597.5176
1122.784, 383.1523
1123.879, 631.8105
1124.974, 588.4668
1126.069, 656.1230
1127.164, 679.2207
1128.259, 577.8359
1129.353, 627.4902
1130.447, 500.3926
1131.541, 463.0410
1132.635, 514.6895
1133.729, 254.3418
1134.822, 448.9902
1135.916, 596.6367
1137.009, 292.3008
1138.102, 400.9629
1139.195, 225.6211
1140.288, 253.2754
1141.380, 216.9258
1142.473, 342.5723
1143.565, 283.4727
1144.657, 299.5273
1145.749, 281.7656
1146.841, 238.3926
1147.932, 222.0137
1149.024, 112.6289
1150.115, 108.2402
1151.206, 165.8516
1152.297, 20.54492
1153.388, 141.0469
1154.479, 11.63281
1155.569, 80.78906
1156.659, 11.74023
1157.750, 64.73633
1158.839, 79.75000
1159.929, 11.22461
1161.019, 150.8047
1162.108, 7.263672
1163.198, 47.28711
1164.287, 102.8711
1165.376, 95.51953
1166.465, 38.22852
1167.553, 60.03125
1168.642, 213.7227
1169.730, 72.40039
1170.818, 46.51367
1171.906, 243.6133
1172.994, 121.2949
1174.082, 40.71484
1175.170, 32.28906
1176.257, 96.32617
1177.344, 7.433594
1178.431, 95.56641
1179.518, 7.232422
1180.605, 9.990234
1181.691, 140.7598
1182.778, 141.5000
1183.864, 114.2266
1184.950, 97.02344
1186.036, 40.72656
1187.122, 33.58984
1188.207, 58.05273
1189.292, 129.6797
1190.378, 50.70703
1191.463, 33.15039
1192.548, 140.3613
1193.632, 6.140625
1194.717, 187.3203
1195.801, 153.2324
1196.886, 124.1035
1197.970, 17.42188
1199.054, 52.71680
1200.137, 19.00781
1201.221, 95.22266
1202.305, 121.5645
1203.388, 7.550781
1204.471, 0.6328130
1205.554, 65.67773
1206.637, 45.29883
1207.719, 137.6621
1208.802, 17.39062
1209.884, 62.50391
1210.966, 291.3809
1212.048, 9.759766
1213.130, 187.0527
1214.212, 21.84766
1215.293, 27.39062
1216.374, 101.3145
1217.456, 142.9980
1218.536, 125.3359
1219.617, 251.2207
1220.698, 581.7578
1221.778, 140.7266
1222.859, 175.6699
1223.939, 50.04688
1225.019, 175.3965
1226.099, 47.72461
1227.178, 55.02539
1228.258, 124.3008
1229.337, 43.55273
1230.417, 156.7754
1231.496, 222.9766
1232.574, 37.15820
1233.653, 134.3047
1234.732, 144.4297
1235.810, 155.5332
1236.888, 172.6152
1237.966, 372.6758
1239.044, 112.7129
1240.122, 266.7266
1241.199, 384.7227
1242.277, 249.0977
1243.354, 96.04883
1244.431, 156.9746
1245.508, 296.8750
1246.585, 197.7559
1247.661, 463.6113
1248.738, 384.2676
1249.814, 288.2598
1250.890, 314.0508
1251.966, 309.0742
1253.042, 222.3809
1254.117, 269.1602
1255.193, 235.8613
1256.268, 104.5371
1257.343, 226.1855
1258.418, 196.8145
1259.493, 133.4434
1260.567, 277.0449
1261.642, 425.6348
1262.716, 338.5781
1263.790, 510.1230
1264.864, 322.6445
1265.938, 281.0156
1267.011, 297.4902
1268.085, 427.9414
1269.158, 316.3711
1270.231, 216.7754
1271.304, 345.1582
1272.377, 145.5156
1273.450, 526.8477
1274.522, 202.1582
1275.594, 423.4434
1276.666, 412.7051
1277.738, 353.9453
1278.810, 424.2695
1279.882, 253.3828
1280.953, 389.5508
1282.025, 459.0410
1283.096, 559.1641
1284.167, 383.2617
1285.238, 251.1289
1286.308, 315.3926
1287.379, 222.0566
1288.449, 442.0645
1289.519, 182.9941
1290.589, 440.9551
1291.659, 289.8008
1292.729, 215.6699
1293.798, 280.3223
1294.868, 439.3359
1295.937, 391.8477
1297.006, 316.6777
1298.075, 321.9805
1299.143, 224.7656
1300.212, 359.5098
1301.280, 346.2539
1302.348, 424.9902
1303.416, 446.5352
