##NAMES=Actinolite
##RRUFFID=R040064
##IDEAL CHEMISTRY=Ca_2_(Mg_4.5-2.5_Fe^2+^_0.5-2.5_)Si_8_O_22_(OH)_2_
##LOCALITY=Ehime Perfecture, Uma Gun, Japan
##OWNER=RRUFF
##SOURCE=University of Arizona Mineral Museum
##DESCRIPTION=Aggregate of green acicular crystals associated with chlorite
##STATUS=The identification of this mineral has been confirmed by X-ray diffraction and chemical analysis
##URL=rruff.info/R040064
##MEASURED CHEMISTRY=(Ca_0.95_Na_0.04_Mn_0.01_)_2_(Mg_0.88_Fe_0.12_)_5_(Si_0.98_Al_0.02_)_8_O_22_(OH)_2_
##PIN_ID=M00405
##ORIENTATION=Laser parallel to a [1 0 0]. Fiducial mark perpendicular to laser is parallel to b* (0 1 0)
105.030, 0.000
106.423, 1.882
107.817, 374.492
109.210, 602.943
110.603, 885.239
111.996, 1250.828
113.388, 1617.419
114.780, 1874.352
116.172, 2488.130
117.564, 2657.273
118.956, 2839.824
120.347, 2921.418
121.738, 2638.887
123.129, 2218.559
124.519, 1730.114
125.910, 1183.300
127.300, 848.819
128.690, 457.673
130.080, 197.814
131.469, 44.956
132.858, 162.799
134.248, 26.730
135.636, 16.461
137.025, 175.498
138.413, 196.057
139.801, 231.139
141.189, 323.683
142.577, 347.633
143.964, 158.944
145.352, 43.575
146.739, 111.779
148.125, 97.043
149.512, 16.542
150.898, 2.118
152.284, 101.169
153.670, 491.277
155.056, 815.239
156.441, 1415.086
157.827, 1564.833
159.212, 1684.494
160.596, 1324.080
161.981, 1133.597
163.365, 738.050
164.749, 309.447
166.133, 318.793
167.517, 189.095
168.900, 346.354
170.283, 589.571
171.666, 908.752
173.049, 1397.898
174.431, 1967.008
175.813, 2606.083
177.195, 2715.128
178.577, 2554.140
179.959, 2073.121
181.340, 1692.074
182.721, 1080.999
184.102, 689.896
185.483, 557.770
186.863, 367.617
188.244, 416.891
189.624, 336.746
191.003, 324.564
192.383, 484.812
193.762, 366.259
195.141, 269.766
196.520, 95.118
197.899, 179.775
199.277, 113.604
200.656, 311.619
202.034, 345.854
203.411, 338.247
204.789, 485.753
206.166, 619.419
207.543, 887.176
208.920, 1094.971
210.297, 1462.798
211.673, 1570.662
213.049, 1958.620
214.425, 2326.544
215.801, 2814.492
217.176, 3272.462
218.552, 4070.452
219.927, 4768.461
221.302, 5066.491
222.676, 5314.537
224.051, 5192.604
225.425, 5230.682
226.799, 5218.772
228.173, 5546.873
229.546, 5714.980
230.919, 5683.094
232.292, 5451.203
233.665, 4359.303
235.038, 3617.394
236.410, 2765.474
237.782, 2213.545
239.154, 1601.604
240.526, 1419.654
241.898, 1397.693
243.269, 1215.722
244.640, 1603.737
246.011, 1621.744
247.381, 1889.740
248.752, 1957.723
250.122, 2005.695
251.492, 1603.656
252.861, 1441.606
254.231, 1119.548
255.600, 907.479
256.969, 875.401
258.338, 693.317
259.707, 601.233
261.075, 399.142
262.443, 320.008
263.811, 444.947
265.179, 202.843
266.546, 110.720
267.914, 178.581
269.281, 56.431
270.647, 123.785
272.014, 151.974
273.380, 102.548
274.747, 84.687
276.113, 65.500
277.478, 223.054
278.844, 124.444
280.209, 89.680
281.574, 169.784
282.939, 73.798
284.304, 1.662
285.668, 6.125
287.032, 153.390
288.396, 200.196
289.760, 180.811
291.123, 233.159
292.487, 155.709
293.850, 165.415
295.212, 104.719
296.575, 165.792
297.937, 321.186
299.300, 393.967
300.662, 382.785
302.023, 453.414
303.385, 487.441
304.746, 428.810
306.107, 443.393
307.468, 442.910
308.829, 401.743
310.189, 260.486
311.549, 229.571
312.909, 198.247
314.269, 286.755
315.629, 305.983
316.988, 124.661
318.347, 223.318
319.706, 112.438
321.065, 281.054
322.423, 209.652
323.781, 138.230
325.139, 236.790
326.497, 375.331
327.855, 383.854
329.212, 522.357
330.569, 450.844
331.926, 609.312
333.283, 557.761
334.639, 546.229
335.995, 494.997
337.351, 643.392
338.707, 561.768
340.063, 690.383
341.418, 778.724
342.773, 817.047
344.128, 845.352
345.483, 983.639
346.837, 1011.907
348.192, 1190.158
349.546, 1148.392
350.899, 1246.605
352.253, 1054.730
353.606, 1272.691
354.960, 1180.540
356.313, 968.187
357.665, 1005.676
359.018, 903.089
360.370, 1190.471
361.722, 1277.844
363.074, 1745.208
364.426, 2272.561
365.777, 2799.902
367.128, 3437.232
368.479, 3804.549
369.830, 3841.854
371.181, 3389.141
372.531, 3046.415
373.881, 2423.676
375.231, 2120.919
376.581, 1978.147
377.930, 1605.360
379.280, 1562.557
380.629, 1659.738
381.977, 1546.904
383.326, 1794.333
384.674, 2041.466
386.023, 2308.582
387.370, 3355.784
388.718, 3872.868
390.066, 4659.934
391.413, 5276.984
392.760, 5684.303
394.107, 5161.315
395.454, 4568.314
396.800, 3815.295
398.146, 3032.839
399.492, 2209.784
400.838, 1807.196
402.184, 1674.318
403.529, 1611.365
404.874, 1578.336
406.219, 1645.827
407.564, 1762.855
408.908, 2000.643
410.252, 2127.902
411.596, 2685.884
412.940, 2842.817
414.284, 3049.926
415.627, 3046.832
416.970, 2893.545
418.313, 2533.297
419.656, 2199.972
420.999, 1716.992
422.341, 1533.811
423.683, 1150.430
425.025, 927.028
426.367, 853.607
427.708, 640.169
429.049, 717.642
430.390, 604.212
431.731, 841.079
433.072, 809.633
434.412, 1046.437
435.752, 1145.968
437.092, 846.406
438.432, 697.918
439.772, 710.828
441.111, 329.428
442.450, 260.072
443.789, 207.284
445.127, 161.294
446.466, 56.237
447.804, 58.602
449.142, 75.027
450.480, 31.029
451.817, 1.752
453.155, 5.399
454.492, 62.654
455.829, 110.968
457.166, 25.188
458.502, 46.991
459.838, 11.157
461.175, 104.350
462.510, 40.030
463.846, 24.528
465.181, 21.331
466.517, 33.349
467.852, 81.897
469.186, 147.254
470.521, 262.442
471.855, 107.605
473.190, 32.739
474.523, 167.840
475.857, 92.917
477.191, 217.965
478.524, 242.988
479.857, 97.986
481.190, 322.913
482.523, 327.858
483.855, 232.794
485.187, 467.705
486.519, 522.623
487.851, 427.545
489.183, 482.441
490.514, 377.315
491.845, 222.164
493.176, 246.988
494.507, 171.800
495.837, 106.584
497.168, 251.342
498.498, 246.076
499.828, 120.796
501.157, 195.498
502.487, 290.175
503.816, 434.866
505.145, 473.333
506.474, 556.896
507.802, 588.795
509.131, 663.390
510.459, 727.962
511.787, 782.510
513.115, 1017.032
514.442, 1151.545
515.770, 1016.035
517.097, 960.545
518.424, 925.034
519.750, 889.504
521.077, 1183.982
522.403, 778.441
523.729, 842.899
525.055, 1157.336
526.381, 1051.752
527.706, 1056.152
529.031, 1200.532
530.356, 1284.890
531.681, 849.228
533.006, 723.544
534.330, 437.860
535.654, 622.155
536.978, 396.430
538.302, 450.681
539.625, 304.911
540.949, 399.167
542.272, 123.400
543.595, 367.612
544.917, 191.804
546.240, 165.974
547.562, 430.138
548.884, 224.280
550.206, 258.400
551.527, 122.499
552.849, 236.575
554.170, 210.633
555.491, 254.684
556.812, 78.714
558.132, 222.736
559.453, 86.737
560.773, 140.713
562.093, 154.663
563.412, 168.590
564.732, 72.495
566.051, 146.374
567.370, 50.229
568.689, 88.373
570.008, 37.852
571.326, 151.618
572.644, 105.361
573.963, 149.080
575.280, 352.776
576.598, 13.550
577.915, 260.075
579.233, 103.679
580.550, 147.258
581.866, 210.813
583.183, 294.348
584.499, 257.859
585.815, 401.351
587.131, 44.821
588.447, 178.261
589.763, 101.679
591.078, 95.074
592.393, 108.479
593.708, 131.905
595.022, 135.340
596.337, 114.157
597.651, 32.216
598.965, 45.685
600.279, 39.164
601.593, 7.356
602.906, 36.130
604.219, 15.556
605.532, 1.622
606.845, 103.775
608.158, 148.695
609.470, 0.140
610.782, 49.327
612.094, 21.455
613.406, 30.627
614.718, 33.133
616.029, 26.114
617.340, 70.737
618.651, 219.415
619.962, 82.463
621.272, 263.682
622.582, 11.499
623.892, 142.225
625.202, 239.556
626.512, 82.101
627.821, 275.087
629.131, 298.154
630.440, 270.866
631.749, 271.923
633.057, 154.923
634.366, 477.844
635.674, 370.833
636.982, 543.809
638.290, 296.289
639.597, 719.234
640.905, 375.902
642.212, 698.819
643.519, 819.012
644.825, 848.460
646.132, 1081.331
647.438, 1234.680
648.744, 1337.520
650.050, 1480.363
651.356, 1805.478
652.662, 1628.324
653.967, 2080.913
655.272, 2103.676
656.577, 2448.979
657.882, 2753.292
659.186, 3106.008
660.490, 3707.896
661.794, 4600.581
663.098, 5483.289
664.402, 6945.942
665.705, 9008.980
667.009, 11752.080
668.312, 15434.687
669.614, 19587.287
670.917, 23382.695
672.219, 24715.264
673.522, 25128.014
674.824, 21350.859
676.125, 17873.562
677.427, 13963.521
678.728, 10866.006
680.030, 8443.280
681.331, 6375.736
682.631, 5118.620
683.932, 4112.084
685.232, 3614.632
686.532, 3007.023
687.832, 2469.915
689.132, 2392.273
690.432, 1939.491
691.731, 1901.931
693.030, 1474.242
694.329, 1406.598
695.628, 1298.876
696.926, 1161.968
698.224, 1040.926
699.522, 955.876
700.820, 856.174
702.118, 811.493
703.415, 707.201
704.713, 669.368
706.010, 591.518
707.307, 503.651
708.603, 695.865
709.900, 598.721
711.196, 614.143
712.492, 506.214
713.788, 452.118
715.083, 624.158
716.379, 315.698
717.674, 667.494
718.969, 339.332
720.264, 381.214
721.558, 492.542
722.853, 314.300
724.147, 385.342
725.441, 456.803
726.735, 437.508
728.028, 589.229
729.322, 430.741
730.615, 662.520
731.908, 374.364
733.201, 983.136
734.493, 954.952
735.785, 776.391
737.078, 1157.998
738.370, 1329.772
739.661, 1061.534
740.953, 1423.282
742.244, 1285.018
743.535, 1275.808
744.826, 1557.469
746.117, 1498.797
747.407, 1660.085
748.698, 1611.416
749.988, 1412.834
751.278, 1794.254
752.567, 1255.572
753.857, 1206.106
755.146, 776.871
756.435, 827.520
757.724, 816.800
759.013, 337.384
760.301, 497.818
761.590, 528.050
762.878, 219.403
764.165, 501.001
765.453, 451.391
766.741, 382.596
768.028, 312.046
769.315, 323.133
770.602, 294.358
771.888, 43.876
773.175, 385.311
774.461, 87.021
775.747, 268.518
777.033, 180.212
778.319, 81.428
779.604, 123.134
780.889, 84.854
782.174, 226.421
783.459, 318.121
784.744, 159.810
786.028, 101.489
787.312, 263.167
788.596, 24.834
789.880, 186.487
791.164, 178.132
792.447, 199.765
793.730, 201.390
795.013, 46.996
796.296, 504.575
797.579, 103.866
798.861, 92.381
800.143, 199.038
801.425, 20.445
802.707, 161.840
803.989, 133.223
805.270, 25.404
806.551, 115.938
807.832, 97.270
809.113, 238.592
810.394, 30.094
811.674, 18.813
812.954, 202.439
814.234, 136.314
815.514, 334.841
816.794, 125.988
818.073, 247.128
819.352, 38.260
820.631, 19.381
821.910, 200.492
823.189, 152.381
824.467, 36.525
825.745, 154.537
827.023, 154.410
828.301, 56.545
829.578, 87.492
830.856, 111.572
832.133, 209.293
833.410, 69.850
834.687, 220.961
835.963, 21.762
837.240, 7.447
838.516, 93.326
839.792, 194.092
841.068, 4.850
842.343, 185.594
843.618, 73.670
844.894, 97.016
846.169, 227.697
847.443, 108.367
848.718, 209.039
849.992, 170.297
851.266, 160.279
852.540, 0.855
853.814, 61.418
855.088, 101.973
856.361, 57.479
857.634, 173.031
858.907, 293.547
860.180, 124.059
861.453, 24.604
862.725, 4.859
863.997, 55.113
865.269, 136.160
866.541, 73.352
867.812, 297.096
869.084, 257.566
870.355, 318.031
871.626, 359.287
872.897, 328.961
874.167, 239.424
875.438, 199.889
876.708, 90.350
877.978, 110.812
879.248, 341.275
880.517, 151.738
881.787, 222.203
883.056, 82.668
884.325, 413.129
885.594, 283.588
886.862, 334.061
888.130, 234.531
889.399, 185.008
890.667, 243.602
891.934, 385.953
893.202, 296.420
894.469, 256.885
895.737, 187.352
897.004, 487.818
898.270, 218.285
899.537, 488.754
900.803, 439.223
902.070, 139.707
903.336, 840.191
904.601, 400.676
905.867, 371.166
907.132, 631.654
908.398, 572.145
909.663, 712.637
910.928, 613.141
912.192, 563.646
913.457, 744.154
914.721, 674.666
915.985, 705.191
917.249, 735.713
918.512, 819.139
919.776, 1016.764
921.039, 1147.297
922.302, 1390.225
923.565, 1738.369
924.827, 1838.500
926.090, 2189.043
927.352, 2339.350
928.614, 2719.887
929.876, 3000.438
931.138, 2360.730
932.399, 2521.199
933.660, 2161.504
934.922, 1622.043
936.182, 1622.578
937.443, 1063.109
938.704, 1303.475
939.964, 1384.002
941.224, 924.039
942.484, 1194.557
943.744, 975.074
945.003, 1055.588
946.262, 1346.104
947.521, 1062.879
948.780, 1273.385
950.039, 786.598
951.298, 1050.539
952.556, 1031.039
953.814, 641.043
955.072, 661.537
956.330, 782.016
957.587, 380.207
958.845, 710.928
960.102, 441.285
961.359, 571.809
962.615, 439.928
963.872, 488.609
965.128, 449.164
966.384, 370.494
967.640, 471.006
968.896, 332.148
970.152, 352.658
971.407, 363.289
972.662, 294.119
973.917, 25.367
975.172, 405.586
976.427, 263.256
977.681, 184.129
978.935, 474.434
980.189, 144.619
981.443, 484.932
982.697, 78.943
983.950, 349.445
985.203, 285.801
986.456, 176.301
987.709, 476.896
988.962, 256.818
990.214, 187.225
991.467, 417.766
992.719, 127.891
993.971, 338.502
995.222, 464.176
996.474, 284.811
997.725, 485.412
998.976, 247.449
1000.227, 468.246
1001.478, 790.941
1002.728, 502.336
1003.978, 542.379
1005.229, 613.170
1006.479, 503.848
1007.728, 740.873
1008.978, 524.303
1010.227, 684.959
1011.476, 665.100
1012.725, 885.377
1013.974, 1095.799
1015.223, 1124.189
1016.471, 1194.984
1017.719, 1621.521
1018.967, 1708.709
1020.215, 1859.451
1021.462, 2287.893
1022.710, 2562.168
1023.957, 3093.922
1025.204, 3535.434
1026.451, 4036.449
1027.697, 4807.652
1028.944, 4289.312
1030.190, 4550.078
1031.436, 3901.713
1032.682, 3293.230
1033.928, 2773.898
1035.173, 2195.770
1036.418, 1756.814
1037.663, 1858.201
1038.908, 1200.881
1040.153, 1651.631
1041.398, 1282.998
1042.642, 1313.785
1043.886, 1504.875
1045.130, 1066.723
1046.374, 1357.451
1047.617, 1789.189
1048.860, 1391.104
1050.104, 2151.816
1051.347, 2126.324
1052.589, 2488.051
1053.832, 2889.701
1055.074, 3051.148
1056.316, 3781.836
1057.558, 3593.547
1058.800, 3874.221
1060.042, 3974.885
1061.283, 3266.619
1062.524, 3147.270
1063.765, 2888.391
1065.006, 2642.059
1066.247, 2672.727
1067.487, 2633.914
1068.728, 2645.523
1069.968, 2666.166
1071.208, 1857.635
1072.447, 2089.023
1073.687, 1469.645
1074.926, 1380.965
1076.165, 1421.566
1077.404, 1152.152
1078.643, 1116.678
1079.881, 1167.264
1081.120, 718.359
1082.358, 838.951
1083.596, 879.559
1084.834, 740.688
1086.071, 1041.258
1087.309, 672.398
1088.546, 643.084
1089.783, 703.658
1091.020, 444.225
1092.256, 507.221
1093.493, 386.215
1094.729, 407.936
1095.965, 428.441
1097.201, 278.947
1098.436, 489.990
1099.672, 250.498
1100.907, 211.150
1102.142, 492.189
1103.377, 202.678
1104.612, 405.049
1105.846, 615.504
1107.081, 55.951
1108.315, 524.514
1109.549, 184.924
1110.782, 105.312
1112.016, 546.584
1113.249, 136.955
1114.483, 627.615
1115.716, 307.992
1116.948, 1.129
1118.181, 409.668
1119.413, 29.979
1120.646, 8.674
1121.878, 452.764
1123.110, 52.215
1124.341, 323.238
1125.573, 73.443
1126.804, 163.623
1128.035, 184.885
1129.266, 235.061
1130.497, 14.383
1131.727, 277.518
1132.957, 18.068
1134.188, 188.598
1135.418, 49.275
1136.647, 69.541
1137.877, 380.863
1139.106, 280.906
1140.335, 171.223
1141.564, 183.820
1142.793, 283.783
1144.022, 175.736
1145.250, 276.799
1146.479, 23.301
1147.707, 185.492
1148.934, 53.406
1150.162, 47.680
1151.390, 408.344
1152.617, 138.387
1153.844, 210.391
1155.071, 292.504
1156.298, 47.820
1157.524, 253.348
1158.751, 155.855
1159.977, 324.445
1161.203, 146.570
1162.428, 16.166
1163.654, 253.021
1164.879, 213.297
1166.105, 97.385
1167.330, 425.555
1168.555, 45.164
1169.779, 214.477
1171.004, 52.625
1172.228, 111.680
1173.452, 231.648
1174.676, 173.348
1175.900, 82.271
1177.123, 512.598
1178.346, 91.967
1179.570, 120.758
1180.793, 332.854
1182.015, 41.557
1183.238, 240.947
1184.460, 161.707
1185.683, 9.732
1186.905, 600.217
1188.126, 170.287
1189.348, 308.695
1190.569, 238.844
1191.791, 58.316
1193.012, 436.584
1194.233, 85.924
1195.453, 44.836
1196.674, 443.824
1197.894, 35.568
1199.114, 92.416
1200.334, 111.486
1201.554, 160.174
1202.774, 457.990
1203.993, 97.725
1205.212, 825.598
1206.431, 617.512
1207.650, 93.262
1208.869, 520.818
1210.087, 238.326
1211.305, 12.180
1212.524, 635.195
1213.741, 245.705
1214.959, 142.975
1216.177, 820.189
1217.394, 181.947
1218.611, 199.047
1219.828, 686.086
1221.045, 214.365
1222.261, 641.295
1223.478, 388.641
1224.694, 18.479
1225.910, 458.258
1227.126, 282.074
1228.342, 509.666
1229.557, 396.668
1230.772, 278.273
1231.987, 725.309
1233.202, 272.469
1234.417, 400.686
1235.631, 546.979
1236.846, 464.426
1238.060, 211.109
1239.274, 677.238
1240.488, 145.330
1241.701, 451.373
1242.915, 437.381
1244.128, 304.566
1245.341, 620.486
1246.554, 406.514
1247.767, 314.154
1248.979, 629.916
1250.191, 55.637
1251.403, 482.648
1252.615, 628.273
1253.827, 65.646
1255.039, 729.852
1256.250, 465.309
1257.461, 241.768
1258.672, 677.121
1259.883, 382.775
1261.094, 678.799
1262.304, 333.961
1263.514, 349.797
1264.724, 664.785
1265.934, 209.158
1267.144, 184.961
1268.354, 599.736
1269.563, 274.574
1270.772, 549.689
1271.981, 473.904
1273.190, 218.371
1274.398, 612.891
1275.607, 377.193
1276.815, 101.518
1278.023, 375.656
1279.231, 379.064
1280.439, 349.994
1281.646, 443.398
1282.853, 103.193
1284.060, 521.516
1285.267, 415.213
1286.474, 49.186
1287.681, 533.104
1288.887, 113.402
1290.093, 220.785
1291.299, 574.090
1292.505, 64.176
1293.711, 189.486
1294.916, 189.674
1296.121, 281.914
1297.327, 425.967
1298.531, 68.344
1299.736, 60.949
1300.941, 644.541
1302.145, 144.307
1303.349, 206.969
1304.553, 289.848
1305.757, 127.910
1306.961, 444.324
1308.164, 44.686
1309.367, 267.074
1310.570, 559.123
1311.773, 14.328
1312.976, 385.912
1314.178, 447.105
1315.381, 71.738
1316.583, 638.600
1317.785, 259.100
1318.987, 40.016
1320.188, 690.586
1321.390, 150.693
1322.591, 361.609
1323.792, 622.896
1324.993, 22.885
1326.193, 523.541
1327.394, 313.008
1328.594, 73.229
1329.794, 643.016
1330.994, 151.434
1332.194, 131.621
1333.394, 611.104
1334.593, 111.076
1335.792, 210.660
1336.991, 620.955
1338.190, 220.713
1339.389, 309.377
1340.587, 277.881
1341.786, 47.371
1342.984, 622.977
1344.182, 211.281
1345.379, 289.566
1346.577, 637.965
1347.774, 87.043
1348.972, 445.000
1350.169, 614.168
1351.365, 53.010
1352.562, 790.693
1353.759, 629.350
1354.955, 122.547
1356.151, 752.922
1357.347, 21.312
1358.543, 549.100
1359.738, 476.572
1360.934, 5.303
1362.129, 541.916
1363.324, 639.371
1364.519, 167.277
1365.713, 834.408
1366.908, 362.932
1368.102, 29.361
1369.296, 524.346
1370.490, 47.650
1371.684, 239.330
1372.877, 367.303
1374.071, 15.355
1375.264, 331.346
1376.457, 290.193
1377.650, 123.373
1378.843, 893.414
1380.035, 181.900
1381.227, 345.270
1382.419, 846.301
1383.611, 76.928
1384.803, 628.117
1385.995, 539.646
1387.186, 180.670
1388.377, 700.160
1389.568, 422.912
1390.759, 94.145
1391.950, 984.328
1393.140, 515.041
1394.331, 154.910
1395.521, 814.600
1396.711, 274.064
1397.900, 493.830
1399.090, 653.219
1400.279, 183.260
1401.469, 681.164
1402.658, 380.324
1403.847, 266.926
1405.035, 956.531
1406.224, 143.254
1407.412, 496.932
1408.600, 625.396
1409.788, 81.570
1410.976, 519.348
1412.164, 302.496
1413.351, 329.516
1414.538, 625.840
1415.725, 537.777
1416.912, 385.230
1418.099, 938.746
1419.285, 166.381
1420.472, 452.264
1421.658, 835.277
1422.844, 68.721
1424.030, 738.477
1425.215, 591.510
1426.401, 175.045
1427.586, 520.564
1428.771, 295.730
1429.956, 298.748
1431.141, 904.402
1432.325, 169.182
1433.510, 532.406
1434.694, 676.455
1435.878, 230.365
1437.062, 477.119
1438.245, 620.100
1439.429, 96.555
1440.612, 957.652
1441.795, 564.094
1442.978, 132.361
1444.161, 1116.293
1445.343, 321.605
1446.526, 486.516
1447.708, 867.207
1448.890, 192.291
1450.072, 825.107
1451.253, 676.951
1452.435, 188.338
1453.616, 1028.867
1454.797, 683.184
1455.978, 154.689
1457.159, 1254.291
1458.340, 487.906
1459.520, 618.273
1460.700, 1099.475
1461.880, 409.443
1463.060, 831.006
1464.240, 721.461
1465.420, 10.326
1466.599, 818.254
1467.778, 778.871
1468.957, 479.551
1470.136, 1151.258
1471.315, 480.422
1472.493, 572.473
1473.671, 1334.406
1474.849, 412.867
1476.027, 482.535
1477.205, 1192.010
1478.383, 20.514
1479.560, 977.486
1480.737, 717.412
1481.914, 213.510
1483.091, 1149.957
1484.268, 378.943
1485.444, 608.807
1486.621, 996.502
1487.797, 354.914
1488.973, 575.354
1490.149, 872.846
1491.324, 162.953
1492.500, 593.002
1493.675, 432.969
1494.850, 296.266
1496.025, 935.988
1497.200, 345.594
1498.374, 485.512
1499.548, 1185.965
1500.723, 156.436
1501.897, 416.668
1503.071, 786.410
1504.244, 157.154
1505.418, 628.176
1506.591, 429.410
1507.764, 38.414
1508.937, 1030.127
1510.110, 222.438
1511.282, 125.115
1512.455, 1106.072
1513.627, 107.002
1514.799, 342.057
1515.971, 742.051
1517.143, 5.705
1518.314, 706.676
