##NAMES=Actinolite
##RRUFFID=R050336
##IDEAL CHEMISTRY=Ca_2_(Mg_4.5-2.5_Fe^2+^_0.5-2.5_)Si_8_O_22_(OH)_2_
##LOCALITY=Kragerø, Norway
##OWNER=RRUFF
##SOURCE=California Institute of Technology
##DESCRIPTION=Dark green prismatic fragment
##STATUS=The identification of this mineral has been confirmed by X-ray diffraction and chemical analysis
##URL=rruff.info/R050336
##MEASURED CHEMISTRY=([box]_0.62_Na_0.34_K_0.04_)(Ca_1.60_Na_0.40_)_Σ=2_(Mg_3.90_Fe^2+^_0.70_Al_0.20_Ti_0.10_Fe^3+^_0.10_)_Σ=5_(Si_7.52_Al_0.48_)_Σ=8_O_22_((OH)_0.97_F_0.03_)_2_
##PIN_ID=M00198
##ORIENTATION=Laser parallel to c* (0 0 1). Fiducial mark perpendicular to laser is parallel to a [1 0 0]
144.8170, 0.0000000E+00
146.0460, 3.348145
147.2750, 15.36768
148.5030, 142.0972
149.7320, 457.1865
150.9600, 890.3389
152.1880, 1414.174
153.4160, 1947.877
154.6440, 2631.632
155.8720, 3468.313
157.0990, 4231.401
158.3270, 4727.930
159.5540, 5082.428
160.7810, 5021.445
162.0080, 4973.016
163.2350, 4592.128
164.4610, 4150.605
165.6880, 3914.574
166.9140, 3677.388
168.1400, 3784.550
169.3660, 4060.679
170.5920, 4618.475
171.8180, 5070.692
173.0430, 5810.136
174.2690, 6410.602
175.4940, 6923.430
176.7190, 7088.962
177.9440, 6972.005
179.1680, 6651.737
180.3930, 5949.758
181.6170, 5299.000
182.8420, 4489.574
184.0660, 4175.563
185.2900, 3581.056
186.5140, 2594.129
187.7370, 2127.847
188.9610, 1863.259
190.1840, 1697.409
191.4070, 1553.328
192.6300, 1442.596
193.8530, 1299.594
195.0760, 1384.986
196.2980, 1365.245
197.5210, 1485.386
198.7430, 1508.420
199.9650, 1736.353
201.1870, 1997.192
202.4090, 2222.928
203.6310, 2371.979
204.8520, 2952.054
206.0730, 3445.083
207.2950, 3972.608
208.5160, 4771.936
209.7360, 5628.719
210.9570, 6695.295
212.1780, 7712.143
213.3980, 8865.096
214.6180, 9966.133
215.8380, 11268.52
217.0580, 12502.40
218.2780, 13591.55
219.4980, 14361.85
220.7170, 15074.35
221.9360, 15019.06
223.1560, 14747.99
224.3750, 13534.21
225.5930, 12440.65
226.8120, 10848.40
228.0310, 9205.437
229.2490, 7749.659
230.4670, 6513.037
231.6850, 5313.761
232.9030, 4250.243
234.1210, 3423.062
235.3380, 2643.000
236.5560, 2052.043
237.7730, 1733.188
238.9900, 1296.438
240.2070, 1101.783
241.4240, 761.2173
242.6410, 727.7383
243.8570, 510.3286
245.0730, 432.9956
246.2900, 404.7437
247.5060, 344.5532
248.7210, 334.4146
249.9370, 208.3110
251.1530, 223.4805
252.3680, 234.7915
253.5830, 223.3608
254.7980, 190.4072
256.0130, 71.49316
257.2280, 63.56445
258.4430, 11.14551
259.6570, 43.06689
260.8720, 35.40186
262.0860, 141.8193
263.3000, 135.1182
264.5130, 173.5503
265.7270, 191.3672
266.9410, 317.7153
268.1540, 289.9448
269.3670, 257.1914
270.5800, 282.4556
271.7930, 270.7373
273.0060, 278.0391
274.2190, 247.3604
275.4310, 254.7256
276.6430, 185.1904
277.8550, 181.8311
279.0670, 92.71777
280.2790, 68.91846
281.4910, 76.58838
282.7020, 31.81104
283.9140, 193.7876
285.1250, 211.5151
286.3360, 344.0132
287.5470, 516.1211
288.7570, 584.4624
289.9680, 705.6191
291.1780, 832.8862
292.3880, 896.9805
293.5990, 1051.170
294.8080, 1050.851
296.0180, 1303.210
297.2280, 1232.721
298.4370, 1343.192
299.6470, 1290.132
300.8560, 1524.736
302.0650, 1411.201
303.2740, 1348.892
304.4820, 1351.110
305.6910, 1204.541
306.8990, 1146.208
308.1070, 1077.519
309.3150, 945.5244
310.5230, 915.8057
311.7310, 957.8950
312.9390, 891.4966
314.1460, 899.0566
315.3530, 822.7969
316.5600, 882.0991
317.7670, 911.9956
318.9740, 921.3994
320.1810, 989.9854
321.3870, 976.1313
322.5930, 1030.580
323.8000, 1099.561
325.0060, 1193.437
326.2110, 1147.214
327.4170, 1216.966
328.6230, 1276.642
329.8280, 1438.768
331.0330, 1360.488
332.2380, 1371.066
333.4430, 1331.611
334.6480, 1221.334
335.8530, 1189.129
337.0570, 1094.751
338.2610, 1077.771
339.4650, 1077.195
340.6690, 1162.334
341.8730, 1010.669
343.0770, 1057.223
344.2800, 1074.156
345.4840, 1215.080
346.6870, 1116.021
347.8900, 1142.937
349.0930, 1220.052
350.2950, 1196.837
351.4980, 1242.057
352.7000, 1209.142
353.9030, 1272.082
355.1050, 1248.330
356.3070, 1238.276
357.5080, 1357.059
358.7100, 1490.790
359.9110, 1659.512
361.1130, 1667.223
362.3140, 1821.922
363.5150, 1929.608
364.7160, 2063.280
365.9160, 2204.936
367.1170, 2342.574
368.3170, 2303.195
369.5170, 2357.797
370.7170, 2264.378
371.9170, 2177.937
373.1170, 2057.472
374.3170, 1969.983
375.5160, 1902.467
376.7150, 1646.925
377.9140, 1591.355
379.1130, 1600.757
380.3120, 1513.129
381.5110, 1582.472
382.7090, 1630.784
383.9070, 1682.065
385.1060, 1701.708
386.3040, 1699.529
387.5010, 1738.712
388.6990, 1732.862
389.8970, 1785.977
391.0940, 1834.058
392.2910, 1733.103
393.4880, 1581.113
394.6850, 1502.087
395.8820, 1256.024
397.0780, 1170.925
398.2750, 898.7900
399.4710, 829.6177
400.6670, 731.4087
401.8630, 690.1624
403.0590, 558.6062
404.2540, 418.7812
405.4500, 421.2439
406.6450, 452.4780
407.8400, 332.9739
409.0350, 366.3779
410.2300, 387.7253
411.4250, 398.9062
412.6190, 423.6099
413.8140, 392.7349
415.0080, 380.4585
416.2020, 322.5703
417.3960, 299.5586
418.5900, 264.2424
419.7830, 196.3953
420.9770, 167.3137
422.1700, 76.34082
423.3630, 5.956543
424.5560, 21.12866
425.7490, 50.14722
426.9410, 25.77197
428.1340, 72.35010
429.3260, 44.43311
430.5180, 7.119873
431.7100, 48.29028
432.9020, 35.21143
434.0940, 34.63110
435.2850, 73.97607
436.4770, 57.66724
437.6680, 21.55688
438.8590, 41.27051
440.0500, 0.1855470
441.2410, 32.82861
442.4310, 33.82715
443.6220, 9.092529
444.8120, 32.98242
446.0020, 17.99341
447.1920, 36.56958
448.3820, 13.25024
449.5710, 35.76001
450.7610, 10.50928
451.9500, 2.109863
453.1390, 14.30249
454.3280, 88.19727
455.5170, 123.9360
456.7060, 154.3552
457.8940, 116.1882
459.0830, 172.8567
460.2710, 233.2510
461.4590, 112.6042
462.6470, 106.4185
463.8350, 210.9363
465.0220, 178.6428
466.2100, 231.4058
467.3970, 244.3320
468.5840, 256.6975
469.7710, 251.4648
470.9580, 258.7649
472.1440, 185.0374
473.3310, 227.4600
474.5170, 144.6218
475.7030, 249.7222
476.8890, 212.7700
478.0750, 199.7632
479.2610, 215.7014
480.4460, 171.5852
481.6320, 232.4114
482.8170, 300.1843
484.0020, 235.6589
485.1870, 201.5908
486.3710, 163.2129
487.5560, 160.7830
488.7400, 156.2937
489.9250, 280.7632
491.1090, 212.9534
492.2930, 226.5498
493.4760, 158.8652
494.6600, 222.1299
495.8440, 210.3457
497.0270, 285.5134
498.2100, 331.6379
499.3930, 352.7214
500.5760, 365.7637
501.7580, 405.4741
502.9410, 434.7258
504.1230, 473.6462
505.3060, 533.5249
506.4880, 584.3630
507.6690, 621.1599
508.8510, 633.9160
510.0330, 683.6313
511.2140, 647.3062
512.3950, 764.9395
513.5760, 746.5322
514.7570, 721.0840
515.9380, 762.5947
517.1190, 832.0654
518.2990, 829.4949
519.4800, 907.8838
520.6600, 879.2322
521.8400, 939.5400
523.0190, 963.8074
524.1990, 1007.034
525.3790, 1077.221
526.5580, 1118.370
527.7370, 1113.478
528.9160, 1194.569
530.0950, 1241.621
531.2740, 1273.636
532.4520, 1356.613
533.6310, 1346.480
534.8090, 1279.448
535.9870, 1331.317
537.1650, 1222.147
538.3430, 1179.938
539.5200, 1196.689
540.6980, 1109.403
541.8750, 1078.077
543.0520, 954.7126
544.2290, 1014.310
545.4060, 925.8713
546.5820, 902.4084
547.7590, 1032.919
548.9350, 842.4260
550.1110, 834.9280
551.2870, 851.4331
552.4630, 723.9473
553.6390, 788.5000
554.8140, 801.0854
555.9900, 762.6948
557.1650, 677.3362
558.3400, 616.0061
559.5150, 639.7068
560.6900, 554.4316
561.8640, 649.1824
563.0390, 570.9431
564.2130, 521.4692
565.3870, 562.7490
566.5610, 417.1775
567.7350, 451.7112
568.9080, 405.6868
570.0820, 458.6851
571.2550, 422.1951
572.4280, 354.0457
573.6010, 359.3530
574.7740, 324.3557
575.9470, 355.2739
577.1190, 324.7832
578.2920, 224.2563
579.4640, 216.4756
580.6360, 226.8647
581.8080, 265.7788
582.9790, 192.2878
584.1510, 155.8054
585.3220, 124.0339
586.4940, 126.7144
587.6650, 48.44263
588.8360, 34.87964
590.0060, 11.29712
591.1770, 26.36450
592.3470, 37.26416
593.5180, 61.32520
594.6880, 55.31396
595.8580, 86.06543
597.0280, 66.29712
598.1970, 42.19727
599.3670, 72.78784
600.5360, 4.684814
601.7050, 54.17017
602.8740, 15.18042
604.0430, 23.61841
605.2120, 16.17310
606.3800, 18.32983
607.5490, 57.89697
608.7170, 16.14526
609.8850, 132.4082
611.0530, 68.62207
612.2210, 178.8369
613.3880, 88.53027
614.5560, 167.5605
615.7230, 244.6660
616.8900, 324.7393
618.0570, 332.5708
619.2240, 373.2686
620.3900, 307.0747
621.5570, 426.4229
622.7230, 447.3066
623.8890, 528.8071
625.0550, 620.6606
626.2210, 736.2354
627.3870, 731.4956
628.5520, 781.5830
629.7180, 898.5981
630.8830, 980.5371
632.0480, 1192.106
633.2130, 1164.771
634.3770, 1254.544
635.5420, 1515.136
636.7060, 1477.610
637.8710, 1710.457
639.0350, 1929.337
640.1990, 2170.203
641.3620, 2324.052
642.5260, 2609.885
643.6890, 2825.704
644.8530, 3125.507
646.0160, 3342.295
647.1790, 3668.068
648.3410, 4063.828
649.5040, 4502.573
650.6670, 4800.304
651.8290, 5267.021
652.9910, 5810.723
654.1530, 6221.414
655.3150, 7062.091
656.4770, 7852.754
657.6380, 8592.406
658.7990, 9663.044
659.9610, 11169.67
661.1220, 13115.28
662.2830, 15092.88
663.4430, 17355.47
664.6040, 19891.05
665.7640, 22594.79
666.9240, 25548.34
668.0850, 28145.21
669.2440, 30283.74
670.4040, 31611.04
671.5640, 32106.55
672.7230, 31039.06
673.8830, 28941.56
675.0420, 26128.40
676.2010, 22513.88
677.3590, 19087.34
678.5180, 15916.79
679.6770, 12969.24
680.8350, 10875.33
681.9930, 8947.281
683.1510, 7606.520
684.3090, 6353.930
685.4670, 5430.333
686.6240, 4654.727
687.7810, 4053.113
688.9390, 3529.087
690.0960, 3344.863
691.2530, 2828.227
692.4090, 2517.583
693.5660, 2292.931
694.7220, 2013.271
695.8790, 1849.604
697.0350, 1644.171
698.1910, 1417.245
699.3460, 1344.553
700.5020, 1201.854
701.6570, 1147.146
702.8130, 1049.430
703.9680, 963.7119
705.1230, 931.0059
706.2780, 834.3179
707.4320, 793.6538
708.5870, 872.9951
709.7410, 792.3667
710.8950, 754.7422
712.0490, 661.1284
713.2030, 678.5400
714.3570, 731.9565
715.5100, 670.3799
716.6640, 687.8359
717.8170, 661.3213
718.9700, 619.8159
720.1230, 632.3359
721.2760, 553.9019
722.4280, 475.8628
723.5810, 589.2290
724.7330, 653.7178
725.8850, 438.7583
727.0370, 482.8550
728.1890, 527.5259
729.3400, 470.3809
730.4920, 459.3301
731.6430, 523.9805
732.7940, 439.7344
733.9450, 523.8589
735.0960, 483.3779
736.2460, 483.7827
737.3970, 446.4932
738.5470, 457.4253
739.6970, 391.0703
740.8470, 339.2090
741.9970, 332.4932
743.1470, 433.3965
744.2970, 312.1406
745.4460, 314.6392
746.5950, 334.9214
747.7440, 254.7109
748.8930, 240.3975
750.0420, 231.7969
751.1900, 179.5234
752.3390, 145.0454
753.4870, 111.7773
754.6350, 115.1958
755.7830, 97.25439
756.9310, 126.9966
758.0780, 140.7422
759.2260, 109.4912
760.3730, 72.24512
761.5200, 26.99805
762.6670, 33.74707
763.8140, 115.4951
764.9610, 21.75146
766.1070, 91.99658
767.2530, 71.24805
768.4000, 43.47803
769.5460, 33.20850
770.6910, 25.94385
771.8370, 15.31543
772.9830, 64.42529
774.1280, 40.17090
775.2730, 71.92285
776.4180, 5.679688
777.5630, 18.43945
778.7080, 18.20361
779.8520, 104.9722
780.9970, 102.7461
782.1410, 65.52490
783.2850, 117.3091
784.4290, 100.0981
785.5730, 123.8926
786.7160, 81.69287
787.8600, 98.53174
789.0030, 53.31152
790.1460, 125.1299
791.2890, 128.9546
792.4320, 176.7856
793.5750, 73.62354
794.7170, 21.46826
795.8590, 128.3193
797.0020, 98.17725
798.1440, 100.0435
799.2850, 57.91602
800.4270, 63.79590
801.5690, 88.68359
802.7100, 0.4204100
803.8510, 35.47998
804.9920, 99.61133
806.1330, 110.2578
807.2740, 15.86475
808.4140, 76.01270
809.5550, 4.898438
810.6950, 98.79199
811.8350, 49.30664
812.9750, 80.58203
814.1150, 78.47998
815.2540, 134.3867
816.3940, 160.3779
817.5330, 79.22852
818.6720, 151.1636
819.8110, 103.1074
820.9500, 44.06250
822.0880, 55.02637
823.2270, 76.40527
824.3650, 161.9844
825.5030, 158.9790
826.6410, 204.9839
827.7790, 191.9985
828.9170, 127.0244
830.0540, 173.0601
831.1920, 127.1069
832.3290, 154.1650
833.4660, 241.2334
834.6030, 167.3130
835.7390, 227.5981
836.8760, 265.5059
838.0120, 232.6191
839.1480, 191.7437
840.2840, 125.8799
841.4200, 148.0278
842.5560, 179.1870
843.6920, 116.3579
844.8270, 159.5405
845.9620, 83.73486
847.0970, 106.9404
848.2320, 73.15771
849.3670, 161.3862
850.5020, 101.6265
851.6360, 99.87793
852.7700, 79.14111
853.9040, 126.4155
855.0380, 67.70166
856.1720, 52.99951
857.3060, 24.69189
858.4390, 111.3818
859.5730, 8.891113
860.7060, 3.823730
861.8390, 60.52979
862.9720, 93.24707
864.1040, 49.98877
865.2370, 40.73486
866.3690, 76.47949
867.5010, 62.22949
868.6330, 72.67188
869.7650, 29.71826
870.8970, 77.43945
872.0290, 70.15283
873.1600, 65.85840
874.2910, 67.43799
875.4220, 13.22754
876.5530, 60.11914
877.6840, 41.50146
878.8140, 0.8833010
879.9450, 2.717285
881.0750, 62.70117
882.2050, 74.54590
883.3350, 89.59668
884.4650, 113.0674
885.5950, 140.7915
886.7240, 175.2153
887.8530, 197.6245
888.9820, 243.1870
890.1110, 250.7612
891.2400, 310.1895
892.3690, 346.9663
893.4970, 421.5918
894.6260, 480.2295
895.7540, 539.9136
896.8820, 553.3110
898.0100, 608.8491
899.1370, 547.5747
900.2650, 526.3320
901.3920, 499.9810
902.5200, 596.7905
903.6470, 666.6309
904.7730, 675.5117
905.9000, 838.4058
907.0270, 796.3130
908.1530, 883.4351
909.2790, 1003.371
910.4050, 1154.323
911.5310, 1012.293
912.6570, 1218.282
913.7830, 1306.287
914.9080, 1212.307
916.0330, 1503.341
917.1580, 1480.388
918.2830, 1743.460
919.4080, 1905.561
920.5330, 2022.684
921.6570, 2301.831
922.7820, 2373.000
923.9060, 2530.184
925.0300, 2739.383
926.1540, 2787.600
927.2770, 3055.831
928.4010, 2907.085
929.5240, 2954.353
930.6470, 2662.637
931.7700, 2585.935
932.8930, 2305.250
934.0160, 2165.600
935.1380, 1875.962
936.2610, 1795.338
937.3830, 1772.727
938.5050, 1753.962
939.6270, 1558.382
940.7490, 1640.492
941.8700, 1503.938
942.9910, 1572.634
944.1130, 1496.112
945.2340, 1482.598
946.3550, 1475.108
947.4750, 1372.283
948.5960, 1402.836
949.7160, 1268.401
950.8370, 1305.992
951.9570, 1197.597
953.0770, 1173.227
954.1970, 1117.870
955.3160, 1086.528
956.4360, 1050.198
957.5550, 898.8818
958.6740, 955.5796
959.7930, 946.2915
960.9120, 1022.018
962.0310, 1071.766
963.1490, 867.5264
964.2670, 988.3008
965.3860, 1005.086
966.5040, 894.8857
967.6210, 922.6963
968.7390, 857.5195
969.8570, 867.3555
970.9740, 822.2051
972.0910, 816.0669
973.2080, 911.9424
974.3250, 879.8306
975.4420, 885.7305
976.5580, 767.6426
977.6750, 775.5669
978.7910, 785.5034
979.9070, 774.4512
981.0230, 749.4116
982.1390, 826.3857
983.2540, 819.3711
984.3700, 693.3691
985.4850, 694.3799
986.6000, 804.4014
987.7150, 729.4395
988.8300, 758.4893
989.9450, 806.5518
991.0590, 849.6265
992.1730, 780.6812
993.2880, 842.2954
994.4010, 933.7080
995.5150, 1000.422
996.6290, 1041.451
997.7420, 988.0225
998.8560, 1056.623
999.9690, 1077.667
1001.082, 1094.992
1002.195, 1179.859
1003.307, 1141.100
1004.420, 1226.493
1005.532, 1260.855
1006.645, 1317.934
1007.757, 1326.940
1008.868, 1353.720
1009.980, 1353.229
1011.092, 1412.522
1012.203, 1396.147
1013.314, 1548.434
1014.425, 1663.613
1015.536, 1655.937
1016.647, 1661.271
1017.758, 1717.616
1018.868, 1763.314
1019.978, 1845.767
1021.088, 1914.522
1022.198, 1983.089
1023.308, 2063.485
1024.418, 2254.000
1025.527, 2217.465
1026.637, 2393.869
1027.746, 2534.302
1028.855, 2493.744
1029.963, 2702.749
1031.072, 2826.209
1032.181, 2913.823
1033.289, 3108.820
1034.397, 3187.510
1035.505, 3427.865
1036.613, 3638.360
1037.721, 3789.396
1038.828, 4082.150
1039.935, 4324.747
1041.043, 4614.456
1042.150, 4928.363
1043.257, 5303.627
1044.363, 5837.187
1045.470, 6301.943
1046.576, 6802.165
1047.682, 7484.000
1048.788, 8346.815
1049.894, 8875.588
1051.000, 9590.936
1052.106, 10247.75
1053.211, 10832.50
1054.316, 11392.60
1055.421, 11712.06
1056.526, 11898.18
1057.631, 11648.35
1058.736, 11366.76
1059.840, 10771.69
1060.944, 10280.61
1062.049, 9508.252
1063.153, 8833.670
1064.256, 7937.455
1065.360, 7287.165
1066.463, 6521.373
1067.567, 5935.248
1068.670, 5185.042
1069.773, 4619.697
1070.876, 3998.354
1071.978, 3629.040
1073.081, 3127.710
1074.183, 2858.537
1075.285, 2672.330
1076.387, 2361.022
1077.489, 2084.177
1078.591, 2043.559
1079.692, 1817.577
1080.794, 1654.651
1081.895, 1621.530
1082.996, 1457.664
1084.097, 1383.758
1085.198, 1332.199
1086.298, 1215.002
1087.399, 1161.031
1088.499, 1102.730
1089.599, 999.4336
1090.699, 903.2295
1091.799, 858.0488
1092.898, 846.5146
1093.998, 786.0859
1095.097, 735.9692
1096.196, 757.6519
1097.295, 668.3320
1098.394, 756.0093
1099.492, 691.6841
1100.591, 615.3560
1101.689, 596.0244
1102.787, 642.1475
1103.885, 562.8320
1104.983, 599.8301
1106.081, 531.4849
1107.178, 539.1621
1108.275, 587.0049
1109.373, 500.7378
1110.470, 459.3765
1111.566, 505.0117
1112.663, 485.7559
1113.760, 432.9238
1114.856, 543.5479
1115.952, 265.2275
1117.048, 384.2119
1118.144, 324.8213
1119.240, 336.5454
1120.335, 290.1445
1121.431, 272.3774
1122.526, 372.9653
1123.621, 272.6318
1124.716, 338.2134
1125.810, 324.8130
1126.905, 217.4067
1127.999, 99.99609
1129.094, 184.6528
1130.188, 249.2617
1131.282, 105.9878
1132.375, 177.6636
1133.469, 179.2871
1134.562, 226.9160
1135.656, 155.5532
1136.749, 187.3726
1137.842, 159.0166
1138.935, 54.66748
1140.027, 126.3242
1141.120, 136.9854
1142.212, 27.64746
1143.304, 68.31152
1144.396, 25.97705
1145.488, 71.63574
1146.579, 80.28760
1147.671, 64.93018
1148.762, 45.56445
1149.853, 42.80908
1150.944, 5.217285
1152.035, 81.64014
1153.126, 3.880371
1154.216, 100.3896
1155.307, 28.10986
1156.397, 38.36133
1157.487, 9.164063
1158.577, 71.29102
1159.667, 66.73633
1160.756, 32.82861
1161.846, 79.57373
1162.935, 89.03271
1164.024, 62.70410
1165.113, 15.57520
1166.201, 83.15771
1167.290, 68.95117
1168.378, 76.79932
1169.467, 18.29395
1170.555, 55.37549
1171.643, 31.44434
1172.730, 10.50098
1173.818, 1.542969
1174.905, 2.730469
1175.993, 5.431641
1177.080, 3.547852
1178.167, 22.50830
1179.254, 26.45557
1180.340, 36.38916
1181.427, 28.69092
1182.513, 35.80664
1183.599, 18.37988
1184.685, 23.74365
1185.771, 13.09424
1186.856, 12.37402
1187.942, 11.10547
1189.027, 4.819824
1190.112, 26.51416
1191.197, 18.80762
1192.282, 135.8379
1193.367, 6.470703
1194.451, 56.08398
1195.536, 1.683105
1196.620, 53.74072
1197.704, 39.78320
1198.788, 59.29199
1199.872, 106.7974
1200.955, 119.2778
1202.039, 3.748047
1203.122, 93.19385
1204.205, 62.62695
1205.288, 3.044922
1206.370, 100.4395
1207.453, 23.82031
1208.535, 14.18408
1209.618, 31.47217
1210.700, 31.82910
1211.782, 59.11328
1212.863, 16.61816
1213.945, 31.61523
1215.026, 21.16797
1216.108, 79.01025
1217.189, 38.17432
1218.270, 104.3218
1219.351, 103.4551
1220.431, 81.57471
1221.512, 25.67920
1222.592, 36.76611
1223.672, 6.166016
1224.752, 60.87207
1225.832, 112.8936
1226.911, 199.9014
1227.991, 196.5156
1229.070, 201.9355
1230.149, 150.9009
1231.228, 143.8525
1232.307, 33.78955
1233.386, 106.7085
1234.464, 44.61377
1235.543, 147.5010
1236.621, 107.3745
1237.699, 67.23291
1238.777, 93.07568
1239.855, 152.9033
1240.932, 120.8203
1242.009, 88.80566
1243.087, 31.84766
1244.164, 116.7222
1245.241, 102.4712
1246.317, 45.20508
1247.394, 134.9248
1248.470, 10.72656
1249.546, 166.4067
1250.623, 28.07227
1251.698, 174.7183
1252.774, 99.34912
1253.850, 126.9644
1254.925, 174.5654
1256.000, 199.1519
1257.076, 162.7310
1258.150, 106.4146
1259.225, 157.9639
1260.300, 94.49756
1261.374, 107.0161
1262.449, 129.5186
1263.523, 166.0078
1264.597, 129.5039
1265.670, 78.96289
1266.744, 241.4360
1267.818, 155.8628
1268.891, 149.3389
1269.964, 185.6143
1271.037, 138.1636
1272.110, 174.9214
1273.183, 205.6714
1274.255, 234.0708
1275.327, 220.3892
1276.400, 181.6929
1277.472, 204.9810
1278.543, 229.4136
1279.615, 287.7959
1280.687, 260.6226
1281.758, 321.4736
1282.829, 298.5078
1283.900, 239.7080
1284.971, 261.8027
1286.042, 272.9160
1287.112, 255.0913
1288.183, 220.2329
1289.253, 313.4419
1290.323, 192.9985
1291.393, 298.1582
1292.463, 248.1006
1293.532, 296.6538
1294.602, 318.5117
1295.671, 267.7480
1296.740, 312.7935
1297.809, 303.3076
1298.878, 267.7397
1299.946, 249.0381
1301.015, 196.8604
1302.083, 193.4824
1303.151, 156.4624
1304.219, 236.6958
1305.287, 187.4473
1306.354, 240.7285
1307.422, 288.3906
1308.489, 266.0659
1309.556, 314.7754
1310.623, 301.9048
1311.690, 263.5552
