##NAMES=Actinolite
##RRUFFID=R060045
##IDEAL CHEMISTRY=Ca_2_(Mg_4.5-2.5_Fe^2+^_0.5-2.5_)Si_8_O_22_(OH)_2_
##LOCALITY=Colorado, USA
##OWNER=RRUFF
##SOURCE=University of Arizona Mineral Museum
##DESCRIPTION=Green prismatic crystals in a radial arrangement
##STATUS=The identification of this mineral has been confirmed by X-ray diffraction and chemical analysis
##URL=rruff.info/R060045
##MEASURED CHEMISTRY=(Ca_1.99_Na_0.01_)_Σ=2_(Mg_4.20_Fe^2+^_0.59_Al_0.09_Fe^3+^_0.08_Mn_0.02_Ti_0.01_)_Σ=5_(Si_7.82_Al_0.18_)_Σ=8_O_22_(OH)_2_
##PIN_ID=M00311
##ORIENTATION=Laser parallel to c* (0 0 1). Fiducial mark perpendicular to laser is parallel to a [1 0 0]
134.1270, 0.0000000E+00
135.3560, 105.4365
136.5850, 71.59766
137.8140, 222.9873
139.0430, 382.4727
140.2710, 195.0176
141.5000, 66.16016
142.7280, 128.8701
143.9560, 73.66797
145.1840, 434.2256
146.4120, 868.6387
147.6390, 1665.155
148.8670, 2332.162
150.0940, 2993.166
151.3210, 3572.787
152.5490, 4225.029
153.7750, 5065.810
155.0020, 5955.715
156.2290, 6220.406
157.4550, 5929.622
158.6810, 5527.164
159.9080, 5054.869
161.1340, 4386.620
162.3590, 3853.301
163.5850, 3403.826
164.8110, 3413.117
166.0360, 3984.105
167.2610, 4879.730
168.4860, 5823.473
169.7110, 6681.760
170.9360, 7385.422
172.1610, 8691.704
173.3850, 10637.95
174.6100, 10628.17
175.8340, 10256.38
177.0580, 9776.602
178.2820, 8865.848
179.5050, 7527.150
180.7290, 6252.528
181.9520, 4659.002
183.1760, 3211.582
184.3990, 2202.289
185.6220, 1592.120
186.8450, 1181.082
188.0670, 792.1689
189.2900, 708.3809
190.5120, 575.7109
191.7340, 542.1533
192.9560, 592.7070
194.1780, 609.3633
195.4000, 697.1211
196.6220, 759.9746
197.8430, 944.9209
199.0640, 1141.667
200.2860, 1308.078
201.5070, 1652.579
202.7270, 2055.581
203.9480, 2364.887
205.1690, 2629.465
206.3890, 3222.179
207.6090, 4165.562
208.8290, 4992.717
210.0490, 6408.839
211.2690, 7888.964
212.4890, 9699.117
213.7080, 11222.34
214.9280, 13034.64
216.1470, 14271.03
217.3660, 15847.52
218.5850, 17373.10
219.8030, 17897.86
221.0220, 17971.88
222.2400, 17344.12
223.4590, 16485.64
224.6770, 15132.35
225.8950, 13567.24
227.1120, 11944.39
228.3300, 10654.75
229.5480, 8924.277
230.7650, 7714.965
231.9820, 6718.854
233.1990, 5611.047
234.4160, 4768.318
235.6330, 3954.674
236.8490, 3471.167
238.0660, 2947.716
239.2820, 2709.337
240.4980, 2521.004
241.7140, 2388.721
242.9300, 2280.496
244.1460, 2242.303
245.3610, 2339.132
246.5770, 2284.982
247.7920, 2160.854
249.0070, 2031.746
250.2220, 1973.657
251.4370, 1860.590
252.6510, 1723.542
253.8660, 1529.516
255.0800, 1469.946
256.2940, 1494.514
257.5080, 1371.540
258.7220, 1391.583
259.9360, 1212.233
261.1490, 1156.718
262.3630, 849.8086
263.5760, 545.9111
264.7890, 361.0273
266.0020, 214.7676
267.2150, 60.36914
268.4270, 38.92871
269.6400, 98.38672
270.8520, 172.2139
272.0640, 176.0322
273.2760, 163.8418
274.4880, 255.6504
275.7000, 137.5234
276.9120, 233.5156
278.1230, 121.6562
279.3340, 197.9229
280.5450, 146.6172
281.7560, 51.97559
282.9670, 153.8105
284.1780, 107.4072
285.3880, 151.4482
286.5980, 295.8691
287.8090, 296.3193
289.0190, 444.3633
290.2290, 425.6660
291.4380, 541.1973
292.6480, 705.9346
293.8570, 940.8594
295.0670, 925.9521
296.2760, 994.1992
297.4850, 1010.587
298.6930, 963.1055
299.9020, 1062.793
301.1110, 1010.533
302.3190, 946.3711
303.5270, 820.9434
304.7350, 712.9688
305.9430, 795.0850
307.1510, 733.7295
308.3580, 447.9521
309.5660, 546.3164
310.7730, 428.8174
311.9800, 431.0000
313.1870, 360.3350
314.3940, 440.2734
315.6010, 370.3105
316.8070, 457.1191
318.0130, 480.0713
319.2200, 345.4922
320.4260, 539.8965
321.6310, 435.5195
322.8370, 607.2949
324.0430, 737.8154
325.2480, 781.8857
326.4540, 882.1338
327.6590, 749.7363
328.8640, 838.3965
330.0680, 900.6826
331.2730, 1099.992
332.4780, 1210.346
333.6820, 1185.800
334.8860, 1323.977
336.0900, 1538.057
337.2940, 1547.142
338.4980, 1940.398
339.7010, 2091.045
340.9050, 2328.184
342.1080, 2671.971
343.3110, 3021.262
344.5140, 3184.320
345.7170, 3373.926
346.9200, 3513.298
348.1220, 3427.223
349.3240, 3479.444
350.5270, 3555.248
351.7290, 3554.770
352.9310, 3659.188
354.1320, 3786.575
355.3340, 3838.982
356.5350, 3896.400
357.7370, 3989.829
358.9380, 4492.266
360.1390, 4774.713
361.3400, 5190.168
362.5400, 5373.629
363.7410, 5791.100
364.9410, 5902.577
366.1410, 5933.060
367.3410, 6078.545
368.5410, 5734.032
369.7410, 5641.523
370.9400, 5336.014
372.1400, 4878.506
373.3390, 4626.994
374.5380, 4053.481
375.7370, 3903.965
376.9360, 3586.445
378.1350, 3447.921
379.3330, 3364.389
380.5310, 3411.852
381.7300, 3584.308
382.9280, 3863.756
384.1260, 4076.197
385.3230, 4386.631
386.5210, 4477.057
387.7180, 4659.473
388.9160, 4604.881
390.1130, 4414.281
391.3100, 4256.673
392.5060, 3945.054
393.7030, 3517.425
394.9000, 3020.787
396.0960, 2665.141
397.2920, 2475.482
398.4880, 2176.814
399.6840, 2013.138
400.8800, 2074.449
402.0750, 1852.751
403.2710, 1957.041
404.4660, 2046.320
405.6610, 2085.588
406.8560, 2386.845
408.0510, 2473.091
409.2450, 2524.324
410.4400, 2444.546
411.6340, 2527.756
412.8280, 2395.887
414.0220, 2241.698
415.2160, 2261.957
416.4100, 1875.994
417.6030, 1665.616
418.7970, 1390.324
419.9900, 1152.212
421.1830, 970.0625
422.3760, 997.6582
423.5690, 831.4053
424.7610, 959.7959
425.9540, 921.3594
427.1460, 867.4678
428.3380, 1001.581
429.5300, 1038.696
430.7220, 1062.813
431.9140, 1085.944
433.1050, 966.3164
434.2970, 873.4404
435.4880, 798.5615
436.6790, 719.6738
437.8700, 674.7812
439.0610, 552.8789
440.2510, 363.9678
441.4420, 277.0449
442.6320, 56.66406
443.8220, 81.71973
445.0120, 74.76270
446.2020, 35.20801
447.3910, 7.841797
448.5810, 23.27246
449.7700, 173.1660
450.9600, 0.7910160
452.1490, 106.6396
453.3370, 157.1748
454.5260, 8.768555
455.7150, 8.264648
456.9030, 79.76465
458.0910, 57.06641
459.2800, 41.50488
460.4670, 106.5527
461.6550, 18.19531
462.8430, 93.38184
464.0300, 48.96191
465.2180, 14.76758
466.4050, 77.12598
467.5920, 35.83203
468.7790, 7.842773
469.9650, 12.92871
471.1520, 108.9033
472.3380, 166.2129
473.5250, 33.33984
474.7110, 86.85645
475.8970, 30.34375
477.0820, 124.7920
478.2680, 1.785156
479.4540, 33.41797
480.6390, 114.8799
481.8240, 71.14941
483.0090, 148.3887
484.1940, 24.60059
485.3780, 116.7705
486.5630, 173.9131
487.7470, 80.02930
488.9320, 104.1143
490.1160, 204.1709
491.3000, 37.20215
492.4830, 48.19531
493.6670, 230.1533
494.8500, 188.0889
496.0340, 278.0098
497.2170, 258.9082
498.4000, 244.7812
499.5820, 396.6328
500.7650, 393.4590
501.9480, 561.2637
503.1300, 710.0459
504.3120, 944.8047
505.4940, 1192.541
506.6760, 1210.275
507.8580, 1328.003
509.0390, 1576.729
510.2210, 1650.439
511.4020, 1645.138
512.5830, 1823.822
513.7640, 1964.496
514.9450, 1895.159
516.1250, 2117.814
517.3060, 2292.465
518.4860, 2264.117
519.6660, 2494.775
520.8460, 2596.436
522.0260, 2965.105
523.2060, 3009.794
524.3850, 2968.456
525.5650, 2937.093
526.7440, 2869.729
527.9230, 2733.641
529.1020, 2643.948
530.2810, 2387.573
531.4590, 2187.184
532.6380, 1951.765
533.8160, 1731.335
534.9940, 1570.888
536.1720, 1315.443
537.3500, 1263.979
538.5270, 1083.485
539.7050, 940.0107
540.8820, 775.5127
542.0590, 665.9873
543.2360, 550.4570
544.4130, 708.8975
545.5900, 568.3105
546.7660, 582.7109
547.9430, 789.1123
549.1190, 573.4844
550.2950, 538.8291
551.4710, 523.1445
552.6470, 419.4316
553.8220, 533.6895
554.9980, 427.9258
556.1730, 410.1484
557.3480, 354.3740
558.5230, 429.6016
559.6980, 395.8311
560.8730, 437.0820
562.0470, 483.3271
563.2220, 405.5889
564.3960, 362.8418
565.5700, 449.1025
566.7440, 308.3594
567.9170, 379.5938
569.0910, 310.7988
570.2640, 314.9736
571.4380, 282.1182
572.6110, 309.2314
573.7840, 203.3145
574.9570, 293.3652
576.1290, 396.3848
577.3020, 279.3711
578.4740, 304.3271
579.6460, 340.2520
580.8180, 308.1445
581.9900, 340.0059
583.1620, 147.8359
584.3330, 319.5762
585.5040, 346.3379
586.6760, 634.0664
587.8470, 8.120117
589.0180, 137.7549
590.1880, 84.34082
591.3590, 113.5664
592.5290, 47.93652
593.7000, 95.67676
594.8700, 162.5596
596.0400, 3.137695
597.2090, 136.5684
598.3790, 47.41016
599.5490, 48.85059
600.7180, 34.08203
601.8870, 46.14453
603.0560, 9.878906
604.2250, 39.38086
605.3940, 76.40430
606.5620, 200.2607
607.7300, 207.3613
608.8990, 110.9004
610.0670, 193.2480
611.2350, 150.2285
612.4020, 246.1377
613.5700, 225.7354
614.7370, 182.6367
615.9050, 225.8086
617.0720, 248.8633
618.2390, 216.1807
619.4060, 185.5762
620.5720, 334.9492
621.7390, 398.1318
622.9050, 558.9062
624.0710, 515.1680
625.2370, 532.7617
626.4030, 667.8320
627.5690, 694.1113
628.7340, 781.8311
629.9000, 714.7412
631.0650, 873.9727
632.2300, 1122.843
633.3950, 1148.168
634.5600, 1533.428
635.7240, 1658.372
636.8890, 1726.485
638.0530, 2050.663
639.2170, 2314.729
640.3810, 2573.056
641.5450, 2681.326
642.7080, 3018.794
643.8720, 3259.023
645.0350, 3580.274
646.1980, 3954.463
647.3610, 4251.372
648.5240, 4665.072
649.6870, 5141.057
650.8490, 5507.750
652.0120, 5940.699
653.1740, 6437.762
654.3360, 7296.621
655.4980, 7992.116
656.6600, 9018.580
657.8210, 10362.55
658.9830, 11951.39
660.1440, 14142.23
661.3050, 16886.94
662.4660, 19997.99
663.6270, 23873.60
664.7870, 27785.17
665.9480, 31751.32
667.1080, 35355.12
668.2680, 37901.15
669.4280, 39610.40
670.5880, 39839.35
671.7480, 38096.70
672.9070, 35392.18
674.0670, 31739.18
675.2260, 27628.53
676.3850, 23234.81
677.5440, 19373.02
678.7030, 16391.07
679.8610, 13752.76
681.0200, 11794.88
682.1780, 10329.11
683.3360, 8919.177
684.4940, 8149.325
685.6520, 7602.458
686.8090, 7005.076
687.9670, 6525.020
689.1240, 5813.936
690.2810, 5272.818
691.4380, 4806.676
692.5950, 4296.617
693.7520, 3938.416
694.9080, 3569.185
696.0650, 3081.924
697.2210, 2801.633
698.3770, 2543.315
699.5330, 2471.968
700.6880, 1993.591
701.8440, 1948.185
702.9990, 1760.749
704.1550, 1586.283
705.3100, 1616.790
706.4650, 1447.268
707.6190, 1148.715
708.7740, 1255.133
709.9290, 1078.522
711.0830, 1126.883
712.2370, 1010.216
713.3910, 892.2754
714.5450, 764.5508
715.6980, 816.7979
716.8520, 694.0156
718.0050, 693.2070
719.1580, 719.3701
720.3110, 649.5049
721.4640, 706.6133
722.6170, 642.1484
723.7700, 714.2031
724.9220, 768.2295
726.0740, 736.2295
727.2260, 622.8369
728.3780, 794.1875
729.5300, 906.9473
730.6810, 667.3418
731.8330, 884.6289
732.9840, 1007.120
734.1350, 978.7559
735.2860, 1220.789
736.4370, 1288.294
737.5880, 1291.864
738.7380, 1235.794
739.8880, 1226.130
741.0390, 1188.907
742.1890, 1085.318
743.3380, 1130.047
744.4880, 988.2646
745.6380, 973.1309
746.7870, 1117.066
747.9360, 915.5859
749.0850, 629.4551
750.2340, 779.1523
751.3830, 562.0977
752.5310, 552.0801
753.6800, 502.0488
754.8280, 538.9990
755.9760, 262.9365
757.1240, 380.8574
758.2720, 275.7705
759.4190, 229.6895
760.5670, 283.5898
761.7140, 239.4746
762.8610, 181.3408
764.0080, 181.5859
765.1550, 199.0361
766.3020, 144.8564
767.4480, 193.6602
768.5950, 240.4482
769.7410, 123.2188
770.8870, 70.97656
772.0330, 116.7207
773.1780, 0.5537110
774.3240, 174.1367
775.4690, 114.8105
776.6140, 198.4668
777.7590, 65.10645
778.9040, 71.72754
780.0490, 28.32910
781.1940, 66.91113
782.3380, 54.47363
783.4820, 59.98145
784.6260, 40.49902
785.7700, 53.07031
786.9140, 12.69824
788.0580, 23.95312
789.2010, 13.07129
790.3450, 31.81445
791.4880, 29.60352
792.6310, 40.74609
793.7730, 57.22852
794.9160, 82.25586
796.0590, 97.26465
797.2010, 82.34863
798.3430, 113.5029
799.4850, 151.7402
800.6270, 81.91797
801.7690, 83.56445
802.9100, 45.80273
804.0520, 9.785156
805.1930, 189.6426
806.3340, 67.19141
807.4750, 31.79492
808.6160, 130.5654
809.7560, 43.08496
810.8970, 20.77637
812.0370, 107.4932
813.1770, 12.28516
814.3170, 100.9014
815.4570, 170.9209
816.5960, 3.846680
817.7360, 68.21289
818.8750, 82.73730
820.0140, 114.2568
821.1530, 27.24414
822.2920, 53.77637
823.4310, 110.8350
824.5690, 231.0410
825.7070, 198.9102
826.8460, 125.7725
827.9840, 147.6309
829.1220, 8.481445
830.2590, 268.3262
831.3970, 209.1660
832.5340, 80.00000
833.6710, 273.8291
834.8080, 242.6533
835.9450, 175.4746
837.0820, 228.2910
838.2190, 46.10547
839.3550, 222.9141
840.4910, 157.7207
841.6270, 262.5234
842.7630, 141.3223
843.8990, 150.1211
845.0350, 227.9160
846.1700, 106.7090
847.3060, 154.5000
848.4410, 175.2910
849.5760, 124.0781
850.7100, 97.86719
851.8450, 61.65625
852.9800, 111.4453
854.1140, 95.11133
855.2480, 198.0176
856.3820, 93.80273
857.5160, 74.59180
858.6500, 5.376953
859.7830, 43.09766
860.9170, 85.96094
862.0500, 167.7559
863.1830, 199.5488
864.3160, 292.3613
865.4480, 300.1777
866.5810, 149.0020
867.7130, 83.87305
868.8460, 256.7559
869.9780, 124.6797
871.1100, 270.6074
872.2410, 121.5527
873.3730, 189.5039
874.5050, 166.4609
875.6360, 285.4492
876.7670, 188.4492
877.8980, 248.4746
879.0290, 181.5195
880.1590, 248.5742
881.2900, 88.63477
882.4200, 373.6992
883.5500, 341.7656
884.6800, 419.8418
885.8100, 336.9199
886.9400, 537.0020
888.0690, 306.0898
889.1990, 352.1836
890.3280, 401.2793
891.4570, 553.3809
892.5860, 760.4863
893.7140, 801.6035
894.8430, 800.7285
895.9710, 993.8633
897.1000, 667.0039
898.2280, 960.1504
899.3560, 998.3047
900.4830, 851.4629
901.6110, 918.6289
902.7380, 838.7910
903.8660, 1125.996
904.9930, 996.2363
906.1200, 1022.420
907.2460, 1228.418
908.3730, 1181.627
909.5000, 1115.127
910.6260, 1334.447
911.7520, 1401.686
912.8780, 1544.020
914.0040, 1555.078
915.1290, 1822.184
916.2550, 2053.090
917.3800, 2034.246
918.5050, 2285.387
919.6300, 2748.582
920.7550, 3015.039
921.8800, 3401.754
923.0040, 3687.047
924.1290, 4367.678
925.2530, 4766.041
926.3770, 5129.277
927.5010, 4975.699
928.6250, 4877.475
929.7480, 4755.330
930.8720, 4590.668
931.9950, 4250.152
933.1180, 3774.633
934.2410, 3247.256
935.3640, 2906.539
936.4860, 2712.238
937.6090, 2643.969
938.7310, 2393.133
939.8530, 2309.639
940.9750, 2252.918
942.0970, 2152.977
943.2180, 2200.336
944.3400, 2252.279
945.4610, 2161.080
946.5820, 2073.361
947.7030, 2193.277
948.8240, 1900.244
949.9450, 2102.283
951.0650, 1850.482
952.1860, 1692.049
953.3060, 1767.176
954.4260, 1328.246
955.5460, 1445.486
956.6650, 1426.648
957.7850, 1251.861
958.9040, 1349.582
960.0230, 1257.967
961.1420, 1249.375
962.2610, 1387.803
963.3800, 1138.256
964.4990, 1060.613
965.6170, 1075.107
966.7350, 1074.625
967.8530, 1033.566
968.9710, 1176.732
970.0890, 1006.326
971.2070, 1105.941
972.3240, 1142.588
973.4410, 994.2578
974.5580, 915.9492
975.6750, 889.6621
976.7920, 1124.400
977.9090, 1015.158
979.0250, 1021.939
980.1410, 1013.742
981.2580, 876.5684
982.3740, 944.4160
983.4890, 1059.287
984.6050, 988.1816
985.7200, 1067.047
986.8360, 1002.037
987.9510, 1092.000
989.0660, 1003.984
990.1810, 969.9922
991.2950, 1024.020
992.4100, 1134.070
993.5240, 1131.143
994.6390, 1091.238
995.7530, 1185.359
996.8660, 1213.502
997.9800, 1379.666
999.0940, 1447.088
1000.207, 1579.066
1001.320, 1679.303
1002.433, 1704.559
1003.546, 1876.836
1004.659, 2084.139
1005.772, 2071.461
1006.884, 2446.805
1007.996, 2681.180
1009.108, 3115.572
1010.220, 3207.988
1011.332, 3320.428
1012.444, 3462.887
1013.555, 3689.369
1014.666, 4000.875
1015.777, 4621.402
1016.888, 4748.951
1017.999, 4694.520
1019.110, 5261.113
1020.220, 5216.734
1021.331, 5726.371
1022.441, 5772.064
1023.551, 6150.742
1024.661, 6318.441
1025.770, 6671.160
1026.880, 6727.377
1027.989, 6624.391
1029.098, 6133.160
1030.207, 5928.965
1031.316, 5618.789
1032.425, 5094.049
1033.533, 4623.918
1034.642, 4198.809
1035.750, 4085.348
1036.858, 3979.826
1037.966, 4200.686
1039.073, 4364.414
1040.181, 4798.395
1041.288, 5157.719
1042.396, 5528.832
1043.503, 5916.889
1044.610, 6969.967
1045.716, 7750.078
1046.823, 8319.289
1047.929, 9607.125
1049.036, 10653.46
1050.142, 11994.94
1051.248, 13317.73
1052.353, 14528.82
1053.459, 15760.21
1054.564, 16375.50
1055.670, 16662.84
1056.775, 16649.20
1057.880, 16095.59
1058.985, 14939.02
1060.089, 13687.47
1061.194, 12701.13
1062.298, 11194.09
1063.402, 10305.65
1064.506, 9189.273
1065.610, 8369.418
1066.713, 7339.898
1067.817, 6631.641
1068.920, 5670.514
1070.023, 5044.330
1071.126, 4091.293
1072.229, 3787.279
1073.332, 3098.186
1074.435, 2657.041
1075.537, 2451.020
1076.639, 2100.021
1077.741, 1763.141
1078.843, 1531.379
1079.945, 1556.443
1081.046, 1262.709
1082.148, 1352.836
1083.249, 1254.453
1084.350, 1377.426
1085.451, 1292.410
1086.551, 1012.152
1087.652, 1170.406
1088.752, 1126.336
1089.853, 1046.025
1090.953, 1159.418
1092.053, 1101.752
1093.152, 1095.098
1094.252, 1157.447
1095.351, 930.8066
1096.451, 888.8125
1097.550, 773.3359
1098.649, 633.0977
1099.748, 617.4863
1100.846, 549.2520
1101.945, 698.3613
1103.043, 556.7676
1104.141, 573.9082
1105.239, 376.4570
1106.337, 706.9512
1107.434, 468.3809
1108.532, 674.8164
1109.629, 361.2715
1110.726, 409.7148
1111.823, 426.1641
1112.920, 339.6191
1114.017, 312.0801
1115.113, 233.5430
1116.210, 383.0137
1117.306, 416.4863
1118.402, 329.9629
1119.498, 354.4414
1120.593, 360.9238
1121.689, 230.4102
1122.784, 499.8984
1123.879, 290.3906
1124.974, 426.8848
1126.069, 375.3828
1127.164, 443.8789
1128.259, 263.3828
1129.353, 417.8867
1130.447, 231.3926
1131.541, 31.89844
1132.635, 136.4062
1133.729, 187.0371
1134.822, 134.5879
1135.916, 238.1016
1137.009, 52.61133
1138.102, 94.12500
1139.195, 7.593750
1140.288, 59.11914
1141.380, 194.6445
1142.473, 140.1699
1143.565, 159.6953
1144.657, 91.21680
1145.749, 292.3184
1146.841, 189.8379
1147.932, 126.3574
1149.024, 264.8770
1150.115, 97.39258
1151.206, 2.906250
1152.297, 22.41797
1153.388, 7.2265998E-02
1154.479, 70.43359
1155.569, 22.27734
1156.659, 19.35742
1157.750, 36.06445
1158.839, 8.435547
1159.929, 24.96289
1161.019, 9.496094
1162.108, 134.9512
1163.198, 10.04297
1164.287, 148.3984
1165.376, 15.83594
1166.465, 61.26758
1167.553, 102.3047
1168.642, 112.9355
1169.730, 61.63477
1170.818, 80.32422
1171.906, 2.109375
1172.994, 6.089844
1174.082, 30.28516
1175.170, 41.68359
1176.257, 28.40430
1177.344, 11.83008
1178.431, 4.972656
1179.518, 59.31445
1180.605, 76.17578
1181.691, 64.09570
1182.778, 3.791016
1183.864, 19.24219
1184.950, 85.26367
1186.036, 133.2773
1187.122, 125.2852
1188.207, 162.2832
1189.292, 84.34766
1190.378, 149.3281
1191.463, 21.29883
1192.548, 211.7402
1193.632, 122.0859
1194.717, 92.05664
1195.801, 14.68750
1196.886, 102.5840
1197.970, 160.0664
1199.054, 58.70703
1200.137, 193.3359
1201.221, 89.04688
1202.305, 50.54297
1203.388, 75.07227
1204.471, 67.40820
1205.554, 211.0469
1206.637, 132.4922
1207.719, 64.91992
1208.802, 43.33984
1209.884, 98.74023
1210.966, 56.13086
1212.048, 202.5039
1213.130, 39.13477
1214.212, 25.17383
1215.293, 28.45898
1216.374, 246.2734
1217.456, 185.8281
1218.536, 23.08203
1219.617, 130.0449
1220.698, 83.00977
1221.778, 130.9316
1222.859, 235.8398
1223.939, 135.7324
1225.019, 116.6074
1226.099, 147.4707
1227.178, 72.31836
1228.258, 158.1523
1229.337, 361.9688
1230.417, 21.76758
1231.496, 40.54297
1232.574, 249.2910
1233.653, 16.02734
1234.732, 89.73242
1235.810, 105.4238
1236.888, 306.1016
1237.966, 147.7637
1239.044, 121.4121
1240.122, 339.0410
1241.199, 158.6641
1242.277, 157.5156
1243.354, 291.1074
1244.431, 374.7188
1245.508, 201.2773
1246.585, 162.8203
1247.661, 275.3457
1248.738, 197.8574
1249.814, 323.3516
1250.890, 442.8301
1251.966, 140.2910
1253.042, 155.7344
1254.117, 163.1914
1255.193, 217.6348
1256.268, 201.0586
1257.343, 416.4648
1258.418, 316.8574
1259.493, 443.2305
1260.567, 313.5859
1261.642, 162.9238
1262.716, 115.4023
1263.790, 135.7051
1264.864, 228.9941
1265.938, 177.2617
1267.011, 316.5449
1268.085, 53.78125
1269.158, 345.7070
1270.231, 318.8984
1271.304, 152.0742
1272.377, 322.2305
1273.450, 243.2188
1274.522, 74.49023
1275.594, 304.5879
1276.666, 188.6719
1277.738, 296.7344
1278.810, 209.7812
1279.882, 225.8105
1280.953, 198.8105
1282.025, 180.5938
1283.096, 349.8008
1284.167, 205.7598
1285.238, 175.8105
1286.308, 257.7344
1287.379, 124.1641
1288.449, 204.8008
1289.519, 197.6797
1290.589, 358.5293
1291.659, 80.41406
1292.729, 389.8145
1293.798, 355.6152
1294.868, 180.3867
1295.937, 368.1426
1297.006, 414.6992
1298.075, 229.5098
1299.143, 135.5312
1300.212, 455.2266
1301.280, 367.5781
1302.348, 383.1484
