##NAMES=Actinolite
##RRUFFID=R040063
##IDEAL CHEMISTRY=Ca_2_(Mg_4.5-2.5_Fe^2+^_0.5-2.5_)Si_8_O_22_(OH)_2_
##LOCALITY=Harford County, Maryland, USA
##OWNER=RRUFF
##SOURCE=University of Arizona Mineral Museum
##DESCRIPTION=Mass of green acicular to bladed crystals associated with chlorite
##STATUS=The identification of this mineral has been confirmed by X-ray diffraction and chemical analysis
##URL=rruff.info/R040063
##MEASURED CHEMISTRY=(Ca_1.90_Na_0.06_Mn_0.04_)_Σ=2_(Mg_4.35_Fe_0.65_)_Σ=5_(Si_7.92_Al_0.08_)_Σ=8_O_22_(OH)_2_
##PIN_ID=S00132
##ORIENTATION=Laser parallel to [1 0 1]. Fiducial mark perpendicular to laser is parallel to b* (0 1 0)
148.250, 0.000
149.635, 2.771
151.019, 104.848
152.403, 296.198
153.788, 661.308
155.171, 1015.096
156.555, 1223.518
157.939, 1359.090
159.322, 1358.980
160.705, 1164.749
162.088, 892.049
163.470, 630.588
164.853, 381.594
166.235, 274.475
167.617, 209.000
168.998, 304.912
170.380, 456.043
171.761, 840.792
173.142, 1219.675
174.523, 1642.702
175.904, 1890.712
177.284, 1887.774
178.664, 1776.896
180.044, 1461.209
181.424, 1073.310
182.803, 690.669
184.183, 479.817
185.562, 348.378
186.940, 216.399
188.319, 154.946
189.698, 89.071
191.076, 45.821
192.454, 50.237
193.831, 19.357
195.209, 1.787
196.586, 24.168
197.963, 43.761
199.340, 26.547
200.717, 13.494
202.093, 81.377
203.470, 148.112
204.846, 293.713
206.221, 402.190
207.597, 572.552
208.972, 742.239
210.347, 892.513
211.722, 1200.069
213.097, 1546.924
214.472, 1950.726
215.846, 2492.455
217.220, 3091.409
218.594, 3614.365
219.967, 4019.124
221.341, 4235.061
222.714, 4405.029
224.087, 4254.025
225.460, 4190.082
226.832, 4207.218
228.204, 4124.389
229.577, 4173.599
230.948, 3830.851
232.320, 3381.151
233.692, 2861.510
235.063, 2306.927
236.434, 1896.400
237.805, 1546.927
239.175, 1200.506
240.545, 1077.134
241.916, 1029.810
243.286, 1026.528
244.655, 1052.284
246.025, 1153.076
247.394, 1245.901
248.763, 1257.756
250.132, 1187.640
251.501, 1069.548
252.869, 958.479
254.237, 812.430
255.605, 737.372
256.973, 597.303
258.340, 534.252
259.708, 485.218
261.075, 393.198
262.442, 374.191
263.808, 312.188
265.175, 191.185
266.541, 149.177
267.907, 109.167
269.273, 34.154
270.639, 45.138
272.004, 12.881
273.369, 77.902
274.734, 78.925
276.099, 99.951
277.463, 75.980
278.828, 34.011
280.192, 101.045
281.556, 15.081
282.919, 69.120
284.283, 34.162
285.646, 19.794
287.009, 5.748
288.372, 47.699
289.734, 50.648
291.097, 42.598
292.459, 82.552
293.821, 165.423
295.183, 178.205
296.544, 261.943
297.905, 292.627
299.266, 318.423
300.627, 318.088
301.988, 369.335
303.348, 380.010
304.709, 320.967
306.069, 301.230
307.428, 321.301
308.788, 301.549
310.147, 254.064
311.507, 181.188
312.865, 135.191
314.224, 184.833
315.583, 142.874
316.941, 159.978
318.299, 149.208
319.657, 149.505
321.015, 148.633
322.372, 164.799
323.729, 177.397
325.086, 207.194
326.443, 208.397
327.800, 253.599
329.156, 250.797
330.512, 285.987
331.868, 335.167
333.224, 352.333
334.579, 418.486
335.935, 370.619
337.290, 508.651
338.645, 520.641
339.999, 596.621
341.354, 674.592
342.708, 782.552
344.062, 873.496
345.416, 941.414
346.769, 1047.297
348.123, 1181.147
349.476, 1201.968
350.829, 1208.760
352.182, 1159.526
353.534, 1107.269
354.887, 1114.988
356.239, 1012.685
357.591, 1049.363
358.942, 1099.946
360.294, 1190.641
361.645, 1397.325
362.996, 1732.831
364.347, 2012.422
365.698, 2375.997
367.048, 2681.559
368.398, 2768.106
369.748, 2727.639
371.098, 2527.160
372.448, 2226.661
373.797, 1965.113
375.146, 1735.399
376.495, 1475.516
377.844, 1347.496
379.192, 1255.378
380.540, 1219.208
381.889, 1255.021
383.236, 1346.830
384.584, 1544.640
385.932, 1838.451
387.279, 2340.263
388.626, 2683.077
389.973, 3068.889
391.319, 3201.703
392.666, 3252.516
394.012, 2884.327
395.358, 2545.139
396.704, 2146.950
398.049, 1738.760
399.394, 1444.567
400.740, 1218.373
402.084, 1124.177
403.429, 1084.978
404.774, 1139.777
406.118, 1165.573
407.462, 1269.366
408.806, 1495.155
410.150, 1636.941
411.493, 1844.724
412.836, 1955.502
414.179, 1995.277
415.522, 1895.047
416.865, 1770.813
418.207, 1493.575
419.549, 1287.333
420.891, 1085.087
422.233, 882.957
423.575, 713.701
424.916, 633.440
426.257, 546.175
427.598, 507.905
428.939, 527.828
430.279, 628.780
431.619, 692.665
432.959, 725.351
434.299, 762.708
435.639, 719.268
436.978, 674.247
438.318, 564.897
439.657, 451.579
440.996, 304.925
442.334, 228.075
443.673, 165.217
445.011, 99.999
446.349, 73.932
447.687, 78.169
449.024, 6.774
450.361, 39.148
451.699, 13.151
453.036, 1.950
454.372, 7.131
455.709, 19.845
457.045, 57.729
458.381, 67.458
459.717, 40.606
461.053, 33.336
462.388, 43.169
463.724, 59.816
465.059, 43.588
466.394, 33.119
467.728, 27.640
469.063, 22.153
470.397, 51.656
471.731, 40.149
473.065, 3.634
474.398, 52.104
475.732, 35.565
477.065, 48.013
478.398, 44.450
479.731, 45.879
481.063, 107.295
482.396, 142.699
483.728, 131.093
485.060, 180.473
486.391, 147.851
487.723, 186.224
489.054, 150.586
490.385, 225.946
491.716, 148.294
493.047, 213.641
494.377, 157.976
495.708, 144.300
497.038, 173.612
498.368, 199.912
499.697, 205.201
501.027, 214.482
502.356, 269.751
503.685, 331.011
505.014, 407.260
506.342, 490.496
507.671, 600.722
508.999, 670.947
510.327, 800.163
511.655, 869.373
512.982, 944.576
514.310, 915.768
515.637, 936.956
516.964, 928.137
518.291, 901.307
519.617, 915.467
520.944, 906.635
522.270, 922.804
523.596, 962.980
524.921, 1050.146
526.247, 1067.302
527.572, 1066.446
528.897, 1033.584
530.222, 954.712
531.547, 874.829
532.871, 760.938
534.196, 605.037
535.520, 611.125
536.844, 520.205
538.167, 467.277
539.491, 442.340
540.814, 354.396
542.137, 365.443
543.460, 305.483
544.783, 308.515
546.105, 281.539
547.427, 313.555
548.749, 283.564
550.071, 248.564
551.393, 219.556
552.714, 212.221
554.035, 195.516
555.356, 219.484
556.677, 199.540
557.998, 231.395
559.318, 178.338
560.638, 160.272
561.958, 173.199
563.278, 134.117
564.597, 145.027
565.917, 157.929
567.236, 197.822
568.555, 155.706
569.874, 113.583
571.192, 156.450
572.511, 167.310
573.829, 178.161
575.147, 175.003
576.464, 167.837
577.782, 174.662
579.099, 106.479
580.416, 66.287
581.733, 98.086
583.050, 138.876
584.366, 123.658
585.683, 99.431
586.999, 47.195
588.315, 38.949
589.630, 3.693
590.946, 21.576
592.261, 12.128
593.576, 25.168
594.891, 11.465
596.206, 37.754
597.520, 46.046
598.834, 62.349
600.148, 1.316
601.462, 24.000
602.776, 40.332
604.089, 7.676
605.402, 26.094
606.715, 10.472
608.028, 16.603
609.341, 10.250
610.653, 15.738
611.965, 25.405
613.277, 17.510
614.589, 7.413
615.901, 5.051
617.212, 6.329
618.523, 51.563
619.834, 27.726
621.145, 64.960
622.456, 6.737
623.766, 88.466
625.076, 98.607
626.386, 98.647
627.696, 150.609
629.006, 137.820
630.315, 180.953
631.624, 148.544
632.933, 185.784
634.242, 217.854
635.551, 285.059
636.859, 326.333
638.167, 386.462
639.475, 405.834
640.783, 474.249
642.090, 562.590
643.398, 647.810
644.705, 733.785
646.012, 847.331
647.318, 971.011
648.625, 1075.300
649.931, 1181.246
651.237, 1369.519
652.543, 1426.920
653.849, 1668.213
655.155, 1791.462
656.460, 1970.882
657.765, 2122.751
659.070, 2493.976
660.375, 2890.605
661.679, 3545.824
662.984, 4394.025
664.288, 5438.326
665.592, 7038.761
666.895, 8937.590
668.199, 11336.593
669.502, 13435.770
670.805, 15183.929
672.108, 15543.541
673.411, 15202.481
674.713, 12960.614
676.016, 10898.828
677.318, 8760.126
678.620, 6927.752
679.921, 5427.762
681.223, 4354.863
682.524, 3509.948
683.825, 2968.077
685.126, 2573.867
686.427, 2245.074
687.727, 2026.128
689.028, 1819.521
690.328, 1614.559
691.628, 1505.588
692.927, 1316.611
694.227, 1221.625
695.526, 1031.632
696.825, 894.631
698.124, 775.623
699.423, 712.607
700.721, 643.583
702.020, 579.552
703.318, 488.514
704.616, 470.468
705.913, 410.415
707.211, 380.354
708.508, 426.286
709.805, 311.211
711.102, 353.128
712.399, 311.039
713.695, 324.942
714.992, 300.838
716.288, 235.727
717.584, 288.609
718.879, 291.484
720.175, 252.352
721.470, 230.213
722.765, 280.068
724.060, 265.915
725.355, 293.756
726.649, 311.591
727.944, 303.418
729.238, 352.239
730.532, 453.054
731.825, 375.862
733.119, 570.663
734.412, 617.458
735.705, 686.248
736.998, 841.909
738.291, 889.686
739.584, 925.456
740.876, 868.221
742.168, 898.979
743.460, 865.534
744.752, 874.049
746.043, 860.088
747.334, 917.598
748.626, 890.823
749.916, 718.100
751.207, 725.232
752.498, 590.709
753.788, 535.662
755.078, 388.587
756.368, 382.504
757.658, 339.827
758.947, 267.122
760.237, 257.462
761.526, 178.643
762.815, 194.804
764.104, 193.580
765.392, 213.752
766.680, 124.010
767.969, 168.379
769.257, 156.681
770.544, 69.067
771.832, 104.600
773.119, 75.705
774.406, 81.220
775.693, 85.620
776.980, 101.190
778.267, 54.617
779.553, 21.278
780.839, 52.936
782.125, 39.593
783.411, 58.250
784.697, 34.905
785.982, 14.559
787.267, 14.213
788.552, 29.866
789.837, 13.518
791.122, 16.833
792.406, 47.805
793.690, 17.132
794.974, 4.376
796.258, 19.706
797.542, 29.665
798.825, 26.056
800.108, 1.463
801.391, 37.875
802.674, 53.689
803.957, 42.747
805.239, 23.791
806.522, 0.327
807.804, 8.859
809.085, 73.390
810.367, 1.080
811.649, 10.554
812.930, 31.964
814.211, 6.520
815.492, 11.992
816.772, 51.502
818.053, 0.011
819.333, 38.482
820.613, 11.997
821.893, 15.519
823.173, 19.050
824.452, 18.409
825.732, 27.133
827.011, 15.689
828.290, 38.747
829.568, 0.818
830.847, 55.385
832.125, 10.980
833.403, 51.582
834.681, 2.792
835.959, 15.164
837.236, 0.463
838.514, 16.092
839.791, 3.728
841.068, 12.634
842.345, 9.004
843.621, 24.355
844.898, 2.714
846.174, 85.073
847.450, 7.431
848.726, 39.791
850.001, 68.151
851.277, 30.511
852.552, 58.872
853.827, 72.233
855.102, 18.595
856.376, 62.958
857.651, 51.321
858.925, 72.686
860.199, 76.876
861.473, 91.418
862.746, 76.785
864.020, 94.154
865.293, 96.524
866.566, 87.896
867.839, 97.269
869.112, 98.644
870.384, 115.021
871.656, 129.598
872.928, 99.779
874.200, 143.162
875.472, 144.546
876.744, 96.931
878.015, 145.322
879.286, 144.713
880.557, 144.107
881.828, 147.507
883.098, 132.911
884.369, 190.317
885.639, 185.726
886.909, 192.141
888.178, 152.559
889.448, 215.986
890.717, 209.416
891.987, 231.860
893.256, 272.309
894.524, 270.783
895.793, 279.237
897.061, 296.710
898.330, 313.188
899.598, 331.674
900.865, 363.174
902.133, 350.686
903.401, 426.216
904.668, 405.756
905.935, 395.324
907.202, 428.913
908.468, 414.532
909.735, 423.159
911.001, 465.798
912.267, 409.456
913.533, 453.123
914.799, 482.816
916.064, 551.515
917.330, 604.236
918.595, 660.977
919.860, 737.723
921.124, 882.472
922.389, 984.232
923.653, 1186.001
924.918, 1339.780
926.182, 1523.564
927.445, 1720.352
928.709, 1870.144
929.972, 1870.940
931.236, 1790.747
932.499, 1659.521
933.761, 1469.336
935.024, 1200.156
936.286, 1048.979
937.549, 864.805
938.811, 864.582
940.073, 821.364
941.334, 802.201
942.596, 738.991
943.857, 814.692
945.118, 814.540
946.379, 833.364
947.640, 766.141
948.900, 728.988
950.161, 706.977
951.421, 659.166
952.681, 636.802
953.940, 583.300
955.200, 537.186
956.459, 515.420
957.719, 443.320
958.978, 486.089
960.236, 428.971
961.495, 446.896
962.753, 389.646
964.012, 407.944
965.270, 382.882
966.527, 364.414
967.785, 430.351
969.043, 305.301
970.300, 427.151
971.557, 347.862
972.814, 379.175
974.071, 374.310
975.327, 415.268
976.583, 370.244
977.840, 373.758
979.095, 347.943
980.351, 304.933
981.607, 379.838
982.862, 336.657
984.117, 376.145
985.372, 310.244
986.627, 308.250
987.882, 356.270
989.136, 344.245
990.390, 343.556
991.644, 386.448
992.898, 356.491
994.152, 392.193
995.405, 405.249
996.659, 409.309
997.912, 431.374
999.165, 429.444
1000.417, 522.520
1001.670, 574.604
1002.922, 546.692
1004.174, 627.787
1005.426, 596.885
1006.678, 673.990
1007.930, 715.127
1009.181, 718.333
1010.432, 796.454
1011.683, 819.580
1012.934, 930.710
1014.185, 1031.845
1015.435, 1136.092
1016.685, 1251.237
1017.935, 1452.556
1019.185, 1531.738
1020.435, 1740.025
1021.684, 1893.308
1022.934, 2175.477
1024.183, 2562.782
1025.432, 2900.030
1026.680, 3210.233
1027.929, 3375.900
1029.177, 3312.196
1030.425, 2992.406
1031.673, 2597.393
1032.921, 2160.143
1034.169, 1844.442
1035.416, 1636.735
1036.663, 1370.883
1037.911, 1236.285
1039.157, 1076.082
1040.404, 1114.407
1041.650, 1052.367
1042.897, 1102.017
1044.143, 1127.007
1045.389, 1096.314
1046.634, 1232.508
1047.880, 1341.888
1049.125, 1486.978
1050.371, 1747.365
1051.615, 2039.416
1052.860, 2235.483
1054.105, 2575.810
1055.349, 2937.853
1056.593, 3197.363
1057.837, 3124.203
1059.081, 3118.599
1060.325, 2900.869
1061.568, 2594.297
1062.812, 2459.670
1064.055, 2292.745
1065.298, 2251.168
1066.540, 2198.854
1067.783, 2139.366
1069.025, 2005.680
1070.267, 1770.047
1071.509, 1596.452
1072.751, 1342.936
1073.993, 1143.289
1075.234, 960.578
1076.475, 838.074
1077.716, 747.355
1078.957, 658.774
1080.198, 593.152
1081.438, 525.644
1082.679, 497.595
1083.919, 484.017
1085.159, 452.507
1086.398, 447.803
1087.638, 437.146
1088.877, 409.588
1090.116, 381.987
1091.355, 339.450
1092.594, 397.898
1093.833, 334.416
1095.071, 353.836
1096.309, 330.301
1097.547, 284.769
1098.785, 272.149
1100.023, 229.756
1101.260, 232.297
1102.498, 209.768
1103.735, 217.148
1104.972, 274.399
1106.208, 254.729
1107.445, 198.057
1108.681, 269.508
1109.918, 246.307
1111.154, 227.631
1112.389, 237.223
1113.625, 184.763
1114.860, 202.084
1116.096, 185.413
1117.331, 170.740
1118.566, 172.068
1119.800, 159.392
1121.035, 127.807
1122.269, 194.221
1123.503, 160.561
1124.737, 188.902
1125.971, 147.264
1127.205, 97.634
1128.438, 110.130
1129.671, 134.524
1130.904, 65.860
1132.137, 149.289
1133.370, 63.634
1134.602, 82.055
1135.834, 96.587
1137.066, 86.493
1138.298, 73.978
1139.530, 128.651
1140.762, 105.030
1141.993, 33.754
1143.224, 63.283
1144.455, 66.763
1145.686, 121.092
1146.917, 67.444
1148.147, 90.960
1149.377, 47.000
1150.607, 98.401
1151.837, 34.899
1153.067, 70.198
1154.296, 66.609
1155.526, 17.293
1156.755, 2.626
1157.984, 60.102
1159.213, 67.561
1160.441, 74.870
1161.670, 35.242
1162.898, 2.495
1164.126, 35.996
1165.354, 1.546
1166.581, 23.758
1167.809, 1.138
1169.036, 3.355
1170.263, 42.779
1171.490, 2.074
1172.717, 17.269
1173.943, 29.504
1175.170, 7.111
1176.396, 11.128
1177.622, 33.404
1178.848, 11.259
1180.073, 7.120
1181.299, 17.139
1182.524, 20.256
1183.749, 12.445
1184.974, 0.715
1186.199, 22.126
1187.423, 18.935
1188.648, 40.013
1189.872, 2.901
1191.096, 39.885
1192.320, 29.199
1193.543, 10.676
1194.767, 14.441
1195.990, 8.425
1197.213, 15.655
1198.436, 23.181
1199.659, 7.230
1200.881, 33.806
1202.104, 38.194
1203.326, 2.636
1204.548, 18.545
1205.770, 21.250
1206.991, 57.035
1208.213, 16.510
1209.434, 30.276
1210.655, 36.969
1211.876, 19.926
1213.096, 30.363
1214.317, 27.377
1215.537, 48.276
1216.757, 35.919
1217.977, 9.181
1219.197, 10.516
1220.417, 41.117
1221.636, 56.923
1222.855, 10.504
1224.074, 64.206
1225.293, 28.810
1226.512, 14.454
1227.731, 38.942
1228.949, 0.558
1230.167, 33.166
1231.385, 18.686
1232.603, 75.306
1233.820, 55.033
1235.038, 33.877
1236.255, 44.333
1237.472, 29.103
1238.689, 33.229
1239.906, 19.783
1241.122, 41.261
1242.338, 30.724
1243.555, 30.150
1244.771, 3.460
1245.986, 13.892
1247.202, 20.374
1248.417, 33.944
1249.633, 58.266
1250.848, 16.313
1252.063, 82.296
1253.277, 76.582
1254.492, 18.951
1255.706, 9.572
1256.920, 93.898
1258.134, 19.223
1259.348, 25.444
1260.562, 92.682
1261.775, 85.019
1262.988, 99.999
1264.201, 77.670
1265.414, 103.070
1266.627, 59.245
1267.839, 63.326
1269.052, 125.450
1270.264, 113.561
1271.476, 76.660
1272.688, 75.748
1273.899, 45.822
1275.111, 70.131
1276.322, 117.180
1277.533, 64.218
1278.744, 124.294
1279.955, 68.306
1281.165, 41.427
1282.376, 13.412
1283.586, 51.383
1284.796, 24.532
1286.006, 78.554
1287.215, 21.486
1288.425, 41.403
1289.634, 52.304
1290.843, 112.193
1292.052, 81.069
1293.261, 40.935
1294.469, 10.783
1295.678, 66.616
1296.886, 42.438
1298.094, 91.245
1299.302, 61.040
1300.509, 22.823
1301.717, 77.565
1302.924, 42.221
1304.131, 44.949
1305.338, 79.655
1306.545, 63.340
1307.752, 94.999
1308.958, 35.539
1310.164, 40.173
1311.370, 73.625
1312.576, 54.205
1313.782, 92.672
1314.987, 41.134
1316.193, 69.698
1317.398, 141.117
1318.603, 80.582
1319.807, 43.081
1321.012, 75.087
1322.216, 64.451
1323.421, 47.891
1324.625, 109.522
1325.829, 59.382
1327.032, 122.682
1328.236, 45.976
1329.439, 74.404
1330.642, 72.568
1331.845, 94.326
1333.048, 93.881
1334.251, 65.085
1335.453, 84.948
1336.656, 58.452
1337.858, 46.628
1339.060, 43.905
1340.261, 37.397
1341.463, 45.647
1342.664, 29.407
1343.866, 66.779
1345.067, 42.123
1346.267, 48.196
1347.468, 120.540
1348.669, 121.406
1349.869, 85.165
1351.069, 132.882
1352.269, 2.951
1353.469, 80.851
1354.668, 101.795
1355.868, 33.025
1357.067, 119.949
1358.266, 13.823
1359.465, 122.586
1360.664, 108.537
1361.862, 15.520
1363.061, 49.362
1364.259, 99.115
1365.457, 20.991
1366.655, 96.925
1367.852, 37.646
1369.050, 6.444
1370.247, 46.322
1371.444, 4.990
1372.641, 7.212
1373.838, 44.996
1375.035, 6.271
1376.231, 36.396
1377.427, 16.712
1378.623, 11.894
1379.819, 101.461
1381.015, 53.720
1382.211, 57.935
1383.406, 63.127
1384.601, 53.201
1385.796, 54.279
1386.991, 57.627
1388.185, 64.054
1389.380, 96.651
1390.574, 31.719
1391.768, 14.820
1392.962, 99.120
1394.156, 39.393
1395.350, 7.462
1396.543, 69.681
1397.736, 20.822
1398.929, 11.758
1400.122, 45.819
1401.315, 43.876
1402.507, 70.104
1403.700, 57.619
1404.892, 25.844
1406.084, 111.762
1407.276, 8.727
1408.467, 13.539
1409.659, 57.122
1410.850, 23.107
1412.041, 65.211
1413.232, 87.574
1414.423, 63.213
1415.614, 70.696
1416.804, 85.104
1417.994, 11.675
1419.184, 77.010
1420.374, 96.683
1421.564, 49.014
1422.753, 63.284
1423.943, 31.783
1425.132, 103.180
1426.321, 100.635
1427.510, 12.690
1428.698, 46.852
1429.887, 99.154
1431.075, 77.297
1432.263, 129.351
1433.451, 72.701
1434.639, 79.199
1435.827, 132.945
1437.014, 75.507
1438.201, 93.230
1439.388, 122.683
1440.575, 97.937
1441.762, 149.251
1442.949, 135.898
1444.135, 76.296
1445.321, 182.866
1446.507, 140.612
1447.693, 94.020
1448.879, 124.417
1450.064, 134.784
1451.250, 156.213
1452.435, 167.597
1453.620, 96.862
1454.805, 181.279
1455.989, 155.522
1457.174, 104.508
1458.358, 184.027
1459.542, 112.020
1460.726, 128.599
1461.910, 167.747
1463.093, 148.755
1464.277, 198.248
1465.460, 141.767
1466.643, 69.831
1467.826, 109.872
1469.009, 89.891
1470.191, 94.192
1471.373, 168.995
1472.556, 96.561
1473.738, 107.451
1474.919, 135.366
1476.101, 59.085
1477.283, 31.777
1478.464, 152.419
1479.645, 46.031
1480.826, 93.588
1482.007, 27.091
1483.187, 45.560
1484.368, 88.087
1485.548, 65.710
1486.728, 73.331
1487.908, 89.895
1489.088, 79.406
1490.268, 41.893
1491.447, 103.349
1492.626, 39.979
1493.805, 91.716
1494.984, 60.539
1496.163, 63.378
1497.341, 69.224
1498.520, 14.287
1499.698, 6.666
1500.876, 112.482
1502.054, 45.561
1503.232, 4.859
1504.409, 108.249
1505.586, 49.764
1506.763, 100.440
1507.940, 30.275
1509.117, 88.297
1510.294, 83.917
1511.470, 99.791
1512.647, 35.042
1513.823, 109.825
1514.999, 46.468
1516.174, 88.052
1517.350, 109.579
1518.526, 0.384
1519.701, 0.000
##END=



