##NAMES=Actinolite
##RRUFFID=R040064
##IDEAL CHEMISTRY=Ca_2_(Mg_4.5-2.5_Fe^2+^_0.5-2.5_)Si_8_O_22_(OH)_2_
##LOCALITY=Ehime Perfecture, Uma Gun, Japan
##OWNER=RRUFF
##SOURCE=University of Arizona Mineral Museum
##DESCRIPTION=Aggregate of green acicular crystals associated with chlorite
##STATUS=The identification of this mineral has been confirmed by X-ray diffraction and chemical analysis
##URL=rruff.info/R040064
##MEASURED CHEMISTRY=(Ca_0.95_Na_0.04_Mn_0.01_)_2_(Mg_0.88_Fe_0.12_)_5_(Si_0.98_Al_0.02_)_8_O_22_(OH)_2_
##PIN_ID=M00235
##ORIENTATION=Laser parallel to b* (0 1 0). Fiducial mark perpendicular to laser is parallel to -c [0 0 -1]
109.292, 0.000
110.678, 88.395
112.063, 98.671
113.448, 112.905
114.833, 378.961
116.218, 527.556
117.602, 838.999
118.987, 993.172
120.371, 1272.729
121.755, 1560.850
123.138, 1952.407
124.522, 2140.408
125.905, 2136.743
127.288, 1997.215
128.671, 1546.970
130.053, 1109.225
131.436, 843.958
132.818, 482.312
134.200, 349.130
135.582, 159.291
136.963, 128.706
138.345, 92.307
139.726, 16.954
141.107, 21.116
142.488, 16.206
143.868, 5.753
145.248, 52.257
146.629, 21.251
148.008, 8.240
149.388, 9.099
150.768, 68.023
152.147, 223.734
153.526, 520.392
154.905, 1042.919
156.284, 2124.134
157.662, 3510.071
159.040, 6072.757
160.418, 10216.207
161.796, 13562.442
163.174, 14898.475
164.551, 11984.327
165.929, 8290.008
167.306, 5371.532
168.683, 3686.920
170.059, 2950.186
171.436, 2635.335
172.812, 2847.378
174.188, 3468.318
175.564, 5056.159
176.939, 6995.906
178.315, 10315.562
179.690, 14170.128
181.065, 16694.613
182.440, 17259.012
183.814, 14003.339
185.188, 10227.585
186.563, 7031.758
187.937, 4777.311
189.310, 3398.205
190.684, 2544.770
192.057, 1985.597
193.430, 1678.190
194.803, 1471.153
196.176, 1302.166
197.549, 1194.375
198.921, 1295.292
200.293, 1065.499
201.665, 1212.811
203.037, 1065.199
204.408, 1217.685
205.779, 1220.219
207.150, 1270.761
208.521, 1442.248
209.892, 1611.694
211.262, 1948.101
212.633, 2243.488
214.003, 2611.896
215.373, 3349.406
216.742, 4114.854
218.112, 5395.312
219.481, 6983.774
220.850, 9680.245
222.219, 12552.716
223.588, 15885.232
224.956, 18597.801
226.324, 18590.439
227.692, 17093.146
229.060, 13685.898
230.428, 10508.656
231.795, 7611.409
233.162, 5472.155
234.529, 4001.882
235.896, 2898.586
237.263, 2166.263
238.629, 1638.913
239.995, 1223.533
241.361, 993.127
242.727, 670.693
244.093, 608.233
245.458, 554.746
246.823, 566.232
248.188, 626.693
249.553, 786.127
250.917, 928.537
252.282, 1003.921
253.646, 1064.279
255.010, 921.613
256.374, 813.921
257.737, 644.206
259.101, 498.465
260.464, 422.702
261.827, 326.917
263.189, 325.109
264.552, 210.276
265.914, 161.112
267.276, 163.538
268.638, 20.633
270.000, 48.700
271.362, 33.271
272.723, 67.307
274.084, 76.459
275.445, 60.432
276.806, 55.405
278.166, 55.294
279.526, 60.630
280.887, 44.941
282.246, 34.417
283.606, 15.898
284.966, 47.727
286.325, 138.650
287.684, 182.519
289.043, 324.021
290.402, 451.497
291.760, 594.685
293.118, 710.419
294.477, 763.786
295.834, 802.530
297.192, 890.799
298.550, 1053.470
299.907, 1158.627
301.264, 1541.147
302.621, 1898.587
303.978, 2137.500
305.334, 2134.883
306.690, 2113.935
308.046, 1845.372
309.402, 1502.318
310.758, 1138.196
312.113, 849.724
313.469, 647.164
314.824, 581.947
316.179, 411.276
317.533, 377.653
318.888, 363.936
320.242, 263.160
321.596, 303.360
322.950, 283.352
324.304, 327.256
325.657, 324.044
327.010, 451.624
328.363, 428.358
329.716, 582.078
331.069, 830.672
332.421, 1014.521
333.774, 1302.225
335.126, 1414.365
336.478, 1446.390
337.829, 1457.151
339.181, 1365.405
340.532, 1484.166
341.883, 1474.617
343.234, 1510.230
344.585, 1586.501
345.935, 1506.162
347.285, 1477.449
348.635, 1363.159
349.985, 1322.824
351.335, 1261.332
352.684, 1155.980
354.034, 1163.292
355.383, 1015.479
356.731, 1004.290
358.080, 780.112
359.429, 697.658
360.777, 624.267
362.125, 512.709
363.473, 554.089
364.820, 507.434
366.168, 566.766
367.515, 597.085
368.862, 704.390
370.209, 934.681
371.556, 869.958
372.902, 1036.223
374.249, 1001.474
375.595, 863.711
376.940, 878.935
378.286, 759.145
379.632, 805.342
380.977, 718.524
382.322, 776.693
383.667, 784.848
385.012, 937.988
386.356, 1110.114
387.700, 1285.226
389.044, 1705.323
390.388, 2173.404
391.732, 2846.469
393.075, 3772.519
394.419, 4417.553
395.762, 4892.573
397.105, 4705.575
398.447, 4192.561
399.790, 3429.531
401.132, 2502.559
402.474, 1993.498
403.816, 1593.431
405.158, 1271.353
406.499, 1143.246
407.841, 984.326
409.182, 974.172
410.523, 1010.854
411.864, 1142.291
413.204, 1259.107
414.544, 1458.909
415.884, 1667.699
417.224, 1722.471
418.564, 1783.228
419.904, 1549.969
421.243, 1427.700
422.582, 1159.412
423.921, 918.108
425.260, 774.802
426.598, 574.223
427.937, 443.462
429.275, 398.662
430.613, 283.332
431.951, 285.600
433.288, 259.209
434.625, 257.792
435.963, 294.662
437.300, 344.500
438.636, 426.636
439.973, 396.714
441.309, 346.416
442.646, 229.063
443.981, 155.396
445.317, 85.795
446.653, 14.737
447.988, 9.485
449.323, 24.384
450.658, 14.352
451.993, 14.125
453.328, 41.936
454.662, 5.798
455.996, 13.309
457.331, 52.608
458.664, 11.582
459.998, 4.589
461.331, 12.374
462.665, 4.312
463.998, 23.227
465.330, 19.166
466.663, 79.021
467.996, 8.902
469.328, 4.765
470.660, 14.377
471.992, 28.459
473.323, 34.284
474.655, 57.096
475.986, 26.889
477.317, 16.658
478.648, 23.405
479.979, 26.134
481.309, 24.789
482.640, 62.475
483.970, 76.148
485.300, 96.802
486.629, 139.440
487.959, 96.062
489.288, 92.668
490.617, 116.256
491.946, 48.836
493.275, 77.402
494.603, 34.052
495.932, 5.456
497.260, 45.049
498.588, 21.593
499.916, 46.153
501.243, 41.758
502.571, 44.909
503.898, 24.079
505.225, 46.792
506.552, 9.536
507.878, 13.694
509.205, 15.907
510.531, 46.108
511.857, 8.290
513.183, 63.453
514.508, 57.599
515.834, 116.727
517.159, 83.844
518.484, 123.953
519.809, 95.065
521.133, 129.169
522.458, 140.263
523.782, 157.349
525.106, 162.424
526.430, 187.488
527.754, 199.344
529.077, 239.603
530.400, 237.641
531.723, 251.672
533.046, 283.691
534.369, 245.703
535.692, 264.702
537.014, 203.700
538.336, 204.687
539.658, 197.661
540.980, 157.624
542.301, 165.087
543.623, 134.517
544.944, 166.447
546.265, 165.364
547.585, 193.269
548.906, 152.163
550.226, 169.044
551.547, 139.913
552.867, 183.770
554.186, 157.615
555.506, 138.448
556.825, 153.269
558.145, 144.078
559.464, 103.875
560.783, 142.660
562.101, 117.433
563.420, 115.195
564.738, 153.945
566.056, 68.683
567.374, 112.407
568.692, 75.120
570.009, 56.820
571.326, 139.507
572.643, 136.182
573.960, 110.846
575.277, 346.499
576.594, 207.600
577.910, 342.770
579.226, 107.388
580.542, 126.996
581.858, 143.593
583.173, 103.178
584.489, 138.752
585.804, 95.316
587.119, 125.872
588.434, 110.417
589.748, 111.961
591.063, 104.500
592.377, 74.050
593.691, 112.619
595.005, 106.209
596.318, 91.819
597.632, 109.446
598.945, 115.089
600.258, 123.752
601.571, 80.430
602.884, 101.931
604.196, 137.164
605.508, 110.969
606.821, 144.710
608.132, 198.592
609.444, 158.203
610.756, 185.831
612.067, 217.719
613.378, 244.880
614.689, 231.654
616.000, 299.935
617.311, 330.752
618.621, 289.014
619.931, 400.772
621.241, 330.441
622.551, 409.288
623.861, 494.098
625.170, 451.231
626.479, 539.062
627.788, 528.759
629.097, 571.466
630.406, 664.148
631.714, 653.073
633.023, 784.178
634.331, 761.044
635.639, 861.823
636.946, 958.773
638.254, 938.905
639.561, 1103.842
640.868, 1163.315
642.175, 1342.720
643.482, 1397.310
644.789, 1590.968
646.095, 1780.814
647.401, 1995.999
648.707, 2289.567
650.013, 2575.880
651.319, 2788.971
652.624, 3188.876
653.929, 3530.011
655.234, 3888.467
656.539, 4349.947
657.844, 4753.379
659.148, 5400.062
660.453, 5965.339
661.757, 6980.620
663.061, 7895.049
664.364, 9492.607
665.668, 11760.822
666.971, 14090.599
668.274, 18398.502
669.577, 23556.676
670.880, 30444.713
672.183, 39322.656
673.485, 47261.512
674.787, 52751.582
676.089, 52973.371
677.391, 47773.008
678.693, 39711.703
679.994, 30641.295
681.296, 23559.590
682.597, 17648.523
683.898, 13679.331
685.198, 10687.637
686.499, 8245.906
687.799, 6834.273
689.099, 5573.530
690.399, 4718.896
691.699, 4143.143
692.998, 3469.064
694.298, 3122.299
695.597, 2675.710
696.896, 2309.934
698.195, 2092.152
699.493, 1812.138
700.792, 1716.345
702.090, 1481.546
703.388, 1280.743
704.686, 1257.934
705.984, 1094.119
707.281, 1054.299
708.578, 948.475
709.876, 826.645
711.172, 865.810
712.469, 713.970
713.766, 712.125
715.062, 659.275
716.358, 663.348
717.654, 578.489
718.950, 517.616
720.246, 512.734
721.541, 499.860
722.836, 490.781
724.131, 472.884
725.426, 422.829
726.721, 382.698
728.015, 434.802
729.310, 401.903
730.604, 422.996
731.898, 370.088
733.191, 344.176
734.485, 340.261
735.778, 303.338
737.071, 326.415
738.364, 344.489
739.657, 318.548
740.950, 335.615
742.242, 317.641
743.535, 347.701
744.827, 386.757
746.118, 414.810
747.410, 440.861
748.702, 451.798
749.993, 517.842
751.284, 574.882
752.575, 589.893
753.866, 587.926
755.156, 519.955
756.447, 574.981
757.737, 457.941
759.027, 341.960
760.316, 317.978
761.606, 263.995
762.896, 201.012
764.185, 186.030
765.474, 177.054
766.763, 154.083
768.051, 107.126
769.340, 147.172
770.628, 29.219
771.916, 58.281
773.204, 66.349
774.492, 41.420
775.780, 80.492
777.067, 69.564
778.354, 42.637
779.641, 57.711
780.928, 11.783
782.215, 32.855
783.501, 90.928
784.787, 8.993
786.073, 57.078
787.359, 15.149
788.645, 38.219
789.930, 42.289
791.216, 14.640
792.501, 0.800
793.786, 12.478
795.071, 20.466
796.355, 0.423
797.640, 2.385
798.924, 0.352
800.208, 7.324
801.492, 18.695
802.775, 35.287
804.059, 19.291
805.342, 22.692
806.625, 0.326
807.908, 37.337
809.191, 22.368
810.474, 63.400
811.756, 5.460
813.038, 22.512
814.320, 35.566
815.602, 24.373
816.884, 55.681
818.165, 1.752
819.446, 3.823
820.727, 30.897
822.008, 24.011
823.289, 4.081
824.569, 6.823
825.850, 37.727
827.130, 8.368
828.410, 31.472
829.690, 56.593
830.969, 23.747
832.249, 4.915
833.528, 20.089
834.807, 36.723
836.086, 8.465
837.364, 40.661
838.643, 12.119
839.921, 28.898
841.199, 17.324
842.477, 38.443
843.755, 17.791
845.033, 37.964
846.310, 44.282
847.587, 24.448
848.864, 0.823
850.141, 49.903
851.418, 49.628
852.694, 12.647
853.971, 45.070
855.247, 48.787
856.523, 56.503
857.798, 29.219
859.074, 46.935
860.349, 59.651
861.624, 42.366
862.899, 71.082
864.174, 103.798
865.449, 106.513
866.723, 102.250
867.998, 88.946
869.272, 76.670
870.545, 24.395
871.819, 34.126
873.093, 24.498
874.366, 34.537
875.639, 37.327
876.912, 65.063
878.185, 77.800
879.458, 56.546
880.730, 203.295
882.002, 63.050
883.274, 115.821
884.546, 215.594
885.818, 155.378
887.090, 174.165
888.361, 158.952
889.632, 234.760
890.903, 242.568
892.174, 224.378
893.444, 269.190
894.715, 258.003
895.985, 312.821
897.255, 367.639
898.525, 353.460
899.795, 375.285
901.064, 371.113
902.334, 379.943
903.603, 433.779
904.872, 484.623
906.140, 544.469
907.409, 563.315
908.677, 584.164
909.946, 698.021
911.214, 702.880
912.482, 824.748
913.749, 964.627
915.017, 910.509
916.284, 1092.408
917.551, 1253.310
918.818, 1400.215
920.085, 1535.122
921.352, 1764.031
922.618, 2047.943
923.884, 2395.810
925.150, 2763.724
926.416, 3362.643
927.682, 3988.568
928.947, 4827.494
930.213, 5577.433
931.478, 6460.373
932.743, 6764.315
934.008, 6796.148
935.272, 6280.073
936.537, 5504.021
937.801, 4587.170
939.065, 3855.120
940.329, 3134.985
941.593, 2544.939
942.856, 2310.893
944.119, 1925.739
945.383, 1862.426
946.646, 1709.298
947.908, 1677.811
949.171, 1680.446
950.433, 1643.984
951.696, 1492.631
952.958, 1439.907
954.220, 1274.835
955.481, 1201.478
956.743, 1083.092
958.004, 989.053
959.265, 943.735
960.526, 872.276
961.787, 783.735
963.048, 787.651
964.308, 685.081
965.569, 650.549
966.829, 611.234
968.089, 595.235
969.348, 559.673
970.608, 516.333
971.867, 578.890
973.126, 546.907
974.385, 463.928
975.644, 524.491
976.903, 452.450
978.161, 435.488
979.420, 503.841
980.678, 427.875
981.936, 478.345
983.193, 480.851
984.451, 345.428
985.708, 417.170
986.966, 352.232
988.223, 380.646
989.479, 459.189
990.736, 332.229
991.993, 384.306
993.249, 386.281
994.505, 423.365
995.761, 383.339
997.017, 378.432
998.272, 443.849
999.528, 357.951
1000.783, 415.875
1002.038, 415.986
1003.293, 450.100
1004.548, 470.446
1005.802, 481.571
1007.057, 513.699
1008.311, 532.188
1009.565, 527.967
1010.818, 600.106
1012.072, 623.251
1013.326, 700.405
1014.579, 657.559
1015.832, 753.717
1017.085, 768.950
1018.338, 826.135
1019.590, 875.042
1020.842, 915.234
1022.095, 936.786
1023.347, 999.135
1024.599, 1071.385
1025.850, 1189.698
1027.102, 1200.071
1028.353, 1356.296
1029.604, 1385.276
1030.855, 1504.631
1032.106, 1638.171
1033.356, 1769.791
1034.607, 1763.264
1035.857, 1787.076
1037.107, 1841.475
1038.357, 1947.813
1039.607, 2064.987
1040.856, 2159.769
1042.106, 2417.123
1043.355, 2690.546
1044.604, 2986.872
1045.852, 3404.741
1047.101, 3873.129
1048.350, 4363.501
1049.598, 5154.476
1050.846, 5824.973
1052.094, 7279.479
1053.342, 8678.806
1054.589, 10448.277
1055.837, 12866.780
1057.084, 15645.104
1058.331, 18283.475
1059.578, 20953.244
1060.824, 23001.541
1062.071, 23391.668
1063.317, 21452.252
1064.563, 18840.531
1065.809, 15552.730
1067.055, 12451.238
1068.301, 10359.818
1069.546, 8528.338
1070.791, 7096.846
1072.036, 5895.324
1073.281, 4894.843
1074.526, 4045.156
1075.771, 3497.909
1077.015, 2895.322
1078.259, 2456.599
1079.503, 2148.446
1080.747, 1881.724
1081.991, 1631.001
1083.234, 1541.466
1084.478, 1311.742
1085.721, 1181.315
1086.964, 1138.844
1088.206, 999.166
1089.449, 1002.606
1090.691, 876.924
1091.934, 775.213
1093.176, 740.414
1094.418, 689.715
1095.659, 591.267
1096.901, 606.859
1098.142, 589.214
1099.384, 559.976
1100.625, 518.454
1101.865, 465.811
1103.106, 501.668
1104.347, 473.047
1105.587, 400.502
1106.827, 425.994
1108.067, 372.313
1109.307, 392.880
1110.546, 379.208
1111.786, 345.606
1113.025, 334.089
1114.264, 309.928
1115.503, 285.821
1116.742, 275.504
1117.980, 278.948
1119.219, 281.439
1120.457, 266.376
1121.695, 207.187
1122.933, 230.583
1124.171, 216.071
1125.408, 177.576
1126.645, 201.004
1127.883, 119.505
1129.120, 191.991
1130.356, 144.700
1131.593, 101.111
1132.829, 202.769
1134.066, 153.182
1135.302, 139.598
1136.538, 133.191
1137.773, 75.602
1139.009, 163.310
1140.244, 158.843
1141.480, 27.254
1142.715, 146.862
1143.950, 55.616
1145.184, 46.024
1146.419, 130.861
1147.653, 69.380
1148.887, 64.837
1150.121, 50.612
1151.355, 100.023
1152.589, 100.686
1153.822, 66.487
1155.056, 80.963
1156.289, 32.344
1157.522, 30.719
1158.755, 101.090
1159.987, 39.026
1161.220, 29.622
1162.452, 114.205
1163.684, 51.811
1164.916, 16.166
1166.148, 67.205
1167.379, 29.443
1168.611, 93.863
1169.842, 21.869
1171.073, 10.441
1172.304, 35.714
1173.534, 22.045
1174.765, 9.302
1175.995, 59.951
1177.225, 26.638
1178.455, 18.580
1179.685, 18.970
1180.915, 51.780
1182.144, 0.373
1183.374, 38.305
1184.603, 14.807
1185.832, 31.019
1187.060, 67.589
1188.289, 75.458
1189.518, 30.612
1190.746, 15.697
1191.974, 39.717
1193.202, 5.170
1194.430, 26.826
1195.657, 31.812
1196.884, 6.095
1198.112, 3.865
1199.339, 2.853
1200.566, 10.951
1201.792, 13.033
1203.019, 7.246
1204.245, 51.132
1205.471, 40.011
1206.697, 16.888
1207.923, 60.957
1209.149, 22.131
1210.374, 29.152
1211.600, 91.627
1212.825, 54.493
1214.050, 13.233
1215.275, 3.947
1216.499, 10.898
1217.724, 14.748
1218.948, 22.425
1220.172, 13.367
1221.396, 63.021
1222.620, 1.843
1223.843, 8.490
1225.067, 75.117
1226.290, 31.029
1227.513, 89.698
1228.736, 78.253
1229.959, 29.991
1231.181, 86.598
1232.404, 8.351
1233.626, 16.253
1234.848, 66.822
1236.070, 44.252
1237.291, 74.090
1238.513, 108.643
1239.734, 0.929
1240.955, 91.677
1242.177, 24.102
1243.397, 16.775
1244.618, 73.176
1245.838, 8.560
1247.059, 45.146
1248.279, 74.502
1249.499, 10.007
1250.719, 70.319
1251.938, 54.635
1253.158, 3.566
1254.377, 115.726
1255.596, 30.008
1256.815, 97.558
1258.034, 74.821
1259.253, 51.073
1260.471, 91.473
1261.689, 126.703
1262.907, 20.256
1264.125, 72.510
1265.343, 64.707
1266.561, 99.266
1267.778, 93.439
1268.995, 90.399
1270.212, 78.062
1271.429, 74.196
1272.646, 92.417
1273.862, 74.896
1275.079, 78.993
1276.295, 30.567
1277.511, 109.635
1278.727, 44.689
1279.943, 105.835
1281.158, 124.822
1282.373, 60.798
1283.589, 111.909
1284.804, 35.856
1286.019, 76.953
1287.233, 109.081
1288.448, 58.987
1289.662, 29.878
1290.876, 161.755
1292.090, 22.619
1293.304, 81.629
1294.518, 95.466
1295.731, 28.290
1296.944, 105.255
1298.158, 44.049
1299.371, 25.913
1300.583, 87.882
1301.796, 172.634
1303.008, 295.403
1304.221, 140.129
1305.433, 17.843
1306.645, 54.757
1307.856, 56.435
1309.068, 50.104
1310.280, 108.773
1311.491, 52.656
1312.702, 106.949
1313.913, 132.799
1315.124, 25.648
1316.334, 103.549
1317.545, 127.907
1318.755, 95.355
1319.965, 138.729
1321.175, 28.032
1322.385, 71.471
1323.594, 162.144
1324.804, 53.430
1326.013, 156.520
1327.222, 107.629
1328.431, 64.762
1329.639, 181.542
1330.848, 79.669
1332.056, 34.846
1333.265, 185.644
1334.473, 74.874
1335.680, 88.986
1336.888, 187.020
1338.096, 78.137
1339.303, 143.695
1340.510, 130.721
1341.717, 74.751
1342.924, 179.165
1344.131, 93.112
1345.337, 40.966
1346.544, 126.994
1347.750, 19.853
1348.956, 157.666
1350.162, 172.852
1351.367, 45.767
1352.573, 170.266
1353.778, 82.285
1354.983, 58.401
1356.188, 219.049
1357.393, 70.990
1358.598, 127.996
1359.802, 127.679
1361.007, 34.276
1362.211, 55.919
1363.415, 140.663
1364.619, 28.328
1365.822, 184.941
1367.026, 51.956
1368.229, 85.312
1369.432, 148.998
1370.635, 33.068
1371.838, 53.295
1373.041, 113.080
1374.243, 45.858
1375.446, 74.441
1376.648, 37.207
1377.850, 9.664
1379.052, 75.151
1380.253, 38.963
1381.455, 13.588
1382.656, 71.257
1383.857, 23.423
1385.058, 52.355
1386.259, 127.010
1387.459, 32.197
1388.660, 136.342
1389.860, 111.727
1391.060, 42.545
1392.260, 134.345
1393.460, 58.522
1394.660, 104.681
1395.859, 198.761
1397.059, 0.835
1398.258, 127.133
1399.457, 99.973
1400.655, 27.095
1401.854, 199.301
1403.052, 105.242
1404.251, 56.219
1405.449, 189.876
1406.647, 18.685
1407.845, 83.745
1409.042, 160.577
1410.240, 14.119
1411.437, 122.878
1412.634, 121.433
1413.831, 77.275
1415.028, 163.126
1416.224, 71.666
1417.421, 14.910
1418.617, 161.745
1419.813, 1.834
1421.009, 137.022
1422.205, 159.427
1423.401, 58.983
1424.596, 135.727
1425.791, 122.302
1426.986, 50.807
1428.181, 173.603
1429.376, 46.837
1430.571, 36.417
1431.765, 185.763
1432.960, 93.777
1434.154, 138.239
1435.348, 173.769
1436.541, 48.218
1437.735, 127.633
1438.929, 126.158
1440.122, 49.344
1441.315, 142.340
1442.508, 66.540
1443.701, 37.990
1444.893, 159.314
1446.086, 79.763
1447.278, 90.996
1448.470, 214.370
1449.662, 35.532
1450.854, 239.781
1452.046, 193.965
1453.237, 84.333
1454.428, 198.496
1455.619, 185.980
1456.810, 98.925
1458.001, 287.582
1459.192, 73.920
1460.382, 166.839
1461.573, 253.261
1462.763, 134.251
1463.953, 123.364
1465.143, 193.714
1466.332, 90.059
1467.522, 196.763
1468.711, 178.683
1469.900, 55.169
1471.089, 264.266
1472.278, 113.558
1473.467, 103.877
1474.655, 248.502
1475.843, 69.405
1477.032, 186.936
1478.220, 272.400
1479.407, 102.317
1480.595, 186.800
1481.783, 175.616
1482.970, 86.433
1484.157, 193.220
1485.344, 168.486
1486.531, 52.703
1487.718, 269.098
1488.904, 67.043
1490.090, 114.490
1491.277, 225.236
1492.463, 19.662
1493.648, 172.977
1494.834, 248.396
1496.020, 56.810
1497.205, 208.364
1498.390, 103.872
1499.575, 98.355
1500.760, 233.800
1501.945, 76.691
1503.129, 79.319
1504.314, 233.200
1505.498, 47.188
1506.682, 196.193
1507.866, 249.264
1509.049, 23.366
1510.233, 192.088
1511.416, 186.272
1512.600, 12.146
1513.783, 267.540
1514.966, 109.624
1516.148, 101.224
1517.331, 248.003
1518.513, 104.974
1519.695, 122.980
1520.878, 270.564
1522.059, 43.677
1523.241, 240.900
1524.423, 206.959
1525.604, 1.014
1526.785, 185.328
1527.967, 137.783
1529.147, 0.655
1530.328, 227.827
1531.509, 0.000
##END=



