##NAMES=Actinolite
##RRUFFID=R060045
##IDEAL CHEMISTRY=Ca_2_(Mg_4.5-2.5_Fe^2+^_0.5-2.5_)Si_8_O_22_(OH)_2_
##LOCALITY=Colorado, USA
##OWNER=RRUFF
##SOURCE=University of Arizona Mineral Museum
##DESCRIPTION=Green prismatic crystals in a radial arrangement
##STATUS=The identification of this mineral has been confirmed by X-ray diffraction and chemical analysis
##URL=rruff.info/R060045
##MEASURED CHEMISTRY=(Ca_1.99_Na_0.01_)_Σ=2_(Mg_4.20_Fe^2+^_0.59_Al_0.09_Fe^3+^_0.08_Mn_0.02_Ti_0.01_)_Σ=5_(Si_7.82_Al_0.18_)_Σ=8_O_22_(OH)_2_
##PIN_ID=M00311
##ORIENTATION=Laser parallel to c* (0 0 1). Fiducial mark perpendicular to laser is parallel to a [1 0 0]
134.1270, 0.0000000E+00
135.3560, 44.29883
136.5850, 4.109375
137.8140, 9.600586
139.0430, 13.44922
140.2710, 161.0342
141.5000, 38.20410
142.7280, 213.3623
143.9560, 593.6846
145.1840, 1269.809
146.4120, 2424.604
147.6390, 3610.168
148.8670, 4706.781
150.0940, 5237.883
151.3210, 5309.147
152.5490, 5237.478
153.7750, 4926.490
155.0020, 4912.776
156.2290, 4665.015
157.4550, 4210.953
158.6810, 4101.387
159.9080, 3914.154
161.1340, 3701.115
162.3590, 3624.154
163.5850, 3777.174
164.8110, 4563.129
166.0360, 6169.006
167.2610, 7936.258
168.4860, 9568.673
169.7110, 10311.97
170.9360, 10230.06
172.1610, 9994.331
173.3850, 10145.77
174.6100, 9566.392
175.8340, 8841.189
177.0580, 8100.165
178.2820, 7188.328
179.5050, 6220.686
180.7290, 5148.242
181.9520, 3797.996
183.1760, 2601.949
184.3990, 1980.101
185.6220, 1345.449
186.8450, 943.9873
188.0670, 846.7070
189.2900, 983.6074
190.5120, 703.6865
191.7340, 474.9375
192.9560, 567.3496
194.1780, 554.9170
195.4000, 689.7754
196.6220, 723.9365
197.8430, 996.8789
199.0640, 952.7285
200.2860, 1365.084
201.5070, 1688.475
202.7270, 2057.747
203.9480, 2538.322
205.1690, 3173.564
206.3890, 3698.151
207.6090, 4871.116
208.8290, 6211.103
210.0490, 7930.162
211.2690, 10003.29
212.4890, 12101.50
213.7080, 13289.02
214.9280, 14311.59
216.1470, 14467.38
217.3660, 14429.24
218.5850, 14517.19
219.8030, 13494.28
221.0220, 12863.53
222.2400, 11541.13
223.4590, 10104.86
224.6770, 8606.801
225.8950, 7154.836
227.1120, 5877.953
228.3300, 4423.215
229.5480, 3406.703
230.7650, 2748.295
231.9820, 1998.020
233.1990, 1575.832
234.4160, 1104.797
235.6330, 929.8262
236.8490, 852.9199
238.0660, 695.0977
239.2820, 635.3730
240.4980, 452.5918
241.7140, 487.9453
242.9300, 458.4043
244.1460, 305.9590
245.3610, 341.6699
246.5770, 270.6191
247.7920, 190.1914
249.0070, 215.9766
250.2220, 140.7852
251.4370, 130.6094
252.6510, 69.45508
253.8660, 21.35547
255.0800, 3.007813
256.2940, 16.91602
257.5080, 25.00781
258.7220, 91.91406
259.9360, 182.8477
261.1490, 81.79688
262.3630, 16.75781
263.5760, 88.26953
264.7890, 142.2852
266.0020, 137.2930
267.2150, 94.28906
268.4270, 176.2832
269.6400, 152.4375
270.8520, 158.2676
272.0640, 189.2617
273.2760, 128.3281
274.4880, 167.4688
275.7000, 45.29688
276.9120, 139.0371
278.1230, 49.57227
279.3340, 233.1484
280.5450, 125.0273
281.7560, 140.6660
282.9670, 330.5156
284.1780, 401.5957
285.3880, 543.7656
286.5980, 473.4668
287.8090, 620.3242
289.0190, 539.7422
290.2290, 738.4570
291.4380, 922.3965
292.6480, 925.6016
293.8570, 1134.184
295.0670, 1026.789
296.2760, 1288.816
297.4850, 1039.406
298.6930, 1059.480
299.9020, 1144.686
301.1110, 956.0059
302.3190, 647.4355
303.5270, 627.2930
304.7350, 445.6484
305.9430, 543.1621
307.1510, 418.4766
308.3580, 206.6641
309.5660, 360.8555
310.7730, 291.8496
311.9800, 351.9023
313.1870, 379.3184
314.3940, 328.4668
315.6010, 319.5137
316.8070, 345.6328
318.0130, 220.6719
319.2200, 431.3574
320.4260, 475.5430
321.6310, 588.0547
322.8370, 474.2715
324.0430, 617.7383
325.2480, 919.5410
326.4540, 812.0684
327.6590, 434.1328
328.8640, 854.5723
330.0680, 792.0137
331.2730, 556.4863
332.4780, 755.4805
333.6820, 726.6035
334.8860, 762.1133
336.0900, 672.9434
337.2940, 878.6777
338.4980, 832.2188
339.7010, 792.8984
340.9050, 962.4453
342.1080, 1067.994
343.3110, 955.5449
344.5140, 769.0742
345.7170, 1069.791
346.9200, 945.7051
348.1220, 1300.930
349.3240, 1115.068
350.5270, 1000.020
351.7290, 1260.484
352.9310, 1065.416
354.1320, 1345.029
355.3340, 1119.143
356.5350, 1059.986
357.7370, 1302.111
358.9380, 1400.244
360.1390, 1607.383
361.3400, 1678.633
362.5400, 1778.598
363.7410, 1808.816
364.9410, 1798.967
366.1410, 1879.119
367.3410, 1623.273
368.5410, 1418.426
369.7410, 1119.576
370.9400, 1254.725
372.1400, 1267.873
373.3390, 1060.018
374.5380, 1075.158
375.7370, 1078.293
376.9360, 1090.291
378.1350, 1139.547
379.3330, 1239.664
380.5310, 1422.775
381.7300, 1476.879
382.9280, 1529.975
384.1260, 1418.066
385.3230, 1848.146
386.5210, 1840.219
387.7180, 1909.285
388.9160, 1687.342
390.1130, 1634.105
391.3100, 1645.420
392.5060, 1350.445
393.7030, 1220.455
394.9000, 1118.457
396.0960, 1052.447
397.2920, 780.4238
398.4880, 677.3926
399.6840, 717.2383
400.8800, 482.8066
402.0750, 749.1641
403.2710, 618.0801
404.4660, 578.0312
405.6610, 525.9219
406.8560, 590.8027
408.0510, 570.0820
409.2450, 687.2188
410.4400, 499.5312
411.6340, 588.5000
412.8280, 436.0938
414.0220, 459.6719
415.2160, 163.9746
416.4100, 359.8477
417.6030, 272.3398
418.7970, 104.6387
419.9900, 135.6582
421.1830, 125.6250
422.3760, 58.33789
423.5690, 44.03711
424.7610, 16.75781
425.9540, 102.5371
427.1460, 10.11719
428.3380, 51.90625
429.5300, 139.5781
430.7220, 59.76953
431.9140, 70.83203
433.1050, 114.4316
434.2970, 203.9727
435.4880, 179.4922
436.6790, 51.95117
437.8700, 72.40039
439.0610, 94.16211
440.2510, 36.19531
441.4420, 116.5371
442.6320, 98.93555
443.8220, 164.2539
445.0120, 139.5645
446.2020, 53.15039
447.3910, 65.57227
448.5810, 37.83984
449.7700, 21.02148
450.9600, 184.8281
452.1490, 55.81250
453.3370, 116.2070
454.5260, 241.1328
455.7150, 118.9570
456.9030, 118.8477
458.0910, 43.63281
459.2800, 49.39453
460.4670, 170.1309
461.6550, 61.85156
462.8430, 1.546875
464.0300, 18.80078
465.2180, 61.20898
466.4050, 32.69336
467.5920, 66.75781
468.7790, 83.18359
469.9650, 40.41211
471.1520, 316.9238
472.3380, 21.24219
473.5250, 180.5215
474.7110, 69.22070
475.8970, 63.95508
477.0820, 212.1035
478.2680, 41.25977
479.4540, 86.38672
480.6390, 104.4902
481.8240, 1.576172
483.0090, 233.6113
484.1940, 157.6250
485.3780, 187.6211
486.5630, 180.5977
487.7470, 88.55273
488.9320, 12.48633
490.1160, 26.37695
491.3000, 26.76953
492.4830, 64.02148
493.6670, 17.21484
494.8500, 30.51172
496.0340, 114.8008
497.2170, 213.7773
498.4000, 34.33789
499.5820, 212.8613
500.7650, 215.3672
501.9480, 193.8770
503.1300, 280.3652
504.3120, 225.8359
505.4940, 155.3008
506.6760, 256.7812
507.8580, 205.2520
509.0390, 272.7676
510.2210, 411.3086
511.4020, 543.8281
512.5830, 163.3281
513.7640, 512.8105
514.9450, 626.2715
516.1250, 385.7109
517.3060, 692.1406
518.4860, 463.5605
519.6660, 521.0312
520.8460, 691.5176
522.0260, 487.0352
523.2060, 724.5781
524.3850, 713.1016
525.5650, 749.6016
526.7440, 709.0820
527.9230, 558.5430
529.1020, 438.9824
530.2810, 505.4023
531.4590, 583.8008
532.6380, 612.1758
533.8160, 658.5332
534.9940, 520.8770
536.1720, 735.1973
537.3500, 611.4980
538.5270, 327.7773
539.7050, 484.0371
540.8820, 438.2754
542.0590, 216.4941
543.2360, 356.6953
544.4130, 315.8750
545.5900, 146.0371
546.7660, 262.1895
547.9430, 183.3164
549.1190, 360.4258
550.2950, 364.5254
551.4710, 287.6250
552.6470, 176.7227
553.8220, 213.8066
554.9980, 186.9141
556.1730, 274.0156
557.3480, 229.1191
558.5230, 332.2344
559.6980, 105.3457
560.8730, 122.4590
562.0470, 540.5469
563.2220, 219.6387
564.3960, 260.7246
565.5700, 393.6992
566.7440, 335.8066
567.9170, 312.5918
569.0910, 133.2617
570.2640, 158.2109
571.4380, 239.1855
572.6110, 412.3672
573.7840, 166.2988
574.9570, 306.2090
576.1290, 483.1328
577.3020, 161.0020
578.4740, 242.6855
579.6460, 230.5215
580.8180, 189.0879
581.9900, 360.2285
583.1620, 125.0020
584.3330, 246.7598
585.5040, 233.4961
586.6760, 94.21094
587.8470, 289.5781
589.0180, 98.51953
590.1880, 296.3652
591.3590, 364.5039
592.5290, 258.9551
593.7000, 98.32227
594.8700, 206.9297
596.0400, 185.5195
597.2090, 162.7812
598.3790, 132.3320
599.5490, 161.4238
600.7180, 150.2832
601.8870, 243.3145
603.0560, 190.3770
604.2250, 262.9512
605.3940, 335.2129
606.5620, 231.7734
607.7300, 237.0879
608.8990, 214.0762
610.0670, 321.3438
611.2350, 302.0703
612.4020, 162.4297
613.5700, 225.7891
614.7370, 424.1172
615.9050, 672.9492
617.0720, 468.6250
618.2390, 348.7559
619.4060, 622.9727
620.5720, 695.4473
621.7390, 748.6895
622.9050, 621.8711
624.0710, 702.0840
625.2370, 549.4277
626.4030, 734.8164
627.5690, 882.9863
628.7340, 1185.863
629.9000, 1121.451
631.0650, 1215.350
632.2300, 1292.951
633.3950, 1067.100
634.5600, 1358.639
635.7240, 1333.990
636.8890, 1337.727
638.0530, 1743.771
639.2170, 1872.078
640.3810, 2209.096
641.5450, 2311.221
642.7080, 2658.215
643.8720, 3092.238
645.0350, 3328.305
646.1980, 3380.191
647.3610, 3534.170
648.5240, 4300.633
649.6870, 4273.758
650.8490, 4889.656
652.0120, 5187.539
653.1740, 5911.406
654.3360, 6974.258
655.4980, 7713.098
656.6600, 9060.746
657.8210, 10251.84
658.9830, 12272.42
660.1440, 14792.61
661.3050, 17760.19
662.4660, 21056.54
663.6270, 24927.27
664.7870, 28569.98
665.9480, 31221.69
667.1080, 32815.44
668.2680, 33590.24
669.4280, 32852.89
670.5880, 31205.52
671.7480, 28645.13
672.9070, 25942.82
674.0670, 22655.43
675.2260, 19329.11
676.3850, 15954.66
677.5440, 13088.24
678.7030, 10393.75
679.8610, 8772.246
681.0200, 7261.783
682.1780, 6121.250
683.3360, 5291.699
684.4940, 4565.133
685.6520, 3882.945
686.8090, 3350.936
687.9670, 2789.732
689.1240, 2542.102
690.2810, 2302.455
691.4380, 2143.795
692.5950, 1780.115
693.7520, 1710.424
694.9080, 1304.715
696.0650, 1570.988
697.2210, 1370.246
698.3770, 1198.488
699.5330, 1209.223
700.6880, 1190.148
701.8440, 844.3438
702.9990, 834.8223
704.1550, 812.9453
705.3100, 696.3789
706.4650, 847.5156
707.6190, 474.6758
708.7740, 628.6836
709.9290, 596.8027
711.0830, 446.9199
712.2370, 585.0508
713.3910, 537.1660
714.5450, 422.2637
715.6980, 584.4102
716.8520, 379.5430
718.0050, 183.4004
719.1580, 502.5039
720.3110, 422.6309
721.4640, 583.7441
722.6170, 473.7773
723.7700, 521.8613
724.9220, 366.9297
726.0740, 541.6953
727.2260, 369.7363
728.3780, 492.5879
729.5300, 397.0352
730.6810, 97.07812
731.8330, 525.1660
732.9840, 152.1895
734.1350, 452.2773
735.2860, 438.3477
736.4370, 257.4512
737.5880, 546.5410
738.7380, 470.6211
739.8880, 344.6914
741.0390, 537.7480
742.1890, 161.7344
743.3380, 190.1211
744.4880, 257.1699
745.6380, 124.2402
746.7870, 214.3164
747.9360, 286.3848
749.0850, 365.4395
750.2340, 481.5078
751.3830, 588.5645
752.5310, 240.6172
753.6800, 112.5957
754.8280, 263.6582
755.9760, 80.29102
757.1240, 64.68750
758.2720, 46.66016
759.4190, 186.6172
760.5670, 93.56055
761.7140, 253.5078
762.8610, 78.44141
764.0080, 66.36328
765.1550, 289.2695
766.3020, 126.1641
767.4480, 147.0527
768.5950, 21.93750
769.7410, 46.81836
770.8870, 156.7051
772.0330, 35.41602
773.1780, 78.43555
774.3240, 62.28516
775.4690, 124.1699
776.6140, 358.0410
777.7590, 151.9121
778.9040, 57.22656
780.0490, 113.5762
781.1940, 91.37305
782.3380, 25.84180
783.4820, 103.0957
784.6260, 9.427734
785.7700, 224.7891
786.9140, 140.2930
788.0580, 160.1035
789.2010, 120.4922
790.3450, 115.8730
791.4880, 243.2461
792.6310, 239.6133
793.7730, 9.031250
794.9160, 16.70312
796.0590, 248.4004
797.2010, 115.2520
798.3430, 170.1855
799.4850, 151.2285
800.6270, 178.6309
801.7690, 354.4824
802.9100, 215.3262
804.0520, 59.16406
805.1930, 43.99219
806.3340, 238.8125
807.4750, 89.62500
808.6160, 233.4336
809.7560, 49.23633
810.8970, 4.970703
812.0370, 39.80664
813.1770, 82.57617
814.3170, 53.33789
815.4570, 154.0957
816.5960, 76.84961
817.7360, 46.59375
818.8750, 210.3340
820.0140, 222.0703
821.1530, 161.7988
822.2920, 33.47461
823.4310, 138.2227
824.5690, 103.9141
825.7070, 140.6016
826.8460, 167.6055
827.9840, 204.9629
829.1220, 150.6387
830.2590, 117.3125
831.3970, 102.9805
832.5340, 288.6426
833.6710, 204.3027
834.8080, 291.9609
835.9450, 179.6152
837.0820, 75.26758
838.2190, 58.91992
839.3550, 72.43164
840.4910, 35.82422
841.6270, 25.75195
842.7630, 66.32617
843.8990, 60.89258
845.0350, 110.1875
846.1700, 141.5371
847.3060, 136.5801
848.4410, 188.1387
849.5760, 108.6934
850.7100, 121.2480
851.8450, 62.80273
852.9800, 223.3555
854.1140, 40.09375
855.2480, 235.4375
856.3820, 167.9668
857.5160, 387.4941
858.6500, 287.0234
859.7830, 282.5488
860.9170, 265.2754
862.0500, 111.5996
863.1830, 85.12500
864.3160, 5.650391
865.4480, 136.8242
866.5810, 166.6328
867.7130, 285.9609
868.8460, 281.4199
869.9780, 202.8828
871.1100, 343.3398
872.2410, 298.7988
873.3730, 278.2598
874.5050, 102.7148
875.6360, 138.1738
876.7670, 102.6328
877.8980, 35.90820
879.0290, 17.41797
880.1590, 105.1016
881.2900, 197.6191
882.4200, 378.1426
883.5500, 117.7148
884.6800, 382.2871
885.8100, 421.8633
886.9400, 8.439453
888.0690, 329.0176
889.1990, 39.40430
890.3280, 205.1426
891.4570, 153.7129
892.5860, 297.4395
893.7140, 257.7637
894.8430, 534.9453
895.9710, 471.5527
897.1000, 235.0801
898.2280, 708.6953
899.3560, 487.1699
900.4830, 278.5840
901.6110, 522.2070
902.7380, 407.8340
903.8660, 336.4629
904.9930, 640.3613
906.1200, 616.6582
907.2460, 721.2949
908.3730, 733.1387
909.5000, 853.9961
910.6260, 885.3320
911.7520, 1089.125
912.8780, 1116.918
914.0040, 1160.719
915.1290, 1328.406
916.2550, 1258.213
917.3800, 1525.980
918.5050, 1964.693
919.6300, 2077.582
920.7550, 2444.367
921.8800, 2993.664
923.0040, 3323.375
924.1290, 3606.361
925.2530, 3796.357
926.3770, 3814.359
927.5010, 3944.367
928.6250, 3795.875
929.7480, 3365.586
930.8720, 3295.340
931.9950, 2893.588
933.1180, 2351.229
934.2410, 2433.461
935.3640, 2167.934
936.4860, 1788.014
937.6090, 1863.111
938.7310, 1609.225
939.8530, 1376.264
940.9750, 1571.262
942.0970, 1452.404
943.2180, 1425.561
944.3400, 1596.730
945.4610, 1444.818
946.5820, 1382.971
947.7030, 1248.055
948.8240, 1334.268
949.9450, 1193.445
951.0650, 1186.684
952.1860, 996.9297
953.3060, 1180.145
954.4260, 944.4219
955.5460, 1030.717
956.6650, 580.0176
957.7850, 483.9023
958.9040, 546.2363
960.0230, 716.5840
961.1420, 743.9453
962.2610, 540.3164
963.3800, 788.7031
964.4990, 530.1016
965.6170, 609.5137
966.7350, 574.9375
967.8530, 473.3730
968.9710, 519.8242
970.0890, 568.2852
971.2070, 360.7637
972.3240, 364.2520
973.4410, 354.7539
974.5580, 443.9727
975.6750, 339.5645
976.7920, 587.8438
977.9090, 472.4238
979.0250, 781.0195
980.1410, 677.6289
981.2580, 550.2539
982.3740, 483.8906
983.4890, 654.5410
984.6050, 470.2070
985.7200, 537.8867
986.8360, 147.5801
987.9510, 350.2891
989.0660, 417.2734
990.1810, 714.0117
991.2950, 504.7598
992.4100, 558.5254
993.5240, 786.3066
994.6390, 616.0996
995.7530, 697.9062
996.8660, 676.9023
997.9800, 635.5664
999.0940, 632.4160
1000.207, 566.8848
1001.320, 625.8008
1002.433, 869.6992
1003.546, 847.6113
1004.659, 842.5371
1005.772, 1046.480
1006.884, 1013.436
1007.996, 1077.406
1009.108, 981.3945
1010.220, 1056.396
1011.332, 1055.416
1012.444, 1164.479
1013.555, 1467.225
1014.666, 1426.287
1015.777, 1484.361
1016.888, 1427.592
1017.999, 1554.318
1019.110, 1736.826
1020.220, 1793.965
1021.331, 1978.119
1022.441, 2096.285
1023.551, 1889.527
1024.661, 2085.727
1025.770, 1908.934
1026.880, 2246.496
1027.989, 2304.906
1029.098, 2311.191
1030.207, 2385.289
1031.316, 2137.602
1032.425, 2625.922
1033.533, 2348.262
1034.642, 2575.613
1035.750, 2738.980
1036.858, 3143.359
1037.966, 3198.750
1039.073, 3795.195
1040.181, 3917.621
1041.288, 4518.082
1042.396, 4977.406
1043.503, 5795.273
1044.610, 6858.566
1045.716, 7790.074
1046.823, 8652.586
1047.929, 9759.113
1049.036, 11203.67
1050.142, 12694.25
1051.248, 13695.83
1052.353, 14768.44
1053.459, 15653.09
1054.564, 15968.77
1055.670, 15605.45
1056.775, 14821.57
1057.880, 14212.61
1058.985, 12936.44
1060.089, 11686.27
1061.194, 10530.12
1062.298, 9392.465
1063.402, 8107.852
1064.506, 7250.750
1065.610, 6300.730
1066.713, 5279.754
1067.817, 5039.836
1068.920, 4125.977
1070.023, 3454.320
1071.126, 3139.477
1072.229, 2601.637
1073.332, 2311.812
1074.435, 1990.992
1075.537, 1636.180
1076.639, 1385.379
1077.741, 1356.586
1078.843, 1275.801
1079.945, 905.0273
1081.046, 948.2656
1082.148, 758.5078
1083.249, 856.7617
1084.350, 1027.020
1085.451, 843.5156
1086.551, 857.7930
1087.652, 832.0781
1088.752, 523.3633
1089.853, 600.9336
1090.953, 796.2500
1092.053, 366.5820
1093.152, 582.9180
1094.252, 593.2578
1095.351, 437.6055
1096.451, 503.9609
1097.550, 610.3242
1098.649, 558.6914
1099.748, 521.0664
1100.846, 763.4453
1101.945, 438.8359
1103.043, 485.2305
1104.141, 268.6289
1105.239, 217.0352
1106.337, 333.4492
1107.434, 276.2891
1108.532, 285.7422
1109.629, 409.2109
1110.726, 447.9414
1111.823, 439.4180
1112.920, 549.8984
1114.017, 313.3906
1115.113, 374.8789
1116.210, 406.3789
1117.306, 188.8828
1118.402, 123.3867
1119.498, 288.9062
1120.593, 267.4336
1121.689, 355.9688
1122.784, 693.5117
1123.879, 753.0586
1124.974, 734.7500
1126.069, 551.1641
1127.164, 590.7227
1128.259, 325.2852
1129.353, 285.8555
1130.447, 77.42188
1131.541, 119.0000
1132.635, 1.617188
1133.729, 183.2305
1134.822, 243.8516
1135.916, 182.4766
1137.009, 203.1055
1138.102, 200.7344
1139.195, 235.3672
1140.288, 266.0078
1141.380, 172.6445
1142.473, 148.2891
1143.565, 151.0625
1144.657, 135.4805
1145.749, 152.0312
1146.841, 223.5469
1147.932, 198.9336
1149.024, 83.48047
1150.115, 144.9102
1151.206, 40.33203
1152.297, 186.7500
1153.388, 218.1797
1154.479, 285.6016
1155.569, 80.03516
1156.659, 294.4727
1157.750, 8.9844003E-02
1158.839, 96.65234
1159.929, 157.7305
1161.019, 8.890625
1162.108, 77.48047
1163.198, 186.8516
1164.287, 196.2344
1165.376, 376.6133
1166.465, 267.0039
1167.553, 129.3828
1168.642, 145.7617
1169.730, 11.60547
1170.818, 56.52344
1171.906, 120.0977
1172.994, 164.7852
1174.082, 140.7578
1175.170, 51.42969
1176.257, 53.66797
1177.344, 63.77344
1178.431, 195.8750
1179.518, 72.97656
1180.605, 42.07812
1181.691, 612.1836
1182.778, 67.28516
1183.864, 212.3867
1184.950, 141.4883
1186.036, 304.4141
1187.122, 198.4805
1188.207, 12.33594
1189.292, 131.1445
1190.378, 223.9531
1191.463, 286.7617
1192.548, 272.6836
1193.632, 227.4883
1194.717, 277.2891
1195.801, 210.0898
1196.886, 260.8867
1197.970, 102.6836
1199.054, 120.4727
1200.137, 17.73438
1201.221, 185.0312
1202.305, 45.79688
1203.388, 250.6094
1204.471, 180.3711
1205.554, 641.1250
1206.637, 292.8750
1207.719, 372.6250
1208.802, 181.3711
1209.884, 105.1133
1210.966, 179.8555
1212.048, 96.59375
1213.130, 324.3242
1214.212, 106.0547
1215.293, 0.7812500
1216.374, 190.4922
1217.456, 181.2031
1218.536, 380.9062
1219.617, 1.691406
1220.698, 355.3750
1221.778, 104.0508
1222.859, 322.7266
1223.939, 320.3984
1225.019, 119.0664
1226.099, 196.7305
1227.178, 139.4180
1228.258, 40.10938
1229.337, 213.7930
1230.417, 312.4727
1231.496, 356.1523
1232.574, 243.8242
1233.653, 394.4922
1234.732, 326.1562
1235.810, 347.8203
1236.888, 61.52344
1237.966, 186.0859
1239.044, 130.6875
1240.122, 25.28125
1241.199, 178.8750
1242.277, 186.4609
1243.354, 256.0469
1244.431, 537.6211
1245.508, 321.1992
1246.585, 438.7695
1247.661, 273.3398
1248.738, 93.47266
1249.814, 218.0352
1250.890, 337.5898
1251.966, 174.1406
1253.042, 284.6875
1254.117, 259.2578
1255.193, 116.8281
1256.268, 256.3906
1257.343, 243.9453
1258.418, 360.5000
1259.493, 367.0547
1260.567, 425.6016
1261.642, 136.4883
1262.716, 315.9883
1263.790, 216.5195
1264.864, 54.05078
1265.938, 55.57812
1267.011, 97.10156
1268.085, 132.6406
1269.158, 152.1719
1270.231, 206.9414
1271.304, 620.2305
1272.377, 287.3398
1273.450, 384.8789
1274.522, 381.3516
1275.594, 147.8594
1276.666, 176.3594
1277.738, 288.7227
1278.810, 16.78125
1279.882, 153.6992
1280.953, 107.1797
1282.025, 168.6562
1283.096, 320.1328
1284.167, 423.6172
1285.238, 436.0977
1286.308, 515.5742
1287.379, 380.7383
1288.449, 279.0664
1289.519, 268.0742
1290.589, 277.1953
1291.659, 136.6562
1292.729, 318.1172
1293.798, 216.5742
1294.868, 19.03125
1295.937, 335.4805
1297.006, 557.9336
1298.075, 295.3789
1299.143, 655.7891
1300.212, 425.2305
1301.280, 446.6445
1302.348, 401.2148
