##NAMES=Actinolite
##RRUFFID=R060045
##IDEAL CHEMISTRY=Ca_2_(Mg_4.5-2.5_Fe^2+^_0.5-2.5_)Si_8_O_22_(OH)_2_
##LOCALITY=Colorado, USA
##OWNER=RRUFF
##SOURCE=University of Arizona Mineral Museum
##DESCRIPTION=Green prismatic crystals in a radial arrangement
##STATUS=The identification of this mineral has been confirmed by X-ray diffraction and chemical analysis
##URL=rruff.info/R060045
##MEASURED CHEMISTRY=(Ca_1.99_Na_0.01_)_Σ=2_(Mg_4.20_Fe^2+^_0.59_Al_0.09_Fe^3+^_0.08_Mn_0.02_Ti_0.01_)_Σ=5_(Si_7.82_Al_0.18_)_Σ=8_O_22_(OH)_2_
##PIN_ID=M00155
##ORIENTATION=Laser parallel to b* (0 1 0). Fiducial mark perpendicular to laser is parallel to c [0 0 1]
137.8140, 0.0000000E+00
139.0430, 234.0059
140.2710, 4.060547
141.5000, 37.05664
142.7280, 37.95996
143.9560, 25.54590
145.1840, 201.7588
146.4120, 532.8496
147.6390, 818.4150
148.8670, 1281.402
150.0940, 2057.900
151.3210, 3563.174
152.5490, 5953.637
153.7750, 9633.828
155.0020, 13811.71
156.2290, 16233.22
157.4550, 13962.91
158.6810, 9275.420
159.9080, 5898.445
161.1340, 3633.766
162.3590, 2651.218
163.5850, 2054.665
164.8110, 1751.994
166.0360, 2035.111
167.2610, 2233.939
168.4860, 2939.413
169.7110, 3892.663
170.9360, 5498.523
172.1610, 7995.080
173.3850, 11998.42
174.6100, 16616.75
175.8340, 19434.02
177.0580, 17496.22
178.2820, 12526.39
179.5050, 8253.523
180.7290, 5418.652
181.9520, 3553.811
183.1760, 2437.027
184.3990, 1529.315
185.6220, 1121.691
186.8450, 778.1543
188.0670, 933.7080
189.2900, 448.3506
190.5120, 547.0791
191.7340, 348.8945
192.9560, 308.7988
194.1780, 277.7900
195.4000, 198.8672
196.6220, 456.0254
197.8430, 485.2627
199.0640, 502.5723
200.2860, 629.9492
201.5070, 690.4551
202.7270, 968.7441
203.9480, 1082.578
205.1690, 1287.029
206.3890, 1233.377
207.6090, 1760.976
208.8290, 2403.621
210.0490, 2785.074
211.2690, 4371.600
212.4890, 4890.096
213.7080, 6561.582
214.9280, 8318.092
216.1470, 10898.66
217.3660, 14201.28
218.5850, 17367.98
219.8030, 19308.81
221.0220, 19341.82
222.2400, 17100.04
223.4590, 13823.49
224.6770, 10792.14
225.8950, 7812.187
227.1120, 5944.476
228.3300, 4359.891
229.5480, 3361.438
230.7650, 2410.263
231.9820, 1802.223
233.1990, 1498.249
234.4160, 1004.339
235.6330, 762.4854
236.8490, 653.6875
238.0660, 467.9346
239.2820, 426.2207
240.4980, 385.5400
241.7140, 343.9160
242.9300, 297.3359
244.1460, 462.7793
245.3610, 536.2812
246.5770, 555.9219
247.7920, 576.4883
249.0070, 582.3555
250.2220, 497.1035
251.4370, 413.8936
252.6510, 357.7920
253.8660, 398.4971
255.0800, 220.3047
256.2940, 259.1152
257.5080, 57.93066
258.7220, 344.7480
259.9360, 333.5674
261.1490, 298.3896
262.3630, 178.2129
263.5760, 55.03711
264.7890, 108.1387
266.0020, 146.1943
267.2150, 190.1504
268.4270, 194.6670
269.6400, 197.8467
270.8520, 138.0273
272.0640, 171.2100
273.2760, 179.3945
274.4880, 240.6045
275.7000, 1.929688
276.9120, 48.58789
278.1230, 48.01953
279.3340, 36.22363
280.5450, 34.41895
281.7560, 165.6045
282.9670, 226.7969
284.1780, 293.6055
285.3880, 343.5859
286.5980, 413.7432
287.8090, 445.6494
289.0190, 514.9619
290.2290, 645.2295
291.4380, 727.1836
292.6480, 864.0547
293.8570, 980.9023
295.0670, 1140.467
296.2760, 1287.281
297.4850, 1418.253
298.6930, 1691.485
299.9020, 1605.662
301.1110, 1520.292
302.3190, 1286.456
303.5270, 1039.025
304.7350, 908.7969
305.9430, 617.9736
307.1510, 380.4854
308.3580, 371.5850
309.5660, 404.7900
310.7730, 330.4385
311.9800, 227.4492
313.1870, 343.0254
314.3940, 162.0352
315.6010, 206.9795
316.8070, 249.9551
318.0130, 293.3096
319.2200, 299.0352
320.4260, 313.2412
321.6310, 328.3896
322.8370, 430.6182
324.0430, 481.5000
325.2480, 696.9629
326.4540, 784.9482
327.6590, 963.5527
328.8640, 1171.873
330.0680, 1180.679
331.2730, 1375.707
332.4780, 1280.258
333.6820, 1385.464
334.8860, 1440.057
336.0900, 1613.366
337.2940, 1748.336
338.4980, 1680.573
339.7010, 1876.859
340.9050, 1755.095
342.1080, 1467.329
343.3110, 1347.263
344.5140, 1284.018
345.7170, 1248.149
346.9200, 1069.331
348.1220, 1094.369
349.3240, 1137.257
350.5270, 1072.322
351.7290, 1149.117
352.9310, 866.9404
354.1320, 867.6318
355.3340, 840.2031
356.5350, 690.7324
357.7370, 717.1133
358.9380, 605.6963
360.1390, 834.3789
361.3400, 760.3643
362.5400, 837.3086
363.7410, 946.6611
364.9410, 1033.257
366.1410, 1044.038
367.3410, 1038.636
368.5410, 944.2314
369.7410, 1056.824
370.9400, 949.4121
372.1400, 843.9961
373.3390, 962.5723
374.5380, 897.1445
375.7370, 814.7070
376.9360, 889.2598
378.1350, 993.8047
379.3330, 1052.340
380.5310, 997.8633
381.7300, 1258.379
382.9280, 1399.883
384.1260, 1836.377
385.3230, 2487.859
386.5210, 3019.330
387.7180, 3621.789
388.9160, 4060.236
390.1130, 4410.672
391.3100, 4309.092
392.5060, 3807.500
393.7030, 3216.895
394.9000, 2607.275
396.0960, 2149.641
397.2920, 1792.994
398.4880, 1715.332
399.6840, 1255.656
400.8800, 1361.963
402.0750, 1382.258
403.2710, 960.6816
404.4660, 1158.945
405.6610, 1358.195
406.8560, 1260.430
408.0510, 1326.646
409.2450, 1603.871
410.4400, 1478.266
411.6340, 1496.418
412.8280, 1474.242
414.0220, 1507.850
415.2160, 1260.506
416.4100, 1117.615
417.6030, 752.0977
418.7970, 783.1562
419.9900, 494.0840
421.1830, 636.6172
422.3760, 322.0781
423.5690, 127.1133
424.7610, 246.4238
425.9540, 232.4355
427.1460, 82.43555
428.3380, 89.43555
429.5300, 252.2363
430.7220, 463.3105
431.9140, 365.3223
433.1050, 464.3789
434.2970, 287.3867
435.4880, 302.0176
436.6790, 438.3828
437.8700, 267.3672
439.0610, 155.3418
440.2510, 196.3086
441.4420, 71.25977
442.6320, 12.63086
443.8220, 48.26953
445.0120, 39.84961
446.2020, 23.36328
447.3910, 93.59570
448.5810, 43.11328
449.7700, 118.1953
450.9600, 58.39258
452.1490, 15.03711
453.3370, 116.5195
454.5260, 153.0645
455.7150, 129.2383
456.9030, 55.58008
458.0910, 5.923828
459.2800, 5.853516
460.4670, 81.16797
461.6550, 1.169922
462.8430, 42.87109
464.0300, 118.9766
465.2180, 88.18945
466.4050, 17.50781
467.5920, 21.16797
468.7790, 40.81445
469.9650, 61.39453
471.1520, 29.97070
472.3380, 50.51367
473.5250, 41.02930
474.7110, 70.51758
475.8970, 34.98242
477.0820, 67.41797
478.2680, 124.8301
479.4540, 45.21680
480.6390, 221.5781
481.8240, 132.9160
483.0090, 227.2344
484.1940, 190.5293
485.3780, 14.81641
486.5630, 58.06250
487.7470, 39.28320
488.9320, 205.5156
490.1160, 278.7344
491.3000, 146.9336
492.4830, 12.88672
493.6670, 100.2422
494.8500, 59.65039
496.0340, 105.6094
497.2170, 238.3281
498.4000, 38.26758
499.5820, 45.22266
500.7650, 229.1465
501.9480, 133.0703
503.1300, 0.9726560
504.3120, 23.85547
505.4940, 47.70703
506.6760, 238.5312
507.8580, 114.3379
509.0390, 258.1328
510.2210, 186.9102
511.4020, 277.7090
512.5830, 403.4902
513.7640, 458.2520
514.9450, 436.0039
516.1250, 467.7422
517.3060, 249.4629
518.4860, 285.1660
519.6660, 323.8711
520.8460, 436.5566
522.0260, 398.2344
523.2060, 555.8926
524.3850, 448.5312
525.5650, 638.1523
526.7440, 681.7754
527.9230, 679.3828
529.1020, 696.2188
530.2810, 438.5352
531.4590, 554.0781
532.6380, 503.6035
533.8160, 352.1074
534.9940, 424.5918
536.1720, 390.0547
537.3500, 331.5273
538.5270, 262.9746
539.7050, 192.4043
540.8820, 335.8105
542.0590, 255.1973
543.2360, 312.5918
544.4130, 135.9668
545.5900, 306.3242
546.7660, 190.6895
547.9430, 200.0352
549.1190, 277.3613
550.2950, 279.7090
551.4710, 183.0586
552.6470, 162.4258
553.8220, 285.8223
554.9980, 431.2363
556.1730, 240.6934
557.3480, 137.1895
558.5230, 389.6953
559.6980, 170.2148
560.8730, 276.7617
562.0470, 76.28711
563.2220, 315.7910
564.3960, 334.2793
565.5700, 108.7461
566.7440, 297.1914
567.9170, 396.6133
569.0910, 282.0176
570.2640, 50.39648
571.4380, 164.7480
572.6110, 191.0781
573.7840, 169.3848
574.9570, 209.6719
576.1290, 247.4141
577.3020, 191.1777
578.4740, 335.3965
579.6460, 332.5977
580.8180, 336.7715
581.9900, 410.9258
583.1620, 142.9375
584.3330, 275.1152
585.5040, 273.9297
586.6760, 86.29297
587.8470, 119.3184
589.0180, 206.1992
590.1880, 209.7344
591.3590, 250.3008
592.5290, 231.9023
593.7000, 307.5312
594.8700, 142.7500
596.0400, 142.6348
597.2090, 195.9805
598.3790, 18.91406
599.5490, 221.9297
600.7180, 256.9199
601.8870, 149.5254
603.0560, 273.8984
604.2250, 185.4824
605.3940, 126.2637
606.5620, 145.9551
607.7300, 180.1230
608.8990, 220.8711
610.0670, 290.3242
611.2350, 326.5996
612.4020, 317.1484
613.5700, 281.1992
614.7370, 525.0195
615.9050, 541.3047
617.0720, 672.9199
618.2390, 832.1367
619.4060, 655.6211
620.5720, 773.4336
621.7390, 755.9609
622.9050, 972.4473
624.0710, 1069.943
625.2370, 1046.625
626.4030, 1055.391
627.5690, 1007.549
628.7340, 914.5938
629.9000, 957.4883
631.0650, 1308.062
632.2300, 1079.549
633.3950, 1137.613
634.5600, 1329.098
635.7240, 1251.094
636.8890, 1517.307
638.0530, 1625.834
639.2170, 1741.416
640.3810, 1990.904
641.5450, 2149.912
642.7080, 2489.336
643.8720, 2647.164
645.0350, 2898.221
646.1980, 3284.680
647.3610, 3601.303
648.5240, 3949.303
649.6870, 3983.990
650.8490, 4787.822
652.0120, 4810.492
653.1740, 5131.865
654.3360, 5805.484
655.4980, 6210.410
656.6600, 6926.277
657.8210, 7691.688
658.9830, 8629.770
660.1440, 10559.80
661.3050, 12396.58
662.4660, 14830.94
663.6270, 17948.07
664.7870, 22229.51
665.9480, 27432.84
667.1080, 33516.14
668.2680, 39692.45
669.4280, 44726.36
670.5880, 44707.25
671.7480, 44688.13
672.9070, 43304.16
674.0670, 36064.27
675.2260, 29174.32
676.3850, 22764.00
677.5440, 17617.79
678.7030, 13853.57
679.8610, 10897.34
681.0200, 8881.094
682.1780, 7380.572
683.3360, 5981.293
684.4940, 5192.910
685.6520, 4214.160
686.8090, 3890.832
687.9670, 3117.699
689.1240, 3123.119
690.2810, 2606.742
691.4380, 2116.010
692.5950, 2089.838
693.7520, 1826.408
694.9080, 1553.424
696.0650, 1446.547
697.2210, 1567.912
698.3770, 1137.414
699.5330, 1051.875
700.6880, 944.3398
701.8440, 705.3086
702.9990, 713.7305
704.1550, 804.1367
705.3100, 431.2402
706.4650, 597.6094
707.6190, 384.9609
708.7740, 400.2969
709.9290, 463.8184
711.0830, 327.0508
712.2370, 411.3320
713.3910, 459.5469
714.5450, 371.7910
715.6980, 470.0195
716.8520, 268.2285
718.0050, 292.4219
719.1580, 292.5957
720.3110, 233.7539
721.4640, 323.8945
722.6170, 277.8477
723.7700, 357.9707
724.9220, 247.0742
726.0740, 368.7969
727.2260, 263.6543
728.3780, 299.7715
729.5300, 90.87695
730.6810, 232.0078
731.8330, 265.1191
732.9840, 190.2324
734.1350, 280.3359
735.2860, 268.5117
736.4370, 446.7168
737.5880, 181.3906
738.7380, 427.6035
739.8880, 305.8145
741.0390, 404.0117
742.1890, 274.2051
743.3380, 472.4043
744.4880, 359.6328
745.6380, 515.8809
746.7870, 455.1230
747.9360, 605.3535
749.0850, 551.5742
750.2340, 373.7832
751.3830, 350.9824
752.5310, 280.5391
753.6800, 271.3477
754.8280, 226.5117
755.9760, 244.6680
757.1240, 281.8105
758.2720, 216.9395
759.4190, 163.0547
760.5670, 126.9023
761.7140, 154.7012
762.8610, 13.67188
764.0080, 159.3730
765.1550, 75.40820
766.3020, 130.5684
767.4480, 2.634766
768.5950, 89.26953
769.7410, 102.1602
770.8870, 357.0371
772.0330, 45.91406
773.1780, 5.779297
774.3240, 134.6484
775.4690, 47.45898
776.6140, 127.6133
777.7590, 143.1445
778.9040, 40.10742
780.0490, 55.59570
781.1940, 60.71680
782.3380, 78.92578
783.4820, 128.5625
784.6260, 25.18945
785.7700, 14.19727
786.9140, 14.38672
788.0580, 137.0488
789.2010, 12.41992
790.3450, 56.87500
791.4880, 23.68750
792.6310, 2.718750
793.7730, 3.103516
794.9160, 30.46875
796.0590, 65.18164
797.2010, 120.1113
798.3430, 29.60547
799.4850, 24.64258
800.6270, 72.87500
801.7690, 8.095703
802.9100, 72.69922
804.0520, 18.44922
805.1930, 14.58398
806.3340, 102.7031
807.4750, 137.8145
808.6160, 110.9258
809.7560, 60.00977
810.8970, 34.08984
812.0370, 45.20898
813.1770, 83.78320
814.3170, 111.2148
815.4570, 169.2031
816.5960, 260.1836
817.7360, 222.1543
818.8750, 99.88477
820.0140, 145.0117
821.1530, 10.09961
822.2920, 98.23047
823.4310, 178.5742
824.5690, 34.37109
825.7070, 166.8438
826.8460, 194.8438
827.9840, 38.47656
829.1220, 48.83008
830.2590, 109.7793
831.3970, 100.6152
832.5340, 119.0762
833.6710, 193.3906
834.8080, 71.84961
835.9450, 144.3047
837.0820, 283.7520
838.2190, 287.1934
839.3550, 288.6328
840.4910, 318.2773
841.6270, 206.4922
842.7630, 324.9160
843.8990, 261.3340
845.0350, 330.7461
846.1700, 302.1543
847.3060, 368.5586
848.4410, 448.9609
849.5760, 352.3555
850.7100, 131.7480
851.8450, 436.1367
852.9800, 318.5176
854.1140, 358.8984
855.2480, 510.2715
856.3820, 400.6406
857.5160, 578.0078
858.6500, 722.3711
859.7830, 657.7305
860.9170, 732.0898
862.0500, 485.4434
863.1830, 488.7949
864.3160, 262.1426
865.4480, 260.4902
866.5810, 225.6074
867.7130, 166.9453
868.8460, 531.2832
869.9780, 235.6133
871.1100, 420.9434
872.2410, 246.2715
873.3730, 275.5938
874.5050, 484.9160
875.6360, 278.2363
876.7670, 110.5547
877.8980, 310.8691
879.0290, 235.1797
880.1590, 73.48633
881.2900, 197.7910
882.4200, 146.0938
883.5500, 257.4316
884.6800, 261.7676
885.8100, 153.1016
886.9400, 150.4668
888.0690, 270.8691
889.1990, 242.2695
890.3280, 270.6641
891.4570, 418.0723
892.5860, 551.4766
893.7140, 192.8945
894.8430, 348.3066
895.9710, 459.7246
897.1000, 191.1172
898.2280, 425.5566
899.3560, 353.7969
900.4830, 580.2344
901.6110, 490.4395
902.7380, 688.3652
903.8660, 602.3281
904.9930, 576.6035
906.1200, 632.9414
907.2460, 679.4023
908.3730, 837.5195
909.5000, 771.0840
910.6260, 963.5430
911.7520, 1055.793
912.8780, 930.0469
914.0040, 1001.529
915.1290, 1237.314
916.2550, 1388.531
917.3800, 1534.055
918.5050, 1818.379
919.6300, 1944.895
920.7550, 2212.002
921.8800, 2769.537
923.0040, 3296.557
924.1290, 3815.418
925.2530, 4221.432
926.3770, 5000.727
927.5010, 5633.766
928.6250, 6008.484
929.7480, 6009.248
930.8720, 5817.461
931.9950, 5267.990
933.1180, 4390.551
934.2410, 3808.361
935.3640, 3124.586
936.4860, 2652.021
937.6090, 2190.137
938.7310, 2044.352
939.8530, 1772.584
940.9750, 1679.865
942.0970, 1495.537
943.2180, 1400.232
944.3400, 1471.936
945.4610, 1636.477
946.5820, 1614.922
947.7030, 1442.420
948.8240, 1267.281
949.9450, 1350.012
951.0650, 989.7910
952.1860, 830.6289
953.3060, 961.4746
954.4260, 797.5820
955.5460, 534.4766
956.6650, 887.3223
957.7850, 629.6699
958.9040, 420.5859
960.0230, 531.2988
961.1420, 614.4512
962.2610, 492.3906
963.3800, 497.6777
964.4990, 290.3516
965.6170, 387.3184
966.7350, 421.8281
967.8530, 251.2227
968.9710, 336.2148
970.0890, 329.2109
971.2070, 362.2246
972.3240, 247.2461
973.4410, 141.2754
974.5580, 28.31445
975.6750, 349.3652
976.7920, 109.4238
977.9090, 234.4941
979.0250, 175.5723
980.1410, 147.6602
981.2580, 406.7598
982.3740, 164.8691
983.4890, 96.98633
984.6050, 245.1133
985.7200, 283.2520
986.8360, 484.4004
987.9510, 67.55859
989.0660, 325.7246
990.1810, 107.9023
991.2950, 265.0918
992.4100, 317.2871
993.5240, 204.4961
994.6390, 389.7129
995.7530, 379.9434
996.8660, 449.1816
997.9800, 454.4277
999.0940, 763.6836
1000.207, 679.9512
1001.320, 853.2324
1002.433, 869.5215
1003.546, 815.8203
1004.659, 644.1289
1005.772, 745.4473
1006.884, 745.7754
1007.996, 859.1855
1009.108, 869.5332
1010.220, 868.8945
1011.332, 1071.264
1012.444, 908.6426
1013.555, 1059.094
1014.666, 831.4922
1015.777, 1447.906
1016.888, 1063.578
1017.999, 1279.008
1019.110, 1406.543
1020.220, 1358.912
1021.331, 1412.375
1022.441, 1312.844
1023.551, 1399.320
1024.661, 1275.908
1025.770, 1531.404
1026.880, 1682.303
1027.989, 1895.812
1029.098, 1650.709
1030.207, 1807.234
1031.316, 1729.527
1032.425, 1754.070
1033.533, 1659.631
1034.642, 1802.199
1035.750, 1934.777
1036.858, 1924.404
1037.966, 2084.068
1039.073, 2490.521
1040.181, 2609.826
1041.288, 2929.490
1042.396, 3598.164
1043.503, 4029.848
1044.610, 4423.541
1045.716, 5383.812
1046.823, 6163.580
1047.929, 7272.021
1049.036, 8608.816
1050.142, 10041.62
1051.248, 11892.66
1052.353, 13430.04
1053.459, 15393.68
1054.564, 17338.53
1055.670, 18729.50
1056.775, 19543.38
1057.880, 19105.30
1058.985, 17379.29
1060.089, 15258.23
1061.194, 13161.20
1062.298, 11327.17
1063.402, 9784.672
1064.506, 8227.141
1065.610, 7215.158
1066.713, 6331.182
1067.817, 5440.111
1068.920, 4767.160
1070.023, 3910.215
1071.126, 3297.277
1072.229, 2797.371
1073.332, 2330.371
1074.435, 1943.020
1075.537, 1776.486
1076.639, 1572.602
1077.741, 1576.717
1078.843, 1247.893
1079.945, 1241.025
1081.046, 1210.264
1082.148, 1088.428
1083.249, 1145.988
1084.350, 1176.488
1085.451, 1286.670
1086.551, 1305.852
1087.652, 1164.508
1088.752, 1079.053
1089.853, 725.9883
1090.953, 724.2422
1092.053, 440.4980
1093.152, 315.7559
1094.252, 477.0625
1095.351, 333.3691
1096.451, 470.6934
1097.550, 416.0332
1098.649, 340.3770
1099.748, 402.7461
1100.846, 358.3730
1101.945, 379.5586
1103.043, 346.9668
1104.141, 223.3730
1105.239, 166.8223
1106.337, 184.5137
1107.434, 156.6035
1108.532, 257.0156
1109.629, 341.4258
1110.726, 408.8340
1111.823, 438.2461
1112.920, 449.6758
1114.017, 322.0664
1115.113, 435.4766
1116.210, 314.8887
1117.306, 334.2969
1118.402, 195.7070
1119.498, 187.1191
1120.593, 321.5273
1121.689, 223.9375
1122.784, 397.3457
1123.879, 132.7559
1124.974, 112.1641
1126.069, 234.5703
1127.164, 26.97852
1128.259, 179.3828
1129.353, 158.7871
1130.447, 144.1875
1131.541, 243.5898
1132.635, 213.9922
1133.729, 162.3926
1134.822, 384.7949
1135.916, 104.1973
1137.009, 332.5957
1138.102, 139.9961
1139.195, 5.392578
1140.288, 86.78711
1141.380, 221.1816
1142.473, 163.5742
1143.565, 164.9629
1144.657, 13.35352
1145.749, 33.73828
1146.841, 81.12305
1147.932, 143.4941
1149.024, 34.80469
1150.115, 11.10547
1151.206, 120.5996
1152.297, 137.3770
1153.388, 136.7676
1154.479, 234.9082
1155.569, 41.95312
1156.659, 61.15234
1157.750, 29.74219
1158.839, 205.3359
1159.929, 12.58789
1161.019, 122.4727
1162.108, 81.47266
1163.198, 209.5312
1164.287, 123.5312
1165.376, 72.52539
1166.465, 54.51758
1167.553, 86.50977
1168.642, 19.50391
1169.730, 0.4609380
1170.818, 28.58789
1171.906, 98.33398
1172.994, 209.2520
1174.082, 130.1680
1175.170, 61.08008
1176.257, 73.01172
1177.344, 167.8438
1178.431, 26.30664
1179.518, 269.5156
1180.605, 182.3340
1181.691, 19.14453
1182.778, 23.04883
1183.864, 26.47070
1184.950, 112.4746
1186.036, 38.21484
1187.122, 133.9492
1188.207, 154.6797
1189.292, 52.40625
1190.378, 163.1250
1191.463, 120.8398
1192.548, 177.5488
1193.632, 106.2520
1194.717, 277.9512
1195.801, 121.6445
1196.886, 72.33203
1197.970, 8.013672
1199.054, 148.6816
1200.137, 104.3418
1201.221, 114.9961
1202.305, 77.64453
1203.388, 220.7109
1204.471, 41.79492
1205.554, 45.70703
1206.637, 145.7480
1207.719, 170.1973
1208.802, 62.63867
1209.884, 75.07422
1210.966, 50.50391
1212.048, 80.92578
1213.130, 124.6582
1214.212, 187.1816
1215.293, 337.4941
1216.374, 101.6953
1217.456, 108.1094
1218.536, 255.0059
1219.617, 70.11328
1220.698, 288.2129
1221.778, 232.3086
1222.859, 162.3965
1223.939, 320.4766
1225.019, 414.5508
1226.099, 158.3105
1227.178, 148.3691
1228.258, 206.4238
1229.337, 141.4707
1230.417, 289.5078
1231.496, 87.53906
1232.574, 218.5645
1233.653, 422.5820
1234.732, 238.5898
1235.810, 246.5957
1236.888, 299.5879
1237.966, 171.5762
1239.044, 289.5566
1240.122, 222.5293
1241.199, 218.4980
1242.277, 159.4590
1243.354, 178.4121
1244.431, 333.3594
1245.508, 310.2988
1246.585, 400.2344
1247.661, 237.1602
1248.738, 399.0820
1249.814, 304.9941
1250.890, 414.9238
1251.966, 254.8516
1253.042, 132.7871
1254.117, 373.7168
1255.193, 368.6406
1256.268, 490.5586
1257.343, 356.4727
1258.418, 431.3789
1259.493, 444.2773
1260.567, 188.1953
1261.642, 380.1074
1262.716, 356.0605
1263.790, 508.5879
1264.864, 451.4980
1265.938, 630.4023
1267.011, 577.5391
1268.085, 457.1875
1269.158, 498.0039
1270.231, 502.8828
1271.304, 444.7578
1272.377, 537.6191
1273.450, 660.4785
1274.522, 272.2734
1275.594, 595.4609
1276.666, 877.3027
1277.738, 183.8828
1278.810, 592.7148
1279.882, 359.4453
1280.953, 224.3457
1282.025, 526.1562
1283.096, 558.9668
1284.167, 463.7734
1285.238, 462.4688
1286.308, 506.8770
1287.379, 552.6641
1288.449, 512.4570
1289.519, 443.8652
1290.589, 477.8301
1291.659, 354.6738
1292.729, 518.4473
1293.798, 380.2188
1294.868, 473.9844
1295.937, 427.7461
1297.006, 417.6699
1298.075, 365.3984
1299.143, 344.3418
1300.212, 501.4434
1301.280, 562.1836
1302.348, 353.9219
1303.416, 614.6543
1304.484, 428.3848
1305.552, 356.5566
1306.620, 546.2793
