##NAMES=Actinolite
##RRUFFID=R040063
##IDEAL CHEMISTRY=Ca_2_(Mg_4.5-2.5_Fe^2+^_0.5-2.5_)Si_8_O_22_(OH)_2_
##LOCALITY=Harford County, Maryland, USA
##OWNER=RRUFF
##SOURCE=University of Arizona Mineral Museum
##DESCRIPTION=Mass of green acicular to bladed crystals associated with chlorite
##STATUS=The identification of this mineral has been confirmed by X-ray diffraction and chemical analysis
##URL=rruff.info/R040063
##MEASURED CHEMISTRY=(Ca_1.90_Na_0.06_Mn_0.04_)_Σ=2_(Mg_4.35_Fe_0.65_)_Σ=5_(Si_7.92_Al_0.08_)_Σ=8_O_22_(OH)_2_
##PIN_ID=S00132
##ORIENTATION=Laser parallel to [1 0 1]. Fiducial mark perpendicular to laser is parallel to b* (0 1 0)
128.840, 0.000
130.228, 1.410
131.615, 35.044
133.003, 7.881
134.390, 51.411
135.777, 80.996
137.164, 137.663
138.550, 185.927
139.937, 226.958
141.323, 179.658
142.709, 217.739
144.094, 66.966
145.480, 6.152
146.865, 1.851
148.250, 6.945
149.635, 93.585
151.019, 361.923
152.403, 828.825
153.788, 1507.194
155.171, 2185.953
156.555, 2685.043
157.939, 2793.420
159.322, 2655.044
160.705, 2144.888
162.088, 1582.927
163.470, 1045.140
164.853, 709.510
166.235, 564.640
167.617, 570.980
168.998, 745.737
170.380, 1034.485
171.761, 1561.156
173.142, 2116.763
174.523, 2818.317
175.904, 3260.826
177.284, 3225.298
178.664, 2895.743
180.044, 2336.165
181.424, 1747.570
182.803, 1194.966
184.183, 794.354
185.562, 546.739
186.940, 342.125
188.319, 232.514
189.698, 171.909
191.076, 136.311
192.454, 116.722
193.831, 59.143
195.209, 71.574
196.586, 141.017
197.963, 104.473
199.340, 219.942
200.717, 267.426
202.093, 379.331
203.470, 511.946
204.846, 691.012
206.221, 899.996
207.597, 1189.806
208.972, 1467.613
210.347, 1862.236
211.722, 2218.929
213.097, 2809.661
214.472, 3664.428
215.846, 4676.237
217.220, 5824.079
218.594, 6884.954
219.967, 7958.864
221.341, 8346.812
222.714, 8564.795
224.087, 8402.818
225.460, 8350.881
226.832, 8428.978
228.204, 8467.114
229.577, 8525.288
230.948, 8133.499
232.320, 7451.743
233.692, 6330.022
235.063, 5191.336
236.434, 4148.681
237.805, 3331.058
239.175, 2685.467
240.545, 2364.905
241.916, 2257.373
243.286, 2278.870
244.655, 2507.394
246.025, 2620.946
247.394, 2886.524
248.763, 2846.128
250.132, 2793.753
251.501, 2484.398
252.869, 2196.061
254.237, 1902.741
255.605, 1629.440
256.973, 1477.157
258.340, 1255.892
259.708, 1150.644
261.075, 1054.414
262.442, 939.200
263.808, 720.003
265.175, 604.823
266.541, 489.659
267.907, 329.510
269.273, 278.378
270.639, 131.261
272.004, 127.160
273.369, 4.073
274.734, 74.999
276.099, 95.057
277.463, 78.101
278.828, 37.130
280.192, 122.147
281.556, 93.144
282.919, 47.086
284.283, 17.924
285.646, 33.700
287.009, 49.443
288.372, 3.814
289.734, 24.122
291.097, 99.623
292.459, 158.151
293.821, 171.129
295.183, 287.766
296.544, 370.085
297.905, 458.563
299.266, 573.155
300.627, 588.866
301.988, 666.681
303.348, 579.565
304.709, 548.536
306.069, 444.553
307.428, 405.625
308.788, 345.748
310.147, 313.917
311.507, 185.115
312.865, 178.363
314.224, 81.645
315.583, 96.965
316.941, 112.305
318.299, 148.671
319.657, 85.061
321.015, 94.473
322.372, 44.905
323.729, 83.357
325.086, 37.828
326.443, 60.316
327.800, 51.821
329.156, 33.341
330.512, 112.874
331.868, 114.414
333.224, 153.958
334.579, 245.508
335.935, 286.063
337.290, 406.624
338.645, 426.190
339.999, 586.763
341.354, 717.341
342.708, 824.926
344.062, 994.517
345.416, 1181.114
346.769, 1373.717
348.123, 1470.326
349.476, 1603.941
350.829, 1620.563
352.182, 1629.191
353.534, 1601.825
354.887, 1500.465
356.239, 1463.110
357.591, 1428.762
358.942, 1546.419
360.294, 1683.082
361.645, 1991.751
362.996, 2446.426
364.347, 3008.105
365.698, 3583.757
367.048, 4122.340
368.398, 4390.857
369.748, 4407.325
371.098, 4041.783
372.448, 3643.229
373.797, 3229.686
375.146, 2810.150
376.495, 2466.623
377.844, 2186.104
379.192, 2044.593
380.540, 1960.091
381.889, 1981.595
383.236, 2158.108
384.584, 2555.627
385.932, 3041.154
387.279, 3817.688
388.626, 4439.228
389.973, 5121.774
391.319, 5532.327
392.666, 5466.885
394.012, 4963.451
395.358, 4342.021
396.704, 3616.597
398.049, 2874.177
399.394, 2362.764
400.740, 1997.354
402.084, 1886.950
403.429, 1753.550
404.774, 1900.155
406.118, 2088.763
407.462, 2343.375
408.806, 2710.992
410.150, 3045.611
411.493, 3435.236
412.836, 3799.862
414.179, 3847.492
415.522, 3663.125
416.865, 3393.761
418.207, 2872.400
419.549, 2504.041
420.891, 2069.685
422.233, 1674.332
423.575, 1354.980
424.916, 1140.631
426.257, 1029.285
427.598, 970.939
428.939, 1019.602
430.279, 1133.754
431.619, 1359.659
432.959, 1450.661
434.299, 1644.134
435.639, 1606.860
436.978, 1435.171
438.318, 1107.546
439.657, 931.349
440.996, 696.407
442.334, 475.765
443.673, 299.485
445.011, 248.391
446.349, 170.018
447.687, 144.391
449.024, 4.135
450.361, 75.552
451.699, 4.667
453.036, 56.513
454.372, 18.063
455.709, 8.232
457.045, 58.019
458.381, 79.145
459.717, 22.943
461.053, 29.976
462.388, 15.145
463.724, 38.747
465.059, 15.347
466.394, 56.025
467.728, 59.621
469.063, 47.214
470.397, 51.805
471.731, 46.643
473.065, 25.978
474.398, 50.559
475.732, 25.136
477.065, 47.711
478.398, 41.282
479.731, 48.856
481.063, 102.426
482.396, 121.991
483.728, 64.552
485.060, 144.109
486.391, 154.667
487.723, 117.229
489.054, 150.787
490.385, 107.352
491.716, 96.917
493.047, 91.487
494.377, 51.064
495.708, 102.641
497.038, 110.227
498.368, 113.808
499.697, 87.383
501.027, 186.955
502.356, 196.522
503.685, 207.084
505.014, 306.640
506.342, 379.195
507.671, 441.743
508.999, 582.296
510.327, 658.845
511.655, 748.392
512.982, 902.943
514.310, 965.499
515.637, 1077.245
516.964, 1234.598
518.291, 1306.142
519.617, 1403.681
520.944, 1606.213
522.270, 1647.742
523.596, 1792.264
524.921, 2029.778
526.247, 2131.286
527.572, 2064.795
528.897, 2015.296
530.222, 1870.792
531.547, 1600.285
532.871, 1334.771
534.196, 1074.252
535.520, 1043.727
536.844, 795.195
538.167, 734.656
539.491, 630.109
540.814, 570.555
542.137, 534.994
543.460, 480.425
544.783, 469.848
546.105, 420.263
547.427, 392.417
548.749, 365.647
550.071, 333.461
551.393, 320.844
552.714, 294.219
554.035, 299.586
555.356, 305.944
556.677, 210.293
557.998, 232.634
559.318, 218.966
560.638, 236.290
561.958, 222.604
563.278, 195.910
564.597, 189.207
565.917, 222.495
567.236, 211.773
568.555, 218.043
569.874, 203.303
571.192, 243.553
572.511, 186.795
573.829, 247.027
575.147, 278.249
576.464, 205.462
577.782, 227.665
579.099, 187.858
580.416, 164.042
581.733, 154.216
583.050, 145.379
584.366, 126.533
585.683, 135.677
586.999, 98.811
588.315, 39.934
589.630, 56.043
590.946, 12.138
592.261, 60.788
593.576, 64.776
594.891, 62.826
596.206, 96.923
597.520, 57.081
598.834, 29.283
600.148, 41.522
601.462, 20.786
602.776, 17.991
604.089, 41.388
605.402, 0.248
606.715, 1.139
608.028, 31.276
609.341, 10.851
610.653, 65.218
611.965, 30.756
613.277, 63.674
614.589, 35.180
615.901, 8.670
617.212, 55.136
618.523, 51.601
619.834, 37.039
621.145, 140.452
622.456, 118.865
623.766, 86.249
625.076, 148.639
626.386, 177.018
627.696, 180.387
629.006, 278.744
630.315, 294.091
631.624, 286.428
632.933, 331.753
634.242, 370.230
635.551, 388.558
636.859, 532.380
638.167, 600.662
639.475, 701.933
640.783, 766.348
642.090, 861.597
643.398, 1020.876
644.705, 1107.566
646.012, 1210.782
647.318, 1432.598
648.625, 1534.127
649.931, 1635.569
651.237, 1875.609
652.543, 2024.926
653.849, 2300.413
655.155, 2546.632
656.460, 2897.803
657.765, 3203.700
659.070, 3851.799
660.375, 4437.055
661.679, 5625.131
662.984, 6845.364
664.288, 8657.416
665.592, 11197.854
666.895, 14406.462
668.199, 18245.346
669.502, 21495.719
670.805, 24656.318
672.108, 25094.297
673.411, 24134.285
674.713, 20632.260
676.016, 17230.559
677.318, 13628.572
678.620, 10807.302
679.921, 8455.207
681.223, 6854.093
682.524, 5605.293
683.825, 4717.745
685.126, 4178.597
686.427, 3725.489
687.727, 3374.278
689.028, 3155.092
690.328, 2773.270
691.628, 2538.059
692.927, 2195.003
694.227, 1921.766
695.526, 1689.516
696.825, 1492.254
698.124, 1354.979
699.423, 1242.691
700.721, 1009.392
702.020, 977.079
703.318, 839.755
704.616, 857.418
705.913, 720.068
707.211, 621.707
708.508, 598.333
709.805, 559.947
711.102, 557.549
712.399, 476.139
713.695, 453.716
714.992, 485.282
716.288, 352.836
717.584, 464.377
718.879, 407.908
720.175, 457.426
721.470, 367.932
722.765, 310.427
724.060, 335.909
725.355, 323.380
726.649, 312.840
727.944, 345.288
729.238, 341.725
730.532, 336.151
731.825, 315.565
733.119, 355.492
734.412, 408.360
735.705, 452.742
736.998, 486.112
738.291, 573.471
739.584, 542.819
740.876, 558.156
742.168, 628.484
743.460, 710.794
744.752, 785.606
746.043, 837.656
747.334, 902.600
748.626, 914.065
749.916, 874.260
751.207, 768.560
752.498, 641.704
753.788, 549.334
755.078, 446.696
756.368, 407.277
757.658, 365.147
758.947, 308.181
760.237, 292.735
761.526, 210.891
762.815, 195.952
764.104, 176.364
765.392, 256.073
766.680, 136.041
767.969, 189.419
769.257, 180.379
770.544, 145.571
771.832, 136.568
773.119, 141.432
774.406, 90.274
775.693, 125.861
776.980, 90.009
778.267, 131.151
779.553, 77.208
780.839, 77.340
782.125, 96.467
783.411, 66.590
784.697, 47.707
785.982, 55.820
787.267, 120.928
788.552, 5.032
789.837, 33.129
791.122, 17.779
792.406, 67.294
793.690, 55.363
794.974, 3.427
796.258, 65.485
797.542, 11.461
798.825, 34.422
800.108, 47.592
801.391, 37.398
802.674, 17.416
803.957, 32.450
805.239, 42.509
806.522, 15.596
807.804, 50.698
809.085, 7.168
810.367, 15.029
811.649, 11.113
812.930, 63.734
814.211, 0.423
815.492, 26.416
816.772, 18.749
818.053, 60.073
819.333, 39.108
820.613, 10.313
821.893, 15.527
823.173, 39.752
824.452, 44.001
825.732, 15.724
827.011, 35.553
828.290, 8.150
829.568, 8.149
830.847, 0.455
832.125, 17.763
833.403, 10.919
834.681, 44.599
835.959, 8.722
837.236, 32.049
838.514, 24.609
839.791, 0.735
841.068, 23.081
842.345, 3.563
843.621, 11.794
844.898, 73.844
846.174, 6.519
847.450, 62.115
848.726, 77.750
850.001, 49.383
851.277, 67.017
852.552, 53.650
853.827, 80.283
855.102, 50.921
856.376, 130.559
857.651, 124.197
858.925, 125.835
860.199, 69.474
861.473, 32.113
862.746, 119.754
864.020, 155.394
865.293, 87.036
866.566, 109.679
867.839, 135.323
869.112, 104.969
870.384, 144.615
871.656, 118.263
872.928, 174.912
874.200, 127.562
875.472, 146.215
876.744, 165.870
878.015, 174.529
879.286, 199.199
880.557, 203.872
881.828, 215.559
883.098, 199.265
884.369, 220.972
885.639, 242.682
886.909, 274.394
888.178, 263.109
889.448, 265.834
890.717, 343.561
891.987, 390.295
893.256, 390.033
894.524, 418.777
895.793, 488.525
897.061, 480.277
898.330, 517.041
899.598, 518.821
900.865, 501.612
902.133, 535.437
903.401, 537.024
904.668, 541.199
905.935, 594.155
907.202, 575.139
908.468, 652.152
909.735, 724.189
911.001, 700.246
912.267, 734.323
913.533, 806.424
914.799, 891.544
916.064, 980.677
917.330, 1001.819
918.595, 1210.983
919.860, 1328.154
921.124, 1607.333
922.389, 1761.525
923.653, 2131.728
924.918, 2480.941
926.182, 2881.161
927.445, 3153.387
928.709, 3401.620
929.972, 3529.858
931.236, 3239.102
932.499, 3158.351
933.761, 2588.607
935.024, 2087.878
936.286, 1908.155
937.549, 1521.437
938.811, 1429.724
940.073, 1375.016
941.334, 1289.143
942.596, 1314.422
943.857, 1276.200
945.118, 1333.513
946.379, 1426.831
947.640, 1355.000
948.900, 1390.332
950.161, 1108.628
951.421, 1120.508
952.681, 1033.859
953.940, 923.605
955.200, 890.631
956.459, 883.753
957.719, 796.271
958.978, 832.510
960.236, 698.576
961.495, 750.903
962.753, 674.274
964.012, 678.912
965.270, 672.343
966.527, 668.611
967.785, 681.054
969.043, 659.332
970.300, 677.788
971.557, 641.849
972.814, 625.737
974.071, 612.342
975.327, 693.458
976.583, 617.341
977.840, 596.839
979.095, 688.319
980.351, 579.810
981.607, 563.969
982.862, 579.412
984.117, 594.132
985.372, 613.675
986.627, 560.227
987.882, 623.463
989.136, 576.442
990.390, 642.017
991.644, 669.547
992.898, 625.175
994.152, 700.777
995.405, 633.010
996.659, 691.629
997.912, 812.088
999.165, 784.724
1000.417, 931.369
1001.670, 942.022
1002.922, 1008.684
1004.174, 1038.355
1005.426, 1070.913
1006.678, 1153.664
1007.930, 1254.308
1009.181, 1290.018
1010.432, 1392.735
1011.683, 1421.461
1012.934, 1562.195
1014.185, 1770.936
1015.435, 1879.743
1016.685, 2124.548
1017.935, 2392.312
1019.185, 2684.085
1020.435, 2899.865
1021.684, 3438.668
1022.934, 3715.461
1024.183, 4338.285
1025.432, 4829.094
1026.680, 5320.001
1027.929, 5712.453
1029.177, 5476.417
1030.425, 5155.304
1031.673, 4371.873
1032.921, 3834.480
1034.169, 3165.338
1035.416, 2733.222
1036.663, 2296.091
1037.911, 2133.112
1039.157, 1855.440
1040.404, 1787.328
1041.650, 1790.226
1042.897, 1818.267
1044.143, 1886.055
1045.389, 1974.066
1046.634, 2141.158
1047.880, 2422.483
1049.125, 2660.168
1050.371, 3229.230
1051.615, 3666.860
1052.860, 4144.975
1054.105, 4668.578
1055.349, 5107.284
1056.593, 5676.447
1057.837, 5574.121
1059.081, 5446.279
1060.325, 5132.471
1061.568, 4491.942
1062.812, 4075.979
1064.055, 3651.870
1065.298, 3654.086
1066.540, 3338.275
1067.783, 3216.656
1069.025, 2996.141
1070.267, 2736.306
1071.509, 2180.343
1072.751, 1942.701
1073.993, 1602.832
1075.234, 1431.016
1076.475, 1217.016
1077.716, 1040.181
1078.957, 1038.392
1080.198, 872.630
1081.438, 804.799
1082.679, 727.670
1083.919, 695.600
1085.159, 641.199
1086.398, 613.229
1087.638, 634.457
1088.877, 629.593
1090.116, 592.811
1091.355, 560.978
1092.594, 602.122
1093.833, 541.212
1095.071, 421.509
1096.309, 485.583
1097.547, 386.476
1098.785, 420.610
1100.023, 330.838
1101.260, 366.503
1102.498, 315.720
1103.735, 276.786
1104.972, 357.141
1106.208, 403.222
1107.445, 299.431
1108.681, 344.805
1109.918, 300.009
1111.154, 255.248
1112.389, 356.375
1113.625, 262.528
1114.860, 308.638
1116.096, 334.757
1117.331, 278.875
1118.566, 295.002
1119.800, 261.147
1121.035, 254.391
1122.269, 307.809
1123.503, 273.949
1124.737, 240.118
1125.971, 139.425
1127.205, 217.602
1128.438, 160.910
1129.671, 152.165
1130.904, 153.324
1132.137, 184.611
1133.370, 92.827
1134.602, 158.287
1135.834, 125.754
1137.066, 154.926
1138.298, 99.297
1139.530, 139.618
1140.762, 81.847
1141.993, 88.825
1143.224, 89.306
1144.455, 89.645
1145.686, 117.109
1146.917, 56.302
1148.147, 22.858
1149.377, 77.258
1150.607, 79.537
1151.837, 89.300
1153.067, 23.478
1154.296, 51.385
1155.526, 31.490
1156.755, 46.742
1157.984, 61.035
1159.213, 44.411
1160.441, 64.614
1161.670, 31.815
1162.898, 9.972
1164.126, 13.310
1165.354, 29.493
1166.581, 38.683
1167.809, 52.925
1169.036, 24.989
1170.263, 31.043
1171.490, 25.553
1172.717, 58.216
1173.943, 10.535
1175.170, 12.464
1176.396, 36.476
1177.622, 23.485
1178.848, 45.053
1180.073, 61.132
1181.299, 39.869
1182.524, 34.800
1183.749, 44.663
1184.974, 6.686
1186.199, 22.469
1187.423, 53.458
1188.648, 14.727
1189.872, 11.124
1191.096, 12.090
1192.320, 22.699
1193.543, 5.669
1194.767, 19.296
1195.990, 40.517
1197.213, 19.220
1198.436, 22.869
1199.659, 10.804
1200.881, 69.448
1202.104, 38.848
1203.326, 4.719
1204.548, 21.681
1205.770, 8.848
1206.991, 4.365
1208.213, 1.503
1209.434, 42.580
1210.655, 7.483
1211.876, 6.039
1213.096, 10.484
1214.317, 29.955
1215.537, 0.541
1216.757, 21.941
1217.977, 23.577
1219.197, 3.766
1220.417, 33.245
1221.636, 21.728
1222.855, 69.028
1224.074, 30.873
1225.293, 21.672
1226.512, 17.266
1227.731, 33.782
1228.949, 1.811
1230.167, 18.409
1231.385, 3.239
1232.603, 71.552
1233.820, 24.865
1235.038, 48.854
1236.255, 29.988
1237.472, 43.121
1238.689, 49.235
1239.906, 64.336
1241.122, 21.030
1242.338, 70.208
1243.555, 1.262
1244.771, 57.450
1245.986, 36.683
1247.202, 6.711
1248.417, 42.859
1249.633, 90.893
1250.848, 36.112
1252.063, 108.911
1253.277, 1.147
1254.492, 24.866
1255.706, 62.779
1256.920, 54.680
1258.134, 81.613
1259.348, 76.633
1260.562, 107.560
1261.775, 113.873
1262.988, 109.639
1264.201, 95.943
1265.414, 87.866
1266.627, 66.735
1267.839, 33.057
1269.052, 125.885
1270.264, 89.797
1271.476, 59.515
1272.688, 90.215
1273.899, 60.900
1275.111, 73.856
1276.322, 145.513
1277.533, 66.292
1278.744, 83.975
1279.955, 35.209
1281.165, 34.496
1282.376, 96.319
1283.586, 50.370
1284.796, 64.137
1286.006, 85.833
1287.215, 13.350
1288.425, 36.848
1289.634, 59.331
1290.843, 38.797
1292.052, 93.249
1293.261, 30.687
1294.469, 46.109
1295.678, 70.512
1296.886, 20.892
1298.094, 82.274
1299.302, 3.255
1300.509, 115.070
1301.717, 69.597
1302.924, 58.668
1304.131, 44.929
1305.338, 78.169
1306.545, 77.393
1307.752, 86.595
1308.958, 47.724
1310.164, 77.843
1311.370, 74.995
1312.576, 61.129
1313.782, 102.247
1314.987, 103.333
1316.193, 77.421
1317.398, 150.471
1318.603, 45.529
1319.807, 122.474
1321.012, 138.845
1322.216, 143.676
1323.421, 28.568
1324.625, 116.767
1325.829, 73.918
1327.032, 88.806
1328.236, 120.656
1329.439, 63.502
1330.642, 135.174
1331.845, 77.506
1333.048, 104.264
1334.251, 89.001
1335.453, 111.583
1336.656, 96.405
1337.858, 53.345
1339.060, 42.838
1340.261, 90.085
1341.463, 89.997
1342.664, 46.480
1343.866, 95.385
1345.067, 74.795
1346.267, 134.698
1347.468, 116.484
1348.669, 80.798
1349.869, 127.586
1351.069, 125.876
1352.269, 42.117
1353.469, 85.064
1354.668, 16.434
1355.868, 73.934
1357.067, 93.174
1358.266, 1.690
1359.465, 64.239
1360.664, 83.143
1361.862, 60.254
1363.061, 91.477
1364.259, 48.362
1365.457, 44.458
1366.655, 90.483
1367.852, 10.319
1369.050, 9.688
1370.247, 21.630
1371.444, 28.527
1372.641, 42.479
1373.838, 38.997
1375.035, 11.167
1376.231, 46.566
1377.427, 43.440
1378.623, 0.245
1379.819, 99.005
1381.015, 79.903
1382.211, 95.642
1383.406, 168.673
1384.601, 5.828
1385.796, 57.614
1386.991, 80.031
1388.185, 41.407
1389.380, 31.010
1390.574, 74.765
1391.768, 43.552
1392.962, 68.297
1394.156, 74.866
1395.350, 62.229
1396.543, 86.691
1397.736, 58.125
1398.929, 86.616
1400.122, 104.969
1401.315, 67.774
1402.507, 44.002
1403.700, 63.183
1404.892, 26.799
1406.084, 116.967
1407.276, 10.254
1408.467, 48.551
1409.659, 56.898
1410.850, 3.877
1412.041, 55.629
1413.232, 32.270
1414.423, 143.136
1415.614, 116.713
1416.804, 88.338
1417.994, 19.326
1419.184, 116.168
1420.374, 40.725
1421.564, 59.718
1422.753, 0.970
1423.943, 21.732
1425.132, 0.115
1426.321, 5.083
1427.510, 8.784
1428.698, 33.158
1429.887, 72.332
1431.075, 89.145
1432.263, 174.726
1433.451, 144.436
1434.639, 74.517
1435.827, 127.569
1437.014, 104.236
1438.201, 136.364
1439.388, 110.394
1440.575, 64.221
1441.762, 181.055
1442.949, 117.509
1444.135, 61.617
1445.321, 216.964
1446.507, 74.064
1447.693, 129.749
1448.879, 246.104
1450.064, 118.311
1451.250, 227.161
1452.435, 178.734
1453.620, 212.344
1454.805, 204.392
1455.989, 212.821
1457.174, 115.432
1458.358, 209.987
1459.542, 136.461
1460.726, 179.000
1461.910, 202.104
1463.093, 193.510
1464.277, 168.006
1465.460, 174.711
1466.643, 191.372
1467.826, 207.701
1469.009, 218.209
1470.191, 134.077
1471.373, 223.293
1472.556, 85.610
1473.738, 146.356
1474.919, 221.701
1476.101, 88.501
1477.283, 109.240
1478.464, 222.906
1479.645, 17.451
1480.826, 138.075
1482.007, 100.566
1483.187, 32.148
1484.368, 148.701
1485.548, 44.226
1486.728, 37.702
1487.908, 187.110
1489.088, 75.422
1490.268, 63.629
1491.447, 113.867
1492.626, 92.348
1493.805, 120.813
1494.984, 56.237
1496.163, 69.767
1497.341, 149.623
1498.520, 15.493
1499.698, 79.579
1500.876, 87.864
1502.054, 4.809
1503.232, 108.925
1504.409, 146.032
1505.586, 61.101
1506.763, 140.084
1507.940, 30.945
1509.117, 17.471
1510.294, 90.940
1511.470, 41.685
1512.647, 62.004
1513.823, 142.388
1514.999, 1.158
1516.174, 65.291
1517.350, 34.288
1518.526, 0.000
##END=



