##NAMES=Actinolite
##RRUFFID=R060041
##IDEAL CHEMISTRY=Ca_2_(Mg_4.5-2.5_Fe^2+^_0.5-2.5_)Si_8_O_22_(OH)_2_
##LOCALITY=Prince of Wales Island, Alaska, USA
##OWNER=RRUFF
##SOURCE=University of Arizona Mineral Museum
##DESCRIPTION=Green acicular crystals forming parallel groups in cylindrical or bladed forms
##STATUS=The identification of this mineral has been confirmed by X-ray diffraction and chemical analysis
##URL=rruff.info/R060041
##MEASURED CHEMISTRY=(Ca_0.97_Na_0.03_)_2_(Mg_0.65_Fe^2+^_0.29_Fe^3+^_0.04_Al_0.01_Mn_0.01_)_5_(Si_0.98_Al_0.02_)_8_O_22_(OH)_2_
95.94800, 0.0000000E+00
97.18200, 12.55371
98.41600, 15.76318
99.64900, 60.50000
100.8830, 118.5479
102.1160, 45.89600
103.3490, 343.6885
104.5820, 714.3369
105.8150, 1346.593
107.0470, 2064.066
108.2800, 2808.006
109.5120, 3526.051
110.7440, 3398.084
111.9760, 3544.196
113.2080, 3921.642
114.4400, 4499.800
115.6710, 4863.151
116.9030, 4649.234
118.1340, 4248.761
119.3650, 3556.581
120.5960, 2846.369
121.8270, 2319.801
123.0580, 1892.611
124.2880, 1442.591
125.5190, 1098.446
126.7490, 852.6211
127.9790, 613.8672
129.2090, 566.9463
130.4390, 633.4941
131.6680, 708.4111
132.8980, 740.6035
134.1270, 789.9521
135.3560, 740.3438
136.5850, 812.6914
137.8140, 1101.926
139.0430, 1644.789
140.2710, 2323.666
141.5000, 3360.141
142.7280, 4685.357
143.9560, 5966.014
145.1840, 7378.100
146.4120, 9273.605
147.6390, 11861.53
148.8670, 13663.90
150.0940, 14789.76
151.3210, 14396.11
152.5490, 13170.95
153.7750, 11019.25
155.0020, 8868.020
156.2290, 6761.232
157.4550, 5186.876
158.6810, 3679.929
159.9080, 2750.377
161.1340, 2540.206
162.3590, 2590.397
163.5850, 3467.938
164.8110, 4375.813
166.0360, 5625.009
167.2610, 6783.514
168.4860, 8095.314
169.7110, 9852.280
170.9360, 11719.05
172.1610, 13367.74
173.3850, 13819.42
174.6100, 12958.13
175.8340, 11570.91
177.0580, 9625.778
178.2820, 7768.768
179.5050, 5806.889
180.7290, 4413.798
181.9520, 3058.453
183.1760, 2351.928
184.3990, 1704.225
185.6220, 1578.328
186.8450, 1492.442
188.0670, 1348.345
189.2900, 1225.323
190.5120, 1458.505
191.7340, 1531.888
192.9560, 1619.472
194.1780, 1685.251
195.4000, 1833.225
196.6220, 2160.391
197.8430, 2357.845
199.0640, 2604.861
200.2860, 3232.522
201.5070, 3706.899
202.7270, 4226.953
203.9480, 4618.602
205.1690, 5214.691
206.3890, 5983.043
207.6090, 7245.529
208.8290, 8392.112
210.0490, 9918.789
211.2690, 11619.73
212.4890, 13262.89
213.7080, 14747.20
214.9280, 16121.68
216.1470, 16953.26
217.3660, 17640.92
218.5850, 16974.65
219.8030, 16269.45
221.0220, 14774.33
222.2400, 13465.27
223.4590, 11480.33
224.6770, 9756.458
225.8950, 8341.639
227.1120, 6767.877
228.3300, 5665.168
229.5480, 4831.512
230.7650, 4023.907
231.9820, 3387.351
233.1990, 2947.843
234.4160, 2465.381
235.6330, 2159.963
236.8490, 1909.589
238.0660, 1635.256
239.2820, 1523.965
240.4980, 1517.713
241.7140, 1366.497
242.9300, 1421.040
244.1460, 1201.749
245.3610, 1048.621
246.5770, 843.6133
247.7920, 935.5381
249.0070, 893.2607
250.2220, 757.6797
251.4370, 703.7139
252.6510, 508.2988
253.8660, 459.3818
255.0800, 463.9180
256.2940, 317.8682
257.5080, 377.1992
258.7220, 373.8818
259.9360, 263.8896
261.1490, 337.2061
262.3630, 66.80469
263.5760, 95.32910
264.7890, 253.2217
266.0020, 303.9082
267.2150, 254.4092
268.4270, 308.7324
269.6400, 173.8955
270.8520, 208.8896
272.0640, 310.7305
273.2760, 286.4414
274.4880, 178.0264
275.7000, 170.4775
276.9120, 93.80176
278.1230, 98.99512
279.3340, 32.06641
280.5450, 135.9873
281.7560, 200.1641
282.9670, 360.4590
284.1780, 329.8682
285.3880, 518.3838
286.5980, 543.9971
287.8090, 531.6992
289.0190, 661.4873
290.2290, 788.3594
291.4380, 645.3115
292.6480, 633.3447
293.8570, 740.4551
295.0670, 642.6406
296.2760, 754.8984
297.4850, 592.1426
298.6930, 670.9102
299.9020, 434.2246
301.1110, 317.0557
302.3190, 330.0049
303.5270, 414.0615
304.7350, 267.0566
305.9430, 342.7100
307.1510, 286.6270
308.3580, 297.1025
309.5660, 215.6230
310.7730, 415.8096
311.9800, 350.6377
313.1870, 412.7227
314.3940, 346.4268
315.6010, 486.3838
316.8070, 569.4922
318.0130, 503.6455
319.2200, 651.8203
320.4260, 811.0293
321.6310, 935.2705
322.8370, 1059.674
324.0430, 1224.934
325.2480, 1449.180
326.4540, 1684.074
327.6590, 2026.804
328.8640, 2254.163
330.0680, 2473.285
331.2730, 2783.482
332.4780, 3005.748
333.6820, 3242.691
334.8860, 3253.742
336.0900, 3255.779
337.2940, 3379.884
338.4980, 3414.015
339.7010, 3309.633
340.9050, 3355.811
342.1080, 3279.032
343.3110, 3266.254
344.5140, 3180.492
345.7170, 3173.748
346.9200, 3148.269
348.1220, 3097.952
349.3240, 3157.232
350.5270, 3178.517
351.7290, 3250.803
352.9310, 3354.571
354.1320, 3506.499
355.3340, 3609.788
356.5350, 3840.074
357.7370, 4008.360
358.9380, 4138.642
360.1390, 4205.919
361.3400, 4282.191
362.5400, 4243.459
363.7410, 4093.719
364.9410, 4166.975
366.1410, 3687.221
367.3410, 3596.462
368.5410, 3372.694
369.7410, 3141.918
370.9400, 3166.135
372.1400, 2917.343
373.3390, 3017.541
374.5380, 3031.730
375.7370, 3188.910
376.9360, 3586.081
378.1350, 3897.240
379.3330, 4307.391
380.5310, 4532.530
381.7300, 4944.660
382.9280, 5272.775
384.1260, 5214.881
385.3230, 5369.977
386.5210, 5411.061
387.7180, 5163.191
388.9160, 4981.377
390.1130, 4671.604
391.3100, 4346.863
392.5060, 3906.153
393.7030, 3514.470
394.9000, 3239.811
396.0960, 3208.171
397.2920, 3090.549
398.4880, 3023.941
399.6840, 3002.047
400.8800, 2848.763
402.0750, 2930.188
403.2710, 2833.619
404.4660, 2721.058
405.6610, 2784.498
406.8560, 2511.941
408.0510, 2439.718
409.2450, 2096.891
410.4400, 2039.316
411.6340, 1734.361
412.8280, 1545.482
414.0220, 1551.006
415.2160, 1195.433
416.4100, 1127.293
417.6030, 869.0049
418.7970, 811.2578
419.9900, 656.6953
421.1830, 516.2217
422.3760, 531.5879
423.5690, 629.4131
424.7610, 539.7812
425.9540, 812.1387
427.1460, 699.4863
428.3380, 860.8203
429.5300, 1066.142
430.7220, 1039.451
431.9140, 1186.746
433.1050, 1028.026
434.2970, 897.2910
435.4880, 833.5410
436.6790, 591.7754
437.8700, 280.9932
439.0610, 222.1934
440.2510, 14.48145
441.4420, 26.59766
442.6320, 196.3389
443.8220, 233.4609
445.0120, 168.7803
446.2020, 295.2637
447.3910, 259.8828
448.5810, 283.9121
449.7700, 269.8965
450.9600, 212.9141
452.1490, 211.4678
453.3370, 220.2402
454.5260, 117.2119
455.7150, 6.330078
456.9030, 1.461914
458.0910, 35.16797
459.2800, 202.8037
460.4670, 201.4150
461.6550, 349.0010
462.8430, 250.5625
464.0300, 289.0986
465.2180, 195.6094
466.4050, 45.90918
467.5920, 12.54297
468.7790, 77.72363
469.9650, 8.068359
471.1520, 147.0430
472.3380, 119.1143
473.5250, 19.13965
474.7110, 114.0830
475.8970, 162.9775
477.0820, 226.8359
478.2680, 163.6689
479.4540, 301.4648
480.6390, 319.2354
481.8240, 189.9795
483.0090, 400.6914
484.1940, 166.3770
485.3780, 319.0234
486.5630, 323.6445
487.7470, 238.2373
488.9320, 185.8027
490.1160, 51.33203
491.3000, 250.7871
492.4830, 277.2158
493.6670, 361.6191
494.8500, 228.9932
496.0340, 461.3398
497.2170, 443.6582
498.4000, 628.9473
499.5820, 572.2090
500.7650, 629.4414
501.9480, 726.6455
503.1300, 800.8242
504.3120, 812.9766
505.4940, 961.1055
506.6760, 937.2080
507.8580, 1101.283
509.0390, 1099.332
510.2210, 1185.376
511.4020, 1237.415
512.5830, 1311.140
513.7640, 1394.653
514.9450, 1482.685
516.1250, 1606.763
517.3060, 1681.830
518.4860, 1880.905
519.6660, 2049.957
520.8460, 2118.982
522.0260, 2430.032
523.2060, 2537.060
524.3850, 2387.080
525.5650, 2465.115
526.7440, 2158.203
527.9230, 1894.311
529.1020, 1705.389
530.2810, 1471.456
531.4590, 1323.501
532.6380, 1211.516
533.8160, 1097.527
534.9940, 953.5684
536.1720, 787.6113
537.3500, 835.6318
538.5270, 652.6641
539.7050, 798.6660
540.8820, 588.6377
542.0590, 606.5947
543.2360, 623.5244
544.4130, 534.4199
545.5900, 611.2852
546.7660, 533.1191
547.9430, 691.9199
549.1190, 548.6885
550.2950, 598.4482
551.4710, 576.2227
552.6470, 556.0039
553.8220, 476.7822
554.9980, 499.2617
556.1730, 558.3457
557.3480, 515.1162
558.5230, 564.8926
559.6980, 581.6699
560.8730, 571.4336
562.0470, 543.1816
563.2220, 511.9082
564.3960, 620.6367
565.5700, 595.3340
566.7440, 586.0020
567.9170, 693.6377
569.0910, 571.2393
570.2640, 509.8047
571.4380, 548.3369
572.6110, 596.8350
573.7840, 582.4434
574.9570, 468.7246
576.1290, 573.1230
577.3020, 460.4941
578.4740, 356.8301
579.6460, 474.1289
580.8180, 292.3926
581.9900, 368.7021
583.1620, 302.5225
584.3330, 339.8232
585.5040, 373.6367
586.6760, 283.3594
587.8470, 279.4141
589.0180, 334.7178
590.1880, 169.8027
591.3590, 132.6426
592.5290, 81.93945
593.7000, 194.2031
594.8700, 188.8164
596.0400, 238.8027
597.2090, 272.5449
598.3790, 149.6787
599.5490, 370.5703
600.7180, 112.3242
601.8870, 270.0439
603.0560, 361.7539
604.2250, 383.4434
605.3940, 461.1094
606.5620, 468.6240
607.7300, 503.2930
608.8990, 391.9844
610.0670, 586.1836
611.2350, 717.0244
612.4020, 628.3613
613.5700, 665.8457
614.7370, 726.1758
615.9050, 842.4062
617.0720, 907.3848
618.2390, 942.3887
619.4060, 1116.852
620.5720, 1174.256
621.7390, 1324.122
622.9050, 1297.545
624.0710, 1499.894
625.2370, 1565.202
626.4030, 1624.512
627.5690, 1953.803
628.7340, 2264.074
629.9000, 2312.634
631.0650, 2522.900
632.2300, 2893.151
633.3950, 3003.098
634.5600, 3468.279
635.7240, 3864.336
636.8890, 4047.480
638.0530, 4318.606
639.2170, 4662.713
640.3810, 4984.805
641.5450, 5414.685
642.7080, 6025.277
643.8720, 6296.172
645.0350, 6797.973
646.1980, 7170.685
647.3610, 7456.830
648.5240, 7900.451
649.6870, 8690.571
650.8490, 9655.832
652.0120, 10482.27
653.1740, 11562.69
654.3360, 12941.49
655.4980, 14979.73
656.6600, 17650.57
657.8210, 21124.84
658.9830, 24755.89
660.1440, 29831.28
661.3050, 35301.51
662.4660, 40835.46
663.6270, 47746.14
664.7870, 53069.71
665.9480, 55896.86
667.1080, 57924.26
668.2680, 58001.84
669.4280, 55896.11
670.5880, 53168.96
671.7480, 46955.05
672.9070, 39757.64
674.0670, 32993.21
675.2260, 26987.91
676.3850, 22232.22
677.5440, 18560.48
678.7030, 15546.62
679.8610, 12956.23
681.0200, 11367.61
682.1780, 10059.59
683.3360, 9090.209
684.4940, 7899.781
685.6520, 7347.567
686.8090, 6370.842
687.9670, 5864.291
689.1240, 5104.876
690.2810, 4713.323
691.4380, 4249.172
692.5950, 3624.813
693.7520, 3280.465
694.9080, 3010.408
696.0650, 2725.005
697.2210, 2551.219
698.3770, 2392.490
699.5330, 2196.555
700.6880, 2126.520
701.8440, 1741.521
702.9990, 1764.553
704.1550, 1471.626
705.3100, 1544.662
706.4650, 1339.828
707.6190, 1235.606
708.7740, 1137.601
709.9290, 1090.599
711.0830, 1226.373
712.2370, 1055.056
713.3910, 1010.866
714.5450, 931.6152
715.6980, 833.7354
716.8520, 910.2051
718.0050, 904.6465
719.1580, 885.0615
720.3110, 741.3428
721.4640, 784.7266
722.6170, 956.0977
723.7700, 841.5273
724.9220, 920.2402
726.0740, 715.5596
727.2260, 913.1787
728.3780, 844.8682
729.5300, 803.4600
730.6810, 937.9346
731.8330, 1083.813
732.9840, 1081.775
734.1350, 1177.799
735.2860, 1369.860
736.4370, 1357.929
737.5880, 1275.002
738.7380, 1289.072
739.8880, 1206.119
741.0390, 1378.141
742.1890, 1416.138
743.3380, 1424.107
744.4880, 1337.053
745.6380, 1338.975
746.7870, 1291.916
747.9360, 1161.109
749.0850, 1185.814
750.2340, 936.7695
751.3830, 821.7070
752.5310, 813.6289
753.6800, 643.5557
754.8280, 623.4678
755.9760, 503.3623
757.1240, 498.2314
758.2720, 359.0811
759.4190, 399.9082
760.5670, 418.7090
761.7140, 279.4893
762.8610, 266.2461
764.0080, 209.9824
765.1550, 334.6963
766.3020, 352.3867
767.4480, 342.0527
768.5950, 260.7002
769.7410, 175.3457
770.8870, 56.96875
772.0330, 253.5605
773.1780, 179.1289
774.3240, 211.6748
775.4690, 301.1973
776.6140, 222.6963
777.7590, 280.1719
778.9040, 232.6240
780.0490, 99.05371
781.1940, 44.45801
782.3380, 49.83105
783.4820, 55.17383
784.6260, 142.4883
785.7700, 58.77734
786.9140, 49.96191
788.0580, 52.76953
789.2010, 167.6484
790.3450, 263.6592
791.4880, 34.14941
792.6310, 23.07227
793.7730, 33.34863
794.9160, 104.6836
796.0590, 12.88574
797.2010, 56.42090
798.3430, 170.0713
799.4850, 11.30762
800.6270, 51.34668
801.7690, 130.0674
802.9100, 283.8945
804.0520, 149.9102
805.1930, 52.95801
806.3340, 35.19727
807.4750, 3.590820
808.6160, 52.34473
809.7560, 73.92676
810.8970, 202.2725
812.0370, 93.75879
813.1770, 9.326172
814.3170, 136.9346
815.4570, 21.35352
816.5960, 92.61523
817.7360, 47.14160
818.8750, 23.04492
820.0140, 65.20801
821.1530, 70.35059
822.2920, 30.47363
823.4310, 125.5742
824.5690, 74.65723
825.7070, 43.27930
826.8460, 58.26465
827.9840, 3.694336
829.1220, 17.62793
830.2590, 11.54102
831.3970, 23.56836
832.5340, 7.636719
833.6710, 65.12012
834.8080, 42.93750
835.9450, 83.73535
837.0820, 99.51660
838.2190, 14.71680
839.3550, 81.97852
840.4910, 47.69824
841.6270, 19.64062
842.7630, 11.99219
843.8990, 92.60840
845.0350, 32.20898
846.1700, 48.79492
847.3060, 41.36523
848.4410, 80.92090
849.5760, 42.17188
850.7100, 24.00977
851.8450, 33.50781
852.9800, 165.9648
854.1140, 128.4258
855.2480, 105.8760
856.3820, 116.3154
857.5160, 102.8330
858.6500, 109.1611
859.7830, 112.5684
860.9170, 123.9648
862.0500, 129.3486
863.1830, 146.2129
864.3160, 173.0850
865.4480, 170.4355
866.5810, 165.7754
867.7130, 150.7646
868.8460, 207.4268
869.9780, 220.7363
871.1100, 223.0332
872.2410, 364.3174
873.3730, 255.5889
874.5050, 340.8477
875.6360, 262.0938
876.7670, 450.3262
877.8980, 352.5479
879.0290, 327.7559
880.1590, 498.9531
881.2900, 455.1377
882.4200, 583.3105
883.5500, 514.4727
884.6800, 590.6230
885.8100, 547.7617
886.9400, 697.8887
888.0690, 634.0049
889.1990, 662.1094
890.3280, 821.2031
891.4570, 848.2861
892.5860, 840.3574
893.7140, 1000.439
894.8430, 1027.512
895.9710, 1201.598
897.1000, 1081.703
898.2280, 1205.798
899.3560, 1287.882
900.4830, 1278.959
901.6110, 1439.036
902.7380, 1330.123
903.8660, 1481.202
904.9930, 1529.273
906.1200, 1899.304
907.2460, 1751.609
908.3730, 1966.653
909.5000, 1994.675
910.6260, 2142.707
911.7520, 2147.756
912.8780, 2535.797
914.0040, 2658.832
915.1290, 3102.859
916.2550, 3293.549
917.3800, 3496.723
918.5050, 4093.965
919.6300, 4782.282
920.7550, 5390.137
921.8800, 6009.508
923.0040, 6624.359
924.1290, 7348.061
925.2530, 7657.562
926.3770, 7766.055
927.5010, 8091.170
928.6250, 7835.834
929.7480, 7205.901
930.8720, 6635.539
931.9950, 6036.404
933.1180, 5446.928
934.2410, 4883.584
935.3640, 4510.080
936.4860, 4026.677
937.6090, 3951.959
938.7310, 3691.625
939.8530, 3656.745
940.9750, 3409.343
942.0970, 3376.765
943.2180, 3267.665
944.3400, 3132.318
945.4610, 2992.484
946.5820, 2799.665
947.7030, 2701.708
948.8240, 2221.107
949.9450, 2068.569
951.0650, 2060.141
952.1860, 1724.256
953.3060, 1774.583
954.4260, 1766.300
955.5460, 1751.347
956.6650, 1557.432
957.7850, 1595.281
958.9040, 1600.635
960.0230, 1521.793
961.1420, 1611.800
962.2610, 1393.930
963.3800, 1409.641
964.4990, 1302.543
965.6170, 1382.420
966.7350, 1323.990
967.8530, 1232.888
968.9710, 1370.158
970.0890, 1246.352
971.2070, 1229.761
972.3240, 1182.258
973.4410, 1030.700
974.5580, 1270.098
975.6750, 1112.437
976.7920, 1164.795
977.9090, 1072.007
979.0250, 1146.595
980.1410, 1052.949
981.2580, 1154.394
982.3740, 1355.838
983.4890, 1068.467
984.6050, 1032.955
985.7200, 1164.487
986.8360, 1244.638
987.9510, 1256.422
989.0660, 1216.219
990.1810, 1414.039
991.2950, 1290.873
992.4100, 1300.720
993.5240, 1468.594
994.6390, 1452.479
995.7530, 1510.379
996.8660, 1577.291
997.9800, 1764.217
999.0940, 1831.155
1000.207, 1789.108
1001.320, 2145.075
1002.433, 2106.056
1003.546, 2245.049
1004.659, 2476.057
1005.772, 2702.078
1006.884, 2962.113
1007.996, 3188.211
1009.108, 3538.223
1010.220, 3710.299
1011.332, 3974.392
1012.444, 4340.494
1013.555, 4413.614
1014.666, 4661.748
1015.777, 4899.896
1016.888, 4788.059
1017.999, 5099.234
1019.110, 5160.428
1020.220, 5619.631
1021.331, 5604.851
1022.441, 5809.085
1023.551, 5935.333
1024.661, 5863.598
1025.770, 5917.734
1026.880, 6109.818
1027.989, 5710.125
1029.098, 5705.117
1030.207, 5386.639
1031.316, 5320.987
1032.425, 5314.351
1033.533, 5088.195
1034.642, 5164.232
1035.750, 5383.258
1036.858, 5585.677
1037.966, 6074.204
1039.073, 6714.639
1040.181, 7397.098
1041.288, 8336.572
1042.396, 9441.060
1043.503, 10969.11
1044.610, 12528.20
1045.716, 14447.91
1046.823, 16317.56
1047.929, 18045.24
1049.036, 19653.72
1050.142, 21027.37
1051.248, 22114.63
1052.353, 22402.18
1053.459, 21788.81
1054.564, 20723.79
1055.670, 19105.45
1056.775, 17755.78
1057.880, 16022.70
1058.985, 14376.79
1060.089, 13401.59
1061.194, 12677.76
1062.298, 12073.66
1063.402, 11418.21
1064.506, 10489.78
1065.610, 9632.520
1066.713, 8176.686
1067.817, 7442.452
1068.920, 6221.627
1070.023, 5243.156
1071.126, 4358.465
1072.229, 3718.205
1073.332, 3170.308
1074.435, 2886.984
1075.537, 2485.385
1076.639, 2355.801
1077.741, 2209.455
1078.843, 1892.807
1079.945, 1804.341
1081.046, 1785.917
1082.148, 1552.370
1083.249, 1542.802
1084.350, 1391.517
1085.451, 1175.178
1086.551, 1280.084
1087.652, 1283.779
1088.752, 1238.639
1089.853, 1097.351
1090.953, 947.7334
1092.053, 913.5576
1093.152, 852.4785
1094.252, 799.4697
1095.351, 756.2598
1096.451, 767.8203
1097.550, 710.7441
1098.649, 736.6650
1099.748, 507.7178
1100.846, 726.0654
1101.945, 753.9307
1103.043, 1114.133
1104.141, 920.8184
1105.239, 1149.671
1106.337, 977.5322
1107.434, 630.4229
1108.532, 498.3174
1109.629, 512.3896
1110.726, 689.3789
1111.823, 395.4922
1112.920, 334.4111
1114.017, 402.7070
1115.113, 363.6338
1116.210, 215.5635
1117.306, 398.4961
1118.402, 458.4873
1119.498, 342.4404
1120.593, 131.3955
1121.689, 397.6484
1122.784, 274.6074
1123.879, 169.5684
1124.974, 149.2793
1126.069, 149.2422
1127.164, 163.2061
1128.259, 352.1699
1129.353, 222.1357
1130.447, 329.1025
1131.541, 320.0684
1132.635, 153.0361
1133.729, 23.00391
1134.822, 129.9717
1135.916, 121.9385
1137.009, 131.9053
1138.102, 58.87109
1139.195, 63.50684
1140.288, 51.09277
1141.380, 48.76758
1142.473, 40.73047
1143.565, 91.69238
1144.657, 84.65234
1145.749, 93.76465
1146.841, 160.7217
1147.932, 155.6768
1149.024, 186.6309
1150.115, 207.5840
1151.206, 201.7744
1152.297, 188.8516
1153.388, 172.4277
1154.479, 137.3721
1155.569, 66.31055
1156.659, 57.24805
1157.750, 91.81836
1158.839, 34.07129
1159.929, 106.0439
1161.019, 113.2139
1162.108, 91.55859
1163.198, 130.3281
1164.287, 10.90820
1165.376, 36.15430
1166.465, 83.42090
1167.553, 110.2666
1168.642, 16.94922
1169.730, 65.62695
1170.818, 115.2998
1171.906, 86.96875
1172.994, 75.62988
1174.082, 7.711914
1175.170, 91.06738
1176.257, 9.521484
1177.344, 28.10449
1178.431, 21.68164
1179.518, 60.75000
1180.605, 41.77637
1181.691, 5.704102
1182.778, 10.19531
1183.864, 206.2949
1184.950, 47.22070
1186.036, 105.2246
1187.122, 50.33594
1188.207, 28.06152
1189.292, 7.450195
1190.378, 52.17285
1191.463, 40.97070
1192.548, 83.31543
1193.632, 76.31348
1194.717, 91.12988
1195.801, 45.01367
1196.886, 56.06152
1197.970, 10.87402
1199.054, 76.16211
1200.137, 20.81152
1201.221, 0.1806640
1202.305, 10.15234
1203.388, 53.10547
1204.471, 23.95508
1205.554, 173.9482
1206.637, 120.8398
1207.719, 109.2803
1208.802, 55.48340
1209.884, 182.2588
1210.966, 102.9902
1212.048, 37.29102
1213.130, 19.61914
1214.212, 118.9873
1215.293, 145.5547
1216.374, 57.08105
1217.456, 169.5928
1218.536, 75.09180
1219.617, 125.6074
1220.698, 2.076172
1221.778, 92.51562
1222.859, 71.94043
1223.939, 59.35254
1225.019, 145.7461
1226.099, 23.12891
1227.178, 91.48730
1228.258, 94.83203
1229.337, 68.16016
1230.417, 21.47266
1231.496, 218.7598
1232.574, 60.96680
1233.653, 26.23926
1234.732, 242.4229
1235.810, 288.5898
1236.888, 170.7422
1237.966, 325.8799
1239.044, 92.00098
1240.122, 114.1045
1241.199, 86.21484
1242.277, 308.3076
1243.354, 0.3867190
1244.431, 231.4277
1245.508, 311.4561
1246.585, 169.4658
1247.661, 127.4727
1248.738, 241.4678
1249.814, 325.4473
1250.890, 4.420898
1251.966, 376.3574
1253.042, 257.2812
1254.117, 1.806641
1255.193, 293.0645
1256.268, 259.9189
1257.343, 271.7568
1258.418, 293.6709
1259.493, 267.4766
1260.567, 199.2676
1261.642, 289.0410
1262.716, 382.7979
1263.790, 339.5361
1264.864, 313.2607
1265.938, 256.9688
1267.011, 165.6611
1268.085, 302.3359
1269.158, 402.9932
1270.231, 370.6338
1271.304, 203.2568
1272.377, 289.8633
1273.450, 293.4521
1274.522, 121.0254
