##NAMES=Actinolite
##RRUFFID=R040064
##IDEAL CHEMISTRY=Ca_2_(Mg_4.5-2.5_Fe^2+^_0.5-2.5_)Si_8_O_22_(OH)_2_
##LOCALITY=Ehime Perfecture, Uma Gun, Japan
##OWNER=RRUFF
##SOURCE=University of Arizona Mineral Museum
##DESCRIPTION=Aggregate of green acicular crystals associated with chlorite
##STATUS=The identification of this mineral has been confirmed by X-ray diffraction and chemical analysis
##URL=rruff.info/R040064
##MEASURED CHEMISTRY=(Ca_0.95_Na_0.04_Mn_0.01_)_2_(Mg_0.88_Fe_0.12_)_5_(Si_0.98_Al_0.02_)_8_O_22_(OH)_2_
##PIN_ID=M00235
##ORIENTATION=Laser parallel to b* (0 1 0). Fiducial mark perpendicular to laser is parallel to -c [0 0 -1]
103.748, 0.000
105.135, 1.633
106.521, 1.811
107.907, 135.963
109.292, 318.879
110.678, 585.894
112.063, 742.720
113.448, 1193.835
114.833, 1574.949
116.218, 2206.417
117.602, 2833.914
118.987, 3498.938
120.371, 4574.625
121.755, 5586.512
123.138, 6504.188
124.522, 6738.031
125.905, 6470.408
127.288, 6045.847
128.671, 4830.999
130.053, 3560.384
131.436, 2629.873
132.818, 1873.217
134.200, 1494.519
135.582, 995.861
136.963, 812.441
138.345, 492.223
139.726, 400.459
141.107, 380.507
142.488, 348.267
143.868, 243.214
145.248, 98.078
146.629, 53.615
148.008, 0.059
149.388, 86.062
150.768, 54.403
152.147, 100.878
153.526, 28.946
154.905, 89.382
156.284, 206.717
157.662, 225.619
159.040, 347.059
160.418, 511.138
161.796, 551.763
163.174, 647.961
164.551, 456.767
165.929, 410.214
167.306, 247.322
168.683, 267.108
170.059, 513.583
171.436, 622.758
172.812, 1246.644
174.188, 2007.422
175.564, 3424.987
176.939, 4724.911
178.315, 6862.287
179.690, 8939.924
181.065, 9820.278
182.440, 9694.532
183.814, 7626.725
185.188, 5516.746
186.563, 3743.592
187.937, 2542.917
189.310, 1771.190
190.684, 1221.730
192.057, 926.312
193.430, 695.482
194.803, 611.118
196.176, 485.560
197.549, 372.969
198.921, 452.468
200.293, 235.021
201.665, 421.620
203.037, 271.302
204.408, 443.991
205.779, 423.669
207.150, 486.503
208.521, 675.458
209.892, 580.668
211.262, 792.285
212.633, 988.670
214.003, 1252.624
215.373, 1606.087
216.742, 2157.027
218.112, 3132.610
219.481, 3825.155
220.850, 5686.717
222.219, 6988.349
223.588, 8580.041
224.956, 9801.798
226.324, 9383.604
227.692, 8555.410
229.060, 7037.172
230.428, 5828.875
231.795, 4660.498
233.162, 3902.021
234.529, 3453.432
235.896, 2782.726
237.263, 2509.914
238.629, 1722.015
239.995, 1385.038
241.361, 1056.998
242.727, 710.894
244.093, 675.727
245.458, 425.498
246.823, 522.207
248.188, 558.854
249.553, 614.440
250.917, 664.966
252.282, 753.432
253.646, 699.669
255.010, 638.182
256.374, 552.466
257.737, 439.675
259.101, 279.813
260.464, 274.891
261.827, 107.908
263.189, 60.856
264.552, 92.718
265.914, 108.466
267.276, 78.093
268.638, 88.335
270.000, 115.998
271.362, 187.665
272.723, 118.074
274.084, 33.235
275.445, 151.764
276.806, 70.700
278.166, 46.021
279.526, 122.259
280.887, 37.247
282.246, 267.346
283.606, 286.118
284.966, 462.458
286.325, 708.032
287.684, 746.952
289.043, 1039.176
290.402, 1265.610
291.760, 1437.167
293.118, 1495.207
294.477, 1348.596
295.834, 1160.927
297.192, 956.349
298.550, 969.500
299.907, 819.767
301.264, 831.250
302.621, 967.473
303.978, 900.748
305.334, 1038.128
306.690, 853.498
308.046, 860.668
309.402, 687.329
310.758, 551.348
312.113, 505.602
313.469, 394.079
314.824, 390.855
316.179, 309.036
317.533, 316.456
318.888, 305.973
320.242, 310.208
321.596, 305.533
322.950, 349.268
324.304, 431.528
325.657, 441.024
327.010, 609.237
328.363, 776.603
329.716, 939.138
331.069, 1262.225
332.421, 1414.238
333.774, 1718.094
335.126, 1824.195
336.478, 1715.862
337.829, 2029.970
339.181, 1618.523
340.532, 1612.891
341.883, 1555.758
343.234, 1652.369
344.585, 1811.261
345.935, 1799.911
347.285, 2021.518
348.635, 2149.922
349.985, 2046.397
351.335, 2217.234
352.684, 2228.903
354.034, 2428.824
355.383, 2272.762
356.731, 2396.628
358.080, 2329.092
359.429, 2702.006
360.777, 2703.353
362.125, 2895.980
363.473, 3372.981
364.820, 4021.520
366.168, 5366.856
367.515, 6733.431
368.862, 8219.892
370.209, 9966.584
371.556, 10314.030
372.902, 10271.040
374.249, 8818.885
375.595, 7366.745
376.940, 5894.551
378.286, 4552.312
379.632, 3820.035
380.977, 3239.725
382.322, 2976.381
383.667, 2880.001
385.012, 2750.586
386.356, 3002.138
387.700, 3159.651
389.044, 3903.130
390.388, 4450.571
391.732, 5267.977
393.075, 6365.347
394.419, 6822.681
395.762, 7069.979
397.105, 6417.240
398.447, 5624.468
399.790, 4611.662
401.132, 3538.821
402.474, 2866.947
403.816, 2273.038
405.158, 1918.913
406.499, 1731.690
407.841, 1628.322
409.182, 1725.334
410.523, 1626.476
411.864, 1789.131
413.204, 1879.670
414.544, 2073.496
415.884, 2323.151
417.224, 2281.508
418.564, 2389.581
419.904, 1999.061
421.243, 1913.728
422.582, 1603.341
423.921, 1281.280
425.260, 1122.367
426.598, 849.047
427.937, 777.976
429.275, 615.408
430.613, 489.603
431.951, 604.018
433.288, 377.828
434.625, 466.260
435.963, 528.871
437.300, 501.442
438.636, 574.655
439.973, 428.388
441.309, 380.406
442.646, 243.555
443.981, 229.619
445.317, 249.926
446.653, 105.992
447.988, 179.083
449.323, 22.158
450.658, 66.233
451.993, 81.125
453.328, 31.698
454.662, 125.437
455.996, 93.993
457.331, 43.497
458.664, 80.544
459.998, 54.371
461.331, 169.517
462.665, 53.353
463.998, 170.139
465.330, 106.880
466.663, 59.575
467.996, 152.314
469.328, 34.080
470.660, 38.354
471.992, 44.800
473.323, 11.822
474.655, 131.017
475.986, 6.229
477.317, 27.149
478.648, 16.885
479.979, 3.010
481.309, 1.108
482.640, 81.730
483.970, 98.729
485.300, 63.035
486.629, 207.360
487.959, 200.357
489.288, 95.535
490.617, 190.679
491.946, 0.792
493.275, 71.895
494.603, 38.029
495.932, 18.997
497.260, 86.019
498.588, 46.108
499.916, 44.255
501.243, 86.465
502.571, 67.759
503.898, 18.107
505.225, 103.507
506.552, 115.028
507.878, 37.476
509.205, 71.964
510.531, 147.372
511.857, 130.743
513.183, 245.080
514.508, 205.406
515.834, 341.711
517.159, 361.004
518.484, 473.275
519.809, 585.525
521.133, 561.766
522.458, 578.987
523.782, 641.210
525.106, 598.417
526.430, 579.614
527.754, 502.816
529.077, 559.998
530.400, 644.175
531.723, 656.335
533.046, 631.483
534.369, 522.639
535.692, 635.768
537.014, 540.872
538.336, 594.962
539.658, 459.029
540.980, 457.070
542.301, 574.086
543.623, 500.077
544.944, 562.042
546.265, 578.150
547.585, 499.900
548.906, 621.793
550.226, 531.661
551.547, 577.519
552.867, 627.352
554.186, 561.159
555.506, 549.942
556.825, 488.856
558.145, 438.813
559.464, 358.141
560.783, 297.824
562.101, 291.482
563.420, 270.590
564.738, 207.726
566.056, 278.313
567.374, 272.880
568.692, 245.427
570.009, 145.954
571.326, 293.456
572.643, 229.936
573.960, 209.392
575.277, 287.824
576.594, 187.235
577.910, 316.624
579.226, 247.994
580.542, 330.349
581.858, 281.688
583.173, 299.021
584.489, 452.349
585.804, 331.669
587.119, 388.982
588.434, 355.289
589.748, 188.563
591.063, 255.937
592.377, 110.959
593.691, 125.424
595.005, 9.902
596.318, 19.578
597.632, 85.955
598.945, 37.505
600.258, 87.886
601.571, 83.709
602.884, 46.470
604.196, 35.308
605.508, 18.532
606.821, 28.047
608.132, 10.828
609.444, 37.839
610.756, 98.899
612.067, 47.263
613.378, 73.932
614.689, 71.982
616.000, 166.809
617.311, 143.856
618.621, 176.549
619.931, 279.877
621.241, 226.712
622.551, 193.028
623.861, 373.147
625.170, 139.987
626.479, 392.206
627.788, 275.627
629.097, 412.581
630.406, 397.358
631.714, 510.971
633.023, 585.265
634.331, 663.198
635.639, 730.872
636.946, 796.943
638.254, 792.558
639.561, 1140.704
640.868, 1145.746
642.175, 1363.870
643.482, 1594.701
644.789, 1665.520
646.095, 2099.940
647.401, 2411.977
648.707, 2963.615
650.013, 3481.016
651.319, 3895.110
652.624, 4716.399
653.929, 5297.990
655.234, 5766.552
656.539, 6346.733
657.844, 6335.562
659.148, 6832.031
660.453, 6863.754
661.757, 7803.642
663.061, 8395.192
664.364, 9566.263
665.668, 11575.662
666.971, 13798.180
668.274, 17839.271
669.577, 23020.582
670.880, 29076.535
672.183, 36870.195
673.485, 43344.859
674.787, 46716.789
676.089, 46698.758
677.391, 41292.574
678.693, 34834.391
679.994, 27359.508
681.296, 21021.850
682.597, 16294.675
683.898, 12311.802
685.198, 9993.458
686.499, 7938.784
687.799, 6501.941
689.099, 5485.893
690.399, 4644.888
691.699, 4066.357
692.998, 3378.107
694.298, 3172.709
695.597, 2784.258
696.896, 2375.978
698.195, 2227.423
699.493, 1948.988
700.792, 1800.665
702.090, 1597.021
703.388, 1468.090
704.686, 1445.446
705.984, 1259.765
707.281, 1227.600
708.578, 1129.909
709.876, 915.183
711.172, 1046.553
712.469, 887.799
713.766, 938.031
715.062, 917.250
716.358, 858.482
717.654, 768.676
718.950, 747.354
720.246, 676.178
721.541, 681.101
722.836, 575.240
724.131, 569.369
725.426, 537.485
726.721, 421.508
728.015, 574.600
729.310, 569.678
730.604, 509.725
731.898, 518.779
733.191, 506.725
734.485, 488.754
735.778, 464.774
737.071, 641.781
738.364, 608.777
739.657, 549.762
740.950, 766.734
742.242, 682.695
743.535, 813.645
744.827, 893.583
746.118, 923.483
747.410, 1249.398
748.702, 1329.963
749.993, 1706.583
751.284, 1716.712
752.575, 1616.199
753.866, 1656.631
755.156, 1227.854
756.447, 1160.279
757.737, 973.683
759.027, 675.926
760.316, 750.119
761.606, 474.239
762.896, 480.396
764.185, 398.481
765.474, 324.678
766.763, 397.129
768.051, 276.350
769.340, 185.694
770.628, 178.028
771.916, 109.758
773.204, 217.392
774.492, 146.147
775.780, 140.896
777.067, 197.641
778.354, 107.378
779.641, 204.108
780.928, 126.742
782.215, 30.460
783.501, 70.181
784.787, 35.895
786.073, 214.611
787.359, 78.324
788.645, 38.030
789.930, 191.729
791.216, 3.576
792.501, 108.106
793.786, 31.215
795.071, 21.563
796.355, 83.062
797.640, 54.317
798.924, 23.262
800.208, 109.829
801.492, 2.610
802.775, 43.935
804.059, 101.530
805.342, 42.060
806.625, 25.623
807.908, 1.203
809.191, 28.798
810.474, 13.398
811.756, 67.990
813.038, 17.384
814.320, 63.210
815.602, 139.167
816.884, 96.455
818.165, 80.887
819.446, 20.223
820.727, 16.442
822.008, 102.871
823.289, 34.180
824.569, 64.521
825.850, 28.269
827.130, 39.046
828.410, 38.144
829.690, 25.914
830.969, 25.513
832.249, 55.626
833.528, 49.247
834.807, 0.842
836.086, 9.086
837.364, 84.034
838.643, 74.981
839.921, 55.012
841.199, 17.047
842.477, 32.104
843.755, 116.189
845.033, 129.652
846.310, 28.488
847.587, 45.686
848.864, 68.113
850.141, 22.906
851.418, 84.689
852.694, 51.465
853.971, 21.231
855.247, 136.991
856.523, 3.254
857.798, 98.487
859.074, 90.237
860.349, 55.020
861.624, 84.686
862.899, 114.394
864.174, 62.096
865.449, 173.792
866.723, 125.500
867.998, 202.168
869.272, 79.854
870.545, 141.535
871.819, 89.213
873.093, 155.886
874.366, 190.555
875.639, 116.242
876.912, 91.923
878.185, 181.601
879.458, 27.295
880.730, 344.982
882.002, 86.667
883.274, 183.369
884.546, 364.067
885.818, 95.764
887.090, 232.461
888.361, 318.153
889.632, 275.843
890.903, 342.531
892.174, 207.224
893.444, 461.930
894.715, 351.632
895.985, 271.346
897.255, 361.068
898.525, 290.787
899.795, 310.505
901.064, 300.221
902.334, 229.934
903.603, 359.647
904.872, 349.361
906.140, 349.081
907.409, 318.806
908.677, 346.227
909.946, 388.307
911.214, 398.084
912.482, 447.862
913.749, 487.643
915.017, 377.422
916.284, 457.204
917.551, 716.987
918.818, 576.768
920.085, 736.551
921.352, 766.341
922.618, 786.131
923.884, 1055.924
925.150, 975.639
926.416, 1415.427
927.682, 1485.215
928.947, 1884.998
930.213, 2184.781
931.478, 2504.488
932.743, 2574.267
934.008, 2814.046
935.272, 2343.432
936.537, 2432.982
937.801, 1872.391
939.065, 1772.159
940.329, 1581.741
941.593, 1211.156
942.856, 1410.921
944.119, 1169.521
945.383, 1309.233
946.646, 1506.327
947.908, 1233.948
949.171, 1633.555
950.433, 1489.301
951.696, 1358.658
952.958, 1308.375
954.220, 1137.032
955.481, 1086.478
956.743, 969.323
958.004, 735.803
959.265, 853.222
960.526, 661.969
961.787, 619.225
963.048, 597.323
964.308, 546.882
965.569, 566.229
966.829, 551.505
968.089, 401.254
969.348, 514.482
970.608, 504.102
971.867, 433.640
973.126, 527.080
974.385, 271.168
975.644, 580.601
976.903, 405.854
978.161, 343.221
979.420, 589.985
980.678, 289.439
981.936, 408.844
983.193, 466.395
984.451, 305.931
985.708, 442.149
986.966, 271.138
988.223, 289.628
989.479, 518.293
990.736, 217.930
991.993, 493.880
993.249, 262.594
994.505, 389.913
995.761, 432.172
997.017, 302.338
998.272, 491.843
999.528, 460.372
1000.783, 420.253
1002.038, 639.753
1003.293, 479.512
1004.548, 629.140
1005.802, 749.290
1007.057, 479.421
1008.311, 758.596
1009.565, 591.740
1010.818, 861.551
1012.072, 907.924
1013.326, 1039.658
1014.579, 1089.519
1015.832, 1259.467
1017.085, 1299.493
1018.338, 1579.367
1019.590, 1500.702
1020.842, 1850.547
1022.095, 2030.937
1023.347, 2211.418
1024.599, 2801.324
1025.850, 3176.425
1027.102, 3876.558
1028.353, 5126.471
1029.604, 5541.082
1030.855, 6670.768
1032.106, 6691.109
1033.356, 6596.229
1034.607, 5846.182
1035.857, 4807.038
1037.107, 4067.836
1038.357, 3557.846
1039.607, 2588.410
1040.856, 2528.768
1042.106, 2130.593
1043.355, 2054.427
1044.604, 2014.377
1045.852, 1988.381
1047.101, 2030.638
1048.350, 2010.579
1049.598, 2181.564
1050.846, 2411.716
1052.094, 2791.656
1053.342, 3052.528
1054.589, 3662.577
1055.837, 4253.234
1057.084, 5304.527
1058.331, 5804.463
1059.578, 6388.117
1060.824, 6829.018
1062.071, 7148.493
1063.317, 7059.135
1064.563, 6709.069
1065.809, 6079.852
1067.055, 5859.770
1068.301, 6009.682
1069.546, 5980.457
1070.791, 6320.374
1072.036, 5890.408
1073.281, 5601.223
1074.526, 4771.117
1075.771, 4001.547
1077.015, 3562.066
1078.259, 2741.931
1079.503, 2402.546
1080.747, 2262.665
1081.991, 1822.504
1083.234, 1803.604
1084.478, 1743.426
1085.721, 1543.361
1086.964, 2103.725
1088.206, 2793.566
1089.449, 3033.811
1090.691, 2514.287
1091.934, 1594.206
1093.176, 1385.709
1094.418, 1205.613
1095.659, 785.702
1096.901, 836.310
1098.142, 746.199
1099.384, 546.495
1100.625, 696.383
1101.865, 466.260
1103.106, 686.885
1104.347, 556.744
1105.587, 296.970
1106.827, 647.752
1108.067, 707.621
1109.307, 618.045
1110.546, 647.909
1111.786, 307.771
1113.025, 1158.644
1114.264, 978.484
1115.503, 718.312
1116.742, 548.986
1117.980, 198.807
1119.219, 339.351
1120.457, 379.359
1121.695, 139.174
1122.933, 489.892
1124.171, 289.690
1125.408, 129.473
1126.645, 439.667
1127.883, 419.448
1129.120, 2199.425
1130.356, 1399.447
1131.593, 1649.194
1132.829, 1659.932
1134.066, 829.654
1135.302, 500.016
1136.538, 420.553
1137.773, 89.752
1139.009, 360.972
1140.244, 200.613
1141.480, 0.255
1142.715, 304.410
1143.950, 184.367
1145.184, 53.996
1146.419, 389.801
1147.653, 40.613
1148.887, 109.638
1150.121, 280.680
1151.355, 230.197
1152.589, 390.544
1153.822, 10.766
1155.056, 90.528
1156.289, 140.667
1157.522, 59.565
1158.755, 389.787
1159.987, 168.912
1161.220, 31.767
1162.452, 188.456
1163.684, 138.708
1164.916, 147.938
1166.148, 199.997
1167.379, 20.755
1168.611, 268.383
1169.842, 85.592
1171.073, 64.909
1172.304, 314.476
1173.534, 75.707
1174.765, 153.240
1175.995, 254.936
1177.225, 65.880
1178.455, 302.940
1179.685, 134.338
1180.915, 66.903
1182.144, 261.780
1183.374, 22.154
1184.603, 30.771
1185.832, 219.816
1187.060, 89.325
1188.289, 138.817
1189.518, 10.178
1190.746, 41.749
1191.974, 296.612
1193.202, 43.440
1194.430, 15.179
1195.657, 253.029
1196.884, 24.382
1198.112, 202.517
1199.339, 261.180
1200.566, 39.964
1201.792, 227.989
1203.019, 91.096
1204.245, 9.047
1205.471, 346.952
1206.697, 187.780
1207.923, 319.938
1209.149, 157.904
1210.374, 107.154
1211.600, 374.758
1212.825, 73.124
1214.050, 370.649
1215.275, 358.141
1216.499, 80.913
1217.724, 338.325
1218.948, 255.701
1220.172, 74.083
1221.396, 391.378
1222.620, 159.032
1223.843, 136.253
1225.067, 403.432
1226.290, 111.237
1227.513, 228.911
1228.736, 415.972
1229.959, 43.943
1231.181, 310.920
1232.404, 267.903
1233.626, 186.898
1234.848, 423.760
1236.070, 250.699
1237.291, 203.124
1238.513, 519.873
1239.734, 57.128
1240.955, 593.789
1242.177, 290.411
1243.397, 167.437
1244.618, 523.985
1245.838, 240.506
1247.059, 368.297
1248.279, 384.756
1249.499, 161.737
1250.719, 488.131
1251.938, 254.492
1253.158, 131.978
1254.377, 568.272
1255.596, 214.534
1256.815, 422.494
1258.034, 368.689
1259.253, 124.946
1260.471, 521.073
1261.689, 397.163
1262.907, 153.582
1264.125, 399.829
1265.343, 185.810
1266.561, 313.458
1267.778, 559.348
1268.995, 145.173
1270.212, 452.693
1271.429, 428.433
1272.646, 264.134
1273.862, 599.794
1275.079, 315.367
1276.295, 300.900
1277.511, 556.392
1278.727, 141.832
1279.943, 377.188
1281.158, 212.502
1282.373, 167.775
1283.589, 573.250
1284.804, 133.865
1286.019, 438.930
1287.233, 603.949
1288.448, 1.687
1289.662, 283.205
1290.876, 518.058
1292.090, 27.530
1293.304, 527.231
1294.518, 200.019
1295.731, 94.455
1296.944, 469.427
1298.158, 163.894
1299.371, 188.318
1300.583, 292.047
1301.796, 196.059
1303.008, 280.320
1304.221, 401.202
1305.433, 84.637
1306.645, 449.557
1307.856, 151.691
1309.068, 145.681
1310.280, 409.545
1311.491, 33.183
1312.702, 346.771
1313.913, 458.804
1315.124, 57.747
1316.334, 305.134
1317.545, 237.877
1318.755, 171.138
1319.965, 549.149
1321.175, 32.071
1322.385, 285.165
1323.594, 633.492
1324.804, 133.531
1326.013, 378.956
1327.222, 496.616
1328.431, 69.367
1329.639, 661.146
1330.848, 232.927
1332.056, 135.440
1333.265, 627.346
1334.473, 9.403
1335.680, 469.938
1336.888, 608.405
1338.096, 70.703
1339.303, 378.890
1340.510, 448.769
1341.717, 10.907
1342.924, 561.939
1344.131, 193.751
1345.337, 155.717
1346.544, 656.690
1347.750, 21.569
1348.956, 449.504
1350.162, 399.883
1351.367, 58.430
1352.573, 589.486
1353.778, 241.059
1354.983, 52.105
1356.188, 582.888
1357.393, 124.328
1358.598, 354.875
1359.802, 486.236
1361.007, 32.438
1362.211, 467.979
1363.415, 379.211
1364.619, 90.284
1365.822, 680.536
1367.026, 202.264
1368.229, 312.826
1369.432, 753.267
1370.635, 134.332
1371.838, 154.617
1373.041, 525.374
1374.243, 96.390
1375.446, 456.122
1376.648, 277.125
1377.850, 142.036
1379.052, 338.370
1380.253, 269.357
1381.455, 38.825
1382.656, 391.486
1383.857, 152.391
1385.058, 381.478
1386.259, 572.065
1387.459, 172.442
1388.660, 455.175
1389.860, 418.138
1391.060, 60.679
1392.260, 813.544
1393.460, 145.776
1394.660, 358.303
1395.859, 700.266
1397.059, 73.243
1398.258, 615.252
1399.457, 507.118
1400.655, 38.877
1401.854, 721.557
1403.052, 253.721
1404.251, 315.759
1405.449, 797.112
1406.647, 188.798
1407.845, 220.188
1409.042, 621.275
1410.240, 38.161
1411.437, 609.917
1412.634, 644.505
1413.831, 33.818
1415.028, 924.686
1416.224, 785.218
1417.421, 725.650
1418.617, 1104.895
1419.813, 305.262
1421.009, 585.492
1422.205, 623.098
1423.401, 253.683
1424.596, 513.896
1425.791, 484.020
1426.986, 170.958
1428.181, 724.488
1429.376, 465.421
1430.571, 213.885
1431.765, 652.688
1432.960, 298.354
1434.154, 339.115
1435.348, 667.457
1436.541, 193.386
1437.735, 593.199
1438.929, 552.718
1440.122, 95.223
1441.315, 793.846
1442.508, 433.870
1443.701, 251.680
1444.893, 880.749
1446.086, 142.093
1447.278, 462.302
1448.470, 820.668
1449.662, 130.100
1450.854, 699.006
1452.046, 498.019
1453.237, 136.287
1454.428, 783.421
1455.619, 514.541
1456.810, 122.485
1458.001, 910.069
1459.192, 167.762
1460.382, 406.197
1461.573, 821.771
1462.763, 228.686
1463.953, 464.103
1465.143, 751.798
1466.332, 85.449
1467.522, 702.508
1468.711, 458.762
1469.900, 105.124
1471.089, 937.764
1472.278, 400.150
1473.467, 336.584
1474.655, 962.961
1475.843, 209.285
1477.032, 615.603
1478.220, 791.851
1479.407, 117.458
1480.595, 833.782
1481.783, 650.037
1482.970, 196.156
1484.157, 772.074
1485.344, 406.693
1486.531, 102.799
1487.718, 1008.754
1488.904, 224.293
1490.090, 409.486
1491.277, 715.031
1492.463, 80.260
1493.648, 667.520
1494.834, 734.914
1496.020, 122.293
1497.205, 869.746
1498.390, 447.297
1499.575, 154.959
1500.760, 972.797
1501.945, 111.004
1503.129, 419.363
1504.314, 1017.896
1505.498, 16.664
1506.682, 675.668
1507.866, 745.014
1509.049, 25.252
1510.233, 794.953
1511.416, 485.746
1512.600, 77.041
1513.783, 1128.855
1514.966, 181.279
1516.148, 294.404
1517.331, 1008.324
1518.513, 43.189
1519.695, 400.855
