##NAMES=Actinolite
##RRUFFID=R050025
##IDEAL CHEMISTRY=Ca_2_(Mg_4.5-2.5_Fe^2+^_0.5-2.5_)Si_8_O_22_(OH)_2_
##LOCALITY=Tyrol, Austria
##OWNER=RRUFF
##SOURCE=Eugene Schlepp
##DESCRIPTION=Green colored bladed single crystals
##STATUS=The identification of this mineral has been confirmed by X-ray diffraction and chemical analysis
##URL=rruff.info/R050025
##MEASURED CHEMISTRY=(Ca_.930_Na_.056_Mn_.010_K_.004_)_2_(Mg_.883_Fe_.117_)_5_(Si_.978_Al_.022_)_8_O_22_(OH)_2_
##PIN_ID=L00431
##ORIENTATION=Laser parallel to a* (1 0 0). Fiducial mark perpendicular to laser is parallel to b [0 1 0]
77.333, 0.000
78.729, 37.856
80.125, 4.037
81.521, 1.454
82.916, 98.087
84.311, 202.133
85.706, 79.778
87.101, 225.017
88.496, 264.094
89.890, 361.049
91.284, 478.032
92.678, 462.671
94.071, 421.590
95.465, 432.250
96.858, 366.308
98.251, 429.136
99.644, 523.903
101.036, 646.038
102.428, 844.067
103.820, 1104.760
105.212, 1381.762
106.604, 1779.004
107.995, 2280.730
109.387, 2865.410
110.777, 3587.916
112.168, 4736.311
113.559, 5760.082
114.949, 6330.212
116.339, 7234.612
117.729, 8034.143
119.119, 8479.720
120.508, 9074.885
121.897, 8557.812
123.286, 7711.500
124.675, 6218.357
126.063, 4819.192
127.452, 3664.283
128.840, 2739.298
130.228, 2115.156
131.615, 1618.812
133.003, 1138.289
134.390, 783.609
135.777, 802.784
137.164, 556.831
138.550, 464.785
139.937, 405.837
141.323, 197.961
142.709, 146.513
144.094, 54.050
145.480, 2.720
146.865, 47.492
148.250, 70.359
149.635, 61.320
151.019, 61.367
152.403, 56.498
153.788, 137.290
155.171, 257.001
156.555, 447.639
157.939, 583.205
159.322, 694.704
160.705, 627.170
162.088, 598.673
163.470, 282.204
164.853, 297.775
166.235, 329.383
167.617, 483.023
168.998, 947.505
170.380, 1385.873
171.761, 2363.076
173.142, 3379.732
174.523, 4725.860
175.904, 6457.957
177.284, 7479.734
178.664, 8241.957
180.044, 9427.398
181.424, 5882.673
182.803, 4277.763
184.183, 3061.902
185.562, 2260.126
186.940, 1621.458
188.319, 1268.843
189.698, 960.272
191.076, 726.735
192.454, 734.214
193.831, 568.653
195.209, 502.257
196.586, 452.043
197.963, 455.259
199.340, 380.900
200.717, 330.627
202.093, 311.517
203.470, 333.011
204.846, 375.779
206.221, 453.199
207.597, 590.122
208.972, 697.079
210.347, 939.055
211.722, 1070.024
213.097, 1313.980
214.472, 1878.924
215.846, 2435.852
217.220, 3274.764
218.594, 3898.660
219.967, 4852.541
221.341, 5512.406
222.714, 5690.251
224.087, 5460.079
225.460, 4918.890
226.832, 4314.687
228.204, 4003.468
229.577, 3617.232
230.948, 3422.981
232.320, 3216.717
233.692, 2951.437
235.063, 2344.140
236.434, 1826.828
237.805, 1448.501
239.175, 1081.158
240.545, 881.800
241.916, 749.427
243.286, 689.336
244.655, 824.005
246.025, 923.189
247.394, 1087.928
248.763, 1176.917
250.132, 1251.900
251.501, 1124.863
252.869, 1042.788
254.237, 860.663
255.605, 709.479
256.973, 545.239
258.340, 432.941
259.708, 242.580
261.075, 212.124
262.442, 263.551
263.808, 158.877
265.175, 54.113
266.541, 22.739
267.907, 41.683
269.273, 11.719
270.639, 108.834
272.004, 74.050
273.369, 14.352
274.734, 162.732
276.099, 5.378
277.463, 109.254
278.828, 12.494
280.192, 52.172
281.556, 143.053
282.919, 322.077
284.283, 447.990
285.646, 682.356
287.009, 778.606
288.372, 970.949
289.734, 1119.499
291.097, 1027.788
292.459, 914.753
293.821, 768.288
295.183, 783.428
296.544, 781.555
297.905, 770.879
299.266, 913.129
300.627, 875.338
301.988, 1016.737
303.348, 926.641
304.709, 866.668
306.069, 689.035
307.428, 633.136
308.788, 634.067
310.147, 301.845
311.507, 431.025
312.865, 300.907
314.224, 259.004
315.583, 216.447
316.941, 213.063
318.299, 191.572
319.657, 142.395
321.015, 244.445
322.372, 244.477
323.729, 363.491
325.086, 538.490
326.443, 674.473
327.800, 1047.293
329.156, 1283.166
330.512, 1534.268
331.868, 1740.679
333.224, 1768.188
334.579, 1654.949
335.935, 1365.486
337.290, 1183.859
338.645, 1053.157
339.999, 925.262
341.354, 800.270
342.708, 746.840
344.062, 687.123
345.416, 740.666
346.769, 765.881
348.123, 843.295
349.476, 889.488
350.829, 1007.669
352.182, 1027.836
353.534, 1117.991
354.887, 1130.132
356.239, 1088.261
357.591, 1316.376
358.942, 1300.477
360.294, 1718.563
361.645, 2174.632
362.996, 2994.684
364.347, 3952.528
365.698, 5127.288
367.048, 6523.131
368.398, 7408.134
369.748, 7640.125
371.098, 7054.104
372.448, 5969.073
373.797, 4895.029
375.146, 3940.974
376.495, 3507.906
377.844, 3023.826
379.192, 2704.734
380.540, 2844.631
381.889, 2813.515
383.236, 3156.388
384.584, 3447.247
385.932, 4197.095
387.279, 5243.932
388.626, 6322.755
389.973, 7814.567
391.319, 8788.368
392.666, 9756.153
394.012, 9383.933
395.358, 8273.692
396.704, 6909.446
398.049, 5235.185
399.394, 4097.912
400.740, 3142.627
402.084, 2626.330
403.429, 2254.020
404.774, 2064.698
406.118, 2137.347
407.462, 2130.972
408.806, 2368.573
410.150, 2550.150
411.493, 3003.701
412.836, 3363.226
414.179, 3581.723
415.522, 3606.438
416.865, 3621.641
418.207, 3256.060
419.549, 2911.454
420.891, 2398.821
422.233, 2064.709
423.575, 1656.442
424.916, 1324.363
426.257, 1113.819
427.598, 884.274
428.939, 813.842
430.279, 564.195
431.619, 552.406
432.959, 490.743
434.299, 394.402
435.639, 446.936
436.978, 328.822
438.318, 312.774
439.657, 253.219
440.996, 184.944
442.334, 132.996
443.673, 100.048
445.011, 127.695
446.349, 28.845
447.687, 45.212
449.024, 15.959
450.361, 4.805
451.699, 14.012
453.036, 87.016
454.372, 15.973
455.709, 57.986
457.045, 60.801
458.381, 14.101
459.717, 13.438
461.053, 32.444
462.388, 16.770
463.724, 84.793
465.059, 48.286
466.394, 10.307
467.728, 58.067
469.063, 48.420
470.397, 139.780
471.731, 90.929
473.065, 60.288
474.398, 146.500
475.732, 65.574
477.065, 99.503
478.398, 148.455
479.731, 212.302
481.063, 272.929
482.396, 308.966
483.728, 390.991
485.060, 424.307
486.391, 470.614
487.723, 361.903
489.054, 264.176
490.385, 170.450
491.716, 91.705
493.047, 62.966
494.377, 12.204
495.708, 13.568
497.038, 55.642
498.368, 45.166
499.697, 64.990
501.027, 55.143
502.356, 132.279
503.685, 193.423
505.014, 127.553
506.342, 204.663
507.671, 151.758
508.999, 272.844
510.327, 241.920
511.655, 311.982
512.982, 382.027
514.310, 397.058
515.637, 429.072
516.964, 467.458
518.291, 402.065
519.617, 510.038
520.944, 466.996
522.270, 447.938
523.596, 547.884
524.921, 675.814
526.247, 684.737
527.572, 734.663
528.897, 858.572
530.222, 982.466
531.547, 903.349
532.871, 1025.216
534.196, 954.083
535.520, 1025.935
536.844, 1012.771
538.167, 1045.592
539.491, 982.397
540.814, 909.186
542.137, 884.959
543.460, 901.717
544.783, 805.458
546.105, 749.183
547.427, 778.893
548.749, 792.586
550.071, 691.264
551.393, 643.926
552.714, 677.572
554.035, 615.203
555.356, 664.816
556.677, 638.415
557.998, 576.996
559.318, 513.562
560.638, 497.112
561.958, 535.646
563.278, 559.165
564.597, 510.667
565.917, 521.153
567.236, 423.624
568.555, 562.078
569.874, 420.518
571.192, 464.940
572.511, 561.348
573.829, 441.740
575.147, 540.117
576.464, 399.478
577.782, 582.824
579.099, 451.154
580.416, 478.469
581.733, 497.771
583.050, 458.061
584.366, 375.337
585.683, 341.601
586.999, 254.858
588.315, 239.121
589.630, 172.339
590.946, 106.671
592.261, 67.974
593.576, 32.293
594.891, 3.388
596.206, 118.038
597.520, 6.760
598.834, 137.467
600.148, 60.424
601.462, 26.658
602.776, 16.069
604.089, 2.401
605.402, 6.218
606.715, 2.052
608.028, 2.200
609.341, 36.887
610.653, 50.754
611.965, 23.351
613.277, 74.434
614.589, 103.575
615.901, 22.693
617.212, 116.578
618.523, 53.500
619.834, 69.429
621.145, 112.131
622.456, 122.297
623.766, 228.301
625.076, 141.404
626.386, 195.433
627.696, 287.414
629.006, 237.769
630.315, 382.914
631.624, 365.922
632.933, 410.284
634.242, 509.300
635.551, 526.313
636.859, 624.750
638.167, 638.360
639.475, 841.982
640.783, 837.229
642.090, 994.830
643.398, 1100.581
644.705, 1265.159
646.012, 1448.233
647.318, 1657.741
648.625, 1874.172
649.931, 2110.842
651.237, 2380.770
652.543, 2754.853
653.849, 3267.505
655.155, 3670.571
656.460, 4355.084
657.765, 4909.243
659.070, 5992.010
660.375, 6973.417
661.679, 8747.844
662.984, 10764.953
664.288, 13423.354
665.592, 17550.293
666.895, 22489.955
668.199, 29237.396
669.502, 36858.867
670.805, 43460.211
672.108, 47370.535
673.411, 47643.980
674.713, 41155.281
676.016, 34685.574
677.318, 26747.949
678.620, 20621.271
679.921, 15833.887
681.223, 12289.129
682.524, 9574.876
683.825, 7717.847
685.126, 6398.095
686.427, 5268.290
687.727, 4410.550
689.028, 3880.722
690.328, 3251.396
691.628, 2894.542
692.927, 2484.831
694.227, 2301.953
695.526, 2107.065
696.825, 1812.164
698.124, 1651.251
699.423, 1580.326
700.721, 1397.390
702.020, 1338.443
703.318, 1244.483
704.616, 1115.513
705.913, 987.530
707.211, 954.537
708.508, 937.532
709.805, 831.516
711.102, 841.489
712.399, 758.452
713.695, 623.402
714.992, 698.343
716.288, 546.273
717.584, 718.192
718.879, 541.101
720.175, 635.999
721.470, 588.887
722.765, 584.765
724.060, 602.632
725.355, 615.489
726.649, 599.337
727.944, 683.175
729.238, 621.003
730.532, 748.821
731.825, 629.631
733.119, 749.430
734.412, 807.220
735.705, 745.001
736.998, 869.773
738.291, 965.536
739.584, 1032.290
740.876, 1166.034
742.168, 1328.452
743.460, 1395.497
744.752, 1748.215
746.043, 1915.925
747.334, 2210.381
748.626, 2189.667
749.916, 2234.799
751.207, 2242.236
752.498, 1818.462
753.788, 1619.657
755.078, 1291.635
756.368, 1122.437
757.658, 857.349
758.947, 727.919
760.237, 619.340
761.526, 522.516
762.815, 435.202
764.104, 441.920
765.392, 296.189
766.680, 411.613
767.969, 308.937
769.257, 347.283
770.544, 310.783
771.832, 224.947
773.119, 240.514
774.406, 177.827
775.693, 198.209
776.980, 141.783
778.267, 92.399
779.553, 171.077
780.839, 93.758
782.125, 85.437
783.411, 126.115
784.697, 68.791
785.982, 87.465
787.267, 73.138
788.552, 67.808
789.837, 5.522
791.122, 33.136
792.406, 73.792
793.690, 128.443
794.974, 1.908
796.258, 103.730
797.542, 29.635
798.825, 58.977
800.108, 21.584
801.391, 65.812
802.674, 33.750
803.957, 102.689
805.239, 40.812
806.522, 52.688
807.804, 59.217
809.085, 14.776
810.367, 41.346
811.649, 66.927
812.930, 10.545
814.211, 99.174
815.492, 27.143
816.772, 34.456
818.053, 53.769
819.333, 26.920
820.613, 18.627
821.893, 14.651
823.173, 4.926
824.452, 54.199
825.732, 49.469
827.011, 17.262
828.290, 43.995
829.568, 36.250
830.847, 4.503
832.125, 12.754
833.403, 73.996
834.681, 53.213
835.959, 26.578
837.236, 65.384
838.514, 11.775
839.791, 53.933
841.068, 19.910
842.345, 33.236
843.621, 63.618
844.898, 105.496
846.174, 1.390
847.450, 38.721
848.726, 43.832
850.001, 33.943
851.277, 62.054
852.552, 52.166
853.827, 155.277
855.102, 39.389
856.376, 23.502
857.651, 102.615
858.925, 72.729
860.199, 87.844
861.473, 88.960
862.746, 72.078
864.020, 216.207
865.293, 86.337
866.566, 215.469
867.839, 147.604
869.112, 213.739
870.384, 211.877
871.656, 125.033
872.928, 244.191
874.200, 187.369
875.472, 239.549
876.744, 260.733
878.015, 268.935
879.286, 251.139
880.557, 253.355
881.828, 253.574
883.098, 258.796
884.369, 389.022
885.639, 381.250
886.909, 550.483
888.178, 723.719
889.448, 365.958
890.717, 416.201
891.987, 391.452
893.256, 422.706
894.524, 261.986
895.793, 324.277
897.061, 363.571
898.330, 314.872
899.598, 422.193
900.865, 402.522
902.133, 355.872
903.401, 502.232
904.668, 328.618
905.935, 445.045
907.202, 410.484
908.468, 452.985
909.735, 615.512
911.001, 657.056
912.267, 684.224
913.533, 560.204
914.799, 683.796
916.064, 692.397
917.330, 669.009
918.595, 797.640
919.860, 884.295
921.124, 1064.965
922.389, 1255.641
923.653, 1444.323
924.918, 1696.022
926.182, 1948.728
927.445, 2226.439
928.709, 2628.157
929.972, 2663.880
931.236, 2528.617
932.499, 2481.357
933.761, 2173.103
935.024, 1831.863
936.286, 1704.628
937.549, 1427.138
938.811, 1172.171
940.073, 1041.951
941.334, 904.745
942.596, 753.680
943.857, 756.395
945.118, 677.210
946.379, 684.030
947.640, 618.219
948.900, 711.049
950.161, 490.721
951.421, 556.560
952.681, 587.289
953.940, 522.789
955.200, 558.583
956.459, 470.807
957.719, 500.648
958.978, 442.051
960.236, 416.067
961.495, 403.729
962.753, 387.502
964.012, 377.497
965.270, 410.448
966.527, 405.077
967.785, 467.937
969.043, 430.838
970.300, 476.760
971.557, 449.930
972.814, 424.575
974.071, 447.436
975.327, 485.268
976.583, 434.225
977.840, 454.188
979.095, 431.027
980.351, 484.004
981.607, 466.988
982.862, 355.883
984.117, 428.822
985.372, 398.464
986.627, 331.475
987.882, 450.974
989.136, 286.248
990.390, 411.237
991.644, 367.274
992.898, 309.241
994.152, 439.292
995.405, 416.837
996.659, 458.903
997.912, 438.825
999.165, 369.907
1000.417, 552.995
1001.670, 493.090
1002.922, 587.193
1004.174, 608.305
1005.426, 645.423
1006.678, 676.551
1007.930, 745.686
1009.181, 755.827
1010.432, 908.087
1011.683, 926.379
1012.934, 1025.551
1014.185, 1046.045
1015.435, 1171.278
1016.685, 1184.506
1017.935, 1305.988
1019.185, 1538.228
1020.435, 1671.587
1021.684, 1922.511
1022.934, 2210.791
1024.183, 2619.123
1025.432, 3120.685
1026.680, 3467.291
1027.929, 4073.144
1029.177, 3999.454
1030.425, 3949.898
1031.673, 3400.327
1032.921, 2971.794
1034.169, 2503.458
1035.416, 2092.794
1036.663, 1781.409
1037.911, 1642.957
1039.157, 1457.509
1040.404, 1347.134
1041.650, 1335.218
1042.897, 1286.697
1044.143, 1268.472
1045.389, 1315.460
1046.634, 1419.840
1047.880, 1488.901
1049.125, 1636.271
1050.371, 1775.170
1051.615, 1956.102
1052.860, 2226.506
1054.105, 2505.510
1055.349, 2805.190
1056.593, 3001.697
1057.837, 3087.069
1059.081, 3153.716
1060.325, 3036.343
1061.568, 2957.273
1062.812, 2941.717
1064.055, 2975.627
1065.298, 3232.150
1066.540, 3350.809
1067.783, 3510.536
1069.025, 3496.169
1070.267, 3360.742
1071.509, 2962.520
1072.751, 2638.032
1073.993, 2211.346
1075.234, 2072.079
1076.475, 1797.646
1077.716, 1598.579
1078.957, 1525.165
1080.198, 1326.456
1081.438, 1281.257
1082.679, 1222.817
1083.919, 1166.919
1085.159, 1090.352
1086.398, 939.784
1087.638, 928.996
1088.877, 840.448
1090.116, 757.143
1091.355, 725.675
1092.594, 675.070
1093.833, 695.763
1095.071, 628.478
1096.309, 628.100
1097.547, 608.734
1098.785, 542.167
1100.023, 487.808
1101.260, 555.347
1102.498, 377.779
1103.735, 479.227
1104.972, 590.083
1106.208, 534.550
1107.445, 455.393
1108.681, 441.009
1109.918, 402.600
1111.154, 456.442
1112.389, 453.940
1113.625, 395.451
1114.860, 369.963
1116.096, 293.541
1117.331, 338.362
1118.566, 354.886
1119.800, 246.404
1121.035, 212.470
1122.269, 272.127
1123.503, 271.913
1124.737, 307.677
1125.971, 268.183
1127.205, 286.233
1128.438, 232.730
1129.671, 223.220
1130.904, 186.862
1132.137, 148.550
1133.370, 150.019
1134.602, 223.680
1135.834, 67.154
1137.066, 261.628
1138.298, 216.388
1139.530, 125.864
1140.762, 261.610
1141.993, 53.206
1143.224, 220.017
1144.455, 104.703
1145.686, 84.474
1146.917, 147.939
1148.147, 123.385
1149.377, 141.058
1150.607, 140.770
1151.837, 94.556
1153.067, 59.086
1154.296, 129.291
1155.526, 104.670
1156.755, 102.154
1157.984, 30.702
1159.213, 26.104
1160.441, 166.990
1161.670, 43.461
1162.898, 52.831
1164.126, 76.892
1165.354, 15.162
1166.581, 96.532
1167.809, 50.043
1169.036, 58.724
1170.263, 152.826
1171.490, 61.835
1172.717, 21.291
1173.943, 13.984
1175.170, 52.555
1176.396, 90.695
1177.622, 29.081
1178.848, 66.083
1180.073, 59.455
1181.299, 14.716
1182.524, 111.673
1183.749, 33.061
1184.974, 50.987
1186.199, 51.964
1187.423, 37.458
1188.648, 2.665
1189.872, 76.396
1191.096, 76.428
1192.320, 15.649
1193.543, 134.283
1194.767, 0.016
1195.990, 52.264
1197.213, 3.735
1198.436, 44.423
1199.659, 3.754
1200.881, 44.755
1202.104, 45.774
1203.326, 88.896
1204.548, 49.447
1205.770, 57.997
1206.991, 67.665
1208.213, 24.730
1209.434, 113.638
1210.655, 13.664
1211.876, 96.994
1213.096, 65.434
1214.317, 54.396
1215.537, 77.671
1216.757, 93.062
1217.977, 44.623
1219.197, 108.841
1220.417, 26.205
1221.636, 60.098
1222.855, 100.235
1224.074, 23.922
1225.293, 97.018
1226.512, 8.460
1227.731, 46.724
1228.949, 104.745
1230.167, 19.679
1231.385, 141.413
1232.603, 140.698
1233.820, 20.078
1235.038, 187.036
1236.255, 8.931
1237.472, 129.000
1238.689, 179.830
1239.906, 7.354
1241.122, 86.438
1242.338, 108.213
1243.555, 105.972
1244.771, 176.714
1245.986, 106.439
1247.202, 130.392
1248.417, 168.087
1249.633, 160.814
1250.848, 58.475
1252.063, 158.117
1253.277, 68.051
1254.492, 125.656
1255.706, 135.243
1256.920, 76.105
1258.134, 260.657
1259.348, 165.191
1260.562, 238.830
1261.775, 152.326
1262.988, 93.953
1264.201, 188.575
1265.414, 206.012
1266.627, 49.430
1267.839, 133.822
1269.052, 102.195
1270.264, 106.720
1271.476, 181.038
1272.688, 51.306
1273.899, 196.561
1275.111, 178.735
1276.322, 131.889
1277.533, 120.017
1278.744, 171.122
1279.955, 128.426
1281.165, 173.625
1282.376, 178.837
1283.586, 106.919
1284.796, 216.905
1286.006, 106.868
1287.215, 142.840
1288.425, 89.759
1289.634, 121.656
1290.843, 99.529
1292.052, 171.375
1293.261, 174.186
1294.469, 117.976
1295.678, 106.740
1296.886, 87.181
1298.094, 146.162
1299.302, 39.838
1300.509, 185.476
1301.717, 151.088
1302.924, 133.677
1304.131, 166.131
1305.338, 2.484
1306.545, 125.950
1307.752, 181.045
1308.958, 102.616
1310.164, 314.948
1311.370, 151.006
1312.576, 114.292
1313.782, 258.937
1314.987, 49.499
1316.193, 136.690
1317.398, 255.809
1318.603, 52.677
1319.807, 85.483
1321.012, 122.021
1322.216, 125.081
1323.421, 129.988
1324.625, 76.889
1325.829, 99.731
1327.032, 209.359
1328.236, 10.297
1329.439, 205.936
1330.642, 152.621
1331.845, 47.279
1333.048, 184.847
1334.251, 118.936
1335.453, 87.612
1336.656, 164.972
1337.858, 118.101
1339.060, 185.820
1340.261, 171.255
1341.463, 81.947
1342.664, 114.092
1343.866, 141.225
1345.067, 57.829
1346.267, 191.980
1347.468, 33.266
1348.669, 114.707
1349.869, 220.427
1351.069, 12.303
1352.269, 102.971
1353.469, 183.927
1354.668, 23.354
1355.868, 148.302
1357.067, 117.763
1358.266, 20.065
1359.465, 171.944
1360.664, 115.031
1361.862, 70.161
1363.061, 185.061
1364.259, 5.797
1365.457, 109.526
1366.655, 223.647
1367.852, 29.670
1369.050, 166.309
1370.247, 44.494
1371.444, 108.753
1372.641, 196.468
1373.838, 20.581
1375.035, 108.784
1376.231, 59.759
1377.427, 83.171
1378.623, 127.406
1379.819, 102.339
1381.015, 117.341
1382.211, 201.072
1383.406, 146.038
1384.601, 169.855
1385.796, 234.959
1386.991, 180.029
1388.185, 249.063
1389.380, 169.564
1390.574, 80.525
1391.768, 148.403
1392.962, 126.970
1394.156, 217.211
1395.350, 211.567
1396.543, 65.057
1397.736, 163.159
1398.929, 164.681
1400.122, 69.107
1401.315, 229.531
1402.507, 138.802
1403.700, 109.029
1404.892, 214.962
1406.084, 102.784
1407.276, 99.210
1408.467, 175.950
1409.659, 153.684
1410.850, 159.971
1412.041, 203.879
1413.232, 90.678
1414.423, 280.596
1415.614, 119.807
1416.804, 117.316
1417.994, 193.837
1419.184, 131.553
1420.374, 131.140
1421.564, 246.523
1422.753, 63.664
1423.943, 83.140
1425.132, 244.842
1426.321, 53.653
1427.510, 247.125
1428.698, 119.400
1429.887, 105.936
1431.075, 236.211
1432.263, 144.620
1433.451, 172.792
1434.639, 254.368
1435.827, 169.451
1437.014, 141.946
1438.201, 208.602
1439.388, 161.457
1440.575, 166.926
1441.762, 137.032
1442.949, 116.201
1444.135, 184.773
1445.321, 205.540
1446.507, 106.881
1447.693, 255.159
1448.879, 107.039
1450.064, 208.898
1451.250, 173.994
1452.435, 28.201
1453.620, 165.343
1454.805, 158.430
1455.989, 5.096
1457.174, 215.735
1458.358, 151.900
1459.542, 117.708
1460.726, 278.741
1461.910, 79.087
1463.093, 150.296
1464.277, 183.382
1465.460, 83.830
1466.643, 238.749
1467.826, 322.205
1469.009, 124.799
1470.191, 245.522
1471.373, 193.568
1472.556, 141.816
1473.738, 340.680
1474.919, 98.167
1476.101, 198.700
1477.283, 211.195
1478.464, 193.746
1479.645, 173.329
1480.826, 210.931
1482.007, 44.398
1483.187, 210.253
1484.368, 196.261
1485.548, 60.499
1486.728, 339.711
1487.908, 27.671
1489.088, 137.832
1490.268, 197.041
1491.447, 32.317
1492.626, 128.684
1493.805, 192.148
1494.984, 93.686
1496.163, 299.337
1497.341, 250.139
1498.520, 41.070
1499.698, 251.149
1500.876, 124.767
1502.054, 173.905
1503.232, 350.725
1504.409, 82.370
1505.586, 179.855
1506.763, 274.724
1507.940, 11.385
