##NAMES=Actinolite
##RRUFFID=R050025
##IDEAL CHEMISTRY=Ca_2_(Mg_4.5-2.5_Fe^2+^_0.5-2.5_)Si_8_O_22_(OH)_2_
##LOCALITY=Tyrol, Austria
##OWNER=RRUFF
##SOURCE=Eugene Schlepp
##DESCRIPTION=Green colored bladed single crystals
##STATUS=The identification of this mineral has been confirmed by X-ray diffraction and chemical analysis
##URL=rruff.info/R050025
##MEASURED CHEMISTRY=(Ca_.930_Na_.056_Mn_.010_K_.004_)_2_(Mg_.883_Fe_.117_)_5_(Si_.978_Al_.022_)_8_O_22_(OH)_2_
##PIN_ID=L00525
##ORIENTATION=Laser parallel to b* (0 1 0). Fiducial mark perpendicular to laser is parallel to c [0 0 1]
85.706, 0.000
87.101, 31.299
88.496, 3.926
89.890, 59.887
91.284, 545.234
92.678, 317.700
94.071, 502.775
95.465, 264.064
96.858, 217.293
98.251, 263.859
99.644, 309.958
101.036, 333.801
102.428, 319.485
103.820, 503.820
105.212, 729.788
106.604, 859.635
107.995, 1431.793
109.387, 1331.229
110.777, 1814.941
112.168, 2214.391
113.559, 3325.396
114.949, 3885.672
116.339, 5137.539
117.729, 5780.683
119.119, 6058.042
120.508, 7128.547
121.897, 6759.037
123.286, 6642.381
124.675, 5179.603
126.063, 3776.075
127.452, 2822.602
128.840, 2073.150
130.228, 1658.261
131.615, 1194.309
133.003, 887.408
134.390, 545.412
135.777, 524.203
137.164, 375.668
138.550, 480.509
139.937, 437.675
141.323, 113.477
142.709, 80.464
144.094, 70.654
145.480, 53.300
146.865, 26.686
148.250, 89.595
149.635, 93.010
151.019, 38.900
152.403, 276.763
153.788, 632.000
155.171, 1369.832
156.555, 2743.277
157.939, 7496.352
159.322, 9507.074
160.705, 8247.454
162.088, 6116.511
163.470, 3596.447
164.853, 2180.416
166.235, 1498.030
167.617, 1123.209
168.998, 1345.230
170.380, 1386.777
171.761, 2085.050
173.142, 2640.712
174.523, 4476.037
175.904, 7168.262
177.284, 9529.694
178.664, 9564.268
180.044, 10968.439
181.424, 8685.989
182.803, 5900.140
184.183, 3974.247
185.562, 2928.184
186.940, 2049.706
188.319, 1715.194
189.698, 1286.666
191.076, 1169.031
192.454, 1019.865
193.831, 919.038
195.209, 862.178
196.586, 720.263
197.963, 749.180
199.340, 832.662
200.717, 795.891
202.093, 826.593
203.470, 843.162
204.846, 1082.419
206.221, 1036.765
207.597, 1385.767
208.972, 1453.349
210.347, 1804.916
211.722, 1967.474
213.097, 2287.013
214.472, 3235.534
215.846, 3748.033
217.220, 5519.489
218.594, 6758.889
219.967, 9637.225
221.341, 12156.491
222.714, 12769.688
224.087, 13551.817
225.460, 10556.867
226.832, 8565.847
228.204, 6266.759
229.577, 4743.604
230.948, 3835.383
232.320, 2809.098
233.692, 2383.749
235.063, 1705.335
236.434, 1341.860
237.805, 925.321
239.175, 669.721
240.545, 563.060
241.916, 351.338
243.286, 381.557
244.655, 266.717
246.025, 394.810
247.394, 464.818
248.763, 544.736
250.132, 801.579
251.501, 569.899
252.869, 628.270
254.237, 418.556
255.605, 306.781
256.973, 281.837
258.340, 184.697
259.708, 151.325
261.075, 34.696
262.442, 159.797
263.808, 170.645
265.175, 60.235
266.541, 23.511
267.907, 50.588
269.273, 15.956
270.639, 171.808
272.004, 28.903
273.369, 118.263
274.734, 177.900
276.099, 12.845
277.463, 54.066
278.828, 14.646
280.192, 16.847
281.556, 14.069
282.919, 72.927
284.283, 105.848
285.646, 277.623
287.009, 341.689
288.372, 438.897
289.734, 517.738
291.097, 604.045
292.459, 637.441
293.821, 665.250
295.183, 733.031
296.544, 686.551
297.905, 973.722
299.266, 1151.283
300.627, 1334.654
301.988, 1758.328
303.348, 1608.371
304.709, 1662.422
306.069, 1250.464
307.428, 1013.649
308.788, 781.068
310.147, 586.573
311.507, 578.429
312.865, 387.574
314.224, 380.499
315.583, 238.567
316.941, 155.913
318.299, 265.389
319.657, 203.763
321.015, 315.141
322.372, 291.162
323.729, 382.840
325.086, 352.425
326.443, 453.942
327.800, 668.441
329.156, 754.805
330.512, 1247.479
331.868, 1304.601
333.224, 1591.575
334.579, 1668.032
335.935, 1446.695
337.290, 1698.502
338.645, 1672.176
339.999, 1911.639
341.354, 2162.990
342.708, 2142.850
344.062, 2368.505
345.416, 1997.881
346.769, 1946.858
348.123, 1628.815
349.476, 1668.156
350.829, 1657.391
352.182, 1425.507
353.534, 1487.556
354.887, 1165.563
356.239, 1194.529
357.591, 1066.457
358.942, 892.251
360.294, 1163.424
361.645, 1007.690
362.996, 1427.272
364.347, 1485.662
365.698, 1997.127
367.048, 2764.616
368.398, 3153.168
369.748, 3245.048
371.098, 3426.140
372.448, 2957.576
373.797, 2370.979
375.146, 1774.352
376.495, 1592.691
377.844, 1196.000
379.192, 1283.276
380.540, 1043.521
381.889, 1097.734
383.236, 1220.916
384.584, 1239.066
385.932, 1595.186
387.279, 1755.274
388.626, 2372.332
389.973, 3031.361
391.319, 3639.360
392.666, 4872.328
394.012, 4559.266
395.358, 4546.175
396.704, 3672.055
398.049, 2675.906
399.394, 2206.729
400.740, 1537.574
402.084, 1468.801
403.429, 1061.566
404.774, 996.521
406.118, 1037.494
407.462, 880.749
408.806, 1080.965
410.150, 1133.417
411.493, 1465.257
412.836, 1576.802
414.179, 1696.459
415.522, 2048.231
416.865, 1810.047
418.207, 1939.097
419.549, 1501.858
420.891, 1331.654
422.233, 1134.953
423.575, 831.820
424.916, 790.215
426.257, 598.530
427.598, 588.204
428.939, 541.333
430.279, 488.889
431.619, 596.989
432.959, 703.909
434.299, 1195.021
435.639, 910.218
436.978, 897.822
438.318, 736.140
439.657, 503.500
440.996, 424.288
442.334, 201.928
443.673, 202.819
445.011, 126.291
446.349, 18.656
447.687, 44.215
449.024, 2.467
450.361, 1.485
451.699, 0.497
453.036, 21.298
454.372, 7.087
455.709, 0.595
457.045, 34.848
458.381, 95.086
459.717, 70.500
461.053, 65.052
462.388, 37.688
463.724, 41.148
465.059, 7.428
466.394, 86.955
467.728, 83.317
469.063, 75.672
470.397, 55.042
471.731, 24.228
473.065, 35.501
474.398, 18.506
475.732, 61.576
477.065, 112.985
478.398, 51.707
479.731, 149.310
481.063, 127.394
482.396, 193.162
483.728, 255.807
485.060, 265.823
486.391, 344.700
487.723, 240.985
489.054, 249.156
490.385, 150.356
491.716, 23.532
493.047, 41.679
494.377, 19.203
495.708, 71.906
497.038, 8.994
498.368, 7.059
499.697, 26.105
501.027, 38.880
502.356, 62.098
503.685, 32.945
505.014, 57.984
506.342, 105.887
507.671, 68.768
508.999, 188.624
510.327, 195.461
511.655, 208.279
512.982, 331.082
514.310, 298.871
515.637, 446.664
516.964, 456.452
518.291, 463.222
519.617, 544.989
520.944, 478.743
522.270, 487.499
523.596, 377.242
524.921, 499.969
526.247, 467.691
527.572, 402.397
528.897, 510.087
530.222, 481.762
531.547, 529.419
532.871, 475.060
534.196, 338.684
535.520, 407.296
536.844, 329.529
538.167, 425.471
539.491, 300.041
540.814, 253.593
542.137, 267.128
543.460, 185.651
544.783, 285.158
546.105, 192.649
547.427, 201.125
548.749, 280.584
550.071, 184.027
551.393, 291.455
552.714, 186.866
554.035, 199.261
555.356, 224.640
556.677, 170.003
557.998, 271.351
559.318, 130.683
560.638, 264.999
561.958, 179.301
563.278, 93.592
564.597, 150.875
565.917, 86.149
567.236, 80.417
568.555, 88.675
569.874, 70.922
571.192, 205.156
572.511, 114.375
573.829, 166.583
575.147, 131.779
576.464, 141.966
577.782, 198.149
579.099, 121.329
580.416, 143.934
581.733, 149.692
583.050, 79.888
584.366, 146.086
585.683, 50.286
586.999, 154.495
588.315, 20.280
589.630, 1.972
590.946, 107.239
592.261, 32.426
593.576, 98.927
594.891, 30.666
596.206, 42.199
597.520, 34.279
598.834, 59.207
600.148, 31.313
601.462, 61.791
602.776, 10.142
604.089, 8.784
605.402, 8.485
606.715, 20.819
608.028, 9.075
609.341, 24.184
610.653, 46.337
611.965, 24.033
613.277, 57.070
614.589, 84.488
615.901, 77.094
617.212, 124.000
618.523, 117.490
619.834, 193.547
621.145, 136.908
622.456, 246.844
623.766, 250.053
625.076, 264.794
626.386, 387.825
627.696, 292.530
629.006, 454.227
630.315, 493.210
631.624, 499.912
632.933, 580.931
634.242, 568.471
635.551, 762.691
636.859, 873.195
638.167, 862.391
639.475, 1160.907
640.783, 1094.384
642.090, 1446.473
643.398, 1560.024
644.705, 1726.936
646.012, 2280.331
647.318, 2388.003
648.625, 3097.492
649.931, 3527.167
651.237, 3876.178
652.543, 4930.025
653.849, 4800.355
655.155, 5528.354
656.460, 5559.042
657.765, 5408.778
659.070, 6333.595
660.375, 6037.753
661.679, 7422.737
662.984, 8309.686
664.288, 9457.854
665.592, 12780.833
666.895, 14514.258
668.199, 21200.756
669.502, 25795.078
670.805, 32288.354
672.108, 41219.781
673.411, 38852.219
674.713, 39352.645
676.016, 32311.494
677.318, 24157.264
678.620, 19458.422
679.921, 13433.604
681.223, 10999.929
682.524, 8240.996
683.825, 6324.388
685.126, 5532.945
686.427, 4157.366
687.727, 3798.623
689.028, 3140.958
690.328, 2632.269
691.628, 2421.294
692.927, 1896.738
694.227, 1831.833
695.526, 1646.303
696.825, 1375.381
698.124, 1365.450
699.423, 1078.391
700.721, 1056.441
702.020, 950.779
703.318, 781.812
704.616, 827.835
705.913, 642.002
707.211, 702.008
708.508, 562.004
709.805, 498.992
711.102, 555.971
712.399, 443.942
713.695, 464.903
714.992, 435.856
716.288, 378.748
717.584, 478.684
718.879, 347.611
720.175, 402.344
721.470, 306.254
722.765, 342.952
724.060, 357.625
725.355, 303.331
726.649, 327.961
727.944, 315.591
729.238, 330.638
730.532, 355.489
731.825, 267.332
733.119, 369.166
734.412, 313.992
735.705, 221.811
736.998, 389.621
738.291, 337.423
739.584, 428.074
740.876, 344.859
742.168, 352.382
743.460, 485.151
744.752, 429.000
746.043, 560.309
747.334, 671.052
748.626, 731.511
749.916, 779.412
751.207, 699.726
752.498, 749.825
753.788, 668.250
755.078, 523.677
756.368, 511.079
757.658, 339.379
758.947, 369.687
760.237, 301.988
761.526, 161.291
762.815, 223.646
764.104, 58.732
765.392, 164.101
766.680, 125.563
767.969, 67.935
769.257, 133.445
770.544, 25.070
771.832, 14.660
773.119, 157.279
774.406, 14.107
775.693, 101.488
776.980, 6.077
778.267, 59.657
779.553, 51.233
780.839, 29.198
782.125, 50.343
783.411, 25.123
784.697, 21.387
785.982, 15.893
787.267, 65.609
788.552, 82.844
789.837, 28.708
791.122, 100.711
792.406, 22.125
793.690, 14.470
794.974, 13.912
796.258, 14.716
797.542, 22.369
798.825, 8.950
800.108, 20.744
801.391, 19.533
802.674, 11.200
803.957, 5.954
805.239, 10.725
806.522, 99.515
807.804, 31.366
809.085, 30.247
810.367, 42.155
811.649, 20.902
812.930, 10.048
814.211, 12.010
815.492, 26.993
816.772, 14.002
818.053, 12.988
819.333, 14.513
820.613, 17.932
821.893, 14.890
823.173, 4.165
824.452, 3.237
825.732, 73.327
827.011, 41.470
828.290, 32.350
829.568, 48.840
830.847, 4.930
832.125, 54.313
833.403, 3.599
834.681, 42.097
835.959, 37.216
837.236, 20.438
838.514, 8.083
839.791, 13.715
841.068, 44.337
842.345, 22.951
843.621, 25.555
844.898, 3.849
846.174, 8.730
847.450, 108.298
848.726, 13.141
850.001, 79.400
851.277, 80.933
852.552, 4.540
853.827, 67.970
855.102, 8.474
856.376, 76.968
857.651, 66.455
858.925, 26.935
860.199, 137.411
861.473, 65.880
862.746, 120.343
864.020, 145.799
865.293, 82.249
866.566, 212.693
867.839, 87.131
869.112, 159.563
870.384, 142.996
871.656, 175.425
872.928, 174.846
874.200, 197.264
875.472, 177.975
876.744, 216.695
878.015, 132.489
879.286, 251.888
880.557, 247.287
881.828, 195.681
883.098, 310.070
884.369, 281.469
885.639, 343.864
886.909, 383.265
888.178, 328.662
889.448, 443.054
890.717, 385.464
891.987, 390.870
893.256, 439.273
894.524, 348.682
895.793, 460.087
897.061, 401.492
898.330, 413.902
899.598, 584.310
900.865, 488.715
902.133, 490.124
903.401, 573.527
904.668, 497.952
905.935, 613.381
907.202, 605.821
908.468, 761.270
909.735, 771.716
911.001, 708.177
912.267, 873.635
913.533, 837.093
914.799, 903.560
916.064, 1108.025
917.330, 1085.352
918.595, 1442.814
919.860, 1541.272
921.124, 1684.646
922.389, 2126.113
923.653, 2203.301
924.918, 2767.461
926.182, 3223.933
927.445, 3443.817
928.709, 4501.284
929.972, 4353.190
931.236, 4467.524
932.499, 4479.820
933.761, 3662.813
935.024, 3424.104
936.286, 2786.319
937.549, 2276.484
938.811, 2182.624
940.073, 1790.381
941.334, 1938.813
942.596, 1811.789
943.857, 1677.238
945.118, 2079.409
946.379, 1820.179
947.640, 1942.270
948.900, 1960.025
950.161, 1671.341
951.421, 1687.308
952.681, 1430.726
953.940, 1340.903
955.200, 1233.850
956.459, 978.081
957.719, 1053.049
958.978, 862.618
960.236, 812.398
961.495, 904.244
962.753, 644.394
964.012, 784.576
965.270, 698.592
966.527, 627.504
967.785, 724.553
969.043, 586.661
970.300, 610.708
971.557, 570.874
972.814, 547.054
974.071, 631.190
975.327, 542.560
976.583, 581.985
977.840, 654.245
979.095, 525.489
980.351, 606.745
981.607, 474.566
982.862, 431.455
984.117, 484.951
985.372, 395.417
986.627, 510.733
987.882, 480.296
989.136, 433.529
990.390, 535.587
991.644, 480.776
992.898, 492.121
994.152, 500.379
995.405, 400.653
996.659, 541.208
997.912, 478.333
999.165, 489.802
1000.417, 564.888
1001.670, 453.360
1002.922, 608.836
1004.174, 674.431
1005.426, 620.911
1006.678, 800.096
1007.930, 688.683
1009.181, 672.180
1010.432, 852.182
1011.683, 720.681
1012.934, 878.187
1014.185, 916.763
1015.435, 918.271
1016.685, 1078.021
1017.935, 977.532
1019.185, 1191.057
1020.435, 1256.303
1021.684, 1268.005
1022.934, 1651.556
1024.183, 1706.331
1025.432, 1894.862
1026.680, 2376.721
1027.929, 2312.575
1029.177, 2645.215
1030.425, 2641.533
1031.673, 2379.188
1032.921, 2465.979
1034.169, 2063.248
1035.416, 2024.807
1036.663, 2105.317
1037.911, 1890.008
1039.157, 2203.671
1040.404, 2328.763
1041.650, 2361.537
1042.897, 2886.418
1044.143, 2801.529
1045.389, 3388.209
1046.634, 4000.978
1047.880, 4157.514
1049.125, 5601.337
1050.371, 6053.456
1051.615, 7313.449
1052.860, 9395.006
1054.105, 9946.505
1055.349, 12988.101
1056.593, 14486.253
1057.837, 14394.491
1059.081, 16379.234
1060.325, 14076.747
1061.568, 12505.471
1062.812, 11278.391
1064.055, 8410.086
1065.298, 7799.758
1066.540, 6456.441
1067.783, 5455.414
1069.025, 5263.029
1070.267, 4214.984
1071.509, 3832.683
1072.751, 3339.476
1073.993, 2600.232
1075.234, 2515.795
1076.475, 2053.698
1077.716, 1866.552
1078.957, 1779.085
1080.198, 1381.058
1081.438, 1412.777
1082.679, 1211.515
1083.919, 1131.091
1085.159, 1193.815
1086.398, 910.488
1087.638, 976.467
1088.877, 908.007
1090.116, 790.314
1091.355, 849.867
1092.594, 753.551
1093.833, 629.429
1095.071, 724.991
1096.309, 535.724
1097.547, 631.371
1098.785, 542.928
1100.023, 488.417
1101.260, 651.272
1102.498, 439.017
1103.735, 516.969
1104.972, 539.529
1106.208, 395.089
1107.445, 445.073
1108.681, 418.721
1109.918, 462.688
1111.154, 474.366
1112.389, 341.973
1113.625, 397.299
1114.860, 375.904
1116.096, 273.665
1117.331, 376.698
1118.566, 285.304
1119.800, 282.223
1121.035, 346.112
1122.269, 204.705
1123.503, 362.548
1124.737, 300.236
1125.971, 178.031
1127.205, 374.181
1128.438, 174.789
1129.671, 214.581
1130.904, 244.548
1132.137, 189.155
1133.370, 212.896
1134.602, 161.524
1135.834, 143.202
1137.066, 276.172
1138.298, 92.796
1139.530, 135.694
1140.762, 211.501
1141.993, 74.104
1143.224, 265.059
1144.455, 80.831
1145.686, 122.414
1146.917, 146.537
1148.147, 71.105
1149.377, 77.022
1150.607, 166.274
1151.837, 79.822
1153.067, 168.901
1154.296, 83.678
1155.526, 40.205
1156.755, 114.601
1157.984, 13.869
1159.213, 71.752
1160.441, 122.518
1161.670, 55.986
1162.898, 145.701
1164.126, 17.443
1165.354, 87.882
1166.581, 145.972
1167.809, 28.475
1169.036, 37.916
1170.263, 75.686
1171.490, 23.052
1172.717, 104.626
1173.943, 13.350
1175.170, 15.678
1176.396, 68.730
1177.622, 8.708
1178.848, 67.574
1180.073, 36.143
1181.299, 54.603
1182.524, 100.607
1183.749, 41.798
1184.974, 64.360
1186.199, 71.760
1187.423, 81.888
1188.648, 47.181
1189.872, 22.442
1191.096, 33.444
1192.320, 71.558
1193.543, 11.455
1194.767, 7.493
1195.990, 39.446
1197.213, 0.234
1198.436, 3.668
1199.659, 115.860
1200.881, 69.134
1202.104, 96.680
1203.326, 47.225
1204.548, 0.472
1205.770, 63.413
1206.991, 20.359
1208.213, 67.324
1209.434, 22.521
1210.655, 38.391
1211.876, 81.215
1213.096, 79.160
1214.317, 12.022
1215.537, 95.577
1216.757, 41.426
1217.977, 76.067
1219.197, 53.643
1220.417, 53.596
1221.636, 108.811
1222.855, 27.471
1224.074, 41.023
1225.293, 117.379
1226.512, 16.061
1227.731, 73.475
1228.949, 68.779
1230.167, 0.112
1231.385, 79.372
1232.603, 94.033
1233.820, 5.636
1235.038, 147.562
1236.255, 26.143
1237.472, 166.209
1238.689, 97.346
1239.906, 50.789
1241.122, 125.872
1242.338, 85.938
1243.555, 14.469
1244.771, 171.560
1245.986, 43.317
1247.202, 59.694
1248.417, 87.660
1249.633, 37.837
1250.848, 178.769
1252.063, 147.686
1253.277, 32.587
1254.492, 118.471
1255.706, 44.337
1256.920, 115.626
1258.134, 170.455
1259.348, 13.373
1260.562, 141.525
1261.775, 99.299
1262.988, 36.180
1264.201, 209.917
1265.414, 61.632
1266.627, 68.899
1267.839, 190.576
1269.052, 78.219
1270.264, 115.048
1271.476, 89.647
1272.688, 26.518
1273.899, 195.061
1275.111, 95.584
1276.322, 56.466
1277.533, 150.007
1278.744, 6.439
1279.955, 158.949
1281.165, 131.338
1282.376, 62.707
1283.586, 161.346
1284.796, 79.671
1286.006, 100.110
1287.215, 182.396
1288.425, 61.662
1289.634, 103.905
1290.843, 177.128
1292.052, 34.331
1293.261, 174.809
1294.469, 64.964
1295.678, 25.097
1296.886, 212.504
1298.094, 36.590
1299.302, 91.654
1300.509, 160.798
1301.717, 18.285
1302.924, 144.704
1304.131, 119.017
1305.338, 7.942
1306.545, 201.851
1307.752, 89.659
1308.958, 80.514
1310.164, 199.146
1311.370, 14.044
1312.576, 119.735
1313.782, 173.829
1314.987, 57.391
1316.193, 205.087
1317.398, 98.541
1318.603, 41.786
1319.807, 194.837
1321.012, 25.145
1322.216, 89.647
1323.421, 263.725
1324.625, 80.167
1325.829, 206.448
1327.032, 171.234
1328.236, 53.705
1329.439, 204.167
1330.642, 85.431
1331.845, 93.684
1333.048, 224.486
1334.251, 92.587
1335.453, 123.560
1336.656, 146.278
1337.858, 288.402
1339.060, 216.417
1340.261, 152.642
1341.463, 43.559
1342.664, 219.160
1343.866, 64.907
1345.067, 106.008
1346.267, 139.325
1347.468, 63.343
1348.669, 151.777
1349.869, 94.104
1351.069, 22.898
1352.269, 166.891
1353.469, 19.692
1354.668, 30.240
1355.868, 175.989
1357.067, 41.758
1358.266, 57.477
1359.465, 168.888
1360.664, 25.634
1361.862, 127.020
1363.061, 99.636
1364.259, 51.140
1365.457, 154.664
1366.655, 55.906
1367.852, 77.248
1369.050, 139.634
1370.247, 38.786
1371.444, 98.031
1372.641, 181.461
1373.838, 35.149
1375.035, 213.289
1376.231, 25.241
1377.427, 93.694
1378.623, 179.078
1379.819, 88.074
1381.015, 68.356
1382.211, 183.871
1383.406, 37.363
1384.601, 175.544
1385.796, 167.497
1386.991, 6.027
1388.185, 156.004
1389.380, 86.977
1390.574, 105.613
1391.768, 194.834
1392.962, 58.722
1394.156, 128.360
1395.350, 166.358
1396.543, 115.254
1397.736, 171.835
1398.929, 175.377
1400.122, 16.188
1401.315, 268.191
1402.507, 86.807
1403.700, 26.216
1404.892, 189.728
1406.084, 82.420
1407.276, 136.617
1408.467, 178.128
1409.659, 3.239
1410.850, 142.684
1412.041, 187.575
1413.232, 56.347
1414.423, 222.613
1415.614, 36.782
1416.804, 147.447
1417.994, 209.375
1419.184, 16.502
1420.374, 77.637
1421.564, 170.490
1422.753, 44.690
1423.943, 181.557
1425.132, 297.216
1426.321, 16.271
1427.510, 205.686
1428.698, 62.831
1429.887, 117.094
1431.075, 269.717
1432.263, 97.457
1433.451, 151.476
1434.639, 170.256
1435.827, 21.410
1437.014, 245.774
1438.201, 137.280
1439.388, 20.407
1440.575, 255.820
1441.762, 110.897
1442.949, 67.613
1444.135, 256.050
1445.321, 126.651
1446.507, 191.700
1447.693, 165.906
1448.879, 82.970
1450.064, 250.835
1451.250, 159.491
1452.435, 15.108
1453.620, 355.808
1454.805, 189.582
1455.989, 71.487
1457.174, 230.901
1458.358, 111.780
1459.542, 214.625
1460.726, 197.375
1461.910, 11.986
1463.093, 212.375
1464.277, 193.046
1465.460, 16.194
1466.643, 315.305
1467.826, 107.158
1469.009, 83.852
1470.191, 270.269
1471.373, 154.918
1472.556, 128.472
1473.738, 229.221
1474.919, 189.107
1476.101, 250.332
1477.283, 313.654
1478.464, 99.930
1479.645, 262.131
1480.826, 184.348
1482.007, 93.143
1483.187, 324.265
1484.368, 128.484
1485.548, 60.722
1486.728, 287.439
1487.908, 25.199
1489.088, 148.141
1490.268, 275.021
1491.447, 69.364
1492.626, 256.645
1493.805, 233.321
1494.984, 57.935
1496.163, 305.934
1497.341, 161.102
1498.520, 64.241
1499.698, 394.436
1500.876, 99.652
1502.054, 143.866
1503.232, 296.846
1504.409, 74.688
1505.586, 235.251
1506.763, 247.141
1507.940, 5.277
1509.117, 278.659
1510.294, 156.020
1511.470, 0.659
1512.647, 394.926
1513.823, 131.279
1514.999, 157.679
1516.174, 348.778
1517.350, 0.238
1518.526, 0.000
##END=



