##NAMES=Actinolite
##RRUFFID=R040064
##IDEAL CHEMISTRY=Ca_2_(Mg_4.5-2.5_Fe^2+^_0.5-2.5_)Si_8_O_22_(OH)_2_
##LOCALITY=Ehime Perfecture, Uma Gun, Japan
##OWNER=RRUFF
##SOURCE=University of Arizona Mineral Museum
##DESCRIPTION=Aggregate of green acicular crystals associated with chlorite
##STATUS=The identification of this mineral has been confirmed by X-ray diffraction and chemical analysis
##URL=rruff.info/R040064
##MEASURED CHEMISTRY=(Ca_0.95_Na_0.04_Mn_0.01_)_2_(Mg_0.88_Fe_0.12_)_5_(Si_0.98_Al_0.02_)_8_O_22_(OH)_2_
##PIN_ID=M00235
##ORIENTATION=Laser parallel to b* (0 1 0). Fiducial mark perpendicular to laser is parallel to -c [0 0 -1]
107.907, 0.000
109.292, 7.504
110.678, 261.426
112.063, 470.275
113.448, 712.095
114.833, 1437.810
116.218, 2199.246
117.602, 3195.441
118.987, 4050.851
120.371, 5387.103
121.755, 6719.997
123.138, 7832.295
124.522, 8672.986
125.905, 8483.319
127.288, 7785.621
128.671, 6284.497
130.053, 4921.860
131.436, 3642.367
132.818, 2555.100
134.200, 1870.416
135.582, 1206.523
136.963, 885.339
138.345, 559.534
139.726, 568.345
141.107, 391.611
142.488, 282.613
143.868, 234.572
145.248, 22.273
146.629, 23.834
148.008, 49.120
149.388, 102.894
150.768, 79.130
152.147, 189.914
153.526, 84.085
154.905, 96.905
156.284, 317.977
157.662, 647.607
159.040, 1078.783
160.418, 1770.011
161.796, 2136.300
163.174, 2255.129
164.551, 1769.350
165.929, 1346.963
167.306, 943.013
168.683, 597.542
170.059, 612.586
171.436, 644.174
172.812, 1105.325
174.188, 1708.058
175.564, 2811.605
176.939, 4084.972
178.315, 5956.803
179.690, 7903.076
181.065, 9097.604
182.440, 9104.388
183.814, 7515.428
185.188, 5542.415
186.563, 3696.722
187.937, 2500.343
189.310, 1711.918
190.684, 1139.837
192.057, 964.165
193.430, 765.616
194.803, 687.548
196.176, 633.883
197.549, 441.977
198.921, 465.455
200.293, 397.716
201.665, 485.125
203.037, 382.627
204.408, 483.622
205.779, 525.504
207.150, 535.167
208.521, 681.827
209.892, 743.029
211.262, 921.180
212.633, 1084.065
214.003, 1334.692
215.373, 1771.417
216.742, 2252.929
218.112, 3166.642
219.481, 4061.250
220.850, 5764.660
222.219, 7210.071
223.588, 8855.493
224.956, 10180.946
226.324, 10146.448
227.692, 9582.003
229.060, 7887.568
230.428, 6543.126
231.795, 5224.656
233.162, 4312.130
234.529, 3781.512
235.896, 2957.778
237.263, 2531.923
238.629, 1886.949
239.995, 1534.874
241.361, 1135.711
242.727, 761.480
244.093, 731.189
245.458, 574.836
246.823, 489.422
248.188, 597.948
249.553, 645.413
250.917, 741.819
252.282, 754.166
253.646, 759.453
255.010, 664.684
256.374, 549.859
257.737, 449.979
259.101, 302.034
260.464, 258.015
261.827, 126.935
263.189, 145.797
264.552, 47.595
265.914, 153.308
267.276, 49.911
268.638, 32.620
270.000, 104.289
271.362, 156.188
272.723, 113.691
274.084, 158.638
275.445, 128.605
276.806, 142.828
278.166, 108.445
279.526, 29.546
280.887, 68.126
282.246, 88.763
283.606, 73.023
284.966, 185.804
286.325, 369.575
287.684, 487.114
289.043, 748.589
290.402, 872.601
291.760, 1045.855
293.118, 1146.198
294.477, 990.271
295.834, 962.763
297.192, 847.954
298.550, 812.041
299.907, 801.216
301.264, 798.046
302.621, 941.081
303.978, 1039.004
305.334, 1054.361
306.690, 946.771
308.046, 911.597
309.402, 744.863
310.758, 641.251
312.113, 548.979
313.469, 466.030
314.824, 433.865
316.179, 361.820
317.533, 329.716
318.888, 271.777
320.242, 325.811
321.596, 368.316
322.950, 315.983
324.304, 387.982
325.657, 404.766
327.010, 563.156
328.363, 711.585
329.716, 799.979
331.069, 1121.221
332.421, 1327.543
333.774, 1526.927
335.126, 1748.331
336.478, 1785.253
337.829, 1859.166
339.181, 1870.902
340.532, 2098.548
341.883, 2272.575
343.234, 2518.219
344.585, 2723.562
345.935, 2718.061
347.285, 2764.354
348.635, 2636.140
349.985, 2454.879
351.335, 2481.646
352.684, 2339.900
354.034, 2405.103
355.383, 2212.327
356.731, 2180.057
358.080, 2102.123
359.429, 2009.832
360.777, 2174.373
362.125, 2269.090
363.473, 2610.235
364.820, 3082.104
366.168, 3853.106
367.515, 4812.943
368.862, 5958.982
370.209, 7379.037
371.556, 7819.680
372.902, 7740.548
374.249, 6872.125
375.595, 5762.803
376.940, 4622.420
378.286, 3634.983
379.632, 3030.492
380.977, 2622.955
382.322, 2304.382
383.667, 2209.775
385.012, 2204.136
386.356, 2409.462
387.700, 2607.755
389.044, 3020.013
390.388, 3599.237
391.732, 4320.425
393.075, 5323.579
394.419, 5876.697
395.762, 6253.781
397.105, 5856.830
398.447, 5205.064
399.790, 4268.045
401.132, 3390.062
402.474, 2760.390
403.816, 2184.446
405.158, 1888.063
406.499, 1622.482
407.841, 1498.542
409.182, 1571.043
410.523, 1567.114
411.864, 1790.669
413.204, 1886.174
414.544, 2117.701
415.884, 2330.070
417.224, 2343.342
418.564, 2448.626
419.904, 2200.463
421.243, 1991.503
422.582, 1711.022
423.921, 1391.014
425.260, 1216.310
426.598, 989.458
427.937, 808.853
429.275, 790.134
430.613, 617.963
431.951, 703.340
433.288, 639.479
434.625, 696.495
435.963, 842.403
437.300, 952.353
438.636, 1046.342
439.973, 867.340
441.309, 799.490
442.646, 556.000
443.981, 411.129
445.317, 352.228
446.653, 224.464
447.988, 162.277
449.323, 62.361
450.658, 52.240
451.993, 32.176
453.328, 3.427
454.662, 28.818
455.996, 18.878
457.331, 52.033
458.664, 53.108
459.998, 8.611
461.331, 67.191
462.665, 63.693
463.998, 72.501
465.330, 10.841
466.663, 32.340
467.996, 58.793
469.328, 2.206
470.660, 35.274
471.992, 24.074
473.323, 17.791
474.655, 1.193
475.986, 92.914
477.317, 19.724
478.648, 27.721
479.979, 72.501
481.309, 42.982
482.640, 71.618
483.970, 205.000
485.300, 231.652
486.629, 347.371
487.959, 268.735
489.288, 255.690
490.617, 270.749
491.946, 62.772
493.275, 41.770
494.603, 47.728
495.932, 27.652
497.260, 11.116
498.588, 27.596
499.916, 27.778
501.243, 40.006
502.571, 56.279
503.898, 51.612
505.225, 56.990
506.552, 4.601
507.878, 20.848
509.205, 67.668
510.531, 25.163
511.857, 80.619
513.183, 254.062
514.508, 163.486
515.834, 349.880
517.159, 386.256
518.484, 472.625
519.809, 633.980
521.133, 589.341
522.458, 665.690
523.782, 619.030
525.106, 589.357
526.430, 614.899
527.754, 594.187
529.077, 586.280
530.400, 594.562
531.723, 519.826
533.046, 486.088
534.369, 457.349
535.692, 436.586
537.014, 362.803
538.336, 316.000
539.658, 340.174
540.980, 247.327
542.301, 224.459
543.623, 209.569
544.944, 266.659
546.265, 245.728
547.585, 274.776
548.906, 333.804
550.226, 258.812
551.547, 287.799
552.867, 280.766
554.186, 230.713
555.506, 211.639
556.825, 125.545
558.145, 195.430
559.464, 157.294
560.783, 73.137
562.101, 127.958
563.420, 102.757
564.738, 113.536
566.056, 36.296
567.374, 78.038
568.692, 43.764
570.009, 5.528
571.326, 71.157
572.643, 71.822
573.960, 108.466
575.277, 31.093
576.594, 145.699
577.910, 189.292
579.226, 109.873
580.542, 185.445
581.858, 228.012
583.173, 245.578
584.489, 246.144
585.804, 208.718
587.119, 204.292
588.434, 154.873
589.748, 127.482
591.063, 153.137
592.377, 57.852
593.691, 98.614
595.005, 30.435
596.318, 15.307
597.632, 20.233
598.945, 10.063
600.258, 6.140
601.571, 2.775
602.884, 18.747
604.196, 30.125
605.508, 11.476
606.821, 44.568
608.132, 46.756
609.444, 13.147
610.756, 65.368
612.067, 14.752
613.378, 78.246
614.689, 40.697
616.000, 82.284
617.311, 135.875
618.621, 100.280
619.931, 131.931
621.241, 154.568
622.551, 166.242
623.861, 189.660
625.170, 254.169
626.479, 354.928
627.788, 313.343
629.097, 402.872
630.406, 422.716
631.714, 511.584
633.023, 598.111
634.331, 660.170
635.639, 723.978
636.946, 788.183
638.254, 863.998
639.561, 1123.690
640.868, 1170.407
642.175, 1412.719
643.482, 1629.023
644.789, 1831.734
646.095, 2171.365
647.401, 2561.098
648.707, 3148.835
650.013, 3710.873
651.319, 4216.695
652.624, 5108.838
653.929, 5655.134
655.234, 6150.891
656.539, 6529.015
657.844, 6504.658
659.148, 6731.286
660.453, 6624.978
661.757, 7101.868
663.061, 7582.260
664.364, 8487.900
665.668, 10025.508
666.971, 11904.963
668.274, 15230.559
669.577, 19541.625
670.880, 24419.635
672.183, 31346.094
673.485, 37193.055
674.787, 40652.367
676.089, 41429.586
677.391, 37050.281
678.693, 31457.027
679.994, 24543.865
681.296, 19030.547
682.597, 14707.461
683.898, 11094.794
685.198, 8861.407
686.499, 6938.245
687.799, 5784.664
689.099, 4831.880
690.399, 4014.651
691.699, 3560.043
692.998, 3002.720
694.298, 2707.185
695.597, 2346.591
696.896, 2105.945
698.195, 1839.290
699.493, 1630.626
700.792, 1493.952
702.090, 1309.836
703.388, 1188.727
704.686, 1059.187
705.984, 928.601
707.281, 845.462
708.578, 792.482
709.876, 771.637
711.172, 737.893
712.469, 705.150
713.766, 671.204
715.062, 632.517
716.358, 579.586
717.654, 552.387
718.950, 518.418
720.246, 477.343
721.541, 493.313
722.836, 401.960
724.131, 373.784
725.426, 412.463
726.721, 390.832
728.015, 449.627
729.310, 364.426
730.604, 370.378
731.898, 435.009
733.191, 387.119
734.485, 452.234
735.778, 402.197
737.071, 391.299
738.364, 549.395
739.657, 488.483
740.950, 486.565
742.242, 543.640
743.535, 660.709
744.827, 733.770
746.118, 810.811
747.410, 1074.858
748.702, 1062.606
749.993, 1319.524
751.284, 1471.154
752.575, 1416.719
753.866, 1371.302
755.156, 1106.557
756.447, 1063.906
757.737, 856.323
759.027, 662.299
760.316, 621.905
761.606, 439.433
762.896, 392.098
764.185, 303.982
765.474, 252.127
766.763, 209.574
768.051, 201.437
769.340, 142.256
770.628, 180.921
771.916, 168.762
773.204, 197.701
774.492, 159.622
775.780, 103.558
777.067, 133.491
778.354, 92.422
779.641, 104.351
780.928, 49.278
782.215, 71.202
783.501, 81.124
784.787, 24.044
786.073, 74.965
787.359, 44.887
788.645, 82.807
789.930, 13.745
791.216, 2.678
792.501, 60.607
793.786, 40.468
795.071, 2.572
796.355, 89.311
797.640, 102.811
798.924, 20.998
800.208, 70.790
801.492, 6.430
802.775, 47.333
804.059, 43.911
805.342, 36.812
806.625, 11.468
807.908, 50.765
809.191, 21.904
810.474, 47.431
811.756, 3.555
813.038, 30.166
814.320, 16.445
815.602, 42.939
816.884, 104.345
818.165, 42.197
819.446, 34.264
820.727, 50.748
822.008, 103.733
823.289, 76.789
824.569, 12.359
825.850, 14.051
827.130, 7.453
828.410, 36.156
829.690, 1.205
830.969, 60.448
832.249, 13.856
833.528, 9.152
834.807, 18.439
836.086, 5.717
837.364, 3.014
838.643, 26.241
839.921, 6.489
841.199, 71.727
842.477, 55.041
843.755, 64.847
845.033, 99.304
846.310, 9.449
847.587, 41.586
848.864, 52.718
850.141, 64.845
851.418, 107.239
852.694, 79.786
853.971, 80.321
855.247, 33.304
856.523, 50.407
857.798, 20.503
859.074, 28.601
860.349, 14.693
861.624, 78.780
862.899, 47.863
864.174, 65.942
865.449, 53.020
866.723, 47.093
867.998, 147.165
869.272, 88.238
870.545, 139.309
871.819, 73.377
873.093, 146.443
874.366, 175.506
875.639, 182.588
876.912, 158.669
878.185, 184.749
879.458, 77.850
880.730, 261.952
882.002, 79.053
883.274, 147.182
884.546, 269.309
885.818, 187.436
887.090, 256.561
888.361, 243.685
889.632, 310.818
890.903, 252.949
892.174, 287.083
893.444, 384.215
894.715, 353.345
895.985, 258.473
897.255, 363.598
898.525, 231.722
899.795, 317.850
901.064, 291.975
902.334, 280.101
903.603, 318.238
904.872, 272.375
906.140, 378.514
907.409, 378.651
908.677, 300.792
909.946, 487.958
911.214, 333.126
912.482, 463.307
913.749, 495.500
915.017, 498.694
916.284, 588.898
917.551, 734.112
918.818, 635.328
920.085, 866.554
921.352, 870.779
922.618, 1027.004
923.884, 1229.237
925.150, 1328.468
926.416, 1718.696
927.682, 1810.921
928.947, 2253.145
930.213, 2683.367
931.478, 2936.589
932.743, 3138.809
934.008, 3286.892
935.272, 2949.065
936.537, 2852.280
937.801, 2325.254
939.065, 2111.442
940.329, 1728.504
941.593, 1574.716
942.856, 1771.613
944.119, 1496.134
945.383, 1695.258
946.646, 1909.390
947.908, 1814.622
949.171, 2147.826
950.433, 1869.155
951.696, 1843.375
952.958, 1763.541
954.220, 1456.562
955.481, 1279.642
956.743, 1105.550
958.004, 1028.586
959.265, 946.330
960.526, 750.835
961.787, 719.812
963.048, 733.512
964.308, 610.690
965.569, 617.403
966.829, 483.345
968.089, 524.311
969.348, 455.532
970.608, 415.604
971.867, 487.089
973.126, 441.612
974.385, 439.821
975.644, 551.794
976.903, 357.531
978.161, 367.459
979.420, 460.226
980.678, 323.643
981.936, 465.147
983.193, 428.157
984.451, 378.109
985.708, 448.962
986.966, 377.970
988.223, 373.737
989.479, 427.352
990.736, 292.406
991.993, 411.226
993.249, 320.455
994.505, 386.888
995.761, 348.868
997.017, 318.107
998.272, 454.058
999.528, 374.436
1000.783, 405.654
1002.038, 479.934
1003.293, 451.198
1004.548, 528.464
1005.802, 537.733
1007.057, 534.894
1008.311, 610.690
1009.565, 621.666
1010.818, 712.822
1012.072, 773.188
1013.326, 795.682
1014.579, 915.932
1015.832, 1033.746
1017.085, 1155.332
1018.338, 1278.782
1019.590, 1245.515
1020.842, 1575.814
1022.095, 1597.269
1023.347, 1902.807
1024.599, 2167.139
1025.850, 2589.409
1027.102, 3100.742
1028.353, 3884.398
1029.604, 4268.028
1030.855, 5013.469
1032.106, 5169.203
1033.356, 5121.552
1034.607, 4656.923
1035.857, 3912.686
1037.107, 3400.406
1038.357, 2965.211
1039.607, 2406.253
1040.856, 2268.600
1042.106, 2082.581
1043.355, 2095.098
1044.604, 2032.649
1045.852, 2080.211
1047.101, 2256.897
1048.350, 2294.550
1049.598, 2631.239
1050.846, 2916.764
1052.094, 3508.567
1053.342, 4049.034
1054.589, 4754.634
1055.837, 5750.468
1057.084, 7086.034
1058.331, 7971.650
1059.578, 9123.273
1060.824, 10158.655
1062.071, 10016.411
1063.317, 9615.051
1064.563, 8850.470
1065.809, 7588.419
1067.055, 6944.416
1068.301, 6349.918
1069.546, 6137.861
1070.791, 5963.257
1072.036, 5289.004
1073.281, 5086.341
1074.526, 4371.706
1075.771, 3581.989
1077.015, 3205.267
1078.259, 2504.615
1079.503, 2287.364
1080.747, 2022.973
1081.991, 1680.422
1083.234, 1620.492
1084.478, 1438.010
1085.721, 1305.397
1086.964, 1223.972
1088.206, 1081.588
1089.449, 1045.173
1090.691, 937.841
1091.934, 749.203
1093.176, 731.940
1094.418, 725.208
1095.659, 586.006
1096.901, 591.420
1098.142, 576.900
1099.384, 608.680
1100.625, 480.015
1101.865, 403.756
1103.106, 545.799
1104.347, 409.072
1105.587, 403.534
1106.827, 508.239
1108.067, 251.742
1109.307, 400.617
1110.546, 329.888
1111.786, 306.369
1113.025, 402.809
1114.264, 337.076
1115.503, 317.377
1116.742, 288.885
1117.980, 236.150
1119.219, 330.406
1120.457, 299.791
1121.695, 215.074
1122.933, 317.538
1124.171, 176.818
1125.408, 274.226
1126.645, 272.822
1127.883, 141.104
1129.120, 206.554
1130.356, 194.931
1131.593, 137.199
1132.829, 243.413
1134.066, 145.680
1135.302, 228.320
1136.538, 243.829
1137.773, 10.343
1139.009, 259.255
1140.244, 106.473
1141.480, 92.923
1142.715, 164.079
1143.950, 57.415
1145.184, 114.620
1146.419, 128.611
1147.653, 33.793
1148.887, 167.324
1150.121, 87.904
1151.355, 170.046
1152.589, 138.394
1153.822, 97.031
1155.056, 160.644
1156.289, 160.446
1157.522, 26.114
1158.755, 182.450
1159.987, 37.941
1161.220, 52.134
1162.452, 109.666
1163.684, 4.099
1164.916, 32.101
1166.148, 62.591
1167.379, 23.285
1168.611, 127.940
1169.842, 86.971
1171.073, 67.886
1172.304, 124.256
1173.534, 74.403
1174.765, 159.365
1175.995, 50.339
1177.225, 77.931
1178.455, 103.736
1179.685, 35.142
1180.915, 104.213
1182.144, 123.655
1183.374, 32.381
1184.603, 42.888
1185.832, 24.063
1187.060, 33.768
1188.289, 150.650
1189.518, 16.237
1190.746, 96.126
1191.974, 88.413
1193.202, 87.849
1194.430, 58.165
1195.657, 66.700
1196.884, 9.739
1198.112, 98.498
1199.339, 32.176
1200.566, 37.195
1201.792, 82.073
1203.019, 27.277
1204.245, 91.353
1205.471, 79.412
1206.697, 86.009
1207.923, 135.950
1209.149, 23.958
1210.374, 37.816
1211.600, 127.026
1212.825, 26.380
1214.050, 8.393
1215.275, 106.137
1216.499, 24.023
1217.724, 137.821
1218.948, 53.877
1220.172, 13.798
1221.396, 144.786
1222.620, 345.800
1223.843, 596.519
1225.067, 147.034
1226.290, 51.039
1227.513, 84.027
1228.736, 121.728
1229.959, 11.646
1231.181, 104.087
1232.404, 137.331
1233.626, 92.124
1234.848, 81.664
1236.070, 94.656
1237.291, 78.436
1238.513, 151.479
1239.734, 73.790
1240.955, 221.250
1242.177, 58.424
1243.397, 153.391
1244.618, 137.473
1245.838, 64.866
1247.059, 177.115
1248.279, 81.122
1249.499, 14.390
1250.719, 248.822
1251.938, 145.752
1253.158, 90.051
1254.377, 136.939
1255.596, 51.864
1256.815, 198.220
1258.034, 144.039
1259.253, 156.114
1260.471, 243.062
1261.689, 189.816
1262.907, 139.766
1264.125, 247.470
1265.343, 27.274
1266.561, 175.794
1267.778, 234.413
1268.995, 160.007
1270.212, 299.224
1271.429, 175.752
1272.646, 130.376
1273.862, 274.068
1275.079, 162.512
1276.295, 181.421
1277.511, 226.810
1278.727, 34.165
1279.943, 214.613
1281.158, 115.873
1282.373, 145.100
1283.589, 142.555
1284.804, 57.433
1286.019, 238.248
1287.233, 152.438
1288.448, 5.500
1289.662, 178.734
1290.876, 224.693
1292.090, 48.656
1293.304, 225.026
1294.518, 16.292
1295.731, 111.567
1296.944, 243.806
1298.158, 161.604
1299.371, 89.374
1300.583, 92.113
1301.796, 60.091
1303.008, 127.746
1304.221, 90.952
1305.433, 105.289
1306.645, 173.103
1307.856, 88.424
1309.068, 155.917
1310.280, 160.064
1311.491, 17.177
1312.702, 170.373
1313.913, 138.242
1315.124, 75.547
1316.334, 205.098
1317.545, 92.005
1318.755, 95.086
1319.965, 239.197
1321.175, 14.787
1322.385, 234.875
1323.594, 256.648
1324.804, 50.458
1326.013, 204.942
1327.222, 126.779
1328.431, 17.552
1329.639, 310.917
1330.848, 53.271
1332.056, 51.504
1333.265, 261.464
1334.473, 49.085
1335.680, 281.038
1336.888, 246.419
1338.096, 21.726
1339.303, 196.989
1340.510, 139.090
1341.717, 127.186
1342.924, 196.212
1344.131, 85.441
1345.337, 91.278
1346.544, 163.412
1347.750, 17.379
1348.956, 231.072
1350.162, 215.383
1351.367, 68.219
1352.573, 233.016
1353.778, 156.010
1354.983, 131.596
1356.188, 238.264
1357.393, 31.119
1358.598, 219.408
1359.802, 237.666
1361.007, 41.666
1362.211, 143.531
1363.415, 87.729
1364.619, 36.053
1365.822, 280.757
1367.026, 74.397
1368.229, 139.087
1369.432, 235.751
1370.635, 59.736
1371.838, 56.820
1373.041, 119.152
1374.243, 61.472
1375.446, 167.135
1376.648, 7.510
1377.850, 70.747
1379.052, 124.781
1380.253, 36.469
1381.455, 17.556
1382.656, 23.235
1383.857, 90.584
1385.058, 110.913
1386.259, 172.923
1387.459, 20.965
1388.660, 332.439
1389.860, 100.715
1391.060, 130.164
1392.260, 361.248
1393.460, 58.456
1394.660, 116.380
1395.859, 232.913
1397.059, 86.451
1398.258, 226.826
1399.457, 164.408
1400.655, 56.869
1401.854, 267.206
1403.052, 113.222
1404.251, 138.460
1405.449, 200.737
1406.647, 127.014
1407.845, 344.564
1409.042, 149.692
1410.240, 20.601
1411.437, 277.258
1412.634, 189.384
1413.831, 36.333
1415.028, 329.758
1416.224, 145.737
1417.421, 122.045
1418.617, 334.720
1419.813, 56.653
1421.009, 240.340
1422.205, 265.668
1423.401, 143.579
1424.596, 270.528
1425.791, 502.545
1426.986, 96.562
1428.181, 270.923
1429.376, 21.194
1430.571, 136.442
1431.765, 325.793
1432.960, 109.086
1434.154, 141.339
1435.348, 170.033
1436.541, 53.838
1437.735, 344.538
1438.929, 187.268
1440.122, 54.490
1441.315, 305.601
1442.508, 191.849
1443.701, 163.335
1444.893, 357.229
1446.086, 97.405
1447.278, 341.315
1448.470, 277.492
1449.662, 85.761
1450.854, 341.462
1452.046, 260.595
1453.237, 100.150
1454.428, 345.472
1455.619, 259.015
1456.810, 226.899
1458.001, 347.099
1459.192, 1.805
1460.382, 236.412
1461.573, 367.543
1462.763, 169.682
1463.953, 304.220
1465.143, 341.374
1466.332, 94.005
1467.522, 359.164
1468.711, 191.441
1469.900, 189.516
1471.089, 397.665
1472.278, 115.065
1473.467, 254.823
1474.655, 385.249
1475.843, 187.188
1477.032, 263.307
1478.220, 261.130
1479.407, 197.617
1480.595, 338.853
1481.783, 291.664
1482.970, 133.846
1484.157, 404.464
1485.344, 187.282
1486.531, 90.672
1487.718, 422.290
1488.904, 148.971
1490.090, 248.541
1491.277, 322.043
1492.463, 21.371
1493.648, 394.956
1494.834, 215.795
1496.020, 167.330
1497.205, 343.276
1498.390, 173.182
1499.575, 179.536
1500.760, 276.377
1501.945, 91.187
1503.129, 169.103
1504.314, 330.056
1505.498, 4.007
1506.682, 279.042
1507.866, 223.146
1509.049, 109.828
1510.233, 288.095
1511.416, 242.481
1512.600, 5.348
1513.783, 339.355
1514.966, 67.429
1516.148, 178.536
1517.331, 358.126
1518.513, 56.587
1519.695, 166.976
1520.878, 339.159
1522.059, 4.789
1523.241, 276.506
1524.423, 263.388
1525.604, 77.319
1526.785, 238.932
1527.967, 71.655
1529.147, 0.144
1530.328, 0.000
##END=
