##NAMES=Actinolite
##RRUFFID=R050336
##IDEAL CHEMISTRY=Ca_2_(Mg_4.5-2.5_Fe^2+^_0.5-2.5_)Si_8_O_22_(OH)_2_
##LOCALITY=Kragerø, Norway
##OWNER=RRUFF
##SOURCE=California Institute of Technology
##DESCRIPTION=Dark green prismatic fragment
##STATUS=The identification of this mineral has been confirmed by X-ray diffraction and chemical analysis
##URL=rruff.info/R050336
##MEASURED CHEMISTRY=([box]_0.62_Na_0.34_K_0.04_)(Ca_1.60_Na_0.40_)_Σ=2_(Mg_3.90_Fe^2+^_0.70_Al_0.20_Ti_0.10_Fe^3+^_0.10_)_Σ=5_(Si_7.52_Al_0.48_)_Σ=8_O_22_((OH)_0.97_F_0.03_)_2_
##PIN_ID=M00198
##ORIENTATION=Laser parallel to c* (0 0 1). Fiducial mark perpendicular to laser is parallel to a [1 0 0]
141.1290, 0.0000000E+00
142.3590, 68.67529
143.5880, 6.512207
144.8170, 8.194336
146.0460, 52.31787
147.2750, 140.4875
148.5030, 197.0796
149.7320, 318.9177
150.9600, 505.2688
152.1880, 712.6025
153.4160, 797.4141
154.6440, 1015.276
155.8720, 1022.844
157.0990, 1191.847
158.3270, 1219.206
159.5540, 1335.058
160.7810, 1242.265
162.0080, 1241.543
163.2350, 1173.681
164.4610, 1007.520
165.6880, 914.9390
166.9140, 834.8462
168.1400, 882.1704
169.3660, 919.8560
170.5920, 1056.857
171.8180, 1003.139
173.0430, 1042.765
174.2690, 1166.333
175.4940, 1099.333
176.7190, 1218.063
177.9440, 1140.752
179.1680, 1010.279
180.3930, 973.5596
181.6170, 839.6243
182.8420, 755.5012
184.0660, 632.2156
185.2900, 556.0364
186.5140, 518.2461
187.7370, 418.6006
188.9610, 374.8708
190.1840, 327.0715
191.4070, 410.2161
192.6300, 395.3157
193.8530, 377.3816
195.0760, 435.4219
196.2980, 447.4492
197.5210, 502.4548
198.7430, 543.4590
199.9650, 625.4609
201.1870, 698.4658
202.4090, 692.4773
203.6310, 674.4990
204.8520, 790.8911
206.0730, 973.0508
207.2950, 1132.923
208.5160, 1377.635
209.7360, 1602.407
210.9570, 2006.976
212.1780, 2252.987
213.3980, 2698.199
214.6180, 2934.885
215.8380, 3361.863
217.0580, 3797.874
218.2780, 4314.936
219.4980, 4624.060
220.7170, 5049.250
221.9360, 5394.514
223.1560, 5475.850
224.3750, 5716.261
225.5930, 5665.747
226.8120, 5828.310
228.0310, 5859.949
229.2490, 5646.666
230.4670, 5596.460
231.6850, 5204.333
232.9030, 4742.283
234.1210, 4358.314
235.3380, 3887.422
236.5560, 3345.608
237.7730, 2993.873
238.9900, 2634.215
240.2070, 2415.634
241.4240, 2051.127
242.6410, 1930.693
243.8570, 1861.332
245.0730, 1677.041
246.2900, 1683.818
247.5060, 1532.662
248.7210, 1456.566
249.9370, 1336.525
251.1530, 1213.535
252.3680, 1183.593
253.5830, 1009.701
254.7980, 911.8562
256.0130, 763.0598
257.2280, 726.3113
258.4430, 734.6099
259.6570, 801.9551
260.8720, 492.3469
262.0860, 293.7844
263.3000, 221.2676
264.5130, 168.7961
265.7270, 131.3689
266.9410, 57.98608
268.1540, 47.35327
269.3670, 32.35059
270.5800, 76.90332
271.7930, 109.1147
273.0060, 82.28491
274.2190, 111.4141
275.4310, 65.50269
276.6430, 80.55127
277.8550, 132.5698
279.0670, 154.5747
280.2790, 139.6167
281.4910, 161.6929
282.7020, 97.79956
283.9140, 117.9824
285.1250, 94.90552
286.3360, 26.52441
287.5470, 53.29248
288.7570, 21.73291
289.9680, 72.56030
291.1780, 97.99146
292.3880, 161.4370
293.5990, 171.1321
294.8080, 221.3645
296.0180, 224.7456
297.2280, 241.0623
298.4370, 247.8877
299.6470, 249.6221
300.8560, 261.4514
302.0650, 249.3677
303.2740, 224.3643
304.4820, 252.4343
305.6910, 285.5706
306.8990, 137.7671
308.1070, 235.0190
309.3150, 186.3223
310.5230, 219.6765
311.7310, 170.0796
312.9390, 155.5493
314.1460, 184.0784
315.3530, 113.6716
316.5600, 74.32397
317.7670, 128.0400
318.9740, 118.8201
320.1810, 93.65820
321.3870, 45.55591
322.5930, 124.5105
323.8000, 172.5225
325.0060, 76.59326
326.2110, 184.7144
327.4170, 193.8940
328.6230, 236.1279
329.8280, 212.4084
331.0330, 285.7383
332.2380, 288.1167
333.4430, 310.5317
334.6480, 234.9749
335.8530, 308.4512
337.0570, 373.9592
338.2610, 438.4983
339.4650, 353.0662
340.6690, 457.6545
341.8730, 439.2610
343.0770, 487.8877
344.2800, 490.5352
345.4840, 493.2007
346.6870, 556.8838
347.8900, 618.5850
349.0930, 600.3037
350.2950, 665.0193
351.4980, 658.7202
352.7000, 690.3574
353.9030, 734.7476
355.1050, 790.4585
356.3070, 861.2998
357.5080, 939.2134
358.7100, 1040.495
359.9110, 1166.775
361.1130, 1290.081
362.3140, 1459.414
363.5150, 1658.773
364.7160, 1719.158
365.9160, 1848.570
367.1170, 1950.005
368.3170, 1981.467
369.5170, 2128.952
370.7170, 1966.461
371.9170, 1902.995
373.1170, 1926.552
374.3170, 1726.132
375.5160, 1811.735
376.7150, 1686.360
377.9140, 1853.007
379.1130, 1741.676
380.3120, 1850.365
381.5110, 2005.076
382.7090, 2107.806
383.9070, 2220.557
385.1060, 2495.327
386.3040, 2657.542
387.5010, 2908.805
388.6990, 3055.729
389.8970, 3098.846
391.0940, 2998.756
392.2910, 2933.338
393.4880, 2775.236
394.6850, 2548.150
395.8820, 2340.081
397.0780, 2226.027
398.2750, 1948.990
399.4710, 1793.968
400.6670, 1746.962
401.8630, 1762.971
403.0590, 1758.996
404.2540, 1821.035
405.4500, 1910.088
406.6450, 1856.156
407.8400, 2107.238
409.0350, 2259.333
410.2300, 2307.442
411.4250, 2500.563
412.6190, 2425.785
413.8140, 2479.932
415.0080, 2542.873
416.2020, 2392.270
417.3960, 2352.016
418.5900, 2100.352
419.7830, 1925.922
420.9770, 1795.824
422.1700, 1690.179
423.3630, 1598.382
424.5560, 1489.430
425.7490, 1357.309
426.9410, 1328.268
428.1340, 1359.771
429.3260, 1257.209
430.5180, 1216.632
431.7100, 1175.022
432.9020, 1119.387
434.0940, 1078.745
435.2850, 1076.182
436.4770, 1003.606
437.6680, 827.0486
438.8590, 817.5071
440.0500, 670.9810
441.2410, 491.4695
442.4310, 528.9722
443.6220, 403.4890
444.8120, 394.0188
446.0020, 317.5610
447.1920, 237.1157
448.3820, 230.6824
449.5710, 216.2607
450.7610, 188.9897
451.9500, 153.5898
453.1390, 113.9058
454.3280, 195.2998
455.5170, 132.3809
456.7060, 119.1787
457.8940, 130.3936
459.0830, 88.01953
460.2710, 59.87891
461.4590, 93.30273
462.6470, 95.37671
463.8350, 33.31958
465.0220, 76.56885
466.2100, 111.8147
467.3970, 71.51660
468.5840, 148.7493
469.7710, 102.8044
470.9580, 127.6279
472.1440, 78.43530
473.3310, 160.7566
474.5170, 76.84180
475.7030, 156.8704
476.8890, 108.9346
478.0750, 167.0637
479.2610, 190.7849
480.4460, 87.31445
481.6320, 153.3699
482.8170, 165.5686
484.0020, 150.2852
485.1870, 221.3433
486.3710, 193.6619
487.5560, 219.3384
488.7400, 237.0107
489.9250, 258.6797
491.1090, 243.3438
492.2930, 299.0037
493.4760, 316.6592
494.6600, 339.3101
495.8440, 490.9568
497.0270, 467.5996
498.2100, 565.2380
499.3930, 621.8735
500.5760, 650.5054
501.7580, 768.1345
502.9410, 831.7600
504.1230, 895.3823
505.3060, 985.0015
506.4880, 1114.617
507.6690, 1172.228
508.8510, 1262.835
510.0330, 1277.438
511.2140, 1419.037
512.3950, 1529.630
513.5760, 1628.219
514.7570, 1575.803
515.9380, 1713.381
517.1190, 1768.954
518.2990, 1716.522
519.4800, 1813.083
520.6600, 1775.639
521.8400, 1839.188
523.0190, 1729.731
524.1990, 1713.268
525.3790, 1794.797
526.5580, 1700.155
527.7370, 1688.836
528.9160, 1578.345
530.0950, 1571.847
531.2740, 1412.341
532.4520, 1439.828
533.6310, 1331.306
534.8090, 1372.776
535.9870, 1277.239
537.1650, 1249.693
538.3430, 1164.138
539.5200, 1248.576
540.6980, 1167.004
541.8750, 1144.423
543.0520, 1175.833
544.2290, 1061.235
545.4060, 1093.626
546.5820, 1045.009
547.7590, 1041.381
548.9350, 1033.744
550.1110, 984.0977
551.2870, 888.4414
552.4630, 943.7751
553.6390, 890.0984
554.8140, 865.4280
555.9900, 912.7483
557.1650, 907.0723
558.3400, 931.4080
559.5150, 859.7488
560.6900, 880.1021
561.8640, 817.4639
563.0390, 788.8345
564.2130, 790.2224
565.3870, 743.6375
566.5610, 747.0410
567.7350, 743.5762
568.9080, 751.0532
570.0820, 752.5620
571.2550, 781.0791
572.4280, 787.5884
573.6010, 735.1099
574.7740, 668.6255
575.9470, 702.1394
577.1190, 621.6453
578.2920, 644.1523
579.4640, 492.6572
580.6360, 510.1624
581.8080, 496.6541
582.9790, 445.1414
584.1510, 392.6172
585.3220, 357.0786
586.4940, 269.5310
587.6650, 289.9688
588.8360, 232.3921
590.0060, 182.8005
591.1770, 107.1938
592.3470, 136.5774
593.5180, 65.94849
594.6880, 63.29688
595.8580, 40.37500
597.0280, 19.11133
598.1970, 40.90186
599.3670, 30.75781
600.5360, 49.67480
601.7050, 57.96411
602.8740, 51.72729
604.0430, 80.86475
605.2120, 101.0911
606.3800, 116.4170
607.5490, 123.1904
608.7170, 83.39746
609.8850, 112.0349
611.0530, 92.05835
612.2210, 59.62012
613.3880, 67.54028
614.5560, 63.54443
615.7230, 14.63062
616.8900, 20.22705
618.0570, 4.5410000E-02
619.2240, 6.814697
620.3900, 10.53833
621.5570, 21.21851
622.7230, 99.85962
623.8890, 154.4780
625.0550, 111.0791
626.2210, 91.65894
627.3870, 238.2153
628.5520, 212.7544
629.7180, 223.2761
630.8830, 329.7808
632.0480, 288.2678
633.2130, 350.7378
634.3770, 356.1904
635.5420, 428.6257
636.7060, 464.9419
637.8710, 470.4451
639.0350, 565.8289
640.1990, 646.1953
641.3620, 718.5444
642.5260, 846.9231
643.6890, 916.1902
644.8530, 1085.487
646.0160, 1221.767
647.1790, 1311.029
648.3410, 1396.274
649.5040, 1590.502
650.6670, 1743.712
651.8290, 1904.905
652.9910, 2133.081
654.1530, 2385.240
655.3150, 2639.381
656.4770, 2951.505
657.6380, 3369.611
658.7990, 3735.701
659.9610, 4315.772
661.1220, 5119.828
662.2830, 5871.864
663.4430, 6922.885
664.6040, 7785.889
665.7640, 8830.873
666.9240, 9985.845
668.0850, 10782.79
669.2440, 11410.73
670.4040, 11685.42
671.5640, 11928.55
672.7230, 11290.43
673.8830, 10659.30
675.0420, 9446.150
676.2010, 8354.985
677.3590, 7142.800
678.5180, 6066.600
679.6770, 4996.384
680.8350, 4384.149
681.9930, 3655.898
683.1510, 3259.632
684.3090, 2835.349
685.4670, 2499.049
686.6240, 2286.732
687.7810, 2078.399
688.9390, 1846.050
690.0960, 1654.735
691.2530, 1526.354
692.4090, 1375.956
693.5660, 1269.051
694.7220, 1164.735
695.8790, 1038.288
697.0350, 989.9204
698.1910, 1005.441
699.3460, 1013.198
700.5020, 903.3628
701.6570, 922.7065
702.8130, 907.5930
703.9680, 927.6067
705.1230, 951.0239
706.2780, 945.6743
707.4320, 968.4272
708.5870, 953.7925
709.7410, 978.6582
710.8950, 992.1052
712.0490, 1003.104
713.2030, 1092.396
714.3570, 1071.202
715.5100, 1104.405
716.6640, 1214.919
717.8170, 1163.438
718.9700, 1231.812
720.1230, 1282.007
721.2760, 1280.270
722.4280, 1387.801
723.5810, 1406.940
724.7330, 1489.147
725.8850, 1392.255
727.0370, 1581.339
728.1890, 1506.406
729.3400, 1466.455
730.4920, 1622.784
731.6430, 1589.280
732.7940, 1635.572
733.9450, 1565.310
735.0960, 1593.822
736.2460, 1567.609
737.3970, 1652.971
738.5470, 1671.915
739.6970, 1680.617
740.8470, 1587.964
741.9970, 1595.952
743.1470, 1588.135
744.2970, 1565.819
745.4460, 1489.848
746.5950, 1481.419
747.7440, 1448.197
748.8930, 1412.027
750.0420, 1272.550
751.1900, 1245.221
752.3390, 1156.369
753.4870, 1136.745
754.6350, 1005.169
755.7830, 978.5488
756.9310, 936.8550
758.0780, 837.5603
759.2260, 821.4487
760.3730, 753.8025
761.5200, 702.0044
762.6670, 749.6799
763.8140, 631.0044
764.9610, 592.0603
766.1070, 649.7490
767.2530, 499.4326
768.4000, 498.1118
769.5460, 468.7861
770.6910, 585.4558
771.8370, 528.1213
772.9830, 528.7822
774.1280, 490.4395
775.2730, 436.0925
776.4180, 458.5796
777.5630, 461.3875
778.7080, 476.0295
779.8520, 496.6682
780.9970, 495.3040
782.1410, 521.9365
783.2850, 506.8584
784.4290, 544.1931
785.5730, 488.8174
786.7160, 501.4392
787.8600, 515.0591
789.0030, 486.6765
790.1460, 488.4683
791.2890, 539.9065
792.4320, 456.5186
793.5750, 443.1301
794.7170, 422.7400
795.8590, 476.3484
797.0020, 402.9563
798.1440, 374.5635
799.2850, 358.1702
800.4270, 322.7764
801.5690, 344.3821
802.7100, 381.9880
803.8510, 302.5942
804.9920, 305.2007
806.1330, 252.8074
807.2740, 218.4150
808.4140, 215.0232
809.5550, 185.6321
810.6950, 194.2424
811.8350, 165.8540
812.9750, 123.4670
814.1150, 143.0818
815.2540, 118.6982
816.3940, 109.3167
817.5330, 95.93701
818.6720, 100.5601
819.8110, 105.1851
820.9500, 106.3464
822.0880, 103.4429
823.2270, 103.0759
824.3650, 122.7122
825.5030, 86.35107
826.6410, 2.993164
827.7790, 98.63696
828.9170, 76.28442
830.0540, 29.06445
831.1920, 0.5751950
832.3290, 52.21655
833.4660, 0.8618160
834.6030, 23.50928
835.7390, 3.839111
836.8760, 34.18652
838.0120, 18.54565
839.1480, 8.909424
840.2840, 33.27319
841.4200, 59.64722
842.5560, 56.04370
843.6920, 39.46021
844.8270, 22.88892
845.9620, 12.32202
847.0970, 6.244873
848.2320, 68.18262
849.3670, 33.63452
850.5020, 54.45703
851.6360, 23.57031
852.7700, 69.04980
853.9040, 51.55249
855.0380, 68.06934
856.1720, 3.391846
857.3060, 49.14038
858.4390, 11.68481
859.5730, 35.77393
860.7060, 29.75977
861.8390, 2.703125
862.9720, 111.1741
864.1040, 28.65283
865.2370, 40.13965
866.3690, 39.36475
867.5010, 16.87354
868.6330, 47.62085
869.7650, 18.87207
870.8970, 49.64185
872.0290, 59.18970
873.1600, 6.765625
874.2910, 103.3765
875.4220, 62.01880
876.5530, 96.69873
877.6840, 79.41870
878.8140, 51.17676
879.9450, 67.98145
881.0750, 89.83789
882.2050, 131.7507
883.3350, 198.7222
884.4650, 180.7412
885.5950, 249.8162
886.7240, 206.9480
887.8530, 210.1218
888.9820, 216.3403
890.1110, 203.6025
891.2400, 257.8962
892.3690, 310.2119
893.4970, 271.5549
894.6260, 358.9238
895.7540, 381.3184
896.8820, 328.7356
898.0100, 390.1675
899.1370, 385.6116
900.2650, 407.0703
901.3920, 454.5447
902.5200, 452.0312
903.6470, 454.5369
904.7730, 525.0547
905.9000, 551.5850
907.0270, 507.1294
908.1530, 541.6997
909.2790, 515.2832
910.4050, 600.8838
911.5310, 600.4973
912.6570, 624.1279
913.7830, 732.7754
914.9080, 732.4446
916.0330, 778.1296
917.1580, 826.8291
918.2830, 908.5417
919.4080, 927.2693
920.5330, 989.0107
921.6570, 1099.769
922.7820, 1179.559
923.9060, 1180.377
925.0300, 1292.228
926.1540, 1261.096
927.2770, 1326.978
928.4010, 1295.878
929.5240, 1246.794
930.6470, 1212.729
931.7700, 1150.153
932.8930, 1096.672
934.0160, 1017.668
935.1380, 954.6875
936.2610, 882.0740
937.3830, 890.7837
938.5050, 845.8818
939.6270, 856.9976
940.7490, 897.1265
941.8700, 878.2744
942.9910, 829.4236
944.1130, 857.9692
945.2340, 874.0078
946.3550, 878.2017
947.4750, 835.0186
948.5960, 853.0679
949.7160, 846.6050
950.8370, 839.1528
951.9570, 865.8613
953.0770, 829.6631
954.1970, 855.8643
955.3160, 857.1780
956.4360, 869.9016
957.5550, 857.9617
958.6740, 853.6584
959.7930, 874.0571
960.9120, 880.8020
962.0310, 866.0283
963.1490, 879.5669
964.2670, 842.6548
965.3860, 883.7585
966.5040, 845.1038
967.6210, 875.8916
968.7390, 878.9324
969.8570, 880.9709
970.9740, 905.2993
972.0910, 867.1492
973.2080, 896.6072
974.3250, 915.0061
975.4420, 921.4224
976.5580, 880.0415
977.6750, 901.1191
978.7910, 899.6091
979.9070, 898.9631
981.0230, 933.9688
982.1390, 907.5837
983.2540, 941.2617
984.3700, 952.9453
985.4850, 975.9697
986.6000, 976.9185
987.7150, 984.1831
988.8300, 1018.131
989.9450, 1038.557
991.0590, 1071.002
992.1730, 1027.807
993.2880, 1092.343
994.4010, 1068.270
995.5150, 1145.127
996.6290, 1151.081
997.7420, 1259.058
998.8560, 1300.050
999.9690, 1396.058
1001.082, 1432.644
1002.195, 1497.073
1003.307, 1551.258
1004.420, 1600.797
1005.532, 1652.885
1006.645, 1702.229
1007.757, 1748.362
1008.868, 1806.979
1009.980, 1864.402
1011.092, 1933.569
1012.203, 1975.752
1013.314, 2009.950
1014.425, 2016.162
1015.536, 2078.388
1016.647, 2152.629
1017.758, 2267.884
1018.868, 2323.152
1019.978, 2296.666
1021.088, 2478.960
1022.198, 2526.268
1023.308, 2659.589
1024.418, 2749.921
1025.527, 2897.266
1026.637, 2997.625
1027.746, 3097.997
1028.855, 3050.419
1029.963, 2875.815
1031.072, 2869.222
1032.181, 2814.706
1033.289, 2667.136
1034.397, 2555.701
1035.505, 2421.154
1036.613, 2295.989
1037.721, 2271.462
1038.828, 2260.947
1039.935, 2137.688
1041.043, 2133.307
1042.150, 2031.845
1043.257, 2099.380
1044.363, 2066.967
1045.470, 2128.303
1046.576, 2127.663
1047.682, 2162.243
1048.788, 2132.374
1049.894, 2075.091
1051.000, 2300.714
1052.106, 2355.644
1053.211, 2354.339
1054.316, 2333.704
1055.421, 2323.578
1056.526, 2332.636
1057.631, 2304.629
1058.736, 2404.047
1059.840, 2418.745
1060.944, 2390.780
1062.049, 2276.545
1063.153, 2205.586
1064.256, 2224.204
1065.360, 2192.134
1066.463, 1999.130
1067.567, 1943.956
1068.670, 1791.353
1069.773, 1655.121
1070.876, 1546.743
1071.978, 1435.108
1073.081, 1338.823
1074.183, 1264.117
1075.285, 1182.641
1076.387, 1149.669
1077.489, 1109.353
1078.591, 1083.231
1079.692, 1014.378
1080.794, 999.6160
1081.895, 879.6062
1082.996, 839.6396
1084.097, 894.4629
1085.198, 789.1458
1086.298, 800.0835
1087.399, 704.9978
1088.499, 736.7927
1089.599, 674.6238
1090.699, 695.5654
1091.799, 613.5845
1092.898, 487.5889
1093.998, 560.5400
1095.097, 480.4688
1096.196, 504.5969
1097.295, 498.6914
1098.394, 464.8638
1099.492, 437.7896
1100.591, 472.9458
1101.689, 512.9331
1102.787, 463.8586
1103.885, 437.8081
1104.983, 458.9897
1106.081, 449.3044
1107.178, 423.6633
1108.275, 405.1775
1109.373, 385.0493
1110.470, 421.0547
1111.566, 372.9485
1112.663, 444.8467
1113.760, 364.7476
1114.856, 417.6482
1115.952, 418.5642
1117.048, 374.1406
1118.144, 358.1746
1119.240, 340.1733
1120.335, 296.1245
1121.431, 343.1318
1122.526, 273.1729
1123.621, 251.2173
1124.716, 176.5491
1125.810, 213.6111
1126.905, 265.6587
1127.999, 205.6536
1129.094, 198.6521
1130.188, 234.6482
1131.282, 234.6414
1132.375, 223.6321
1133.469, 193.6511
1134.562, 138.6467
1135.656, 200.6973
1136.749, 96.68921
1137.842, 50.10034
1138.935, 116.0857
1140.027, 38.20288
1141.120, 116.2253
1142.212, 32.19922
1143.304, 85.22778
1144.396, 139.1934
1145.488, 50.27734
1146.579, 90.23901
1147.671, 34.29053
1148.762, 3.243408
1149.853, 9.191406
1150.944, 27.71899
1152.035, 18.20703
1153.126, 11.12769
1154.216, 19.22290
1155.307, 58.13257
1156.397, 37.03687
1157.487, 29.45483
1158.577, 8.601807
1159.667, 0.5107420
1160.756, 3.383789
1161.846, 6.365234
1162.935, 0.6542970
1164.024, 17.21118
1165.113, 1.934814
1166.201, 31.03564
1167.290, 22.12622
1168.378, 62.69214
1169.467, 50.53735
1170.555, 2.658203
1171.643, 47.86475
1172.730, 13.89404
1173.818, 13.35498
1174.905, 9.378418
1175.993, 8.896240
1177.080, 8.655762
1178.167, 27.49316
1179.254, 3.769043
1180.340, 3.884277
1181.427, 22.29102
1182.513, 1.256348
1183.599, 11.87817
1184.685, 4.509521
1185.771, 59.81812
1186.856, 46.26709
1187.942, 60.59033
1189.027, 3.125000
1190.112, 30.59473
1191.197, 11.89331
1192.282, 20.58716
1193.367, 11.00537
1194.451, 35.61938
1195.536, 8.268799
1196.620, 9.060547
1197.704, 21.62231
1198.788, 14.33374
1199.872, 38.04663
1200.955, 96.70020
1202.039, 3.533203
1203.122, 61.70117
1204.205, 2.140869
1205.288, 13.99756
1206.370, 15.12256
1207.453, 47.56909
1208.535, 2.500977
1209.618, 6.453857
1210.700, 39.42969
1211.782, 21.55371
1212.863, 19.68530
1213.945, 50.64282
1215.026, 2.589111
1216.108, 30.52686
1217.189, 34.44165
1218.270, 63.34351
1219.351, 56.06494
1220.431, 34.11475
1221.512, 26.98169
1222.592, 28.87354
1223.672, 35.77954
1224.752, 39.60742
1225.832, 22.53687
1226.911, 25.19873
1227.991, 21.88867
1229.070, 47.10889
1230.149, 23.86816
1231.228, 38.78540
1232.307, 50.51709
1233.386, 46.37988
1234.464, 25.35522
1235.543, 33.95361
1236.621, 18.69556
1237.699, 14.32812
1238.777, 77.97852
1239.855, 49.65723
1240.932, 90.26733
1242.009, 85.84399
1243.087, 108.4080
1244.164, 86.00635
1245.241, 97.71826
1246.317, 19.36035
1247.394, 44.86865
1248.470, 68.42749
1249.546, 129.9260
1250.623, 73.95410
1251.698, 69.51660
1252.774, 69.05273
1253.850, 34.72168
1254.925, 72.16309
1256.000, 75.56006
1257.076, 134.0146
1258.150, 128.6252
1259.225, 110.9814
1260.300, 127.3237
1261.374, 100.6616
1262.449, 87.06909
1263.523, 128.6106
1264.597, 79.89917
1265.670, 131.1733
1266.744, 34.44702
1267.818, 112.6902
1268.891, 62.91968
1269.964, 85.20557
1271.037, 120.4062
1272.110, 82.59326
1273.183, 99.76587
1274.255, 70.03442
1275.327, 143.1929
1276.400, 76.35400
1277.472, 116.5505
1278.543, 120.6868
1279.615, 64.77612
1280.687, 104.6182
1281.758, 99.67896
1282.829, 59.72656
1283.900, 121.7617
1284.971, 125.7805
1286.042, 32.78613
1287.112, 51.77344
1288.183, 144.9495
1289.253, 97.87256
1290.323, 75.85156
1291.393, 74.95239
1292.463, 100.8069
1293.532, 112.7126
1294.602, 72.47852
1295.671, 134.3547
1296.740, 141.8452
1297.809, 93.69385
1298.878, 173.5291
1299.946, 153.1047
1301.015, 154.7991
1302.083, 179.8530
1303.151, 120.3435
1304.219, 191.0588
1305.287, 193.0229
1306.354, 195.5398
1307.422, 82.66797
