##NAMES=Actinolite
##RRUFFID=R040063
##IDEAL CHEMISTRY=Ca_2_(Mg_4.5-2.5_Fe^2+^_0.5-2.5_)Si_8_O_22_(OH)_2_
##LOCALITY=Harford County, Maryland, USA
##OWNER=RRUFF
##SOURCE=University of Arizona Mineral Museum
##DESCRIPTION=Mass of green acicular to bladed crystals associated with chlorite
##STATUS=The identification of this mineral has been confirmed by X-ray diffraction and chemical analysis
##URL=rruff.info/R040063
##MEASURED CHEMISTRY=(Ca_1.90_Na_0.06_Mn_0.04_)_Σ=2_(Mg_4.35_Fe_0.65_)_Σ=5_(Si_7.92_Al_0.08_)_Σ=8_O_22_(OH)_2_
##PIN_ID=S00132
##ORIENTATION=Laser parallel to [1 0 1]. Fiducial mark perpendicular to laser is parallel to b* (0 1 0)
146.865, 0.000
148.250, 41.909
149.635, 3.766
151.019, 53.178
152.403, 51.647
153.788, 130.190
155.171, 227.818
156.555, 234.935
157.939, 259.058
159.322, 256.785
160.705, 215.808
162.088, 258.906
163.470, 204.112
164.853, 223.331
166.235, 425.333
167.617, 620.953
168.998, 1084.078
170.380, 1708.619
171.761, 2659.511
173.142, 3625.701
174.523, 4568.149
175.904, 5098.818
177.284, 4973.979
178.664, 4593.490
180.044, 3800.812
181.424, 2883.108
182.803, 2085.297
184.183, 1496.398
185.562, 1068.430
186.940, 685.416
188.319, 519.376
189.698, 361.323
191.076, 253.258
192.454, 194.184
193.831, 118.104
195.209, 102.021
196.586, 63.939
197.963, 77.860
199.340, 101.783
200.717, 53.711
202.093, 59.642
203.470, 80.578
204.846, 119.424
206.221, 284.239
207.597, 322.383
208.972, 480.816
210.347, 721.632
211.722, 989.847
213.097, 1286.948
214.472, 1852.868
215.846, 2401.833
217.220, 3079.837
218.594, 3568.881
219.967, 4048.957
221.341, 4165.060
222.714, 3937.217
224.087, 3555.537
225.460, 3262.947
226.832, 2867.482
228.204, 2561.112
229.577, 2190.834
230.948, 2030.612
232.320, 1684.394
233.692, 1428.179
235.063, 1091.967
236.434, 885.760
237.805, 719.563
239.175, 565.385
240.545, 418.230
241.916, 407.110
243.286, 382.016
244.655, 449.944
246.025, 499.881
247.394, 540.826
248.763, 541.185
250.132, 520.238
251.501, 484.706
252.869, 420.679
254.237, 332.659
255.605, 266.644
256.973, 221.634
258.340, 163.630
259.708, 113.629
261.075, 69.630
262.442, 34.750
263.808, 20.627
265.175, 19.377
266.541, 27.383
267.907, 48.390
269.273, 37.399
270.639, 99.410
272.004, 60.424
273.369, 32.438
274.734, 86.456
276.099, 10.475
277.463, 40.496
278.828, 2.480
280.192, 140.453
281.556, 218.424
282.919, 311.392
284.283, 473.356
285.646, 540.318
287.009, 641.276
288.372, 661.228
289.734, 636.150
291.097, 571.017
292.459, 464.828
293.821, 469.610
295.183, 418.405
296.544, 465.430
297.905, 460.336
299.266, 501.961
300.627, 464.982
301.988, 468.820
303.348, 413.931
304.709, 390.260
306.069, 299.504
307.428, 266.685
308.788, 261.176
310.147, 202.631
311.507, 190.442
312.865, 150.696
314.224, 151.612
315.583, 161.508
316.941, 160.515
318.299, 168.280
319.657, 179.322
321.015, 225.131
322.372, 298.995
323.729, 375.907
325.086, 544.862
326.443, 671.851
327.800, 807.408
329.156, 953.531
330.512, 960.131
331.868, 929.782
333.224, 871.885
334.579, 761.270
335.935, 661.073
337.290, 607.807
338.645, 587.061
339.999, 535.981
341.354, 561.174
342.708, 558.380
344.062, 678.541
345.416, 757.697
346.769, 819.850
348.123, 891.999
349.476, 975.145
350.829, 1024.288
352.182, 961.428
353.534, 1056.565
354.887, 1114.698
356.239, 1206.829
357.591, 1311.957
358.942, 1578.081
360.294, 2092.202
361.645, 2642.319
362.996, 3402.433
364.347, 4235.545
365.698, 4996.652
367.048, 5474.756
368.398, 5409.855
369.748, 5066.942
371.098, 4387.988
372.448, 3656.954
373.797, 3111.870
375.146, 2564.731
376.495, 2174.574
377.844, 1967.417
379.192, 1859.261
380.540, 1851.105
381.889, 1948.948
383.236, 2073.792
384.584, 2522.633
385.932, 2910.475
387.279, 3546.315
388.626, 4138.153
389.973, 4620.989
391.319, 4797.821
392.666, 4708.649
394.012, 4105.473
395.358, 3458.293
396.704, 2820.110
398.049, 2299.922
399.394, 1894.251
400.740, 1545.970
402.084, 1345.333
403.429, 1160.127
404.774, 1133.918
406.118, 1181.703
407.462, 1234.483
408.806, 1421.257
410.150, 1512.027
411.493, 1624.792
412.836, 1649.513
414.179, 1614.441
415.522, 1565.052
416.865, 1411.794
418.207, 1208.531
419.549, 1001.261
420.891, 857.987
422.233, 683.706
423.575, 512.419
424.916, 381.126
426.257, 322.827
427.598, 278.876
428.939, 211.568
430.279, 178.001
431.619, 146.369
432.959, 116.791
434.299, 91.869
435.639, 91.964
436.978, 110.503
438.318, 71.592
439.657, 71.716
440.996, 48.161
442.334, 12.789
443.673, 90.846
445.011, 17.885
446.349, 39.038
447.687, 24.112
449.024, 70.897
450.361, 64.336
451.699, 5.025
453.036, 1.378
454.372, 38.305
455.709, 46.174
457.045, 10.348
458.381, 3.881
459.717, 15.649
461.053, 8.219
462.388, 2.808
463.724, 4.413
465.059, 6.049
466.394, 12.291
467.728, 8.389
469.063, 28.093
470.397, 1.823
471.731, 6.581
473.065, 39.355
474.398, 0.162
475.732, 11.020
477.065, 11.193
478.398, 36.357
479.731, 17.514
481.063, 87.662
482.396, 107.804
483.728, 104.954
485.060, 177.100
486.391, 100.245
487.723, 8.394
489.054, 43.531
490.385, 8.674
491.716, 7.804
493.047, 72.934
494.377, 4.936
495.708, 5.177
497.038, 7.276
498.368, 38.361
499.697, 3.438
501.027, 56.508
502.356, 53.570
503.685, 106.628
505.014, 131.676
506.342, 147.716
507.671, 187.747
508.999, 189.774
510.327, 248.800
511.655, 292.816
512.982, 345.824
514.310, 342.824
515.637, 371.814
516.964, 332.804
518.291, 301.790
519.617, 331.774
520.944, 418.750
522.270, 321.719
523.596, 390.679
524.921, 456.632
526.247, 395.575
527.572, 456.519
528.897, 504.458
530.222, 569.388
531.547, 521.310
532.871, 552.223
534.196, 474.127
535.520, 549.024
536.844, 502.913
538.167, 569.793
539.491, 459.667
540.814, 453.531
542.137, 398.388
543.460, 404.236
544.783, 409.076
546.105, 379.908
547.427, 384.733
548.749, 375.549
550.071, 349.356
551.393, 289.156
552.714, 284.947
554.035, 297.730
555.356, 300.505
556.677, 225.272
557.998, 299.031
559.318, 288.781
560.638, 223.523
561.958, 264.257
563.278, 208.983
564.597, 222.701
565.917, 242.410
567.236, 257.112
568.555, 239.804
569.874, 249.489
571.192, 236.166
572.511, 268.834
573.829, 246.495
575.147, 278.147
576.464, 274.792
577.782, 328.427
579.099, 252.055
580.416, 284.675
581.733, 240.287
583.050, 240.890
584.366, 207.486
585.683, 200.073
586.999, 108.656
588.315, 105.235
589.630, 73.816
590.946, 98.396
592.261, 24.990
593.576, 4.588
594.891, 19.176
596.206, 44.227
597.520, 30.331
598.834, 29.113
600.148, 73.411
601.462, 7.266
602.776, 10.770
604.089, 22.156
605.402, 10.240
606.715, 12.991
608.028, 1.695
609.341, 35.102
610.653, 29.346
611.965, 21.802
613.277, 96.116
614.589, 44.730
615.901, 39.699
617.212, 88.411
618.523, 84.899
619.834, 61.840
621.145, 55.109
622.456, 59.265
623.766, 97.307
625.076, 123.244
626.386, 150.119
627.696, 227.748
629.006, 258.016
630.315, 204.977
631.624, 316.873
632.933, 290.222
634.242, 374.066
635.551, 381.908
636.859, 477.079
638.167, 558.047
639.475, 615.308
640.783, 654.094
642.090, 769.914
643.398, 929.536
644.705, 1076.398
646.012, 1250.097
647.318, 1555.860
648.625, 1804.553
649.931, 1832.173
651.237, 2233.027
652.543, 2408.881
653.849, 2637.411
655.155, 2915.015
656.460, 3308.437
657.765, 3804.091
659.070, 4308.245
660.375, 5020.374
661.679, 6407.544
662.984, 7850.711
664.288, 9997.873
665.592, 12675.940
666.895, 16394.764
668.199, 20471.908
669.502, 24199.055
670.805, 26796.188
672.108, 26653.314
673.411, 25542.270
674.713, 21400.436
676.016, 17749.178
677.318, 14026.288
678.620, 10903.748
679.921, 8431.076
681.223, 6699.175
682.524, 5274.264
683.825, 4261.494
685.126, 3606.493
686.427, 2969.568
687.727, 2537.637
689.028, 2187.702
690.328, 1923.762
691.628, 1681.817
692.927, 1462.867
694.227, 1335.913
695.526, 1162.953
696.825, 1030.990
698.124, 970.021
699.423, 824.049
700.721, 799.071
702.020, 763.090
703.318, 710.104
704.616, 620.113
705.913, 524.118
707.211, 522.120
708.508, 500.116
709.805, 397.109
711.102, 454.098
712.399, 430.083
713.695, 345.064
714.992, 390.041
716.288, 324.014
717.584, 374.984
718.879, 267.949
720.175, 264.911
721.470, 333.870
722.765, 321.824
724.060, 281.776
725.355, 313.724
726.649, 362.669
727.944, 344.611
729.238, 407.549
730.532, 382.484
731.825, 368.416
733.119, 476.345
734.412, 520.272
735.705, 511.195
736.998, 623.115
738.291, 700.033
739.584, 651.948
740.876, 727.860
742.168, 791.770
743.460, 954.677
744.752, 1060.582
746.043, 1083.485
747.334, 1213.385
748.626, 1141.058
749.916, 1108.224
751.207, 1065.804
752.498, 908.312
753.788, 719.662
755.078, 620.740
756.368, 550.626
757.658, 488.077
758.947, 407.686
760.237, 312.877
761.526, 269.289
762.815, 207.775
764.104, 140.013
765.392, 191.837
766.680, 134.647
767.969, 120.414
769.257, 138.337
770.544, 82.252
771.832, 79.149
773.119, 57.094
774.406, 48.046
775.693, 69.006
776.980, 49.970
778.267, 15.940
779.553, 48.917
780.839, 15.895
782.125, 73.881
783.411, 76.879
784.697, 26.882
785.982, 21.892
787.267, 41.917
788.552, 17.948
789.837, 7.981
791.122, 30.017
792.406, 39.054
793.690, 9.093
794.974, 57.867
796.258, 9.856
797.542, 23.851
798.825, 43.858
800.108, 25.113
801.391, 59.912
802.674, 21.033
803.957, 50.019
805.239, 29.093
806.522, 17.181
807.804, 5.730
809.085, 23.645
810.367, 6.435
811.649, 39.517
812.930, 44.385
814.211, 19.710
815.492, 25.187
816.772, 75.086
818.053, 19.986
819.333, 19.112
820.613, 32.217
821.893, 15.665
823.173, 71.549
824.452, 10.434
825.732, 2.322
827.011, 35.789
828.290, 22.913
829.568, 33.046
830.847, 18.808
832.125, 9.335
833.403, 6.480
834.681, 80.375
835.959, 29.232
837.236, 42.909
838.514, 22.066
839.791, 66.771
841.068, 34.610
842.345, 21.452
843.621, 59.297
844.898, 63.145
846.174, 19.996
847.450, 30.849
848.726, 84.706
850.001, 40.565
851.277, 74.428
852.552, 113.294
853.827, 89.163
855.102, 85.035
856.376, 108.911
857.651, 94.790
858.925, 96.672
860.199, 133.557
861.473, 91.447
862.746, 115.340
864.020, 161.236
865.293, 126.136
866.566, 174.041
867.839, 127.948
869.112, 104.860
870.384, 145.775
871.656, 128.694
872.928, 148.618
874.200, 158.558
875.472, 157.502
876.744, 180.350
878.015, 174.552
879.286, 204.363
880.557, 170.325
881.828, 156.292
883.098, 149.264
884.369, 226.240
885.639, 199.223
886.909, 265.210
888.178, 255.046
889.448, 230.200
890.717, 223.203
891.987, 199.213
893.256, 187.324
894.524, 174.257
895.793, 169.307
897.061, 188.363
898.330, 198.435
899.598, 227.515
900.865, 227.280
902.133, 215.724
903.401, 239.846
904.668, 232.346
905.935, 254.007
907.202, 253.349
908.468, 248.564
909.735, 250.785
911.001, 225.024
912.267, 305.283
913.533, 272.558
914.799, 357.841
916.064, 343.151
917.330, 403.469
918.595, 494.797
919.860, 538.130
921.124, 661.470
922.389, 678.817
923.653, 936.168
924.918, 1015.525
926.182, 1218.887
927.445, 1339.254
928.709, 1393.397
929.972, 1418.482
931.236, 1435.392
932.499, 1255.781
933.761, 1151.177
935.024, 883.577
936.286, 808.983
937.549, 630.395
938.811, 546.812
940.073, 524.234
941.334, 440.675
942.596, 399.494
943.857, 412.530
945.118, 314.972
946.379, 360.419
947.640, 337.339
948.900, 389.226
950.161, 368.938
951.421, 291.153
952.681, 340.624
953.940, 240.492
955.200, 224.974
956.459, 246.495
957.719, 174.348
958.978, 185.932
960.236, 203.437
961.495, 225.946
962.753, 194.129
964.012, 171.420
965.270, 179.346
966.527, 223.483
967.785, 177.020
969.043, 157.566
970.300, 156.829
971.557, 224.760
972.814, 187.648
974.071, 168.218
975.327, 232.793
976.583, 208.375
977.840, 229.961
979.095, 212.727
980.351, 162.276
981.607, 276.251
982.862, 195.860
984.117, 224.119
985.372, 205.509
986.627, 242.135
987.882, 241.770
989.136, 192.263
990.390, 251.991
991.644, 224.643
992.898, 242.301
994.152, 309.965
995.405, 259.635
996.659, 276.312
997.912, 265.996
999.165, 360.685
1000.417, 443.379
1001.670, 454.080
1002.922, 399.786
1004.174, 472.500
1005.426, 538.219
1006.678, 476.946
1007.930, 559.678
1009.181, 562.417
1010.432, 641.160
1011.683, 710.950
1012.934, 824.706
1014.185, 848.531
1015.435, 881.297
1016.685, 930.070
1017.935, 1103.848
1019.185, 1209.630
1020.435, 1416.417
1021.684, 1760.210
1022.934, 2089.148
1024.183, 2429.806
1025.432, 2929.765
1026.680, 3237.687
1027.929, 3582.543
1029.177, 3405.504
1030.425, 3120.360
1031.673, 2610.307
1032.921, 2247.309
1034.169, 1802.334
1035.416, 1499.405
1036.663, 1310.350
1037.911, 1127.202
1039.157, 937.572
1040.404, 963.508
1041.650, 911.809
1042.897, 896.796
1044.143, 792.733
1045.389, 901.709
1046.634, 955.691
1047.880, 1040.249
1049.125, 1176.833
1050.371, 1456.097
1051.615, 1563.832
1052.860, 1779.825
1054.105, 1981.023
1055.349, 2144.087
1056.593, 2277.615
1057.837, 2413.442
1059.081, 2432.482
1060.325, 2434.837
1061.568, 2386.526
1062.812, 2372.684
1064.055, 2471.750
1065.298, 2708.426
1066.540, 2828.415
1067.783, 2898.303
1069.025, 2818.253
1070.267, 2579.497
1071.509, 2108.669
1072.751, 1848.712
1073.993, 1580.676
1075.234, 1334.930
1076.475, 1199.867
1077.716, 971.851
1078.957, 907.466
1080.198, 871.522
1081.438, 725.467
1082.679, 758.661
1083.919, 639.727
1085.159, 587.905
1086.398, 514.186
1087.638, 475.165
1088.877, 453.397
1090.116, 406.566
1091.355, 423.528
1092.594, 389.149
1093.833, 365.744
1095.071, 361.703
1096.309, 296.660
1097.547, 294.631
1098.785, 333.778
1100.023, 303.754
1101.260, 326.828
1102.498, 267.047
1103.735, 296.051
1104.972, 269.148
1106.208, 291.163
1107.445, 245.182
1108.681, 255.167
1109.918, 275.570
1111.154, 246.588
1112.389, 250.752
1113.625, 231.777
1114.860, 274.799
1116.096, 265.981
1117.331, 228.710
1118.566, 237.729
1119.800, 187.746
1121.035, 181.848
1122.269, 202.415
1123.503, 165.435
1124.737, 149.451
1125.971, 87.465
1127.205, 94.545
1128.438, 73.568
1129.671, 86.506
1130.904, 88.525
1132.137, 67.631
1133.370, 129.792
1134.602, 96.862
1135.834, 118.360
1137.066, 129.486
1138.298, 68.592
1139.530, 86.601
1140.762, 130.606
1141.993, 98.919
1143.224, 109.929
1144.455, 93.271
1145.686, 66.321
1146.917, 99.323
1148.147, 61.448
1149.377, 69.498
1150.607, 95.517
1151.837, 86.075
1153.067, 29.057
1154.296, 63.134
1155.526, 48.982
1156.755, 54.531
1157.984, 85.682
1159.213, 22.959
1160.441, 74.877
1161.670, 18.790
1162.898, 52.923
1164.126, 56.083
1165.354, 58.975
1166.581, 71.682
1167.809, 44.737
1169.036, 59.812
1170.263, 6.689
1171.490, 45.220
1172.717, 5.603
1173.943, 16.631
1175.170, 34.437
1176.396, 11.234
1177.622, 38.052
1178.848, 18.010
1180.073, 6.605
1181.299, 3.572
1182.524, 0.384
1183.749, 26.271
1184.974, 59.059
1186.199, 4.216
1187.423, 33.673
1188.648, 2.350
1189.872, 25.575
1191.096, 27.679
1192.320, 59.803
1193.543, 32.152
1194.767, 36.368
1195.990, 4.595
1197.213, 31.044
1198.436, 38.238
1199.659, 38.248
1200.881, 29.108
1202.104, 58.562
1203.326, 9.071
1204.548, 31.208
1205.770, 33.181
1206.991, 14.393
1208.213, 19.391
1209.434, 11.901
1210.655, 31.281
1211.876, 66.326
1213.096, 50.923
1214.317, 4.717
1215.537, 65.597
1216.757, 8.841
1217.977, 18.477
1219.197, 47.633
1220.417, 66.850
1221.636, 11.117
1222.855, 99.244
1224.074, 63.502
1225.293, 1.739
1226.512, 50.750
1227.731, 78.244
1228.949, 22.547
1230.167, 55.604
1231.385, 32.701
1232.603, 19.897
1233.820, 81.115
1235.038, 26.298
1236.255, 36.287
1237.472, 96.428
1238.689, 67.481
1239.906, 35.443
1241.122, 93.728
1242.338, 88.669
1243.555, 89.602
1244.771, 47.525
1245.986, 113.438
1247.202, 69.340
1248.417, 36.443
1249.633, 109.321
1250.848, 69.290
1252.063, 138.425
1253.277, 109.271
1254.492, 25.225
1255.706, 115.145
1256.920, 101.109
1258.134, 59.986
1259.348, 105.798
1260.562, 186.576
1261.775, 58.449
1262.988, 11.203
1264.201, 124.018
1265.414, 147.744
1266.627, 77.514
1267.839, 17.356
1269.052, 125.092
1270.264, 108.810
1271.476, 122.585
1272.688, 132.229
1273.899, 119.860
1275.111, 147.479
1276.322, 139.096
1277.533, 79.688
1278.744, 66.308
1279.955, 87.946
1281.165, 22.570
1282.376, 73.108
1283.586, 79.634
1284.796, 109.145
1286.006, 120.720
1287.215, 38.201
1288.425, 100.661
1289.634, 34.106
1290.843, 89.538
1292.052, 99.957
1293.261, 69.360
1294.469, 86.745
1295.678, 93.146
1296.886, 20.507
1298.094, 99.838
1299.302, 27.145
1300.509, 65.438
1301.717, 163.718
1302.924, 54.985
1304.131, 37.220
1305.338, 147.375
1306.545, 125.542
1307.752, 53.625
1308.958, 48.759
1310.164, 109.878
1311.370, 141.982
1312.576, 117.073
1313.782, 60.151
1314.987, 106.203
1316.193, 53.099
1317.398, 153.263
1318.603, 56.115
1319.807, 154.994
1321.012, 175.929
1322.216, 100.749
1323.421, 177.662
1324.625, 159.472
1325.829, 59.215
1327.032, 93.926
1328.236, 73.580
1329.439, 95.349
1330.642, 109.199
1331.845, 65.518
1333.048, 47.260
1334.251, 51.626
1335.453, 92.295
1336.656, 53.002
1337.858, 33.658
1339.060, 8.297
1340.261, 51.348
1341.463, 127.390
1342.664, 36.713
1343.866, 107.554
1345.067, 56.127
1346.267, 70.485
1347.468, 68.967
1348.669, 11.529
1349.869, 78.673
1351.069, 67.149
1352.269, 2.300
1353.469, 114.107
1354.668, 61.436
1355.868, 55.847
1357.067, 73.641
1358.266, 23.890
1359.465, 50.673
1360.664, 65.691
1361.862, 13.119
1363.061, 116.136
1364.259, 63.554
1365.457, 49.004
1366.655, 79.159
1367.852, 45.925
1369.050, 48.592
1370.247, 20.183
1371.444, 8.114
1372.641, 26.510
1373.838, 37.309
1375.035, 22.204
1376.231, 69.722
1377.427, 15.643
1378.623, 36.350
1379.819, 107.904
1381.015, 41.833
1382.211, 60.601
1383.406, 153.569
1384.601, 15.336
1385.796, 114.927
1386.991, 82.721
1388.185, 92.593
1389.380, 97.070
1390.574, 92.737
1391.768, 8.457
1392.962, 143.366
1394.156, 57.121
1395.350, 22.142
1396.543, 89.847
1397.736, 52.530
1398.929, 58.193
1400.122, 44.729
1401.315, 63.104
1402.507, 74.964
1403.700, 95.413
1404.892, 54.574
1406.084, 84.638
1407.276, 62.025
1408.467, 94.205
1409.659, 65.817
1410.850, 44.587
1412.041, 66.747
1413.232, 67.355
1414.423, 50.690
1415.614, 83.343
1416.804, 102.630
1417.994, 93.614
1419.184, 75.510
1420.374, 87.464
1421.564, 68.701
1422.753, 60.877
1423.943, 60.780
1425.132, 98.661
1426.321, 90.744
1427.510, 94.739
1428.698, 57.874
1429.887, 103.149
1431.075, 80.612
1432.263, 121.322
1433.451, 79.300
1434.639, 153.261
1435.827, 91.716
1437.014, 103.741
1438.201, 67.911
1439.388, 87.012
1440.575, 120.385
1441.762, 199.974
1442.949, 176.139
1444.135, 181.173
1445.321, 269.922
1446.507, 108.707
1447.693, 164.593
1448.879, 261.521
1450.064, 111.508
1451.250, 152.156
1452.435, 221.920
1453.620, 190.116
1454.805, 269.973
1455.989, 135.798
1457.174, 168.892
1458.358, 250.753
1459.542, 165.150
1460.726, 184.196
1461.910, 204.547
1463.093, 186.831
1464.277, 129.155
1465.460, 176.490
1466.643, 159.433
1467.826, 241.413
1469.009, 194.800
1470.191, 93.123
1471.373, 245.331
1472.556, 222.188
1473.738, 184.414
1474.919, 226.368
1476.101, 159.558
1477.283, 166.730
1478.464, 226.861
1479.645, 79.875
1480.826, 239.978
1482.007, 97.150
1483.187, 41.266
1484.368, 137.567
1485.548, 73.080
1486.728, 75.588
1487.908, 137.092
1489.088, 74.617
1490.268, 84.215
1491.447, 99.838
1492.626, 101.481
1493.805, 123.152
1494.984, 93.873
1496.163, 95.624
1497.341, 162.439
1498.520, 73.323
1499.698, 72.279
1500.876, 129.332
1502.054, 4.739
1503.232, 98.500
1504.409, 148.830
1505.586, 44.263
1506.763, 110.808
1507.940, 94.488
1509.117, 7.322
1510.294, 151.331
1511.470, 3.833
1512.647, 132.332
1513.823, 152.418
1514.999, 38.775
1516.174, 130.939
1517.350, 92.973
1518.526, 0.060
1519.701, 0.000
##END=



