##NAMES=Actinolite
##RRUFFID=R050336
##IDEAL CHEMISTRY=Ca_2_(Mg_4.5-2.5_Fe^2+^_0.5-2.5_)Si_8_O_22_(OH)_2_
##LOCALITY=Kragerø, Norway
##OWNER=RRUFF
##SOURCE=California Institute of Technology
##DESCRIPTION=Dark green prismatic fragment
##STATUS=The identification of this mineral has been confirmed by X-ray diffraction and chemical analysis
##URL=rruff.info/R050336
##MEASURED CHEMISTRY=([box]_0.62_Na_0.34_K_0.04_)(Ca_1.60_Na_0.40_)_Σ=2_(Mg_3.90_Fe^2+^_0.70_Al_0.20_Ti_0.10_Fe^3+^_0.10_)_Σ=5_(Si_7.52_Al_0.48_)_Σ=8_O_22_((OH)_0.97_F_0.03_)_2_
##PIN_ID=M00343
##ORIENTATION=Laser parallel to -a* (-1 0 0). Fiducial mark perpendicular to laser is parallel to b [0 1 0]
146.0460, 0.0000000E+00
147.2750, 113.2236
148.5030, 17.63770
149.7320, 91.94336
150.9600, 364.3301
152.1880, 661.9561
153.4160, 759.2305
154.6440, 1116.107
155.8720, 1098.012
157.0990, 1583.306
158.3270, 1752.461
159.5540, 1893.228
160.7810, 1725.645
162.0080, 1877.631
163.2350, 1981.281
164.4610, 1800.896
165.6880, 1880.332
166.9140, 1741.766
168.1400, 1748.618
169.3660, 1872.479
170.5920, 2026.686
171.8180, 2470.133
173.0430, 2575.558
174.2690, 2996.217
175.4940, 3328.025
176.7190, 3519.509
177.9440, 3709.924
179.1680, 3560.613
180.3930, 3304.936
181.6170, 3176.763
182.8420, 2920.703
184.0660, 2498.953
185.2900, 2495.689
186.5140, 2066.073
187.7370, 1880.251
188.9610, 1848.348
190.1840, 1912.481
191.4070, 1659.749
192.6300, 1589.242
193.8530, 1476.040
195.0760, 1282.211
196.2980, 1402.817
197.5210, 1454.912
198.7430, 1524.542
199.9650, 1559.747
201.1870, 1682.559
202.4090, 1719.007
203.6310, 1615.120
204.8520, 1547.923
206.0730, 1620.880
207.2950, 1861.266
208.5160, 2030.212
209.7360, 2410.841
210.9570, 2943.408
212.1780, 3168.287
213.3980, 3703.549
214.6180, 3925.791
215.8380, 4361.289
217.0580, 4722.382
218.2780, 4872.576
219.4980, 5527.879
220.7170, 5715.302
221.9360, 6139.887
223.1560, 6217.660
224.3750, 6501.638
225.5930, 6596.824
226.8120, 6560.221
228.0310, 6617.825
229.2490, 6591.639
230.4670, 6074.660
231.6850, 5877.888
232.9030, 5534.316
234.1210, 4892.947
235.3380, 4242.780
236.5560, 3920.809
237.7730, 3217.029
238.9900, 3113.434
240.2070, 2531.009
241.4240, 2441.754
242.6410, 2213.653
243.8570, 1984.046
245.0730, 1909.165
246.2900, 1805.662
247.5060, 1675.483
248.7210, 1427.433
249.9370, 1339.952
251.1530, 1193.147
252.3680, 1047.452
253.5830, 992.9307
254.7980, 780.5137
256.0130, 731.7266
257.2280, 622.6133
258.4430, 546.2910
259.6570, 410.3027
260.8720, 297.3359
262.0860, 251.3604
263.3000, 173.8691
264.5130, 44.87988
265.7270, 8.160156
266.9410, 281.6494
268.1540, 355.2979
269.3670, 246.9072
270.5800, 476.4766
271.7930, 498.0098
273.0060, 399.5029
274.2190, 339.9600
275.4310, 270.3799
276.6430, 227.0957
277.8550, 269.1172
279.0670, 114.4590
280.2790, 201.0889
281.4910, 51.11035
282.7020, 4.338867
283.9140, 29.58105
285.1250, 210.2402
286.3360, 207.8926
287.5470, 196.4893
288.7570, 300.1123
289.9680, 397.8027
291.1780, 411.5605
292.3880, 482.9014
293.5990, 544.2080
294.8080, 557.1377
296.0180, 680.6953
297.2280, 696.7148
298.4370, 796.1094
299.6470, 689.8096
300.8560, 753.7656
302.0650, 768.9326
303.2740, 673.2734
304.4820, 859.7617
305.6910, 678.3760
306.8990, 705.1016
308.1070, 651.9355
309.3150, 623.8506
310.5230, 634.8760
311.7310, 606.0000
312.9390, 617.4531
314.1460, 718.7773
315.3530, 693.2148
316.5600, 730.7715
317.7670, 783.5430
318.9740, 964.2734
320.1810, 876.2207
321.3870, 946.1162
322.5930, 1280.473
323.8000, 1095.621
325.0060, 1268.599
326.2110, 1288.138
327.4170, 1448.785
328.6230, 1620.968
329.8280, 1568.312
331.0330, 1565.210
332.2380, 1648.436
333.4430, 1606.785
334.6480, 1525.130
335.8530, 1442.265
337.0570, 1447.251
338.2610, 1383.389
339.4650, 1397.656
340.6690, 1307.316
341.8730, 1307.949
343.0770, 1234.557
344.2800, 1386.140
345.4840, 1419.699
346.6870, 1390.237
347.8900, 1410.754
349.0930, 1536.253
350.2950, 1262.732
351.4980, 1319.148
352.7000, 1311.089
353.9030, 1576.522
355.1050, 1514.368
356.3070, 1625.819
357.5080, 1805.958
358.7100, 2205.900
359.9110, 2204.806
361.1130, 2543.709
362.3140, 2962.644
363.5150, 3203.608
364.7160, 3617.605
365.9160, 3912.633
367.1170, 4030.689
368.3170, 4173.773
369.5170, 4521.887
370.7170, 4845.023
371.9170, 4522.100
373.1170, 4357.378
374.3170, 3940.589
375.5160, 3942.822
376.7150, 3930.077
377.9140, 3676.352
379.1130, 3671.646
380.3120, 3746.956
381.5110, 3923.286
382.7090, 3937.629
383.9070, 4264.990
385.1060, 4621.361
386.3040, 5286.748
387.5010, 5462.147
388.6990, 5864.557
389.8970, 5898.977
391.0940, 6148.408
392.2910, 6074.847
393.4880, 5816.295
394.6850, 5435.752
395.8820, 4994.214
397.0780, 4440.684
398.2750, 3846.161
399.4710, 3336.644
400.6670, 3045.091
401.8630, 2849.625
403.0590, 2685.124
404.2540, 2617.629
405.4500, 2611.047
406.6450, 2691.648
407.8400, 2780.164
409.0350, 2972.487
410.2300, 3172.123
411.4250, 3302.676
412.6190, 3508.684
413.8140, 3274.572
415.0080, 3531.130
416.2020, 3120.412
417.3960, 3207.952
418.5900, 2993.570
419.7830, 2805.212
420.9770, 2537.668
422.1700, 2444.678
423.3630, 2223.465
424.5560, 2005.893
425.7490, 1860.826
426.9410, 1809.347
428.1340, 1685.860
429.3260, 1422.758
430.5180, 1413.746
431.7100, 1372.581
432.9020, 1300.987
434.0940, 1107.799
435.2850, 1071.733
436.4770, 972.6650
437.6680, 871.0977
438.8590, 857.1611
440.0500, 681.7783
441.2410, 666.4541
442.4310, 800.9004
443.6220, 486.6035
444.8120, 340.3018
446.0020, 316.9941
447.1920, 221.6807
448.3820, 173.9424
449.5710, 216.8184
450.7610, 115.6787
451.9500, 112.6514
453.1390, 161.6152
454.3280, 43.73242
455.5170, 10.40625
456.7060, 116.3652
457.8940, 98.84082
459.0830, 149.2227
460.2710, 104.1982
461.4590, 240.7998
462.6470, 146.3555
463.8350, 225.2344
465.0220, 118.1006
466.2100, 183.9395
467.3970, 281.7207
468.5840, 107.2793
469.7710, 98.33594
470.9580, 205.6357
472.1440, 174.7314
473.3310, 285.1064
474.5170, 210.9404
475.7030, 186.6836
476.8890, 182.9434
478.0750, 230.9883
479.2610, 264.2734
480.4460, 379.6084
481.6320, 395.3398
482.8170, 451.0605
484.0020, 525.2441
485.1870, 547.4746
486.3710, 582.3350
487.5560, 661.1621
488.7400, 652.9570
489.9250, 658.7178
491.1090, 781.4473
492.2930, 790.1416
493.4760, 1002.804
494.6600, 973.4326
495.8440, 1151.031
497.0270, 1194.602
498.2100, 1376.144
499.3930, 1682.660
500.5760, 1760.152
501.7580, 1802.623
502.9410, 2013.070
504.1230, 2331.495
505.3060, 2502.895
506.4880, 2864.271
507.6690, 2977.624
508.8510, 3273.951
510.0330, 3640.255
511.2140, 3570.532
512.3950, 3671.786
513.5760, 3862.012
514.7570, 3789.213
515.9380, 3741.387
517.1190, 3763.535
518.2990, 3652.656
519.4800, 3747.752
520.6600, 3525.818
521.8400, 3558.859
523.0190, 3564.868
524.1990, 3497.854
525.3790, 3574.809
526.5580, 3746.735
527.7370, 3622.633
528.9160, 3850.503
530.0950, 3743.343
531.2740, 3710.153
532.4520, 3673.936
533.6310, 3705.688
534.8090, 3570.408
535.9870, 3627.101
537.1650, 3524.760
538.3430, 3468.392
539.5200, 3567.991
540.6980, 3526.560
541.8750, 3604.097
543.0520, 3536.604
544.2290, 3370.078
545.4060, 3338.521
546.5820, 3270.934
547.7590, 3330.312
548.9350, 3248.660
550.1110, 3419.976
551.2870, 3298.262
552.4630, 3408.531
553.6390, 3275.855
554.8140, 3175.256
555.9900, 3293.699
557.1650, 3465.247
558.3400, 3482.905
559.5150, 3385.647
560.6900, 3414.467
561.8640, 3265.340
563.0390, 3433.271
564.2130, 3447.262
565.3870, 3341.275
566.5610, 3315.328
567.7350, 3263.389
568.9080, 3080.456
570.0820, 3074.551
571.2550, 3063.640
572.4280, 2778.717
573.6010, 2549.782
574.7740, 2653.861
575.9470, 2334.943
577.1190, 2343.029
578.2920, 2046.124
579.4640, 1718.207
580.6360, 1732.295
581.8080, 1504.369
582.9790, 1083.424
584.1510, 923.4619
585.3220, 924.4766
586.4940, 654.4746
587.6650, 506.4443
588.8360, 308.3770
590.0060, 203.2695
591.1770, 29.11328
592.3470, 59.87695
593.5180, 133.4297
594.6880, 134.9033
595.8580, 222.5459
597.0280, 162.6221
598.1970, 281.6631
599.3670, 310.9521
600.5360, 177.5039
601.7050, 234.3838
602.8740, 233.3525
604.0430, 158.6689
605.2120, 222.0469
606.3800, 126.0283
607.5490, 172.9609
608.7170, 73.91797
609.8850, 193.6172
611.0530, 6.630859
612.2210, 83.32812
613.3880, 40.34863
614.5560, 32.06641
615.7230, 31.04688
616.8900, 84.31738
618.0570, 54.78418
619.2240, 78.36133
620.3900, 208.9951
621.5570, 279.8145
622.7230, 273.5879
623.8890, 393.0479
625.0550, 373.0059
626.2210, 523.6523
627.3870, 586.2607
628.5520, 599.8311
629.7180, 602.3633
630.8830, 693.2178
632.0480, 790.6748
633.2130, 923.7344
634.3770, 1027.115
635.5420, 1294.460
636.7060, 1336.768
637.8710, 1628.037
639.0350, 1709.271
640.1990, 1796.467
641.3620, 1899.626
642.5260, 2131.748
643.6890, 2130.834
644.8530, 2462.884
646.0160, 2752.896
647.1790, 2858.871
648.3410, 3230.811
649.5040, 3587.714
650.6670, 3993.582
651.8290, 4389.412
652.9910, 4718.206
654.1530, 5409.967
655.3150, 5742.690
656.4770, 6546.377
657.6380, 7420.031
658.7990, 8210.647
659.9610, 9635.231
661.1220, 11052.78
662.2830, 12719.29
663.4430, 14817.76
664.6040, 16918.20
665.7640, 19815.62
666.9240, 22364.99
668.0850, 24971.32
669.2440, 27473.63
670.4040, 28701.90
671.5640, 29841.14
672.7230, 29696.34
673.8830, 28066.51
675.0420, 26051.65
676.2010, 23554.75
677.3590, 20559.82
678.5180, 17748.86
679.6770, 15380.86
680.8350, 13335.83
681.9930, 11475.77
683.1510, 10105.68
684.3090, 9214.558
685.4670, 8006.398
686.6240, 7356.211
687.7810, 6909.990
688.9390, 6573.738
690.0960, 6067.457
691.2530, 5785.143
692.4090, 5628.801
693.5660, 5318.425
694.7220, 5249.019
695.8790, 5258.580
697.0350, 5185.110
698.1910, 5020.607
699.3460, 5147.766
700.5020, 5138.059
701.6570, 5143.635
702.8130, 5375.193
703.9680, 5289.924
705.1230, 5726.049
706.2780, 5676.441
707.4320, 5840.521
708.5870, 5824.436
709.7410, 6116.189
710.8950, 6323.393
712.0490, 6456.410
713.2030, 6734.550
714.3570, 6909.074
715.5100, 6885.225
716.6640, 7398.916
717.8170, 7346.259
718.9700, 7510.617
720.1230, 8018.318
721.2760, 8068.616
722.4280, 8105.029
723.5810, 8389.441
724.7330, 8282.476
725.8850, 8401.197
727.0370, 8755.802
728.1890, 8858.534
729.3400, 8778.856
730.4920, 9001.146
731.6430, 9045.282
732.7940, 9358.378
733.9450, 9170.273
735.0960, 9218.564
736.2460, 9240.524
737.3970, 8936.921
738.5470, 9000.396
739.6970, 8859.164
740.8470, 8658.292
741.9970, 8230.420
743.1470, 7942.177
744.2970, 7841.900
745.4460, 7551.603
746.5950, 7184.316
747.7440, 6952.207
748.8930, 6570.550
750.0420, 6298.463
751.1900, 5992.716
752.3390, 5724.703
753.4870, 5365.084
754.6350, 5090.516
755.7830, 4748.111
756.9310, 4584.419
758.0780, 4208.125
759.2260, 4048.835
760.3730, 3859.059
761.5200, 3548.251
762.6670, 3592.939
763.8140, 3464.541
764.9610, 3257.223
766.1070, 3173.097
767.2530, 2927.314
768.4000, 2888.225
769.5460, 2821.129
770.6910, 2786.027
771.8370, 2695.240
772.9830, 2756.808
774.1280, 2558.693
775.2730, 2546.572
776.4180, 2583.447
777.5630, 2358.320
778.7080, 2498.189
779.8520, 2395.056
780.9970, 2353.920
782.1410, 2415.781
783.2850, 2262.642
784.4290, 2263.500
785.5730, 2305.357
786.7160, 2294.214
787.8600, 2231.070
789.0030, 2215.928
790.1460, 2161.783
791.2890, 2190.641
792.4320, 2140.500
793.5750, 2032.359
794.7170, 2094.223
795.8590, 2003.087
797.0020, 1796.954
798.1440, 1754.824
799.2850, 1668.697
800.4270, 1715.576
801.5690, 1601.458
802.7100, 1585.345
803.8510, 1510.237
804.9920, 1455.135
806.1330, 1346.039
807.2740, 1167.948
808.4140, 1078.864
809.5550, 949.7871
810.6950, 1102.719
811.8350, 850.6562
812.9750, 1106.603
814.1150, 886.5566
815.2540, 822.5195
816.3940, 856.4932
817.5330, 631.4736
818.6720, 651.4648
819.8110, 650.4658
820.9500, 490.4766
822.0880, 463.5000
823.2270, 474.5332
824.3650, 385.5791
825.5030, 506.6357
826.6410, 349.7041
827.7790, 156.7842
828.9170, 125.8770
830.0540, 240.9834
831.1920, 228.1025
832.3290, 119.2354
833.4660, 45.38184
834.6030, 31.54297
835.7390, 29.14258
836.8760, 10.11035
838.0120, 81.93848
839.1480, 41.40918
840.2840, 67.64941
841.4200, 34.52734
842.5560, 77.40918
843.6920, 142.3125
844.8270, 190.3164
845.9620, 133.6396
847.0970, 105.0684
848.2320, 102.8457
849.3670, 218.1631
850.5020, 172.4023
851.6360, 185.5400
852.7700, 197.2207
853.9040, 117.2412
855.0380, 194.6318
856.1720, 107.9287
857.3060, 81.04199
858.4390, 105.7783
859.5730, 65.33887
860.7060, 101.9043
861.8390, 53.18164
862.9720, 26.92188
864.1040, 20.64160
865.2370, 142.8105
866.3690, 110.2910
867.5010, 49.81543
868.6330, 206.3809
869.7650, 97.03223
870.8970, 185.7754
872.0290, 281.6318
873.1600, 97.58398
874.2910, 325.6670
875.4220, 497.8877
876.5530, 347.2119
877.6840, 508.6543
878.8140, 389.2168
879.9450, 611.8779
881.0750, 624.6562
882.2050, 650.5273
883.3350, 586.5020
884.4650, 776.5557
885.5950, 790.7188
886.7240, 946.9443
887.8530, 874.2529
888.9820, 792.6318
890.1110, 968.0820
891.2400, 1121.602
892.3690, 1133.165
893.4970, 1041.776
894.6260, 1268.441
895.7540, 1215.141
896.8820, 1266.874
898.0100, 1370.643
899.1370, 1254.442
900.2650, 1457.292
901.3920, 1316.173
902.5200, 1417.130
903.6470, 1519.129
904.7730, 1154.165
905.9000, 1432.253
907.0270, 1535.414
908.1530, 1286.658
909.2790, 1596.935
910.4050, 1384.251
911.5310, 1594.601
912.6570, 1568.008
913.7830, 1531.447
914.9080, 1535.924
916.0330, 1611.506
917.1580, 1654.231
918.2830, 1806.580
919.4080, 1881.211
920.5330, 1958.877
921.6570, 2182.608
922.7820, 2118.387
923.9060, 2123.227
925.0300, 2243.129
926.1540, 2541.067
927.2770, 2412.039
928.4010, 2480.064
929.5240, 2426.125
930.6470, 2412.239
931.7700, 2148.396
932.8930, 1977.619
934.0160, 1837.919
935.1380, 1778.279
936.2610, 1696.711
937.3830, 1557.180
938.5050, 1364.712
939.6270, 1341.295
940.7490, 1279.916
941.8700, 1293.406
942.9910, 1352.295
944.1130, 1393.050
945.2340, 1413.840
946.3550, 1414.690
947.4750, 1431.807
948.5960, 1414.511
949.7160, 1437.489
950.8370, 1419.783
951.9570, 1421.534
953.0770, 1379.675
954.1970, 1385.814
955.3160, 1343.017
956.4360, 1256.269
957.5550, 1168.559
958.6740, 1212.887
959.7930, 1323.248
960.9120, 1282.644
962.0310, 1545.082
963.1490, 1438.556
964.2670, 1363.062
965.3860, 1524.610
966.5040, 1467.194
967.6210, 1495.812
968.7390, 1531.465
969.8570, 1456.153
970.9740, 1550.184
972.0910, 1528.079
973.2080, 1481.719
974.3250, 1617.379
975.4420, 1509.865
976.5580, 1331.962
977.6750, 1529.090
978.7910, 1314.933
979.9070, 1212.242
981.0230, 1337.715
982.1390, 1298.735
983.2540, 1344.943
984.3700, 1264.032
985.4850, 1298.737
986.6000, 1299.819
987.7150, 1215.360
988.8300, 1279.253
989.9450, 1310.129
991.0590, 1398.667
992.1730, 1458.609
993.2880, 1490.439
994.4010, 1569.742
995.5150, 1427.485
996.6290, 1626.014
997.7420, 1735.666
998.8560, 1628.611
999.9690, 1790.345
1001.082, 1953.119
1002.195, 2051.934
1003.307, 2138.790
1004.420, 2251.686
1005.532, 2372.622
1006.645, 2461.587
1007.757, 2569.200
1008.868, 2642.661
1009.980, 2716.748
1011.092, 2775.041
1012.203, 2747.030
1013.314, 2873.227
1014.425, 2879.455
1015.536, 2914.721
1016.647, 3022.019
1017.758, 3038.350
1018.868, 3148.720
1019.978, 3132.125
1021.088, 3281.565
1022.198, 3296.038
1023.308, 3392.544
1024.418, 3650.182
1025.527, 3751.748
1026.637, 3866.239
1027.746, 3844.042
1028.855, 4037.701
1029.963, 4001.453
1031.072, 4045.170
1032.181, 3991.916
1033.289, 3974.451
1034.397, 3763.254
1035.505, 3654.442
1036.613, 3502.226
1037.721, 3496.197
1038.828, 3502.366
1039.935, 3274.941
1041.043, 3305.334
1042.150, 3216.317
1043.257, 3294.127
1044.363, 3349.206
1045.470, 3411.692
1046.576, 3105.910
1047.682, 3312.795
1048.788, 3338.933
1049.894, 3426.485
1051.000, 3544.746
1052.106, 3653.466
1053.211, 3593.281
1054.316, 3773.395
1055.421, 3818.480
1056.526, 3988.428
1057.631, 4092.971
1058.736, 4100.647
1059.840, 4198.601
1060.944, 4193.999
1062.049, 4264.375
1063.153, 4186.786
1064.256, 4156.921
1065.360, 4164.002
1066.463, 3869.755
1067.567, 3638.040
1068.670, 3560.457
1069.773, 3299.547
1070.876, 3195.236
1071.978, 2971.509
1073.081, 2833.429
1074.183, 2743.903
1075.285, 2463.927
1076.387, 2562.018
1077.489, 2421.617
1078.591, 2221.863
1079.692, 2183.648
1080.794, 2114.541
1081.895, 2095.818
1082.996, 2151.934
1084.097, 1917.794
1085.198, 1727.487
1086.298, 1830.404
1087.399, 1783.198
1088.499, 1714.947
1089.599, 1592.633
1090.699, 1578.563
1091.799, 1406.236
1092.898, 1404.869
1093.998, 1344.223
1095.097, 1241.105
1096.196, 1255.748
1097.295, 1269.898
1098.394, 1189.547
1099.492, 1080.520
1100.591, 1122.173
1101.689, 1013.140
1102.787, 1100.797
1103.885, 911.7227
1104.983, 1149.152
1106.081, 1092.933
1107.178, 1040.963
1108.275, 906.1621
1109.373, 955.9023
1110.470, 1042.659
1111.566, 871.5498
1112.663, 918.3809
1113.760, 852.3193
1114.856, 904.4434
1115.952, 721.3799
1117.048, 749.4668
1118.144, 775.4980
1119.240, 614.5840
1120.335, 764.6475
1121.431, 683.7344
1122.526, 562.8604
1123.621, 526.0039
1124.716, 590.1953
1125.810, 510.4004
1126.905, 560.6152
1127.999, 578.8828
1129.094, 518.5322
1130.188, 610.0234
1131.282, 458.2471
1132.375, 337.4766
1133.469, 269.6855
1134.562, 247.2715
1135.656, 319.6025
1136.749, 321.8477
1137.842, 242.3916
1138.935, 312.5586
1140.027, 313.7168
1141.120, 282.8037
1142.212, 299.0000
1143.304, 265.4453
1144.396, 199.5605
1145.488, 231.3359
1146.579, 155.9297
1147.671, 187.1318
1148.762, 149.2002
1149.853, 131.0557
1150.944, 182.3672
1152.035, 108.4863
1153.126, 38.50098
1154.216, 39.16992
1155.307, 1.469727
1156.397, 27.49707
1157.487, 42.18262
1158.577, 25.87988
1159.667, 49.06836
1160.756, 11.01660
1161.846, 43.89355
1162.935, 200.7529
1164.024, 62.40430
1165.113, 134.3848
1166.201, 164.8418
1167.290, 29.17676
1168.378, 14.55078
1169.467, 63.76660
1170.555, 148.2305
1171.643, 175.5684
1172.730, 146.9561
1173.818, 19.75000
1174.905, 60.50684
1175.993, 75.25684
1177.080, 43.91016
1178.167, 1.056641
1179.254, 80.17090
1180.340, 22.58789
1181.427, 67.45996
1182.513, 6.436523
1183.599, 11.55078
1184.685, 89.49121
1185.771, 23.85352
1186.856, 84.02930
1187.942, 76.28516
1189.027, 35.38086
1190.112, 150.1992
1191.197, 40.15527
1192.282, 31.51367
1193.367, 35.96191
1194.451, 1.501953
1195.536, 92.03516
1196.620, 117.4971
1197.704, 61.12109
1198.788, 109.9727
1199.872, 49.07227
1200.955, 66.91211
1202.039, 24.97852
1203.122, 59.28027
1204.205, 30.12402
1205.288, 50.06641
1206.370, 53.66797
1207.453, 139.4014
1208.535, 50.92285
1209.618, 103.6777
1210.700, 11.75098
1211.782, 16.76367
1212.863, 2.235352
1213.945, 101.6553
1215.026, 38.04492
1216.108, 31.39844
1217.189, 53.28711
1218.270, 4.086914
1219.351, 44.11816
1220.431, 104.2559
1221.512, 168.3613
1222.592, 257.4395
1223.672, 26.48926
1224.752, 126.4961
1225.832, 275.4707
1226.911, 35.41699
1227.991, 340.3213
1229.070, 114.1963
1230.149, 217.3730
1231.228, 120.2422
1232.307, 223.0254
1233.386, 136.0762
1234.464, 37.20117
1235.543, 180.4414
1236.621, 125.2031
1237.699, 106.8516
1238.777, 350.3975
1239.855, 246.6035
1240.932, 184.4004
1242.009, 224.8545
1243.087, 192.3691
1244.164, 154.7627
1245.241, 206.1221
1246.317, 182.4502
1247.394, 205.7783
1248.470, 203.1016
1249.546, 259.3320
1250.623, 260.7832
1251.698, 261.9463
1252.774, 276.2998
1253.850, 260.2305
1254.925, 256.3613
1256.000, 260.3389
1257.076, 225.3438
1258.150, 142.3145
1259.225, 173.2734
1260.300, 263.1719
1261.374, 236.0371
1262.449, 319.9463
1263.523, 150.8447
1264.597, 208.7314
1265.670, 228.6611
1266.744, 155.4766
1267.818, 250.2207
1268.891, 278.9639
1269.964, 387.5498
1271.037, 300.1025
1272.110, 172.0410
1273.183, 300.5254
1274.255, 281.0869
1275.327, 209.5449
1276.400, 221.9268
1277.472, 268.3271
1278.543, 78.63965
1279.615, 136.9062
1280.687, 99.60449
1281.758, 314.3203
1282.829, 126.4717
1283.900, 180.5830
1284.971, 277.5596
1286.042, 127.6084
1287.112, 301.6182
1288.183, 247.6250
1289.253, 244.7051
1290.323, 312.6309
1291.393, 303.5771
1292.463, 299.4199
1293.532, 405.4688
1294.602, 396.2441
1295.671, 308.6270
1296.740, 389.4072
1297.809, 200.9902
1298.878, 266.3691
1299.946, 179.3340
1301.015, 174.0234
1302.083, 390.0137
1303.151, 234.7197
1304.219, 311.1504
1305.287, 349.1650
1306.354, 271.0029
1307.422, 250.0283
1308.489, 183.3594
1309.556, 275.2676
1310.623, 198.4590
1311.690, 237.1787
1312.757, 350.7969
