##NAMES=Actinolite
##RRUFFID=R060041
##IDEAL CHEMISTRY=Ca_2_(Mg_4.5-2.5_Fe^2+^_0.5-2.5_)Si_8_O_22_(OH)_2_
##LOCALITY=Prince of Wales Island, Alaska, USA
##OWNER=RRUFF
##SOURCE=University of Arizona Mineral Museum
##DESCRIPTION=Green acicular crystals forming parallel groups in cylindrical or bladed forms
##STATUS=The identification of this mineral has been confirmed by X-ray diffraction and chemical analysis
##URL=rruff.info/R060041
##MEASURED CHEMISTRY=(Ca_0.97_Na_0.03_)_2_(Mg_0.65_Fe^2+^_0.29_Fe^3+^_0.04_Al_0.01_Mn_0.01_)_5_(Si_0.98_Al_0.02_)_8_O_22_(OH)_2_
95.94800, 0.0000000E+00
97.18200, 13.60059
98.41600, 72.55225
99.64900, 198.5132
100.8830, 13.54834
102.1160, 35.32910
103.3490, 65.99365
104.5820, 431.4224
105.8150, 1070.756
107.0470, 1864.323
108.2800, 2599.810
109.5120, 3194.161
110.7440, 2709.529
111.9760, 2120.226
113.2080, 2064.689
114.4400, 2456.450
115.6710, 2594.103
116.9030, 2392.280
118.1340, 2196.658
119.3650, 1611.951
120.5960, 1086.914
121.8270, 947.3330
123.0580, 921.0249
124.2880, 662.8364
125.5190, 314.6372
126.7490, 193.3145
127.9790, 448.7656
129.2090, 454.8975
130.4390, 607.6221
131.6680, 814.8604
132.8980, 627.5322
134.1270, 678.5244
135.3560, 769.7168
136.5850, 809.0146
137.8140, 1122.346
139.0430, 1693.647
140.2710, 2329.867
141.5000, 3060.960
142.7280, 4418.888
143.9560, 5894.616
145.1840, 7798.113
146.4120, 9936.351
147.6390, 12491.31
148.8670, 15438.97
150.0940, 17635.35
151.3210, 17792.44
152.5490, 16064.24
153.7750, 13296.74
155.0020, 10862.93
156.2290, 8445.797
157.4550, 6446.328
158.6810, 5027.495
159.9080, 4354.279
161.1340, 3808.657
162.3590, 4043.609
163.5850, 4718.119
164.8110, 5591.167
166.0360, 6914.733
167.2610, 8159.807
168.4860, 9627.371
169.7110, 11514.28
170.9360, 13217.10
172.1610, 13929.91
173.3850, 14026.75
174.6100, 12738.68
175.8340, 11227.75
177.0580, 9393.966
178.2820, 7731.363
179.5050, 6175.953
180.7290, 4869.754
181.9520, 3848.774
183.1760, 3022.025
184.3990, 2563.511
185.6220, 2198.238
186.8450, 2136.213
188.0670, 2286.437
189.2900, 2176.911
190.5120, 2225.641
191.7340, 2278.623
192.9560, 2329.860
194.1780, 2514.354
195.4000, 2806.099
196.6220, 2941.099
197.8430, 3139.350
199.0640, 3561.939
200.2860, 4102.008
201.5070, 4791.658
202.7270, 5279.818
203.9480, 5654.451
205.1690, 5863.539
206.3890, 6472.035
207.6090, 7717.923
208.8290, 9123.201
210.0490, 10597.90
211.2690, 12413.01
212.4890, 14083.53
213.7080, 15411.38
214.9280, 16696.53
216.1470, 17353.93
217.3660, 17407.53
218.5850, 16723.31
219.8030, 15725.25
221.0220, 14304.36
222.2400, 12883.63
223.4590, 11092.06
224.6770, 9685.656
225.8950, 8202.406
227.1120, 7039.307
228.3300, 5960.365
229.5480, 4955.570
230.7650, 4317.926
231.9820, 3702.425
233.1990, 3163.066
234.4160, 2789.851
235.6330, 2494.771
236.8490, 2324.828
238.0660, 2042.020
239.2820, 1957.342
240.4980, 1815.793
241.7140, 1829.372
242.9300, 1751.017
244.1460, 1675.929
245.3610, 1620.983
246.5770, 1506.848
247.7920, 1514.977
249.0070, 1429.689
250.2220, 1338.873
251.4370, 1217.685
252.6510, 1237.075
253.8660, 1158.002
255.0800, 1027.426
256.2940, 917.3154
257.5080, 952.6416
258.7220, 1022.381
259.9360, 797.6523
261.1490, 909.0117
262.3630, 456.8623
263.5760, 299.0498
264.7890, 243.5576
266.0020, 111.3730
267.2150, 93.82715
268.4270, 32.87500
269.6400, 101.5400
270.8520, 126.4678
272.0640, 179.6494
273.2760, 250.0762
274.4880, 126.7393
275.7000, 447.6309
276.9120, 341.7441
278.1230, 584.0713
279.3340, 527.6064
280.5450, 750.3438
281.7560, 916.2773
282.9670, 910.4014
284.1780, 1224.712
285.3880, 1296.204
286.5980, 1485.874
287.8090, 1613.718
289.0190, 1722.730
290.2290, 1825.910
291.4380, 1936.202
292.6480, 1925.723
293.8570, 1954.400
295.0670, 1893.220
296.2760, 1897.178
297.4850, 1917.282
298.6930, 1872.545
299.9020, 1711.943
301.1110, 1593.818
302.3190, 1594.707
303.5270, 1401.996
304.7350, 1358.510
305.9430, 1424.444
307.1510, 1299.720
308.3580, 1171.986
309.5660, 1230.373
310.7730, 1155.846
311.9800, 1212.629
313.1870, 1145.077
314.3940, 1260.697
315.6010, 1180.973
316.8070, 1342.719
318.0130, 1283.349
319.2200, 1381.438
320.4260, 1555.130
321.6310, 1619.894
322.8370, 1905.637
324.0430, 1997.417
325.2480, 2136.336
326.4540, 2186.821
327.6590, 2325.402
328.8640, 2573.235
330.0680, 2426.252
331.2730, 2679.834
332.4780, 2702.352
333.6820, 2727.801
334.8860, 2783.739
336.0900, 2706.301
337.2940, 2747.392
338.4980, 2652.554
339.7010, 2760.041
340.9050, 2676.354
342.1080, 2762.742
343.3110, 2679.202
344.5140, 2766.731
345.7170, 2728.331
346.9200, 2669.996
348.1220, 2610.725
349.3240, 2691.514
350.5270, 2806.361
351.7290, 2785.268
352.9310, 2972.227
354.1320, 3104.240
355.3340, 3172.304
356.5350, 3314.417
357.7370, 3450.576
358.9380, 3625.781
360.1390, 3799.029
361.3400, 3677.320
362.5400, 3670.653
363.7410, 3656.025
364.9410, 3294.437
366.1410, 3187.888
367.3410, 3042.375
368.5410, 2938.900
369.7410, 2757.461
370.9400, 2851.059
372.1400, 2808.689
373.3390, 2823.144
374.5380, 3060.052
375.7370, 2987.781
376.9360, 3153.545
378.1350, 3402.338
379.3330, 3690.162
380.5310, 4090.016
381.7300, 4455.899
382.9280, 4487.811
384.1260, 4547.750
385.3230, 4587.717
386.5210, 4430.709
387.7180, 4262.794
388.9160, 4008.979
390.1130, 4035.254
391.3100, 3990.615
392.5060, 3890.062
393.7030, 3969.592
394.9000, 2900.197
396.0960, 2558.874
397.2920, 2472.621
398.4880, 2457.436
399.6840, 2356.313
400.8800, 2246.255
402.0750, 2282.256
403.2710, 2245.315
404.4660, 2219.431
405.6610, 2099.602
406.8560, 2059.824
408.0510, 1827.099
409.2450, 1648.422
410.4400, 1631.792
411.6340, 1369.209
412.8280, 1199.670
414.0220, 1038.175
415.2160, 833.7207
416.4100, 767.3066
417.6030, 614.9307
418.7970, 571.5928
419.9900, 450.2910
421.1830, 434.0234
422.3760, 410.7891
423.5690, 609.5889
424.7610, 627.4180
425.9540, 813.2793
427.1460, 932.1680
428.3380, 1082.086
429.5300, 1150.758
430.7220, 1171.881
431.9140, 1210.993
433.1050, 1054.011
434.2970, 975.0518
435.4880, 722.1133
436.6790, 600.1953
437.8700, 337.2969
439.0610, 294.4180
440.2510, 44.55566
441.4420, 73.01758
442.6320, 68.11230
443.8220, 135.5088
445.0120, 189.4482
446.2020, 226.0962
447.3910, 297.2266
448.5810, 241.0762
449.7700, 166.9946
450.9600, 252.5581
452.1490, 193.1411
453.3370, 74.87695
454.5260, 224.2349
455.7150, 138.4878
456.9030, 115.8052
458.0910, 122.8091
459.2800, 88.30029
460.4670, 136.9565
461.6550, 85.36670
462.8430, 128.9766
464.0300, 126.1929
465.2180, 173.4536
466.4050, 81.90527
467.5920, 151.2104
468.7790, 139.8379
469.9650, 137.5659
471.1520, 31.39746
472.3380, 31.28223
473.5250, 92.22119
474.7110, 22.75537
475.8970, 7.698730
477.0820, 16.39941
478.2680, 63.44971
479.4540, 98.27637
480.6390, 125.0869
481.8240, 85.88232
483.0090, 129.6572
484.1940, 125.4155
485.3780, 238.1572
486.5630, 222.8813
487.7470, 300.5874
488.9320, 294.2749
490.1160, 239.9438
491.3000, 388.5933
492.4830, 566.2227
493.6670, 541.8311
494.8500, 592.4194
496.0340, 758.9858
497.2170, 810.5303
498.4000, 906.0537
499.5820, 936.5542
500.7650, 1044.031
501.9480, 1186.486
503.1300, 1249.916
504.3120, 1365.336
505.4940, 1540.734
506.6760, 1532.111
507.8580, 1632.469
509.0390, 1842.824
510.2210, 1839.161
511.4020, 1973.483
512.5830, 2047.785
513.7640, 2247.094
514.9450, 2239.401
516.1250, 2389.726
517.3060, 2587.048
518.4860, 2821.389
519.6660, 2953.981
520.8460, 3100.697
522.0260, 3232.423
523.2060, 3318.741
524.3850, 3390.060
525.5650, 3490.348
526.7440, 3586.603
527.9230, 3587.827
529.1020, 3577.392
530.2810, 3340.332
531.4590, 3388.614
532.6380, 3224.892
533.8160, 2976.181
534.9940, 3021.472
536.1720, 2841.751
537.3500, 2777.022
538.5270, 2937.264
539.7050, 2614.503
540.8820, 2600.733
542.0590, 2475.953
543.2360, 2367.175
544.4130, 2322.365
545.5900, 2124.548
546.7660, 2211.724
547.9430, 1940.860
549.1190, 1961.956
550.2950, 1894.009
551.4710, 1586.023
552.6470, 1684.998
553.8220, 1611.933
554.9980, 1569.822
556.1730, 1575.468
557.3480, 1560.465
558.5230, 1504.218
559.6980, 1489.700
560.8730, 1442.199
562.0470, 1386.193
563.2220, 1351.757
564.3960, 1235.290
565.5700, 1181.772
566.7440, 1118.207
567.9170, 1146.591
569.0910, 1144.925
570.2640, 1019.209
571.4380, 1030.441
572.6110, 936.6235
573.7840, 822.7534
574.9570, 797.8320
576.1290, 741.8594
577.3020, 688.8335
578.4740, 587.7549
579.6460, 454.6235
580.8180, 402.4380
581.9900, 201.1982
583.1620, 267.8730
584.3330, 135.4912
585.5040, 176.6865
586.6760, 37.93018
587.8470, 80.80664
589.0180, 26.50049
590.1880, 32.78711
591.3590, 59.76172
592.5290, 28.77930
593.7000, 25.29834
594.8700, 105.5493
596.0400, 21.12305
597.2090, 31.94971
598.3790, 68.81201
599.5490, 7.055176
600.7180, 185.6182
601.8870, 58.45215
603.0560, 163.8560
604.2250, 182.6978
605.3940, 260.5117
606.5620, 285.3931
607.7300, 228.2856
608.8990, 387.0845
610.0670, 347.3618
611.2350, 323.5898
612.4020, 437.6074
613.5700, 406.4834
614.7370, 554.8359
615.9050, 591.2930
617.0720, 597.8569
618.2390, 697.9683
619.4060, 726.4922
620.5720, 835.5210
621.7390, 1001.513
622.9050, 1106.211
624.0710, 1312.114
625.2370, 1442.972
626.4030, 1501.786
627.5690, 1743.555
628.7340, 1973.279
629.9000, 2097.958
631.0650, 2386.592
632.2300, 2463.181
633.3950, 2672.726
634.5600, 3065.226
635.7240, 3335.679
636.8890, 3595.269
638.0530, 4034.633
639.2170, 4517.951
640.3810, 4668.361
641.5450, 5137.588
642.7080, 5650.771
643.8720, 5998.792
645.0350, 6434.491
646.1980, 6922.547
647.3610, 7532.843
648.5240, 8268.675
649.6870, 9095.307
650.8490, 10240.07
652.0120, 11347.52
653.1740, 12628.95
654.3360, 14371.12
655.4980, 16753.95
656.6600, 19148.58
657.8210, 22257.79
658.9830, 25842.76
660.1440, 29986.99
661.3050, 34433.60
662.4660, 38462.67
663.6270, 43019.72
664.7870, 46519.00
665.9480, 48187.24
667.1080, 48610.68
668.2680, 46777.75
669.4280, 43578.92
670.5880, 38659.70
671.7480, 33579.95
672.9070, 28923.45
674.0670, 24089.61
675.2260, 20155.01
676.3850, 16949.85
677.5440, 14082.94
678.7030, 12296.29
679.8610, 10602.64
681.0200, 9397.188
682.1780, 8273.322
683.3360, 7413.282
684.4940, 6567.877
685.6520, 6076.808
686.8090, 5399.663
687.9670, 4909.125
689.1240, 4525.304
690.2810, 4144.376
691.4380, 3744.093
692.5950, 3450.673
693.7520, 3144.719
694.9080, 2864.552
696.0650, 2648.390
697.2210, 2413.143
698.3770, 2144.896
699.5330, 2009.538
700.6880, 1835.390
701.8440, 1644.797
702.9990, 1629.637
704.1550, 1550.059
705.3100, 1533.425
706.4650, 1467.737
707.6190, 1342.996
708.7740, 1371.200
709.9290, 1293.351
711.0830, 1173.448
712.2370, 1179.491
713.3910, 1148.608
714.5450, 1259.546
715.6980, 1108.430
716.8520, 1143.262
718.0050, 1072.042
719.1580, 1023.769
720.3110, 950.4448
721.4640, 971.7627
722.6170, 960.6362
723.7700, 934.7236
724.9220, 932.2881
726.0740, 869.4819
727.2260, 858.0684
728.3780, 942.2656
729.5300, 873.4370
730.6810, 1017.172
731.8330, 1087.825
732.9840, 1013.542
734.1350, 1023.816
735.2860, 1070.887
736.4370, 1087.940
737.5880, 1099.603
738.7380, 1104.652
739.8880, 1111.834
741.0390, 1079.664
742.1890, 1072.619
743.3380, 1010.095
744.4880, 1105.528
745.6380, 998.0542
746.7870, 960.3555
747.9360, 1056.883
749.0850, 1036.420
750.2340, 924.9639
751.3830, 842.4912
752.5310, 975.0034
753.6800, 809.5146
754.8280, 670.9995
755.9760, 701.4614
757.1240, 487.9067
758.2720, 538.3198
759.4190, 575.6978
760.5670, 640.0405
761.7140, 669.3496
762.8610, 587.6240
764.0080, 620.8643
765.1550, 485.0688
766.3020, 494.2397
767.4480, 481.3770
768.5950, 496.4800
769.7410, 461.5508
770.8870, 495.5874
772.0330, 439.5918
773.1780, 333.5640
774.3240, 182.5039
775.4690, 293.4097
776.6140, 308.2852
777.7590, 188.1284
778.9040, 298.9390
780.0490, 266.7197
781.1940, 1.470215
782.3380, 105.1606
783.4820, 64.81641
784.6260, 42.43311
785.7700, 33.99121
786.9140, 17.50977
788.0580, 11.96338
789.2010, 17.36865
790.3450, 82.27197
791.4880, 48.00879
792.6310, 123.8237
793.7730, 58.75488
794.9160, 133.7671
796.0590, 115.8994
797.2010, 42.14111
798.3430, 34.45264
799.4850, 11.82910
800.6270, 77.25781
801.7690, 346.2285
802.9100, 731.6919
804.0520, 110.1318
805.1930, 165.4531
806.3340, 153.1655
807.4750, 180.9990
808.6160, 78.96533
809.7560, 149.0107
810.8970, 114.1714
812.0370, 72.42725
813.1770, 81.75488
814.3170, 7.158691
815.4570, 110.5981
816.5960, 97.12695
817.7360, 86.73535
818.8750, 146.4180
820.0140, 17.20508
821.1530, 111.0264
822.2920, 118.9307
823.4310, 8.079102
824.5690, 54.06641
825.7070, 104.0361
826.8460, 12.01123
827.9840, 3.083008
829.1220, 1.178711
830.2590, 67.70459
831.3970, 132.5728
832.5340, 111.7217
833.6710, 109.2710
834.8080, 69.10059
835.9450, 101.9185
837.0820, 41.72510
838.2190, 163.5186
839.3550, 76.69873
840.4910, 149.0400
841.6270, 148.7690
842.7630, 106.4878
843.8990, 198.1987
845.0350, 227.9009
846.1700, 126.5938
847.3060, 239.2803
848.4410, 209.9585
849.5760, 6.629883
850.7100, 60.29297
851.8450, 166.9492
852.9800, 248.6006
854.1140, 238.0713
855.2480, 231.6885
856.3820, 259.5215
857.5160, 176.1533
858.6500, 299.7959
859.7830, 425.4434
860.9170, 358.4902
862.0500, 624.7979
863.1830, 283.5215
864.3160, 493.2734
865.4480, 406.0762
866.5810, 607.9150
867.7130, 717.7832
868.8460, 550.6826
869.9780, 571.6289
871.1100, 639.5928
872.2410, 715.5898
873.3730, 732.6318
874.5050, 780.6943
875.6360, 704.7930
876.7670, 881.8984
877.8980, 947.0244
879.0290, 1089.157
880.1590, 967.2949
881.2900, 981.4336
882.4200, 1065.572
883.5500, 1237.711
884.6800, 1317.850
885.8100, 1413.988
886.9400, 1544.152
888.0690, 1579.315
889.1990, 1658.482
890.3280, 1658.675
891.4570, 1933.867
892.5860, 2058.061
893.7140, 2115.266
894.8430, 2303.484
895.9710, 2322.722
897.1000, 2295.961
898.2280, 2483.225
899.3560, 2469.537
900.4830, 2507.853
901.6110, 2442.188
902.7380, 2630.527
903.8660, 2602.871
904.9930, 2684.219
906.1200, 2708.596
907.2460, 2885.993
908.3730, 3004.410
909.5000, 3112.854
910.6260, 3123.123
911.7520, 3349.601
912.8780, 3788.084
914.0040, 3716.442
915.1290, 4158.961
916.2550, 4477.504
917.3800, 4644.178
918.5050, 5068.143
919.6300, 5462.715
920.7550, 5910.029
921.8800, 6252.787
923.0040, 6525.109
924.1290, 6767.467
925.2530, 6883.541
926.3770, 6923.619
927.5010, 6863.956
928.6250, 6542.666
929.7480, 6064.565
930.8720, 5600.838
931.9950, 5251.316
933.1180, 5030.531
934.2410, 4606.345
935.3640, 4195.682
936.4860, 4177.032
937.6090, 3920.125
938.7310, 3849.237
939.8530, 3670.098
940.9750, 3683.296
942.0970, 3445.363
943.2180, 3449.811
944.3400, 3184.768
945.4610, 3381.438
946.5820, 3314.428
947.7030, 3211.151
948.8240, 3125.407
949.9450, 3057.383
951.0650, 2878.074
952.1860, 2942.733
953.3060, 2860.170
954.4260, 2794.985
955.5460, 2867.961
956.6650, 2865.270
957.7850, 2820.728
958.9040, 2617.230
960.0230, 2760.610
961.1420, 2674.240
962.2610, 2655.951
963.3800, 2734.987
964.4990, 2543.133
965.6170, 2528.787
966.7350, 2562.596
967.8530, 2498.432
968.9710, 2284.299
970.0890, 2430.137
971.2070, 2411.064
972.3240, 2305.891
973.4410, 2456.891
974.5580, 2446.553
975.6750, 2322.609
976.7920, 2279.694
977.9090, 2482.810
979.0250, 2311.957
980.1410, 2291.133
981.2580, 2285.338
982.3740, 2192.574
983.4890, 2164.841
984.6050, 2111.009
985.7200, 2228.336
986.8360, 2258.694
987.9510, 2358.082
989.0660, 2389.501
990.1810, 2413.351
991.2950, 2479.430
992.4100, 2459.938
993.5240, 2431.478
994.6390, 2499.049
995.7530, 2696.648
996.8660, 2550.276
997.9800, 2794.937
999.0940, 2702.624
1000.207, 2927.342
1001.320, 2903.089
1002.433, 3261.865
1003.546, 3140.671
1004.659, 3323.504
1005.772, 3571.365
1006.884, 3649.259
1007.996, 3829.389
1009.108, 3920.129
1010.220, 4154.105
1011.332, 4291.111
1012.444, 4591.146
1013.555, 4744.205
1014.666, 4777.295
1015.777, 4836.412
1016.888, 4782.558
1017.999, 4987.730
1019.110, 5104.930
1020.220, 5068.277
1021.331, 5326.531
1022.441, 5362.217
1023.551, 5712.764
1024.661, 5613.109
1025.770, 5664.252
1026.880, 5522.729
1027.989, 5546.339
1029.098, 5641.387
1030.207, 5533.883
1031.316, 5578.869
1032.425, 5670.725
1033.533, 5925.270
1034.642, 6254.602
1035.750, 6324.197
1036.858, 6643.817
1037.966, 7290.545
1039.073, 7884.400
1040.181, 8484.350
1041.288, 9104.771
1042.396, 10022.75
1043.503, 10916.51
1044.610, 11597.00
1045.716, 12685.81
1046.823, 13421.42
1047.929, 14280.85
1049.036, 14431.39
1050.142, 14772.72
1051.248, 14745.84
1052.353, 14696.22
1053.459, 14026.85
1054.564, 13398.16
1055.670, 12373.76
1056.775, 11880.65
1057.880, 11165.77
1058.985, 10545.63
1060.089, 9936.438
1061.194, 9363.703
1062.298, 8904.977
1063.402, 8248.464
1064.506, 7575.979
1065.610, 6947.658
1066.713, 6012.250
1067.817, 5335.293
1068.920, 4743.689
1070.023, 4154.417
1071.126, 3708.505
1072.229, 3240.162
1073.332, 2930.283
1074.435, 2612.023
1075.537, 2415.876
1076.639, 2290.947
1077.741, 2300.144
1078.843, 2067.056
1079.945, 1947.083
1081.046, 1811.359
1082.148, 1740.466
1083.249, 1473.364
1084.350, 1666.825
1085.451, 1434.267
1086.551, 1480.524
1087.652, 1503.850
1088.752, 1439.299
1089.853, 1337.330
1090.953, 1229.010
1092.053, 1183.621
1093.152, 1151.738
1094.252, 1252.593
1095.351, 1145.192
1096.451, 1167.675
1097.550, 1153.394
1098.649, 994.9092
1099.748, 968.4385
1100.846, 993.3047
1101.945, 970.0430
1103.043, 928.0752
1104.141, 1049.396
1105.239, 956.1572
1106.337, 912.7148
1107.434, 1012.296
1108.532, 869.8887
1109.629, 789.4814
1110.726, 799.4814
1111.823, 785.0918
1112.920, 680.7061
1114.017, 744.4023
1115.113, 638.3047
1116.210, 703.9336
1117.306, 666.8691
1118.402, 714.5059
1119.498, 688.3184
1120.593, 677.0898
1121.689, 622.9326
1122.784, 625.5811
1123.879, 574.2314
1124.974, 372.8848
1126.069, 493.5391
1127.164, 381.1963
1128.259, 390.8535
1129.353, 443.5127
1130.447, 418.1729
1131.541, 388.5566
1132.635, 357.4941
1133.729, 269.1543
1134.822, 171.8145
1135.916, 86.47461
1137.009, 97.59082
1138.102, 167.2744
1139.195, 173.9326
1140.288, 127.6758
1141.380, 209.3291
1142.473, 81.98047
1143.565, 103.7344
1144.657, 96.38086
1145.749, 136.0391
1146.841, 66.69531
1147.932, 26.34766
1149.024, 150.0078
1150.115, 124.6523
1151.206, 106.7080
1152.297, 41.88086
1153.388, 15.52539
1154.479, 103.9443
1155.569, 15.58301
1156.659, 114.1064
1157.750, 44.37695
1158.839, 48.88574
1159.929, 70.42383
1161.019, 8.998047
1162.108, 81.58984
1163.198, 173.2246
1164.287, 35.04199
1165.376, 65.69922
1166.465, 75.51562
1167.553, 33.72363
1168.642, 15.92383
1169.730, 82.88672
1170.818, 50.74512
1171.906, 40.63770
1172.994, 79.56738
1174.082, 69.44629
1175.170, 68.54883
1176.257, 97.40918
1177.344, 2.644531
1178.431, 46.71777
1179.518, 46.83496
1180.605, 9.996094
1181.691, 8.185547
1182.778, 19.59863
1183.864, 57.62988
1184.950, 34.91406
1186.036, 10.75879
1187.122, 40.58984
1188.207, 92.01465
1189.292, 164.3887
1190.378, 97.90820
1191.463, 180.4756
1192.548, 72.18555
1193.632, 63.03809
1194.717, 74.24414
1195.801, 38.56543
1196.886, 67.42383
1197.970, 9.351563
1199.054, 77.31934
1200.137, 83.63574
1201.221, 33.57520
1202.305, 185.4932
1203.388, 36.39648
1204.471, 170.2764
1205.554, 43.86133
1206.637, 71.93945
1207.719, 53.71973
1208.802, 39.52051
1209.884, 165.1768
1210.966, 75.85449
1212.048, 174.5127
1213.130, 15.15039
1214.212, 62.75488
1215.293, 79.33496
1216.374, 199.8936
1217.456, 2.568359
1218.536, 109.9209
1219.617, 49.39355
1220.698, 20.16211
1221.778, 100.2227
1222.859, 126.5840
1223.939, 178.9238
1225.019, 116.2520
1226.099, 168.7607
1227.178, 97.04883
1228.258, 149.3135
1229.337, 149.5791
1230.417, 77.79883
1231.496, 105.9922
1232.574, 70.16211
1233.653, 12.30273
1234.732, 110.3965
1235.810, 182.4648
1236.888, 243.5098
1237.966, 163.5332
1239.044, 218.5342
1240.122, 84.74121
1241.199, 269.6904
1242.277, 259.6172
1243.354, 153.5400
1244.431, 106.4170
1245.508, 259.2686
1246.585, 103.0957
1247.661, 211.8955
1248.738, 124.7422
1249.814, 160.4912
1250.890, 133.2148
1251.966, 222.9131
1253.042, 206.9541
1254.117, 289.2324
1255.193, 235.8555
1256.268, 213.4531
1257.343, 254.0264
1258.418, 245.5732
1259.493, 240.3047
1260.567, 206.8018
1261.642, 250.2725
1262.716, 245.7197
1263.790, 218.1396
1264.864, 241.5430
1265.938, 227.9199
1267.011, 103.4473
1268.085, 227.9277
1269.158, 176.2217
1270.231, 301.4902
1271.304, 338.7471
1272.377, 174.9648
1273.450, 284.1533
1274.522, 303.7979
