##NAMES=Actinolite
##RRUFFID=R060045
##IDEAL CHEMISTRY=Ca_2_(Mg_4.5-2.5_Fe^2+^_0.5-2.5_)Si_8_O_22_(OH)_2_
##LOCALITY=Colorado, USA
##OWNER=RRUFF
##SOURCE=University of Arizona Mineral Museum
##DESCRIPTION=Green prismatic crystals in a radial arrangement
##STATUS=The identification of this mineral has been confirmed by X-ray diffraction and chemical analysis
##URL=rruff.info/R060045
##MEASURED CHEMISTRY=(Ca_1.99_Na_0.01_)_Σ=2_(Mg_4.20_Fe^2+^_0.59_Al_0.09_Fe^3+^_0.08_Mn_0.02_Ti_0.01_)_Σ=5_(Si_7.82_Al_0.18_)_Σ=8_O_22_(OH)_2_
##PIN_ID=M00122
##ORIENTATION=Laser parallel to (1 0 1). Fiducial mark perpendicular to laser is parallel to b [0 1 0]
125.5190, 0.0000000E+00
126.7490, 19.99707
127.9790, 5.490234
129.2090, 55.72461
130.4390, 26.14062
131.6680, 72.58203
132.8980, 29.08398
134.1270, 157.9941
135.3560, 184.3984
136.5850, 255.7324
137.8140, 222.5508
139.0430, 132.5059
140.2710, 196.3125
141.5000, 151.7480
142.7280, 290.6191
143.9560, 180.7695
145.1840, 89.08789
146.4120, 208.4746
147.6390, 309.8262
148.8670, 219.0391
150.0940, 373.0352
151.3210, 562.7500
152.5490, 625.1270
153.7750, 904.1172
155.0020, 1376.668
156.2290, 1658.744
157.4550, 1921.311
158.6810, 1882.330
159.9080, 1517.777
161.1340, 1253.625
162.3590, 1010.852
163.5850, 832.6230
164.8110, 1053.768
166.0360, 677.2734
167.2610, 875.1328
168.4860, 785.2246
169.7110, 808.5195
170.9360, 1053.008
172.1610, 1421.688
173.3850, 1565.566
174.6100, 2109.660
175.8340, 2267.002
177.0580, 2526.574
178.2820, 2380.316
179.5050, 1835.225
180.7290, 1515.297
181.9520, 858.5273
183.1760, 779.9102
184.3990, 573.4434
185.6220, 437.1211
186.8450, 437.9395
188.0670, 350.8926
189.2900, 295.3906
190.5120, 416.1953
191.7340, 275.5312
192.9560, 300.9883
194.1780, 466.5625
195.4000, 305.2500
196.6220, 357.0449
197.8430, 385.9492
199.0640, 1024.924
200.2860, 1273.969
201.5070, 1740.781
202.7270, 2237.857
203.9480, 2526.797
205.1690, 2129.602
206.3890, 2839.164
207.6090, 894.9043
208.8290, 3168.773
210.0490, 1895.104
211.2690, 1310.232
212.4890, 1908.268
213.7080, 2069.365
214.9280, 2621.525
216.1470, 3060.748
217.3660, 3659.254
218.5850, 4530.852
219.8030, 5150.547
221.0220, 5675.781
222.2400, 5510.629
223.4590, 5590.688
224.6770, 5333.754
225.8950, 5371.055
227.1120, 5435.285
228.3300, 6079.662
229.5480, 6191.098
230.7650, 6310.621
231.9820, 5961.197
233.1990, 5310.832
234.4160, 4467.520
235.6330, 3825.299
236.8490, 3046.129
238.0660, 2641.008
239.2820, 2252.939
240.4980, 2060.955
241.7140, 1803.018
242.9300, 1694.156
244.1460, 1690.340
245.3610, 1760.566
246.5770, 1926.836
247.7920, 2013.146
249.0070, 1805.500
250.2220, 1722.893
251.4370, 1725.324
252.6510, 1329.797
253.8660, 1215.309
255.0800, 992.8574
256.2940, 937.4414
257.5080, 859.0625
258.7220, 808.7207
259.9360, 703.9434
261.1490, 631.2109
262.3630, 549.7930
263.5760, 465.6973
264.7890, 381.5273
266.0020, 314.3867
267.2150, 234.2793
268.4270, 247.2012
269.6400, 223.1543
270.8520, 241.1348
272.0640, 77.66602
273.2760, 96.37695
274.4880, 134.3203
275.7000, 16.51758
276.9120, 206.6211
278.1230, 431.9492
279.3340, 14.52344
280.5450, 44.81836
281.7560, 83.95117
282.9670, 85.05273
284.1780, 64.19727
285.3880, 252.4648
286.5980, 59.14844
287.8090, 84.65625
289.0190, 49.93359
290.2290, 46.61719
291.4380, 97.39258
292.6480, 21.74414
293.8570, 157.1992
295.0670, 9.779297
296.2760, 83.31641
297.4850, 335.4844
298.6930, 242.7168
299.9020, 95.01953
301.1110, 170.3828
302.3190, 231.8086
303.5270, 173.2891
304.7350, 272.8281
305.9430, 255.4277
307.1510, 279.2578
308.3580, 233.6543
309.5660, 156.5605
310.7730, 79.40039
311.9800, 99.35156
313.1870, 53.45898
314.3940, 34.49609
315.6010, 20.42578
316.8070, 26.69922
318.0130, 85.91211
319.2200, 60.22852
320.4260, 38.42578
321.6310, 121.9551
322.8370, 37.90625
324.0430, 105.0020
325.2480, 34.51758
326.4540, 76.08203
327.6590, 60.18555
328.8640, 287.3887
330.0680, 350.0547
331.2730, 228.7480
332.4780, 93.76172
333.6820, 224.0156
334.8860, 385.2266
336.0900, 137.0215
337.2940, 399.8379
338.4980, 171.6816
339.7010, 450.5449
340.9050, 637.4297
342.1080, 932.3359
343.3110, 753.7305
344.5140, 969.6777
345.7170, 1072.617
346.9200, 1029.578
348.1220, 1302.557
349.3240, 1191.535
350.5270, 1139.537
351.7290, 1305.551
352.9310, 1089.051
354.1320, 1128.090
355.3340, 854.1465
356.5350, 1166.221
357.7370, 1161.938
358.9380, 1322.053
360.1390, 1427.182
361.3400, 1428.330
362.5400, 1653.494
363.7410, 1919.676
364.9410, 2077.871
366.1410, 2280.080
367.3410, 2449.303
368.5410, 2442.537
369.7410, 2565.783
370.9400, 2258.023
372.1400, 1909.279
373.3390, 1773.545
374.5380, 1728.822
375.7370, 1359.113
376.9360, 1361.414
378.1350, 1264.727
379.3330, 1250.047
380.5310, 1228.381
381.7300, 1388.723
382.9280, 1530.076
384.1260, 1713.967
385.3230, 1970.809
386.5210, 2229.189
387.7180, 2488.578
388.9160, 2820.977
390.1130, 2968.383
391.3100, 3102.795
392.5060, 3042.215
393.7030, 2720.643
394.9000, 2249.078
396.0960, 2047.520
397.2920, 1730.967
398.4880, 1346.424
399.6840, 1400.885
400.8800, 1174.354
402.0750, 1366.824
403.2710, 1389.305
404.4660, 1289.789
405.6610, 1141.279
406.8560, 1465.777
408.0510, 1534.275
409.2450, 1771.783
410.4400, 1744.295
411.6340, 1952.807
412.8280, 1939.326
414.0220, 2079.852
415.2160, 2113.379
416.4100, 1729.926
417.6030, 1408.496
418.7970, 1485.939
419.9900, 1110.777
421.1830, 1090.404
422.3760, 969.0469
423.5690, 672.5703
424.7610, 533.6113
425.9540, 662.7129
427.1460, 681.5234
428.3380, 757.2324
429.5300, 592.9492
430.7220, 621.7246
431.9140, 912.8398
433.1050, 1174.588
434.2970, 938.3457
435.4880, 1018.113
436.6790, 935.6543
437.8700, 748.4375
439.0610, 694.3750
440.2510, 547.4102
441.4420, 439.2090
442.6320, 369.6230
443.8220, 221.9707
445.0120, 186.2461
446.2020, 41.06836
447.3910, 68.16602
448.5810, 143.3516
449.7700, 244.6387
450.9600, 59.06250
452.1490, 5.351563
453.3370, 212.7734
454.5260, 31.59180
455.7150, 86.38086
456.9030, 56.04102
458.0910, 30.67188
459.2800, 160.8086
460.4670, 69.77930
461.6550, 101.4375
462.8430, 44.12109
464.0300, 160.2500
465.2180, 26.33594
466.4050, 27.40430
467.5920, 153.2969
468.7790, 236.7832
469.9650, 84.62891
471.1520, 37.11328
472.3380, 65.30273
473.5250, 94.68945
474.7110, 27.52734
475.8970, 0.1289060
477.0820, 24.19727
478.2680, 115.5059
479.4540, 225.8086
480.6390, 173.5176
481.8240, 121.8027
483.0090, 80.08008
484.1940, 214.3457
485.3780, 26.39453
486.5630, 280.8184
487.7470, 64.02539
488.9320, 192.2207
490.1160, 275.4043
491.3000, 152.5801
492.4830, 93.74805
493.6670, 169.9062
494.8500, 20.94531
496.0340, 273.1641
497.2170, 187.2637
498.4000, 131.3516
499.5820, 4.568359
500.7650, 281.4766
501.9480, 378.5137
503.1300, 477.5430
504.3120, 489.5723
505.4940, 521.5176
506.6760, 449.6094
507.8580, 533.6133
509.0390, 566.6035
510.2210, 636.5859
511.4020, 744.5859
512.5830, 853.5176
513.7640, 966.4727
514.9450, 1198.414
516.1250, 1305.344
517.3060, 1144.314
518.4860, 1313.273
519.6660, 1006.260
520.8460, 1295.234
522.0260, 1233.215
523.2060, 1339.180
524.3850, 1344.133
525.5650, 1299.156
526.7440, 1423.088
527.9230, 1213.039
529.1020, 1246.980
530.2810, 1220.902
531.4590, 1183.816
532.6380, 1154.711
533.8160, 1004.598
534.9940, 616.4883
536.1720, 692.3672
537.3500, 676.2324
538.5270, 768.0898
539.7050, 763.9297
540.8820, 682.5703
542.0590, 676.4375
543.2360, 611.5137
544.4130, 540.4395
545.5900, 468.3359
546.7660, 395.2188
547.9430, 276.0781
549.1190, 195.9219
550.2950, 228.7480
551.4710, 207.5547
552.6470, 355.3438
553.8220, 427.1309
554.9980, 437.9004
556.1730, 423.6465
557.3480, 208.3750
558.5230, 258.0781
559.6980, 359.7656
560.8730, 41.44531
562.0470, 538.1016
563.2220, 209.7402
564.3960, 257.3555
565.5700, 197.9492
566.7440, 204.5234
567.9170, 176.0840
569.0910, 317.6191
570.2640, 352.1328
571.4380, 400.6230
572.6110, 434.0098
573.7840, 396.2051
574.9570, 431.6367
576.1290, 402.0469
577.3020, 384.4336
578.4740, 420.0332
579.6460, 168.3730
580.8180, 170.6875
581.9900, 418.9727
583.1620, 123.2363
584.3330, 271.4668
585.5040, 476.1289
586.6760, 436.5293
587.8470, 175.7969
589.0180, 57.92383
590.1880, 202.4219
591.3590, 104.2988
592.5290, 38.81250
593.7000, 44.43555
594.8700, 183.6816
596.0400, 154.0391
597.2090, 105.6211
598.3790, 392.2812
599.5490, 33.91602
600.7180, 108.4980
601.8870, 169.0352
603.0560, 378.2715
604.2250, 168.5508
605.3940, 100.8086
606.5620, 39.49414
607.7300, 92.95703
608.8990, 23.09375
610.0670, 2.154297
611.2350, 208.6250
612.4020, 221.0020
613.5700, 227.9141
614.7370, 124.8008
615.9050, 255.3652
617.0720, 285.6934
618.2390, 311.0605
619.4060, 294.1426
620.5720, 137.9004
621.7390, 240.7402
622.9050, 268.4434
624.0710, 421.1172
625.2370, 313.7656
626.4030, 544.9199
627.5690, 318.5137
628.7340, 339.1602
629.9000, 360.7031
631.0650, 471.5977
632.2300, 376.6875
633.3950, 376.4277
634.5600, 532.1309
635.7240, 443.8984
636.8890, 457.7793
638.0530, 532.6816
639.2170, 532.1855
640.3810, 645.7109
641.5450, 683.5469
642.7080, 749.5742
643.8720, 931.3496
645.0350, 1041.215
646.1980, 1082.438
647.3610, 1253.400
648.5240, 1517.945
649.6870, 1484.104
650.8490, 1690.691
652.0120, 1595.762
653.1740, 1628.863
654.3360, 1947.643
655.4980, 2208.941
656.6600, 2335.137
657.8210, 2341.816
658.9830, 2669.041
660.1440, 2967.016
661.3050, 3540.154
662.4660, 4470.541
663.6270, 5192.668
664.7870, 6284.535
665.9480, 7519.205
667.1080, 8830.846
668.2680, 10477.27
669.4280, 11904.85
670.5880, 13104.51
671.7480, 13640.44
672.9070, 13088.34
674.0670, 11601.23
675.2260, 10388.27
676.3850, 8304.898
677.5440, 6945.859
678.7030, 5608.885
679.8610, 4699.797
681.0200, 3824.674
682.1780, 3187.604
683.3360, 2948.307
684.4940, 2437.051
685.6520, 2219.654
686.8090, 2223.746
687.9670, 2169.805
689.1240, 1781.871
690.2810, 1517.859
691.4380, 1542.137
692.5950, 1367.113
693.7520, 1274.133
694.9080, 1290.984
696.0650, 1290.801
697.2210, 903.6602
698.3770, 828.4121
699.5330, 757.1328
700.6880, 538.3594
701.8440, 724.4199
702.9990, 534.0352
704.1550, 489.6328
705.3100, 483.1934
706.4650, 674.7207
707.6190, 510.0996
708.7740, 414.5605
709.9290, 651.9844
711.0830, 188.4883
712.2370, 545.8398
713.3910, 370.1562
714.5450, 392.9219
715.6980, 385.2871
716.8520, 285.5000
718.0050, 490.6777
719.1580, 539.8516
720.3110, 387.7188
721.4640, 345.7949
722.6170, 406.2266
723.7700, 231.2324
724.9220, 287.2012
726.0740, 312.1328
727.2260, 517.7598
728.3780, 237.3379
729.5300, 350.9844
730.6810, 419.9746
731.8330, 644.7852
732.9840, 518.1445
734.1350, 408.9531
735.2860, 673.8008
736.4370, 622.7422
737.5880, 433.4434
738.7380, 759.3105
739.8880, 915.6055
741.0390, 788.4277
742.1890, 924.0352
743.3380, 827.4648
744.4880, 826.1465
745.6380, 805.7402
746.7870, 761.1973
747.9360, 837.6797
749.0850, 570.0293
750.2340, 641.3828
751.3830, 661.7871
752.5310, 422.4180
753.6800, 551.4844
754.8280, 762.9043
755.9760, 270.2480
757.1240, 191.5664
758.2720, 377.4414
759.4190, 235.2891
760.5670, 323.5234
761.7140, 443.7324
762.8610, 342.9141
764.0080, 379.0664
765.1550, 292.2090
766.3020, 240.4941
767.4480, 264.4121
768.5950, 167.6152
769.7410, 113.7559
770.8870, 190.5078
772.0330, 192.4824
773.1780, 77.42578
774.3240, 135.9121
775.4690, 123.2480
776.6140, 123.1113
777.7590, 138.9473
778.9040, 117.7656
780.0490, 15.55664
781.1940, 0.6953130
782.3380, 18.00000
783.4820, 235.6602
784.6260, 72.28906
785.7700, 143.8867
786.9140, 46.46094
788.0580, 118.9922
789.2010, 47.50000
790.3450, 41.97266
791.4880, 69.41406
792.6310, 157.8242
793.7730, 175.8008
794.9160, 68.44141
796.0590, 114.3477
797.2010, 33.75781
798.3430, 35.17188
799.4850, 88.83984
800.6270, 142.8164
801.7690, 145.2305
802.9100, 621.6016
804.0520, 304.9336
805.1930, 57.19922
806.3340, 278.9570
807.4750, 26.69531
808.6160, 128.3945
809.7560, 9.074219
810.8970, 58.28516
812.0370, 78.28906
813.1770, 13.92188
814.3170, 1.253906
815.4570, 59.81641
816.5960, 79.73828
817.7360, 96.22266
818.8750, 145.9883
820.0140, 47.92578
821.1530, 49.82031
822.2920, 99.22266
823.4310, 275.2422
824.5690, 313.2422
825.7070, 12.21875
826.8460, 411.1680
827.9840, 129.0977
829.1220, 45.99609
830.2590, 170.8555
831.3970, 307.6836
832.5340, 488.4961
833.6710, 182.3281
834.8080, 239.1016
835.9450, 278.8516
837.0820, 61.41016
838.2190, 94.27734
839.3550, 216.9375
840.4910, 221.3906
841.6270, 292.0195
842.7630, 489.6289
843.8990, 368.2188
845.0350, 222.7969
846.1700, 348.3516
847.3060, 155.8906
848.4410, 239.7578
849.5760, 366.2656
850.7100, 61.75000
851.8450, 148.2188
852.9800, 228.6719
854.1140, 274.8711
855.2480, 106.2852
856.3820, 217.6914
857.5160, 208.0742
858.6500, 178.4492
859.7830, 376.8086
860.9170, 396.6992
862.0500, 376.8086
863.1830, 473.8477
864.3160, 140.3086
865.4480, 495.1836
866.5810, 457.4688
867.7130, 368.7422
868.8460, 585.0312
869.9780, 107.3164
871.1100, 39.65625
872.2410, 169.9805
873.3730, 205.2930
874.5050, 201.5938
875.6360, 368.9297
876.7670, 50.30078
877.8980, 407.7227
879.0290, 105.1367
880.1590, 380.5469
881.2900, 30.04688
882.4200, 223.3555
883.5500, 199.7891
884.6800, 226.2227
885.8100, 199.6641
886.9400, 434.0938
888.0690, 71.51172
889.1990, 87.91406
890.3280, 111.3086
891.4570, 355.6875
892.5860, 480.0977
893.7140, 3.808594
894.8430, 248.6094
895.9710, 253.9062
897.1000, 201.3086
898.2280, 342.6953
899.3560, 517.0977
900.4830, 390.4922
901.6110, 633.8984
902.7380, 229.2109
903.8660, 429.5938
904.9930, 439.5820
906.1200, 364.3438
907.2460, 395.4141
908.3730, 387.0430
909.5000, 566.0078
910.6260, 457.8594
911.7520, 384.6523
912.8780, 519.4375
914.0040, 434.2852
915.1290, 375.0312
916.2550, 446.5625
917.3800, 522.3125
918.5050, 766.9336
919.6300, 908.1680
920.7550, 732.6211
921.8800, 1099.461
923.0040, 877.6562
924.1290, 1417.383
925.2530, 1045.598
926.3770, 1503.738
927.5010, 1757.168
928.6250, 1496.043
929.7480, 1480.988
930.8720, 1722.422
931.9950, 1499.270
933.1180, 1375.336
934.2410, 1144.199
935.3640, 1199.785
936.4860, 919.6172
937.6090, 616.6797
938.7310, 480.9297
939.8530, 647.1836
940.9750, 758.6133
942.0970, 639.8906
943.2180, 569.0469
944.3400, 898.8906
945.4610, 627.7461
946.5820, 784.5664
947.7030, 665.2109
948.8240, 645.2305
949.9450, 579.8828
951.0650, 487.4414
952.1860, 426.0781
953.3060, 497.7109
954.4260, 317.3008
955.5460, 459.0820
956.6650, 463.7852
957.7850, 336.6016
958.9040, 205.8867
960.0230, 217.1406
961.1420, 293.4258
962.2610, 231.7227
963.3800, 149.6914
964.4990, 258.9336
965.6170, 247.0977
966.7350, 138.4258
967.8530, 55.24219
968.9710, 390.0117
970.0890, 305.3359
971.2070, 72.66016
972.3240, 248.2148
973.4410, 45.16797
974.5580, 125.4648
975.6750, 125.8711
976.7920, 238.2031
977.9090, 322.5391
979.0250, 338.8828
980.1410, 375.2266
981.2580, 173.5703
982.3740, 238.8047
983.4890, 342.1602
984.6050, 61.51953
985.7200, 325.3906
986.8360, 158.6367
987.9510, 399.0039
989.0660, 448.3711
990.1810, 385.4727
991.2950, 115.8477
992.4100, 356.2266
993.5240, 87.60938
994.6390, 375.9961
995.7530, 437.3867
996.8660, 996.7773
997.9800, 1496.293
999.0940, 917.6211
1000.207, 605.0312
1001.320, 717.4414
1002.433, 810.8555
1003.546, 590.2773
1004.659, 817.5234
1005.772, 880.4961
1006.884, 888.9219
1007.996, 962.3555
1009.108, 917.1211
1010.220, 969.5625
1011.332, 867.6250
1012.444, 1042.070
1013.555, 1195.270
1014.666, 1352.723
1015.777, 1381.863
1016.888, 1606.320
1017.999, 1867.773
1019.110, 2075.227
1020.220, 2009.688
1021.331, 2326.145
1022.441, 2487.379
1023.551, 3037.688
1024.661, 3130.102
1025.770, 3533.371
1026.880, 3546.844
1027.989, 3739.926
1029.098, 3643.457
1030.207, 3630.742
1031.316, 3261.316
1032.425, 2802.551
1033.533, 2191.035
1034.642, 2216.180
1035.750, 1531.664
1036.858, 1362.148
1037.966, 1434.633
1039.073, 1494.309
1040.181, 1113.801
1041.288, 828.2930
1042.396, 983.7070
1043.503, 1267.207
1044.610, 1310.707
1045.716, 1358.211
1046.823, 1636.902
1047.929, 1676.414
1049.036, 1907.602
1050.142, 1699.125
1051.248, 2136.422
1052.353, 2308.965
1053.459, 2362.508
1054.564, 2867.180
1055.670, 2809.816
1056.775, 3276.371
1057.880, 2967.938
1058.985, 2681.496
1060.089, 2654.070
1061.194, 2453.641
1062.298, 2232.215
1063.402, 2405.180
1064.506, 2511.812
1065.610, 2248.488
1066.713, 2386.332
1067.817, 2169.535
1068.920, 2021.559
1070.023, 2045.176
1071.126, 1667.676
1072.229, 1469.430
1073.332, 1317.188
1074.435, 816.4609
1075.537, 955.2188
1076.639, 746.2773
1077.741, 605.0430
1078.843, 639.8086
1079.945, 429.6289
1081.046, 740.5859
1082.148, 602.3789
1083.249, 701.3477
1084.350, 439.1523
1085.451, 325.9883
1086.551, 543.2500
1087.652, 541.1602
1088.752, 439.0859
1089.853, 598.0352
1090.953, 528.9805
1092.053, 343.9297
1093.152, 422.8750
1094.252, 149.8281
1095.351, 549.7734
1096.451, 586.7227
1097.550, 331.6836
1098.649, 123.7734
1099.748, 250.7305
1100.846, 226.6484
1101.945, 485.6055
1103.043, 558.5586
1104.141, 431.6602
1105.239, 218.2031
1106.337, 380.1914
1107.434, 232.3672
1108.532, 243.5039
1109.629, 248.4531
1110.726, 272.4297
1111.823, 311.4023
1112.920, 363.3750
1114.017, 379.3398
1115.113, 317.3008
1116.210, 458.2617
1117.306, 358.2188
1118.402, 290.1758
1119.498, 309.1484
1120.593, 334.0938
1121.689, 206.0391
1122.784, 377.9883
1123.879, 232.9258
1124.974, 355.8633
1126.069, 396.7969
1127.164, 227.7266
1128.259, 365.6484
1129.353, 42.57812
1130.447, 233.4961
1131.541, 248.4141
1132.635, 89.32422
1133.729, 82.23438
1134.822, 208.1406
1135.916, 115.0391
1137.009, 178.9336
1138.102, 297.8359
1139.195, 77.72656
1140.288, 141.3789
1141.380, 224.4258
1142.473, 612.2266
1143.565, 205.0234
1144.657, 37.18359
1145.749, 174.5859
1146.841, 56.65625
1147.932, 327.1055
1149.024, 194.6484
1150.115, 152.5547
1151.206, 183.2773
1152.297, 159.9961
1153.388, 302.7148
1154.479, 268.4219
1155.569, 148.1328
1156.659, 143.1641
1157.750, 173.4531
1158.839, 116.9375
1159.929, 73.61719
1161.019, 2.148438
1162.108, 62.66406
1163.198, 76.82422
1164.287, 178.6289
1165.376, 58.91016
1166.465, 301.5078
1167.553, 135.9180
1168.642, 152.3281
1169.730, 43.73047
1170.818, 341.1289
1171.906, 89.52344
1172.994, 93.09375
1174.082, 220.2383
1175.170, 169.5625
1176.257, 192.8789
1177.344, 47.19922
1178.431, 177.5039
1179.518, 8.199219
1180.605, 259.0859
1181.691, 7.359375
1182.778, 200.6250
1183.864, 103.8750
1184.950, 63.12891
1186.036, 2.375000
1187.122, 103.6016
1188.207, 91.75391
1189.292, 475.0430
1190.378, 182.2539
1191.463, 255.4570
1192.548, 292.6562
1193.632, 0.1484380
1194.717, 253.0273
1195.801, 234.1992
1196.886, 55.35938
1197.970, 17.51562
1199.054, 61.33594
1200.137, 186.7539
1201.221, 101.1602
1202.305, 133.8516
1203.388, 238.8594
1204.471, 97.14062
1205.554, 256.7891
1206.637, 26.71484
1207.719, 275.6250
1208.802, 174.5352
1209.884, 87.43359
1210.966, 55.32812
1212.048, 318.2148
1213.130, 56.09375
1214.212, 268.9688
1215.293, 129.8359
1216.374, 126.3008
1217.456, 271.4727
1218.536, 342.2383
1219.617, 385.0000
1220.698, 145.7500
1221.778, 189.2422
1222.859, 320.9805
1223.939, 285.7148
1225.019, 141.4375
1226.099, 130.1523
1227.178, 191.8633
1228.258, 89.43359
1229.337, 324.1953
1230.417, 449.8203
1231.496, 246.4492
1232.574, 224.0664
1233.653, 57.67578
1234.732, 96.71875
1235.810, 188.2969
1236.888, 142.8203
1237.966, 66.35547
1239.044, 280.8789
1240.122, 151.3945
1241.199, 308.9023
1242.277, 103.4062
1243.354, 227.9023
1244.431, 304.3906
1245.508, 337.8672
1246.585, 179.3438
1247.661, 317.8086
1248.738, 89.28125
1249.814, 373.7500
1250.890, 205.2305
1251.966, 333.6992
1253.042, 266.1719
1254.117, 422.6328
1255.193, 422.5469
1256.268, 146.5352
1257.343, 463.9844
1258.418, 140.4180
1259.493, 108.7305
1260.567, 518.1484
1261.642, 360.5664
1262.716, 261.9727
1263.790, 207.3789
1264.864, 176.0000
1265.938, 233.1602
1267.011, 277.4102
1268.085, 99.79297
1269.158, 293.1680
1270.231, 172.2031
1271.304, 573.5664
1272.377, 426.9219
1273.450, 319.2773
1274.522, 183.7266
1275.594, 247.0664
1276.666, 64.24219
1277.738, 315.5742
1278.810, 195.6016
1279.882, 412.9219
1280.953, 420.2383
1282.025, 265.5508
1283.096, 294.8633
1284.167, 263.1680
1285.238, 258.4688
1286.308, 428.9609
1287.379, 402.2500
1288.449, 52.33594
1289.519, 368.5703
1290.589, 314.0430
1291.659, 77.21875
1292.729, 241.7383
1293.798, 391.2031
1294.868, 386.2969
1295.937, 217.5742
