##NAMES=Actinolite
##RRUFFID=R050336
##IDEAL CHEMISTRY=Ca_2_(Mg_4.5-2.5_Fe^2+^_0.5-2.5_)Si_8_O_22_(OH)_2_
##LOCALITY=Kragerø, Norway
##OWNER=RRUFF
##SOURCE=California Institute of Technology
##DESCRIPTION=Dark green prismatic fragment
##STATUS=The identification of this mineral has been confirmed by X-ray diffraction and chemical analysis
##URL=rruff.info/R050336
##MEASURED CHEMISTRY=([box]_0.62_Na_0.34_K_0.04_)(Ca_1.60_Na_0.40_)_Σ=2_(Mg_3.90_Fe^2+^_0.70_Al_0.20_Ti_0.10_Fe^3+^_0.10_)_Σ=5_(Si_7.52_Al_0.48_)_Σ=8_O_22_((OH)_0.97_F_0.03_)_2_
##PIN_ID=M00343
##ORIENTATION=Laser parallel to -a* (-1 0 0). Fiducial mark perpendicular to laser is parallel to b [0 1 0]
142.3590, 0.0000000E+00
143.5880, 106.1543
144.8170, 16.91211
146.0460, 14.85059
147.2750, 208.4092
148.5030, 315.1875
149.7320, 611.7344
150.9600, 907.0352
152.1880, 1566.539
153.4160, 1729.356
154.6440, 2167.921
155.8720, 2825.078
157.0990, 3002.895
158.3270, 3275.649
159.5540, 3551.209
160.7810, 3402.839
162.0080, 3434.109
163.2350, 3179.287
164.4610, 2819.812
165.6880, 2415.265
166.9140, 2207.326
168.1400, 2089.749
169.3660, 2187.346
170.5920, 2179.971
171.8180, 2366.499
173.0430, 2427.836
174.2690, 2490.269
175.4940, 2681.969
176.7190, 2615.420
177.9440, 2592.782
179.1680, 2418.219
180.3930, 2164.458
181.6170, 1945.130
182.8420, 1672.305
184.0660, 1558.055
185.2900, 1250.440
186.5140, 1176.520
187.7370, 1165.342
188.9610, 1029.955
190.1840, 1147.399
191.4070, 947.7148
192.6300, 923.9336
193.8530, 1015.086
195.0760, 1028.195
196.2980, 1126.287
197.5210, 1285.066
198.7430, 1262.478
199.9650, 1652.607
201.1870, 1891.776
202.4090, 2084.992
203.6310, 2159.267
204.8520, 2332.608
206.0730, 2449.674
207.2950, 3170.025
208.5160, 3526.249
209.7360, 4310.061
210.9570, 5255.902
212.1780, 6220.929
213.3980, 7197.369
214.6180, 8176.792
215.8380, 9208.010
217.0580, 10627.60
218.2780, 11712.14
219.4980, 13063.82
220.7170, 14373.66
221.9360, 15409.70
223.1560, 16555.92
224.3750, 17338.35
225.5930, 18064.99
226.8120, 18638.84
228.0310, 18763.90
229.2490, 18415.18
230.4670, 18224.69
231.6850, 17157.70
232.9030, 15972.38
234.1210, 14588.58
235.3380, 12978.01
236.5560, 11546.67
237.7730, 10124.56
238.9900, 9058.631
240.2070, 7929.026
241.4240, 7289.592
242.6410, 6726.374
243.8570, 6183.372
245.0730, 5888.576
246.2900, 5544.985
247.5060, 5234.596
248.7210, 4873.747
249.9370, 4641.375
251.1530, 4128.518
252.3680, 3683.833
253.5830, 3410.977
254.7980, 3097.989
256.0130, 2748.169
257.2280, 2189.204
258.4430, 1947.654
259.6570, 1608.088
260.8720, 1284.065
262.0860, 1146.472
263.3000, 724.4219
264.5130, 625.6387
265.7270, 426.5645
266.9410, 303.3662
268.1540, 44.82227
269.3670, 192.8975
270.5800, 209.4863
271.7930, 242.9443
273.0060, 197.2744
274.2190, 192.4756
275.4310, 275.5518
276.6430, 215.5020
277.8550, 371.3301
279.0670, 344.0752
280.2790, 235.8672
281.4910, 345.6973
282.7020, 300.5840
283.9140, 377.5996
285.1250, 284.7051
286.3360, 170.9297
287.5470, 109.2236
288.7570, 83.55176
289.9680, 67.24805
291.1780, 113.9590
292.3880, 135.0518
293.5990, 225.7812
294.8080, 436.0566
296.0180, 485.8047
297.2280, 437.9727
298.4370, 695.5107
299.6470, 712.3809
300.8560, 727.5518
302.0650, 819.9980
303.2740, 732.6943
304.4820, 741.9336
305.6910, 726.7686
306.8990, 699.1074
308.1070, 616.6299
309.3150, 680.3291
310.5230, 504.2119
311.7310, 525.2822
312.9390, 411.5400
314.1460, 528.9912
315.3530, 375.6826
316.5600, 436.5898
317.7670, 298.7314
318.9740, 408.1328
320.1810, 431.7549
321.3870, 414.5947
322.5930, 466.6377
323.8000, 489.5020
325.0060, 588.2979
326.2110, 556.8613
327.4170, 617.5596
328.6230, 626.3125
329.8280, 595.3525
331.0330, 687.4199
332.2380, 823.6123
333.4430, 862.6797
334.6480, 805.2715
335.8530, 956.7666
337.0570, 962.3496
338.2610, 1032.010
339.4650, 1062.754
340.6690, 925.5635
341.8730, 1127.445
343.0770, 1283.391
344.2800, 1138.898
345.4840, 1094.468
346.6870, 1105.598
347.8900, 1070.787
349.0930, 1383.038
350.2950, 1320.349
351.4980, 1383.636
352.7000, 1514.796
353.9030, 1544.864
355.1050, 1656.803
356.3070, 1779.524
357.5080, 2022.903
358.7100, 2310.362
359.9110, 2640.787
361.1130, 3105.109
362.3140, 3504.490
363.5150, 4079.951
364.7160, 4408.494
365.9160, 4871.117
367.1170, 5227.816
368.3170, 5327.596
369.5170, 5586.451
370.7170, 5553.382
371.9170, 5360.389
373.1170, 5294.468
374.3170, 5142.619
375.5160, 5039.844
376.7150, 5189.137
377.9140, 5235.500
379.1130, 5259.934
380.3120, 5618.434
381.5110, 6070.998
382.7090, 6545.629
383.9070, 6908.322
385.1060, 7567.078
386.3040, 8212.896
387.5010, 8706.778
388.6990, 9229.713
389.8970, 9675.711
391.0940, 9621.764
392.2910, 9543.874
393.4880, 9327.038
394.6850, 8582.261
395.8820, 7969.533
397.0780, 7380.859
398.2750, 6557.238
399.4710, 5929.667
400.6670, 5545.146
401.8630, 5498.678
403.0590, 5249.256
404.2540, 5572.883
405.4500, 5689.558
406.6450, 6132.277
407.8400, 6392.045
409.0350, 6758.857
410.2300, 7060.713
411.4250, 7477.613
412.6190, 7853.559
413.8140, 7942.787
415.0080, 7919.344
416.2020, 7861.445
417.3960, 7401.734
418.5900, 7114.328
419.7830, 6818.180
420.9770, 6219.877
422.1700, 5776.209
423.3630, 5418.996
424.5560, 5187.000
425.7490, 4838.888
426.9410, 4785.090
428.1340, 4508.579
429.3260, 4398.709
430.5180, 4148.042
431.7100, 4007.963
432.9020, 3821.817
434.0940, 3629.579
435.2850, 3468.379
436.4770, 3156.240
437.6680, 3007.160
438.8590, 2547.133
440.0500, 2257.161
441.2410, 1851.240
442.4310, 1732.369
443.6220, 1414.546
444.8120, 1362.769
446.0020, 1039.036
447.1920, 998.3477
448.3820, 927.7031
449.5710, 834.0977
450.7610, 579.2656
451.9500, 662.1758
453.1390, 446.0020
454.3280, 477.2734
455.5170, 327.7793
456.7060, 344.2148
457.8940, 389.2568
459.0830, 331.5889
460.2710, 366.4482
461.4590, 456.1621
462.6470, 481.9297
463.8350, 390.6816
465.0220, 360.2285
466.2100, 371.3516
467.3970, 277.9287
468.5840, 259.9590
469.7710, 220.7969
470.9580, 351.1592
472.1440, 273.0449
473.3310, 390.9316
474.5170, 316.0293
475.7030, 359.4746
476.8890, 343.7871
478.0750, 397.3594
479.2610, 326.8838
480.4460, 519.3174
481.6320, 334.7559
482.8170, 508.3438
484.0020, 521.7852
485.1870, 619.9785
486.3710, 506.0635
487.5560, 724.9033
488.7400, 638.7383
489.9250, 857.5664
491.1090, 948.3867
492.2930, 1011.198
493.4760, 1088.004
494.6600, 1079.800
495.8440, 1434.588
497.0270, 1460.368
498.2100, 1732.142
499.3930, 1974.908
500.5760, 2088.668
501.7580, 2356.423
502.9410, 2377.172
504.1230, 2598.914
505.3060, 2817.651
506.4880, 3021.381
507.6690, 3426.104
508.8510, 3641.819
510.0330, 3995.524
511.2140, 4210.221
512.3950, 4392.908
513.5760, 4703.582
514.7570, 4978.248
515.9380, 5328.901
517.1190, 5348.161
518.2990, 5342.171
519.4800, 5453.787
520.6600, 5311.389
521.8400, 5564.977
523.0190, 5371.549
524.1990, 5312.104
525.3790, 5078.647
526.5580, 4934.170
527.7370, 4762.040
528.9160, 4700.168
530.0950, 4393.639
531.2740, 4191.092
532.4520, 4028.216
533.6310, 3972.939
534.8090, 3792.334
535.9870, 3714.707
537.1650, 3629.060
538.3430, 3453.392
539.5200, 3502.700
540.6980, 3380.987
541.8750, 3310.251
543.0520, 3197.492
544.2290, 3153.709
545.4060, 3193.901
546.5820, 3100.068
547.7590, 3030.352
548.9350, 2893.328
550.1110, 2843.418
551.2870, 2680.482
552.4630, 2632.521
553.6390, 2478.529
554.8140, 2574.512
555.9900, 2485.502
557.1650, 2489.502
558.3400, 2444.518
559.5150, 2425.540
560.6900, 2408.569
561.8640, 2393.650
563.0390, 2370.760
564.2130, 2323.923
565.3870, 2317.873
566.5610, 2375.414
567.7350, 2300.768
568.9080, 2269.186
570.0820, 2288.678
571.2550, 2182.209
572.4280, 2194.770
573.6010, 2061.345
574.7740, 2062.973
575.9470, 1948.629
577.1190, 1888.213
578.2920, 1731.859
579.4640, 1590.508
580.6360, 1489.135
581.8080, 1393.752
582.9790, 1309.352
584.1510, 1115.579
585.3220, 978.3867
586.4940, 710.0078
587.6650, 657.5273
588.8360, 456.0225
590.0060, 380.4756
591.1770, 246.4170
592.3470, 143.5420
593.5180, 22.54102
594.6880, 14.27246
595.8580, 47.21484
597.0280, 91.23242
598.1970, 289.5596
599.3670, 212.0957
600.5360, 297.8691
601.7050, 404.9248
602.8740, 276.3223
604.0430, 321.9932
605.2120, 332.9648
606.3800, 420.2441
607.5490, 234.8760
608.7170, 256.7646
609.8850, 156.9219
611.0530, 148.2969
612.2210, 107.8857
613.3880, 27.33203
614.5560, 93.60059
615.7230, 79.27930
616.8900, 5.8594000E-02
618.0570, 35.30176
619.2240, 80.18066
620.3900, 154.5596
621.5570, 116.8555
622.7230, 336.0586
623.8890, 204.2021
625.0550, 385.2705
626.2210, 406.2852
627.3870, 546.2451
628.5520, 612.1553
629.7180, 608.0156
630.8830, 790.8242
632.0480, 882.5820
633.2130, 1122.289
634.3770, 1182.947
635.5420, 1185.553
636.7060, 1366.107
637.8710, 1561.610
639.0350, 1712.063
640.1990, 1940.465
641.3620, 2170.356
642.5260, 2449.113
643.6890, 2698.361
644.8530, 3015.558
646.0160, 3328.701
647.1790, 3688.793
648.3410, 3990.834
649.5040, 4395.824
650.6670, 5044.760
651.8290, 5360.648
652.9910, 6035.480
654.1530, 6536.263
655.3150, 7181.994
656.4770, 8238.673
657.6380, 9234.300
658.7990, 10481.87
659.9610, 12369.40
661.1220, 13991.87
662.2830, 16359.29
663.4430, 19413.65
664.6040, 21813.97
665.7640, 24999.23
666.9240, 28436.45
668.0850, 31053.60
669.2440, 33993.71
670.4040, 35521.77
671.5640, 36123.77
672.7230, 35488.73
673.8830, 34061.63
675.0420, 31018.47
676.2010, 27762.27
677.3590, 24140.02
678.5180, 20634.71
679.6770, 17344.36
680.8350, 14821.95
681.9930, 12582.49
683.1510, 10911.98
684.3090, 9350.422
685.4670, 8088.811
686.6240, 7200.148
687.7810, 6566.434
688.9390, 5822.672
690.0960, 5478.857
691.2530, 4986.990
692.4090, 4585.077
693.5660, 4364.112
694.7220, 4228.096
695.8790, 3925.031
697.0350, 3824.917
698.1910, 3721.752
699.3460, 3733.571
700.5020, 3781.269
701.6570, 3644.143
702.8130, 3677.287
703.9680, 3771.223
705.1230, 3966.035
706.2780, 4040.413
707.4320, 4087.562
708.5870, 4287.707
709.7410, 4422.157
710.8950, 4544.612
712.0490, 4792.556
713.2030, 4967.865
714.3570, 5135.923
715.5100, 5242.537
716.6640, 5606.146
717.8170, 5635.953
718.9700, 5960.168
720.1230, 6039.369
721.2760, 6319.259
722.4280, 6527.748
723.5810, 6517.674
724.7330, 6736.896
725.8850, 6786.970
727.0370, 7144.727
728.1890, 6989.115
729.3400, 7077.445
730.4920, 7187.984
731.6430, 7136.762
732.7940, 7334.600
733.9450, 7135.976
735.0960, 7462.096
736.2460, 7444.262
737.3970, 7231.802
738.5470, 7440.028
739.6970, 7119.705
740.8470, 6965.502
741.9970, 7140.219
743.1470, 7066.931
744.2970, 6953.822
745.4460, 6634.111
746.5950, 6354.920
747.7440, 6093.251
748.8930, 5796.750
750.0420, 5494.697
751.1900, 5217.094
752.3390, 5081.465
753.4870, 4808.600
754.6350, 4500.357
755.7830, 4167.225
756.9310, 3922.802
758.0780, 3803.402
759.2260, 3449.065
760.3730, 3254.698
761.5200, 3121.152
762.6670, 2853.726
763.8140, 2822.520
764.9610, 2792.395
766.1070, 2563.484
767.2530, 2576.555
768.4000, 2315.601
769.5460, 2263.627
770.6910, 2207.633
771.8370, 2141.616
772.9830, 2125.581
774.1280, 2076.526
775.2730, 2226.451
776.4180, 2095.358
777.5630, 2016.246
778.7080, 1899.116
779.8520, 2047.969
780.9970, 2156.805
782.1410, 1972.623
783.2850, 2164.426
784.4290, 2102.213
785.5730, 1985.984
786.7160, 2053.741
787.8600, 2117.482
789.0030, 1997.209
790.1460, 1932.924
791.2890, 1990.625
792.4320, 2225.062
793.5750, 2049.198
794.7170, 2046.691
795.8590, 1860.304
797.0020, 1820.945
798.1440, 1752.574
799.2850, 1698.195
800.4270, 1641.747
801.5690, 1564.568
802.7100, 1523.001
803.8510, 1424.586
804.9920, 1362.164
806.1330, 1319.733
807.2740, 1161.298
808.4140, 1204.854
809.5550, 1129.406
810.6950, 972.9521
811.8350, 1115.492
812.9750, 1058.029
814.1150, 857.5615
815.2540, 948.0908
816.3940, 830.6152
817.5330, 682.1377
818.6720, 724.6592
819.8110, 721.1787
820.9500, 535.6963
822.0880, 610.2129
823.2270, 527.7305
824.3650, 431.2471
825.5030, 484.7637
826.6410, 415.2822
827.7790, 340.8008
828.9170, 272.3223
830.0540, 276.8457
831.1920, 250.3691
832.3290, 188.8975
833.4660, 56.42871
834.6030, 59.96289
835.7390, 13.50293
836.8760, 103.9590
838.0120, 75.47363
839.1480, 46.02637
840.2840, 80.60156
841.4200, 162.2148
842.5560, 185.9092
843.6920, 159.6943
844.8270, 142.5547
845.9620, 82.48340
847.0970, 136.4443
848.2320, 130.4658
849.3670, 282.5439
850.5020, 102.7559
851.6360, 97.00781
852.7700, 279.2930
853.9040, 173.7090
855.0380, 57.19727
856.1720, 135.6982
857.3060, 96.24805
858.4390, 90.82812
859.5730, 5.434570
860.7060, 147.0312
861.8390, 128.6807
862.9720, 86.36719
864.1040, 14.92578
865.2370, 22.23438
866.3690, 55.57324
867.5010, 89.30273
868.6330, 78.27539
869.7650, 120.6973
870.8970, 142.1787
872.0290, 159.7285
873.1600, 81.36133
874.2910, 146.1279
875.4220, 190.0107
876.5530, 244.0322
877.6840, 362.2207
878.8140, 417.5459
879.9450, 302.0176
881.0750, 303.6416
882.2050, 489.4404
883.3350, 458.3652
884.4650, 597.4238
885.5950, 577.5898
886.7240, 777.8633
887.8530, 609.2305
888.9820, 637.6738
890.1110, 648.2100
891.2400, 915.7969
892.3690, 938.4551
893.4970, 815.1914
894.6260, 913.9814
895.7540, 756.8145
896.8820, 931.7139
898.0100, 1141.645
899.1370, 1078.613
900.2650, 1220.612
901.3920, 1162.650
902.5200, 1262.727
903.6470, 1412.831
904.7730, 1319.971
905.9000, 1213.141
907.0270, 1445.337
908.1530, 1483.572
909.2790, 1642.836
910.4050, 1742.150
911.5310, 1753.510
912.6570, 1973.898
913.7830, 2007.346
914.9080, 2157.825
916.0330, 2239.351
917.1580, 2406.928
918.2830, 2739.556
919.4080, 2830.231
920.5330, 2922.966
921.6570, 3303.731
922.7820, 3461.566
923.9060, 3598.434
925.0300, 3824.339
926.1540, 3926.291
927.2770, 3857.277
928.4010, 3961.316
929.5240, 3851.390
930.6470, 3686.518
931.7700, 3570.715
932.8930, 3387.957
934.0160, 3067.270
935.1380, 3009.641
936.2610, 2749.068
937.3830, 2490.555
938.5050, 2605.095
939.6270, 2518.689
940.7490, 2485.330
941.8700, 2357.021
942.9910, 2345.756
944.1130, 2186.536
945.2340, 2305.357
946.3550, 2365.221
947.4750, 2310.133
948.5960, 2229.102
949.7160, 2255.122
950.8370, 2139.205
951.9570, 2047.365
953.0770, 1966.582
954.1970, 1895.834
955.3160, 1817.572
956.4360, 1958.467
957.5550, 1758.841
958.6740, 1776.260
959.7930, 1930.736
960.9120, 1923.250
962.0310, 1933.801
963.1490, 1832.386
964.2670, 1892.013
965.3860, 1831.675
966.5040, 1854.378
967.6210, 1826.577
968.7390, 1829.323
969.8570, 1816.707
970.9740, 1853.524
972.0910, 1851.397
973.2080, 1998.201
974.3250, 1911.661
975.4420, 1938.313
976.5580, 2025.080
977.6750, 1836.485
978.7910, 1869.668
979.9070, 1928.059
981.0230, 2073.130
982.1390, 2200.183
983.2540, 2280.733
984.3700, 2148.902
985.4850, 2181.307
986.6000, 2248.141
987.7150, 2227.967
988.8300, 2329.578
989.9450, 2569.773
991.0590, 2615.967
992.1730, 2758.458
993.2880, 2831.338
994.4010, 2985.771
995.5150, 3162.890
996.6290, 3366.145
997.7420, 3535.854
998.8560, 3718.759
999.9690, 3935.582
1001.082, 4065.589
1002.195, 4299.934
1003.307, 4472.746
1004.420, 4693.893
1005.532, 4948.084
1006.645, 5138.062
1007.757, 5263.256
1008.868, 5332.932
1009.980, 5464.302
1011.092, 5419.715
1012.203, 5527.173
1013.314, 5719.675
1014.425, 5889.219
1015.536, 5632.801
1016.647, 5817.422
1017.758, 6148.082
1018.868, 6259.781
1019.978, 6644.520
1021.088, 6804.295
1022.198, 6869.105
1023.308, 7347.953
1024.418, 7760.837
1025.527, 7925.756
1026.637, 8156.711
1027.746, 8495.949
1028.855, 8362.974
1029.963, 8680.881
1031.072, 8475.972
1032.181, 8311.095
1033.289, 8203.253
1034.397, 8065.587
1035.505, 7583.933
1036.613, 7480.188
1037.721, 7211.869
1038.828, 7120.189
1039.935, 6831.539
1041.043, 6646.581
1042.150, 6591.008
1043.257, 6580.168
1044.363, 6414.469
1045.470, 6461.081
1046.576, 6387.315
1047.682, 6420.988
1048.788, 6621.076
1049.894, 6408.988
1051.000, 6761.120
1052.106, 6668.473
1053.211, 6884.236
1054.316, 7138.110
1055.421, 7358.275
1056.526, 7369.047
1057.631, 7236.021
1058.736, 7631.106
1059.840, 7257.991
1060.944, 7369.717
1062.049, 7141.889
1063.153, 7045.717
1064.256, 6720.768
1065.360, 6530.480
1066.463, 6089.505
1067.567, 5950.197
1068.670, 5497.514
1069.773, 5312.265
1070.876, 4917.667
1071.978, 4697.989
1073.081, 4263.006
1074.183, 4207.473
1075.285, 3872.570
1076.387, 3705.639
1077.489, 3630.443
1078.591, 3373.166
1079.692, 3324.878
1080.794, 3342.377
1081.895, 3120.270
1082.996, 2977.699
1084.097, 2853.737
1085.198, 2827.652
1086.298, 2764.012
1087.399, 2512.607
1088.499, 2287.363
1089.599, 2137.214
1090.699, 1958.773
1091.799, 1935.037
1092.898, 1945.714
1093.998, 1792.064
1095.097, 1828.642
1096.196, 1748.957
1097.295, 1643.602
1098.394, 1703.727
1099.492, 1553.415
1100.591, 1554.191
1101.689, 1548.844
1102.787, 1437.824
1103.885, 1304.106
1104.983, 1434.878
1106.081, 1323.530
1107.178, 1362.033
1108.275, 1457.492
1109.373, 1229.182
1110.470, 1312.195
1111.566, 1200.879
1112.663, 1340.247
1113.760, 1282.157
1114.856, 1205.950
1115.952, 1107.768
1117.048, 997.6602
1118.144, 1128.578
1119.240, 1051.688
1120.335, 1023.874
1121.431, 984.4375
1122.526, 942.8223
1123.621, 828.9238
1124.716, 792.8213
1125.810, 789.9609
1126.905, 854.1006
1127.999, 836.3350
1129.094, 780.5293
1130.188, 728.9580
1131.282, 736.3311
1132.375, 620.5322
1133.469, 504.3193
1134.562, 366.5117
1135.656, 394.9590
1136.749, 550.1787
1137.842, 397.3555
1138.935, 415.0020
1140.027, 418.1846
1141.120, 350.6768
1142.212, 319.8398
1143.304, 302.8818
1144.396, 228.6494
1145.488, 233.7881
1146.579, 201.9238
1147.671, 103.0449
1148.762, 221.3721
1149.853, 117.4727
1150.944, 138.1494
1152.035, 123.2588
1153.126, 143.3457
1154.216, 119.7939
1155.307, 201.6650
1156.397, 60.15332
1157.487, 43.38086
1158.577, 13.67480
1159.667, 58.41895
1160.756, 84.60156
1161.846, 73.65625
1162.935, 96.60449
1164.024, 49.96289
1165.113, 50.91992
1166.201, 49.07227
1167.290, 39.87012
1168.378, 34.15723
1169.467, 130.6045
1170.555, 90.34766
1171.643, 33.92383
1172.730, 20.78418
1173.818, 79.54199
1174.905, 47.92969
1175.993, 8.787109
1177.080, 106.6670
1178.167, 15.80371
1179.254, 52.71191
1180.340, 63.92285
1181.427, 65.57617
1182.513, 51.30273
1183.599, 87.94238
1184.685, 28.20117
1185.771, 122.6787
1186.856, 81.34570
1187.942, 4.650391
1189.027, 36.61719
1190.112, 71.29785
1191.197, 59.15820
1192.282, 27.66797
1193.367, 57.53320
1194.451, 107.2861
1195.536, 20.64941
1196.620, 103.7773
1197.704, 65.10938
1198.788, 57.69238
1199.872, 63.17480
1200.955, 40.33984
1202.039, 37.71777
1203.122, 15.55859
1204.205, 21.47070
1205.288, 1.607422
1206.370, 3.381836
1207.453, 9.191406
1208.535, 12.27246
1209.618, 3.070313
1210.700, 46.28906
1211.782, 19.54102
1212.863, 58.79883
1213.945, 115.2109
1215.026, 32.51270
1216.108, 127.9795
1217.189, 6.583008
1218.270, 65.91016
1219.351, 61.20508
1220.431, 10.46680
1221.512, 32.13770
1222.592, 86.57031
1223.672, 210.1963
1224.752, 112.7471
1225.832, 50.08008
1226.911, 104.2139
1227.991, 62.23047
1229.070, 102.1680
1230.149, 94.07324
1231.228, 116.1953
1232.307, 79.20312
1233.386, 30.31836
1234.464, 108.4561
1235.543, 142.5225
1236.621, 196.4893
1237.699, 67.02539
1238.777, 165.2148
1239.855, 111.0664
1240.932, 267.4473
1242.009, 88.09180
1243.087, 158.0127
1244.164, 196.4541
1245.241, 202.8691
1246.317, 212.1318
1247.394, 251.8535
1248.470, 164.1650
1249.546, 164.4639
1250.623, 109.8916
1251.698, 134.0898
1252.774, 284.8379
1253.850, 94.96387
1254.925, 236.0449
1256.000, 293.0918
1257.076, 202.1006
1258.150, 268.0742
1259.225, 167.0098
1260.300, 180.9160
1261.374, 283.7852
1262.449, 117.6152
1263.523, 368.8076
1264.597, 164.7080
1265.670, 218.4199
1266.744, 238.0967
1267.818, 134.7363
1268.891, 226.3340
1269.964, 158.4648
1271.037, 336.9844
1272.110, 212.4678
1273.183, 83.97656
1274.255, 275.3711
1275.327, 238.8184
1276.400, 290.1377
1277.472, 190.4473
1278.543, 340.8398
1279.615, 136.0459
1280.687, 238.9102
1281.758, 242.0352
1282.829, 196.1221
1283.900, 356.1699
1284.971, 155.1787
1286.042, 200.1475
1287.112, 241.0771
1288.183, 265.7197
1289.253, 284.5742
1290.323, 169.5410
1291.393, 240.3184
1292.463, 155.0557
1293.532, 193.7529
1294.602, 272.2705
1295.671, 214.7666
1296.740, 204.3477
1297.809, 296.4971
1298.878, 273.0010
1299.946, 285.5156
1301.015, 242.2314
1302.083, 257.6055
1303.151, 249.2393
1304.219, 204.7256
1305.287, 262.8818
1306.354, 234.4121
1307.422, 226.4932
1308.489, 177.1494
