##NAMES=Actinolite
##RRUFFID=R060045
##IDEAL CHEMISTRY=Ca_2_(Mg_4.5-2.5_Fe^2+^_0.5-2.5_)Si_8_O_22_(OH)_2_
##LOCALITY=Colorado, USA
##OWNER=RRUFF
##SOURCE=University of Arizona Mineral Museum
##DESCRIPTION=Green prismatic crystals in a radial arrangement
##STATUS=The identification of this mineral has been confirmed by X-ray diffraction and chemical analysis
##URL=rruff.info/R060045
##MEASURED CHEMISTRY=(Ca_1.99_Na_0.01_)_Σ=2_(Mg_4.20_Fe^2+^_0.59_Al_0.09_Fe^3+^_0.08_Mn_0.02_Ti_0.01_)_Σ=5_(Si_7.82_Al_0.18_)_Σ=8_O_22_(OH)_2_
##PIN_ID=M00340
##ORIENTATION=Laser parallel to -a* (-1 0 0). Fiducial mark perpendicular to laser is parallel to -b [0 -1 0]
134.1270, 0.0000000E+00
135.3560, 24.31152
136.5850, 7.889648
137.8140, 0.6064450
139.0430, 2.485352
140.2710, 33.54102
141.5000, 56.76172
142.7280, 89.16797
143.9560, 96.83008
145.1840, 135.5938
146.4120, 24.68164
147.6390, 1.103516
148.8670, 246.2324
150.0940, 376.2480
151.3210, 247.8809
152.5490, 275.0840
153.7750, 193.7988
155.0020, 275.9766
156.2290, 333.5742
157.4550, 256.5605
158.6810, 335.9082
159.9080, 296.5938
161.1340, 415.5898
162.3590, 515.8828
163.5850, 680.4473
164.8110, 904.2676
166.0360, 1525.330
167.2610, 2156.656
168.4860, 2568.246
169.7110, 3099.027
170.9360, 3033.980
172.1610, 3105.104
173.3850, 2751.373
174.6100, 2672.781
175.8340, 2511.328
177.0580, 2208.018
178.2820, 1854.848
179.5050, 1476.818
180.7290, 1320.920
181.9520, 956.1543
183.1760, 719.5137
184.3990, 440.9922
185.6220, 403.5820
186.8450, 388.2754
188.0670, 278.0703
189.2900, 281.9629
190.5120, 218.9492
191.7340, 250.0254
192.9560, 301.1855
194.1780, 253.4238
195.4000, 316.1484
196.6220, 191.1211
197.8430, 347.5723
199.0640, 339.0859
200.2860, 273.5566
201.5070, 408.6133
202.7270, 523.2520
203.9480, 581.9434
205.1690, 437.6816
206.3890, 415.4668
207.6090, 662.3320
208.8290, 674.1875
210.0490, 968.0293
211.2690, 1312.865
212.4890, 1452.703
213.7080, 1703.895
214.9280, 2136.486
216.1470, 2038.566
217.3660, 2275.801
218.5850, 2391.150
219.8030, 2248.607
221.0220, 2092.131
222.2400, 1893.715
223.4590, 1776.414
224.6770, 1542.148
225.8950, 1423.916
227.1120, 1271.719
228.3300, 1168.625
229.5480, 1071.576
230.7650, 901.5547
231.9820, 821.5371
233.1990, 757.5234
234.4160, 513.5391
235.6330, 658.5781
236.8490, 577.6250
238.0660, 445.6777
239.2820, 476.7402
240.4980, 446.8066
241.7140, 478.9414
242.9300, 524.0996
244.1460, 553.2969
245.3610, 325.5156
246.5770, 194.7539
247.7920, 514.9922
249.0070, 317.2324
250.2220, 491.4707
251.4370, 434.7070
252.6510, 100.9434
253.8660, 347.1777
255.0800, 146.4121
256.2940, 189.6445
257.5080, 227.8730
258.7220, 193.1016
259.9360, 220.7871
261.1490, 318.5508
262.3630, 159.7715
263.5760, 102.9922
264.7890, 52.79297
266.0020, 125.4219
267.2150, 21.36719
268.4270, 145.8398
269.6400, 141.0449
270.8520, 97.24609
272.0640, 210.4434
273.2760, 127.6289
274.4880, 65.80664
275.7000, 281.9824
276.9120, 142.1543
278.1230, 175.3242
279.3340, 192.1738
280.5450, 312.2871
281.7560, 251.1387
282.9670, 254.7461
284.1780, 129.2656
285.3880, 253.1562
286.5980, 156.0938
287.8090, 403.2656
289.0190, 309.3613
290.2290, 282.5234
291.4380, 125.0840
292.6480, 269.6270
293.8570, 64.95508
295.0670, 314.7891
296.2760, 184.2266
297.4850, 293.3145
298.6930, 265.8398
299.9020, 114.1328
301.1110, 203.7344
302.3190, 297.3945
303.5270, 235.9785
304.7350, 152.6914
305.9430, 258.7500
307.1510, 344.3027
308.3580, 29.09766
309.5660, 340.0430
310.7730, 177.8750
311.9800, 242.7422
313.1870, 174.6328
314.3940, 101.8496
315.6010, 155.8008
316.8070, 212.7676
318.0130, 164.0234
319.2200, 254.0410
320.4260, 283.8184
321.6310, 453.4043
322.8370, 482.7715
324.0430, 583.6426
325.2480, 593.0566
326.4540, 496.5273
327.6590, 508.8203
328.8640, 493.9336
330.0680, 428.0547
331.2730, 608.1855
332.4780, 438.3730
333.6820, 257.4355
334.8860, 408.5879
336.0900, 332.7461
337.2940, 498.1719
338.4980, 458.3379
339.7010, 422.8203
340.9050, 614.2090
342.1080, 716.5762
343.3110, 460.1289
344.5140, 525.3145
345.7170, 691.4961
346.9200, 615.2402
348.1220, 866.4199
349.3240, 783.9766
350.5270, 772.1641
351.7290, 658.9375
352.9310, 740.2871
354.1320, 842.5273
355.3340, 1003.848
356.5350, 1234.092
357.7370, 1598.670
358.9380, 1919.857
360.1390, 2191.047
361.3400, 2273.234
362.5400, 2429.715
363.7410, 2644.928
364.9410, 2473.109
366.1410, 2517.293
367.3410, 2395.469
368.5410, 1967.645
369.7410, 1923.814
370.9400, 1575.980
372.1400, 1592.141
373.3390, 1340.299
374.5380, 1120.449
375.7370, 1239.598
376.9360, 1471.738
378.1350, 1693.875
379.3330, 1836.004
380.5310, 1973.131
381.7300, 2254.250
382.9280, 2330.363
384.1260, 2714.471
385.3230, 2750.572
386.5210, 2857.664
387.7180, 2819.756
388.9160, 2757.836
390.1130, 2644.070
391.3100, 2340.977
392.5060, 2192.037
393.7030, 1842.090
394.9000, 1407.137
396.0960, 1413.174
397.2920, 1273.203
398.4880, 1012.229
399.6840, 1214.244
400.8800, 903.2500
402.0750, 978.2520
403.2710, 1012.244
404.4660, 1047.232
405.6610, 1230.211
406.8560, 1230.182
408.0510, 1308.145
409.2450, 1215.232
410.4400, 1114.180
411.6340, 873.9082
412.8280, 893.8398
414.0220, 676.8086
415.2160, 665.7266
416.4100, 609.6875
417.6030, 618.5898
418.7970, 378.4805
419.9900, 393.3672
421.1830, 409.2422
422.3760, 35.89062
423.5690, 152.9434
424.7610, 159.7773
425.9540, 215.6074
427.1460, 285.4414
428.3380, 247.2754
429.5300, 268.1094
430.7220, 48.93945
431.9140, 403.0391
433.1050, 194.8594
434.2970, 10.68164
435.4880, 183.4961
436.6790, 121.3164
437.8700, 185.8262
439.0610, 220.9238
440.2510, 60.06055
441.4420, 162.6816
442.6320, 220.5820
443.8220, 162.0820
445.0120, 95.67773
446.2020, 94.23047
447.3910, 180.2930
448.5810, 30.21094
449.7700, 107.2871
450.9600, 120.1406
452.1490, 79.55859
453.3370, 109.6992
454.5260, 145.7285
455.7150, 134.5332
456.9030, 47.89844
458.0910, 171.3672
459.2800, 168.6250
460.4670, 13.75000
461.6550, 199.8164
462.8430, 68.88086
464.0300, 17.59961
465.2180, 18.50977
466.4050, 16.98242
467.5920, 48.00586
468.7790, 39.11914
469.9650, 84.41016
471.1520, 192.4258
472.3380, 135.4316
473.5250, 170.4238
474.7110, 120.4082
475.8970, 37.62109
477.0820, 145.3027
478.2680, 146.2148
479.4540, 72.11523
480.6390, 263.0020
481.8240, 62.89453
483.0090, 85.77148
484.1940, 93.63672
485.3780, 50.48633
486.5630, 212.3203
487.7470, 200.1426
488.9320, 62.04492
490.1160, 179.7031
491.3000, 53.44141
492.4830, 20.81836
493.6670, 1.882813
494.8500, 45.56055
496.0340, 103.2207
497.2170, 16.12695
498.4000, 132.5039
499.5820, 54.12305
500.7650, 215.7246
501.9480, 154.6543
503.1300, 207.9062
504.3120, 72.52344
505.4940, 261.1250
506.6760, 259.7227
507.8580, 248.3340
509.0390, 365.9355
510.2210, 255.5215
511.4020, 335.0977
512.5830, 464.6602
513.7640, 278.2109
514.9450, 293.7461
516.1250, 429.2695
517.3060, 392.7793
518.4860, 374.2734
519.6660, 464.7559
520.8460, 439.2246
522.0260, 523.6816
523.2060, 607.1387
524.3850, 610.9199
525.5650, 622.0273
526.7440, 666.4512
527.9230, 608.8594
529.1020, 620.2520
530.2810, 436.6328
531.4590, 568.9980
532.6380, 477.3516
533.8160, 379.6914
534.9940, 460.0156
536.1720, 554.3281
537.3500, 501.6406
538.5270, 460.9355
539.7050, 357.2168
540.8820, 271.5566
542.0590, 248.0410
543.2360, 243.1797
544.4130, 260.4824
545.5900, 300.7969
546.7660, 458.0977
547.9430, 473.3828
549.1190, 457.6523
550.2950, 412.9082
551.4710, 328.1543
552.6470, 280.3848
553.8220, 240.0195
554.9980, 162.7988
556.1730, 206.9844
557.3480, 162.1543
558.5230, 221.3086
559.6980, 329.4473
560.8730, 305.4102
562.0470, 389.6777
563.2220, 331.7695
564.3960, 401.2461
565.5700, 397.3340
566.7440, 335.4922
567.9170, 476.3379
569.0910, 229.3984
570.2640, 235.8789
571.4380, 242.9199
572.6110, 113.7578
573.7840, 281.7090
574.9570, 361.4844
576.1290, 269.0684
577.3020, 349.3652
578.4740, 260.6875
579.6460, 355.5176
580.8180, 115.3750
581.9900, 312.1777
583.1620, 216.0000
584.3330, 159.0781
585.5040, 363.8672
586.6760, 10.38086
587.8470, 394.4531
589.0180, 72.17188
590.1880, 344.5527
591.3590, 516.4570
592.5290, 231.1270
593.7000, 84.65820
594.8700, 133.3066
596.0400, 44.92578
597.2090, 63.47070
598.3790, 172.7871
599.5490, 238.3125
600.7180, 35.17383
601.8870, 69.03516
603.0560, 129.4863
604.2250, 116.1738
605.3940, 196.0508
606.5620, 47.87695
607.7300, 237.7363
608.8990, 172.7793
610.0670, 83.75977
611.2350, 155.9180
612.4020, 289.2500
613.5700, 458.5684
614.7370, 386.8730
615.9050, 417.1152
617.0720, 608.4727
618.2390, 656.7344
619.4060, 530.9844
620.5720, 620.9551
621.7390, 571.3965
622.9050, 416.2949
624.0710, 514.3066
625.2370, 457.3008
626.4030, 444.1016
627.5690, 363.2559
628.7340, 284.9746
629.9000, 597.5391
631.0650, 490.6523
632.2300, 451.6797
633.3950, 673.0371
634.5600, 520.0859
635.7240, 474.4004
636.8890, 736.0723
638.0530, 699.9355
639.2170, 787.8965
640.3810, 997.7559
641.5450, 1120.750
642.7080, 1087.676
643.8720, 1321.213
645.0350, 1284.225
646.1980, 1388.773
647.3610, 1410.129
648.5240, 1550.258
649.6870, 1844.469
650.8490, 1936.943
652.0120, 2182.873
653.1740, 2244.723
654.3360, 2704.854
655.4980, 3083.961
656.6600, 3401.764
657.8210, 4245.557
658.9830, 4695.332
660.1440, 5818.094
661.3050, 7012.506
662.4660, 8328.055
663.6270, 10392.86
664.7870, 12036.69
665.9480, 13548.66
667.1080, 14527.34
668.2680, 15099.00
669.4280, 14670.64
670.5880, 13972.27
671.7480, 12445.31
672.9070, 11085.01
674.0670, 9084.850
675.2260, 7494.613
676.3850, 6102.082
677.5440, 4974.621
678.7030, 4148.145
679.8610, 3397.633
681.0200, 2783.127
682.1780, 2417.607
683.3360, 1940.070
684.4940, 1735.643
685.6520, 1420.074
686.8090, 1349.758
687.9670, 1032.359
689.1240, 926.7422
690.2810, 1035.107
691.4380, 613.4785
692.5950, 684.8125
693.7520, 515.1328
694.9080, 711.3867
696.0650, 342.6738
697.2210, 578.9102
698.3770, 391.1855
699.5330, 348.4453
700.6880, 283.6895
701.8440, 328.9199
702.9990, 169.1348
704.1550, 182.3613
705.3100, 162.5820
706.4650, 37.78516
707.6190, 177.9746
708.7740, 73.15039
709.9290, 174.3047
711.0830, 182.4473
712.2370, 348.2969
713.3910, 35.40820
714.5450, 197.5059
715.6980, 11.59375
716.8520, 134.3496
718.0050, 90.60547
719.1580, 226.5957
720.3110, 136.7051
721.4640, 206.1836
722.6170, 198.0547
723.7700, 221.9141
724.9220, 242.8203
726.0740, 256.8145
727.2260, 295.1133
728.3780, 314.5977
729.5300, 184.4746
730.6810, 217.3711
731.8330, 348.2520
732.9840, 298.7891
734.1350, 456.5781
735.2860, 353.9707
736.4370, 621.5742
737.5880, 768.4395
738.7380, 562.2910
739.8880, 576.7480
741.0390, 660.2285
742.1890, 689.9473
743.3380, 829.6445
744.4880, 713.4746
745.6380, 556.8789
746.7870, 746.6992
747.9360, 614.5078
749.0850, 303.0449
750.2340, 634.8281
751.3830, 571.5996
752.5310, 307.3594
753.6800, 394.1035
754.8280, 182.8379
755.9760, 370.5762
757.1240, 182.3027
758.2720, 240.0137
759.4190, 40.28320
760.5670, 210.3691
761.7140, 161.0078
762.8610, 226.6348
764.0080, 275.2520
765.1550, 329.8574
766.3020, 42.45312
767.4480, 426.0293
768.5950, 411.6172
769.7410, 41.80469
770.8870, 100.7227
772.0330, 43.25000
773.1780, 30.76758
774.3240, 23.27148
775.4690, 46.24219
776.6140, 215.2031
777.7590, 106.6387
778.9040, 175.0605
780.0490, 20.52930
781.1940, 126.1562
782.3380, 226.1211
783.4820, 2.392578
784.6260, 84.36523
785.7700, 108.8066
786.9140, 83.96484
788.0580, 35.10938
789.2010, 143.2402
790.3450, 200.3555
791.4880, 88.45898
792.6310, 89.55273
793.7730, 206.6289
794.9160, 188.6973
796.0590, 257.7539
797.2010, 198.7988
798.3430, 25.83594
799.4850, 36.14648
800.6270, 7.828125
801.7690, 122.7793
802.9100, 85.68359
804.0520, 235.6523
805.1930, 165.5723
806.3340, 214.4805
807.4750, 367.3789
808.6160, 47.26562
809.7560, 125.1406
810.8970, 88.00391
812.0370, 101.8555
813.1770, 23.30469
814.3170, 270.4980
815.4570, 326.2930
816.5960, 247.8340
817.7360, 145.4648
818.8750, 373.5156
820.0140, 445.2383
821.1530, 107.5586
822.2920, 145.9922
823.4310, 76.35352
824.5690, 91.07617
825.7070, 288.5684
826.8460, 245.0488
827.9840, 132.5215
829.1220, 172.9844
830.2590, 448.4414
831.3970, 310.0254
832.5340, 362.1348
833.6710, 241.3867
834.8080, 313.8086
835.9450, 227.2852
837.0820, 303.0625
838.2190, 461.4590
839.3550, 292.8457
840.4910, 382.8535
841.6270, 526.0117
842.7630, 750.2656
843.8990, 650.1992
845.0350, 528.5039
846.1700, 400.3574
847.3060, 506.6309
848.4410, 704.9277
849.5760, 728.2402
850.7100, 624.9082
851.8450, 409.2051
852.9800, 445.3008
854.1140, 623.1484
855.2480, 779.0195
856.3820, 716.2871
857.5160, 570.9766
858.6500, 788.2305
859.7830, 719.4746
860.9170, 707.7148
862.0500, 698.9492
863.1830, 595.1855
864.3160, 438.4160
865.4480, 380.6426
866.5810, 325.8613
867.7130, 323.0742
868.8460, 205.3027
869.9780, 458.5234
871.1100, 602.7754
872.2410, 407.0215
873.3730, 492.2852
874.5050, 414.5430
875.6360, 223.7910
876.7670, 147.0508
877.8980, 329.3047
879.0290, 224.5527
880.1590, 379.8691
881.2900, 253.1777
882.4200, 219.4902
883.5500, 168.8125
884.6800, 158.2773
885.8100, 175.3672
886.9400, 247.7402
888.0690, 197.0371
889.1990, 354.3262
890.3280, 272.6133
891.4570, 327.8926
892.5860, 350.1641
893.7140, 219.4316
894.8430, 503.6934
895.9710, 350.7324
897.1000, 390.0059
898.2280, 445.2578
899.3560, 469.5410
900.4830, 171.8359
901.6110, 506.1250
902.7380, 216.8320
903.8660, 387.1133
904.9930, 467.3867
906.1200, 210.3594
907.2460, 347.4023
908.3730, 201.1484
909.5000, 173.7734
910.6260, 488.2773
911.7520, 310.0078
912.8780, 384.3047
914.0040, 296.3555
915.1290, 456.6445
916.2550, 526.9805
917.3800, 313.6875
918.5050, 437.9648
919.6300, 385.7422
920.7550, 448.0781
921.8800, 816.1250
923.0040, 690.0703
924.1290, 894.7344
925.2530, 1094.922
926.3770, 830.1797
927.5010, 1109.141
928.6250, 990.1016
929.7480, 897.3555
930.8720, 804.6133
931.9950, 716.8711
933.1180, 634.1250
934.2410, 619.7109
935.3640, 494.1406
936.4860, 514.3008
937.6090, 447.4180
938.7310, 375.3789
939.8530, 367.2852
940.9750, 457.8594
942.0970, 314.1016
943.2180, 132.3398
944.3400, 115.1445
945.4610, 243.2773
946.5820, 305.2578
947.7030, 138.2930
948.8240, 27.60938
949.9450, 301.8359
951.0650, 492.0938
952.1860, 129.3711
953.3060, 376.6289
954.4260, 224.8828
955.5460, 218.1367
956.6650, 110.2656
957.7850, 236.5195
958.9040, 271.5117
960.0230, 329.5664
961.1420, 194.8203
962.2610, 166.0781
963.3800, 316.3164
964.4990, 154.5781
965.6170, 205.8398
966.7350, 170.1055
967.8530, 94.62891
968.9710, 24.59375
970.0890, 3.179688
971.2070, 15.94922
972.3240, 85.27344
973.4410, 201.5000
974.5580, 80.08984
975.6750, 47.89453
976.7920, 290.2812
977.9090, 58.53906
979.0250, 201.6250
980.1410, 121.7852
981.2580, 114.9531
982.3740, 37.12109
983.4890, 34.98438
984.6050, 72.54297
985.7200, 57.60156
986.8360, 10.25000
987.9510, 58.90234
989.0660, 325.1016
990.1810, 144.3008
991.2950, 257.5039
992.4100, 369.7539
993.5240, 69.04297
994.6390, 312.3438
995.7530, 373.6523
996.8660, 522.9609
997.9800, 568.2773
999.0940, 645.5938
1000.207, 653.1992
1001.320, 665.0703
1002.433, 580.5547
1003.546, 641.8750
1004.659, 537.0859
1005.772, 503.4062
1006.884, 248.7344
1007.996, 578.0586
1009.108, 749.3867
1010.220, 337.7148
1011.332, 396.0430
1012.444, 388.3711
1013.555, 554.6367
1014.666, 471.9688
1015.777, 513.3750
1016.888, 1131.629
1017.999, 892.9609
1019.110, 1105.297
1020.220, 1457.625
1021.331, 1471.957
1022.441, 1467.289
1023.551, 1806.617
1024.661, 1956.953
1025.770, 2164.281
1026.880, 1622.613
1027.989, 1701.945
1029.098, 1805.277
1030.207, 1427.590
1031.316, 1573.324
1032.425, 1426.672
1033.533, 888.3477
1034.642, 1033.699
1035.750, 701.0781
1036.858, 646.4297
1037.966, 600.7812
1039.073, 580.1289
1040.181, 592.0508
1041.288, 499.6719
1042.396, 686.0430
1043.503, 716.4141
1044.610, 892.7891
1045.716, 799.1797
1046.823, 912.5703
1047.929, 852.9648
1049.036, 816.3555
1050.142, 839.7617
1051.248, 893.7773
1052.353, 1081.648
1053.459, 1103.102
1054.564, 1262.137
1055.670, 1412.055
1056.775, 1491.539
1057.880, 1473.020
1058.985, 1613.500
1060.089, 1491.980
1061.194, 1564.895
1062.298, 1556.375
1063.402, 1567.984
1064.506, 1663.465
1065.610, 1975.941
1066.713, 1607.418
1067.817, 1711.895
1068.920, 1408.391
1070.023, 1353.891
1071.126, 1137.395
1072.229, 1121.898
1073.332, 946.3945
1074.435, 815.8906
1075.537, 741.3906
1076.639, 738.8867
1077.741, 753.3828
1078.843, 412.8789
1079.945, 634.3750
1081.046, 425.8711
1082.148, 440.3828
1083.249, 703.5859
1084.350, 639.0938
1085.451, 510.6680
1086.551, 708.2461
1087.652, 529.8242
1088.752, 429.4023
1089.853, 354.0156
1090.953, 366.6289
1092.053, 211.2422
1093.152, 171.8555
1094.252, 467.4727
1095.351, 317.0781
1096.451, 257.6875
1097.550, 629.2969
1098.649, 127.6523
1099.748, 264.2578
1100.846, 467.2344
1101.945, 355.8398
1103.043, 202.3789
1104.141, 90.60547
1105.239, 277.2109
1106.337, 13.81250
1107.434, 514.6992
1108.532, 302.4844
1109.629, 270.0781
1110.726, 318.2812
1111.823, 469.8789
1112.920, 332.4727
1114.017, 305.0703
1115.113, 179.6641
1116.210, 209.2617
1117.306, 256.6602
1118.402, 207.8203
1119.498, 147.6484
1120.593, 244.2461
1121.689, 328.8438
1122.784, 429.5781
1123.879, 464.0312
1124.974, 438.4258
1126.069, 400.0195
1127.164, 131.4648
1128.259, 51.05859
1129.353, 57.65234
1130.447, 103.2422
1131.541, 249.8359
1132.635, 159.4258
1133.729, 65.98047
1134.822, 252.5586
1135.916, 111.8984
1137.009, 180.5820
1138.102, 176.0547
1139.195, 33.52734
1140.288, 133.9961
1141.380, 82.46875
1142.473, 249.9414
1143.565, 39.41406
1144.657, 256.1172
1145.749, 154.2109
1146.841, 19.46484
1147.932, 33.16016
1149.024, 62.11328
1150.115, 137.3906
1151.206, 166.6680
1152.297, 262.9453
1153.388, 174.2227
1154.479, 317.5000
1155.569, 257.7695
1156.659, 209.9961
1157.750, 235.3203
1158.839, 44.59766
1159.929, 63.87109
1161.019, 66.85156
1162.108, 57.86719
1163.198, 173.5703
1164.287, 57.23438
1165.376, 99.91797
1166.465, 18.07422
1167.553, 303.2266
1168.642, 531.3789
1169.730, 44.52734
1170.818, 193.3164
1171.906, 80.72656
1172.994, 101.7734
1174.082, 18.81641
1175.170, 288.8633
1176.257, 140.9102
1177.344, 296.9570
1178.431, 179.0039
1179.518, 154.0469
1180.605, 256.0977
1181.691, 394.1445
1182.778, 308.1914
1183.864, 213.2422
1184.950, 291.5352
1186.036, 172.3438
1187.122, 300.3906
1188.207, 262.4414
1189.292, 190.4922
1190.378, 27.54297
1191.463, 1.597656
1192.548, 359.6406
1193.632, 28.31250
1194.717, 255.7148
1195.801, 331.7461
1196.886, 87.77344
1197.970, 322.8008
1199.054, 55.82812
1200.137, 219.8594
1201.221, 342.8906
1202.305, 47.92578
1203.388, 44.95312
1204.471, 305.9883
1205.554, 416.0195
1206.637, 277.0547
1207.719, 314.0938
1208.802, 177.1328
1209.884, 10.16797
1210.966, 284.2070
1212.048, 145.2461
1213.130, 105.7148
1214.212, 247.2695
1215.293, 127.2500
1216.374, 231.2383
1217.456, 374.2266
1218.536, 265.2109
1219.617, 206.2344
1220.698, 457.2266
1221.778, 245.2188
1222.859, 182.2109
1223.939, 328.2031
1225.019, 174.1992
1226.099, 63.19531
1227.178, 401.1875
1228.258, 11.81250
1229.337, 290.1797
1230.417, 343.1680
1231.496, 547.1875
1232.574, 491.2070
1233.653, 596.2227
1234.732, 367.2500
1235.810, 246.2773
1236.888, 399.1172
1237.966, 387.1602
1239.044, 283.2188
1240.122, 144.2734
1241.199, 348.3477
1242.277, 390.4805
1243.354, 147.6094
1244.431, 380.7500
1245.508, 529.8906
1246.585, 510.0312
1247.661, 498.1914
1248.738, 269.3555
1249.814, 397.5195
1250.890, 263.6914
1251.966, 241.8672
1253.042, 119.0430
1254.117, 164.7773
1255.193, 235.3242
1256.268, 54.57422
1257.343, 71.51172
1258.418, 254.5938
1259.493, 199.6836
1260.567, 134.7734
1261.642, 418.8750
1262.716, 361.9766
1263.790, 526.0742
1264.864, 445.1875
1265.938, 267.4180
1267.011, 291.5352
1268.085, 260.9727
1269.158, 239.6914
1270.231, 371.9453
1271.304, 356.0977
1272.377, 520.2617
1273.450, 765.4297
1274.522, 419.6641
1275.594, 188.8398
1276.666, 239.9531
1277.738, 267.2148
1278.810, 445.4141
1279.882, 358.6133
1280.953, 18.82422
1282.025, 513.0391
1283.096, 629.2812
1284.167, 378.5312
1285.238, 674.7852
1286.308, 535.0508
1287.379, 372.3203
1288.449, 493.5977
1289.519, 636.8789
1290.589, 536.2109
1291.659, 541.2617
1292.729, 413.4219
1293.798, 470.4062
1294.868, 235.7227
1295.937, 427.0273
1297.006, 288.3672
1298.075, 366.7852
1299.143, 893.1641
1300.212, 503.7461
1301.280, 409.1406
1302.348, 770.5508
