##NAMES=Actinolite
##RRUFFID=R040063
##IDEAL CHEMISTRY=Ca_2_(Mg_4.5-2.5_Fe^2+^_0.5-2.5_)Si_8_O_22_(OH)_2_
##LOCALITY=Harford County, Maryland, USA
##OWNER=RRUFF
##SOURCE=University of Arizona Mineral Museum
##DESCRIPTION=Mass of green acicular to bladed crystals associated with chlorite
##STATUS=The identification of this mineral has been confirmed by X-ray diffraction and chemical analysis
##URL=rruff.info/R040063
##MEASURED CHEMISTRY=(Ca_1.90_Na_0.06_Mn_0.04_)_Σ=2_(Mg_4.35_Fe_0.65_)_Σ=5_(Si_7.92_Al_0.08_)_Σ=8_O_22_(OH)_2_
##PIN_ID=S00044
##ORIENTATION=Laser parallel to b* (0 1 0). Fiducial mark perpendicular to laser is parallel to c [0 0 1]
146.865, 0.000
148.250, 0.627
149.635, 3.838
151.019, 97.367
152.403, 196.164
153.788, 437.289
155.171, 507.733
156.555, 532.424
157.939, 547.451
159.322, 553.050
160.705, 441.641
162.088, 321.887
163.470, 291.057
164.853, 258.958
166.235, 387.086
167.617, 660.090
168.998, 1210.735
170.380, 1883.859
171.761, 2996.341
173.142, 3959.099
174.523, 5069.067
175.904, 5559.270
177.284, 5426.411
178.664, 5010.116
180.044, 4009.485
181.424, 2920.444
182.803, 2086.803
184.183, 1519.634
185.562, 1012.000
186.940, 579.970
188.319, 437.608
189.698, 352.963
191.076, 151.065
192.454, 188.942
193.831, 139.617
195.209, 111.116
196.586, 89.459
197.963, 116.663
199.340, 123.735
200.717, 110.688
202.093, 178.530
203.470, 180.269
204.846, 376.242
206.221, 356.721
207.597, 580.536
208.972, 819.766
210.347, 1165.182
211.722, 1529.331
213.097, 1986.891
214.472, 2822.974
215.846, 3573.104
217.220, 4491.281
218.594, 5272.494
219.967, 5705.733
221.341, 5868.988
222.714, 5542.289
224.087, 5055.755
225.460, 4410.383
226.832, 3712.150
228.204, 3057.133
229.577, 2596.251
230.948, 2125.467
232.320, 1788.748
233.692, 1387.042
235.063, 1096.349
236.434, 922.698
237.805, 705.070
239.175, 482.481
240.545, 469.948
241.916, 450.519
243.286, 387.156
244.655, 343.813
246.025, 337.488
247.394, 425.169
248.763, 387.853
250.132, 404.537
251.501, 322.219
252.869, 291.898
254.237, 224.573
255.605, 150.244
256.973, 169.909
258.340, 468.567
259.708, 241.169
261.075, 417.844
262.442, 2.450
263.808, 19.969
265.175, 110.412
266.541, 7.879
267.907, 72.371
269.273, 42.884
270.639, 123.420
272.004, 75.978
273.369, 124.559
274.734, 104.162
276.099, 21.787
277.463, 31.434
278.828, 6.104
280.192, 106.206
281.556, 114.493
282.919, 214.758
284.283, 365.001
285.646, 463.223
287.009, 567.417
288.372, 615.521
289.734, 552.521
291.097, 585.398
292.459, 513.125
293.821, 401.715
295.183, 511.247
296.544, 430.722
297.905, 471.976
299.266, 509.016
300.627, 410.529
301.988, 512.824
303.348, 435.664
304.709, 495.233
306.069, 650.745
307.428, 327.043
308.788, 247.906
310.147, 213.194
311.507, 218.693
312.865, 169.773
314.224, 192.491
315.583, 190.988
316.941, 195.010
318.299, 227.769
319.657, 248.392
321.015, 297.090
322.372, 356.845
323.729, 420.054
325.086, 587.032
326.443, 733.066
327.800, 940.332
329.156, 1050.580
330.512, 1152.047
331.868, 1152.708
333.224, 1156.491
334.579, 1206.720
335.935, 1250.080
337.290, 1352.208
338.645, 1364.814
339.999, 1432.912
341.354, 1452.143
342.708, 1461.304
344.062, 1440.426
345.416, 1545.158
346.769, 1470.836
348.123, 1428.479
349.476, 1507.090
350.829, 1373.671
352.182, 1410.222
353.534, 1391.745
354.887, 1473.242
356.239, 1601.711
357.591, 1691.156
358.942, 2038.576
360.294, 2489.971
361.645, 3043.343
362.996, 3849.692
364.347, 4660.017
365.698, 5294.321
367.048, 5768.601
368.398, 5692.849
369.748, 5216.949
371.098, 4488.946
372.448, 3769.783
373.797, 3095.442
375.146, 2597.981
376.495, 2270.459
377.844, 2012.930
379.192, 1882.393
380.540, 1839.849
381.889, 1937.298
383.236, 2070.739
384.584, 2334.171
385.932, 2649.595
387.279, 3101.012
388.626, 3471.417
389.973, 3717.812
391.319, 3818.194
392.666, 3693.565
394.012, 3293.923
395.358, 2797.269
396.704, 2341.600
398.049, 1872.917
399.394, 1514.221
400.740, 1284.511
402.084, 1117.787
403.429, 1007.049
404.774, 1108.295
406.118, 1093.526
407.462, 1124.741
408.806, 1210.941
410.150, 1306.125
411.493, 1335.294
412.836, 1332.660
414.179, 1301.582
415.522, 1215.702
416.865, 1130.806
418.207, 973.893
419.549, 864.965
420.891, 730.020
422.233, 667.058
423.575, 474.080
424.916, 375.257
426.257, 393.997
427.598, 279.033
428.939, 371.618
430.279, 332.188
431.619, 414.379
432.959, 315.092
434.299, 427.730
435.639, 410.991
436.978, 380.647
438.318, 289.418
439.657, 283.591
440.996, 191.985
442.334, 147.000
443.673, 27.846
445.011, 69.616
446.349, 11.371
447.687, 37.104
449.024, 43.180
450.361, 96.502
451.699, 28.817
453.036, 18.180
454.372, 30.497
455.709, 39.907
457.045, 20.657
458.381, 67.200
459.717, 16.277
461.053, 1.804
462.388, 8.364
463.724, 23.502
465.059, 47.613
466.394, 1.691
467.728, 37.043
469.063, 0.158
470.397, 3.315
471.731, 68.561
473.065, 26.500
474.398, 35.521
475.732, 28.476
477.065, 75.481
478.398, 107.422
479.731, 641.350
481.063, 329.961
482.396, 572.174
483.728, 4.070
485.060, 127.949
486.391, 120.827
487.723, 69.715
489.054, 76.582
490.385, 0.456
491.716, 29.295
493.047, 4.886
494.377, 44.071
495.708, 12.704
497.038, 17.534
498.368, 29.185
499.697, 100.879
501.027, 63.558
502.356, 72.213
503.685, 71.876
505.014, 155.518
506.342, 194.140
507.671, 201.752
508.999, 289.346
510.327, 266.925
511.655, 302.490
512.982, 416.036
514.310, 360.564
515.637, 508.074
516.964, 551.570
518.291, 526.050
519.617, 561.515
520.944, 631.964
522.270, 545.403
523.596, 499.826
524.921, 560.229
526.247, 577.615
527.572, 578.983
528.897, 577.333
530.222, 647.667
531.547, 572.982
532.871, 628.282
534.196, 553.567
535.520, 610.837
536.844, 431.092
538.167, 473.332
539.491, 424.558
540.814, 489.769
542.137, 464.966
543.460, 360.146
544.783, 436.313
546.105, 343.465
547.427, 474.602
548.749, 384.724
550.071, 318.831
551.393, 243.923
552.714, 230.852
554.035, 216.810
555.356, 264.109
556.677, 224.143
557.998, 316.160
559.318, 284.164
560.638, 234.152
561.958, 281.125
563.278, 260.084
564.597, 273.029
565.917, 307.958
567.236, 173.873
568.555, 236.773
569.874, 159.659
571.192, 250.530
572.511, 236.386
573.829, 226.229
575.147, 350.056
576.464, 209.869
577.782, 291.668
579.099, 248.452
580.416, 242.223
581.733, 271.979
583.050, 200.721
584.366, 305.453
585.683, 271.181
586.999, 105.930
588.315, 90.671
589.630, 163.422
590.946, 16.174
592.261, 17.946
593.576, 71.724
594.891, 37.523
596.206, 44.339
597.520, 36.150
598.834, 117.957
600.148, 85.756
601.462, 122.500
602.776, 138.926
604.089, 135.509
605.402, 166.303
606.715, 134.343
608.028, 155.548
609.341, 125.989
610.653, 142.072
611.965, 107.813
613.277, 195.671
614.589, 174.025
615.901, 145.661
617.212, 227.139
618.523, 278.072
619.834, 176.896
621.145, 326.208
622.456, 246.650
623.766, 398.572
625.076, 446.522
626.386, 383.238
627.696, 477.113
629.006, 558.190
630.315, 550.683
631.624, 578.637
632.933, 531.677
634.242, 686.942
635.551, 640.715
636.859, 877.952
638.167, 995.259
639.475, 1109.605
640.783, 1207.870
642.090, 1497.199
643.398, 1805.808
644.705, 2040.034
646.012, 2360.294
647.318, 2776.046
648.625, 3163.923
649.931, 3514.657
651.237, 3900.607
652.543, 4080.796
653.849, 4363.761
655.155, 4461.419
656.460, 4641.206
657.765, 4922.553
659.070, 5372.434
660.375, 5939.343
661.679, 7029.246
662.984, 8359.626
664.288, 10401.694
665.592, 13032.100
666.895, 16153.131
668.199, 19944.236
669.502, 22914.463
670.805, 25204.855
672.108, 24955.107
673.411, 23685.898
674.713, 19926.797
676.016, 16667.314
677.318, 13238.066
678.620, 10450.036
679.921, 8150.289
681.223, 6320.399
682.524, 5050.500
683.825, 4120.591
685.126, 3420.811
686.427, 2930.882
687.727, 2428.967
689.028, 2212.019
690.328, 1821.060
691.628, 1628.140
692.927, 1481.232
694.227, 1200.245
695.526, 1161.368
696.825, 1076.361
698.124, 895.346
699.423, 898.321
700.721, 746.288
702.020, 788.244
703.318, 709.192
704.616, 600.131
705.913, 565.060
707.211, 435.981
708.508, 518.893
709.805, 402.796
711.102, 443.690
712.399, 293.577
713.695, 378.454
714.992, 314.323
716.288, 248.184
717.584, 344.037
718.879, 304.880
720.175, 314.717
721.470, 180.544
722.765, 260.364
724.060, 217.176
725.355, 257.980
726.649, 315.776
727.944, 331.565
729.238, 299.346
730.532, 297.120
731.825, 233.885
733.119, 347.644
734.412, 353.396
735.705, 206.140
736.998, 338.876
738.291, 337.606
739.584, 342.329
740.876, 483.044
742.168, 527.753
743.460, 662.315
744.752, 808.807
746.043, 850.495
747.334, 829.572
748.626, 915.669
749.916, 790.061
751.207, 795.305
752.498, 654.570
753.788, 635.797
755.078, 487.360
756.368, 424.783
757.658, 362.354
758.947, 272.977
760.237, 285.596
761.526, 220.213
762.815, 108.828
764.104, 118.456
765.392, 261.065
766.680, 80.698
767.969, 142.272
769.257, 120.909
770.544, 103.559
771.832, 18.207
773.119, 48.849
774.406, 10.502
775.693, 72.137
776.980, 50.781
778.267, 50.434
779.553, 64.275
780.839, 15.769
782.125, 56.447
783.411, 54.128
784.697, 70.810
785.982, 6.488
787.267, 11.826
788.552, 7.915
789.837, 3.378
791.122, 9.683
792.406, 7.000
793.690, 40.331
794.974, 6.693
796.258, 47.068
797.542, 63.473
798.825, 105.919
800.108, 10.570
801.391, 101.944
802.674, 51.478
803.957, 13.098
805.239, 114.685
806.522, 62.331
807.804, 55.002
809.085, 92.296
810.367, 12.603
811.649, 17.095
812.930, 72.191
814.211, 108.523
815.492, 62.697
816.772, 29.917
818.053, 26.870
819.333, 21.323
820.613, 9.489
821.893, 11.314
823.173, 54.849
824.452, 11.008
825.732, 42.161
827.011, 6.688
828.290, 9.371
829.568, 1.422
830.847, 7.301
832.125, 30.189
833.403, 23.902
834.681, 88.990
835.959, 103.074
837.236, 110.156
838.514, 19.234
839.791, 66.310
841.068, 45.383
842.345, 55.458
843.621, 51.532
844.898, 37.604
846.174, 31.675
847.450, 120.741
848.726, 18.807
850.001, 56.869
851.277, 157.929
852.552, 195.986
853.827, 209.042
855.102, 241.096
856.376, 204.149
857.651, 231.161
858.925, 284.260
860.199, 239.318
861.473, 218.389
862.746, 206.828
864.020, 407.532
865.293, 265.604
866.566, 289.678
867.839, 422.749
869.112, 283.821
870.384, 267.894
871.656, 226.984
872.928, 316.074
874.200, 116.167
875.472, 337.259
876.744, 266.350
878.015, 217.440
879.286, 385.533
880.557, 328.625
881.828, 370.720
883.098, 288.835
884.369, 368.950
885.639, 354.905
886.909, 294.184
888.178, 389.299
889.448, 350.417
890.717, 380.534
891.987, 418.653
893.256, 245.777
894.524, 323.909
895.793, 284.053
897.061, 238.197
898.330, 323.343
899.598, 357.513
900.865, 317.685
902.133, 288.882
903.401, 432.081
904.668, 279.294
905.935, 295.510
907.202, 400.727
908.468, 364.943
909.735, 418.162
911.001, 368.382
912.267, 529.600
913.533, 505.820
914.799, 580.042
916.064, 560.272
917.330, 598.505
918.595, 777.748
919.860, 756.996
921.124, 876.245
922.389, 855.495
923.653, 1264.746
924.918, 1263.741
926.182, 1422.869
927.445, 1561.006
928.709, 1730.234
929.972, 1789.377
931.236, 1618.520
932.499, 1527.724
933.761, 1396.726
935.024, 1095.899
936.286, 1075.064
937.549, 1014.302
938.811, 982.718
940.073, 987.744
941.334, 1070.696
942.596, 1019.292
943.857, 1057.549
945.118, 1095.955
946.379, 1262.312
947.640, 1170.742
948.900, 1176.689
950.161, 841.615
951.421, 863.887
952.681, 782.899
953.940, 755.442
955.200, 624.633
956.459, 532.769
957.719, 414.554
958.978, 373.529
960.236, 325.204
961.495, 322.098
962.753, 323.546
964.012, 301.531
965.270, 290.823
966.527, 333.116
967.785, 322.405
969.043, 291.565
970.300, 279.043
971.557, 238.179
972.814, 236.683
974.071, 225.108
975.327, 194.402
976.583, 173.520
977.840, 262.771
979.095, 221.483
980.351, 210.077
981.607, 279.044
982.862, 147.926
984.117, 345.428
985.372, 224.854
986.627, 234.200
987.882, 333.550
989.136, 262.903
990.390, 202.139
991.644, 241.716
992.898, 242.481
994.152, 351.952
995.405, 241.516
996.659, 281.083
997.912, 360.409
999.165, 350.043
1000.417, 609.328
1001.670, 578.735
1002.922, 688.230
1004.174, 717.645
1005.426, 517.243
1006.678, 516.664
1007.930, 716.089
1009.181, 678.095
1010.432, 767.563
1011.683, 820.306
1012.934, 839.745
1014.185, 970.678
1015.435, 1020.123
1016.685, 969.941
1017.935, 1169.432
1019.185, 1279.477
1020.435, 1598.942
1021.684, 1803.295
1022.934, 2142.764
1024.183, 2702.945
1025.432, 3072.618
1026.680, 3242.094
1027.929, 3346.804
1029.177, 3291.769
1030.425, 3071.645
1031.673, 2701.699
1032.921, 2236.076
1034.169, 2085.854
1035.416, 1685.816
1036.663, 1485.694
1037.911, 1495.205
1039.157, 1205.215
1040.404, 1404.850
1041.650, 1404.828
1042.897, 1495.225
1044.143, 1596.965
1045.389, 1528.782
1046.634, 1858.585
1047.880, 2158.537
1049.125, 2383.591
1050.371, 2923.125
1051.615, 3227.613
1052.860, 3687.870
1054.105, 4349.976
1055.349, 4679.522
1056.593, 5049.068
1057.837, 4728.625
1059.081, 4748.180
1060.325, 4447.729
1061.568, 4097.299
1062.812, 3907.174
1064.055, 3637.100
1065.298, 3848.624
1066.540, 3568.184
1067.783, 3470.551
1069.025, 3161.197
1070.267, 2930.751
1071.509, 2420.511
1072.751, 2180.276
1073.993, 1889.884
1075.234, 1559.763
1076.475, 1399.361
1077.716, 1199.097
1078.957, 1198.852
1080.198, 1138.429
1081.438, 918.207
1082.679, 967.825
1083.919, 877.406
1085.159, 686.987
1086.398, 736.564
1087.638, 706.505
1088.877, 576.556
1090.116, 456.321
1091.355, 455.905
1092.594, 425.743
1093.833, 485.356
1095.071, 474.943
1096.309, 414.538
1097.547, 414.130
1098.785, 413.986
1100.023, 333.603
1101.260, 353.312
1102.498, 352.952
1103.735, 332.613
1104.972, 442.905
1106.208, 352.563
1107.445, 252.245
1108.681, 402.290
1109.918, 201.995
1111.154, 221.693
1112.389, 341.479
1113.625, 241.195
1114.860, 271.209
1116.096, 250.927
1117.331, 260.988
1118.566, 225.957
1119.800, 160.488
1121.035, 140.223
1122.269, 150.093
1123.503, 109.811
1124.737, 137.809
1125.971, 89.220
1127.205, 158.914
1128.438, 148.603
1129.671, 108.286
1130.904, 27.963
1132.137, 77.934
1133.370, 17.603
1134.602, 117.299
1135.834, 76.953
1137.066, 136.597
1138.298, 110.483
1139.530, 30.107
1140.762, 30.279
1141.993, 59.770
1143.224, 39.403
1144.455, 29.334
1145.686, 158.975
1146.917, 28.516
1148.147, 98.551
1149.377, 108.202
1150.607, 67.773
1151.837, 177.600
1153.067, 47.080
1154.296, 126.996
1155.526, 126.790
1156.755, 43.497
1157.984, 85.908
1159.213, 54.227
1160.441, 215.714
1161.670, 24.409
1162.898, 124.898
1164.126, 16.745
1165.354, 96.021
1166.581, 4.717
1167.809, 115.166
1169.036, 75.495
1170.263, 143.673
1171.490, 6.586
1172.717, 62.546
1173.943, 152.058
1175.170, 61.446
1176.396, 0.528
1177.622, 19.706
1178.848, 1.158
1180.073, 71.981
1181.299, 47.214
1182.524, 6.154
1183.749, 25.124
1184.974, 114.544
1186.199, 3.723
1187.423, 99.098
1188.648, 18.580
1189.872, 2.602
1191.096, 23.640
1192.320, 24.487
1193.543, 64.227
1194.767, 37.763
1195.990, 73.081
1197.213, 155.715
1198.436, 62.205
1199.659, 6.635
1200.881, 23.450
1202.104, 185.114
1203.326, 333.637
1204.548, 364.969
1205.770, 373.361
1206.991, 310.665
1208.213, 365.431
1209.434, 83.762
1210.655, 72.447
1211.876, 8.635
1213.096, 189.610
1214.317, 21.523
1215.537, 6.744
1216.757, 185.046
1217.977, 114.245
1219.197, 112.670
1220.417, 151.372
1221.636, 93.638
1222.855, 163.154
1224.074, 131.866
1225.293, 131.902
1226.512, 231.455
1227.731, 132.886
1228.949, 170.967
1230.167, 189.173
1231.385, 188.163
1232.603, 216.202
1233.820, 94.569
1235.038, 76.713
1236.255, 144.543
1237.472, 202.889
1238.689, 121.087
1239.906, 298.832
1241.122, 207.637
1242.338, 205.350
1243.555, 263.043
1244.771, 130.968
1245.986, 258.808
1247.202, 176.566
1248.417, 315.221
1249.633, 332.823
1250.848, 60.409
1252.063, 198.503
1253.277, 316.048
1254.492, 113.934
1255.706, 361.441
1256.920, 218.930
1258.134, 176.646
1259.348, 194.073
1260.562, 121.647
1261.775, 351.282
1262.988, 118.644
1264.201, 322.071
1265.414, 199.558
1266.627, 206.852
1267.839, 174.461
1269.052, 381.707
1270.264, 218.925
1271.476, 296.120
1272.688, 283.383
1273.899, 250.727
1275.111, 247.862
1276.322, 334.950
1277.533, 141.966
1278.744, 319.057
1279.955, 205.860
1281.165, 243.675
1282.376, 270.644
1283.586, 22.453
1284.796, 354.415
1286.006, 281.050
1287.215, 106.421
1288.425, 203.088
1289.634, 129.616
1290.843, 196.062
1292.052, 262.688
1293.261, 99.055
1294.469, 185.596
1295.678, 202.104
1296.886, 138.501
1298.094, 254.957
1299.302, 111.199
1300.509, 137.560
1301.717, 153.878
1302.924, 237.565
1304.131, 103.736
1305.338, 86.602
1306.545, 92.740
1307.752, 297.324
1308.958, 3.364
1310.164, 308.997
1311.370, 314.931
1312.576, 80.284
1313.782, 186.179
1314.987, 227.159
1316.193, 82.991
1317.398, 308.082
1318.603, 113.649
1319.807, 139.385
1321.012, 304.852
1322.216, 179.928
1323.421, 185.076
1324.625, 170.015
1325.829, 146.817
1327.032, 275.744
1328.236, 190.670
1329.439, 85.647
1330.642, 130.945
1331.845, 64.290
1333.048, 70.813
1334.251, 205.539
1335.453, 159.812
1336.656, 102.705
1337.858, 225.484
1339.060, 39.755
1340.261, 84.819
1341.463, 144.260
1342.664, 20.815
1343.866, 109.123
1345.067, 13.260
1346.267, 155.513
1347.468, 160.289
1348.669, 14.967
1349.869, 189.734
1351.069, 134.409
1352.269, 50.946
1353.469, 333.650
1354.668, 87.911
1355.868, 52.094
1357.067, 264.651
1358.266, 49.145
1359.465, 150.808
1360.664, 134.165
1361.862, 18.594
1363.061, 92.793
1364.259, 46.968
1365.457, 38.718
1366.655, 5.181
1367.852, 39.609
1369.050, 16.234
1370.247, 27.896
1371.444, 27.511
1372.641, 126.603
1373.838, 91.087
1375.035, 15.365
1376.231, 119.561
1377.427, 53.695
1378.623, 41.087
1379.819, 154.723
1381.015, 50.383
1382.211, 66.287
1383.406, 361.891
1384.601, 17.649
1385.796, 183.438
1386.991, 288.505
1388.185, 103.833
1389.380, 119.498
1390.574, 134.996
1391.768, 20.210
1392.962, 345.313
1394.156, 220.684
1395.350, 55.902
1396.543, 301.251
1397.736, 76.561
1398.929, 181.831
1400.122, 266.705
1401.315, 101.849
1402.507, 221.835
1403.700, 116.892
1404.892, 8.713
1406.084, 335.716
1407.276, 69.970
1408.467, 114.686
1409.659, 189.130
1410.850, 72.937
1412.041, 217.385
1413.232, 160.766
1414.423, 194.820
1415.614, 126.092
1416.804, 99.900
1417.994, 144.430
1419.184, 228.293
1420.374, 121.974
1421.564, 136.434
1422.753, 290.681
1423.943, 24.987
1425.132, 298.769
1426.321, 263.019
1427.510, 136.503
1428.698, 290.091
1429.887, 186.920
1431.075, 150.258
1432.263, 428.525
1433.451, 150.438
1434.639, 329.818
1435.827, 293.819
1437.014, 239.267
1438.201, 361.679
1439.388, 314.713
1440.575, 258.472
1441.762, 500.113
1442.949, 395.307
1444.135, 355.199
1445.321, 622.169
1446.507, 308.875
1447.693, 529.722
1448.879, 621.862
1450.064, 446.448
1451.250, 587.631
1452.435, 498.494
1453.620, 361.499
1454.805, 713.472
1455.989, 673.706
1457.174, 416.360
1458.358, 777.682
1459.542, 409.247
1460.726, 580.930
1461.910, 632.779
1463.093, 519.269
1464.277, 615.107
1465.460, 465.674
1466.643, 177.002
1467.826, 677.957
1469.009, 338.431
1470.191, 469.077
1471.373, 599.727
1472.556, 417.865
1473.738, 388.485
1474.919, 559.061
1476.101, 229.642
1477.283, 320.238
1478.464, 500.826
1479.645, 101.397
1480.826, 401.811
1482.007, 282.384
1483.187, 233.156
1484.368, 433.973
1485.548, 164.979
1486.728, 235.949
1487.908, 376.852
1489.088, 177.682
1490.268, 228.449
1491.447, 349.239
1492.626, 50.806
1493.805, 202.410
1494.984, 94.102
1496.163, 155.954
1497.341, 368.003
1498.520, 120.204
1499.698, 102.588
1500.876, 235.198
1502.054, 98.044
1503.232, 61.142
1504.409, 134.556
1505.586, 78.387
1506.763, 182.629
1507.940, 87.335
1509.117, 82.576
1510.294, 398.454
1511.470, 95.100
1512.647, 7.325
1513.823, 331.376
1514.999, 1.488
1516.174, 329.762
1517.350, 158.509
1518.526, 0.000
##END=



