##NAMES=Actinolite
##RRUFFID=R050025
##IDEAL CHEMISTRY=Ca_2_(Mg_4.5-2.5_Fe^2+^_0.5-2.5_)Si_8_O_22_(OH)_2_
##LOCALITY=Tyrol, Austria
##OWNER=RRUFF
##SOURCE=Eugene Schlepp
##DESCRIPTION=Green colored bladed single crystals
##STATUS=The identification of this mineral has been confirmed by X-ray diffraction and chemical analysis
##URL=rruff.info/R050025
##MEASURED CHEMISTRY=(Ca_.930_Na_.056_Mn_.010_K_.004_)_2_(Mg_.883_Fe_.117_)_5_(Si_.978_Al_.022_)_8_O_22_(OH)_2_
##PIN_ID=L00067
##ORIENTATION=Laser parallel to (1 0 1). Fiducial mark perpendicular to laser is parallel to -b [0 -1 0]
82.916, 0.000
84.311, 34.893
85.706, 2.540
87.101, 70.491
88.496, 21.141
89.890, 299.622
91.284, 348.209
92.678, 285.211
94.071, 258.890
95.465, 210.824
96.858, 158.792
98.251, 235.812
99.644, 322.326
101.036, 244.016
102.428, 191.897
103.820, 313.973
105.212, 411.236
106.604, 662.693
107.995, 526.480
109.387, 628.608
110.777, 897.009
112.168, 1200.457
113.559, 1638.070
114.949, 1738.830
116.339, 1863.943
117.729, 1616.256
119.119, 1310.742
120.508, 1105.382
121.897, 905.157
123.286, 756.051
124.675, 484.051
126.063, 348.142
127.452, 281.314
128.840, 249.560
130.228, 179.461
131.615, 185.400
133.003, 87.890
134.390, 15.268
135.777, 10.545
137.164, 81.739
138.550, 135.865
139.937, 135.933
141.323, 8.053
142.709, 57.915
144.094, 103.154
145.480, 5.750
146.865, 8.367
148.250, 29.500
149.635, 75.352
151.019, 130.187
152.403, 341.005
153.788, 689.807
155.171, 1112.590
156.555, 1697.354
157.939, 2322.100
159.322, 2951.826
160.705, 2994.532
162.088, 2725.219
163.470, 2338.883
164.853, 1966.528
166.235, 1846.146
167.617, 2006.731
168.998, 2454.292
170.380, 3096.840
171.761, 4227.378
173.142, 5764.909
174.523, 7960.438
175.904, 10868.229
177.284, 12894.136
178.664, 13778.707
180.044, 12441.021
181.424, 10031.500
182.803, 7525.087
184.183, 5509.597
185.562, 4259.151
186.940, 3301.750
188.319, 2786.415
189.698, 2278.170
191.076, 1983.014
192.454, 1825.988
193.831, 1661.985
195.209, 1598.017
196.586, 1474.051
197.963, 1493.079
199.340, 1498.128
200.717, 1619.234
202.093, 1627.381
203.470, 1772.590
204.846, 2018.912
206.221, 2091.290
207.597, 2470.713
208.972, 2751.179
210.347, 3294.722
211.722, 3871.277
213.097, 4676.829
214.472, 6085.361
215.846, 7593.873
217.220, 9814.359
218.594, 12108.826
219.967, 14988.271
221.341, 17062.693
222.714, 17472.098
224.087, 16546.469
225.460, 14347.826
226.832, 11669.164
228.204, 8965.477
229.577, 6849.769
230.948, 5283.041
232.320, 4020.289
233.692, 3063.516
235.063, 2349.721
236.434, 1780.904
237.805, 1425.065
239.175, 1061.206
240.545, 835.323
241.916, 641.420
243.286, 553.494
244.655, 557.546
246.025, 526.576
247.394, 484.584
248.763, 468.240
250.132, 533.021
251.501, 460.874
252.869, 476.937
254.237, 522.093
255.605, 354.324
256.973, 309.616
258.340, 298.958
259.708, 178.340
261.075, 149.756
262.442, 223.202
263.808, 227.792
265.175, 155.271
266.541, 64.824
267.907, 76.672
269.273, 0.816
270.639, 137.688
272.004, 72.224
273.369, 18.776
274.734, 82.333
276.099, 111.912
277.463, 74.519
278.828, 49.748
280.192, 61.014
281.556, 89.475
282.919, 239.136
284.283, 301.812
285.646, 516.770
287.009, 725.701
288.372, 842.606
289.734, 853.628
291.097, 880.374
292.459, 893.005
293.821, 785.300
295.183, 831.918
296.544, 822.758
297.905, 961.708
299.266, 1099.491
300.627, 1134.360
301.988, 1157.029
303.348, 1153.960
304.709, 1043.365
306.069, 923.198
307.428, 737.437
308.788, 590.661
310.147, 481.993
311.507, 400.636
312.865, 300.465
314.224, 286.407
315.583, 264.141
316.941, 187.083
318.299, 283.428
319.657, 297.737
321.015, 318.072
322.372, 419.626
323.729, 394.051
325.086, 578.683
326.443, 722.533
327.800, 1000.741
329.156, 1170.672
330.512, 1459.797
331.868, 1613.375
333.224, 1595.376
334.579, 1564.880
335.935, 1449.297
337.290, 1504.815
338.645, 1561.344
339.999, 1682.642
341.354, 1894.782
342.708, 1940.376
344.062, 2258.848
345.416, 2390.265
346.769, 2483.671
348.123, 2732.064
349.476, 2737.447
350.829, 3011.818
352.182, 2882.177
353.534, 2856.522
354.887, 2728.855
356.239, 2639.175
357.591, 2662.479
358.942, 2612.771
360.294, 2939.048
361.645, 3163.311
362.996, 3861.558
364.347, 4878.791
365.698, 6020.009
367.048, 7565.211
368.398, 8451.396
369.748, 8853.568
371.098, 8082.721
372.448, 6884.859
373.797, 5548.978
375.146, 4361.082
376.495, 3666.166
377.844, 2977.233
379.192, 2445.283
380.540, 2214.315
381.889, 1914.331
383.236, 1829.329
384.584, 1628.309
385.932, 1671.271
387.279, 1812.216
388.626, 1849.144
389.973, 2028.054
391.319, 2112.947
392.666, 2452.822
394.012, 2237.680
395.358, 2055.520
396.704, 1676.342
398.049, 1247.147
399.394, 925.935
400.740, 643.705
402.084, 669.458
403.429, 428.192
404.774, 470.910
406.118, 392.609
407.462, 334.292
408.806, 388.956
410.150, 381.604
411.493, 414.282
412.836, 527.898
414.179, 528.497
415.522, 551.088
416.865, 488.652
418.207, 458.314
419.549, 400.841
420.891, 406.348
422.233, 369.835
423.575, 279.302
424.916, 195.864
426.257, 256.464
427.598, 211.876
428.939, 248.453
430.279, 285.191
431.619, 388.536
432.959, 491.667
434.299, 580.114
435.639, 586.536
436.978, 429.237
438.318, 435.581
439.657, 262.533
440.996, 217.013
442.334, 148.503
443.673, 102.244
445.011, 100.104
446.349, 50.928
447.687, 3.450
449.024, 57.753
450.361, 44.029
451.699, 9.583
453.036, 10.502
454.372, 34.415
455.709, 10.671
457.045, 27.502
458.381, 13.604
459.717, 90.877
461.053, 55.765
462.388, 43.378
463.724, 91.965
465.059, 14.526
466.394, 0.055
467.728, 20.546
469.063, 65.006
470.397, 35.464
471.731, 21.892
473.065, 46.292
474.398, 34.669
475.732, 29.983
477.065, 32.318
478.398, 10.591
479.731, 24.167
481.063, 8.977
482.396, 12.828
483.728, 106.685
485.060, 54.366
486.391, 18.596
487.723, 40.580
489.054, 23.379
490.385, 24.072
491.716, 0.213
493.047, 6.924
494.377, 63.102
495.708, 14.348
497.038, 50.383
498.368, 47.095
499.697, 71.807
501.027, 86.513
502.356, 199.210
503.685, 217.924
505.014, 275.627
506.342, 310.310
507.671, 423.179
508.999, 565.617
510.327, 702.244
511.655, 896.851
512.982, 1107.440
514.310, 1157.021
515.637, 1233.583
516.964, 1304.133
518.291, 1225.662
519.617, 1231.175
520.944, 1292.667
522.270, 1065.142
523.596, 1008.602
524.921, 1123.041
526.247, 1286.484
527.572, 1423.912
528.897, 1313.320
530.222, 1334.714
531.547, 1277.104
532.871, 1121.472
534.196, 950.819
535.520, 942.148
536.844, 846.458
538.167, 789.750
539.491, 637.021
540.814, 606.272
542.137, 544.502
543.460, 545.709
544.783, 446.896
546.105, 362.062
547.427, 365.207
548.749, 308.330
550.071, 351.432
551.393, 336.513
552.714, 344.572
554.035, 249.610
555.356, 294.627
556.677, 259.622
557.998, 319.597
559.318, 214.549
560.638, 211.480
561.958, 220.390
563.278, 216.278
564.597, 266.146
565.917, 288.992
567.236, 221.816
568.555, 319.620
569.874, 180.401
571.192, 238.161
572.511, 210.900
573.829, 188.542
575.147, 248.313
576.464, 161.988
577.782, 282.640
579.099, 215.271
580.416, 233.880
581.733, 274.468
583.050, 161.036
584.366, 146.458
585.683, 185.979
586.999, 141.419
588.315, 145.897
589.630, 9.377
590.946, 71.833
592.261, 27.306
593.576, 92.775
594.891, 30.230
596.206, 17.314
597.520, 56.135
598.834, 91.584
600.148, 94.010
601.462, 44.221
602.776, 25.211
604.089, 26.321
605.402, 78.096
606.715, 120.746
608.028, 120.696
609.341, 87.292
610.653, 147.057
611.965, 138.910
613.277, 121.076
614.589, 222.929
615.901, 141.513
617.212, 233.615
618.523, 344.647
619.834, 267.157
621.145, 422.466
622.456, 258.128
623.766, 370.990
625.076, 380.181
626.386, 437.217
627.696, 577.366
629.006, 604.625
630.315, 758.821
631.624, 764.001
632.933, 852.162
634.242, 1038.962
635.551, 1105.270
636.859, 1272.153
638.167, 1477.975
639.475, 1680.709
640.783, 1844.285
642.090, 2187.029
643.398, 2628.472
644.705, 2962.413
646.012, 3640.147
647.318, 4260.846
648.625, 4983.988
649.931, 5888.324
651.237, 6668.281
652.543, 7303.583
653.849, 7811.053
655.155, 8270.649
656.460, 8537.170
657.765, 8537.959
659.070, 8797.738
660.375, 9292.293
661.679, 10209.616
662.984, 11660.366
664.288, 13520.147
665.592, 16505.969
666.895, 20644.264
668.199, 25915.963
669.502, 32262.893
670.805, 38119.145
672.108, 41571.840
673.411, 42050.137
674.713, 36660.660
676.016, 30829.715
677.318, 23805.105
678.620, 18526.213
679.921, 14292.791
681.223, 11124.055
682.524, 8988.095
683.825, 7270.460
685.126, 6224.829
686.427, 5336.931
687.727, 4707.408
689.028, 4179.735
690.328, 3777.985
691.628, 3416.530
692.927, 3022.930
694.227, 2700.684
695.526, 2420.925
696.825, 2159.173
698.124, 1923.189
699.423, 1669.187
700.721, 1529.241
702.020, 1454.204
703.318, 1225.148
704.616, 1085.077
705.913, 1012.987
707.211, 811.918
708.508, 913.794
709.805, 778.652
711.102, 763.495
712.399, 669.320
713.695, 579.127
714.992, 595.918
716.288, 473.693
717.584, 507.451
718.879, 492.192
720.175, 413.917
721.470, 350.626
722.765, 422.318
724.060, 319.994
725.355, 419.654
726.649, 335.251
727.944, 451.879
729.238, 348.492
730.532, 447.079
731.825, 366.660
733.119, 574.108
734.412, 497.658
735.705, 446.193
736.998, 669.712
738.291, 734.217
739.584, 635.591
740.876, 786.892
742.168, 779.345
743.460, 541.598
744.752, 699.856
746.043, 604.316
747.334, 665.238
748.626, 696.897
749.916, 576.882
751.207, 593.541
752.498, 417.647
753.788, 418.440
755.078, 226.367
756.368, 320.291
757.658, 270.994
758.947, 96.543
760.237, 103.089
761.526, 151.901
762.815, 60.890
764.104, 111.868
765.392, 166.697
766.680, 185.782
767.969, 135.830
769.257, 119.822
770.544, 123.034
771.832, 114.125
773.119, 100.339
774.406, 107.573
775.693, 130.796
776.980, 109.011
778.267, 109.215
779.553, 128.412
780.839, 90.605
782.125, 2.791
783.411, 83.958
784.697, 45.117
785.982, 1.734
787.267, 90.396
788.552, 11.483
789.837, 38.628
791.122, 35.729
792.406, 50.821
793.690, 56.915
794.974, 135.994
796.258, 17.018
797.542, 40.948
798.825, 84.952
800.108, 45.993
801.391, 36.056
802.674, 1.862
803.957, 10.223
805.239, 8.675
806.522, 36.569
807.804, 77.525
809.085, 14.667
810.367, 95.830
811.649, 66.059
812.930, 49.547
814.211, 134.654
815.492, 20.060
816.772, 42.508
818.053, 30.064
819.333, 15.607
820.613, 4.861
821.893, 34.653
823.173, 1.156
824.452, 39.356
825.732, 19.096
827.011, 25.463
828.290, 50.951
829.568, 4.646
830.847, 70.742
832.125, 6.879
833.403, 16.518
834.681, 85.823
835.959, 89.845
837.236, 14.571
838.514, 44.683
839.791, 29.072
841.068, 51.853
842.345, 38.332
843.621, 51.507
844.898, 1.327
846.174, 4.868
847.450, 7.947
848.726, 32.223
850.001, 25.394
851.277, 89.556
852.552, 87.712
853.827, 55.861
855.102, 103.734
856.376, 108.142
857.651, 135.273
858.925, 73.398
860.199, 59.528
861.473, 155.653
862.746, 99.773
864.020, 242.889
865.293, 105.000
866.566, 218.117
867.839, 181.229
869.112, 252.336
870.384, 274.440
871.656, 222.540
872.928, 236.636
874.200, 312.730
875.472, 325.822
876.744, 345.910
878.015, 350.996
879.286, 383.077
880.557, 348.172
881.828, 400.263
883.098, 373.351
884.369, 635.438
885.639, 608.520
886.909, 642.607
888.178, 679.692
889.448, 621.779
890.717, 744.866
891.987, 696.949
893.256, 760.035
894.524, 707.117
895.793, 846.217
897.061, 737.316
898.330, 728.414
899.598, 776.518
900.865, 697.621
902.133, 721.727
903.401, 722.659
904.668, 786.024
905.935, 770.185
907.202, 751.346
908.468, 845.510
909.735, 931.673
911.001, 970.838
912.267, 1019.518
913.533, 1057.149
914.799, 1078.114
916.064, 1128.019
917.330, 1182.150
918.595, 1263.364
919.860, 1399.477
921.124, 1526.803
922.389, 1756.989
923.653, 1958.193
924.918, 2230.361
926.182, 2455.474
927.445, 2827.621
928.709, 3017.842
929.972, 3043.998
931.236, 3037.158
932.499, 2743.379
933.761, 2481.464
935.024, 2170.932
936.286, 1999.994
937.549, 1793.897
938.811, 1801.122
940.073, 1892.220
941.334, 1863.869
942.596, 1949.770
943.857, 2155.661
945.118, 2394.619
946.379, 2546.604
947.640, 2589.499
948.900, 2580.323
950.161, 2305.210
951.421, 2117.348
952.681, 2022.304
953.940, 1742.541
955.200, 1580.109
956.459, 1469.999
957.719, 1409.814
958.978, 1217.751
960.236, 1159.467
961.495, 1103.146
962.753, 985.748
964.012, 1073.239
965.270, 960.785
966.527, 1063.012
967.785, 1026.456
969.043, 891.463
970.300, 953.423
971.557, 909.331
972.814, 940.748
974.071, 761.751
975.327, 954.506
976.583, 978.924
977.840, 752.883
979.095, 896.225
980.351, 794.331
981.607, 799.888
982.862, 715.093
984.117, 711.575
985.372, 812.565
986.627, 705.856
987.882, 608.470
989.136, 621.632
990.390, 721.776
991.644, 718.176
992.898, 721.646
994.152, 744.791
995.405, 656.999
996.659, 756.266
997.912, 746.299
999.165, 824.965
1000.417, 843.982
1001.670, 888.128
1002.922, 933.782
1004.174, 953.154
1005.426, 1004.470
1006.678, 1084.102
1007.930, 1269.510
1009.181, 1178.924
1010.432, 1326.675
1011.683, 1497.258
1012.934, 1527.710
1014.185, 1622.669
1015.435, 1837.139
1016.685, 1994.943
1017.935, 2235.625
1019.185, 2441.252
1020.435, 2767.023
1021.684, 3099.538
1022.934, 3160.453
1024.183, 3541.578
1025.432, 3889.344
1026.680, 4155.281
1027.929, 4828.183
1029.177, 4673.750
1030.425, 4633.164
1031.673, 4235.740
1032.921, 3987.598
1034.169, 3489.453
1035.416, 3230.036
1036.663, 2918.618
1037.911, 3093.254
1039.157, 2949.968
1040.404, 3118.989
1041.650, 3186.021
1042.897, 3528.264
1044.143, 3785.979
1045.389, 4269.969
1046.634, 4814.777
1047.880, 5530.639
1049.125, 6499.080
1050.371, 7408.020
1051.615, 8861.980
1052.860, 9945.993
1054.105, 11584.843
1055.349, 12735.457
1056.593, 13733.518
1057.837, 13725.694
1059.081, 13686.328
1060.325, 12195.432
1061.568, 10973.592
1062.812, 9311.583
1064.055, 8368.638
1065.298, 7749.349
1066.540, 6839.248
1067.783, 6582.023
1069.025, 5825.650
1070.267, 5480.055
1071.509, 4688.674
1072.751, 4002.816
1073.993, 3539.601
1075.234, 3167.508
1076.475, 2592.644
1077.716, 2398.302
1078.957, 2179.164
1080.198, 1969.467
1081.438, 1913.076
1082.679, 1786.685
1083.919, 1601.939
1085.159, 1424.581
1086.398, 1327.781
1087.638, 1201.136
1088.877, 1124.904
1090.116, 1052.726
1091.355, 1064.371
1092.594, 1050.587
1093.833, 1134.503
1095.071, 834.134
1096.309, 821.307
1097.547, 880.965
1098.785, 763.921
1100.023, 930.021
1101.260, 751.705
1102.498, 574.628
1103.735, 657.355
1104.972, 648.148
1106.208, 537.077
1107.445, 640.247
1108.681, 472.401
1109.918, 626.596
1111.154, 569.281
1112.389, 566.102
1113.625, 519.915
1114.860, 549.646
1116.096, 481.635
1117.331, 521.139
1118.566, 330.892
1119.800, 359.170
1121.035, 344.211
1122.269, 276.359
1123.503, 375.710
1124.737, 263.429
1125.971, 174.237
1127.205, 370.950
1128.438, 245.662
1129.671, 294.829
1130.904, 223.715
1132.137, 167.741
1133.370, 85.745
1134.602, 123.555
1135.834, 29.319
1137.066, 220.518
1138.298, 178.419
1139.530, 262.465
1140.762, 9.880
1141.993, 91.856
1143.224, 165.098
1144.455, 167.761
1145.686, 146.301
1146.917, 87.318
1148.147, 43.842
1149.377, 108.039
1150.607, 4.761
1151.837, 96.574
1153.067, 102.293
1154.296, 24.271
1155.526, 244.270
1156.755, 136.285
1157.984, 48.877
1159.213, 39.018
1160.441, 190.836
1161.670, 3.828
1162.898, 198.143
1164.126, 41.581
1165.354, 60.707
1166.581, 77.452
1167.809, 44.979
1169.036, 137.660
1170.263, 28.123
1171.490, 1.300
1172.717, 68.437
1173.943, 29.173
1175.170, 40.854
1176.396, 144.736
1177.622, 57.718
1178.848, 130.482
1180.073, 60.891
1181.299, 62.811
1182.524, 157.075
1183.749, 25.877
1184.974, 120.386
1186.199, 10.506
1187.423, 31.557
1188.648, 30.868
1189.872, 0.998
1191.096, 110.857
1192.320, 60.584
1193.543, 92.637
1194.767, 81.226
1195.990, 1.715
1197.213, 65.257
1198.436, 60.761
1199.659, 136.021
1200.881, 5.579
1202.104, 234.759
1203.326, 55.744
1204.548, 28.552
1205.770, 169.027
1206.991, 52.687
1208.213, 39.885
1209.434, 50.443
1210.655, 35.231
1211.876, 149.816
1213.096, 16.163
1214.317, 135.238
1215.537, 197.401
1216.757, 23.233
1217.977, 226.685
1219.197, 48.842
1220.417, 134.350
1221.636, 105.303
1222.855, 51.410
1224.074, 165.135
1225.293, 115.859
1226.512, 28.280
1227.731, 225.246
1228.949, 198.677
1230.167, 48.825
1231.385, 296.563
1232.603, 68.290
1233.820, 103.355
1235.038, 155.966
1236.255, 21.176
1237.472, 331.191
1238.689, 66.824
1239.906, 138.546
1241.122, 250.846
1242.338, 76.146
1243.555, 214.539
1244.771, 136.771
1245.986, 105.718
1247.202, 283.897
1248.417, 153.345
1249.633, 202.799
1250.848, 186.907
1252.063, 154.992
1253.277, 97.213
1254.492, 100.509
1255.706, 96.131
1256.920, 283.218
1258.134, 192.170
1259.348, 198.969
1260.562, 383.868
1261.775, 167.739
1262.988, 58.774
1264.201, 246.586
1265.414, 97.367
1266.627, 153.219
1267.839, 126.972
1269.052, 77.667
1270.264, 245.586
1271.476, 207.666
1272.688, 256.146
1273.899, 298.596
1275.111, 120.008
1276.322, 187.144
1277.533, 151.448
1278.744, 155.797
1279.955, 202.644
1281.165, 210.833
1282.376, 110.875
1283.586, 180.997
1284.796, 144.085
1286.006, 248.584
1287.215, 218.162
1288.425, 95.134
1289.634, 118.226
1290.843, 107.763
1292.052, 115.602
1293.261, 156.535
1294.469, 138.487
1295.678, 30.616
1296.886, 148.978
1298.094, 10.406
1299.302, 21.725
1300.509, 21.019
1301.717, 87.501
1302.924, 126.946
1304.131, 103.325
1305.338, 61.833
1306.545, 43.365
1307.752, 17.998
1308.958, 53.916
1310.164, 221.168
1311.370, 20.972
1312.576, 155.088
1313.782, 113.734
1314.987, 75.399
1316.193, 129.576
1317.398, 85.760
1318.603, 83.263
1319.807, 88.551
1321.012, 60.834
1322.216, 110.413
1323.421, 30.110
1324.625, 122.602
1325.829, 240.776
1327.032, 145.913
1328.236, 192.280
1329.439, 130.603
1330.642, 161.833
1331.845, 164.942
1333.048, 98.707
1334.251, 22.418
1335.453, 193.881
1336.656, 52.815
1337.858, 83.437
1339.060, 266.194
1340.261, 109.860
1341.463, 122.899
1342.664, 249.400
1343.866, 39.161
1345.067, 203.193
1346.267, 218.669
1347.468, 26.667
1348.669, 93.520
1349.869, 165.540
1351.069, 22.930
1352.269, 226.097
1353.469, 98.023
1354.668, 189.085
1355.868, 264.044
1357.067, 233.314
1358.266, 108.360
1359.465, 158.651
1360.664, 103.903
1361.862, 196.344
1363.061, 132.540
1364.259, 54.185
1365.457, 167.155
1366.655, 123.484
1367.852, 245.055
1369.050, 201.077
1370.247, 49.125
1371.444, 128.207
1372.641, 39.214
1373.838, 125.790
1375.035, 161.502
1376.231, 23.979
1377.427, 71.345
1378.623, 172.806
1379.819, 106.425
1381.015, 290.336
1382.211, 136.743
1383.406, 110.396
1384.601, 369.722
1385.796, 200.794
1386.991, 173.318
1388.185, 292.886
1389.380, 50.776
1390.574, 244.335
1391.768, 138.777
1392.962, 132.188
1394.156, 323.578
1395.350, 281.387
1396.543, 169.927
1397.736, 145.509
1398.929, 90.639
1400.122, 154.284
1401.315, 297.791
1402.507, 38.319
1403.700, 279.593
1404.892, 280.810
1406.084, 164.615
1407.276, 387.110
1408.467, 214.750
1409.659, 186.699
1410.850, 201.476
1412.041, 199.042
1413.232, 134.820
1414.423, 308.069
1415.614, 91.663
1416.804, 212.772
1417.994, 369.871
1419.184, 35.901
1420.374, 392.314
1421.564, 162.494
1422.753, 44.340
1423.943, 220.685
1425.132, 238.834
1426.321, 188.815
1427.510, 280.494
1428.698, 72.949
1429.887, 172.247
1431.075, 240.589
1432.263, 1.581
1433.451, 224.298
1434.639, 219.184
1435.827, 130.754
1437.014, 164.962
1438.201, 45.628
1439.388, 174.914
1440.575, 186.276
1441.762, 35.521
1442.949, 200.988
1444.135, 218.496
1445.321, 212.816
1446.507, 171.001
1447.693, 212.643
1448.879, 227.808
1450.064, 210.891
1451.250, 137.983
1452.435, 43.620
1453.620, 172.645
1454.805, 60.890
1455.989, 234.769
1457.174, 166.239
1458.358, 6.818
1459.542, 419.594
1460.726, 212.276
1461.910, 170.100
1463.093, 312.383
1464.277, 156.566
1465.460, 121.143
1466.643, 234.812
1467.826, 137.498
1469.009, 333.558
1470.191, 332.369
1471.373, 262.312
1472.556, 295.196
1473.738, 297.484
1474.919, 226.425
1476.101, 444.914
1477.283, 192.591
1478.464, 276.575
1479.645, 271.775
1480.826, 128.819
1482.007, 175.463
1483.187, 302.967
1484.368, 225.325
1485.548, 245.663
1486.728, 413.751
1487.908, 191.412
1489.088, 344.264
1490.268, 195.241
1491.447, 190.736
1492.626, 315.623
1493.805, 96.581
1494.984, 147.544
1496.163, 326.534
1497.341, 151.632
1498.520, 257.821
1499.698, 444.100
1500.876, 64.558
1502.054, 322.271
1503.232, 172.201
1504.409, 214.367
1505.586, 421.724
1506.763, 284.375
1507.940, 8.454
1509.117, 296.749
