##NAMES=Actinolite
##RRUFFID=R040064
##IDEAL CHEMISTRY=Ca_2_(Mg_4.5-2.5_Fe^2+^_0.5-2.5_)Si_8_O_22_(OH)_2_
##LOCALITY=Ehime Perfecture, Uma Gun, Japan
##OWNER=RRUFF
##SOURCE=University of Arizona Mineral Museum
##DESCRIPTION=Aggregate of green acicular crystals associated with chlorite
##STATUS=The identification of this mineral has been confirmed by X-ray diffraction and chemical analysis
##URL=rruff.info/R040064
##MEASURED CHEMISTRY=(Ca_0.95_Na_0.04_Mn_0.01_)_2_(Mg_0.88_Fe_0.12_)_5_(Si_0.98_Al_0.02_)_8_O_22_(OH)_2_
##PIN_ID=M00297
##ORIENTATION=Laser parallel to c* (0 0 1). Fiducial mark perpendicular to laser is parallel to -b [0 -1 0]
96.858, 0.000
98.251, 56.146
99.644, 99.975
101.036, 10.185
102.428, 2.780
103.820, 79.268
105.212, 200.588
106.604, 367.583
107.995, 381.420
109.387, 480.474
110.777, 656.261
112.168, 735.405
113.559, 763.610
114.949, 944.634
116.339, 1032.272
117.729, 966.356
119.119, 721.736
120.508, 379.284
121.897, 300.886
123.286, 327.446
124.675, 161.881
126.063, 145.136
127.452, 61.175
128.840, 28.935
130.228, 114.358
131.615, 50.397
133.003, 93.009
134.390, 116.154
135.777, 146.800
137.164, 143.916
138.550, 172.175
139.937, 166.559
141.323, 211.773
142.709, 152.442
144.094, 173.440
145.480, 162.733
146.865, 279.312
148.250, 389.169
149.635, 784.296
151.019, 1347.681
152.403, 1911.316
153.788, 2633.291
155.171, 3071.824
156.555, 3673.597
157.939, 3952.555
159.322, 4086.694
160.705, 3758.008
162.088, 2827.495
163.470, 2158.148
164.853, 1637.965
166.235, 1581.940
167.617, 1713.071
168.998, 2092.353
170.380, 2557.783
171.761, 3174.357
173.142, 3677.073
174.523, 4229.924
175.904, 4517.913
177.284, 4607.035
178.664, 4290.288
180.044, 3510.626
181.424, 2665.929
182.803, 1940.212
184.183, 1400.502
185.562, 1129.816
186.940, 932.165
188.319, 808.560
189.698, 758.327
191.076, 789.838
192.454, 775.417
193.831, 805.079
195.209, 800.885
196.586, 985.828
197.963, 1044.908
199.340, 1163.107
200.717, 1386.397
202.093, 1513.766
203.470, 1881.219
204.846, 2197.771
206.221, 2737.430
207.597, 3325.166
208.972, 3881.094
210.347, 4453.975
211.722, 5511.825
213.097, 7123.197
214.472, 8880.088
215.846, 10976.059
217.220, 13206.106
218.594, 15317.229
219.967, 17260.428
221.341, 19161.697
222.714, 20631.031
224.087, 21458.445
225.460, 22187.932
226.832, 22385.477
228.204, 22738.100
229.577, 22681.783
230.948, 22013.537
232.320, 19789.354
233.692, 16573.236
235.063, 13368.186
236.434, 10308.196
237.805, 8231.266
239.175, 7094.396
240.545, 6512.586
241.916, 6525.833
243.286, 6788.137
244.655, 7086.499
246.025, 7516.916
247.394, 7813.388
248.763, 7702.914
250.132, 7146.493
251.501, 6390.129
252.869, 5280.833
254.237, 4435.620
255.605, 3630.469
256.973, 3091.370
258.340, 2634.319
259.708, 2190.312
261.075, 1855.353
262.442, 1546.823
263.808, 1305.601
265.175, 1096.586
266.541, 933.364
267.907, 683.975
269.273, 528.843
270.639, 427.939
272.004, 259.248
273.369, 228.759
274.734, 194.457
276.099, 70.339
277.463, 78.214
278.828, 23.452
280.192, 57.082
281.556, 19.339
282.919, 11.390
284.283, 19.252
285.646, 30.248
287.009, 11.377
288.372, 95.629
289.734, 173.981
291.097, 180.448
292.459, 284.434
293.821, 472.637
295.183, 556.398
296.544, 787.605
297.905, 885.311
299.266, 1086.776
300.627, 1205.094
301.988, 1230.791
303.348, 1254.917
304.709, 1101.103
306.069, 922.346
307.428, 911.906
308.788, 774.510
310.147, 620.919
311.507, 519.853
312.865, 344.201
314.224, 240.762
315.583, 163.371
316.941, 86.028
318.299, 4.730
319.657, 46.526
321.015, 67.743
322.372, 93.925
323.729, 99.475
325.086, 143.201
326.443, 66.303
327.800, 61.375
329.156, 6.586
330.512, 18.582
331.868, 145.614
333.224, 183.918
334.579, 340.018
335.935, 384.152
337.290, 628.318
338.645, 792.517
339.999, 1066.747
341.354, 1413.007
342.708, 1714.299
344.062, 2164.621
345.416, 2615.972
346.769, 3030.354
348.123, 3392.765
349.476, 3546.207
350.829, 3577.680
352.182, 3707.182
353.534, 3512.713
354.887, 3323.272
356.239, 3293.861
357.591, 3291.478
358.942, 3643.123
360.294, 4220.797
361.645, 5106.496
362.996, 6149.221
364.347, 7736.974
365.698, 8789.752
367.048, 9806.551
368.398, 10269.379
369.748, 9904.230
371.098, 9007.103
372.448, 7578.997
373.797, 6290.888
375.146, 5198.764
376.495, 4566.645
377.844, 4291.548
379.192, 3984.475
380.540, 4116.423
381.889, 4243.394
383.236, 4811.384
384.584, 5871.396
385.932, 6964.427
387.279, 8292.480
388.626, 9847.553
389.973, 11062.645
391.319, 11585.755
392.666, 11973.884
394.012, 10908.029
395.358, 9437.193
396.704, 7625.376
398.049, 6031.575
399.394, 5071.814
400.740, 4181.105
402.084, 4000.607
403.429, 3808.871
404.774, 4098.406
406.118, 4707.101
407.462, 5369.625
408.806, 6069.652
410.150, 7054.988
411.493, 7826.042
412.836, 8492.405
414.179, 8706.781
415.522, 8393.170
416.865, 7896.573
418.207, 6850.983
419.549, 5652.408
420.891, 4596.842
422.233, 3833.288
423.575, 3008.743
424.916, 2575.231
426.257, 2361.749
427.598, 2356.296
428.939, 2532.873
430.279, 3044.733
431.619, 3054.652
432.959, 3241.747
434.299, 3440.602
435.639, 3411.449
436.978, 2822.787
438.318, 2238.197
439.657, 1571.034
440.996, 1080.804
442.334, 709.882
443.673, 492.460
445.011, 310.466
446.349, 184.983
447.687, 97.573
449.024, 21.048
450.361, 15.090
451.699, 57.034
453.036, 23.671
454.372, 46.760
455.709, 14.240
457.045, 42.397
458.381, 30.388
459.717, 23.189
461.053, 4.675
462.388, 2.556
463.724, 34.209
465.059, 36.979
466.394, 94.752
467.728, 8.528
469.063, 9.303
470.397, 50.077
471.731, 37.146
473.065, 3.389
474.398, 48.360
475.732, 84.111
477.065, 129.063
478.398, 182.318
479.731, 194.368
481.063, 278.358
482.396, 263.786
483.728, 282.404
485.060, 295.826
486.391, 254.650
487.723, 200.096
489.054, 139.678
490.385, 69.434
491.716, 80.192
493.047, 7.947
494.377, 28.711
495.708, 23.474
497.038, 49.268
498.368, 24.064
499.697, 119.868
501.027, 171.682
502.356, 286.510
503.685, 348.337
505.014, 540.173
506.342, 611.009
507.671, 857.842
508.999, 1042.687
510.327, 1359.542
511.655, 1659.405
512.982, 1993.274
514.310, 2424.161
515.637, 2623.041
516.964, 2890.916
518.291, 3118.802
519.617, 3308.682
520.944, 3463.580
522.270, 3491.473
523.596, 3870.359
524.921, 4133.245
526.247, 4289.135
527.572, 4274.027
528.897, 4070.910
530.222, 3663.786
531.547, 2901.654
532.871, 2351.528
534.196, 1755.394
535.520, 1317.253
536.844, 1117.104
538.167, 813.946
539.491, 652.780
540.814, 551.605
542.137, 544.421
543.460, 425.226
544.783, 411.021
546.105, 299.804
547.427, 303.577
548.749, 306.338
550.071, 185.088
551.393, 191.826
552.714, 198.552
554.035, 106.266
555.356, 88.967
556.677, 74.656
557.998, 69.331
559.318, 67.993
560.638, 56.075
561.958, 84.271
563.278, 23.889
564.597, 52.480
565.917, 6.052
567.236, 16.590
568.555, 94.097
569.874, 45.589
571.192, 117.059
572.511, 153.515
573.829, 133.955
575.147, 133.381
576.464, 185.791
577.782, 192.186
579.099, 224.565
580.416, 188.928
581.733, 206.275
583.050, 281.607
584.366, 210.922
585.683, 231.220
586.999, 152.502
588.315, 81.767
589.630, 81.011
590.946, 41.235
592.261, 4.427
593.576, 5.572
594.891, 33.330
596.206, 97.299
597.520, 87.370
598.834, 85.538
600.148, 73.803
601.462, 68.042
602.776, 23.601
604.089, 47.109
605.402, 63.694
606.715, 41.411
608.028, 5.886
609.341, 35.094
610.653, 21.246
611.965, 105.931
613.277, 72.459
614.589, 59.481
615.901, 94.109
617.212, 82.286
618.523, 99.751
619.834, 202.408
621.145, 223.732
622.456, 266.668
623.766, 229.585
625.076, 346.482
626.386, 321.100
627.696, 417.753
629.006, 439.591
630.315, 509.266
631.624, 519.400
632.933, 638.185
634.242, 776.943
635.551, 851.681
636.859, 949.398
638.167, 1002.096
639.475, 1186.487
640.783, 1366.781
642.090, 1584.727
643.398, 1798.936
644.705, 2054.368
646.012, 2261.051
647.318, 2610.925
648.625, 2895.130
649.931, 3208.703
651.237, 3665.280
652.543, 4014.030
653.849, 4375.440
655.155, 5026.081
656.460, 5402.672
657.765, 6386.405
659.070, 7062.588
660.375, 8541.577
661.679, 10564.914
662.984, 12970.132
664.288, 16516.795
665.592, 21451.877
666.895, 27358.664
668.199, 33871.719
669.502, 40767.598
670.805, 45656.090
672.108, 45933.645
673.411, 47977.785
674.713, 41344.777
676.016, 34821.223
677.318, 27280.051
678.620, 21269.473
679.921, 16566.748
681.223, 13225.462
682.524, 10888.397
683.825, 9088.995
685.126, 8090.195
686.427, 7318.329
687.727, 6551.441
689.028, 5799.884
690.328, 5282.852
691.628, 4801.309
692.927, 4145.271
694.227, 3666.042
695.526, 3045.453
696.825, 2699.522
698.124, 2437.282
699.423, 2115.985
700.721, 1943.628
702.020, 1797.307
703.318, 1586.922
704.616, 1458.594
705.913, 1306.135
707.211, 1132.651
708.508, 1173.142
709.805, 990.607
711.102, 991.047
712.399, 958.463
713.695, 817.854
714.992, 870.195
716.288, 713.478
717.584, 727.539
718.879, 701.830
720.175, 647.841
721.470, 738.682
722.765, 674.687
724.060, 657.176
725.355, 595.345
726.649, 594.789
727.944, 672.912
729.238, 681.011
730.532, 735.497
731.825, 738.139
733.119, 855.167
734.412, 880.173
735.705, 973.156
736.998, 1012.116
738.291, 1169.053
739.584, 1184.967
740.876, 1291.858
742.168, 1537.728
743.460, 1590.574
744.752, 1864.142
746.043, 2120.653
747.334, 2416.990
748.626, 2467.567
749.916, 2316.152
751.207, 2367.244
752.498, 1956.265
753.788, 1654.854
755.078, 1499.508
756.368, 1162.851
757.658, 943.509
758.947, 761.915
760.237, 980.803
761.526, 742.612
762.815, 787.784
764.104, 597.881
765.392, 489.375
766.680, 502.366
767.969, 336.793
769.257, 465.591
770.544, 349.054
771.832, 402.329
773.119, 295.397
774.406, 265.784
775.693, 229.254
776.980, 198.714
778.267, 195.159
779.553, 219.591
780.839, 216.010
782.125, 104.416
783.411, 129.810
784.697, 43.191
785.982, 72.568
787.267, 111.934
788.552, 470.287
789.837, 295.627
791.122, 482.955
792.406, 233.269
793.690, 103.571
794.974, 40.860
796.258, 42.134
797.542, 16.393
798.825, 4.634
800.108, 95.855
801.391, 46.062
802.674, 10.255
803.957, 224.431
805.239, 37.406
806.522, 53.717
807.804, 112.173
809.085, 5.143
810.367, 21.137
811.649, 40.162
812.930, 48.228
814.211, 3.660
815.492, 36.469
816.772, 3.636
818.053, 23.177
819.333, 51.024
820.613, 47.270
821.893, 36.558
823.173, 34.882
824.452, 77.241
825.732, 105.344
827.011, 16.835
828.290, 56.520
829.568, 13.998
830.847, 87.497
832.125, 8.948
833.403, 33.380
834.681, 25.199
835.959, 45.803
837.236, 25.443
838.514, 23.892
839.791, 32.217
841.068, 30.531
842.345, 59.165
843.621, 51.099
844.898, 10.647
846.174, 37.591
847.450, 146.823
848.726, 12.953
850.001, 19.257
851.277, 28.458
852.552, 63.651
853.827, 74.837
855.102, 55.018
856.376, 63.192
857.651, 42.361
858.925, 67.836
860.199, 78.681
861.473, 132.834
862.746, 98.981
864.020, 153.124
865.293, 67.262
866.566, 170.396
867.839, 126.526
869.112, 186.663
870.384, 201.798
871.656, 146.953
872.928, 98.118
874.200, 165.287
875.472, 272.456
876.744, 248.638
878.015, 267.845
879.286, 244.051
880.557, 303.257
881.828, 285.463
883.098, 319.676
884.369, 384.899
885.639, 349.121
886.909, 395.353
888.178, 401.585
889.448, 436.820
890.717, 519.054
891.987, 461.298
893.256, 495.544
894.524, 580.811
895.793, 601.076
897.061, 592.342
898.330, 562.608
899.598, 638.876
900.865, 779.151
902.133, 730.442
903.401, 728.747
904.668, 734.089
905.935, 932.473
907.202, 893.897
908.468, 994.361
909.735, 1144.861
911.001, 1186.396
912.267, 1234.958
913.533, 1327.550
914.799, 1551.181
916.064, 1664.842
917.330, 2029.521
918.595, 2230.209
919.860, 2415.910
921.124, 2985.642
922.389, 3509.387
923.653, 4048.147
924.918, 4713.910
926.182, 5562.676
927.445, 6355.466
928.709, 7042.264
929.972, 7135.070
931.236, 6774.889
932.499, 6081.715
933.761, 5317.539
935.024, 4457.322
936.286, 3697.149
937.549, 3347.646
938.811, 2896.302
940.073, 2729.127
941.334, 2672.960
942.596, 2794.792
943.857, 3028.626
945.118, 3186.459
946.379, 3130.261
947.640, 3092.789
948.900, 2942.336
950.161, 2641.610
951.421, 2315.656
952.681, 2082.438
953.940, 1859.015
955.200, 1713.241
956.459, 1576.301
957.719, 1465.655
958.978, 1383.279
960.236, 1360.225
961.495, 1266.919
962.753, 1233.641
964.012, 1109.199
965.270, 1150.285
966.527, 1104.545
967.785, 1107.438
969.043, 1084.426
970.300, 1022.947
971.557, 986.032
972.814, 1089.389
974.071, 1022.456
975.327, 994.666
976.583, 1053.255
977.840, 978.118
979.095, 1026.662
980.351, 971.678
981.607, 1031.223
982.862, 983.377
984.117, 904.904
985.372, 1041.558
986.627, 937.756
987.882, 939.705
989.136, 1068.130
990.390, 944.775
991.644, 1135.463
992.898, 1061.151
994.152, 1136.486
995.405, 1236.272
996.659, 1242.547
997.912, 1343.551
999.165, 1319.721
1000.417, 1540.066
1001.670, 1486.779
1002.922, 1768.757
1004.174, 1749.855
1005.426, 1971.009
1006.678, 2075.203
1007.930, 2311.569
1009.181, 2579.667
1010.432, 2715.914
1011.683, 3021.201
1012.934, 3327.422
1014.185, 3747.709
1015.435, 4243.976
1016.685, 4716.137
1017.935, 5343.838
1019.185, 6113.174
1020.435, 6787.722
1021.684, 7599.137
1022.934, 8703.790
1024.183, 10276.296
1025.432, 11745.977
1026.680, 13596.244
1027.929, 14636.115
1029.177, 14964.837
1030.425, 14047.289
1031.673, 12641.999
1032.921, 10498.388
1034.169, 8523.556
1035.416, 7086.195
1036.663, 5971.157
1037.911, 5094.098
1039.157, 4667.482
1040.404, 4168.075
1041.650, 3824.381
1042.897, 3718.785
1044.143, 3543.509
1045.389, 3743.032
1046.634, 3930.653
1047.880, 4100.165
1049.125, 4595.642
1050.371, 5081.354
1051.615, 5985.090
1052.860, 6765.841
1054.105, 8117.973
1055.349, 9188.570
1056.593, 10369.196
1057.837, 11089.789
1059.081, 11463.413
1060.325, 10737.819
1061.568, 9784.083
1062.812, 8717.571
1064.055, 8014.153
1065.298, 7416.955
1066.540, 7103.586
1067.783, 6755.073
1069.025, 6305.756
1070.267, 5897.593
1071.509, 4811.513
1072.751, 4153.856
1073.993, 3711.492
1075.234, 3092.828
1076.475, 2688.753
1077.716, 2379.095
1078.957, 2204.748
1080.198, 1916.837
1081.438, 1886.047
1082.679, 1631.336
1083.919, 1534.014
1085.159, 1466.228
1086.398, 1377.480
1087.638, 1276.865
1088.877, 1237.596
1090.116, 1148.754
1091.355, 1167.976
1092.594, 1100.165
1093.833, 882.135
1095.071, 879.397
1096.309, 792.518
1097.547, 811.731
1098.785, 622.779
1100.023, 699.842
1101.260, 613.869
1102.498, 629.895
1103.735, 574.886
1104.972, 609.934
1106.208, 513.580
1107.445, 497.023
1108.681, 432.198
1109.918, 470.392
1111.154, 481.059
1112.389, 479.894
1113.625, 432.598
1114.860, 391.436
1116.096, 430.476
1117.331, 418.203
1118.566, 338.100
1119.800, 432.016
1121.035, 557.785
1122.269, 558.553
1123.503, 523.175
1124.737, 492.071
1125.971, 325.445
1127.205, 372.070
1128.438, 295.120
1129.671, 233.939
1130.904, 246.499
1132.137, 220.388
1133.370, 211.394
1134.602, 223.583
1135.834, 187.338
1137.066, 76.248
1138.298, 246.756
1139.530, 135.463
1140.762, 219.923
1141.993, 122.460
1143.224, 148.568
1144.455, 147.693
1145.686, 60.971
1146.917, 72.347
1148.147, 111.769
1149.377, 133.342
1150.607, 79.816
1151.837, 89.045
1153.067, 86.787
1154.296, 64.416
1155.526, 34.884
1156.755, 81.171
1157.984, 72.638
1159.213, 64.882
1160.441, 85.800
1161.670, 72.403
1162.898, 78.549
1164.126, 107.314
1165.354, 3.044
1166.581, 34.966
1167.809, 18.863
1169.036, 82.812
1170.263, 54.191
1171.490, 33.869
1172.717, 0.804
1173.943, 13.684
1175.170, 71.254
1176.396, 0.526
1177.622, 52.745
1178.848, 1.894
1180.073, 29.802
1181.299, 41.801
1182.524, 11.475
1183.749, 37.608
1184.974, 3.535
1186.199, 11.625
1187.423, 22.384
1188.648, 33.745
1189.872, 5.060
1191.096, 75.985
1192.320, 40.547
1193.543, 19.600
1194.767, 43.639
1195.990, 51.595
1197.213, 10.039
1198.436, 7.150
1199.659, 5.777
1200.881, 34.797
1202.104, 24.365
1203.326, 20.421
1204.548, 24.616
1205.770, 20.434
1206.991, 61.452
1208.213, 3.279
1209.434, 39.499
1210.655, 7.872
1211.876, 5.160
1213.096, 17.765
1214.317, 34.587
1215.537, 11.155
1216.757, 90.461
1217.977, 27.851
1219.197, 18.546
1220.417, 14.019
1221.636, 55.677
1222.855, 75.122
1224.074, 2.009
1225.293, 22.777
1226.512, 29.642
1227.731, 0.403
1228.949, 50.806
1230.167, 10.957
1231.385, 62.830
1232.603, 50.524
1233.820, 32.524
1235.038, 12.845
1236.255, 72.422
1237.472, 54.096
1238.689, 57.848
1239.906, 107.195
1241.122, 44.986
1242.338, 64.853
1243.555, 48.538
1244.771, 75.926
1245.986, 69.825
1247.202, 76.241
1248.417, 73.529
1249.633, 78.235
1250.848, 61.875
1252.063, 15.475
1253.277, 22.267
1254.492, 43.442
1255.706, 43.465
1256.920, 146.684
1258.134, 104.582
1259.348, 138.067
1260.562, 105.954
1261.775, 60.732
1262.988, 127.627
1264.201, 83.507
1265.414, 75.469
1266.627, 112.661
1267.839, 112.902
1269.052, 146.524
1270.264, 78.920
1271.476, 204.215
1272.688, 20.480
1273.899, 53.501
1275.111, 86.596
1276.322, 143.496
1277.533, 70.448
1278.744, 54.291
1279.955, 36.053
1281.165, 82.772
1282.376, 60.434
1283.586, 134.952
1284.796, 81.696
1286.006, 135.437
1287.215, 111.034
1288.425, 211.566
1289.634, 33.917
1290.843, 159.475
1292.052, 45.606
1293.261, 111.249
1294.469, 75.360
1295.678, 86.347
1296.886, 138.067
1298.094, 47.991
1299.302, 55.627
1300.509, 71.113
1301.717, 94.584
1302.924, 64.032
1304.131, 89.385
1305.338, 6.027
1306.545, 43.312
1307.752, 89.479
1308.958, 32.616
1310.164, 193.812
1311.370, 83.383
1312.576, 125.567
1313.782, 46.249
1314.987, 142.949
1316.193, 49.428
1317.398, 59.922
1318.603, 22.188
1319.807, 139.872
1321.012, 54.839
1322.216, 157.896
1323.421, 165.150
1324.625, 118.093
1325.829, 175.298
1327.032, 91.636
1328.236, 167.448
1329.439, 112.951
1330.642, 140.403
1331.845, 104.249
1333.048, 127.010
1334.251, 154.362
1335.453, 6.413
1336.656, 153.933
1337.858, 42.413
1339.060, 38.738
1340.261, 133.115
1341.463, 43.475
1342.664, 221.541
1343.866, 66.526
1345.067, 103.441
1346.267, 147.919
1347.468, 161.870
1348.669, 117.732
1349.869, 246.566
1351.069, 137.326
1352.269, 66.231
1353.469, 170.219
1354.668, 232.927
1355.868, 83.539
1357.067, 172.817
1358.266, 109.331
1359.465, 158.807
1360.664, 223.343
1361.862, 106.357
1363.061, 160.233
1364.259, 80.826
1365.457, 50.873
1366.655, 144.163
1367.852, 136.811
1369.050, 94.753
1370.247, 101.968
1371.444, 41.286
1372.641, 72.427
1373.838, 51.418
1375.035, 104.957
1376.231, 135.905
1377.427, 50.699
1378.623, 57.832
1379.819, 125.194
1381.015, 89.674
1382.211, 166.975
1383.406, 43.201
1384.601, 35.572
1385.796, 21.917
1386.991, 38.228
1388.185, 89.562
1389.380, 10.814
1390.574, 61.200
1391.768, 1.513
1392.962, 162.523
1394.156, 15.745
1395.350, 15.483
1396.543, 181.353
1397.736, 52.996
1398.929, 78.846
1400.122, 34.710
1401.315, 83.821
1402.507, 11.769
1403.700, 64.906
1404.892, 78.315
1406.084, 43.169
1407.276, 39.113
1408.467, 23.749
1409.659, 12.253
1410.850, 0.614
1412.041, 37.553
1413.232, 73.570
1414.423, 84.769
1415.614, 78.934
1416.804, 119.698
1417.994, 87.808
1419.184, 120.168
1420.374, 94.889
1421.564, 107.223
1422.753, 112.187
1423.943, 106.766
1425.132, 107.340
1426.321, 92.374
1427.510, 62.316
1428.698, 50.332
1429.887, 72.109
1431.075, 75.086
1432.263, 103.106
1433.451, 38.501
1434.639, 116.597
1435.827, 147.365
1437.014, 84.009
1438.201, 230.821
1439.388, 171.956
1440.575, 64.390
1441.762, 224.085
1442.949, 122.790
1444.135, 75.939
1445.321, 198.673
1446.507, 149.426
1447.693, 28.355
1448.879, 153.723
1450.064, 142.461
1451.250, 217.550
1452.435, 117.840
1453.620, 174.527
1454.805, 30.179
1455.989, 86.246
1457.174, 226.862
1458.358, 80.517
1459.542, 168.230
1460.726, 249.377
1461.910, 79.376
1463.093, 171.255
1464.277, 175.763
1465.460, 96.817
1466.643, 184.167
1467.826, 85.513
1469.009, 196.290
1470.191, 148.289
1471.373, 61.827
1472.556, 194.876
1473.738, 198.001
1474.919, 47.166
1476.101, 162.292
1477.283, 171.654
1478.464, 153.525
1479.645, 150.023
1480.826, 194.235
1482.007, 196.016
1483.187, 144.166
1484.368, 105.480
1485.548, 140.847
1486.728, 179.652
1487.908, 63.964
1489.088, 101.527
1490.268, 65.188
1491.447, 115.296
1492.626, 58.544
1493.805, 69.106
1494.984, 149.353
1496.163, 110.921
1497.341, 45.578
1498.520, 239.549
1499.698, 29.164
1500.876, 183.446
1502.054, 4.367
1503.232, 87.355
1504.409, 119.393
1505.586, 16.438
1506.763, 112.540
1507.940, 73.708
1509.117, 68.054
1510.294, 3.564
1511.470, 12.902
1512.647, 129.303
1513.823, 117.841
1514.999, 88.908
1516.174, 184.812
