##NAMES=Actinolite
##RRUFFID=R050025
##IDEAL CHEMISTRY=Ca_2_(Mg_4.5-2.5_Fe^2+^_0.5-2.5_)Si_8_O_22_(OH)_2_
##LOCALITY=Tyrol, Austria
##OWNER=RRUFF
##SOURCE=Eugene Schlepp
##DESCRIPTION=Green colored bladed single crystals
##STATUS=The identification of this mineral has been confirmed by X-ray diffraction and chemical analysis
##URL=rruff.info/R050025
##MEASURED CHEMISTRY=(Ca_.930_Na_.056_Mn_.010_K_.004_)_2_(Mg_.883_Fe_.117_)_5_(Si_.978_Al_.022_)_8_O_22_(OH)_2_
##PIN_ID=L00400
##ORIENTATION=Laser parallel to c* (0 0 1). Fiducial mark perpendicular to laser is parallel to a [1 0 0]
102.428, 0.000
103.820, 15.555
105.212, 64.303
106.604, 111.829
107.995, 109.764
109.387, 313.559
110.777, 205.022
112.168, 332.539
113.559, 637.517
114.949, 986.011
116.339, 1222.615
117.729, 1100.211
119.119, 829.110
120.508, 578.385
121.897, 408.592
123.286, 378.536
124.675, 378.595
126.063, 492.039
127.452, 457.069
128.840, 416.491
130.228, 508.287
131.615, 478.516
133.003, 326.158
134.390, 184.127
135.777, 301.355
137.164, 238.787
138.550, 335.377
139.937, 365.096
141.323, 186.912
142.709, 110.806
144.094, 71.241
145.480, 55.180
146.865, 50.670
148.250, 69.155
149.635, 45.045
151.019, 26.834
152.403, 333.283
153.788, 944.298
155.171, 2001.214
156.555, 3342.032
157.939, 4689.130
159.322, 5597.293
160.705, 5605.879
162.088, 4614.296
163.470, 3222.500
164.853, 2239.505
166.235, 1365.331
167.617, 1077.988
168.998, 1167.489
170.380, 1409.846
171.761, 1903.067
173.142, 2725.164
174.523, 3852.142
175.904, 5099.007
177.284, 6045.769
178.664, 6382.432
180.044, 5829.003
181.424, 4525.486
182.803, 3261.887
184.183, 2144.210
185.562, 1473.516
186.940, 991.972
188.319, 701.417
189.698, 543.984
191.076, 493.034
192.454, 445.742
193.831, 467.233
195.209, 508.317
196.586, 466.729
197.963, 459.072
199.340, 581.796
200.717, 720.662
202.093, 820.486
203.470, 999.279
204.846, 1226.051
206.221, 1566.712
207.597, 2012.136
208.972, 2529.341
210.347, 3099.685
211.722, 3934.938
213.097, 4958.198
214.472, 6578.369
215.846, 8578.204
217.220, 11363.560
218.594, 14400.682
219.967, 17905.992
221.341, 20820.188
222.714, 22974.416
224.087, 23698.670
225.460, 24192.955
226.832, 24927.260
228.204, 26351.590
229.577, 28625.939
230.948, 29640.309
232.320, 28634.695
233.692, 25499.092
235.063, 21023.500
236.434, 16647.926
237.805, 12752.356
239.175, 9806.802
240.545, 7841.258
241.916, 7055.720
243.286, 6750.183
244.655, 7114.648
246.025, 7759.118
247.394, 8473.588
248.763, 9138.061
250.132, 9162.535
251.501, 8557.014
252.869, 7621.495
254.237, 6525.978
255.605, 5220.463
256.973, 4154.949
258.340, 3418.439
259.708, 2808.931
261.075, 2255.876
262.442, 2008.920
263.808, 1529.417
265.175, 1240.916
266.541, 927.417
267.907, 717.905
269.273, 550.372
270.639, 431.670
272.004, 252.734
273.369, 189.539
274.734, 108.051
276.099, 89.272
277.463, 31.220
278.828, 37.176
280.192, 27.963
281.556, 43.081
282.919, 34.490
284.283, 30.212
285.646, 25.127
287.009, 22.252
288.372, 38.114
289.734, 30.475
291.097, 106.407
292.459, 221.058
293.821, 279.445
295.183, 419.646
296.544, 616.565
297.905, 872.755
299.266, 1228.053
300.627, 1496.203
301.988, 1772.928
303.348, 1860.299
304.709, 1734.936
306.069, 1589.593
307.428, 1336.192
308.788, 1291.150
310.147, 1033.559
311.507, 760.235
312.865, 624.076
314.224, 471.482
315.583, 267.382
316.941, 213.509
318.299, 10.857
319.657, 11.874
321.015, 48.734
322.372, 136.621
323.729, 90.562
325.086, 176.548
326.443, 107.599
327.800, 163.697
329.156, 89.856
330.512, 14.055
331.868, 63.792
333.224, 96.928
334.579, 187.763
335.935, 273.687
337.290, 406.479
338.645, 565.188
339.999, 681.887
341.354, 906.576
342.708, 1131.255
344.062, 1400.926
345.416, 1850.588
346.769, 2346.242
348.123, 2963.889
349.476, 3504.527
350.829, 4084.158
352.182, 4219.768
353.534, 4275.347
354.887, 3929.867
356.239, 3702.291
357.591, 3379.659
358.942, 3280.964
360.294, 3485.236
361.645, 3938.488
362.996, 4902.732
364.347, 6447.968
365.698, 8473.200
367.048, 10928.425
368.398, 12773.647
369.748, 13688.862
371.098, 12934.075
372.448, 11179.283
373.797, 9174.482
375.146, 7449.657
376.495, 6154.748
377.844, 5199.724
379.192, 4764.587
380.540, 4369.400
381.889, 4374.202
383.236, 4638.999
384.584, 5173.798
385.932, 6238.594
387.279, 7383.393
388.626, 9538.188
389.973, 11652.988
391.319, 14087.781
392.666, 15772.576
394.012, 16177.369
395.358, 14532.163
396.704, 12376.953
398.049, 9921.742
399.394, 7606.530
400.740, 6241.316
402.084, 5356.100
403.429, 4780.881
404.774, 4795.659
406.118, 4910.436
407.462, 5545.208
408.806, 6349.980
410.150, 7614.748
411.493, 9039.512
412.836, 10634.274
414.179, 12039.031
415.522, 12673.786
416.865, 12488.538
418.207, 11613.286
419.549, 10158.027
420.891, 8632.769
422.233, 7077.504
423.575, 5662.236
424.916, 4766.963
426.257, 4067.686
427.598, 3543.404
428.939, 3327.117
430.279, 3330.095
431.619, 3641.901
432.959, 4300.172
434.299, 4973.394
435.639, 5351.934
436.978, 4991.907
438.318, 4173.616
439.657, 3343.883
440.996, 2432.033
442.334, 1857.182
443.673, 1293.685
445.011, 1033.487
446.349, 789.692
447.687, 587.515
449.024, 467.124
450.361, 431.173
451.699, 350.121
453.036, 307.563
454.372, 358.661
455.709, 271.849
457.045, 324.937
458.381, 369.626
459.717, 287.975
461.053, 355.191
462.388, 344.214
463.724, 357.236
465.059, 329.223
466.394, 291.070
467.728, 328.654
469.063, 343.933
470.397, 272.118
471.731, 308.196
473.065, 257.290
474.398, 268.401
475.732, 207.523
477.065, 206.348
478.398, 316.928
479.731, 331.500
481.063, 453.635
482.396, 552.266
483.728, 694.427
485.060, 742.479
486.391, 699.136
487.723, 576.126
489.054, 545.613
490.385, 321.751
491.716, 300.792
493.047, 227.623
494.377, 295.576
495.708, 270.899
497.038, 299.575
498.368, 332.477
499.697, 425.376
501.027, 529.275
502.356, 590.176
503.685, 691.079
505.014, 860.976
506.342, 1039.877
507.671, 1229.781
508.999, 1547.692
510.327, 1736.608
511.655, 2193.526
512.982, 2539.442
514.310, 3026.348
515.637, 3531.249
516.964, 3946.156
518.291, 4394.045
519.617, 4624.951
520.944, 4628.838
522.270, 4479.721
523.596, 4766.602
524.921, 4920.468
526.247, 5274.316
527.572, 5368.153
528.897, 5521.976
530.222, 5015.781
531.547, 4478.567
532.871, 3762.333
534.196, 3188.078
535.520, 2558.801
536.844, 2121.504
538.167, 1906.186
539.491, 1624.847
540.814, 1345.488
542.137, 1309.109
543.460, 1177.709
544.783, 1050.289
546.105, 938.848
547.427, 978.386
548.749, 932.904
550.071, 849.399
551.393, 825.875
552.714, 799.327
554.035, 787.758
555.356, 734.168
556.677, 747.556
557.998, 674.921
559.318, 609.264
560.638, 609.585
561.958, 565.884
563.278, 552.160
564.597, 543.499
565.917, 531.643
567.236, 533.851
568.555, 564.034
569.874, 575.195
571.192, 631.333
572.511, 547.446
573.829, 529.537
575.147, 592.604
576.464, 583.646
577.782, 675.664
579.099, 601.659
580.416, 627.629
581.733, 594.575
583.050, 606.496
584.366, 494.393
585.683, 516.265
586.999, 405.112
588.315, 264.934
589.630, 297.729
590.946, 179.498
592.261, 7.764
593.576, 33.081
594.891, 61.463
596.206, 43.925
597.520, 108.457
598.834, 97.091
600.148, 87.810
601.462, 76.612
602.776, 120.486
604.089, 138.459
605.402, 82.542
606.715, 105.705
608.028, 84.963
609.341, 72.312
610.653, 6.745
611.965, 57.398
613.277, 70.966
614.589, 13.981
615.901, 23.846
617.212, 61.367
618.523, 75.235
619.834, 112.352
621.145, 108.391
622.456, 112.452
623.766, 140.365
625.076, 199.088
626.386, 268.940
627.696, 295.830
629.006, 389.395
630.315, 398.178
631.624, 560.631
632.933, 640.197
634.242, 681.392
635.551, 784.768
636.859, 888.430
638.167, 994.078
639.475, 1205.198
640.783, 1355.144
642.090, 1514.174
643.398, 1650.313
644.705, 2052.241
646.012, 2298.253
647.318, 2597.824
648.625, 3026.886
649.931, 3406.971
651.237, 3908.637
652.543, 4486.746
653.849, 4934.265
655.155, 5640.248
656.460, 5974.633
657.765, 6849.484
659.070, 7684.990
660.375, 8690.077
661.679, 10323.592
662.984, 12479.628
664.288, 15445.012
665.592, 19511.748
666.895, 25587.479
668.199, 32823.094
669.502, 42077.395
670.805, 52729.570
672.108, 60273.559
673.411, 60489.488
674.713, 59330.055
676.016, 49148.906
677.318, 40449.387
678.620, 30332.809
679.921, 23786.750
681.223, 18067.697
682.524, 14478.222
683.825, 11929.902
685.126, 9821.231
686.427, 8391.945
687.727, 7542.019
689.028, 6482.036
690.328, 5932.031
691.628, 5411.880
692.927, 4759.698
694.227, 4295.483
695.526, 3825.237
696.825, 3410.960
698.124, 2931.653
699.423, 2630.315
700.721, 2349.945
702.020, 2184.544
703.318, 1875.113
704.616, 1780.651
705.913, 1648.158
707.211, 1509.635
708.508, 1363.081
709.805, 1317.497
711.102, 1206.226
712.399, 1142.236
713.695, 1080.561
714.992, 1047.855
716.288, 999.369
717.584, 1012.354
718.879, 935.559
720.175, 916.734
721.470, 900.879
722.765, 826.995
724.060, 770.081
725.355, 807.137
726.649, 912.165
727.944, 862.163
729.238, 872.132
730.532, 900.071
731.825, 840.983
733.119, 982.866
734.412, 1037.719
735.705, 1195.545
736.998, 1297.342
738.291, 1391.111
739.584, 1406.852
740.876, 1488.564
742.168, 1753.250
743.460, 1958.908
744.752, 2100.240
746.043, 2613.683
747.334, 3094.603
748.626, 3356.897
749.916, 3417.548
751.207, 3202.366
752.498, 2725.232
753.788, 2160.999
755.078, 1774.433
756.368, 1512.404
757.658, 1242.036
758.947, 1046.874
760.237, 952.546
761.526, 798.693
762.815, 770.353
764.104, 651.286
765.392, 581.985
766.680, 534.773
767.969, 550.359
769.257, 434.071
770.544, 385.341
771.832, 417.974
773.119, 293.917
774.406, 325.339
775.693, 361.178
776.980, 284.362
778.267, 302.550
779.553, 199.844
780.839, 176.373
782.125, 160.184
783.411, 181.098
784.697, 133.122
785.982, 169.131
787.267, 130.130
788.552, 158.116
789.837, 98.090
791.122, 133.053
792.406, 147.003
793.690, 52.940
794.974, 90.862
796.258, 71.769
797.542, 44.661
798.825, 0.538
800.108, 35.611
801.391, 28.805
802.674, 69.037
803.957, 39.670
805.239, 59.362
806.522, 7.959
807.804, 18.308
809.085, 73.688
810.367, 48.127
811.649, 56.614
812.930, 68.150
814.211, 62.613
815.492, 38.389
816.772, 80.074
818.053, 70.820
819.333, 93.621
820.613, 78.827
821.893, 78.414
823.173, 58.397
824.452, 23.426
825.732, 56.484
827.011, 88.586
828.290, 13.252
829.568, 137.921
830.847, 14.820
832.125, 53.449
833.403, 63.757
834.681, 10.108
835.959, 1.478
837.236, 27.862
838.514, 22.270
839.791, 10.698
841.068, 32.857
842.345, 35.853
843.621, 30.945
844.898, 65.478
846.174, 54.005
847.450, 62.525
848.726, 69.034
850.001, 115.552
851.277, 95.057
852.552, 88.558
853.827, 153.054
855.102, 150.546
856.376, 205.033
857.651, 137.518
858.925, 111.998
860.199, 200.475
861.473, 137.949
862.746, 155.420
864.020, 259.888
865.293, 210.353
866.566, 312.816
867.839, 340.277
869.112, 245.736
870.384, 345.194
871.656, 388.650
872.928, 317.106
874.200, 376.560
875.472, 418.014
876.744, 414.468
878.015, 407.922
879.286, 438.376
880.557, 489.833
881.828, 537.289
883.098, 581.750
884.369, 599.181
885.639, 629.678
886.909, 658.153
888.178, 617.641
889.448, 721.131
890.717, 706.632
891.987, 766.143
893.256, 894.665
894.524, 838.200
895.793, 901.740
897.061, 951.291
898.330, 982.875
899.598, 993.469
900.865, 1014.083
902.133, 1150.731
903.401, 1134.415
904.668, 1253.147
905.935, 1237.921
907.202, 1227.754
908.468, 1447.643
909.735, 1563.579
911.001, 1560.557
912.267, 1705.588
913.533, 1766.676
914.799, 1964.807
916.064, 2263.988
917.330, 2391.213
918.595, 2552.492
919.860, 2888.802
921.124, 3381.172
922.389, 3865.600
923.653, 4513.831
924.918, 5184.555
926.182, 6012.073
927.445, 6859.622
928.709, 7757.182
929.972, 8364.754
931.236, 8372.337
932.499, 7889.937
933.761, 6937.543
935.024, 6025.186
936.286, 5072.852
937.549, 4214.449
938.811, 3821.149
940.073, 3524.766
941.334, 3308.489
942.596, 3250.014
943.857, 3386.704
945.118, 3762.458
946.379, 3746.847
947.640, 3911.434
948.900, 3801.962
950.161, 3585.394
951.421, 3301.087
952.681, 3011.712
953.940, 2760.808
955.200, 2603.432
956.459, 2275.959
957.719, 2243.591
958.978, 2133.056
960.236, 2011.993
961.495, 2038.583
962.753, 1978.828
964.012, 1867.592
965.270, 1885.685
966.527, 1934.182
967.785, 1852.233
969.043, 1884.746
970.300, 1848.898
971.557, 1769.679
972.814, 1768.451
974.071, 1759.314
975.327, 1751.499
976.583, 1699.771
977.840, 1827.211
979.095, 1715.708
980.351, 1734.545
981.607, 1789.088
982.862, 1735.983
984.117, 1710.928
985.372, 1738.338
986.627, 1746.726
987.882, 1820.517
989.136, 1795.138
990.390, 1881.096
991.644, 1911.758
992.898, 1956.843
994.152, 2065.070
995.405, 2043.303
996.659, 2242.669
997.912, 2185.052
999.165, 2305.452
1000.417, 2541.867
1001.670, 2545.299
1002.922, 2756.749
1004.174, 3052.214
1005.426, 3040.705
1006.678, 3467.213
1007.930, 3508.738
1009.181, 3712.282
1010.432, 3950.843
1011.683, 4201.420
1012.934, 4510.015
1014.185, 4788.625
1015.435, 5117.254
1016.685, 5685.898
1017.935, 6094.557
1019.185, 6933.250
1020.435, 7611.973
1021.684, 8670.699
1022.934, 9799.441
1024.183, 11308.205
1025.432, 13066.979
1026.680, 15455.914
1027.929, 17144.846
1029.177, 17883.863
1030.425, 17672.918
1031.673, 16431.871
1032.921, 14011.579
1034.169, 11590.615
1035.416, 9679.803
1036.663, 8110.462
1037.911, 7011.817
1039.157, 6431.094
1040.404, 5831.784
1041.650, 5282.464
1042.897, 5063.155
1044.143, 5144.739
1045.389, 4994.072
1046.634, 5264.904
1047.880, 5420.283
1049.125, 5820.843
1050.371, 6372.999
1051.615, 7115.068
1052.860, 8016.390
1054.105, 9118.435
1055.349, 10330.379
1056.593, 11292.288
1057.837, 12233.550
1059.081, 12394.197
1060.325, 11883.739
1061.568, 11133.384
1062.812, 10032.920
1064.055, 9232.529
1065.298, 8592.086
1066.540, 8401.678
1067.783, 8454.357
1069.025, 8205.346
1070.267, 7710.208
1071.509, 7013.373
1072.751, 6023.107
1073.993, 5277.595
1075.234, 4617.427
1076.475, 3947.309
1077.716, 3565.983
1078.957, 3278.467
1080.198, 3005.307
1081.438, 2764.027
1082.679, 2585.722
1083.919, 2477.199
1085.159, 2368.061
1086.398, 2154.558
1087.638, 2090.158
1088.877, 1873.719
1090.116, 1778.917
1091.355, 1776.152
1092.594, 1660.162
1093.833, 1680.803
1095.071, 1615.887
1096.309, 1411.850
1097.547, 1395.487
1098.785, 1271.241
1100.023, 1138.091
1101.260, 1217.981
1102.498, 1173.871
1103.735, 1170.003
1104.972, 1089.093
1106.208, 1025.022
1107.445, 1080.872
1108.681, 957.705
1109.918, 990.063
1111.154, 1001.866
1112.389, 924.590
1113.625, 964.165
1114.860, 939.114
1116.096, 927.618
1117.331, 872.293
1118.566, 942.764
1119.800, 868.271
1121.035, 880.171
1122.269, 762.734
1123.503, 731.540
1124.737, 735.333
1125.971, 702.975
1127.205, 754.780
1128.438, 636.556
1129.671, 595.292
1130.904, 543.513
1132.137, 598.237
1133.370, 486.727
1134.602, 566.626
1135.834, 472.253
1137.066, 489.013
1138.298, 424.826
1139.530, 389.990
1140.762, 402.896
1141.993, 303.621
1143.224, 343.507
1144.455, 246.292
1145.686, 271.025
1146.917, 300.035
1148.147, 169.629
1149.377, 208.515
1150.607, 273.394
1151.837, 191.022
1153.067, 155.911
1154.296, 177.683
1155.526, 140.625
1156.755, 153.824
1157.984, 162.565
1159.213, 166.645
1160.441, 146.319
1161.670, 65.088
1162.898, 104.775
1164.126, 50.412
1165.354, 63.109
1166.581, 51.495
1167.809, 50.252
1169.036, 58.063
1170.263, 77.871
1171.490, 58.998
1172.717, 74.001
1173.943, 30.571
1175.170, 35.820
1176.396, 23.246
1177.622, 21.230
1178.848, 52.642
1180.073, 17.808
1181.299, 45.215
1182.524, 14.464
1183.749, 33.959
1184.974, 43.886
1186.199, 10.008
1187.423, 31.015
1188.648, 29.672
1189.872, 28.575
1191.096, 41.665
1192.320, 23.909
1193.543, 27.539
1194.767, 98.918
1195.990, 21.102
1197.213, 45.504
1198.436, 43.091
1199.659, 30.128
1200.881, 40.667
1202.104, 38.078
1203.326, 36.601
1204.548, 25.284
1205.770, 14.627
1206.991, 26.519
1208.213, 5.657
1209.434, 34.583
1210.655, 20.768
1211.876, 36.781
1213.096, 31.108
1214.317, 40.915
1215.537, 13.089
1216.757, 74.050
1217.977, 46.234
1219.197, 15.409
1220.417, 65.771
1221.636, 11.806
1222.855, 54.693
1224.074, 33.746
1225.293, 81.239
1226.512, 16.841
1227.731, 29.182
1228.949, 36.480
1230.167, 76.059
1231.385, 33.726
1232.603, 43.224
1233.820, 65.151
1235.038, 76.064
1236.255, 4.831
1237.472, 13.006
1238.689, 20.855
1239.906, 61.207
1241.122, 20.068
1242.338, 62.032
1243.555, 7.906
1244.771, 43.593
1245.986, 42.764
1247.202, 33.873
1248.417, 35.864
1249.633, 2.541
1250.848, 28.899
1252.063, 7.479
1253.277, 45.337
1254.492, 48.589
1255.706, 14.104
1256.920, 57.595
1258.134, 76.729
1259.348, 117.322
1260.562, 49.446
1261.775, 143.547
1262.988, 105.772
1264.201, 159.790
1265.414, 155.894
1266.627, 69.715
1267.839, 154.612
1269.052, 101.413
1270.264, 108.731
1271.476, 145.435
1272.688, 111.023
1273.899, 122.622
1275.111, 131.331
1276.322, 54.885
1277.533, 140.474
1278.744, 41.903
1279.955, 103.500
1281.165, 167.818
1282.376, 135.091
1283.586, 122.499
1284.796, 63.724
1286.006, 98.954
1287.215, 140.048
1288.425, 99.098
1289.634, 121.225
1290.843, 131.221
1292.052, 76.138
1293.261, 159.218
1294.469, 89.048
1295.678, 88.930
1296.886, 142.950
1298.094, 9.646
1299.302, 102.290
1300.509, 77.013
1301.717, 58.571
1302.924, 100.231
1304.131, 65.051
1305.338, 109.717
1306.545, 91.093
1307.752, 99.426
1308.958, 107.718
1310.164, 95.032
1311.370, 14.836
1312.576, 84.305
1313.782, 78.510
1314.987, 77.659
1316.193, 174.658
1317.398, 70.611
1318.603, 97.521
1319.807, 162.253
1321.012, 114.940
1322.216, 27.521
1323.421, 108.051
1324.625, 38.622
1325.829, 188.392
1327.032, 128.808
1328.236, 80.042
1329.439, 154.773
1330.642, 184.782
1331.845, 158.839
1333.048, 83.521
1334.251, 41.117
1335.453, 142.670
1336.656, 217.385
1337.858, 208.231
1339.060, 180.551
1340.261, 109.293
1341.463, 150.892
1342.664, 179.785
1343.866, 44.735
1345.067, 144.400
1346.267, 177.315
1347.468, 108.293
1348.669, 132.273
1349.869, 62.874
1351.069, 149.052
1352.269, 143.303
1353.469, 186.420
1354.668, 116.613
1355.868, 151.340
1357.067, 77.448
1358.266, 144.484
1359.465, 163.462
1360.664, 100.039
1361.862, 129.704
1363.061, 151.992
1364.259, 101.678
1365.457, 136.573
1366.655, 146.086
1367.852, 139.471
1369.050, 118.173
1370.247, 83.863
1371.444, 137.146
1372.641, 138.595
1373.838, 90.967
1375.035, 95.433
1376.231, 49.472
1377.427, 52.622
1378.623, 161.963
1379.819, 93.921
1381.015, 162.594
1382.211, 127.599
1383.406, 30.279
1384.601, 99.334
1385.796, 79.160
1386.991, 53.927
1388.185, 105.024
1389.380, 102.366
1390.574, 91.788
1391.768, 27.029
1392.962, 66.590
1394.156, 153.862
1395.350, 72.180
1396.543, 26.389
1397.736, 146.394
1398.929, 110.913
1400.122, 29.057
1401.315, 149.951
1402.507, 31.683
1403.700, 115.702
1404.892, 112.144
1406.084, 73.559
1407.276, 113.714
1408.467, 83.505
1409.659, 4.865
1410.850, 108.355
1412.041, 120.366
1413.232, 20.431
1414.423, 183.703
1415.614, 3.947
1416.804, 145.727
1417.994, 77.106
1419.184, 102.947
1420.374, 83.016
1421.564, 105.559
1422.753, 50.472
1423.943, 105.602
1425.132, 128.920
1426.321, 61.122
1427.510, 89.631
1428.698, 76.834
1429.887, 108.249
1431.075, 114.926
1432.263, 65.745
1433.451, 85.900
1434.639, 93.545
1435.827, 41.830
1437.014, 100.070
1438.201, 66.793
1439.388, 24.030
1440.575, 168.672
1441.762, 116.614
1442.949, 56.293
1444.135, 145.427
1445.321, 47.913
1446.507, 10.939
1447.693, 23.283
1448.879, 122.958
1450.064, 97.968
1451.250, 147.283
1452.435, 100.127
1453.620, 89.317
1454.805, 90.152
1455.989, 44.854
1457.174, 50.453
1458.358, 75.670
1459.542, 77.478
1460.726, 124.149
1461.910, 66.633
1463.093, 82.223
1464.277, 124.640
1465.460, 57.620
1466.643, 73.615
1467.826, 63.575
1469.009, 97.677
1470.191, 80.717
1471.373, 97.533
1472.556, 86.075
1473.738, 163.935
1474.919, 40.157
1476.101, 137.254
1477.283, 94.611
1478.464, 34.341
1479.645, 84.408
1480.826, 53.759
1482.007, 72.606
1483.187, 32.903
1484.368, 63.091
1485.548, 99.180
1486.728, 167.243
1487.908, 12.296
1489.088, 111.235
1490.268, 109.188
1491.447, 52.090
1492.626, 164.909
1493.805, 109.028
1494.984, 85.192
1496.163, 163.354
1497.341, 4.940
1498.520, 69.163
1499.698, 90.689
1500.876, 28.792
1502.054, 179.407
1503.232, 84.642
1504.409, 64.324
1505.586, 103.848
1506.763, 129.267
1507.940, 244.493
1509.117, 158.440
1510.294, 0.086
1511.470, 22.707
1512.647, 76.774
1513.823, 0.706
1514.999, 2.298
