##NAMES=Actinolite
##RRUFFID=R040064
##IDEAL CHEMISTRY=Ca_2_(Mg_4.5-2.5_Fe^2+^_0.5-2.5_)Si_8_O_22_(OH)_2_
##LOCALITY=Ehime Perfecture, Uma Gun, Japan
##OWNER=RRUFF
##SOURCE=University of Arizona Mineral Museum
##DESCRIPTION=Aggregate of green acicular crystals associated with chlorite
##STATUS=The identification of this mineral has been confirmed by X-ray diffraction and chemical analysis
##URL=rruff.info/R040064
##MEASURED CHEMISTRY=(Ca_0.95_Na_0.04_Mn_0.01_)_2_(Mg_0.88_Fe_0.12_)_5_(Si_0.98_Al_0.02_)_8_O_22_(OH)_2_
##PIN_ID=M00297
##ORIENTATION=Laser parallel to c* (0 0 1). Fiducial mark perpendicular to laser is parallel to -b [0 -1 0]
54.966, 0.000
56.365, 23.383
57.765, 20.378
59.164, 37.968
60.563, 70.013
61.962, 42.254
63.360, 78.530
64.758, 89.043
66.157, 98.231
67.554, 59.956
68.952, 54.852
70.349, 36.489
71.747, 9.165
73.144, 2.147
74.540, 13.490
75.937, 14.227
77.333, 11.343
78.729, 9.408
80.125, 0.868
81.521, 3.219
82.916, 25.010
84.311, 29.214
85.706, 60.809
87.101, 119.776
88.496, 154.098
89.890, 165.760
91.284, 235.749
92.678, 283.054
94.071, 290.662
95.465, 312.564
96.858, 330.748
98.251, 361.870
99.644, 425.894
101.036, 431.816
102.428, 434.948
103.820, 464.274
105.212, 536.785
106.604, 567.574
107.995, 668.331
109.387, 693.352
110.777, 743.533
112.168, 836.868
113.559, 897.355
114.949, 1018.999
116.339, 1207.798
117.729, 1292.753
119.119, 1236.859
120.508, 1089.114
121.897, 974.514
123.286, 955.056
124.675, 818.740
126.063, 748.564
127.452, 699.530
128.840, 699.637
130.228, 713.880
131.615, 681.256
133.003, 694.760
134.390, 664.389
135.777, 664.138
137.164, 693.005
138.550, 709.968
139.937, 715.966
141.323, 748.996
142.709, 720.055
144.094, 792.137
145.480, 842.242
146.865, 938.366
148.250, 1072.493
149.635, 1426.634
151.019, 1989.814
152.403, 2772.042
153.788, 3704.321
155.171, 4664.651
156.555, 5975.036
157.939, 7666.479
159.322, 10026.974
160.705, 11425.528
162.088, 10201.143
163.470, 7624.814
164.853, 5568.544
166.235, 4519.334
167.617, 4286.185
168.998, 4657.103
170.380, 5466.125
171.761, 6803.290
173.142, 8199.566
174.523, 10026.955
175.904, 12270.452
177.284, 14907.052
178.664, 16970.703
180.044, 17044.443
181.424, 14616.256
182.803, 11104.119
184.183, 7843.050
185.562, 5763.044
186.940, 4403.090
188.319, 3602.184
189.698, 3096.357
191.076, 2629.013
192.454, 2406.902
193.831, 2402.313
195.209, 2277.808
196.586, 2234.438
197.963, 2211.160
199.340, 2241.987
200.717, 2278.861
202.093, 2428.780
203.470, 2574.740
204.846, 2795.738
206.221, 2951.771
207.597, 3469.840
208.972, 3842.943
210.347, 4247.083
211.722, 5054.257
213.097, 6182.465
214.472, 7533.707
215.846, 9451.981
217.220, 11435.290
218.594, 13841.633
219.967, 16543.002
221.341, 18937.541
222.714, 21020.045
224.087, 21029.516
225.460, 19233.957
226.832, 15622.348
228.204, 11724.726
229.577, 8723.016
230.948, 6412.240
232.320, 4831.476
233.692, 3615.711
235.063, 2819.119
236.434, 2224.583
237.805, 1859.629
239.175, 1538.574
240.545, 1349.246
241.916, 1210.293
243.286, 1135.848
244.655, 1092.658
246.025, 1124.721
247.394, 1179.858
248.763, 1205.063
250.132, 1263.334
251.501, 1294.669
252.869, 1179.067
254.237, 1042.525
255.605, 971.041
256.973, 920.615
258.340, 837.243
259.708, 787.927
261.075, 749.664
262.442, 655.451
263.808, 673.289
265.175, 592.175
266.541, 590.110
267.907, 520.091
269.273, 409.118
270.639, 374.190
272.004, 305.307
273.369, 316.467
274.734, 343.669
276.099, 301.914
277.463, 278.200
278.828, 375.527
280.192, 388.313
281.556, 366.719
282.919, 471.704
284.283, 501.082
285.646, 630.839
287.009, 741.539
288.372, 871.432
289.734, 977.910
291.097, 1127.317
292.459, 1191.602
293.821, 1252.854
295.183, 1352.130
296.544, 1496.168
297.905, 1547.200
299.266, 1831.044
300.627, 2027.917
301.988, 2247.583
303.348, 2222.816
304.709, 2030.772
306.069, 1829.262
307.428, 1496.274
308.788, 1236.312
310.147, 943.205
311.507, 783.125
312.865, 625.245
314.224, 560.507
315.583, 473.680
316.941, 470.937
318.299, 431.163
319.657, 433.438
321.015, 463.807
322.372, 492.484
323.729, 558.813
325.086, 574.335
326.443, 775.714
327.800, 809.155
329.156, 1041.094
330.512, 1135.896
331.868, 1359.125
333.224, 1393.329
334.579, 1383.970
335.935, 1217.337
337.290, 1214.937
338.645, 1189.321
339.999, 932.076
341.354, 880.305
342.708, 874.040
344.062, 949.697
345.416, 1031.373
346.769, 1130.198
348.123, 1244.909
349.476, 1312.637
350.829, 1453.383
352.182, 1550.145
353.534, 1551.924
354.887, 1427.719
356.239, 1319.530
357.591, 1236.355
358.942, 1103.197
360.294, 1159.052
361.645, 1205.921
362.996, 1290.805
364.347, 1452.701
365.698, 1604.610
367.048, 1870.532
368.398, 2090.467
369.748, 2265.415
371.098, 2302.375
372.448, 2130.348
373.797, 1937.333
375.146, 1653.330
376.495, 1505.339
377.844, 1413.360
379.192, 1202.392
380.540, 1136.436
381.889, 1019.491
383.236, 1061.557
384.584, 1237.643
385.932, 1312.750
387.279, 1514.877
388.626, 1857.026
389.973, 2200.195
391.319, 2422.386
392.666, 2768.597
394.012, 2889.830
395.358, 2822.085
396.704, 2368.361
398.049, 1811.658
399.394, 1396.031
400.740, 1058.374
402.084, 808.740
403.429, 649.131
404.774, 543.543
406.118, 566.975
407.462, 491.426
408.806, 504.485
410.150, 570.971
411.493, 629.706
412.836, 715.224
414.179, 737.003
415.522, 767.552
416.865, 782.116
418.207, 644.695
419.549, 585.293
420.891, 474.010
422.233, 374.632
423.575, 287.268
424.916, 224.780
426.257, 179.578
427.598, 143.253
428.939, 112.940
430.279, 110.640
431.619, 87.351
432.959, 49.075
434.299, 70.810
435.639, 103.556
436.978, 56.329
438.318, 61.097
439.657, 36.876
440.996, 14.335
442.334, 11.459
443.673, 37.736
445.011, 80.937
446.349, 68.164
447.687, 47.411
449.024, 49.668
450.361, 44.939
451.699, 33.782
453.036, 71.508
454.372, 32.820
455.709, 32.138
457.045, 63.464
458.381, 3.812
459.717, 29.845
461.053, 4.509
462.388, 33.820
463.724, 43.159
465.059, 11.489
466.394, 7.857
467.728, 25.803
469.063, 19.470
470.397, 12.856
471.731, 31.185
473.065, 17.476
474.398, 3.142
475.732, 38.811
477.065, 5.485
478.398, 24.167
479.731, 7.854
481.063, 32.449
482.396, 18.766
483.728, 26.909
485.060, 32.411
486.391, 23.254
487.723, 29.069
489.054, 54.395
490.385, 3.260
491.716, 4.085
493.047, 107.428
494.377, 62.807
495.708, 40.219
497.038, 7.617
498.368, 73.021
499.697, 44.457
501.027, 16.915
502.356, 14.630
503.685, 40.176
505.014, 53.738
506.342, 6.692
507.671, 54.870
508.999, 96.441
510.327, 137.024
511.655, 205.610
512.982, 190.203
514.310, 230.799
515.637, 287.396
516.964, 329.998
518.291, 261.618
519.617, 321.239
520.944, 328.863
522.270, 349.487
523.596, 377.113
524.921, 453.748
526.247, 522.399
527.572, 594.069
528.897, 630.757
530.222, 652.460
531.547, 683.167
532.871, 591.874
534.196, 486.581
535.520, 382.289
536.844, 361.998
538.167, 307.706
539.491, 237.414
540.814, 265.122
542.137, 190.831
543.460, 182.539
544.783, 89.247
546.105, 140.954
547.427, 138.660
548.749, 137.365
550.071, 153.862
551.393, 107.773
552.714, 139.475
554.035, 129.175
555.356, 84.874
556.677, 121.571
557.998, 40.266
559.318, 76.958
560.638, 103.648
561.958, 88.335
563.278, 84.020
564.597, 114.703
565.917, 67.382
567.236, 22.059
568.555, 99.726
569.874, 35.391
571.192, 70.049
572.511, 35.705
573.829, 103.354
575.147, 62.999
576.464, 104.641
577.782, 53.279
579.099, 44.913
580.416, 101.542
581.733, 114.166
583.050, 122.786
584.366, 92.402
585.683, 114.014
586.999, 103.621
588.315, 100.765
589.630, 106.821
590.946, 102.414
592.261, 81.002
593.576, 85.586
594.891, 57.164
596.206, 79.737
597.520, 103.304
598.834, 144.867
600.148, 88.004
601.462, 111.556
602.776, 70.560
604.089, 106.204
605.402, 125.501
606.715, 160.886
608.028, 223.108
609.341, 154.547
610.653, 197.539
611.965, 260.455
613.277, 174.432
614.589, 284.411
615.901, 308.653
617.212, 275.929
618.523, 347.416
619.834, 366.903
621.145, 411.616
622.456, 436.961
623.766, 444.430
625.076, 528.543
626.386, 561.003
627.696, 570.598
629.006, 582.248
630.315, 724.872
631.624, 643.312
632.933, 797.634
634.242, 891.074
635.551, 930.110
636.859, 1082.532
638.167, 1098.476
639.475, 1256.797
640.783, 1334.830
642.090, 1521.530
643.398, 1627.757
644.705, 1875.846
646.012, 2076.837
647.318, 2335.665
648.625, 2709.853
649.931, 2933.751
651.237, 3343.649
652.543, 3653.947
653.849, 4103.999
655.155, 4616.710
656.460, 5120.642
657.765, 5654.349
659.070, 6401.684
660.375, 7471.919
661.679, 8987.312
662.984, 10615.765
664.288, 13204.075
665.592, 16614.984
666.895, 21156.406
668.199, 26498.709
669.502, 33693.406
670.805, 40399.691
672.108, 47259.980
673.411, 50054.809
674.713, 47394.742
676.016, 42319.094
677.318, 33602.496
678.620, 25802.750
679.921, 19428.994
681.223, 15061.237
682.524, 11712.745
683.825, 9197.088
685.126, 7688.200
686.427, 6527.761
687.727, 5581.578
689.028, 4835.805
690.328, 4334.996
691.628, 3866.180
692.927, 3403.442
694.227, 2991.611
695.526, 2629.694
696.825, 2324.980
698.124, 2002.186
699.423, 1788.361
700.721, 1546.493
702.020, 1468.617
703.318, 1268.735
704.616, 1122.845
705.913, 962.948
707.211, 945.042
708.508, 950.130
709.805, 805.210
711.102, 653.283
712.399, 742.348
713.695, 582.406
714.992, 587.401
716.288, 551.444
717.584, 538.480
718.879, 447.509
720.175, 423.530
721.470, 456.543
722.765, 475.549
724.060, 359.957
725.355, 317.949
726.649, 335.699
727.944, 385.677
729.238, 357.401
730.532, 298.364
731.825, 369.320
733.119, 277.269
734.412, 352.206
735.705, 322.031
736.998, 369.959
738.291, 354.880
739.584, 350.794
740.876, 358.701
742.168, 384.601
743.460, 299.495
744.752, 322.382
746.043, 305.262
747.334, 327.135
748.626, 333.002
749.916, 327.862
751.207, 281.700
752.498, 292.548
753.788, 308.389
755.078, 245.223
756.368, 221.053
757.658, 238.877
758.947, 190.173
760.237, 177.890
761.526, 134.384
762.815, 130.233
764.104, 84.087
765.392, 70.944
766.680, 144.803
767.969, 37.672
769.257, 74.542
770.544, 52.414
771.832, 135.295
773.119, 76.171
774.406, 32.042
775.693, 68.907
776.980, 18.775
778.267, 55.646
779.553, 4.490
780.839, 54.362
782.125, 20.208
783.411, 29.046
784.697, 31.883
785.982, 63.722
787.267, 40.556
788.552, 31.386
789.837, 2.211
791.122, 49.023
792.406, 12.169
793.690, 79.619
794.974, 39.411
796.258, 10.206
797.542, 43.991
798.825, 15.218
800.108, 30.448
801.391, 19.698
802.674, 16.046
803.957, 9.216
805.239, 56.490
806.522, 24.223
807.804, 125.051
809.085, 4.611
810.367, 11.732
811.649, 1.928
812.930, 47.408
814.211, 39.227
815.492, 39.141
816.772, 8.541
818.053, 16.044
819.333, 16.372
820.613, 24.807
821.893, 46.735
823.173, 13.728
824.452, 49.792
825.732, 34.307
827.011, 1.181
828.290, 50.680
829.568, 18.784
830.847, 11.244
832.125, 53.698
833.403, 46.148
834.681, 25.405
835.959, 45.981
837.236, 59.590
838.514, 56.316
839.791, 47.924
841.068, 4.644
842.345, 26.626
843.621, 52.893
844.898, 56.166
846.174, 13.415
847.450, 49.670
848.726, 21.923
850.001, 29.172
851.277, 17.418
852.552, 22.660
853.827, 80.899
855.102, 57.135
856.376, 70.268
857.651, 90.608
858.925, 72.841
860.199, 31.071
861.473, 57.298
862.746, 34.526
864.020, 64.751
865.293, 31.974
866.566, 86.195
867.839, 50.415
869.112, 97.633
870.384, 104.426
871.656, 96.583
872.928, 121.277
874.200, 109.488
875.472, 96.701
876.744, 138.913
878.015, 86.126
879.286, 74.346
880.557, 292.567
881.828, 188.899
883.098, 208.223
884.369, 171.226
885.639, 156.444
886.909, 180.663
888.178, 256.880
889.448, 261.097
890.717, 331.313
891.987, 304.539
893.256, 360.764
894.524, 373.999
895.793, 427.237
897.061, 455.479
898.330, 454.719
899.598, 428.967
900.865, 474.214
902.133, 502.463
903.401, 554.712
904.668, 615.960
905.935, 647.209
907.202, 692.458
908.468, 748.594
909.735, 778.965
911.001, 859.224
912.267, 917.486
913.533, 1031.023
914.799, 1136.021
916.064, 1294.289
917.330, 1433.957
918.595, 1589.826
919.860, 1802.094
921.124, 2204.366
922.389, 2467.639
923.653, 2907.913
924.918, 3516.188
926.182, 4173.461
927.445, 4866.737
928.709, 5431.025
929.972, 5943.138
931.236, 5922.423
932.499, 5750.555
933.761, 5093.841
935.024, 4254.989
936.286, 3466.251
937.549, 3046.535
938.811, 2423.822
940.073, 2308.109
941.334, 2012.386
942.596, 1951.014
943.857, 1963.308
945.118, 1992.051
946.379, 2043.351
947.640, 2064.651
948.900, 2000.657
950.161, 1818.969
951.421, 1764.583
952.681, 1488.251
953.940, 1407.604
955.200, 1197.760
956.459, 1108.815
957.719, 1051.914
958.978, 966.192
960.236, 901.010
961.495, 816.952
962.753, 872.905
964.012, 749.731
965.270, 751.492
966.527, 749.860
967.785, 669.163
969.043, 676.400
970.300, 632.641
971.557, 628.410
972.814, 641.669
974.071, 604.045
975.327, 645.028
976.583, 613.408
977.840, 623.783
979.095, 636.597
980.351, 593.489
981.607, 603.624
982.862, 529.864
984.117, 577.251
985.372, 547.640
986.627, 512.035
987.882, 527.154
989.136, 519.438
990.390, 510.501
991.644, 532.002
992.898, 508.795
994.152, 504.173
995.405, 504.583
996.659, 510.032
997.912, 512.399
999.165, 533.877
1000.417, 520.251
1001.670, 551.835
1002.922, 590.648
1004.174, 659.631
1005.426, 689.085
1006.678, 690.605
1007.930, 730.036
1009.181, 884.593
1010.432, 845.045
1011.683, 969.659
1012.934, 977.553
1014.185, 1079.229
1015.435, 1231.712
1016.685, 1326.349
1017.935, 1405.993
1019.185, 1661.562
1020.435, 1817.168
1021.684, 1843.813
1022.934, 1931.453
1024.183, 1949.126
1025.432, 2013.257
1026.680, 2056.085
1027.929, 2124.675
1029.177, 2223.142
1030.425, 2285.795
1031.673, 2323.576
1032.921, 2245.402
1034.169, 2213.920
1035.416, 2407.779
1036.663, 2370.570
1037.911, 2578.190
1039.157, 2836.897
1040.404, 2731.547
1041.650, 2958.627
1042.897, 3405.237
1044.143, 3686.391
1045.389, 4356.825
1046.634, 4958.227
1047.880, 5787.899
1049.125, 6866.395
1050.371, 8248.162
1051.615, 10189.144
1052.860, 12141.907
1054.105, 15278.631
1055.349, 18133.410
1056.593, 21566.254
1057.837, 24009.768
1059.081, 25856.863
1060.325, 24983.469
1061.568, 22480.145
1062.812, 19104.504
1064.055, 15376.651
1065.298, 12471.494
1066.540, 10257.303
1067.783, 8440.066
1069.025, 7088.820
1070.267, 6113.328
1071.509, 4938.205
1072.751, 4127.296
1073.993, 3574.082
1075.234, 2984.818
1076.475, 2566.003
1077.716, 2268.323
1078.957, 1902.057
1080.198, 1741.602
1081.438, 1667.346
1082.679, 1414.127
1083.919, 1382.474
1085.159, 1228.113
1086.398, 1101.692
1087.638, 994.257
1088.877, 958.851
1090.116, 886.618
1091.355, 877.846
1092.594, 857.577
1093.833, 788.124
1095.071, 758.492
1096.309, 683.014
1097.547, 634.749
1098.785, 581.817
1100.023, 482.484
1101.260, 472.080
1102.498, 462.941
1103.735, 371.091
1104.972, 455.056
1106.208, 347.676
1107.445, 392.487
1108.681, 295.528
1109.918, 350.919
1111.154, 327.723
1112.389, 275.383
1113.625, 355.675
1114.860, 250.319
1116.096, 259.892
1117.331, 297.653
1118.566, 269.084
1119.800, 287.508
1121.035, 344.184
1122.269, 294.851
1123.503, 288.546
1124.737, 271.375
1125.971, 212.711
1127.205, 229.371
1128.438, 189.723
1129.671, 154.973
1130.904, 149.478
1132.137, 119.988
1133.370, 115.589
1134.602, 141.373
1135.834, 144.625
1137.066, 89.455
1138.298, 110.340
1139.530, 82.690
1140.762, 80.876
1141.993, 68.661
1143.224, 87.550
1144.455, 39.005
1145.686, 39.465
1146.917, 35.058
1148.147, 118.508
1149.377, 10.513
1150.607, 81.093
1151.837, 43.619
1153.067, 48.167
1154.296, 26.354
1155.526, 84.102
1156.755, 27.572
1157.984, 53.966
1159.213, 16.330
1160.441, 9.365
1161.670, 3.770
1162.898, 51.245
1164.126, 15.569
1165.354, 14.864
1166.581, 34.311
1167.809, 26.375
1169.036, 23.310
1170.263, 25.350
1171.490, 23.013
1172.717, 14.052
1173.943, 16.489
1175.170, 47.469
1176.396, 33.533
1177.622, 34.406
1178.848, 4.522
1180.073, 0.495
1181.299, 69.481
1182.524, 1.701
1183.749, 5.231
1184.974, 46.917
1186.199, 27.500
1187.423, 42.486
1188.648, 39.903
1189.872, 52.662
1191.096, 40.456
1192.320, 12.718
1193.543, 11.944
1194.767, 39.658
1195.990, 28.789
1197.213, 17.909
1198.436, 2.442
1199.659, 19.088
1200.881, 28.472
1202.104, 15.776
1203.326, 5.104
1204.548, 11.296
1205.770, 3.991
1206.991, 12.264
1208.213, 13.047
1209.434, 7.889
1210.655, 4.156
1211.876, 7.160
1213.096, 11.391
1214.317, 18.765
1215.537, 20.941
1216.757, 8.890
1217.977, 4.121
1219.197, 1.822
1220.417, 15.586
1221.636, 26.258
1222.855, 17.866
1224.074, 19.830
1225.293, 27.436
1226.512, 72.260
1227.731, 24.061
1228.949, 19.920
1230.167, 3.312
1231.385, 48.561
1232.603, 62.636
1233.820, 65.494
1235.038, 61.085
1236.255, 23.660
1237.472, 15.591
1238.689, 28.191
1239.906, 70.071
1241.122, 12.841
1242.338, 21.783
1243.555, 6.779
1244.771, 13.307
1245.986, 59.314
1247.202, 56.848
1248.417, 14.402
1249.633, 12.355
1250.848, 57.103
1252.063, 52.536
1253.277, 22.734
1254.492, 7.261
1255.706, 116.615
1256.920, 26.921
1258.134, 2.874
1259.348, 60.623
1260.562, 56.743
1261.775, 71.691
1262.988, 33.684
1264.201, 106.682
1265.414, 106.739
1266.627, 2.122
1267.839, 48.942
1269.052, 41.040
1270.264, 24.962
1271.476, 123.959
1272.688, 44.828
1273.899, 8.617
1275.111, 87.324
1276.322, 79.940
1277.533, 76.534
1278.744, 52.074
1279.955, 3.325
1281.165, 139.362
1282.376, 21.879
1283.586, 18.309
1284.796, 113.765
1286.006, 56.137
1287.215, 47.656
1288.425, 43.971
1289.634, 82.397
1290.843, 78.826
1292.052, 46.020
1293.261, 75.164
1294.469, 12.345
1295.678, 43.322
1296.886, 48.446
1298.094, 44.521
1299.302, 52.871
1300.509, 52.296
1301.717, 47.513
1302.924, 60.352
1304.131, 64.453
1305.338, 74.895
1306.545, 72.771
1307.752, 64.214
1308.958, 57.978
1310.164, 61.898
1311.370, 36.436
1312.576, 109.023
1313.782, 24.456
1314.987, 106.997
1316.193, 20.570
1317.398, 123.798
1318.603, 19.562
1319.807, 5.832
1321.012, 94.189
1322.216, 98.644
1323.421, 51.883
1324.625, 78.961
1325.829, 75.963
1327.032, 109.242
1328.236, 77.163
1329.439, 131.111
1330.642, 10.203
1331.845, 51.176
1333.048, 135.292
1334.251, 152.835
1335.453, 53.819
1336.656, 76.262
1337.858, 60.364
1339.060, 94.468
1340.261, 101.274
1341.463, 56.229
1342.664, 62.934
1343.866, 85.342
1345.067, 114.941
1346.267, 165.545
1347.468, 118.069
1348.669, 47.498
1349.869, 110.320
1351.069, 119.441
1352.269, 24.026
1353.469, 122.518
1354.668, 122.292
1355.868, 139.255
1357.067, 163.492
1358.266, 45.737
1359.465, 87.001
1360.664, 83.251
1361.862, 112.718
1363.061, 95.822
1364.259, 25.656
1365.457, 10.229
1366.655, 2.269
1367.852, 75.060
1369.050, 27.572
1370.247, 109.697
1371.444, 109.943
1372.641, 89.972
1373.838, 105.994
1375.035, 73.225
1376.231, 32.437
1377.427, 65.266
1378.623, 14.087
1379.819, 155.345
1381.015, 70.804
1382.211, 56.917
1383.406, 35.319
1384.601, 11.588
1385.796, 71.574
1386.991, 107.596
1388.185, 84.789
1389.380, 41.866
1390.574, 57.640
1391.768, 36.068
1392.962, 107.648
1394.156, 96.205
1395.350, 13.668
1396.543, 91.885
1397.736, 21.242
1398.929, 41.798
1400.122, 48.205
1401.315, 66.368
1402.507, 46.339
1403.700, 20.634
1404.892, 108.819
1406.084, 84.533
1407.276, 77.559
1408.467, 57.313
1409.659, 32.260
1410.850, 40.874
1412.041, 30.116
1413.232, 61.683
1414.423, 37.265
1415.614, 61.786
1416.804, 74.155
1417.994, 86.528
1419.184, 114.354
1420.374, 87.472
1421.564, 101.880
1422.753, 69.344
1423.943, 40.409
1425.132, 74.755
1426.321, 127.202
1427.510, 73.060
1428.698, 124.821
1429.887, 44.710
1431.075, 134.768
1432.263, 52.828
1433.451, 35.807
1434.639, 90.395
1435.827, 129.414
1437.014, 114.869
1438.201, 96.576
1439.388, 106.609
1440.575, 78.189
1441.762, 99.170
1442.949, 98.426
1444.135, 103.803
1445.321, 86.006
1446.507, 33.448
1447.693, 96.477
1448.879, 147.316
1450.064, 155.342
1451.250, 100.633
1452.435, 4.892
1453.620, 141.967
1454.805, 107.623
1455.989, 139.919
1457.174, 206.937
1458.358, 121.973
1459.542, 93.873
1460.726, 101.360
1461.910, 112.392
1463.093, 139.784
1464.277, 103.447
1465.460, 90.525
1466.643, 194.886
1467.826, 73.343
1469.009, 243.838
1470.191, 59.965
1471.373, 114.537
1472.556, 119.960
1473.738, 147.812
1474.919, 35.221
1476.101, 124.236
1477.283, 158.313
1478.464, 53.101
1479.645, 93.505
1480.826, 139.864
1482.007, 105.100
1483.187, 212.409
1484.368, 47.103
1485.548, 119.438
1486.728, 77.824
1487.908, 89.862
1489.088, 107.294
1490.268, 77.060
1491.447, 37.189
1492.626, 72.702
1493.805, 91.235
1494.984, 150.850
1496.163, 125.464
