##NAMES=Actinolite
##RRUFFID=R040064
##IDEAL CHEMISTRY=Ca_2_(Mg_4.5-2.5_Fe^2+^_0.5-2.5_)Si_8_O_22_(OH)_2_
##LOCALITY=Ehime Perfecture, Uma Gun, Japan
##OWNER=RRUFF
##SOURCE=University of Arizona Mineral Museum
##DESCRIPTION=Aggregate of green acicular crystals associated with chlorite
##STATUS=The identification of this mineral has been confirmed by X-ray diffraction and chemical analysis
##URL=rruff.info/R040064
##MEASURED CHEMISTRY=(Ca_0.95_Na_0.04_Mn_0.01_)_2_(Mg_0.88_Fe_0.12_)_5_(Si_0.98_Al_0.02_)_8_O_22_(OH)_2_
##PIN_ID=M00297
##ORIENTATION=Laser parallel to c* (0 0 1). Fiducial mark perpendicular to laser is parallel to -b [0 -1 0]
54.966, 0.000
56.365, 2.375
57.765, 36.854
59.164, 95.237
60.563, 85.328
61.962, 73.606
63.360, 105.134
64.758, 98.642
66.157, 111.796
67.554, 96.078
68.952, 63.987
70.349, 58.807
71.747, 5.495
73.144, 38.009
74.540, 6.693
75.937, 12.652
77.333, 32.907
78.729, 40.499
80.125, 0.474
81.521, 5.128
82.916, 42.269
84.311, 52.916
85.706, 55.041
87.101, 72.622
88.496, 140.640
89.890, 181.078
91.284, 251.922
92.678, 285.155
94.071, 327.762
95.465, 351.730
96.858, 369.045
98.251, 386.686
99.644, 512.629
101.036, 486.850
102.428, 543.328
103.820, 677.046
105.212, 833.989
106.604, 1151.148
107.995, 1389.514
109.387, 1727.082
110.777, 1936.843
112.168, 2227.793
113.559, 2415.928
114.949, 2608.250
116.339, 2771.766
117.729, 2636.479
119.119, 2142.388
120.508, 1608.492
121.897, 1376.788
123.286, 1282.272
124.675, 1119.938
126.063, 997.779
127.452, 896.792
128.840, 934.970
130.228, 903.310
131.615, 913.805
133.003, 963.453
134.390, 1005.248
135.777, 1129.187
137.164, 1099.266
138.550, 1256.462
139.937, 1264.704
141.323, 1274.990
142.709, 1295.313
144.094, 1312.669
145.480, 1302.052
146.865, 1362.458
148.250, 1691.888
149.635, 2342.326
151.019, 3368.773
152.403, 4719.279
153.788, 5871.845
155.171, 6851.477
156.555, 7507.175
157.939, 8121.941
159.322, 8402.779
160.705, 7726.687
162.088, 5802.667
163.470, 4424.721
164.853, 3726.846
166.235, 3694.047
167.617, 4253.323
168.998, 5305.672
170.380, 6747.110
171.761, 8454.679
173.142, 9858.431
174.523, 11198.358
175.904, 12092.451
177.284, 12278.716
178.664, 11722.133
180.044, 9812.711
181.424, 7373.408
182.803, 5271.205
184.183, 3759.103
185.562, 3036.098
186.940, 2586.178
188.319, 2263.362
189.698, 2118.608
191.076, 1986.904
192.454, 1892.251
193.831, 1900.649
195.209, 1911.098
196.586, 1951.601
197.963, 1971.155
199.340, 2139.758
200.717, 2238.411
202.093, 2436.112
203.470, 2684.863
204.846, 3006.661
206.221, 3401.507
207.597, 4054.399
208.972, 4648.338
210.347, 5299.324
211.722, 6322.354
213.097, 7909.430
214.472, 9769.552
215.846, 12107.716
217.220, 13959.921
218.594, 15733.173
219.967, 16967.467
221.341, 17124.869
222.714, 16781.971
224.087, 14958.158
225.460, 12726.295
226.832, 10221.379
228.204, 8136.405
229.577, 6646.348
230.948, 5371.276
232.320, 4438.105
233.692, 3586.857
235.063, 2804.592
236.434, 2279.562
237.805, 1883.506
239.175, 1652.762
240.545, 1540.091
241.916, 1625.573
243.286, 1645.292
244.655, 1760.019
246.025, 1748.762
247.394, 1856.613
248.763, 1827.548
250.132, 1768.575
251.501, 1755.681
252.869, 1566.871
254.237, 1566.134
255.605, 1478.473
256.973, 1498.883
258.340, 1501.362
259.708, 1551.907
261.075, 1424.518
262.442, 1354.193
263.808, 1201.930
265.175, 1056.729
266.541, 828.587
267.907, 671.507
269.273, 449.487
270.639, 364.522
272.004, 291.619
273.369, 227.769
274.734, 212.311
276.099, 229.242
277.463, 234.563
278.828, 235.935
280.192, 298.356
281.556, 327.827
282.919, 458.386
284.283, 505.147
285.646, 682.861
287.009, 691.070
288.372, 798.271
289.734, 899.105
291.097, 976.837
292.459, 1021.097
293.821, 1187.326
295.183, 1323.562
296.544, 1547.459
297.905, 1614.515
299.266, 1766.622
300.627, 1778.727
301.988, 1743.682
303.348, 1600.186
304.709, 1364.882
306.069, 1071.581
307.428, 903.023
308.788, 769.434
310.147, 618.511
311.507, 606.190
312.865, 505.942
314.224, 480.463
315.583, 438.519
316.941, 446.316
318.299, 477.630
319.657, 458.862
321.015, 488.404
322.372, 545.977
323.729, 580.580
325.086, 701.213
326.443, 849.876
327.800, 973.568
329.156, 1118.290
330.512, 1152.040
331.868, 1202.819
333.224, 1211.625
334.579, 1187.602
335.935, 1142.480
337.290, 1183.367
338.645, 1285.281
339.999, 1435.218
341.354, 1604.179
342.708, 1902.164
344.062, 2220.171
345.416, 2409.200
346.769, 2678.251
348.123, 2852.323
349.476, 2932.416
350.829, 2960.529
352.182, 2829.661
353.534, 2736.814
354.887, 2532.985
356.239, 2418.176
357.591, 2404.385
358.942, 2462.657
360.294, 2674.860
361.645, 2848.124
362.996, 3181.406
364.347, 3584.706
365.698, 4008.024
367.048, 4424.357
368.398, 4569.710
369.748, 4627.077
371.098, 4561.462
372.448, 4184.864
373.797, 3866.281
375.146, 3413.714
376.495, 3073.162
377.844, 2705.626
379.192, 2310.105
380.540, 2156.599
381.889, 2057.184
383.236, 1979.631
384.584, 2204.178
385.932, 2431.751
387.279, 2759.349
388.626, 3171.972
389.973, 3466.621
391.319, 3512.296
392.666, 3498.996
394.012, 3179.723
395.358, 2718.476
396.704, 2116.255
398.049, 1628.073
399.394, 1326.717
400.740, 1021.579
402.084, 886.465
403.429, 772.698
404.774, 823.277
406.118, 961.250
407.462, 1019.714
408.806, 1148.803
410.150, 1293.881
411.493, 1433.627
412.836, 1456.301
414.179, 1480.729
415.522, 1418.362
416.865, 1322.145
418.207, 1165.305
419.549, 890.483
420.891, 786.678
422.233, 617.136
423.575, 483.365
424.916, 435.609
426.257, 514.033
427.598, 504.309
428.939, 520.545
430.279, 618.220
431.619, 558.563
432.959, 627.188
434.299, 570.535
435.639, 600.025
436.978, 448.212
438.318, 321.598
439.657, 154.154
440.996, 126.563
442.334, 39.263
443.673, 0.696
445.011, 33.329
446.349, 51.341
447.687, 77.910
449.024, 94.502
450.361, 86.125
451.699, 100.775
453.036, 72.461
454.372, 106.169
455.709, 30.913
457.045, 131.662
458.381, 44.464
459.717, 98.277
461.053, 61.128
462.388, 93.000
463.724, 65.906
465.059, 49.832
466.394, 29.774
467.728, 42.722
469.063, 21.684
470.397, 33.641
471.731, 46.607
473.065, 8.586
474.398, 58.564
475.732, 1.433
477.065, 22.567
478.398, 49.569
479.731, 28.592
481.063, 52.377
482.396, 34.374
483.728, 34.379
485.060, 56.395
486.391, 15.425
487.723, 58.466
489.054, 24.512
490.385, 45.567
491.716, 42.635
493.047, 17.708
494.377, 7.784
495.708, 12.861
497.038, 69.953
498.368, 59.049
499.697, 53.156
501.027, 109.271
502.356, 209.397
503.685, 167.545
505.014, 358.712
506.342, 407.897
507.671, 528.090
508.999, 687.290
510.327, 852.493
511.655, 918.697
512.982, 959.904
514.310, 1016.117
515.637, 1051.330
516.964, 1104.546
518.291, 1126.784
519.617, 1310.026
520.944, 1497.286
522.270, 1632.545
523.596, 1976.805
524.921, 2201.082
526.247, 2388.359
527.572, 2546.642
528.897, 2509.925
530.222, 2583.208
531.547, 1827.488
532.871, 1562.768
534.196, 1111.046
535.520, 874.323
536.844, 691.597
538.167, 575.870
539.491, 517.142
540.814, 426.411
542.137, 334.677
543.460, 319.941
544.783, 243.203
546.105, 224.462
547.427, 161.718
548.749, 185.970
550.071, 143.218
551.393, 117.463
552.714, 158.704
554.035, 138.940
555.356, 155.172
556.677, 49.399
557.998, 18.621
559.318, 73.830
560.638, 102.033
561.958, 35.231
563.278, 25.420
564.597, 89.597
565.917, 31.768
567.236, 2.073
568.555, 54.061
569.874, 11.812
571.192, 98.284
572.511, 11.373
573.829, 59.441
575.147, 30.502
576.464, 137.549
577.782, 63.589
579.099, 79.621
580.416, 46.645
581.733, 96.659
583.050, 91.664
584.366, 52.662
585.683, 121.649
586.999, 26.628
588.315, 44.590
589.630, 65.539
590.946, 19.479
592.261, 111.397
593.576, 58.307
594.891, 6.794
596.206, 92.071
597.520, 57.925
598.834, 77.769
600.148, 52.603
601.462, 136.425
602.776, 65.197
604.089, 134.803
605.402, 150.492
606.715, 156.722
608.028, 188.993
609.341, 174.665
610.653, 245.471
611.965, 242.781
613.277, 251.782
614.589, 248.177
615.901, 203.972
617.212, 320.604
618.523, 280.296
619.834, 407.125
621.145, 413.948
622.456, 419.344
623.766, 429.557
625.076, 473.063
626.386, 505.775
627.696, 581.370
629.006, 604.834
630.315, 738.823
631.624, 726.211
632.933, 882.675
634.242, 982.130
635.551, 1092.779
636.859, 1243.627
638.167, 1247.175
639.475, 1509.352
640.783, 1683.321
642.090, 1956.574
643.398, 2202.219
644.705, 2431.381
646.012, 2639.143
647.318, 2952.838
648.625, 3275.431
649.931, 3527.126
651.237, 3944.932
652.543, 4151.508
653.849, 4527.047
655.155, 5003.793
656.460, 5484.267
657.765, 6329.883
659.070, 6985.529
660.375, 8394.397
661.679, 10334.729
662.984, 12573.041
664.288, 15766.986
665.592, 20346.393
666.895, 25671.209
668.199, 31912.578
669.502, 38140.461
670.805, 42480.680
672.108, 45394.102
673.411, 43252.965
674.713, 37754.309
676.016, 31166.488
677.318, 23995.654
678.620, 18746.148
679.921, 14418.610
681.223, 11842.893
682.524, 9896.306
683.825, 8501.159
685.126, 8013.560
686.427, 7446.762
687.727, 6897.090
689.028, 6435.405
690.328, 5922.585
691.628, 5425.809
692.927, 4677.980
694.227, 4034.145
695.526, 3305.469
696.825, 3039.569
698.124, 2503.657
699.423, 2179.782
700.721, 1828.011
702.020, 1647.061
703.318, 1435.098
704.616, 1303.122
705.913, 1103.133
707.211, 995.131
708.508, 1011.117
709.805, 864.090
711.102, 745.050
712.399, 770.997
713.695, 611.921
714.992, 706.030
716.288, 556.939
717.584, 534.836
718.879, 518.402
720.175, 497.636
721.470, 504.496
722.765, 482.881
724.060, 440.652
725.355, 466.442
726.649, 370.572
727.944, 377.371
729.238, 427.747
730.532, 397.513
731.825, 457.766
733.119, 484.388
734.412, 542.128
735.705, 610.857
736.998, 635.329
738.291, 629.035
739.584, 671.730
740.876, 714.249
742.168, 618.921
743.460, 644.637
744.752, 593.917
746.043, 665.533
747.334, 662.870
748.626, 623.488
749.916, 558.965
751.207, 481.748
752.498, 464.334
753.788, 385.752
755.078, 289.317
756.368, 276.594
757.658, 189.139
758.947, 128.594
760.237, 174.126
761.526, 115.658
762.815, 115.197
764.104, 90.747
765.392, 81.305
766.680, 112.876
767.969, 3.454
769.257, 146.039
770.544, 44.621
771.832, 67.225
773.119, 32.829
774.406, 19.446
775.693, 51.066
776.980, 5.302
778.267, 32.325
779.553, 8.955
780.839, 12.580
782.125, 21.797
783.411, 1.804
784.697, 2.601
785.982, 7.987
787.267, 33.566
788.552, 47.151
789.837, 11.272
791.122, 33.289
792.406, 0.145
793.690, 78.587
794.974, 4.914
796.258, 16.598
797.542, 23.133
798.825, 15.697
800.108, 13.716
801.391, 8.882
802.674, 23.499
803.957, 16.857
805.239, 7.202
806.522, 12.537
807.804, 40.137
809.085, 8.154
810.367, 23.566
811.649, 10.312
812.930, 27.077
814.211, 62.870
815.492, 54.709
816.772, 54.819
818.053, 17.514
819.333, 9.460
820.613, 0.423
821.893, 57.601
823.173, 2.382
824.452, 8.379
825.732, 32.609
827.011, 3.412
828.290, 75.446
829.568, 9.531
830.847, 57.632
832.125, 6.226
833.403, 8.075
834.681, 61.084
835.959, 10.715
837.236, 23.495
838.514, 7.274
839.791, 82.034
841.068, 16.788
842.345, 16.534
843.621, 45.274
844.898, 31.008
846.174, 40.736
847.450, 38.458
848.726, 1.173
850.001, 55.882
851.277, 61.585
852.552, 34.283
853.827, 5.976
855.102, 54.666
856.376, 73.351
857.651, 93.031
858.925, 115.709
860.199, 110.043
861.473, 121.655
862.746, 122.189
864.020, 122.380
865.293, 109.039
866.566, 106.698
867.839, 79.354
869.112, 104.023
870.384, 93.204
871.656, 143.356
872.928, 93.023
874.200, 124.689
875.472, 117.353
876.744, 198.016
878.015, 176.686
879.286, 171.380
880.557, 219.084
881.828, 208.785
883.098, 312.506
884.369, 269.225
885.639, 280.945
886.909, 361.662
888.178, 384.375
889.448, 414.086
890.717, 483.796
891.987, 468.504
893.256, 498.210
894.524, 580.922
895.793, 550.632
897.061, 611.363
898.330, 549.092
899.598, 652.831
900.865, 661.673
902.133, 758.318
903.401, 745.061
904.668, 787.826
905.935, 844.591
907.202, 813.358
908.468, 878.124
909.735, 1036.906
911.001, 1051.688
912.267, 1165.471
913.533, 1177.254
914.799, 1298.035
916.064, 1439.828
917.330, 1704.620
918.595, 1855.417
919.860, 2150.213
921.124, 2578.378
922.389, 2859.171
923.653, 3506.931
924.918, 4009.721
926.182, 4648.427
927.445, 5349.024
928.709, 5777.802
929.972, 5883.479
931.236, 5692.171
932.499, 5241.591
933.761, 4524.084
935.024, 3691.763
936.286, 3075.929
937.549, 2738.822
938.811, 2323.254
940.073, 2202.953
941.334, 2143.706
942.596, 2090.099
943.857, 2197.809
945.118, 2239.922
946.379, 2193.116
947.640, 2170.509
948.900, 2074.609
950.161, 1918.305
951.421, 1735.483
952.681, 1638.048
953.940, 1487.672
955.200, 1397.388
956.459, 1329.991
957.719, 1320.475
958.978, 1209.036
960.236, 1154.749
961.495, 1067.261
962.753, 1023.773
964.012, 1002.661
965.270, 970.250
966.527, 985.604
967.785, 997.485
969.043, 982.376
970.300, 974.585
971.557, 965.399
972.814, 939.757
974.071, 892.550
975.327, 888.821
976.583, 841.734
977.840, 809.438
979.095, 815.766
980.351, 828.463
981.607, 809.383
982.862, 774.304
984.117, 750.886
985.372, 793.488
986.627, 673.256
987.882, 724.886
989.136, 809.069
990.390, 670.695
991.644, 792.561
992.898, 781.237
994.152, 827.055
995.405, 773.113
996.659, 799.907
997.912, 870.808
999.165, 920.682
1000.417, 890.543
1001.670, 926.478
1002.922, 1062.302
1004.174, 1012.452
1005.426, 1071.872
1006.678, 1210.025
1007.930, 1242.884
1009.181, 1404.367
1010.432, 1560.562
1011.683, 1677.677
1012.934, 1870.651
1014.185, 2112.734
1015.435, 2478.878
1016.685, 2829.147
1017.935, 3157.362
1019.185, 3512.954
1020.435, 3792.966
1021.684, 4027.732
1022.934, 3769.840
1024.183, 3822.854
1025.432, 3897.013
1026.680, 4242.223
1027.929, 4308.458
1029.177, 4380.945
1030.425, 4272.058
1031.673, 4356.202
1032.921, 4117.955
1034.169, 3529.194
1035.416, 3042.456
1036.663, 3010.565
1037.911, 2944.471
1039.157, 2930.539
1040.404, 3165.687
1041.650, 3333.934
1042.897, 3786.136
1044.143, 3919.636
1045.389, 4567.058
1046.634, 5287.192
1047.880, 6132.003
1049.125, 7114.832
1050.371, 8557.928
1051.615, 10541.461
1052.860, 12559.594
1054.105, 15824.578
1055.349, 18169.824
1056.593, 20649.439
1057.837, 22370.631
1059.081, 23083.717
1060.325, 21246.701
1061.568, 18556.695
1062.812, 15260.862
1064.055, 12410.985
1065.298, 10266.983
1066.540, 8620.356
1067.783, 7267.778
1069.025, 6216.019
1070.267, 5381.229
1071.509, 4405.207
1072.751, 3774.387
1073.993, 3286.488
1075.234, 2781.787
1076.475, 2406.847
1077.716, 2116.884
1078.957, 1856.757
1080.198, 1653.615
1081.438, 1496.297
1082.679, 1425.506
1083.919, 1328.656
1085.159, 1199.616
1086.398, 1232.279
1087.638, 1166.497
1088.877, 1322.730
1090.116, 1126.528
1091.355, 1103.004
1092.594, 1084.190
1093.833, 917.221
1095.071, 808.039
1096.309, 797.888
1097.547, 692.894
1098.785, 574.895
1100.023, 557.115
1101.260, 555.064
1102.498, 534.061
1103.735, 468.987
1104.972, 497.139
1106.208, 498.877
1107.445, 462.988
1108.681, 363.890
1109.918, 344.047
1111.154, 329.987
1112.389, 318.969
1113.625, 254.167
1114.860, 280.845
1116.096, 266.663
1117.331, 313.577
1118.566, 330.458
1119.800, 287.939
1121.035, 410.749
1122.269, 365.582
1123.503, 444.363
1124.737, 374.266
1125.971, 325.986
1127.205, 244.148
1128.438, 139.505
1129.671, 174.211
1130.904, 142.934
1132.137, 111.631
1133.370, 142.546
1134.602, 99.069
1135.834, 101.801
1137.066, 147.889
1138.298, 174.749
1139.530, 72.626
1140.762, 107.276
1141.993, 54.697
1143.224, 27.451
1144.455, 78.142
1145.686, 63.643
1146.917, 69.401
1148.147, 33.149
1149.377, 66.581
1150.607, 106.182
1151.837, 5.663
1153.067, 12.583
1154.296, 20.998
1155.526, 92.474
1156.755, 8.558
1157.984, 14.929
1159.213, 35.350
1160.441, 69.680
1161.670, 45.216
1162.898, 32.083
1164.126, 22.874
1165.354, 16.138
1166.581, 42.269
1167.809, 70.573
1169.036, 28.423
1170.263, 48.288
1171.490, 71.404
1172.717, 37.066
1173.943, 24.703
1175.170, 19.497
1176.396, 101.576
1177.622, 49.231
1178.848, 42.081
1180.073, 57.045
1181.299, 19.868
1182.524, 14.806
1183.749, 51.490
1184.974, 100.373
1186.199, 62.375
1187.423, 42.916
1188.648, 19.427
1189.872, 29.896
1191.096, 18.454
1192.320, 0.768
1193.543, 59.931
1194.767, 122.671
1195.990, 38.557
1197.213, 54.700
1198.436, 1.122
1199.659, 43.816
1200.881, 40.150
1202.104, 18.906
1203.326, 1.932
1204.548, 27.021
1205.770, 57.002
1206.991, 75.949
1208.213, 7.230
1209.434, 28.620
1210.655, 38.498
1211.876, 38.801
1213.096, 3.859
1214.317, 13.352
1215.537, 17.230
1216.757, 20.654
1217.977, 66.253
1219.197, 23.828
1220.417, 34.125
1221.636, 8.639
1222.855, 41.017
1224.074, 45.388
1225.293, 82.735
1226.512, 86.120
1227.731, 43.375
1228.949, 82.654
1230.167, 39.188
1231.385, 60.423
1232.603, 130.628
1233.820, 23.345
1235.038, 18.023
1236.255, 98.172
1237.472, 26.201
1238.689, 21.431
1239.906, 40.498
1241.122, 88.569
1242.338, 84.401
1243.555, 45.117
1244.771, 45.940
1245.986, 4.277
1247.202, 61.949
1248.417, 48.796
1249.633, 64.339
1250.848, 29.255
1252.063, 106.725
1253.277, 32.245
1254.492, 64.500
1255.706, 26.894
1256.920, 53.537
1258.134, 46.917
1259.348, 2.852
1260.562, 113.322
1261.775, 81.658
1262.988, 60.024
1264.201, 33.285
1265.414, 20.589
1266.627, 82.774
1267.839, 74.898
1269.052, 83.887
1270.264, 53.742
1271.476, 93.562
1272.688, 23.797
1273.899, 14.618
1275.111, 96.397
1276.322, 90.264
1277.533, 74.075
1278.744, 63.675
1279.955, 131.286
1281.165, 82.147
1282.376, 15.163
1283.586, 53.281
1284.796, 49.687
1286.006, 88.171
1287.215, 13.506
1288.425, 58.666
1289.634, 65.667
1290.843, 106.842
1292.052, 52.004
1293.261, 51.064
1294.469, 109.933
1295.678, 64.910
1296.886, 88.956
1298.094, 41.592
1299.302, 6.808
1300.509, 73.422
1301.717, 22.297
1302.924, 62.514
1304.131, 69.983
1305.338, 86.549
1306.545, 25.264
1307.752, 61.728
1308.958, 98.076
1310.164, 137.405
1311.370, 13.397
1312.576, 159.390
1313.782, 114.700
1314.987, 429.211
1316.193, 71.341
1317.398, 709.529
1318.603, 386.936
1319.807, 130.507
1321.012, 92.354
1322.216, 95.906
1323.421, 79.792
1324.625, 67.606
1325.829, 49.775
1327.032, 43.416
1328.236, 82.972
1329.439, 43.640
1330.642, 28.473
1331.845, 98.102
1333.048, 98.611
1334.251, 101.983
1335.453, 55.362
1336.656, 143.403
1337.858, 116.483
1339.060, 40.812
1340.261, 21.426
1341.463, 86.983
1342.664, 99.308
1343.866, 148.078
1345.067, 118.208
1346.267, 97.446
1347.468, 64.382
1348.669, 105.912
1349.869, 92.643
1351.069, 80.116
1352.269, 104.162
1353.469, 87.160
1354.668, 72.939
1355.868, 107.726
1357.067, 101.600
1358.266, 62.066
1359.465, 100.446
1360.664, 129.984
1361.862, 80.621
1363.061, 82.123
1364.259, 140.603
1365.457, 81.150
1366.655, 105.474
1367.852, 99.386
1369.050, 97.621
1370.247, 81.225
1371.444, 104.807
1372.641, 91.044
1373.838, 112.435
1375.035, 8.597
1376.231, 75.882
1377.427, 111.167
1378.623, 23.324
1379.819, 56.957
1381.015, 3.210
1382.211, 123.392
1383.406, 77.075
1384.601, 39.338
1385.796, 84.312
1386.991, 105.477
1388.185, 72.586
1389.380, 20.547
1390.574, 8.133
1391.768, 41.530
1392.962, 106.680
1394.156, 26.194
1395.350, 108.578
1396.543, 89.337
1397.736, 0.036
1398.929, 102.428
1400.122, 39.061
1401.315, 90.383
1402.507, 118.007
1403.700, 117.284
1404.892, 70.296
1406.084, 53.355
1407.276, 70.449
1408.467, 50.827
1409.659, 70.831
1410.850, 76.476
1412.041, 97.756
1413.232, 154.605
1414.423, 157.177
1415.614, 24.915
1416.804, 100.792
1417.994, 21.558
1419.184, 66.557
1420.374, 71.386
1421.564, 223.509
1422.753, 101.963
1423.943, 35.182
1425.132, 64.950
1426.321, 166.903
1427.510, 140.664
1428.698, 71.042
1429.887, 140.346
1431.075, 133.328
1432.263, 122.823
1433.451, 149.500
1434.639, 87.966
1435.827, 128.122
1437.014, 109.303
1438.201, 105.630
1439.388, 145.851
1440.575, 135.989
1441.762, 153.621
1442.949, 193.691
1444.135, 173.682
1445.321, 162.440
1446.507, 158.490
1447.693, 92.632
1448.879, 77.060
1450.064, 129.114
1451.250, 131.235
1452.435, 62.188
1453.620, 179.551
1454.805, 139.530
1455.989, 227.749
1457.174, 165.793
1458.358, 99.797
1459.542, 138.485
1460.726, 260.277
1461.910, 71.102
1463.093, 242.987
1464.277, 101.754
1465.460, 160.432
1466.643, 133.313
1467.826, 132.974
1469.009, 141.646
1470.191, 95.590
1471.373, 132.227
1472.556, 148.710
1473.738, 182.732
1474.919, 97.260
1476.101, 206.231
1477.283, 107.675
1478.464, 120.785
1479.645, 122.114
1480.826, 116.357
1482.007, 92.557
1483.187, 119.633
1484.368, 58.727
1485.548, 149.124
1486.728, 152.172
1487.908, 134.668
1489.088, 178.787
