##NAMES=Actinolite
##RRUFFID=R040064
##IDEAL CHEMISTRY=Ca_2_(Mg_4.5-2.5_Fe^2+^_0.5-2.5_)Si_8_O_22_(OH)_2_
##LOCALITY=Ehime Perfecture, Uma Gun, Japan
##OWNER=RRUFF
##SOURCE=University of Arizona Mineral Museum
##DESCRIPTION=Aggregate of green acicular crystals associated with chlorite
##STATUS=The identification of this mineral has been confirmed by X-ray diffraction and chemical analysis
##URL=rruff.info/R040064
##MEASURED CHEMISTRY=(Ca_0.95_Na_0.04_Mn_0.01_)_2_(Mg_0.88_Fe_0.12_)_5_(Si_0.98_Al_0.02_)_8_O_22_(OH)_2_
##PIN_ID=M00214
##ORIENTATION=Laser parallel to [1 0 1]. Fiducial mark perpendicular to laser is parallel to b* (0 1 0)
111.905, 0.000
113.303, 135.323
114.700, 329.600
116.097, 443.208
117.494, 703.888
118.891, 782.217
120.287, 814.813
121.683, 824.994
123.079, 716.204
124.475, 565.025
125.870, 463.765
127.265, 329.812
128.660, 241.134
130.055, 149.100
131.449, 22.409
132.843, 15.419
134.237, 56.009
135.631, 23.043
137.024, 48.882
138.417, 166.454
139.810, 193.723
141.203, 244.643
142.596, 275.165
143.988, 285.243
145.380, 341.833
146.771, 287.899
148.163, 333.405
149.554, 625.319
150.945, 777.611
152.336, 1073.255
153.726, 1540.226
155.117, 1983.263
156.507, 2333.917
157.896, 2593.168
159.286, 2750.806
160.675, 2768.758
162.064, 2537.013
163.453, 2075.557
164.842, 1674.402
166.230, 1233.653
167.618, 1010.130
169.006, 824.816
170.393, 923.698
171.781, 1135.763
173.168, 2132.996
174.555, 2503.386
175.941, 2793.922
177.328, 3154.594
178.714, 3165.392
180.100, 2766.308
181.485, 2227.335
182.871, 1758.465
184.256, 1264.692
185.641, 959.013
187.025, 726.419
188.410, 738.908
189.794, 508.476
191.178, 454.116
192.562, 375.824
193.945, 274.597
195.328, 134.397
196.711, 68.150
198.094, 28.109
199.476, 78.270
200.859, 73.216
202.241, 30.939
203.623, 76.692
205.004, 141.623
206.385, 286.688
207.766, 490.938
209.147, 761.312
210.528, 1015.818
211.908, 1329.438
213.288, 1648.104
214.668, 2101.834
216.048, 2695.629
217.427, 3431.228
218.806, 4209.506
220.185, 5063.298
221.564, 5777.090
222.942, 6030.879
224.320, 6184.664
225.698, 6068.442
227.076, 6152.217
228.453, 6135.983
229.830, 6229.744
231.207, 6133.498
232.584, 5667.246
233.960, 5050.986
235.337, 4074.722
236.713, 3198.448
238.088, 2452.165
239.464, 1865.840
240.839, 1429.489
242.214, 1299.133
243.589, 1314.770
244.964, 1255.396
246.338, 1454.017
247.712, 1587.626
249.086, 1601.227
250.459, 1589.565
251.833, 1578.396
253.206, 1339.971
254.579, 1091.541
255.951, 831.112
257.324, 692.682
258.696, 540.243
260.068, 479.801
261.439, 316.358
262.811, 214.913
264.182, 206.463
265.553, 181.005
266.924, 233.538
268.294, 296.060
269.665, 339.569
271.035, 445.061
272.404, 438.534
273.774, 819.990
275.143, 1094.448
276.512, 1301.910
277.881, 1801.899
279.250, 2132.549
280.618, 2463.612
281.986, 2675.094
283.354, 2717.047
284.721, 2391.701
286.089, 2169.468
287.456, 1898.540
288.823, 1436.438
290.190, 1208.252
291.556, 894.799
292.922, 787.670
294.288, 491.644
295.654, 410.001
297.019, 407.721
298.385, 337.416
299.750, 388.177
301.114, 364.909
302.479, 461.715
303.843, 402.305
305.207, 410.750
306.571, 498.156
307.935, 400.439
309.298, 382.624
310.661, 332.955
312.024, 274.404
313.387, 176.269
314.749, 58.810
316.111, 120.350
317.473, 32.405
318.835, 30.325
320.196, 82.712
321.558, 21.307
322.919, 90.280
324.279, 59.916
325.640, 84.473
327.000, 136.015
328.360, 199.525
329.720, 289.276
331.080, 317.646
332.439, 378.620
333.798, 484.503
335.157, 466.863
336.516, 463.251
337.874, 506.565
339.232, 579.032
340.590, 597.343
341.948, 845.648
343.305, 894.949
344.662, 1046.246
346.019, 1269.536
347.376, 1622.820
348.733, 1696.098
350.089, 2039.366
351.445, 2012.627
352.801, 2035.879
354.156, 1979.121
355.512, 1852.354
356.867, 1785.577
358.222, 1598.788
359.576, 1511.988
360.931, 1735.178
362.285, 1957.890
363.639, 2279.180
364.992, 2860.629
366.346, 3663.244
367.699, 4496.371
369.052, 5079.478
370.405, 5102.568
371.757, 4875.640
373.110, 4028.691
374.462, 3441.721
375.814, 2694.731
377.165, 2147.720
378.516, 1790.686
379.868, 1453.630
381.218, 1406.542
382.569, 1399.412
383.920, 1502.257
385.270, 1695.232
386.620, 2048.030
387.969, 2530.941
389.319, 3143.885
390.668, 3876.612
392.017, 4339.951
393.366, 4783.029
394.714, 4776.514
396.063, 4299.945
397.411, 3653.113
398.759, 2956.355
400.106, 2399.504
401.454, 1822.306
402.801, 1455.389
404.148, 1388.586
405.495, 1221.688
406.841, 1305.045
408.187, 1358.250
409.533, 1531.485
410.879, 1744.625
412.224, 1977.503
413.570, 2230.779
414.915, 2473.551
416.260, 2546.436
417.604, 2409.393
418.949, 2192.045
420.293, 1854.602
421.637, 1467.104
422.980, 1259.930
424.324, 1002.158
425.667, 724.583
427.010, 594.593
428.353, 470.993
429.695, 400.944
431.037, 460.319
432.379, 552.978
433.721, 638.865
435.063, 603.172
436.404, 676.557
437.745, 699.454
439.086, 622.450
440.427, 422.232
441.767, 344.087
443.108, 161.643
444.448, 105.785
445.787, 0.723
447.127, 46.754
448.466, 65.061
449.805, 44.713
451.144, 104.488
452.482, 16.072
453.821, 243.897
455.159, 52.253
456.497, 135.816
457.834, 98.999
459.172, 5.415
460.509, 15.287
461.846, 78.278
463.183, 34.608
464.519, 4.226
465.856, 16.905
467.192, 0.477
468.527, 60.453
469.863, 10.342
471.198, 56.704
472.534, 53.708
473.868, 3.332
475.203, 22.562
476.538, 54.403
477.872, 4.801
479.206, 42.930
480.540, 9.375
481.873, 92.250
483.206, 185.724
484.539, 138.281
485.872, 60.949
487.205, 202.451
488.537, 212.937
489.869, 158.442
491.201, 251.909
492.533, 231.363
493.864, 250.782
495.196, 260.193
496.527, 255.029
497.857, 294.084
499.188, 238.345
500.518, 347.678
501.848, 306.988
503.178, 296.272
504.508, 465.519
505.837, 584.748
507.166, 783.939
508.495, 863.092
509.824, 1192.208
511.153, 1481.299
512.481, 1610.354
513.809, 1859.370
515.137, 1998.354
516.464, 1827.299
517.792, 1876.218
519.119, 1705.113
520.446, 1423.971
521.772, 1322.790
523.099, 1341.574
524.425, 1110.328
525.751, 1189.052
527.077, 1377.740
528.402, 1286.387
529.728, 1234.992
531.053, 1133.560
532.377, 1062.088
533.702, 790.574
535.027, 779.020
536.351, 567.425
537.675, 625.786
538.998, 394.107
540.322, 472.385
541.645, 420.620
542.968, 428.815
544.291, 286.968
545.613, 345.077
546.936, 293.142
548.258, 281.161
549.580, 359.136
550.902, 177.064
552.223, 234.945
553.544, 132.779
554.865, 140.561
556.186, 198.291
557.507, 175.973
558.827, 192.964
560.147, 271.186
561.467, 198.720
562.786, 166.206
564.106, 183.641
565.425, 121.026
566.744, 148.358
568.063, 135.639
569.381, 152.865
570.700, 210.042
572.018, 117.169
573.335, 224.242
574.653, 191.267
575.970, 168.242
577.288, 235.166
578.604, 252.042
579.921, 258.868
581.238, 175.646
582.554, 312.371
583.870, 259.050
585.186, 395.681
586.501, 252.266
587.817, 378.801
589.132, 245.291
590.447, 171.732
591.761, 118.121
593.076, 34.456
594.390, 70.723
595.704, 106.930
597.018, 93.081
598.331, 49.177
599.645, 105.208
600.958, 151.186
602.271, 76.990
603.583, 22.489
604.896, 35.414
606.208, 95.331
607.520, 44.004
608.832, 133.849
610.143, 19.851
611.455, 133.688
612.766, 30.829
614.077, 0.203
615.387, 64.555
616.698, 120.721
618.008, 133.529
619.318, 185.691
620.628, 235.386
621.937, 323.618
623.247, 366.264
624.556, 447.965
625.865, 551.968
627.173, 552.029
628.482, 554.001
629.790, 478.686
631.098, 442.898
632.405, 385.137
633.713, 388.469
635.020, 372.609
636.327, 444.671
637.634, 511.396
638.941, 502.603
640.247, 587.460
641.553, 753.983
642.859, 735.232
644.165, 989.164
645.471, 978.662
646.776, 1226.914
648.081, 1501.799
649.386, 1661.914
650.691, 1886.797
651.995, 2068.661
653.299, 2340.505
654.603, 2486.189
655.907, 2818.606
657.210, 2973.319
658.514, 3151.262
659.817, 3617.908
661.120, 3992.481
662.422, 4531.543
663.725, 5725.947
665.027, 6860.229
666.329, 8804.970
667.630, 11191.997
668.932, 14516.699
670.233, 18601.197
671.534, 22446.475
672.835, 25781.055
674.136, 26007.301
675.436, 25385.404
676.737, 21509.484
678.036, 17663.939
679.336, 14148.188
680.636, 10842.564
681.935, 8326.776
683.234, 6690.738
684.533, 5354.410
685.832, 4358.210
687.130, 3682.096
688.428, 3185.847
689.726, 2809.486
691.024, 2532.962
692.322, 2136.317
693.619, 1999.177
694.916, 1572.706
696.213, 1525.484
697.510, 1238.770
698.806, 1162.228
700.102, 1024.880
701.398, 1077.861
702.694, 860.432
703.990, 892.826
705.285, 765.124
706.580, 687.571
707.875, 739.345
709.170, 741.313
710.464, 1112.812
711.758, 1404.297
713.052, 1665.981
714.346, 1447.527
715.640, 1219.101
716.933, 920.958
718.226, 739.655
719.519, 633.969
720.812, 395.330
722.105, 346.374
723.397, 327.504
724.689, 428.539
725.981, 379.604
727.272, 430.991
728.564, 491.791
729.855, 613.031
731.146, 594.570
732.437, 775.496
733.727, 946.660
735.017, 1297.855
736.308, 1459.039
737.597, 1489.836
738.887, 1931.166
740.176, 2002.231
741.466, 1903.648
742.755, 2004.609
744.043, 1905.955
745.332, 1966.811
746.620, 1827.319
747.908, 1887.532
749.196, 1886.262
750.484, 1655.847
751.771, 1525.855
753.059, 1505.700
754.346, 1104.711
755.633, 1004.598
756.919, 634.728
758.206, 734.217
759.492, 512.299
760.778, 420.833
762.063, 310.561
763.349, 349.543
764.634, 329.566
765.919, 168.151
767.204, 268.194
768.489, 197.485
769.773, 115.894
771.057, 215.806
772.341, 176.020
773.625, 6.272
774.909, 196.733
776.192, 57.434
777.475, 8.330
778.758, 29.204
780.041, 19.941
781.323, 19.125
782.605, 21.674
783.887, 52.451
785.169, 133.197
786.451, 23.915
787.732, 74.610
789.013, 115.279
790.294, 5.920
791.575, 43.462
792.856, 117.101
794.136, 37.647
795.416, 21.840
796.696, 101.377
797.976, 138.997
799.255, 70.657
800.534, 210.387
801.813, 39.735
803.092, 80.177
804.371, 89.831
805.649, 110.195
806.927, 110.316
808.205, 10.533
809.483, 120.792
810.760, 78.849
812.037, 51.543
813.315, 31.859
814.591, 117.635
815.868, 72.524
817.144, 137.179
818.421, 156.537
819.697, 36.292
820.972, 44.413
822.248, 25.117
823.523, 64.673
824.798, 15.747
826.073, 23.475
827.348, 36.943
828.623, 67.896
829.897, 111.271
831.171, 10.675
832.445, 49.644
833.718, 8.803
834.992, 37.664
836.265, 86.546
837.538, 145.350
838.811, 104.129
840.083, 73.223
841.356, 94.946
842.628, 110.640
843.900, 139.317
845.171, 157.986
846.443, 276.628
847.714, 95.252
848.985, 283.851
850.256, 132.430
851.527, 81.016
852.797, 349.582
854.067, 138.129
855.337, 396.654
856.607, 385.158
857.876, 373.643
859.146, 442.124
860.415, 550.588
861.684, 509.036
862.953, 407.503
864.221, 365.950
865.489, 564.399
866.757, 322.833
868.025, 431.254
869.293, 369.662
870.560, 218.053
871.828, 466.424
873.095, 274.785
874.361, 393.127
875.628, 281.503
876.894, 379.867
878.160, 358.215
879.426, 226.552
880.692, 394.870
881.958, 313.175
883.223, 141.463
884.488, 309.734
885.753, 437.993
887.018, 276.241
888.282, 494.474
889.546, 302.692
890.810, 400.898
892.074, 559.087
893.338, 377.263
894.601, 415.419
895.864, 383.601
897.127, 541.763
898.390, 499.909
899.652, 428.060
900.915, 616.210
902.177, 584.352
903.439, 532.490
904.700, 830.615
905.962, 678.762
907.223, 656.896
908.484, 665.018
909.745, 643.132
911.006, 771.232
912.266, 689.327
913.526, 777.443
914.786, 715.544
916.046, 743.691
917.306, 771.824
918.565, 659.440
919.824, 867.469
921.083, 1015.191
922.342, 1212.568
923.600, 1170.367
924.859, 1527.981
926.117, 1694.862
927.375, 2112.534
928.632, 2279.602
929.890, 2354.654
931.147, 2523.361
932.404, 2298.988
933.661, 2174.661
934.918, 1921.492
936.174, 1538.433
937.430, 1415.689
938.686, 1052.463
939.942, 1139.430
941.198, 996.545
942.453, 923.179
943.708, 1007.233
944.963, 884.281
946.218, 1070.973
947.472, 1106.331
948.727, 976.697
949.981, 1093.745
951.235, 736.020
952.488, 819.515
953.742, 756.084
954.995, 627.740
956.248, 624.471
957.501, 464.241
958.754, 423.999
960.006, 449.827
961.258, 278.928
962.510, 536.054
963.762, 179.506
965.014, 314.189
966.265, 121.465
967.516, 133.604
968.767, 250.936
970.018, 108.111
971.269, 244.379
972.519, 139.199
973.769, 125.479
975.019, 111.801
976.269, 187.680
977.518, 93.783
978.767, 219.266
980.017, 162.236
981.265, 99.152
982.514, 195.785
983.762, 143.812
985.011, 470.643
986.259, 198.234
987.507, 294.943
988.754, 422.707
990.002, 129.432
991.249, 246.949
992.496, 243.787
993.743, 211.164
994.989, 474.148
996.236, 321.416
997.482, 399.977
998.728, 517.014
999.974, 645.023
1001.219, 1120.234
1002.464, 1108.424
1003.710, 956.559
1004.954, 903.883
1006.199, 691.615
1007.444, 759.287
1008.688, 768.869
1009.932, 748.588
1011.176, 1026.598
1012.420, 992.379
1013.663, 1299.639
1014.906, 1550.756
1016.149, 1639.053
1017.392, 1747.088
1018.635, 2135.529
1019.877, 2482.918
1021.120, 2770.193
1022.362, 3188.785
1023.603, 3755.787
1024.845, 4554.129
1026.086, 5052.506
1027.328, 5579.500
1028.569, 6107.699
1029.809, 5944.715
1031.050, 5721.947
1032.290, 4829.369
1033.530, 4106.621
1034.770, 3254.498
1036.010, 2602.803
1037.250, 2250.207
1038.489, 2038.002
1039.728, 1695.602
1040.967, 1862.311
1042.206, 1580.371
1043.444, 1617.139
1044.683, 1613.650
1045.921, 1450.486
1047.159, 1837.289
1048.396, 1958.236
1049.634, 2037.975
1050.871, 2334.770
1052.108, 2582.846
1053.345, 2909.828
1054.582, 3334.039
1055.818, 3780.246
1057.054, 4336.631
1058.290, 4024.715
1059.526, 4370.949
1060.762, 4087.363
1061.997, 3800.154
1063.232, 3756.547
1064.467, 3505.824
1065.702, 3742.252
1066.937, 3727.957
1068.171, 3555.516
1069.405, 3451.348
1070.639, 3217.064
1071.873, 2667.145
1073.107, 2592.840
1074.340, 2139.189
1075.573, 2025.691
1076.806, 1850.875
1078.039, 1776.701
1079.272, 2224.557
1080.504, 2479.404
1081.736, 3537.109
1082.968, 5932.582
1084.200, 11188.672
1085.431, 17163.750
1086.663, 17068.250
1087.894, 11613.969
1089.125, 6539.041
1090.355, 3573.834
1091.586, 2188.215
1092.816, 1832.500
1094.046, 1186.734
1095.276, 1071.664
1096.506, 886.068
1097.735, 841.305
1098.965, 655.922
1100.194, 520.357
1101.423, 675.363
1102.651, 419.502
1103.880, 483.463
1105.108, 609.506
1106.336, 603.391
1107.564, 428.107
1108.792, 552.631
1110.019, 256.420
1111.246, 460.992
1112.473, 515.041
1113.700, 248.963
1114.927, 462.484
1116.153, 245.832
1117.380, 301.115
1118.606, 514.293
1119.831, 177.863
1121.057, 371.682
1122.283, 464.838
1123.508, 297.902
1124.733, 471.254
1125.958, 134.172
1127.182, 277.518
1128.407, 280.650
1129.631, 243.479
1130.855, 126.623
1132.079, 39.498
1133.302, 52.631
1134.526, 285.760
1135.749, 88.703
1136.972, 291.580
1138.195, 74.113
1139.417, 246.885
1140.640, 130.123
1141.862, 76.854
1143.084, 196.543
1144.305, 41.484
1145.527, 183.900
1146.748, 116.326
1147.970, 111.074
1149.191, 1.121
1150.411, 84.125
1151.632, 136.459
1152.852, 158.416
1154.072, 169.812
1155.292, 35.111
1156.512, 66.965
1157.732, 89.051
1158.951, 109.322
1160.170, 243.605
1161.389, 34.680
1162.608, 46.471
1163.826, 87.270
1165.045, 38.246
1166.263, 199.607
1167.481, 182.010
1168.699, 22.760
1169.916, 274.119
1171.134, 145.285
1172.351, 35.203
1173.568, 256.031
1174.784, 46.385
1176.001, 206.674
1177.217, 177.359
1178.433, 127.512
1179.649, 87.920
1180.865, 73.701
1182.081, 33.646
1183.296, 123.982
1184.511, 74.029
1185.726, 93.760
1186.941, 254.418
1188.155, 44.191
1189.370, 224.531
1190.584, 114.326
1191.798, 195.014
1193.011, 194.480
1194.225, 25.879
1195.438, 6.754
1196.651, 173.371
1197.864, 32.920
1199.077, 131.883
1200.290, 78.295
1201.502, 280.395
1202.714, 229.012
1203.926, 27.924
1205.138, 246.383
1206.349, 195.008
1207.561, 56.562
1208.772, 181.602
1209.983, 160.307
1211.194, 157.631
1212.404, 315.377
1213.614, 60.092
1214.825, 297.686
1216.034, 315.205
1217.244, 7.354
1218.454, 300.000
1219.663, 157.301
1220.872, 134.398
1222.081, 391.398
1223.290, 228.684
1224.498, 35.756
1225.707, 442.537
1226.915, 39.371
1228.123, 275.859
1229.331, 152.361
1230.538, 348.643
1231.746, 494.832
1232.953, 181.379
1234.160, 317.385
1235.366, 372.816
1236.573, 458.350
1237.779, 483.545
1238.986, 478.617
1240.192, 293.549
1241.397, 408.332
1242.603, 202.965
1243.808, 337.438
1245.013, 371.729
1246.218, 235.861
1247.423, 429.844
1248.628, 463.688
1249.832, 87.393
1251.036, 520.959
1252.240, 254.412
1253.444, 287.785
1254.648, 491.062
1255.851, 253.750
1257.054, 344.234
1258.257, 404.066
1259.460, 403.414
1260.663, 622.762
1261.865, 132.875
1263.067, 562.594
1264.269, 550.961
1265.471, 329.719
1266.673, 526.598
1267.874, 574.180
1269.075, 501.934
1270.276, 759.264
1271.477, 600.037
1272.678, 596.439
1273.878, 563.209
1275.078, 569.406
1276.278, 511.383
1277.478, 451.734
1278.678, 423.242
1279.877, 469.020
1281.077, 477.055
1282.276, 435.471
1283.475, 499.340
1284.673, 323.172
1285.872, 334.928
1287.070, 228.861
1288.268, 72.527
1289.466, 496.768
1290.664, 419.443
1291.861, 361.637
1293.058, 513.887
1294.255, 226.637
1295.452, 347.271
1296.649, 450.736
1297.846, 93.891
1299.042, 204.771
1300.238, 306.072
1301.434, 289.332
1302.630, 379.656
1303.825, 112.191
1305.020, 264.236
1306.216, 476.223
1307.411, 84.166
1308.605, 601.156
1309.800, 261.900
1310.994, 92.773
1312.188, 549.920
1313.382, 198.406
1314.576, 428.088
1315.770, 670.682
1316.963, 260.736
1318.156, 563.158
1319.349, 726.375
1320.542, 247.705
1321.735, 577.703
1322.927, 278.129
1324.119, 19.244
1325.311, 749.477
1326.503, 239.150
1327.695, 290.152
1328.886, 621.205
1330.077, 142.910
1331.268, 301.309
1332.459, 161.674
1333.650, 82.992
1334.840, 374.070
1336.030, 295.039
1337.220, 235.885
1338.410, 526.535
1339.600, 126.893
1340.789, 197.459
1341.979, 316.678
1343.168, 133.980
1344.357, 637.885
1345.545, 426.980
1346.734, 234.561
1347.922, 753.725
1349.110, 255.717
1350.298, 283.164
1351.486, 628.266
1352.674, 397.299
1353.861, 266.857
1355.048, 630.006
1356.235, 202.678
1357.422, 586.859
1358.608, 384.789
1359.795, 412.268
1360.981, 530.055
1362.167, 236.312
1363.353, 261.369
1364.538, 264.859
1365.724, 167.732
1366.909, 186.959
1368.094, 230.270
1369.279, 190.561
1370.463, 482.561
1371.648, 211.980
1372.832, 394.154
1374.016, 466.463
1375.200, 139.156
1376.384, 292.373
1377.567, 550.387
1378.750, 67.205
1379.933, 412.580
1381.116, 566.852
1382.299, 257.396
1383.481, 696.342
1384.664, 234.301
1385.846, 451.045
1387.028, 570.299
1388.210, 126.977
1389.391, 114.715
1390.572, 404.514
1391.754, 94.324
1392.935, 335.861
1394.115, 170.543
1395.296, 1.477
1396.476, 362.285
1397.656, 0.000
##END=



