##NAMES=Actinolite
##RRUFFID=R050336
##IDEAL CHEMISTRY=Ca_2_(Mg_4.5-2.5_Fe^2+^_0.5-2.5_)Si_8_O_22_(OH)_2_
##LOCALITY=Kragerø, Norway
##OWNER=RRUFF
##SOURCE=California Institute of Technology
##DESCRIPTION=Dark green prismatic fragment
##STATUS=The identification of this mineral has been confirmed by X-ray diffraction and chemical analysis
##URL=rruff.info/R050336
##MEASURED CHEMISTRY=([box]_0.62_Na_0.34_K_0.04_)(Ca_1.60_Na_0.40_)_Σ=2_(Mg_3.90_Fe^2+^_0.70_Al_0.20_Ti_0.10_Fe^3+^_0.10_)_Σ=5_(Si_7.52_Al_0.48_)_Σ=8_O_22_((OH)_0.97_F_0.03_)_2_
##PIN_ID=M00198
##ORIENTATION=Laser parallel to c* (0 0 1). Fiducial mark perpendicular to laser is parallel to a [1 0 0]
146.0460, 0.0000000E+00
147.2750, 55.24268
148.5030, 6.382813
149.7320, 128.0894
150.9600, 498.7012
152.1880, 577.4653
153.4160, 757.1841
154.6440, 933.1694
155.8720, 1088.850
157.0990, 1338.955
158.3270, 1499.402
159.5540, 1492.335
160.7810, 1457.091
162.0080, 1375.349
163.2350, 1340.324
164.4610, 1208.828
165.6880, 1119.293
166.9140, 967.2578
168.1400, 1001.389
169.3660, 1227.440
170.5920, 1345.229
171.8180, 1581.614
173.0430, 1603.489
174.2690, 1717.769
175.4940, 1706.384
176.7190, 1762.149
177.9440, 1831.206
179.1680, 1567.499
180.3930, 1394.854
181.6170, 1209.396
182.8420, 1078.474
184.0660, 751.9263
185.2900, 557.8174
186.5140, 464.2114
187.7370, 369.1689
188.9610, 285.7949
190.1840, 281.9849
191.4070, 201.9277
192.6300, 200.6079
193.8530, 193.0532
195.0760, 202.2900
196.2980, 201.3403
197.5210, 286.2217
198.7430, 370.9502
199.9650, 367.5400
201.1870, 541.0005
202.4090, 690.3418
203.6310, 665.5723
204.8520, 817.7002
206.0730, 901.2207
207.2950, 1289.275
208.5160, 1566.540
209.7360, 1932.294
210.9570, 2325.052
212.1780, 2739.481
213.3980, 3287.977
214.6180, 3759.635
215.8380, 4222.326
217.0580, 4497.212
218.2780, 4921.454
219.4980, 5174.728
220.7170, 5363.013
221.9360, 5308.350
223.1560, 5180.760
224.3750, 4976.258
225.5930, 4681.849
226.8120, 4247.601
228.0310, 3949.503
229.2490, 3428.557
230.4670, 3072.710
231.6850, 2629.002
232.9030, 2368.411
234.1210, 2085.923
235.3380, 1689.549
236.5560, 1406.264
237.7730, 1157.060
238.9900, 959.6909
240.2070, 945.8975
241.4240, 761.9248
242.6410, 700.0278
243.8570, 767.1973
245.0730, 665.4204
246.2900, 574.6958
247.5060, 588.0205
248.7210, 593.3896
249.9370, 557.7998
251.1530, 617.2427
252.3680, 505.7090
253.5830, 510.1079
254.7980, 503.9028
256.0130, 475.5586
257.2280, 426.2671
258.4430, 293.2593
259.6570, 268.4185
260.8720, 200.2134
262.0860, 130.2886
263.3000, 120.6914
264.5130, 4.3950002E-03
265.7270, 10.54395
266.9410, 17.95117
268.1540, 123.3740
269.3670, 53.79102
270.5800, 77.20312
271.7930, 92.61035
273.0060, 168.0132
274.2190, 230.4116
275.4310, 89.80713
276.6430, 163.1997
277.8550, 154.5894
279.0670, 84.00244
280.2790, 160.4844
281.4910, 35.06787
282.7020, 106.7822
283.9140, 32.70410
285.1250, 71.21240
286.3360, 54.00781
287.5470, 4.323242
288.7570, 65.31543
289.9680, 138.9229
291.1780, 188.5391
292.3880, 246.5635
293.5990, 285.4878
294.8080, 320.9883
296.0180, 306.0098
297.2280, 306.3887
298.4370, 424.0508
299.6470, 312.9443
300.8560, 319.0298
302.0650, 256.3120
303.2740, 335.6929
304.4820, 301.1919
305.6910, 279.4673
306.8990, 295.5249
308.1070, 244.6528
309.3150, 273.0449
310.5230, 260.6616
311.7310, 213.7046
312.9390, 299.9829
314.1460, 220.2480
315.3530, 200.7759
316.5600, 233.4238
317.7670, 313.7646
318.9740, 301.8770
320.1810, 358.2632
321.3870, 402.1572
322.5930, 282.9355
323.8000, 394.7812
325.0060, 458.0698
326.2110, 383.7441
327.4170, 533.9858
328.6230, 530.6030
329.8280, 541.3735
331.0330, 586.9536
332.2380, 564.3999
333.4430, 694.6846
334.6480, 607.9146
335.8530, 639.5479
337.0570, 733.0332
338.2610, 669.1445
339.4650, 822.3564
340.6690, 884.3672
341.8730, 787.3496
343.0770, 933.4219
344.2800, 972.5620
345.4840, 1094.489
346.6870, 1071.565
347.8900, 1079.457
349.0930, 1231.333
350.2950, 1190.192
351.4980, 1267.997
352.7000, 1232.677
353.9030, 1243.246
355.1050, 1386.630
356.3070, 1394.804
357.5080, 1466.775
358.7100, 1570.591
359.9110, 1585.310
361.1130, 1706.525
362.3140, 1844.841
363.5150, 1931.292
364.7160, 2091.941
365.9160, 2257.596
367.1170, 2209.253
368.3170, 2315.914
369.5170, 2228.577
370.7170, 2199.242
371.9170, 2105.908
373.1170, 2017.575
374.3170, 1793.242
375.5160, 1716.908
376.7150, 1620.571
377.9140, 1537.233
379.1130, 1470.893
380.3120, 1335.548
381.5110, 1330.200
382.7090, 1343.847
383.9070, 1353.490
385.1060, 1420.126
386.3040, 1346.758
387.5010, 1445.383
388.6990, 1416.002
389.8970, 1355.614
391.0940, 1454.219
392.2910, 1446.815
393.4880, 1356.405
394.6850, 1189.986
395.8820, 1089.560
397.0780, 937.1240
398.2750, 792.6802
399.4710, 746.2280
400.6670, 711.7661
401.8630, 748.2959
403.0590, 655.8164
404.2540, 652.3271
405.4500, 762.8296
406.6450, 678.3218
407.8400, 691.8052
409.0350, 764.9932
410.2300, 760.6396
411.4250, 843.9014
412.6190, 813.2852
413.8140, 904.6143
415.0080, 831.6533
416.2020, 802.7759
417.3960, 771.3457
418.5900, 729.9712
419.7830, 612.1943
420.9770, 616.9829
422.1700, 461.2832
423.3630, 400.7856
424.5560, 395.6655
425.7490, 401.8623
426.9410, 407.9902
428.1340, 377.3096
429.3260, 368.6299
430.5180, 363.8027
431.7100, 350.6250
432.9020, 338.9302
434.0940, 333.2300
435.2850, 261.5308
436.4770, 249.8296
437.6680, 175.1284
438.8590, 160.8823
440.0500, 166.0762
441.2410, 103.3579
442.4310, 126.6309
443.6220, 55.02490
444.8120, 41.44629
446.0020, 70.08496
447.1920, 69.70654
448.3820, 41.57812
449.5710, 18.02783
450.7610, 21.42139
451.9500, 69.55371
453.1390, 17.70020
454.3280, 63.02686
455.5170, 41.70898
456.7060, 58.92578
457.8940, 10.30908
459.0830, 5.295898
460.2710, 79.49219
461.4590, 37.37354
462.6470, 93.48975
463.8350, 54.49561
465.0220, 23.34521
466.2100, 61.15430
467.3970, 140.3564
468.5840, 74.23535
469.7710, 179.6118
470.9580, 78.24365
472.1440, 66.30762
473.3310, 80.41943
474.5170, 92.20459
475.7030, 114.0063
476.8890, 123.4038
478.0750, 71.71387
479.2610, 82.22900
480.4460, 44.85547
481.6320, 111.7085
482.8170, 156.1089
484.0020, 217.4863
485.1870, 133.8418
486.3710, 114.1733
487.5560, 229.4805
488.7400, 122.7646
489.9250, 170.0244
491.1090, 197.2617
492.2930, 197.4761
493.4760, 186.6685
494.6600, 253.8379
495.8440, 235.9854
497.0270, 424.1108
498.2100, 377.2158
499.3930, 429.3013
500.5760, 415.3667
501.7580, 497.4136
502.9410, 548.4419
504.1230, 586.4526
505.3060, 569.4448
506.4880, 653.4189
507.6690, 748.3745
508.8510, 896.3125
510.0330, 853.2314
511.2140, 974.1323
512.3950, 1028.015
513.5760, 994.8774
514.7570, 1088.722
515.9380, 1025.547
517.1190, 1070.354
518.2990, 1033.142
519.4800, 1178.910
520.6600, 1132.659
521.8400, 1157.390
523.0190, 1124.101
524.1990, 1208.792
525.3790, 1169.464
526.5580, 1200.116
527.7370, 1185.750
528.9160, 1174.363
530.0950, 1127.958
531.2740, 1085.533
532.4520, 1003.087
533.6310, 937.6270
534.8090, 947.1572
535.9870, 920.6738
537.1650, 849.1904
538.3430, 883.6865
539.5200, 795.1631
540.6980, 733.6201
541.8750, 783.0571
543.0520, 722.4741
544.2290, 711.8838
545.4060, 636.2734
546.5820, 645.6440
547.7590, 610.9990
548.9350, 615.3374
550.1110, 586.6611
551.2870, 581.9717
552.4630, 505.2817
553.6390, 580.5815
554.8140, 466.8970
555.9900, 503.2144
557.1650, 476.5361
558.3400, 402.8652
559.5150, 443.2241
560.6900, 489.6440
561.8640, 424.0781
563.0390, 377.5420
564.2130, 402.0293
565.3870, 440.5229
566.5610, 397.0415
567.7350, 399.5044
568.9080, 359.0801
570.0820, 353.5996
571.2550, 324.1133
572.4280, 321.6260
573.6010, 326.1255
574.7740, 280.6084
575.9470, 199.0713
577.1190, 292.5127
578.2920, 272.9565
579.4640, 167.3838
580.6360, 150.8110
581.8080, 257.2153
582.9790, 218.6035
584.1510, 172.9712
585.3220, 164.3228
586.4940, 117.6152
587.6650, 40.91943
588.8360, 106.1895
590.0060, 36.75781
591.1770, 24.40234
592.3470, 19.39795
593.5180, 137.0391
594.6880, 5.276367
595.8580, 32.83154
597.0280, 137.1865
598.1970, 28.57471
599.3670, 77.24756
600.5360, 21.07861
601.7050, 86.62842
602.8740, 5.003906
604.0430, 57.66211
605.2120, 7.877930
606.3800, 9.986328
607.5490, 29.74268
608.7170, 25.99658
609.8850, 20.80371
611.0530, 7.026367
612.2210, 30.69971
613.3880, 0.2143550
614.5560, 40.85791
615.7230, 135.5825
616.8900, 60.42188
618.0570, 65.26807
619.2240, 184.6646
620.3900, 151.1670
621.5570, 100.0029
622.7230, 228.6953
623.8890, 220.5522
625.0550, 242.3994
626.2210, 316.1191
627.3870, 330.4722
628.5520, 394.1460
629.7180, 427.1353
630.8830, 499.8916
632.0480, 574.6309
633.2130, 608.3506
634.3770, 669.0537
635.5420, 731.7397
636.7060, 790.4072
637.8710, 832.0566
639.0350, 872.6895
640.1990, 941.6436
641.3620, 1128.902
642.5260, 1138.482
643.6890, 1274.045
644.8530, 1515.592
646.0160, 1562.121
647.1790, 1783.633
648.3410, 1937.128
649.5040, 1945.606
650.6670, 2132.067
651.8290, 2332.513
652.9910, 2594.941
654.1530, 2936.352
655.3150, 3144.748
656.4770, 3442.126
657.6380, 3994.488
658.7990, 4431.833
659.9610, 5026.163
661.1220, 5807.476
662.2830, 6765.775
663.4430, 7519.056
664.6040, 8626.321
665.7640, 9763.570
666.9240, 10774.80
668.0850, 11660.02
669.2440, 12323.22
670.4040, 12694.41
671.5640, 12679.58
672.7230, 12250.56
673.8830, 11463.01
675.0420, 10395.35
676.2010, 9037.781
677.3590, 7789.877
678.5180, 6647.955
679.6770, 5671.042
680.8350, 4825.090
681.9930, 4194.124
683.1510, 3716.783
684.3090, 3200.787
685.4670, 2922.052
686.6240, 2649.860
687.7810, 2200.285
688.9390, 2210.531
690.0960, 1970.460
691.2530, 1723.538
692.4090, 1615.437
693.5660, 1396.321
694.7220, 1347.860
695.8790, 1133.714
697.0350, 1104.553
698.1910, 987.7002
699.3460, 891.6421
700.5020, 894.7505
701.6570, 864.3213
702.8130, 741.0835
703.9680, 693.8301
705.1230, 599.5605
706.2780, 730.3481
707.4320, 666.0464
708.5870, 683.8506
709.7410, 649.8975
710.8950, 590.5474
712.0490, 668.1821
713.2030, 640.7666
714.3570, 630.3691
715.5100, 698.9502
716.6640, 689.9902
717.8170, 676.2686
718.9700, 633.7617
720.1230, 695.0674
721.2760, 656.7461
722.4280, 708.2373
723.5810, 716.0552
724.7330, 644.3442
725.8850, 698.3887
727.0370, 757.4214
728.1890, 724.3965
729.3400, 721.3696
730.4920, 773.5234
731.6430, 700.0190
732.7940, 723.2256
733.9450, 739.3252
735.0960, 837.0386
736.2460, 774.1855
737.3970, 702.1328
738.5470, 804.1973
739.6970, 741.6606
740.8470, 724.9985
741.9970, 738.0664
743.1470, 736.2129
744.2970, 642.4819
745.4460, 642.7534
746.5950, 524.5986
747.7440, 543.7349
748.8930, 539.3428
750.0420, 514.6641
751.1900, 484.8877
752.3390, 475.2983
753.4870, 383.3687
754.6350, 315.3926
755.7830, 256.9829
756.9310, 308.2456
758.0780, 217.4634
759.2260, 246.5391
760.3730, 304.3545
761.5200, 239.5923
762.6670, 233.8242
763.8140, 240.9268
764.9610, 204.1060
766.1070, 196.4849
767.2530, 215.6958
768.4000, 112.9014
769.5460, 206.1011
770.6910, 120.2964
771.8370, 62.48633
772.9830, 150.6719
774.1280, 167.8530
775.2730, 172.0293
776.4180, 154.2017
777.5630, 164.3701
778.7080, 110.5337
779.8520, 182.6948
780.9970, 93.85156
782.1410, 141.0049
783.2850, 164.1548
784.4290, 115.3018
785.5730, 165.4458
786.7160, 159.5864
787.8600, 218.7251
789.0030, 217.8608
790.1460, 182.9941
791.2890, 103.1250
792.4320, 114.2539
793.5750, 101.3809
794.7170, 51.50537
795.8590, 38.62793
797.0020, 91.74951
798.1440, 91.86865
799.2850, 135.9873
800.4270, 129.8740
801.5690, 116.2202
802.7100, 83.33447
803.8510, 93.44873
804.9920, 7.562012
806.1330, 109.6743
807.2740, 83.78711
808.4140, 31.89893
809.5550, 13.98877
810.6950, 39.88379
811.8350, 21.80029
812.9750, 72.72803
814.1150, 33.30664
815.2540, 33.34180
816.3940, 3.378418
817.5330, 39.41553
818.6720, 24.45361
819.8110, 48.50684
820.9500, 27.51025
822.0880, 4.470703
823.2270, 17.45410
824.3650, 9.442871
825.5030, 27.43604
826.6410, 49.56104
827.7790, 43.43994
828.9170, 67.54150
830.0540, 43.52637
831.1920, 15.48730
832.3290, 29.49609
833.4660, 85.48145
834.6030, 7.529297
835.7390, 78.54102
836.8760, 30.58594
838.0120, 19.64062
839.1480, 21.29980
840.2840, 53.24512
841.4200, 74.19434
842.5560, 0.8525390
843.6920, 17.10352
844.8270, 2.936523
845.9620, 70.97363
847.0970, 66.96289
848.2320, 16.90430
849.3670, 26.14893
850.5020, 4.792969
851.6360, 77.73975
852.7700, 107.3081
853.9040, 21.39893
855.0380, 102.4907
856.1720, 22.37793
857.3060, 32.74609
858.4390, 15.12451
859.5730, 39.99854
860.7060, 87.87109
861.8390, 10.74854
862.9720, 86.63379
864.1040, 2.467773
865.2370, 38.43896
866.3690, 38.35840
867.5010, 2.303711
868.6330, 49.26367
869.7650, 95.27979
870.8970, 83.31250
872.0290, 56.37402
873.1600, 59.49072
874.2910, 8.365234
875.4220, 116.8159
876.5530, 155.0239
877.6840, 115.2749
878.8140, 108.5439
879.9450, 136.8481
881.0750, 153.1738
882.2050, 209.5166
883.3350, 150.8750
884.4650, 276.2598
885.5950, 272.6611
886.7240, 272.0840
887.8530, 355.5234
888.9820, 302.9824
890.1110, 349.4551
891.2400, 451.9385
892.3690, 510.4351
893.4970, 476.9434
894.6260, 475.4619
895.7540, 439.9902
896.8820, 615.5293
898.0100, 669.0786
899.1370, 685.6372
900.2650, 712.2056
901.3920, 688.7837
902.5200, 659.3799
903.6470, 676.9893
904.7730, 704.6089
905.9000, 731.2427
907.0270, 829.9058
908.1530, 783.5869
909.2790, 901.2964
910.4050, 896.0288
911.5310, 916.7837
912.6570, 816.5493
913.7830, 871.3257
914.9080, 933.1201
916.0330, 923.9443
917.1580, 993.3374
918.2830, 1140.632
919.4080, 1112.494
920.5330, 1265.366
921.6570, 1390.251
922.7820, 1447.146
923.9060, 1535.067
925.0300, 1571.999
926.1540, 1646.942
927.2770, 1605.900
928.4010, 1587.869
929.5240, 1601.848
930.6470, 1595.839
931.7700, 1368.842
932.8930, 1361.855
934.0160, 1269.881
935.1380, 1230.920
936.2610, 1159.989
937.3830, 1076.734
938.5050, 1115.354
939.6270, 1139.235
940.7490, 1149.168
941.8700, 1103.305
942.9910, 1129.565
944.1130, 1126.975
945.2340, 1122.385
946.3550, 1156.538
947.4750, 1117.700
948.5960, 1149.242
949.7160, 1145.022
950.8370, 1158.380
951.9570, 1181.726
953.0770, 1175.861
954.1970, 1241.504
955.3160, 1124.867
956.4360, 1184.095
957.5550, 1220.907
958.6740, 1236.212
959.7930, 1168.176
960.9120, 1207.428
962.0310, 1204.669
963.1490, 1197.973
964.2670, 1253.774
965.3860, 1198.444
966.5040, 1252.645
967.6210, 1263.529
968.7390, 1294.570
969.8570, 1345.697
970.9740, 1326.158
972.0910, 1292.449
973.2080, 1249.275
974.3250, 1194.908
975.4420, 1180.554
976.5580, 1220.213
977.6750, 1153.817
978.7910, 1118.507
979.9070, 1142.090
981.0230, 1045.426
982.1390, 1077.156
983.2540, 952.9004
984.3700, 824.6934
985.4850, 878.4668
986.6000, 894.2534
987.7150, 971.5854
988.8300, 912.6768
989.9450, 950.4072
991.0590, 916.2515
992.1730, 974.9414
993.2880, 891.8208
994.4010, 938.2437
995.5150, 917.1543
996.6290, 1049.079
997.7420, 956.0259
998.8560, 1088.922
999.9690, 1087.896
1001.082, 1312.886
1002.195, 1246.885
1003.307, 1323.902
1004.420, 1284.933
1005.532, 1325.980
1006.645, 1289.040
1007.757, 1317.113
1008.868, 1387.034
1009.980, 1390.402
1011.092, 1320.514
1012.203, 1523.639
1013.314, 1505.776
1014.425, 1672.925
1015.536, 1623.087
1016.647, 1689.260
1017.758, 1705.446
1018.868, 1733.644
1019.978, 1722.853
1021.088, 1774.205
1022.198, 1768.439
1023.308, 1880.685
1024.418, 1922.940
1025.527, 2073.208
1026.637, 2018.491
1027.746, 2030.781
1028.855, 1992.082
1029.963, 2115.394
1031.072, 2072.717
1032.181, 2076.050
1033.289, 2101.395
1034.397, 1903.786
1035.505, 1900.073
1036.613, 1960.911
1037.721, 2010.417
1038.828, 2074.987
1039.935, 2134.287
1041.043, 2264.550
1042.150, 2369.196
1043.257, 2507.333
1044.363, 2676.597
1045.470, 2875.050
1046.576, 3025.651
1047.682, 3234.963
1048.788, 3371.613
1049.894, 3671.303
1051.000, 3849.698
1052.106, 4170.201
1053.211, 4370.713
1054.316, 4393.343
1055.421, 4562.984
1056.526, 4500.728
1057.631, 4544.422
1058.736, 4378.971
1059.840, 4203.165
1060.944, 4021.728
1062.049, 3827.298
1063.153, 3480.873
1064.256, 3252.456
1065.360, 2974.162
1066.463, 2701.977
1067.567, 2491.698
1068.670, 2196.550
1069.773, 2064.975
1070.876, 1813.645
1071.978, 1645.907
1073.081, 1608.624
1074.183, 1358.734
1075.285, 1321.010
1076.387, 1174.659
1077.489, 971.3838
1078.591, 1053.141
1079.692, 916.1230
1080.794, 772.0562
1081.895, 782.0210
1082.996, 843.0337
1084.097, 776.9233
1085.198, 756.6367
1086.298, 651.5195
1087.399, 579.2383
1088.499, 553.9712
1089.599, 542.7070
1090.699, 500.4468
1091.799, 521.1929
1092.898, 422.0840
1093.998, 444.9160
1095.097, 479.6777
1096.196, 450.5146
1097.295, 364.2900
1098.394, 467.2178
1099.492, 392.9995
1100.591, 262.9507
1101.689, 303.8027
1102.787, 381.3237
1103.885, 264.2026
1104.983, 297.0166
1106.081, 290.8359
1107.178, 372.6553
1108.275, 386.4927
1109.373, 321.0869
1110.470, 358.9644
1111.566, 345.8838
1112.663, 346.7065
1113.760, 334.5449
1114.856, 261.3892
1115.952, 241.6445
1117.048, 164.6055
1118.144, 192.5625
1119.240, 198.4038
1120.335, 48.33789
1121.431, 194.4697
1122.526, 241.5459
1123.621, 160.8481
1124.716, 129.9033
1125.810, 176.4248
1126.905, 168.3218
1127.999, 172.2188
1129.094, 186.6011
1130.188, 197.7432
1131.282, 155.6714
1132.375, 100.7534
1133.469, 6.677246
1134.562, 52.59863
1135.656, 120.6543
1136.749, 53.00000
1137.842, 63.93408
1138.935, 91.84473
1140.027, 78.77051
1141.120, 10.32324
1142.212, 33.45557
1143.304, 79.95020
1144.396, 104.3037
1145.488, 107.6865
1146.579, 27.34277
1147.671, 55.10742
1148.762, 39.69092
1149.853, 22.36035
1150.944, 65.33301
1152.035, 2.616211
1153.126, 39.38721
1154.216, 37.40625
1155.307, 55.58203
1156.397, 30.12988
1157.487, 18.13623
1158.577, 49.74854
1159.667, 57.20850
1160.756, 49.79150
1161.846, 51.94531
1162.935, 32.71875
1164.024, 33.25244
1165.113, 20.54297
1166.201, 29.13281
1167.290, 5.352539
1168.378, 4.416016
1169.467, 12.05029
1170.555, 62.07568
1171.643, 25.37207
1172.730, 62.69189
1173.818, 38.05518
1174.905, 39.44873
1175.993, 47.12598
1177.080, 28.69287
1178.167, 23.74707
1179.254, 59.21191
1180.340, 5.279785
1181.427, 6.238770
1182.513, 88.22656
1183.599, 65.68457
1184.685, 25.13477
1185.771, 25.57617
1186.856, 40.98975
1187.942, 18.40723
1189.027, 135.7949
1190.112, 1.175293
1191.197, 81.54053
1192.282, 62.89746
1193.367, 104.2466
1194.451, 90.80762
1195.536, 34.91992
1196.620, 17.24365
1197.704, 36.55615
1198.788, 53.12354
1199.872, 45.86621
1200.955, 56.34912
1202.039, 26.44434
1203.122, 33.26953
1204.205, 39.13184
1205.288, 121.0332
1206.370, 31.01709
1207.453, 3.6621001E-02
1208.535, 50.92432
1209.618, 35.12451
1210.700, 24.78857
1211.782, 24.68994
1212.863, 2.420898
1213.945, 35.44727
1215.026, 86.30371
1216.108, 40.16162
1217.189, 136.9976
1218.270, 81.82373
1219.351, 146.6396
1220.431, 136.4463
1221.512, 156.2432
1222.592, 51.02930
1223.672, 67.80469
1224.752, 96.56836
1225.832, 71.32227
1226.911, 105.0649
1227.991, 51.79736
1229.070, 112.5176
1230.149, 49.22803
1231.228, 73.92529
1232.307, 13.61182
1233.386, 74.27979
1234.464, 118.9375
1235.543, 105.5845
1236.621, 127.2212
1237.699, 89.84717
1238.777, 14.46338
1239.855, 82.06104
1240.932, 72.64746
1242.009, 128.2222
1243.087, 158.7861
1244.164, 96.33838
1245.241, 30.87988
1246.317, 70.40527
1247.394, 71.91846
1248.470, 101.4199
1249.546, 83.90918
1250.623, 45.38672
1251.698, 56.85156
1252.774, 34.05713
1253.850, 8.777832
1254.925, 24.19092
1256.000, 117.7520
1257.076, 140.5254
1258.150, 1.344727
1259.225, 179.7080
1260.300, 163.2349
1261.374, 76.56299
1262.449, 146.8696
1263.523, 117.1646
1264.597, 82.44629
1265.670, 43.71484
1266.744, 110.9668
1267.818, 154.4678
1268.891, 112.7402
1269.964, 142.9834
1271.037, 107.0991
1272.110, 137.4741
1273.183, 115.6528
1274.255, 197.8799
1275.327, 201.0337
1276.400, 147.4160
1277.472, 84.56055
1278.543, 116.6919
1279.615, 201.8115
1280.687, 66.91846
1281.758, 154.8804
1282.829, 260.0752
1283.900, 115.1899
1284.971, 245.3242
1286.042, 300.3701
1287.112, 227.3989
1288.183, 277.4224
1289.253, 199.4307
1290.323, 240.4268
1291.393, 286.4116
1292.463, 303.3833
1293.532, 198.5576
1294.602, 218.4688
1295.671, 264.4819
1296.740, 260.9419
1297.809, 284.8198
1298.878, 310.8623
1299.946, 239.6270
1301.015, 202.6504
1302.083, 217.2886
1303.151, 189.4307
1304.219, 176.4438
1305.287, 182.2637
1306.354, 314.0088
1307.422, 339.8857
1308.489, 225.4976
1309.556, 232.0659
1310.623, 156.9263
1311.690, 154.6729
