##NAMES=Actinolite
##RRUFFID=R050336
##IDEAL CHEMISTRY=Ca_2_(Mg_4.5-2.5_Fe^2+^_0.5-2.5_)Si_8_O_22_(OH)_2_
##LOCALITY=Kragerø, Norway
##OWNER=RRUFF
##SOURCE=California Institute of Technology
##DESCRIPTION=Dark green prismatic fragment
##STATUS=The identification of this mineral has been confirmed by X-ray diffraction and chemical analysis
##URL=rruff.info/R050336
##MEASURED CHEMISTRY=([box]_0.62_Na_0.34_K_0.04_)(Ca_1.60_Na_0.40_)_Σ=2_(Mg_3.90_Fe^2+^_0.70_Al_0.20_Ti_0.10_Fe^3+^_0.10_)_Σ=5_(Si_7.52_Al_0.48_)_Σ=8_O_22_((OH)_0.97_F_0.03_)_2_
##PIN_ID=M00343
##ORIENTATION=Laser parallel to -a* (-1 0 0). Fiducial mark perpendicular to laser is parallel to b [0 1 0]
149.7320, 0.0000000E+00
150.9600, 141.6895
152.1880, 12.20801
153.4160, 9.485352
154.6440, 20.13281
155.8720, 141.1289
157.0990, 100.6807
158.3270, 261.9600
159.5540, 394.5957
160.7810, 465.1719
162.0080, 842.6719
163.2350, 1406.538
164.4610, 1753.907
165.6880, 2022.158
166.9140, 2532.043
168.1400, 2971.886
169.3660, 3682.476
170.5920, 4334.971
171.8180, 4937.787
173.0430, 5445.516
174.2690, 5868.864
175.4940, 6342.631
176.7190, 6602.669
177.9440, 6903.910
179.1680, 6919.328
180.3930, 6357.348
181.6170, 5736.276
182.8420, 5365.230
184.0660, 4585.562
185.2900, 4202.564
186.5140, 3727.483
187.7370, 3247.540
188.9610, 2944.931
190.1840, 2604.448
191.4070, 2459.426
192.6300, 2134.836
193.8530, 2108.197
195.0760, 1994.624
196.2980, 1736.228
197.5210, 1886.092
198.7430, 1688.293
199.9650, 1687.894
201.1870, 1660.321
202.4090, 1746.515
203.6310, 1618.623
204.8520, 1683.312
206.0730, 1792.399
207.2950, 1958.696
208.5160, 2217.339
209.7360, 2697.529
210.9570, 3261.334
212.1780, 3884.430
213.3980, 4521.527
214.6180, 4847.887
215.8380, 5337.594
217.0580, 5829.504
218.2780, 6320.569
219.4980, 6741.774
220.7170, 7122.115
221.9360, 7433.588
223.1560, 7680.189
224.3750, 7685.734
225.5930, 7324.909
226.8120, 7368.111
228.0310, 6989.564
229.2490, 6468.273
230.4670, 6337.243
231.6850, 5925.480
232.9030, 5681.984
234.1210, 5091.748
235.3380, 4574.773
236.5560, 4165.052
237.7730, 3658.705
238.9900, 3344.388
240.2070, 2876.537
241.4240, 2561.988
242.6410, 2394.652
243.8570, 2223.509
245.0730, 2000.544
246.2900, 2056.749
247.5060, 1802.115
248.7210, 1918.636
249.9370, 1702.305
251.1530, 1461.115
252.3680, 1297.855
253.5830, 1255.050
254.7980, 1157.212
256.0130, 1007.298
257.2280, 649.1436
258.4430, 560.0020
259.6570, 363.2510
260.8720, 162.0127
262.0860, 111.0156
263.3000, 216.4512
264.5130, 269.5840
265.7270, 373.7773
266.9410, 343.1807
268.1540, 356.5342
269.3670, 452.8379
270.5800, 415.0938
271.7930, 456.3008
273.0060, 421.5322
274.2190, 249.5762
275.4310, 274.6445
276.6430, 158.6680
277.8550, 21.35156
279.0670, 142.4102
280.2790, 112.2227
281.4910, 264.5869
282.7020, 486.4746
283.9140, 501.8379
285.1250, 670.7480
286.3360, 670.3848
287.5470, 807.0088
288.7570, 960.7168
289.9680, 1028.508
291.1780, 1190.378
292.3880, 1069.327
293.5990, 1008.354
294.8080, 1080.457
296.0180, 1030.854
297.2280, 1119.499
298.4370, 1040.937
299.6470, 884.2910
300.8560, 894.2031
302.0650, 888.5557
303.2740, 750.2646
304.4820, 662.2676
305.6910, 462.5117
306.8990, 416.9551
308.1070, 464.5967
309.3150, 511.4629
310.5230, 588.5332
311.7310, 387.9863
312.9390, 468.4512
314.1460, 463.0703
315.3530, 643.9482
316.5600, 752.8691
317.7670, 739.0098
318.9740, 856.1748
320.1810, 930.4727
321.3870, 1181.855
322.5930, 1176.342
323.8000, 1459.114
325.0060, 1719.042
326.2110, 1870.567
327.4170, 2032.200
328.6230, 2209.915
329.8280, 2111.715
331.0330, 2388.953
332.2380, 2428.208
333.4430, 2179.679
334.6480, 2255.240
335.8530, 2023.401
337.0570, 1900.487
338.2610, 1802.525
339.4650, 1628.519
340.6690, 1504.471
341.8730, 1460.384
343.0770, 1366.263
344.2800, 1328.108
345.4840, 1237.924
346.6870, 1214.692
347.8900, 1183.474
349.0930, 1239.212
350.2950, 1252.926
351.4980, 1414.612
352.7000, 1608.837
353.9030, 1773.477
355.1050, 2151.500
356.3070, 2346.896
357.5080, 2540.812
358.7100, 3156.417
359.9110, 3648.029
361.1130, 4311.685
362.3140, 4768.377
363.5150, 5401.109
364.7160, 5825.881
365.9160, 6374.691
367.1170, 6802.539
368.3170, 7045.422
369.5170, 7001.341
370.7170, 7117.294
371.9170, 6959.281
373.1170, 6674.301
374.3170, 6508.353
375.5160, 6300.432
376.7150, 6411.541
377.9140, 6476.677
379.1130, 6471.842
380.3120, 6858.026
381.5110, 7229.236
382.7090, 7511.467
383.9070, 8125.720
385.1060, 8685.990
386.3040, 9273.279
387.5010, 9478.585
388.6990, 10101.91
389.8970, 10230.24
391.0940, 10396.58
392.2910, 10233.94
393.4880, 9917.315
394.6850, 9295.695
395.8820, 8611.089
397.0780, 7700.489
398.2750, 6896.900
399.4710, 5873.318
400.6670, 5226.744
401.8630, 4812.179
403.0590, 4492.621
404.2540, 4182.068
405.4500, 4286.522
406.6450, 4266.678
407.8400, 4204.014
409.0350, 4374.119
410.2300, 4477.784
411.4250, 4641.470
412.6190, 4682.417
413.8140, 4721.416
415.0080, 4587.881
416.2020, 4535.584
417.3960, 4309.104
418.5900, 4217.239
419.7830, 3918.895
420.9770, 3585.920
422.1700, 3469.872
423.3630, 3135.422
424.5560, 3005.982
425.7490, 2729.553
426.9410, 2653.136
428.1340, 2339.732
429.3260, 2197.348
430.5180, 2223.980
431.7100, 1962.632
432.9020, 1840.301
434.0940, 1705.509
435.2850, 1564.694
436.4770, 1377.417
437.6680, 1296.158
438.8590, 1135.915
440.0500, 978.6914
441.2410, 878.4805
442.4310, 743.2598
443.6220, 615.0830
444.8120, 525.8877
446.0020, 396.6924
447.1920, 293.5996
448.3820, 230.3496
449.5710, 186.0684
450.7610, 123.3672
451.9500, 191.9014
453.1390, 209.8789
454.3280, 8.270508
455.5170, 200.1289
456.7060, 120.0029
457.8940, 36.11914
459.0830, 202.6523
460.2710, 84.28809
461.4590, 192.5732
462.6470, 175.3779
463.8350, 199.8486
465.0220, 223.7471
466.2100, 192.7637
467.3970, 188.3281
468.5840, 110.8096
469.7710, 107.3037
470.9580, 16.04590
472.1440, 32.94922
473.3310, 73.47461
474.5170, 137.9404
475.7030, 253.3730
476.8890, 217.6035
478.0750, 300.7969
479.2610, 344.7822
480.4460, 447.9570
481.6320, 323.8721
482.8170, 355.7539
484.0020, 322.5986
485.1870, 510.4092
486.3710, 541.1855
487.5560, 594.9248
488.7400, 479.6309
489.9250, 505.3008
491.1090, 535.9365
492.2930, 614.5361
493.4760, 795.1025
494.6600, 783.6318
495.8440, 997.1289
497.0270, 1032.596
498.2100, 1095.033
499.3930, 1334.445
500.5760, 1548.834
501.7580, 1595.199
502.9410, 1783.543
504.1230, 1932.863
505.3060, 1924.161
506.4880, 2199.437
507.6690, 2222.688
508.8510, 2361.912
510.0330, 2545.114
511.2140, 2614.291
512.3950, 2649.443
513.5760, 2889.570
514.7570, 3120.671
515.9380, 3073.747
517.1190, 3114.797
518.2990, 3263.819
519.4800, 3420.815
520.6600, 3523.786
521.8400, 3703.729
523.0190, 3809.644
524.1990, 4053.531
525.3790, 4241.391
526.5580, 4493.224
527.7370, 4380.026
528.9160, 4697.803
530.0950, 4797.549
531.2740, 4975.267
532.4520, 5129.957
533.6310, 5125.617
534.8090, 5334.248
535.9870, 5175.848
537.1650, 5286.422
538.3430, 5272.964
539.5200, 5289.476
540.6980, 5199.958
541.8750, 5229.410
543.0520, 5153.832
544.2290, 4960.225
545.4060, 4986.586
546.5820, 4961.916
547.7590, 4877.215
548.9350, 4933.486
550.1110, 4857.496
551.2870, 4853.672
552.4630, 4828.666
553.6390, 4835.223
554.8140, 4945.861
555.9900, 4964.610
557.1650, 4893.458
558.3400, 4993.415
559.5150, 4724.472
560.6900, 4929.581
561.8640, 4857.750
563.0390, 4963.002
564.2130, 4793.258
565.3870, 4750.502
566.5610, 4855.772
567.7350, 4836.074
568.9080, 4574.400
570.0820, 4501.763
571.2550, 4283.139
572.4280, 3927.523
573.6010, 3727.923
574.7740, 3507.339
575.9470, 3195.776
577.1190, 2852.240
578.2920, 2599.716
579.4640, 2206.195
580.6360, 1976.664
581.8080, 1718.141
582.9790, 1530.627
584.1510, 1101.110
585.3220, 872.5635
586.4940, 598.9912
587.6650, 405.3984
588.8360, 252.7686
590.0060, 258.0947
591.1770, 5.625000
592.3470, 199.4561
593.5180, 205.5000
594.6880, 393.7598
595.8580, 274.4961
597.0280, 297.3301
598.1970, 364.4307
599.3670, 322.9316
600.5360, 260.6162
601.7050, 318.6533
602.8740, 342.8682
604.0430, 178.3730
605.2120, 265.0879
606.3800, 331.0527
607.5490, 202.4648
608.7170, 47.19727
609.8850, 69.69727
611.0530, 74.50879
612.2210, 0.6083980
613.3880, 42.03613
614.5560, 219.0908
615.7230, 149.0068
616.8900, 385.5869
618.0570, 383.9746
619.2240, 576.6670
620.3900, 368.3477
621.5570, 837.9912
622.7230, 753.8311
623.8890, 1349.176
625.0550, 957.7178
626.2210, 897.2266
627.3870, 1217.702
628.5520, 1433.146
629.7180, 1408.556
630.8830, 1455.933
632.0480, 1674.276
633.2130, 1779.589
634.3770, 2091.869
635.5420, 2171.118
636.7060, 2409.334
637.8710, 2660.520
639.0350, 2804.673
640.1990, 3163.795
641.3620, 3548.887
642.5260, 3919.947
643.6890, 3997.976
644.8530, 4443.975
646.0160, 4919.943
647.1790, 5403.881
648.3410, 5962.457
649.5040, 6493.664
650.6670, 7249.512
651.8290, 7946.329
652.9910, 8863.119
654.1530, 10051.88
655.3150, 11121.61
656.4770, 12659.31
657.6380, 14489.98
658.7990, 16406.63
659.9610, 19045.24
661.1220, 21784.83
662.2830, 25339.38
663.4430, 29357.92
664.6040, 33677.41
665.7640, 38081.89
666.9240, 42526.34
668.0850, 46121.75
669.2440, 49164.16
670.4040, 51123.53
671.5640, 51823.86
672.7230, 51373.17
673.8830, 49433.46
675.0420, 46082.73
676.2010, 41136.96
677.3590, 36471.17
678.5180, 31649.36
679.6770, 27143.52
680.8350, 23330.66
681.9930, 20188.77
683.1510, 18251.86
684.3090, 16176.92
685.4670, 14502.97
686.6240, 13396.98
687.7810, 12559.97
688.9390, 11881.94
690.0960, 11342.89
691.2530, 10758.81
692.4090, 10552.71
693.5660, 10143.59
694.7220, 10280.44
695.8790, 9742.350
697.0350, 9955.730
698.1910, 10114.00
699.3460, 10220.03
700.5020, 10117.83
701.6570, 10295.62
702.8130, 10359.61
703.9680, 10417.27
705.1230, 10690.66
706.2780, 10903.42
707.4320, 11382.82
708.5870, 11496.93
709.7410, 12034.14
710.8950, 12375.41
712.0490, 12630.63
713.2030, 13098.94
714.3570, 13347.47
715.5100, 13943.30
716.6640, 13963.42
717.8170, 14449.14
718.9700, 14696.18
720.1230, 14952.59
721.2760, 15275.61
722.4280, 15460.76
723.5810, 15733.38
724.7330, 15841.49
725.8850, 15967.37
727.0370, 16123.41
728.1890, 15946.51
729.3400, 16144.55
730.4920, 16080.97
731.6430, 15895.12
732.7940, 15660.78
733.9450, 15709.54
735.0960, 15645.70
736.2460, 15201.35
737.3970, 14964.72
738.5470, 14673.62
739.6970, 14372.39
740.8470, 14016.46
741.9970, 13638.52
743.1470, 13099.79
744.2970, 12749.13
745.4460, 12345.32
746.5950, 11723.56
747.7440, 11226.55
748.8930, 10807.14
750.0420, 10381.43
751.1900, 9823.396
752.3390, 9447.881
753.4870, 8769.276
754.6350, 8622.667
755.7830, 8171.221
756.9310, 7446.777
758.0780, 7147.506
759.2260, 6794.014
760.3730, 6552.745
761.5200, 6205.480
762.6670, 6044.217
763.8140, 5720.956
764.9610, 5409.699
766.1070, 5071.446
767.2530, 5087.198
768.4000, 4843.955
769.5460, 4734.715
770.6910, 4663.482
771.8370, 4307.254
772.9830, 4094.033
774.1280, 3978.821
775.2730, 4086.614
776.4180, 4009.416
777.5630, 3961.229
778.7080, 3911.167
779.8520, 3853.876
780.9970, 3775.346
782.1410, 3604.563
783.2850, 3594.422
784.4290, 3495.370
785.5730, 3382.173
786.7160, 3347.064
787.8600, 3339.968
789.0030, 3196.884
790.1460, 3036.814
791.2890, 3029.755
792.4320, 3011.711
793.5750, 2813.680
794.7170, 2864.663
795.8590, 2699.661
797.0020, 2717.674
798.1440, 2378.702
799.2850, 2615.746
800.4270, 2350.807
801.5690, 2461.884
802.7100, 2220.979
803.8510, 2136.090
804.9920, 1996.220
806.1330, 1943.366
807.2740, 1736.532
808.4140, 1736.716
809.5550, 1636.919
810.6950, 1533.683
811.8350, 1499.385
812.9750, 1382.647
814.1150, 1359.931
815.2540, 1327.234
816.3940, 1101.560
817.5330, 1062.907
818.6720, 1001.275
819.8110, 962.6650
820.9500, 781.0781
822.0880, 743.5146
823.2270, 909.9727
824.3650, 878.4561
825.5030, 698.9619
826.6410, 685.4932
827.7790, 437.0479
828.9170, 669.6270
830.0540, 421.2314
831.1920, 406.8604
832.3290, 350.5146
833.4660, 350.1953
834.6030, 131.9023
835.7390, 225.6348
836.8760, 199.3926
838.0120, 215.8213
839.1480, 102.1123
840.2840, 65.42676
841.4200, 253.7480
842.5560, 265.1631
843.6920, 255.6768
844.8270, 280.2812
845.9620, 212.9893
847.0970, 178.7695
848.2320, 216.0830
849.3670, 219.5049
850.5020, 243.4775
851.6360, 268.5312
852.7700, 202.6777
853.9040, 178.8848
855.0380, 108.1406
856.1720, 195.4121
857.3060, 202.7383
858.4390, 160.5312
859.5730, 9.540039
860.7060, 50.93652
861.8390, 71.32324
862.9720, 61.29297
864.1040, 3.945313
865.2370, 139.6299
866.3690, 213.3545
867.5010, 349.1514
868.6330, 308.1533
869.7650, 340.1211
870.8970, 146.3447
872.0290, 405.7139
873.1600, 232.2363
874.2910, 182.9277
875.4220, 401.7783
876.5530, 444.7734
877.6840, 506.9277
878.8140, 479.2480
879.9450, 654.6914
881.0750, 742.2803
882.2050, 693.0332
883.3350, 883.9160
884.4650, 833.8916
885.5950, 765.9629
886.7240, 1005.131
887.8530, 1057.377
888.9820, 1057.689
890.1110, 1191.708
891.2400, 1221.688
892.3690, 1326.917
893.4970, 1301.446
894.6260, 1382.026
895.7540, 1311.649
896.8820, 1267.319
898.0100, 1387.030
899.1370, 1287.807
900.2650, 1215.668
901.3920, 1358.589
902.5200, 1451.586
903.6470, 1345.666
904.7730, 1372.835
905.9000, 1412.063
907.0270, 1364.343
908.1530, 1336.743
909.2790, 1360.187
910.4050, 1500.727
911.5310, 1642.336
912.6570, 1561.987
913.7830, 1758.694
914.9080, 1628.472
916.0330, 1542.301
917.1580, 1797.174
918.2830, 2146.115
919.4080, 2231.102
920.5330, 2239.175
921.6570, 2238.298
922.7820, 2433.468
923.9060, 2500.688
925.0300, 2588.994
926.1540, 2665.342
927.2770, 2631.132
928.4010, 2663.213
929.5240, 2535.727
930.6470, 2404.288
931.7700, 2346.896
932.8930, 2270.599
934.0160, 2090.400
935.1380, 1793.264
936.2610, 1678.189
937.3830, 1606.158
938.5050, 1420.171
939.6270, 1378.237
940.7490, 1213.363
941.8700, 1214.540
942.9910, 983.7676
944.1130, 1203.039
945.2340, 1079.357
946.3550, 1040.720
947.4750, 1131.132
948.5960, 1125.607
949.7160, 1234.139
950.8370, 1093.757
951.9570, 1209.417
953.0770, 1059.142
954.1970, 1094.912
955.3160, 1095.725
956.4360, 1053.579
957.5550, 853.4873
958.6740, 873.4385
959.7930, 1017.432
960.9120, 1017.465
962.0310, 1176.539
963.1490, 1175.654
964.2670, 1142.812
965.3860, 1195.806
966.5040, 1242.260
967.6210, 1181.548
968.7390, 1166.877
969.8570, 1151.246
970.9740, 1187.654
972.0910, 1060.101
973.2080, 1079.442
974.3250, 1309.895
975.4420, 1117.190
976.5580, 1141.614
977.6750, 1048.460
978.7910, 994.9570
979.9070, 1056.115
981.0230, 1019.407
982.1390, 1043.146
983.2540, 1051.316
984.3700, 1085.332
985.4850, 1074.147
986.6000, 1106.674
987.7150, 1112.199
988.8300, 1110.565
989.9450, 1102.953
991.0590, 1086.958
992.1730, 1003.686
993.2880, 940.7393
994.4010, 1287.511
995.5150, 1263.883
996.6290, 1444.493
997.7420, 1343.973
998.8560, 1538.335
999.9690, 1656.910
1001.082, 1569.532
1002.195, 1744.202
1003.307, 1820.918
1004.420, 1732.678
1005.532, 1951.483
1006.645, 2011.332
1007.757, 2213.227
1008.868, 2441.162
1009.980, 2329.140
1011.092, 2346.158
1012.203, 2579.218
1013.314, 2553.318
1014.425, 2622.455
1015.536, 2744.633
1016.647, 2850.847
1017.758, 2874.204
1018.868, 2833.490
1019.978, 2943.951
1021.088, 3086.307
1022.198, 3234.698
1023.308, 3338.173
1024.418, 3539.580
1025.527, 3567.365
1026.637, 3755.948
1027.746, 3888.805
1028.855, 3905.394
1029.963, 3940.207
1031.072, 3937.777
1032.181, 3821.587
1033.289, 3815.576
1034.397, 3648.215
1035.505, 3437.674
1036.613, 3280.749
1037.721, 3325.451
1038.828, 3209.189
1039.935, 3128.734
1041.043, 3287.105
1042.150, 3133.293
1043.257, 3123.786
1044.363, 3288.582
1045.470, 3350.842
1046.576, 3006.414
1047.682, 3391.893
1048.788, 3544.942
1049.894, 3360.043
1051.000, 3731.039
1052.106, 3902.738
1053.211, 3903.828
1054.316, 4415.819
1055.421, 3985.678
1056.526, 4412.477
1057.631, 4429.580
1058.736, 4484.904
1059.840, 4889.825
1060.944, 4847.865
1062.049, 4712.295
1063.153, 4907.031
1064.256, 4810.098
1065.360, 4581.159
1066.463, 4531.779
1067.567, 4243.494
1068.670, 3963.152
1069.773, 3959.766
1070.876, 3670.568
1071.978, 3578.341
1073.081, 3314.082
1074.183, 3078.576
1075.285, 2971.842
1076.387, 2880.646
1077.489, 2663.149
1078.591, 2603.041
1079.692, 2636.237
1080.794, 2550.574
1081.895, 2267.056
1082.996, 2139.649
1084.097, 2268.502
1085.198, 2031.906
1086.298, 2018.504
1087.399, 1792.910
1088.499, 1757.690
1089.599, 1768.914
1090.699, 1454.846
1091.799, 1681.641
1092.898, 1595.046
1093.998, 1501.548
1095.097, 1436.248
1096.196, 1264.994
1097.295, 1516.868
1098.394, 1424.463
1099.492, 1302.758
1100.591, 1259.598
1101.689, 1120.979
1102.787, 1108.357
1103.885, 1097.730
1104.983, 1027.464
1106.081, 1107.829
1107.178, 989.2627
1108.275, 1058.868
1109.373, 837.3672
1110.470, 910.9219
1111.566, 880.7568
1112.663, 851.4238
1113.760, 971.1318
1114.856, 905.2588
1115.952, 782.0430
1117.048, 776.8682
1118.144, 683.8584
1119.240, 785.9561
1120.335, 687.1758
1121.431, 491.0820
1122.526, 625.4141
1123.621, 539.4453
1124.716, 616.5078
1125.810, 416.5938
1126.905, 561.9668
1127.999, 452.0420
1129.094, 478.7119
1130.188, 419.7744
1131.282, 434.8242
1132.375, 310.8643
1133.469, 353.8857
1134.562, 412.8926
1135.656, 411.8818
1136.749, 217.8555
1137.842, 258.8115
1138.935, 228.8730
1140.027, 198.9316
1141.120, 210.8350
1142.212, 174.7227
1143.304, 176.6230
1144.396, 187.8721
1145.488, 158.7002
1146.579, 138.7803
1147.671, 105.5947
1148.762, 1.361328
1149.853, 89.10352
1150.944, 1.825195
1152.035, 76.52246
1153.126, 219.1973
1154.216, 141.8486
1155.307, 100.4785
1156.397, 21.91602
1157.487, 96.13672
1158.577, 34.64844
1159.667, 60.79004
1160.756, 13.79492
1161.846, 125.5791
1162.935, 72.07129
1164.024, 153.7930
1165.113, 50.63184
1166.201, 109.5332
1167.290, 133.3477
1168.378, 157.4541
1169.467, 44.68164
1170.555, 7.973633
1171.643, 274.3115
1172.730, 47.16309
1173.818, 177.3926
1174.905, 69.08594
1175.993, 56.13965
1177.080, 14.66602
1178.167, 75.41113
1179.254, 3.360352
1180.340, 127.6416
1181.427, 63.38867
1182.513, 39.49805
1183.599, 133.4609
1184.685, 13.26758
1185.771, 39.95117
1186.856, 10.61133
1187.942, 120.7920
1189.027, 131.6855
1190.112, 19.86816
1191.197, 2.510742
1192.282, 16.83301
1193.367, 22.10938
1194.451, 51.91797
1195.536, 143.7588
1196.620, 167.5332
1197.704, 24.62891
1198.788, 22.79785
1199.872, 118.9600
1200.955, 92.68164
1202.039, 10.36426
1203.122, 4.491211
1204.205, 18.08008
1205.288, 24.60352
1206.370, 107.0986
1207.453, 54.51465
1208.535, 102.2285
1209.618, 31.56055
1210.700, 24.16016
1211.782, 6.151367
1212.863, 106.4326
1213.945, 118.5791
1215.026, 22.44727
1216.108, 62.44531
1217.189, 246.2920
1218.270, 135.1045
1219.351, 15.87695
1220.431, 119.5869
1221.512, 137.2588
1222.592, 258.9287
1223.672, 209.5234
1224.752, 163.0811
1225.832, 153.7637
1226.911, 60.31250
1227.991, 191.7432
1229.070, 95.13672
1230.149, 141.4844
1231.228, 338.7920
1232.307, 267.0947
1233.386, 314.3301
1234.464, 161.5293
1235.543, 98.68750
1236.621, 254.9814
1237.699, 215.0596
1238.777, 363.2607
1239.855, 317.2617
1240.932, 203.2236
1242.009, 318.1465
1243.087, 324.0303
1244.164, 169.4785
1245.241, 334.2822
1246.317, 267.0479
1247.394, 236.7773
1248.470, 224.4629
1249.546, 224.1064
1250.623, 283.7080
1251.698, 190.2686
1252.774, 391.7871
1253.850, 405.2695
1254.925, 346.7061
1256.000, 203.1016
1257.076, 390.4541
1258.150, 154.7656
1259.225, 314.0742
1260.300, 298.2979
1261.374, 424.9209
1262.449, 380.0635
1263.523, 374.1650
1264.597, 352.2256
1265.670, 300.3555
1266.744, 376.2744
1267.818, 254.2246
1268.891, 251.1377
1269.964, 350.0078
1271.037, 285.2686
1272.110, 183.0576
1273.183, 286.8037
1274.255, 401.5098
1275.327, 223.2402
1276.400, 281.8633
1277.472, 386.4473
1278.543, 355.8857
1279.615, 432.3906
1280.687, 448.0059
1281.758, 298.1426
1282.829, 470.5293
1283.900, 499.8770
1284.971, 491.1855
1286.042, 240.1602
1287.112, 389.3311
1288.183, 451.2324
1289.253, 359.3926
1290.323, 479.3252
1291.393, 288.5430
1292.463, 447.5410
1293.532, 456.2744
1294.602, 422.3477
1295.671, 217.5928
1296.740, 300.2109
1297.809, 263.1895
1298.878, 297.1211
1299.946, 331.2324
1301.015, 423.5078
1302.083, 328.9561
1303.151, 414.0830
1304.219, 207.8965
1305.287, 297.2314
1306.354, 175.2432
1307.422, 349.3340
1308.489, 395.8428
1309.556, 250.2861
1310.623, 363.8184
1311.690, 144.6348
1312.757, 249.5654
1313.823, 307.5449
1314.890, 175.1582
1315.956, 267.8203
