##NAMES=Adamite
##RRUFFID=R050020
##IDEAL CHEMISTRY=Zn^2+^_2_As^5+^O_4_(OH)
##LOCALITY=Mina Ojuela, Mapimi, Durango, Mexico
##OWNER=RRUFF
##SOURCE=Eugene Schlepp
##DESCRIPTION=Light green prismatic crystal
##STATUS=The identification of this mineral has been confirmed by X-ray diffraction and chemical analysis
##URL=rruff.info/R050020
##MEASURED CHEMISTRY=(Zn_1.97_Cu_0.03_)_Σ=2_((As_0.98_P_0.02_)_Σ=1_O_4_)(OH)
##PIN_ID=L00511
##ORIENTATION=Laser parallel to a* (1 0 0). Fiducial mark perpendicular to laser is parallel to b [0 1 0]
119.050, 0.000
120.447, 613.279
121.843, 39.762
123.240, 761.010
124.636, 376.904
126.031, 782.498
127.427, 995.225
128.822, 432.977
130.217, 1125.047
131.612, 570.242
133.006, 1067.742
134.400, 579.553
135.794, 849.986
137.188, 792.875
138.581, 398.686
139.975, 756.234
141.368, 323.752
142.760, 511.488
144.153, 179.424
145.545, 377.467
146.937, 435.549
148.329, 26.297
149.720, 672.035
151.112, 10.623
152.503, 649.361
153.893, 108.199
155.284, 460.221
156.674, 527.879
158.064, 145.516
159.454, 740.896
160.843, 97.379
162.233, 774.814
163.622, 184.582
165.011, 434.176
166.399, 594.416
167.787, 474.385
169.175, 984.027
170.563, 463.283
171.951, 1062.484
173.338, 831.068
174.725, 1070.023
176.112, 908.977
177.499, 468.949
178.885, 849.688
180.271, 230.242
181.657, 632.463
183.043, 343.510
184.428, 364.207
185.813, 554.715
187.198, 25.070
188.583, 595.010
189.967, 135.305
191.351, 594.082
192.735, 183.041
194.119, 91.586
195.502, 511.371
196.885, 120.908
198.268, 616.443
199.651, 36.562
201.033, 360.732
202.415, 162.977
203.797, 284.180
205.179, 564.494
206.561, 36.238
207.942, 871.441
209.323, 462.533
210.703, 671.576
212.084, 589.312
213.464, 416.830
214.844, 880.055
216.224, 239.135
217.603, 762.186
218.983, 245.195
220.362, 398.164
221.741, 481.082
223.119, 163.949
224.497, 866.762
225.875, 420.414
227.253, 1174.025
228.631, 1097.441
230.008, 1370.730
231.385, 1833.256
232.762, 1041.143
234.139, 1712.648
235.515, 702.838
236.891, 1205.223
238.267, 605.680
239.643, 547.908
241.018, 940.377
242.393, 258.164
243.768, 1116.996
245.143, 500.389
246.517, 1021.578
247.891, 1101.998
249.265, 1072.570
250.639, 1695.578
252.012, 1124.604
253.386, 1868.848
254.759, 1209.639
256.131, 1458.271
257.504, 1312.020
258.876, 876.834
260.248, 1307.951
261.620, 602.893
262.991, 1341.176
264.363, 859.418
265.734, 849.094
267.104, 1067.250
268.475, 585.369
269.845, 953.455
271.215, 261.506
272.585, 1019.518
273.955, 697.494
275.324, 825.439
276.693, 1143.352
278.062, 461.227
279.431, 1089.070
280.799, 286.885
282.167, 434.670
283.535, 622.428
284.903, 113.895
286.270, 555.949
287.638, 81.654
289.005, 630.910
290.371, 133.631
291.738, 13.555
293.104, 409.293
294.470, 47.807
295.836, 485.074
297.201, 192.031
298.567, 460.783
299.932, 83.576
301.296, 76.344
302.661, 539.068
304.025, 88.242
305.389, 544.344
306.753, 146.889
308.117, 379.375
309.480, 601.816
310.843, 104.211
312.206, 796.545
313.569, 418.584
314.931, 800.820
316.293, 783.010
317.655, 645.154
319.017, 1167.248
320.378, 829.146
321.740, 1580.996
323.101, 742.668
324.461, 1284.258
325.822, 1285.811
327.182, 787.314
328.542, 1248.764
329.902, 260.160
331.261, 801.498
332.621, 272.779
333.980, 294.008
335.339, 595.180
336.697, 93.701
338.056, 597.320
339.414, 8.291
340.772, 279.178
342.129, 360.008
343.487, 49.219
344.844, 531.467
346.201, 317.914
347.557, 512.531
348.914, 7.086
350.270, 53.207
351.626, 463.420
352.982, 236.422
354.337, 576.240
355.693, 113.803
357.048, 276.043
358.402, 185.869
359.757, 165.635
361.111, 548.217
362.465, 222.111
363.819, 495.277
365.173, 74.805
366.526, 94.246
367.879, 403.529
369.232, 187.238
370.585, 661.385
371.937, 39.641
373.290, 469.107
374.642, 177.760
375.993, 166.281
377.345, 614.758
378.696, 76.779
380.047, 561.586
381.398, 249.930
382.748, 238.271
384.099, 696.592
385.449, 105.062
386.799, 923.109
388.148, 121.363
389.497, 379.605
390.847, 277.822
392.196, 36.025
393.544, 754.139
394.893, 12.238
396.241, 520.229
397.589, 188.037
398.936, 95.793
400.284, 523.398
401.631, 0.912
402.978, 838.379
404.325, 325.836
405.672, 682.664
407.018, 819.980
408.364, 107.195
409.710, 1054.352
411.055, 211.500
412.401, 868.646
413.746, 465.732
415.091, 472.822
416.435, 1029.848
417.780, 206.871
419.124, 1143.896
420.468, 530.906
421.812, 727.895
423.155, 1094.875
424.498, 391.834
425.842, 1408.803
427.184, 405.779
428.527, 882.758
429.869, 959.750
431.211, 596.750
432.553, 1283.766
433.895, 300.031
435.236, 1217.072
436.577, 714.127
437.918, 661.195
439.259, 1408.277
440.599, 345.369
441.940, 1262.480
443.280, 559.287
444.619, 956.430
445.959, 1073.584
447.298, 597.762
448.637, 1264.918
449.976, 479.146
451.315, 1116.297
452.653, 990.953
453.991, 419.395
455.329, 1286.535
456.667, 462.777
458.004, 1289.910
459.341, 787.053
460.678, 944.182
462.015, 1487.262
463.352, 520.068
464.688, 1377.199
466.024, 800.764
467.360, 1357.895
468.695, 1582.625
470.031, 1059.760
471.366, 1976.898
472.701, 940.562
474.035, 1687.711
475.370, 1684.869
476.704, 1282.029
478.038, 2130.229
479.372, 1067.404
480.705, 2034.586
482.038, 1601.777
483.371, 1228.977
484.704, 2216.189
486.037, 983.414
487.369, 1960.650
488.701, 1337.898
490.033, 1235.160
491.365, 1581.855
492.696, 809.146
494.027, 1576.045
495.358, 893.170
496.689, 1420.506
498.019, 1376.336
499.350, 733.707
500.680, 1813.705
502.009, 590.844
503.339, 1518.277
504.668, 1178.973
505.997, 996.449
507.326, 1706.225
508.655, 703.746
509.983, 1663.115
511.311, 965.613
512.639, 1053.215
513.967, 1618.422
515.295, 656.113
516.622, 1729.426
517.949, 883.275
519.276, 1139.750
520.602, 1515.883
521.929, 623.762
523.255, 1560.930
524.581, 904.004
525.906, 1308.240
527.232, 1413.143
528.557, 731.211
529.882, 1871.109
531.207, 629.674
532.531, 1568.676
533.855, 1166.906
535.179, 1034.195
536.503, 1661.367
537.827, 961.814
539.150, 1569.090
540.473, 1147.545
541.796, 1089.186
543.119, 1787.666
544.441, 586.215
545.764, 1482.314
547.086, 821.010
548.407, 892.352
549.729, 1561.146
551.050, 280.393
552.371, 1574.969
553.692, 783.918
555.013, 957.580
556.333, 1226.637
557.653, 525.748
558.973, 1362.906
560.293, 502.129
561.612, 1085.725
562.932, 1075.061
564.251, 310.428
565.569, 1519.883
566.888, 319.400
568.206, 1137.670
569.524, 957.309
570.842, 607.010
572.160, 1566.771
573.477, 356.600
574.795, 1086.490
576.112, 826.445
577.428, 476.465
578.745, 1246.549
580.061, 246.703
581.377, 1046.920
582.693, 657.209
584.009, 547.562
585.324, 1447.984
586.639, 238.477
587.954, 1239.041
589.269, 589.674
590.583, 640.965
591.897, 1301.738
593.212, 322.586
594.525, 1423.580
595.839, 644.576
597.152, 765.639
598.465, 1316.779
599.778, 367.992
601.091, 1349.365
602.403, 360.729
603.716, 772.166
605.028, 1283.680
606.339, 225.281
607.651, 1486.961
608.962, 358.773
610.273, 850.664
611.584, 1132.643
612.895, 294.738
614.205, 1586.914
615.515, 149.217
616.825, 741.600
618.135, 1244.150
619.444, 26.781
620.754, 1409.510
622.063, 122.346
623.372, 815.262
624.680, 998.320
625.989, 71.461
627.297, 1324.697
628.605, 228.018
629.912, 991.424
631.220, 884.932
632.527, 28.527
633.834, 1422.207
635.141, 34.023
636.447, 979.820
637.754, 833.750
639.060, 377.771
640.366, 1111.879
641.671, 96.080
642.977, 1020.367
644.282, 704.748
645.587, 29.219
646.892, 1403.779
648.196, 158.430
649.501, 843.180
650.805, 778.018
652.109, 72.955
653.412, 1407.984
654.716, 76.889
656.019, 1128.365
657.322, 583.719
658.625, 329.199
659.927, 1134.777
661.230, 129.549
662.532, 956.234
663.834, 682.117
665.135, 178.217
666.437, 1264.412
667.738, 0.746
669.039, 907.199
670.340, 493.754
671.640, 100.504
672.940, 1337.355
674.241, 185.633
675.540, 1001.441
676.840, 648.621
678.139, 285.912
679.439, 1043.305
680.738, 159.109
682.036, 878.531
683.335, 416.299
684.633, 124.180
685.931, 962.227
687.229, 289.541
688.527, 1128.701
689.824, 357.092
691.121, 195.586
692.418, 1044.252
693.715, 76.973
695.012, 901.889
696.308, 360.924
697.604, 109.936
698.900, 1139.281
700.195, 281.395
701.491, 937.949
702.786, 407.504
704.081, 142.838
705.376, 866.900
706.670, 513.252
707.964, 736.525
709.259, 256.480
710.552, 106.545
711.846, 806.744
713.139, 292.928
714.433, 927.422
715.726, 257.895
717.018, 318.475
718.311, 1029.195
719.603, 189.975
720.895, 650.912
722.187, 541.910
723.479, 73.020
724.770, 1074.248
726.061, 125.590
727.352, 957.043
728.643, 668.607
729.934, 290.285
731.224, 1122.074
732.514, 203.980
733.804, 895.998
735.094, 368.129
736.383, 280.393
737.672, 1252.766
738.961, 85.256
740.250, 747.859
741.539, 930.578
742.827, 143.412
744.115, 1556.357
745.403, 30.580
746.691, 822.619
747.978, 945.932
749.265, 0.641
750.552, 1582.900
751.839, 86.557
753.126, 780.332
754.412, 1004.219
755.698, 1.775
756.984, 1452.344
758.270, 326.576
759.555, 590.928
760.840, 1325.395
762.125, 109.977
763.410, 1384.674
764.695, 539.488
765.979, 774.416
767.263, 1219.461
768.547, 354.621
769.831, 1459.895
771.114, 395.283
772.398, 940.789
773.681, 1166.410
774.964, 12.146
776.246, 1607.994
777.529, 593.957
778.811, 740.037
780.093, 1476.229
781.375, 612.535
782.656, 1908.955
783.937, 1205.488
785.219, 1092.137
786.499, 2418.898
787.780, 795.773
789.060, 2312.764
790.341, 2068.834
791.621, 1446.049
792.901, 3173.379
794.180, 1730.818
795.459, 3468.373
796.739, 3296.041
798.017, 2823.822
799.296, 4941.715
800.575, 3519.736
801.853, 5477.869
803.131, 5496.113
804.409, 4914.471
805.686, 7022.941
806.964, 5661.527
808.241, 7610.225
809.518, 8616.727
810.795, 8315.699
812.071, 12304.781
813.347, 11514.020
814.623, 15273.441
815.899, 18408.979
817.175, 18468.723
818.450, 22168.582
819.726, 19978.543
821.001, 19378.666
822.275, 18468.785
823.550, 13729.117
824.824, 14209.555
826.098, 11060.105
827.372, 9850.785
828.646, 10177.621
829.920, 7198.518
831.193, 8899.617
832.466, 7910.859
833.739, 7802.176
835.011, 9548.480
836.284, 7960.008
837.556, 10121.672
838.828, 11107.035
840.100, 11058.902
841.371, 14530.465
842.642, 13932.541
843.914, 16714.725
845.184, 16640.531
846.455, 14762.918
847.726, 15303.383
848.996, 11408.840
850.266, 10681.588
851.536, 9291.266
852.805, 6444.207
854.075, 7017.355
855.344, 4940.188
856.613, 4523.480
857.881, 4962.570
859.150, 2686.096
860.418, 3909.318
861.686, 2863.287
862.954, 2517.100
864.222, 3361.023
865.489, 1579.352
866.756, 2903.172
868.023, 2297.447
869.290, 1651.818
870.557, 2846.279
871.823, 1550.836
873.089, 2099.510
874.355, 2634.297
875.621, 1279.174
876.886, 2984.141
878.152, 2249.252
879.417, 2424.453
880.682, 3319.742
881.946, 2265.125
883.211, 4600.596
884.475, 3866.193
885.739, 4761.883
887.003, 6037.656
888.266, 4717.131
889.530, 6443.160
890.793, 5309.275
892.056, 4305.496
893.318, 4961.801
894.581, 2748.307
895.843, 3424.895
897.105, 2831.566
898.367, 1793.662
899.629, 3100.631
900.890, 1157.688
902.152, 2044.752
903.413, 2351.969
904.673, 829.275
905.934, 2316.662
907.194, 964.125
908.454, 1091.596
909.714, 1729.230
910.974, 756.941
912.234, 1814.730
913.493, 1242.594
914.752, 630.539
916.011, 1628.559
917.270, 556.654
918.528, 1414.832
919.786, 1443.086
921.044, 231.412
922.302, 1969.809
923.560, 308.275
924.817, 1266.818
926.074, 1285.430
927.331, 464.109
928.588, 1712.922
929.844, 831.805
931.101, 860.754
932.357, 1979.770
933.613, 188.850
934.868, 1697.998
936.124, 1007.215
937.379, 426.494
938.634, 1995.840
939.889, 335.246
941.144, 1254.715
942.398, 1274.256
943.652, 353.855
944.906, 2023.518
946.160, 613.238
947.414, 1473.018
948.667, 1572.867
949.920, 572.771
951.173, 1955.828
952.426, 995.848
953.678, 795.924
954.931, 2046.057
956.183, 76.246
957.435, 1547.445
958.686, 1177.752
959.938, 388.113
961.189, 1739.666
962.440, 270.145
963.691, 861.893
964.941, 1538.805
966.192, 10.574
967.442, 1313.557
968.692, 604.287
969.942, 415.061
971.191, 1485.180
972.441, 36.049
973.690, 1196.959
974.939, 647.908
976.187, 198.896
977.436, 1506.750
978.684, 72.174
979.932, 798.939
981.180, 732.098
982.428, 3.338
983.675, 1346.359
984.922, 277.660
986.169, 429.018
987.416, 1157.324
988.663, 291.246
989.909, 1070.090
991.155, 272.168
992.401, 33.637
993.647, 1125.512
994.893, 282.967
996.138, 658.461
997.383, 704.346
998.628, 64.164
999.873, 1557.320
1001.117, 478.828
1002.362, 590.375
1003.606, 1544.188
1004.850, 194.180
1006.093, 1327.434
1007.337, 587.361
1008.580, 129.029
1009.823, 1440.717
1011.066, 197.492
1012.308, 784.230
1013.551, 1098.748
1014.793, 79.498
1016.035, 1682.225
1017.277, 629.936
1018.518, 711.727
1019.760, 1653.525
1021.001, 215.334
1022.242, 1777.156
1023.483, 1018.619
1024.723, 180.482
1025.964, 1972.373
1027.204, 315.721
1028.444, 1007.617
1029.683, 1379.521
1030.923, 161.615
1032.162, 1493.523
1033.401, 513.914
1034.640, 535.824
1035.879, 1587.744
1037.117, 31.750
1038.355, 1510.133
1039.593, 1132.209
1040.831, 248.533
1042.069, 1930.410
1043.306, 188.729
1044.544, 1200.594
1045.781, 1462.447
1047.017, 45.080
1048.254, 1656.699
1049.490, 1020.406
1050.726, 402.166
1051.962, 1813.912
1053.198, 407.291
1054.434, 1279.010
1055.669, 1000.711
1056.904, 185.797
1058.139, 1727.465
1059.374, 379.156
1060.608, 790.826
1061.843, 1732.479
1063.077, 255.732
1064.311, 1617.398
1065.544, 1259.043
1066.778, 633.273
1068.011, 2174.871
1069.244, 546.445
1070.477, 1147.996
1071.710, 1649.520
1072.942, 351.594
1074.174, 1743.072
1075.406, 964.521
1076.638, 410.430
1077.870, 1681.826
1079.101, 303.193
1080.332, 1194.531
1081.563, 1205.840
1082.794, 387.932
1084.025, 1889.184
1085.255, 710.398
1086.485, 971.996
1087.715, 1873.148
1088.945, 224.271
1090.175, 1895.895
1091.404, 1406.945
1092.633, 518.084
1093.862, 1919.062
1095.091, 620.006
1096.319, 1073.164
1097.548, 1434.031
1098.776, 84.861
1100.004, 1525.961
1101.231, 916.686
1102.459, 498.219
1103.686, 1768.863
1104.913, 179.467
1106.140, 893.088
1107.367, 1103.594
1108.593, 55.941
1109.819, 1075.715
1111.046, 54.010
1112.271, 133.881
1113.497, 866.059
1114.722, 244.209
1115.948, 926.297
1117.173, 795.895
1118.398, 14.553
1119.622, 1727.492
1120.847, 456.859
1122.071, 846.180
1123.295, 1395.447
1124.519, 34.666
1125.742, 1036.379
1126.966, 983.182
1128.189, 207.814
1129.412, 1463.281
1130.635, 191.949
1131.857, 760.586
1133.080, 1209.170
1134.302, 47.695
1135.524, 1428.748
1136.746, 1033.510
1137.967, 251.809
1139.188, 1396.557
1140.410, 284.738
1141.631, 792.861
1142.851, 1548.330
1144.072, 83.664
1145.292, 1204.693
1146.512, 699.646
1147.732, 377.354
1148.952, 1696.236
1150.172, 46.174
1151.391, 761.250
1152.610, 1351.375
1153.829, 18.693
1155.048, 1645.877
1156.266, 473.018
1157.484, 580.078
1158.702, 1619.873
1159.920, 166.814
1161.138, 953.662
1162.356, 1366.994
1163.573, 106.275
1164.790, 1400.258
1166.007, 486.727
1167.224, 463.137
1168.440, 1340.889
1169.656, 2.824
1170.872, 1003.311
1172.088, 984.369
1173.304, 29.621
1174.519, 1576.223
1175.735, 483.260
1176.950, 368.977
1178.165, 1735.152
1179.379, 20.736
1180.594, 986.182
1181.808, 1344.652
1183.022, 140.033
1184.236, 1431.527
1185.449, 389.982
1186.663, 124.943
1187.876, 1179.795
1189.089, 265.326
1190.302, 899.182
1191.515, 703.787
1192.727, 331.836
1193.939, 1796.420
1195.151, 242.004
1196.363, 485.908
1197.575, 1439.746
1198.786, 264.475
1199.997, 1218.170
1201.208, 1361.797
1202.419, 165.357
1203.630, 1888.826
1204.840, 831.768
1206.051, 565.104
1207.261, 1728.379
1208.470, 294.680
1209.680, 1347.809
1210.889, 1370.879
1212.099, 223.883
1213.308, 2056.801
1214.516, 819.703
1215.725, 722.488
1216.933, 2175.213
1218.142, 409.143
1219.350, 1291.732
1220.557, 1484.275
1221.765, 72.979
1222.972, 1959.314
1224.180, 901.580
1225.387, 584.211
1226.593, 2246.318
1227.800, 389.557
1229.006, 1591.529
1230.213, 1703.438
1231.419, 466.301
1232.624, 1888.078
1233.830, 1309.785
1235.035, 441.428
1236.241, 2043.002
1237.446, 544.510
1238.650, 1075.936
1239.855, 1717.301
1241.059, 248.959
1242.264, 1980.178
1243.468, 921.332
1244.671, 500.572
1245.875, 2311.584
1247.078, 392.535
1248.282, 1273.482
1249.485, 2084.293
1250.687, 184.018
1251.890, 1914.625
1253.092, 1255.160
1254.295, 324.502
1255.497, 2124.867
1256.699, 783.945
1257.900, 1018.143
1259.102, 1498.318
1260.303, 334.980
1261.504, 1344.957
1262.705, 1154.873
1263.905, 145.430
1265.106, 2075.199
1266.306, 744.904
1267.506, 634.553
1268.706, 2024.141
1269.905, 136.836
1271.105, 1206.717
1272.304, 1706.094
1273.503, 106.604
1274.702, 1842.594
1275.900, 1019.961
1277.099, 579.027
1278.297, 2048.016
1279.495, 100.031
1280.693, 1099.223
1281.891, 1648.098
1283.088, 23.797
1284.285, 1465.238
1285.482, 713.539
1286.679, 282.172
1287.876, 1960.734
1289.072, 364.717
1290.268, 803.074
1291.464, 1721.398
1292.660, 219.668
1293.856, 1597.875
1295.051, 1063.789
1296.247, 138.109
1297.442, 2003.102
1298.637, 532.793
1299.831, 470.729
1301.026, 1798.605
1302.220, 16.434
1303.414, 1254.248
1304.608, 979.238
1305.802, 266.955
1306.995, 1715.564
1308.188, 567.268
1309.381, 574.854
1310.574, 1693.980
1311.767, 151.479
1312.960, 1148.928
1314.152, 1516.727
1315.344, 45.908
1316.536, 1671.396
1317.728, 957.209
1318.919, 144.441
1320.110, 1842.254
1321.301, 309.219
1322.492, 676.336
1323.683, 1615.377
1324.874, 17.570
1326.064, 1559.438
1327.254, 1238.758
1328.444, 34.273
1329.634, 1782.473
1330.823, 824.947
1332.013, 381.844
1333.202, 2005.529
1334.391, 342.340
1335.580, 709.139
1336.768, 1786.348
1337.956, 13.141
1339.145, 1687.988
1340.333, 1124.732
1341.520, 121.477
1342.708, 2186.580
1343.895, 433.330
1345.083, 640.074
1346.270, 2053.418
1347.456, 179.820
1348.643, 1066.889
1349.829, 1484.273
1351.016, 239.084
1352.202, 1955.963
1353.387, 683.852
1354.573, 460.492
1355.759, 2064.570
1356.944, 331.602
1358.129, 868.400
1359.314, 2025.230
1360.498, 42.160
1361.683, 1968.514
1362.867, 1548.246
1364.051, 285.400
1365.235, 1978.270
1366.419, 872.896
1367.602, 231.232
1368.785, 1908.533
1369.968, 54.910
1371.151, 911.600
1372.334, 2008.609
1373.517, 94.973
1374.699, 1961.676
1375.881, 1266.025
1377.063, 492.664
1378.245, 2598.873
1379.426, 564.430
1380.608, 957.439
1381.789, 2003.723
1382.970, 238.547
1384.150, 1324.957
1385.331, 1770.508
1386.511, 27.078
1387.691, 2230.609
1388.871, 1467.117
1390.051, 300.492
1391.231, 2526.906
1392.410, 828.523
1393.589, 734.922
1394.768, 2198.023
1395.947, 504.348
1397.126, 1572.387
1398.304, 1567.332
1399.483, 222.789
1400.661, 2168.965
1401.838, 973.457
1403.016, 623.098
1404.194, 2119.074
1405.371, 665.035
1406.548, 946.762
1407.725, 2121.445
1408.901, 307.348
1410.078, 1643.297
1411.254, 1887.168
1412.430, 155.816
1413.606, 2321.719
1414.782, 1195.762
1415.958, 400.848
1417.133, 2442.027
1418.308, 378.000
1419.483, 1368.641
1420.658, 2064.523
1421.832, 180.590
1423.007, 1547.102
1424.181, 1551.160
1425.355, 186.238
1426.529, 2542.934
1427.702, 929.648
1428.876, 589.488
1430.049, 2012.422
1431.222, 378.527
1432.395, 894.621
1433.567, 1710.609
1434.740, 314.227
1435.912, 1800.180
1437.084, 1605.656
1438.256, 109.273
1439.428, 2284.305
1440.599, 870.254
1441.770, 344.023
1442.942, 2529.922
1444.112, 355.805
1445.283, 1051.738
1446.454, 2096.844
1447.624, 9.887
1448.794, 1555.777
1449.964, 1721.523
1451.134, 42.262
1452.303, 2014.012
1453.473, 1070.480
1454.642, 476.211
1455.811, 2292.941
1456.980, 619.891
1458.148, 907.000
1459.317, 1984.168
1460.485, 100.180
1461.653, 1437.707
1462.821, 1805.422
1463.989, 153.363
1465.156, 2020.418
1466.323, 1268.617
1467.490, 45.922
1468.657, 2614.594
1469.824, 714.422
1470.991, 394.465
1472.157, 2344.840
1473.323, 107.312
1474.489, 1443.332
1475.655, 1734.375
1476.820, 55.777
1477.986, 1863.305
1479.151, 1205.547
1480.316, 370.211
1481.481, 2173.125
1482.645, 906.590
1483.810, 420.625
1484.974, 2391.523
1486.138, 603.902
1487.302, 1239.754
1488.465, 2069.734
1489.629, 266.836
1490.792, 1627.957
1491.955, 1365.789
1493.118, 154.598
1494.281, 2144.062
1495.443, 904.906
1496.606, 457.051
1497.768, 2260.961
1498.930, 686.816
1500.091, 957.684
1501.253, 2036.008
1502.414, 143.551
1503.575, 1702.359
1504.736, 1730.973
1505.897, 5.328
1507.058, 0.000
##END=



