##NAMES=Adamite
##RRUFFID=R050020
##IDEAL CHEMISTRY=Zn^2+^_2_As^5+^O_4_(OH)
##LOCALITY=Mina Ojuela, Mapimi, Durango, Mexico
##OWNER=RRUFF
##SOURCE=Eugene Schlepp
##DESCRIPTION=Light green prismatic crystal
##STATUS=The identification of this mineral has been confirmed by X-ray diffraction and chemical analysis
##URL=rruff.info/R050020
##MEASURED CHEMISTRY=(Zn_1.97_Cu_0.03_)_Σ=2_((As_0.98_P_0.02_)_Σ=1_O_4_)(OH)
##PIN_ID=L00236
##ORIENTATION=Laser parallel to -c* (0 0 -1). Fiducial mark perpendicular to laser is parallel to a [1 0 0]
46.637, 0.000
48.043, 12.743
49.450, 37.101
50.856, 85.514
52.261, 125.551
53.667, 180.294
55.072, 228.220
56.477, 260.613
57.882, 329.047
59.287, 378.797
60.691, 390.001
62.095, 384.582
63.499, 385.951
64.903, 427.416
66.306, 379.795
67.709, 379.418
69.112, 346.566
70.515, 275.571
71.917, 253.318
73.319, 169.308
74.721, 138.549
76.123, 102.026
77.525, 63.728
78.926, 27.644
80.327, 5.236
81.728, 13.919
83.128, 28.413
84.529, 17.723
85.929, 50.854
87.329, 26.807
88.728, 7.412
90.128, 1.799
91.527, 46.349
92.926, 40.056
94.324, 91.911
95.723, 93.906
97.121, 135.460
98.519, 184.274
99.917, 222.619
101.314, 259.063
102.712, 312.604
104.109, 324.239
105.505, 370.969
106.902, 472.790
108.298, 580.704
109.694, 730.708
111.090, 845.803
112.486, 1002.988
113.881, 1113.262
115.277, 1283.625
116.672, 1497.075
118.066, 1744.613
119.461, 1945.239
120.855, 2268.951
122.249, 2629.750
123.643, 3016.650
125.036, 3179.676
126.430, 3303.788
127.823, 3226.980
129.216, 3282.254
130.608, 3122.612
132.001, 2919.068
133.393, 2824.613
134.785, 2510.238
136.176, 2310.930
137.568, 1993.680
138.959, 1742.479
140.350, 1448.315
141.741, 1302.173
143.131, 1199.059
144.521, 1053.965
145.911, 1050.885
147.301, 1018.791
148.691, 1056.644
150.080, 1043.436
151.469, 1019.188
152.858, 1073.963
154.247, 1045.777
155.635, 1063.639
157.024, 1067.549
158.411, 1054.508
159.799, 1067.518
161.187, 1093.579
162.574, 1100.692
163.961, 1141.856
165.348, 1186.072
166.734, 1312.341
168.121, 1375.663
169.507, 1523.038
170.893, 1533.466
172.278, 1557.948
173.664, 1478.484
175.049, 1286.074
176.434, 1124.717
177.819, 979.414
179.203, 829.164
180.587, 773.729
181.971, 727.824
183.355, 717.735
184.739, 763.699
186.122, 796.716
187.505, 863.787
188.888, 847.911
190.271, 978.087
191.653, 1008.316
193.035, 1015.597
194.417, 1117.930
195.799, 1170.316
197.180, 1297.806
198.562, 1458.459
199.943, 1654.007
201.324, 2010.853
202.704, 2378.914
204.084, 2863.577
205.465, 3347.290
206.844, 3686.050
208.224, 4136.860
209.603, 4122.718
210.983, 4049.619
212.362, 3993.571
213.740, 3637.369
215.119, 3318.171
216.497, 3086.915
217.875, 3041.576
219.253, 2916.131
220.631, 2990.582
222.008, 3247.922
223.385, 3731.119
224.762, 4490.179
226.139, 5457.142
227.515, 6766.013
228.891, 7665.783
230.267, 8607.434
231.643, 8638.771
233.018, 8219.887
234.394, 7467.873
235.769, 6518.869
237.144, 5631.119
238.518, 5196.211
239.893, 5196.167
241.267, 5203.082
242.641, 5768.852
244.014, 6429.360
245.388, 7476.389
246.761, 8556.170
248.134, 9494.651
249.507, 10232.458
250.879, 10641.165
252.252, 10538.009
253.624, 10146.579
254.996, 9337.376
256.367, 8648.165
257.739, 7658.656
259.110, 6856.196
260.481, 6123.053
261.852, 5547.002
263.222, 4961.006
264.592, 4573.049
265.962, 4255.144
267.332, 4034.290
268.702, 3821.473
270.071, 3876.711
271.440, 3903.986
272.809, 3964.315
274.178, 3995.690
275.546, 3976.101
276.915, 3754.558
278.283, 3285.054
279.650, 2915.584
281.018, 2421.164
282.385, 2161.781
283.752, 1832.443
285.119, 1535.155
286.486, 1337.902
287.852, 1209.687
289.218, 1130.517
290.584, 996.382
291.950, 908.290
293.316, 835.243
294.681, 779.237
296.046, 704.261
297.411, 647.335
298.775, 644.440
300.140, 515.579
301.504, 551.756
302.868, 511.961
304.231, 465.205
305.595, 528.478
306.958, 558.792
308.321, 501.138
309.684, 537.512
311.047, 491.923
312.409, 579.366
313.771, 616.856
315.133, 663.380
316.495, 638.942
317.856, 750.548
319.217, 757.191
320.578, 664.869
321.939, 745.576
323.299, 663.310
324.660, 639.073
326.020, 519.863
327.380, 447.682
328.739, 313.528
330.099, 208.405
331.458, 220.317
332.817, 132.262
334.176, 148.242
335.534, 104.252
336.892, 86.291
338.251, 115.363
339.608, 88.463
340.966, 85.592
342.323, 31.750
343.681, 10.938
345.037, 5.843
346.394, 1.602
347.751, 14.336
349.107, 22.048
350.463, 47.739
351.819, 64.409
353.174, 9.062
354.530, 32.693
355.885, 1.258
357.240, 49.108
358.594, 31.541
359.949, 44.996
361.303, 12.471
362.657, 38.967
364.011, 102.478
365.365, 151.004
366.718, 223.549
368.071, 318.113
369.424, 482.697
370.777, 691.302
372.129, 859.925
373.481, 1055.568
374.833, 1107.230
376.185, 1124.911
377.537, 1030.608
378.888, 850.321
380.239, 723.050
381.590, 492.796
382.941, 407.558
384.291, 281.338
385.642, 205.135
386.992, 132.951
388.341, 69.786
389.691, 53.640
391.040, 15.514
392.389, 7.592
393.738, 0.678
395.087, 3.743
396.435, 13.214
397.784, 9.017
399.132, 18.800
400.479, 29.225
401.827, 12.273
403.174, 65.344
404.521, 46.776
405.868, 52.895
407.215, 62.039
408.561, 95.682
409.908, 113.972
411.254, 143.225
412.599, 195.308
413.945, 268.614
415.290, 371.971
416.636, 401.552
417.980, 474.075
419.325, 563.738
420.670, 545.910
422.014, 609.478
423.358, 520.771
424.702, 494.162
426.045, 380.682
427.389, 316.792
428.732, 316.581
430.075, 279.152
431.417, 222.247
432.760, 196.011
434.102, 168.412
435.444, 141.384
436.786, 140.032
438.127, 185.901
439.469, 120.222
440.810, 167.925
442.151, 190.074
443.492, 169.106
444.832, 241.742
446.172, 251.001
447.512, 270.113
448.852, 285.927
450.192, 312.711
451.531, 396.091
452.870, 351.598
454.209, 379.378
455.548, 542.551
456.887, 505.388
458.225, 593.039
459.563, 606.896
460.901, 664.818
462.238, 765.598
463.576, 777.582
464.913, 905.264
466.250, 995.408
467.587, 1204.456
468.923, 1296.772
470.259, 1497.700
471.596, 1564.811
472.931, 1714.131
474.267, 1846.662
475.603, 1954.601
476.938, 1999.340
478.273, 2140.935
479.608, 2004.579
480.942, 2117.970
482.276, 1963.037
483.611, 2091.032
484.944, 2091.033
486.278, 2097.038
487.612, 2452.303
488.945, 2600.320
490.278, 3210.921
491.611, 3695.979
492.943, 4071.146
494.276, 4631.104
495.608, 4621.185
496.940, 4387.569
498.271, 3836.292
499.603, 3252.944
500.934, 2653.469
502.265, 2074.578
503.596, 1722.724
504.927, 1356.909
506.257, 1091.922
507.587, 897.965
508.917, 725.900
510.247, 665.739
511.577, 569.102
512.906, 499.067
514.235, 484.064
515.564, 390.730
516.892, 392.798
518.221, 296.875
519.549, 448.954
520.877, 350.034
522.205, 327.116
523.533, 428.198
524.860, 360.281
526.187, 412.365
527.514, 424.450
528.841, 505.536
530.167, 515.622
531.493, 573.709
532.820, 624.796
534.145, 829.884
535.471, 882.972
536.796, 986.060
538.122, 962.148
539.447, 911.237
540.771, 863.325
542.096, 871.414
543.420, 795.502
544.744, 634.591
546.068, 617.678
547.392, 498.766
548.715, 428.853
550.039, 332.940
551.362, 267.026
552.684, 216.264
554.007, 217.113
555.329, 129.161
556.652, 120.245
557.973, 75.328
559.295, 161.198
560.617, 59.278
561.938, 74.358
563.259, 10.436
564.580, 33.509
565.901, 44.581
567.221, 10.349
568.541, 34.295
569.861, 15.732
571.181, 15.246
572.501, 30.756
573.820, 25.757
575.139, 38.245
576.458, 20.722
577.777, 21.316
579.095, 12.376
580.414, 22.544
581.732, 47.539
583.049, 31.659
584.367, 36.192
585.685, 25.959
587.002, 37.137
588.319, 52.654
589.636, 41.559
590.952, 22.195
592.268, 46.056
593.585, 21.344
594.900, 40.344
596.216, 18.971
597.532, 8.691
598.847, 31.343
600.162, 40.009
601.477, 17.605
602.792, 30.787
604.106, 41.208
605.420, 16.337
606.734, 0.874
608.048, 32.602
609.361, 9.891
610.675, 27.624
611.988, 32.167
613.301, 21.740
614.614, 68.664
615.926, 63.936
617.238, 76.419
618.550, 0.229
619.862, 14.890
621.174, 24.428
622.485, 13.258
623.797, 18.037
625.108, 36.674
626.418, 12.583
627.729, 35.834
629.039, 20.917
630.349, 12.308
631.659, 62.473
632.969, 1.296
634.279, 15.133
635.588, 46.988
636.897, 13.877
638.206, 9.785
639.515, 20.291
640.823, 48.364
642.131, 39.622
643.439, 55.996
644.747, 11.572
646.055, 48.634
647.362, 2.694
648.669, 23.254
649.976, 8.222
651.283, 22.203
652.589, 7.204
653.896, 5.783
655.202, 19.234
656.508, 0.269
657.814, 1.688
659.119, 9.362
660.424, 10.423
661.729, 11.496
663.034, 41.420
664.339, 46.335
665.643, 43.250
666.947, 70.166
668.251, 16.083
669.555, 114.002
670.859, 32.927
672.162, 79.853
673.465, 104.781
674.768, 37.709
676.071, 107.638
677.373, 79.567
678.676, 37.497
679.978, 130.428
681.280, 80.360
682.581, 100.293
683.883, 68.228
685.184, 84.164
686.485, 146.102
687.786, 70.041
689.087, 129.982
690.387, 113.927
691.687, 109.873
692.987, 169.825
694.287, 113.779
695.586, 190.735
696.886, 75.695
698.185, 115.657
699.484, 148.622
700.783, 25.594
702.081, 114.570
703.379, 101.550
704.677, 116.534
705.975, 128.523
707.273, 93.521
708.570, 137.524
709.868, 157.535
711.165, 87.550
712.462, 83.569
713.758, 57.594
715.055, 107.623
716.351, 159.660
717.647, 50.703
718.943, 83.750
720.238, 58.469
721.533, 104.530
722.829, 115.596
724.124, 114.196
725.418, 167.383
726.713, 119.256
728.007, 141.539
729.301, 151.637
730.595, 165.732
731.889, 250.643
733.182, 152.643
734.476, 150.533
735.769, 227.943
737.061, 258.985
738.354, 258.328
739.647, 179.600
740.939, 286.768
742.231, 140.373
743.523, 147.325
744.814, 247.521
746.106, 187.220
747.397, 180.275
748.688, 176.719
749.978, 225.618
751.269, 190.867
752.559, 140.921
753.849, 214.549
755.139, 252.821
756.429, 161.672
757.719, 249.666
759.008, 198.082
760.297, 251.901
761.586, 237.893
762.875, 153.208
764.163, 306.578
765.451, 238.378
766.739, 173.076
768.027, 342.528
769.315, 256.611
770.602, 271.056
771.890, 287.711
773.177, 314.187
774.463, 374.626
775.750, 363.231
777.036, 417.659
778.323, 443.414
779.609, 418.732
780.894, 565.172
782.180, 538.369
783.465, 663.979
784.750, 611.432
786.035, 731.701
787.320, 827.784
788.605, 802.484
789.889, 1015.408
791.173, 1077.502
792.457, 1163.572
793.741, 1277.920
795.024, 1411.374
796.307, 1727.410
797.591, 1774.228
798.873, 2085.065
800.156, 2383.668
801.439, 2573.545
802.721, 2808.861
804.003, 2876.746
805.285, 2995.546
806.566, 3106.579
807.848, 3201.516
809.129, 3440.172
810.410, 3770.515
811.691, 4274.958
812.971, 4903.550
814.252, 5796.592
815.532, 7091.622
816.812, 8116.639
818.092, 8942.808
819.371, 9371.732
820.651, 9625.221
821.930, 9481.467
823.209, 8927.733
824.488, 8344.031
825.766, 8260.352
827.045, 8006.693
828.323, 8173.069
829.601, 8679.468
830.878, 9125.899
832.156, 10342.363
833.433, 11738.853
834.710, 13425.378
835.987, 16011.938
837.264, 18998.525
838.540, 23945.146
839.817, 29271.797
841.093, 36458.480
842.369, 45165.199
843.644, 51782.109
844.920, 57568.883
846.195, 57166.191
847.470, 52913.008
848.745, 46429.895
850.020, 38006.785
851.294, 31623.713
852.568, 26080.734
853.842, 21158.258
855.116, 18315.514
856.390, 15132.550
857.663, 13209.829
858.936, 11486.979
860.209, 9765.507
861.482, 8912.657
862.755, 7960.439
864.027, 7027.648
865.299, 6774.893
866.571, 6132.267
867.843, 5779.562
869.115, 5637.190
870.386, 5257.637
871.657, 5652.015
872.928, 5461.872
874.199, 5817.315
875.470, 6054.808
876.740, 6502.326
878.010, 7519.875
879.280, 8187.465
880.550, 9775.079
881.820, 11412.740
883.089, 14070.422
884.358, 17438.133
885.627, 21205.887
886.896, 25173.666
888.164, 29111.480
889.433, 30639.332
890.701, 30267.209
891.969, 27035.137
893.236, 23123.094
894.504, 19641.086
895.771, 15449.115
897.038, 12807.187
898.305, 10655.294
899.572, 8553.441
900.838, 7271.617
902.105, 6109.840
903.371, 5298.109
904.637, 4674.401
905.902, 4013.734
907.168, 3771.096
908.433, 3247.484
909.698, 2991.915
910.963, 2742.373
912.228, 2455.970
913.492, 2369.510
914.757, 2099.079
916.021, 1890.677
917.285, 1859.314
918.548, 1639.979
919.812, 1666.682
921.075, 1511.423
922.338, 1426.201
923.601, 1385.003
924.864, 1317.852
926.126, 1318.347
927.388, 1194.249
928.650, 1108.186
929.912, 1143.147
931.174, 1035.143
932.435, 896.330
933.697, 943.391
934.958, 825.478
936.218, 817.590
937.479, 811.736
938.739, 728.909
940.000, 747.124
941.260, 662.369
942.520, 697.646
943.779, 706.962
945.039, 743.310
946.298, 842.687
947.557, 901.088
948.816, 861.462
950.074, 969.911
951.333, 882.383
952.591, 927.879
953.849, 725.398
955.107, 620.943
956.365, 648.520
957.622, 478.124
958.879, 599.760
960.136, 439.427
961.393, 438.118
962.650, 461.378
963.906, 333.126
965.162, 373.447
966.418, 352.339
967.674, 187.165
968.930, 361.367
970.185, 273.241
971.441, 250.003
972.696, 264.896
973.950, 194.833
975.205, 209.398
976.459, 175.375
977.714, 159.373
978.968, 245.042
980.222, 188.080
981.475, 150.812
982.729, 202.100
983.982, 43.195
985.235, 155.535
986.488, 115.209
987.740, 104.359
988.993, 80.467
990.245, 80.652
991.497, 135.064
992.749, 45.620
994.000, 16.138
995.252, 140.042
996.503, 32.683
997.754, 44.604
999.005, 57.662
1000.256, 7.983
1001.506, 45.320
1002.756, 7.775
1004.006, 33.403
1005.256, 18.977
1006.506, 8.418
1007.755, 17.171
1009.005, 4.794
1010.254, 59.358
1011.502, 86.079
1012.751, 33.074
1014.000, 60.389
1015.248, 54.010
1016.496, 9.264
1017.744, 98.237
1018.991, 19.781
1020.239, 8.258
1021.486, 55.612
1022.733, 24.897
1023.980, 29.660
1025.227, 45.655
1026.473, 16.235
1027.719, 106.906
1028.965, 73.652
1030.211, 78.265
1031.457, 70.962
1032.702, 13.594
1033.948, 130.237
1035.193, 13.810
1036.438, 94.472
1037.682, 47.314
1038.927, 51.997
1040.171, 91.685
1041.415, 73.333
1042.659, 34.638
1043.903, 130.352
1045.146, 16.891
1046.390, 81.620
1047.633, 42.783
1048.876, 83.026
1050.118, 124.782
1051.361, 40.753
1052.603, 51.359
1053.845, 75.135
1055.087, 19.112
1056.329, 77.899
1057.571, 113.691
1058.812, 26.923
1060.053, 102.726
1061.294, 4.365
1062.535, 123.443
1063.775, 183.256
1065.016, 7.073
1066.256, 113.893
1067.496, 58.716
1068.736, 66.751
1069.975, 140.581
1071.214, 38.656
1072.454, 104.489
1073.693, 106.325
1074.931, 18.837
1076.170, 114.995
1077.408, 59.830
1078.647, 6.994
1079.885, 127.831
1081.122, 4.249
1082.360, 28.950
1083.597, 32.787
1084.835, 45.778
1086.072, 48.617
1087.308, 23.451
1088.545, 53.329
1089.781, 73.164
1091.018, 102.998
1092.254, 72.831
1093.490, 35.663
1094.725, 13.503
1095.961, 177.331
1097.196, 18.843
1098.431, 137.337
1099.666, 19.149
1100.900, 86.959
1102.135, 79.766
1103.369, 68.570
1104.603, 65.371
1105.837, 157.169
1107.071, 32.963
1108.304, 114.701
1109.538, 95.496
1110.771, 5.249
1112.004, 71.532
1113.236, 21.693
1114.469, 6.063
1115.701, 28.813
1116.933, 16.443
1118.165, 80.283
1119.397, 6.996
1120.629, 8.290
1121.860, 123.542
1123.091, 0.773
1124.322, 33.165
1125.553, 90.830
1126.783, 33.511
1128.014, 124.296
1129.244, 16.083
1130.474, 24.484
1131.704, 55.104
1132.933, 39.332
1134.163, 27.804
1135.392, 82.693
1136.621, 48.816
1137.850, 82.630
1139.079, 3.931
1140.307, 37.398
1141.535, 117.184
1142.763, 45.612
1143.991, 89.166
1145.219, 128.995
1146.446, 41.693
1147.674, 115.277
1148.901, 59.542
1150.128, 12.798
1151.354, 111.292
1152.581, 28.024
1153.807, 97.265
1155.033, 44.615
1156.259, 41.426
1157.485, 98.813
1158.710, 49.538
1159.936, 0.350
1161.161, 63.217
1162.386, 11.704
1163.611, 27.345
1164.835, 58.274
1166.060, 0.298
1167.284, 94.205
1168.508, 26.883
1169.732, 22.143
1170.955, 97.672
1172.179, 61.237
1173.402, 86.631
1174.625, 44.518
1175.848, 40.361
1177.070, 110.190
1178.293, 5.991
1179.515, 82.796
1180.737, 87.765
1181.959, 16.528
1183.181, 129.270
1184.402, 45.039
1185.624, 66.754
1186.845, 156.504
1188.066, 18.269
1189.286, 28.938
1190.507, 83.682
1191.727, 23.320
1192.947, 85.938
1194.167, 6.707
1195.387, 36.863
1196.607, 106.415
1197.826, 16.429
1199.045, 3.944
1200.264, 106.428
1201.483, 17.899
1202.702, 83.346
1203.920, 177.021
1205.138, 44.440
1206.356, 131.842
1207.574, 22.230
1208.792, 86.499
1210.009, 119.857
1211.227, 89.225
1212.444, 139.555
1213.661, 100.872
1214.877, 63.173
1216.094, 155.459
1217.310, 61.732
1218.526, 135.987
1219.742, 186.230
1220.958, 184.471
1222.173, 194.061
1223.389, 126.261
1224.604, 58.625
1225.819, 218.792
1227.034, 81.945
1228.248, 57.916
1229.463, 180.035
1230.677, 75.139
1231.891, 158.228
1233.105, 157.302
1234.318, 90.362
1235.532, 228.409
1236.745, 122.442
1237.958, 170.461
1239.171, 213.464
1240.384, 98.453
1241.596, 168.428
1242.809, 168.388
1244.021, 62.393
1245.233, 176.316
1246.444, 110.225
1247.656, 154.120
1248.867, 204.999
1250.079, 109.864
1251.290, 225.713
1252.500, 135.546
1253.711, 38.156
1254.921, 222.954
1256.132, 60.738
1257.342, 126.969
1258.552, 228.722
1259.761, 125.912
1260.971, 135.536
1262.180, 270.237
1263.389, 114.569
1264.598, 159.238
1265.807, 119.017
1267.015, 85.667
1268.223, 217.281
1269.432, 72.273
1270.640, 118.877
1271.847, 140.441
1273.055, 79.339
1274.262, 247.869
1275.470, 110.708
1276.677, 99.995
1277.883, 219.481
1279.090, 108.728
1280.296, 125.645
1281.503, 177.090
1282.709, 119.583
1283.915, 133.104
1285.120, 75.301
1286.326, 12.347
1287.531, 176.710
1288.736, 39.136
1289.941, 96.470
1291.146, 205.793
1292.350, 23.349
1293.555, 128.586
1294.759, 167.870
1295.963, 4.589
1297.167, 170.285
1298.370, 41.487
1299.574, 57.721
1300.777, 173.943
1301.980, 55.198
1303.183, 112.657
1304.386, 139.851
1305.588, 5.636
1306.790, 149.806
1307.993, 163.819
1309.195, 109.729
1310.396, 123.865
1311.598, 44.522
1312.799, 11.639
1314.000, 189.408
1315.201, 32.559
1316.402, 46.623
1317.603, 180.250
1318.803, 61.293
1320.003, 225.246
1321.203, 91.123
1322.403, 71.135
1323.603, 173.063
1324.802, 36.056
1326.002, 108.038
1327.201, 126.091
1328.400, 56.056
1329.599, 138.840
1330.797, 53.783
1331.995, 48.720
1333.194, 199.698
1334.392, 45.017
1335.589, 98.915
1336.787, 154.986
1337.985, 14.140
1339.182, 123.299
1340.379, 79.650
1341.576, 10.487
1342.772, 145.108
1343.969, 102.092
1345.165, 100.905
1346.361, 192.514
1347.557, 21.313
1348.753, 171.104
1349.949, 136.456
1351.144, 103.235
1352.339, 222.906
1353.534, 157.417
1354.729, 48.181
1355.924, 129.939
1357.118, 89.695
1358.312, 153.447
1359.506, 186.987
1360.700, 85.737
1361.894, 160.241
1363.088, 131.990
1364.281, 48.741
1365.474, 155.400
1366.667, 85.055
1367.860, 22.703
1369.052, 112.011
1370.245, 84.633
1371.437, 98.161
1372.629, 218.407
1373.821, 82.029
1375.013, 140.498
1376.204, 108.128
1377.395, 132.949
1378.586, 162.790
1379.777, 87.607
1380.968, 140.391
1382.159, 175.785
1383.349, 119.539
1384.539, 154.269
1385.729, 159.977
1386.919, 41.636
1388.109, 182.762
1389.298, 143.374
1390.487, 83.980
1391.676, 233.570
1392.865, 104.150
1394.054, 152.561
1395.242, 215.809
1396.431, 22.855
1397.619, 110.688
1398.807, 130.224
1399.995, 73.806
1401.182, 170.402
1402.370, 80.869
1403.557, 92.010
1404.744, 196.088
1405.931, 81.837
1407.118, 51.458
1408.304, 185.350
1409.490, 87.300
1410.676, 131.699
1411.862, 241.305
1413.048, 24.463
1414.234, 192.068
1415.419, 99.382
1416.604, 49.882
1417.789, 228.806
1418.974, 79.416
1420.159, 111.061
1421.343, 202.709
1422.528, 94.074
1423.712, 112.666
1424.896, 157.237
1426.079, 8.761
1427.263, 202.258
1428.446, 115.132
1429.629, 63.769
1430.812, 203.640
1431.995, 93.300
1433.178, 55.568
1434.360, 199.232
1435.543, 14.098
1436.725, 122.508
1437.907, 222.149
1439.088, 6.213
1440.270, 249.423
1441.451, 84.030
1442.632, 74.657
1443.813, 234.940
1444.994, 3.438
1446.175, 107.189
1447.355, 210.815
1448.535, 74.434
1449.715, 167.044
1450.895, 200.652
1452.075, 52.254
1453.255, 221.849
1454.434, 115.472
1455.613, 100.095
1456.792, 223.724
1457.971, 85.122
1459.149, 109.675
1460.328, 185.225
1461.506, 48.809
1462.684, 147.415
1463.862, 198.065
1465.040, 86.727
1466.217, 254.353
1467.395, 172.069
1468.572, 103.819
1469.749, 223.570
1470.925, 122.332
1472.102, 171.786
1473.278, 276.594
1474.455, 13.458
1475.631, 208.346
1476.807, 186.989
1477.982, 49.806
1479.158, 198.007
1480.333, 129.787
1481.508, 32.562
1482.683, 171.331
1483.858, 104.104
1485.033, 41.885
1486.207, 253.672
1487.381, 61.465
1488.555, 143.446
1489.729, 147.455
1490.903, 72.491
1492.076, 128.555
1493.250, 184.644
1494.423, 25.244
1495.596, 175.910
1496.769, 195.084
