##NAMES=Adamite
##RRUFFID=R040130
##IDEAL CHEMISTRY=Zn^2+^_2_As^5+^O_4_(OH)
##LOCALITY=Mina Ojuela, Mapimi, Durango, Mexico
##OWNER=RRUFF
##SOURCE=Bob Downs
##DESCRIPTION=Pale yellow spherical aggregate of bladed crystals
##STATUS=The identification of this mineral has been confirmed by X-ray diffraction and chemical analysis
##URL=rruff.info/R040130
##MEASURED CHEMISTRY=Zn_1.97_(As_1.01_O_4_)(OH)
##PIN_ID=S00040
##ORIENTATION=Laser parallel to c* (0 0 1). Fiducial mark perpendicular to laser is parallel to a [1 0 0]
117.034, 0.000
118.424, 6.844
119.813, 485.473
121.203, 322.486
122.592, 441.703
123.981, 881.318
125.369, 815.434
126.758, 723.154
128.146, 791.074
129.534, 1271.191
130.922, 1110.842
132.309, 1189.533
133.696, 1017.881
135.083, 1126.600
136.470, 1077.939
137.857, 1313.900
139.243, 1164.152
140.630, 1214.656
142.016, 788.459
143.401, 647.471
144.787, 648.578
146.172, 548.752
147.557, 339.984
148.942, 187.123
150.327, 304.908
151.711, 88.119
153.096, 344.596
154.480, 289.199
155.863, 415.816
157.247, 271.367
158.630, 252.783
160.013, 319.826
161.396, 361.242
162.779, 448.510
164.161, 465.256
165.544, 357.551
166.926, 463.074
168.308, 471.604
169.689, 367.010
171.070, 641.229
172.452, 517.656
173.833, 511.939
175.213, 559.209
176.594, 493.938
177.974, 414.166
179.354, 434.826
180.734, 252.555
182.114, 143.332
183.493, 466.217
184.872, 225.250
186.251, 450.592
187.630, 167.211
189.008, 357.094
190.387, 417.277
191.765, 230.793
193.143, 597.666
194.520, 263.924
195.898, 575.600
197.275, 634.711
198.652, 888.281
200.029, 922.785
201.405, 1065.910
202.782, 896.543
204.158, 1191.652
205.534, 1502.295
206.909, 1361.420
208.285, 1691.785
209.660, 1943.273
211.035, 1538.191
212.410, 1716.852
213.784, 1345.521
215.159, 1380.705
216.533, 1370.330
217.907, 1168.609
219.281, 1174.238
220.654, 1022.922
222.027, 1238.412
223.400, 1567.199
224.773, 1715.535
226.146, 1963.367
227.518, 2137.938
228.891, 2550.371
230.263, 2802.354
231.634, 2963.809
233.006, 2784.303
234.377, 2476.176
235.748, 2351.527
237.119, 1799.145
238.490, 2223.027
239.860, 1842.436
241.231, 2014.764
242.601, 2151.889
243.970, 2447.971
245.340, 2774.006
246.709, 2688.988
248.079, 3336.912
249.448, 3197.770
250.816, 3447.559
252.185, 3425.277
253.553, 3295.754
254.921, 3010.180
256.289, 2693.605
257.657, 2437.938
259.024, 2166.598
260.391, 1939.588
261.758, 1729.369
263.125, 1522.326
264.492, 1453.191
265.858, 1255.969
267.224, 1255.656
268.590, 1159.959
269.956, 1171.781
271.321, 994.225
272.687, 780.586
274.052, 554.871
275.416, 976.082
276.781, 516.219
278.146, 473.285
279.510, 593.281
280.874, 317.213
282.237, 397.699
283.601, 72.900
284.964, 11.412
286.327, 467.184
287.690, 104.172
289.053, 67.301
290.416, 264.523
291.778, 28.830
293.140, 164.170
294.502, 31.537
295.863, 108.902
297.225, 7.258
298.586, 27.426
299.947, 106.838
301.308, 70.943
302.668, 114.807
304.029, 170.227
305.389, 117.203
306.749, 91.887
308.108, 22.910
309.468, 14.383
310.827, 49.779
312.186, 42.297
313.545, 17.365
314.903, 90.307
316.262, 51.447
317.620, 139.496
318.978, 114.453
320.336, 215.312
321.693, 217.082
323.051, 312.760
324.408, 113.650
325.765, 5.166
327.121, 112.904
328.478, 18.756
329.834, 35.252
331.190, 152.121
332.546, 64.543
333.902, 132.535
335.257, 47.938
336.612, 203.570
337.967, 96.404
339.322, 15.420
340.677, 15.594
342.031, 24.932
343.385, 120.430
344.739, 68.104
346.093, 308.939
347.446, 62.002
348.799, 102.221
350.153, 74.400
351.505, 117.086
352.858, 34.270
354.210, 128.494
355.563, 80.410
356.915, 43.535
358.267, 128.373
359.618, 96.881
360.969, 317.730
362.321, 43.266
363.672, 313.703
365.022, 332.986
366.373, 403.172
367.723, 687.246
369.073, 924.193
370.423, 1143.004
371.773, 946.641
373.122, 1296.104
374.471, 1634.387
375.821, 1284.492
377.169, 1698.438
378.518, 828.184
379.866, 946.793
381.215, 673.301
382.563, 588.734
383.910, 405.113
385.258, 319.305
386.605, 506.299
387.952, 55.217
389.299, 560.037
390.646, 99.623
391.992, 131.029
393.339, 312.305
394.685, 387.385
396.031, 515.234
397.376, 334.953
398.722, 630.531
400.067, 517.936
401.412, 345.289
402.757, 1052.561
404.101, 558.793
405.446, 719.010
406.790, 975.217
408.134, 1091.410
409.478, 1274.600
410.821, 1285.787
412.165, 1167.965
413.508, 1650.172
414.851, 1709.371
416.193, 1541.545
417.536, 1947.701
418.878, 2009.846
420.220, 2170.986
421.562, 1412.125
422.904, 1766.256
424.245, 1654.385
425.586, 1316.512
426.927, 1624.637
428.268, 742.764
429.609, 893.891
430.949, 583.018
432.289, 1300.145
433.629, 587.277
434.969, 1071.410
436.309, 507.551
437.648, 885.695
438.987, 615.844
440.326, 640.000
441.665, 521.164
443.003, 855.139
444.342, 852.291
445.680, 809.238
447.018, 1158.109
448.355, 602.217
449.693, 850.955
451.030, 786.691
452.367, 1300.203
453.704, 527.662
455.041, 998.703
456.377, 698.215
457.713, 819.996
459.049, 811.404
460.385, 1050.604
461.721, 1319.271
463.056, 1273.557
464.391, 922.242
465.726, 1269.305
467.061, 1027.174
468.395, 928.453
469.730, 1109.305
471.064, 708.021
472.398, 1215.490
473.731, 802.400
475.065, 922.854
476.398, 925.957
477.731, 1053.424
479.064, 1095.354
480.397, 1142.096
481.729, 1164.924
483.062, 1203.701
484.394, 1169.438
485.725, 1110.746
487.057, 1390.512
488.389, 1472.871
489.720, 1375.145
491.051, 1680.428
492.382, 1916.104
493.712, 2386.396
495.043, 1982.820
496.373, 1721.342
497.703, 1921.127
499.032, 1817.668
500.362, 1364.328
501.691, 1481.020
503.020, 1070.170
504.349, 1045.820
505.678, 1100.365
507.007, 932.857
508.335, 837.912
509.663, 861.516
510.991, 1143.709
512.319, 984.533
513.646, 1100.516
514.973, 808.949
516.300, 1285.338
517.627, 1267.871
518.954, 380.047
520.280, 1152.699
521.607, 804.086
522.933, 1034.898
524.259, 1015.436
525.584, 1103.947
526.910, 1564.506
528.235, 1543.105
529.560, 1830.754
530.885, 1665.887
532.209, 1755.631
533.534, 2196.428
534.858, 2497.273
536.182, 2391.176
537.506, 2715.133
538.829, 2542.145
540.152, 2386.213
541.476, 2159.340
542.799, 1845.525
544.121, 2073.773
545.444, 1651.082
546.766, 1195.850
548.088, 1481.096
549.410, 1543.596
550.732, 981.570
552.053, 1120.725
553.375, 1056.434
554.696, 801.307
556.017, 989.160
557.337, 993.086
558.658, 741.090
559.978, 502.758
561.298, 837.584
562.618, 601.822
563.938, 574.137
565.257, 1074.533
566.576, 419.012
567.895, 809.021
569.214, 752.105
570.533, 679.830
571.851, 386.975
573.170, 771.867
574.488, 530.848
575.805, 476.910
577.123, 328.182
578.440, 739.420
579.758, 519.744
581.075, 400.160
582.391, 1042.664
583.708, 514.258
585.024, 241.945
586.341, 897.719
587.657, 694.590
588.972, 735.553
590.288, 515.609
591.603, 192.758
592.918, 419.004
594.233, 589.348
595.548, 741.783
596.863, 618.318
598.177, 388.953
599.491, 702.684
600.805, 309.516
602.119, 299.447
603.432, 488.154
604.746, 671.309
606.059, 315.592
607.372, 384.979
608.685, 635.484
609.997, 300.893
611.309, 420.631
612.621, 143.109
613.933, 382.096
615.245, 286.213
616.557, 506.453
617.868, 508.832
619.179, 473.359
620.490, 323.014
621.801, 611.828
623.111, 276.818
624.421, 375.928
625.731, 3.832
627.041, 709.576
628.351, 64.123
629.660, 298.824
630.970, 686.688
632.279, 225.713
633.588, 331.891
634.896, 108.791
636.205, 20.793
637.513, 20.814
638.821, 282.861
640.129, 162.666
641.437, 638.598
642.744, 235.654
644.051, 227.896
645.358, 554.297
646.665, 300.887
647.972, 507.641
649.278, 61.453
650.584, 120.428
651.890, 513.713
653.196, 337.994
654.502, 693.447
655.807, 736.650
657.113, 218.979
658.418, 644.010
659.722, 220.211
661.027, 49.418
662.331, 203.135
663.636, 400.875
664.940, 153.861
666.244, 432.035
667.547, 65.598
668.851, 126.902
670.154, 71.604
671.457, 1.533
672.760, 441.529
674.062, 142.783
675.365, 266.199
676.667, 171.766
677.969, 188.527
679.271, 181.430
680.572, 74.504
681.874, 514.688
683.175, 578.021
684.476, 153.500
685.777, 161.125
687.077, 118.105
688.378, 251.781
689.678, 208.809
690.978, 338.988
692.278, 357.816
693.577, 469.793
694.877, 167.414
696.176, 369.188
697.475, 88.113
698.774, 445.184
700.072, 369.410
701.371, 138.785
702.669, 120.688
703.967, 75.961
705.265, 580.773
706.562, 369.742
707.860, 90.125
709.157, 613.145
710.454, 173.438
711.751, 414.094
713.047, 170.777
714.344, 254.617
715.640, 99.387
716.936, 68.258
718.232, 599.008
719.527, 114.430
720.823, 196.008
722.118, 373.742
723.413, 62.363
724.708, 62.328
726.002, 584.852
727.297, 293.812
728.591, 266.605
729.885, 429.184
731.179, 67.918
732.472, 5.191
733.766, 209.863
735.059, 50.070
736.352, 411.441
737.645, 154.969
738.937, 296.660
740.230, 231.512
741.522, 332.523
742.814, 292.695
744.106, 267.746
745.397, 110.523
746.689, 179.180
747.980, 151.000
749.271, 78.977
750.562, 400.117
751.853, 11.426
753.143, 331.887
754.433, 251.516
755.723, 49.305
757.013, 424.258
758.303, 78.629
759.592, 248.633
760.881, 73.055
762.170, 99.641
763.459, 313.391
764.748, 179.703
766.036, 795.328
767.325, 145.480
768.613, 332.844
769.901, 392.328
771.188, 101.973
772.476, 401.781
773.763, 83.750
775.050, 280.883
776.337, 363.172
777.624, 444.629
778.910, 272.242
780.196, 540.020
781.482, 154.594
782.768, 365.691
784.054, 375.949
785.339, 494.367
786.625, 138.945
787.910, 546.680
789.195, 355.578
790.479, 658.031
791.764, 595.477
793.048, 546.102
794.332, 690.652
795.616, 756.379
796.900, 930.270
798.183, 716.316
799.467, 1139.520
800.750, 1103.883
802.033, 970.402
803.316, 1742.078
804.598, 870.035
805.880, 1373.207
807.163, 1484.367
808.445, 1334.684
809.726, 1523.156
811.008, 1821.777
812.289, 1852.559
813.570, 2521.488
814.851, 2922.574
816.132, 3126.371
817.413, 3322.758
818.693, 3548.035
819.973, 3973.027
821.253, 3744.906
822.533, 3716.074
823.813, 3538.270
825.092, 3143.633
826.371, 3218.039
827.650, 3241.754
828.929, 3775.672
830.208, 3996.742
831.486, 4012.000
832.764, 4974.523
834.042, 5589.156
835.320, 6698.930
836.598, 8189.184
837.875, 9560.422
839.152, 11285.852
840.429, 14260.492
841.706, 16555.902
842.983, 19186.930
844.259, 21484.195
845.536, 21286.602
846.812, 19918.180
848.088, 17417.906
849.363, 14766.770
850.639, 12302.789
851.914, 9807.969
853.189, 8125.305
854.464, 7607.797
855.739, 6734.496
857.013, 5326.941
858.288, 4852.957
859.562, 4309.125
860.836, 4464.441
862.110, 3496.527
863.383, 3687.129
864.656, 3215.797
865.930, 3223.707
867.203, 3053.754
868.475, 3111.957
869.748, 2765.707
871.020, 2963.520
872.292, 3224.152
873.564, 3300.926
874.836, 3653.887
876.108, 3747.992
877.379, 4810.781
878.650, 5428.703
879.922, 6097.277
881.192, 7349.668
882.463, 9486.531
883.733, 11204.547
885.004, 13682.688
886.274, 16084.836
887.544, 19175.234
888.813, 19605.766
890.083, 19845.426
891.352, 18473.250
892.621, 15916.211
893.890, 13259.312
895.159, 11085.523
896.427, 9223.559
897.695, 7805.352
898.964, 6315.953
900.232, 5192.672
901.499, 4474.516
902.767, 3938.477
904.034, 3263.559
905.301, 2948.754
906.568, 2843.105
907.835, 2557.562
909.102, 2098.133
910.368, 1787.816
911.634, 2121.953
912.900, 1617.887
914.166, 2100.926
915.432, 1444.074
916.697, 1174.344
917.962, 1792.949
919.227, 1133.445
920.492, 1532.434
921.757, 1162.145
923.021, 1379.961
924.285, 1313.883
925.550, 1234.898
926.813, 1068.031
928.077, 1111.258
929.341, 1118.578
930.604, 1111.008
931.867, 922.539
933.130, 750.164
934.393, 1197.879
935.655, 591.691
936.918, 1167.590
938.180, 571.578
939.442, 634.648
940.703, 807.809
941.965, 526.055
943.226, 366.402
944.488, 640.246
945.749, 783.590
947.009, 615.230
948.270, 685.168
949.530, 558.938
950.791, 704.781
952.051, 583.707
953.311, 622.605
954.570, 682.246
955.830, 598.406
957.089, 610.883
958.348, 471.215
959.607, 480.621
960.866, 183.090
962.124, 399.633
963.383, 495.238
964.641, 260.910
965.899, 568.648
967.156, 469.449
968.414, 302.543
969.671, 496.070
970.928, 318.664
972.185, 634.840
973.442, 434.293
974.699, 636.477
975.955, 500.527
977.211, 193.527
978.468, 526.832
979.723, 414.191
980.979, 276.199
982.234, 780.734
983.490, 12.961
984.745, 648.102
986.000, 446.145
987.254, 22.621
988.509, 643.117
989.763, 289.793
991.017, 481.590
992.271, 417.598
993.525, 539.074
994.779, 665.820
996.032, 386.875
997.285, 596.344
998.538, 62.254
999.791, 770.547
1001.044, 55.184
1002.296, 801.547
1003.548, 305.316
1004.800, 160.863
1006.052, 683.281
1007.304, 408.660
1008.555, 481.785
1009.807, 589.457
1011.058, 313.438
1012.309, 598.773
1013.559, 550.469
1014.810, 452.535
1016.060, 667.984
1017.310, 694.363
1018.560, 189.344
1019.810, 576.441
1021.060, 696.961
1022.309, 339.402
1023.558, 816.754
1024.807, 342.906
1026.056, 711.758
1027.305, 365.371
1028.553, 732.164
1029.801, 664.770
1031.049, 443.289
1032.297, 287.152
1033.545, 832.961
1034.793, 502.500
1036.040, 427.613
1037.287, 793.469
1038.534, 623.891
1039.781, 732.633
1041.027, 455.969
1042.274, 655.523
1043.520, 838.770
1044.766, 479.555
1046.012, 475.984
1047.257, 333.211
1048.503, 825.469
1049.748, 453.867
1050.993, 852.637
1052.238, 662.141
1053.483, 444.332
1054.727, 491.582
1055.971, 739.223
1057.216, 553.352
1058.459, 547.828
1059.703, 366.555
1060.947, 518.086
1062.190, 456.188
1063.433, 331.766
1064.676, 368.891
1065.919, 197.906
1067.162, 612.223
1068.404, 156.559
1069.646, 228.281
1070.888, 650.137
1072.130, 367.039
1073.372, 572.562
1074.613, 417.438
1075.855, 191.734
1077.096, 197.922
1078.337, 178.648
1079.578, 377.676
1080.818, 323.879
1082.059, 300.430
1083.299, 362.605
1084.539, 265.750
1085.779, 107.234
1087.018, 239.266
1088.258, 337.301
1089.497, 169.352
1090.736, 169.145
1091.975, 130.441
1093.213, 37.191
1094.452, 15.188
1095.690, 45.219
1096.928, 45.090
1098.166, 127.445
1099.404, 195.688
1100.642, 77.000
1101.879, 223.473
1103.116, 47.711
1104.353, 215.750
1105.590, 16.312
1106.827, 94.059
1108.063, 203.230
1109.299, 331.215
1110.536, 291.809
1111.771, 314.742
1113.007, 220.996
1114.243, 190.426
1115.478, 225.957
1116.713, 102.551
1117.948, 83.383
1119.183, 33.121
1120.418, 36.527
1121.652, 9.863
1122.886, 159.418
1124.120, 5.582
1125.354, 101.902
1126.588, 59.172
1127.821, 132.305
1129.055, 129.199
1130.288, 80.512
1131.521, 81.676
1132.753, 193.992
1133.986, 142.590
1135.218, 126.461
1136.450, 115.945
1137.682, 63.883
1138.914, 158.637
1140.146, 127.359
1141.377, 52.367
1142.609, 261.203
1143.840, 239.559
1145.071, 3.379
1146.301, 183.223
1147.532, 169.746
1148.762, 80.980
1149.992, 63.168
1151.222, 55.758
1152.452, 98.254
1153.682, 155.113
1154.911, 282.312
1156.140, 34.840
1157.369, 110.777
1158.598, 103.988
1159.827, 415.379
1161.055, 87.793
1162.284, 79.047
1163.512, 71.562
1164.740, 260.824
1165.967, 61.555
1167.195, 295.820
1168.422, 161.973
1169.650, 92.383
1170.877, 178.465
1172.103, 73.844
1173.330, 121.855
1174.557, 297.684
1175.783, 389.941
1177.009, 154.383
1178.235, 78.141
1179.461, 183.875
1180.686, 74.781
1181.912, 600.094
1183.137, 299.020
1184.362, 323.539
1185.587, 171.414
1186.811, 263.723
1188.036, 20.695
1189.260, 130.570
1190.484, 188.508
1191.708, 458.684
1192.932, 234.129
1194.155, 149.824
1195.378, 314.996
1196.602, 553.008
1197.825, 220.113
1199.047, 526.109
1200.270, 256.730
1201.492, 582.203
1202.715, 3.535
1203.937, 691.699
1205.159, 385.730
1206.380, 475.629
1207.602, 145.402
1208.823, 210.008
1210.044, 491.484
1211.265, 424.062
1212.486, 271.289
1213.707, 199.379
1214.927, 397.328
1216.147, 468.145
1217.367, 280.828
1218.587, 443.379
1219.807, 377.789
1221.027, 598.059
1222.246, 250.203
1223.465, 517.203
1224.684, 744.078
1225.903, 302.820
1227.121, 311.422
1228.340, 621.879
1229.558, 768.211
1230.776, 499.402
1231.994, 605.449
1233.212, 703.359
1234.429, 690.129
1235.646, 675.816
1236.864, 515.234
1238.081, 591.578
1239.297, 561.781
1240.514, 649.426
1241.730, 591.508
1242.947, 525.746
1244.163, 513.109
1245.378, 745.590
1246.594, 702.934
1247.810, 373.129
1249.025, 688.199
1250.240, 513.672
1251.455, 518.461
1252.670, 595.809
1253.885, 628.258
1255.099, 654.391
1256.313, 713.508
1257.527, 674.668
1258.741, 771.512
1259.955, 716.855
1261.168, 672.750
1262.382, 639.168
1263.595, 550.227
1264.808, 631.773
1266.021, 546.195
1267.233, 595.297
1268.446, 832.727
1269.658, 441.375
1270.870, 705.086
1272.082, 520.781
1273.294, 452.102
1274.505, 566.301
1275.716, 431.773
1276.928, 413.652
1278.139, 735.680
1279.349, 330.883
1280.560, 494.027
1281.770, 596.914
1282.981, 195.215
1284.191, 441.504
1285.401, 394.586
1286.610, 389.586
1287.820, 509.840
1289.029, 88.738
1290.239, 474.246
1291.448, 424.258
1292.656, 205.742
1293.865, 325.762
1295.073, 312.355
1296.282, 161.141
1297.490, 352.438
1298.698, 316.883
1299.906, 478.375
1301.113, 351.820
1302.320, 351.453
1303.528, 412.465
1304.735, 131.086
1305.942, 538.266
1307.148, 564.027
1308.355, 160.336
1309.561, 450.199
1310.767, 315.059
1311.973, 227.234
1313.179, 78.777
1314.384, 540.719
1315.590, 310.234
1316.795, 367.773
1318.000, 177.430
1319.205, 259.336
1320.410, 105.402
1321.614, 15.758
1322.819, 394.824
1324.023, 82.832
1325.227, 700.336
1326.431, 173.000
1327.634, 39.902
1328.838, 235.016
1330.041, 327.047
1331.244, 422.297
1332.447, 130.000
1333.650, 619.961
1334.852, 374.570
1336.055, 144.426
1337.257, 458.574
1338.459, 163.730
1339.661, 427.004
1340.862, 573.316
1342.064, 356.957
1343.265, 341.246
1344.466, 474.770
1345.667, 415.410
1346.868, 456.938
1348.068, 511.293
1349.269, 592.461
1350.469, 597.289
1351.669, 475.688
1352.869, 571.902
1354.069, 593.309
1355.268, 309.172
1356.468, 548.371
1357.667, 806.137
1358.866, 527.570
1360.065, 795.258
1361.263, 619.469
1362.462, 441.707
1363.660, 907.648
1364.858, 427.879
1366.056, 580.262
1367.254, 591.168
1368.451, 784.145
1369.649, 560.680
1370.846, 509.848
1372.043, 629.773
1373.240, 590.551
1374.436, 488.469
1375.633, 653.543
1376.829, 530.789
1378.025, 454.758
1379.221, 656.785
1380.417, 684.645
1381.613, 390.211
1382.808, 567.645
1384.003, 645.113
1385.199, 565.961
1386.393, 130.301
1387.588, 728.520
1388.783, 340.430
1389.977, 723.199
1391.171, 367.969
1392.365, 489.289
1393.559, 590.945
1394.753, 329.812
1395.946, 631.898
1397.140, 478.188
1398.333, 565.773
1399.526, 338.988
1400.719, 519.051
1401.911, 526.637
1403.104, 338.684
1404.296, 279.715
1405.488, 660.129
1406.680, 220.594
1407.872, 290.758
1409.063, 482.652
1410.255, 63.496
1411.446, 689.242
1412.637, 320.961
1413.828, 381.602
1415.018, 472.152
1416.209, 327.039
1417.399, 292.289
1418.589, 520.395
1419.779, 412.375
1420.969, 315.270
1422.159, 426.059
1423.348, 286.707
1424.537, 383.270
1425.726, 299.758
1426.915, 298.246
1428.104, 298.742
1429.293, 34.316
1430.481, 402.914
1431.669, 433.012
1432.857, 423.785
1434.045, 83.582
1435.233, 573.375
1436.420, 398.477
1437.608, 250.883
1438.795, 325.828
1439.982, 436.059
1441.169, 423.523
1442.355, 242.238
1443.542, 637.645
1444.728, 245.504
1445.914, 328.441
1447.100, 288.512
1448.286, 379.727
1449.472, 129.121
1450.657, 722.754
1451.842, 455.648
1453.027, 314.598
1454.212, 647.133
1455.397, 166.105
1456.581, 304.527
1457.766, 409.398
1458.950, 231.707
1460.134, 604.520
1461.318, 196.926
1462.501, 291.969
1463.685, 577.750
1464.868, 20.547
1466.051, 733.219
1467.234, 13.867
1468.417, 363.395
1469.600, 439.281
1470.782, 428.426
1471.965, 75.293
1473.147, 356.094
1474.329, 200.074
1475.510, 0.000
##END=



