##NAMES=Adamite
##RRUFFID=R050020
##IDEAL CHEMISTRY=Zn^2+^_2_As^5+^O_4_(OH)
##LOCALITY=Mina Ojuela, Mapimi, Durango, Mexico
##OWNER=RRUFF
##SOURCE=Eugene Schlepp
##DESCRIPTION=Light green prismatic crystal
##STATUS=The identification of this mineral has been confirmed by X-ray diffraction and chemical analysis
##URL=rruff.info/R050020
##MEASURED CHEMISTRY=(Zn_1.97_Cu_0.03_)_Σ=2_((As_0.98_P_0.02_)_Σ=1_O_4_)(OH)
##PIN_ID=L00404
##ORIENTATION=Laser parallel to -b* (0 -1 0). Fiducial mark perpendicular to laser is parallel to c [0 0 1]
119.050, 0.000
120.447, 319.916
121.843, 113.115
123.240, 866.269
124.636, 633.924
126.031, 1184.197
127.427, 1500.879
128.822, 1706.390
130.217, 2881.494
131.612, 2745.156
133.006, 4146.889
134.400, 3816.980
135.794, 4541.351
137.188, 4130.271
138.581, 3740.440
139.975, 3733.535
141.368, 2609.818
142.760, 2475.944
144.153, 1511.002
145.545, 1305.185
146.937, 838.635
148.329, 321.529
149.720, 484.061
151.112, 22.560
152.503, 339.357
153.893, 210.670
155.284, 220.110
156.674, 183.813
158.064, 87.099
159.454, 422.068
160.843, 57.662
162.233, 503.538
163.622, 29.614
165.011, 415.977
166.399, 342.498
167.787, 389.157
169.175, 886.213
170.563, 693.101
171.951, 1540.083
173.338, 1127.154
174.725, 1504.535
176.112, 1142.265
177.499, 840.864
178.885, 970.106
180.271, 299.448
181.657, 508.793
183.043, 48.010
184.428, 347.141
185.813, 206.190
187.198, 34.824
188.583, 434.105
189.967, 326.762
191.351, 422.303
192.735, 108.707
194.119, 290.216
195.502, 299.830
196.885, 41.383
198.268, 557.351
199.651, 52.453
201.033, 441.711
202.415, 330.932
203.797, 472.126
205.179, 710.938
206.561, 469.831
207.942, 1240.409
209.323, 651.910
210.703, 1161.680
212.084, 750.768
213.464, 849.867
214.844, 858.977
216.224, 288.093
217.603, 727.213
218.983, 86.325
220.362, 435.266
221.741, 364.195
223.119, 283.104
224.497, 781.985
225.875, 430.844
227.253, 1269.686
228.631, 900.269
230.008, 1443.396
231.385, 1652.230
232.762, 1268.874
234.139, 1611.816
235.515, 652.068
236.891, 1085.074
238.267, 436.945
239.643, 585.119
241.018, 782.552
242.393, 172.609
243.768, 849.947
245.143, 427.290
246.517, 974.638
247.891, 1011.990
249.265, 1249.343
250.639, 1586.696
252.012, 1264.051
253.386, 1891.403
254.759, 1279.929
256.131, 1537.269
257.504, 1294.846
258.876, 1004.970
260.248, 1163.236
261.620, 650.453
262.991, 1167.694
264.363, 484.952
265.734, 752.285
267.104, 729.606
268.475, 346.940
269.845, 694.288
271.215, 121.620
272.585, 699.041
273.955, 216.442
275.324, 323.855
276.693, 531.291
278.062, 90.638
279.431, 549.852
280.799, 72.733
282.167, 324.956
283.535, 204.669
284.903, 133.569
286.270, 517.419
287.638, 67.661
289.005, 714.416
290.371, 265.013
291.738, 435.653
293.104, 559.292
294.470, 109.870
295.836, 624.063
297.201, 84.527
298.567, 455.348
299.932, 155.683
301.296, 265.937
302.661, 726.937
304.025, 276.625
305.389, 946.236
306.753, 485.752
308.117, 1155.234
309.480, 1214.678
310.843, 1234.113
312.206, 2023.520
313.569, 1642.894
314.931, 2622.237
316.293, 2470.973
317.655, 2760.295
319.017, 3087.492
320.378, 2666.254
321.740, 3254.849
323.101, 2663.334
324.461, 3121.782
325.822, 2669.827
327.182, 2008.273
328.542, 2095.573
329.902, 1074.013
331.261, 1392.469
332.621, 590.918
333.980, 679.358
335.339, 617.792
336.697, 106.217
338.056, 634.681
339.414, 86.285
340.772, 482.115
342.129, 191.568
343.487, 20.067
344.844, 438.253
346.201, 203.446
347.557, 464.537
348.914, 24.681
350.270, 43.463
351.626, 260.844
352.982, 101.048
354.337, 424.815
355.693, 103.490
357.048, 376.019
358.402, 135.535
359.757, 313.477
361.111, 607.240
362.465, 45.520
363.819, 808.574
365.173, 466.370
366.526, 914.146
367.879, 1191.894
369.232, 1179.621
370.585, 2047.330
371.937, 1795.023
373.290, 2952.687
374.642, 2860.327
375.993, 3087.945
377.345, 3205.543
378.696, 2043.121
380.047, 2300.678
381.398, 1208.214
382.748, 1235.645
384.099, 903.140
385.449, 240.650
386.799, 948.139
388.148, 95.608
389.497, 673.053
390.847, 230.477
392.196, 157.940
393.544, 565.320
394.893, 117.320
396.241, 629.935
397.589, 97.066
398.936, 404.175
400.284, 661.201
401.631, 424.950
402.978, 1131.880
404.325, 718.795
405.672, 1438.199
407.018, 1475.072
408.364, 1250.762
409.710, 2007.604
411.055, 1394.431
412.401, 2151.242
413.746, 1728.039
415.091, 1740.426
416.435, 2007.191
417.780, 1263.934
419.124, 2090.661
420.468, 1367.371
421.812, 1405.187
423.155, 1211.805
424.498, 768.418
425.842, 1355.004
427.184, 501.573
428.527, 954.926
429.869, 831.462
431.211, 519.335
432.553, 735.837
433.895, 71.973
435.236, 743.891
436.577, 80.333
437.918, 258.959
439.259, 565.356
440.599, 88.987
441.940, 717.671
443.280, 46.290
444.619, 343.540
445.959, 279.721
447.298, 5.565
448.637, 437.447
449.976, 27.778
451.315, 583.199
452.653, 239.143
453.991, 35.055
455.329, 571.056
456.667, 16.025
458.004, 589.637
459.341, 164.019
460.678, 509.707
462.015, 575.695
463.352, 101.323
464.688, 662.473
466.024, 308.031
467.360, 803.562
468.695, 940.689
470.031, 596.167
471.366, 1258.048
472.701, 643.471
474.035, 1508.865
475.370, 1144.234
476.704, 1259.574
478.038, 1883.812
479.372, 1049.104
480.705, 1964.420
482.038, 1259.712
483.371, 1304.980
484.704, 1745.638
486.037, 900.860
487.369, 1446.062
488.701, 731.240
490.033, 976.402
491.365, 946.199
492.696, 361.317
494.027, 956.412
495.358, 221.482
496.689, 736.532
498.019, 532.319
499.350, 157.322
500.680, 772.646
502.009, 117.598
503.339, 722.377
504.668, 301.756
505.997, 346.632
507.326, 674.416
508.655, 39.253
509.983, 768.144
511.311, 23.061
512.639, 377.802
513.967, 601.849
515.295, 6.646
516.622, 711.111
517.949, 61.489
519.276, 565.687
520.602, 680.398
521.929, 115.111
523.255, 947.804
524.581, 275.079
525.906, 709.758
527.232, 614.421
528.557, 419.066
529.882, 1163.696
531.207, 381.032
532.531, 1165.631
533.855, 830.214
535.179, 914.781
536.503, 1319.334
537.827, 713.873
539.150, 1438.397
540.473, 932.908
541.796, 977.405
543.119, 1301.889
544.441, 454.312
545.764, 1128.769
547.086, 613.213
548.407, 846.678
549.729, 811.098
551.050, 221.197
552.371, 945.391
553.692, 149.773
555.013, 563.275
556.333, 617.637
557.653, 163.400
558.973, 767.738
560.293, 47.932
561.612, 646.328
562.932, 350.576
564.251, 24.816
565.569, 779.025
566.888, 86.775
568.206, 537.338
569.524, 231.443
570.842, 145.543
572.160, 629.635
573.477, 36.281
574.795, 667.746
576.112, 211.768
577.428, 135.783
578.745, 479.793
580.061, 136.203
581.377, 487.697
582.693, 101.596
584.009, 285.488
585.324, 639.379
586.639, 66.734
587.954, 697.086
589.269, 30.908
590.583, 324.711
591.897, 608.510
593.212, 49.553
594.525, 794.199
595.839, 6.209
597.152, 359.936
598.465, 553.660
599.778, 47.178
601.091, 810.904
602.403, 22.174
603.716, 335.926
605.028, 539.680
606.339, 70.619
607.651, 783.092
608.962, 59.479
610.273, 544.201
611.584, 347.887
612.895, 38.592
614.205, 932.285
615.515, 117.705
616.825, 505.938
618.135, 459.166
619.444, 12.830
620.754, 746.496
622.063, 81.104
623.372, 542.527
624.680, 316.174
625.989, 10.172
627.297, 723.477
628.605, 102.861
629.912, 630.752
631.220, 324.379
632.527, 68.020
633.834, 811.674
635.141, 154.658
636.447, 838.943
637.754, 272.561
639.060, 146.195
640.366, 659.844
641.671, 96.492
642.977, 697.141
644.282, 290.787
645.587, 114.453
646.892, 808.137
648.196, 88.160
649.501, 765.518
650.805, 279.213
652.109, 102.930
653.412, 896.666
654.716, 229.576
656.019, 834.102
657.322, 227.221
658.625, 250.988
659.927, 713.707
661.230, 7.521
662.532, 811.381
663.834, 135.268
665.135, 259.254
666.437, 840.672
667.738, 65.262
669.039, 665.656
670.340, 189.762
671.640, 333.943
672.940, 884.480
674.241, 131.234
675.540, 751.486
676.840, 305.795
678.139, 290.133
679.439, 794.127
680.738, 71.463
682.036, 752.955
683.335, 167.404
684.633, 281.887
685.931, 626.416
687.229, 79.018
688.527, 785.574
689.824, 60.209
691.121, 494.879
692.418, 729.615
693.715, 14.389
695.012, 729.195
696.308, 124.041
697.604, 158.926
698.900, 773.846
700.195, 201.195
701.491, 853.732
702.786, 288.711
704.081, 203.732
705.376, 618.797
706.670, 356.098
707.964, 628.912
709.259, 83.963
710.552, 169.059
711.846, 434.240
713.139, 300.533
714.433, 674.633
715.726, 179.844
717.018, 238.297
718.311, 793.598
719.603, 28.943
720.895, 671.807
722.187, 487.244
723.479, 393.900
724.770, 909.436
726.061, 185.018
727.352, 1000.650
728.643, 446.332
729.934, 676.457
731.224, 1042.238
732.514, 428.074
733.804, 1293.961
735.094, 869.898
736.383, 874.719
737.672, 1820.768
738.961, 616.861
740.250, 1493.020
741.539, 1259.236
742.827, 918.719
744.115, 1755.061
745.403, 600.105
746.691, 1236.562
747.978, 993.082
749.265, 594.205
750.552, 1480.852
751.839, 445.357
753.126, 1232.131
754.412, 1038.967
755.698, 385.551
756.984, 1322.553
758.270, 428.588
759.555, 965.727
760.840, 962.928
762.125, 464.426
763.410, 1361.773
764.695, 724.215
765.979, 1121.721
767.263, 1049.293
768.547, 856.799
769.831, 1604.516
771.114, 814.461
772.398, 1482.328
773.681, 1360.268
774.964, 837.547
776.246, 1795.621
777.529, 1198.209
778.811, 1556.428
780.093, 2104.717
781.375, 1411.453
782.656, 2759.885
783.937, 2101.953
785.219, 2630.527
786.499, 3589.168
787.780, 2547.887
789.060, 4316.678
790.341, 4116.621
791.621, 4785.557
792.901, 6254.566
794.180, 5943.652
795.459, 8682.809
796.739, 9166.633
798.017, 10515.941
799.296, 13575.328
800.575, 12944.789
801.853, 16214.324
803.131, 15769.281
804.409, 15168.973
805.686, 16428.736
806.964, 13668.586
808.241, 15358.516
809.518, 14796.590
810.795, 14566.762
812.071, 18347.020
813.347, 17427.455
814.623, 22128.018
815.899, 24718.641
817.175, 25649.422
818.450, 29850.293
819.726, 26501.244
821.001, 26592.281
822.275, 24380.730
823.550, 18991.943
824.824, 18693.240
826.098, 14694.617
827.372, 13646.105
828.646, 13414.805
829.920, 10536.463
831.193, 11898.199
832.466, 10550.018
833.739, 11031.943
835.011, 12531.668
836.284, 11593.754
837.556, 14455.938
838.828, 15251.584
840.100, 16663.930
841.371, 20597.549
842.642, 20601.990
843.914, 24784.582
845.184, 24364.000
846.455, 22736.750
847.726, 22959.602
848.996, 17702.535
850.266, 16935.547
851.536, 14318.645
852.805, 11101.828
854.075, 11227.152
855.344, 8293.711
856.613, 8057.156
857.881, 7550.688
859.150, 5414.301
860.418, 6042.309
861.686, 4586.094
862.954, 4419.957
864.222, 4753.949
865.489, 3168.025
866.756, 4439.854
868.023, 3644.129
869.290, 3318.488
870.557, 4032.967
871.823, 3217.527
873.089, 3942.176
874.355, 4236.949
875.621, 3621.807
876.886, 5226.789
878.152, 4751.863
879.417, 5907.023
880.682, 7062.270
881.946, 7457.600
883.211, 10993.039
884.475, 11438.617
885.739, 14604.275
887.003, 17080.020
888.266, 16366.707
889.530, 19092.686
890.793, 15948.779
892.056, 14224.961
893.318, 13231.223
894.581, 9310.359
895.843, 9156.914
897.105, 6943.559
898.367, 5690.865
899.629, 5897.740
900.890, 3844.719
902.152, 4401.807
903.413, 3678.975
904.673, 2336.248
905.934, 3443.602
907.194, 2081.041
908.454, 2438.562
909.714, 2306.168
910.974, 1433.859
912.234, 2411.637
913.493, 1549.494
914.752, 1467.477
916.011, 1935.539
917.270, 983.707
918.528, 1731.961
919.786, 1280.297
921.044, 838.711
922.302, 1847.209
923.560, 575.822
924.817, 1354.549
926.074, 963.355
927.331, 752.246
928.588, 1631.229
929.844, 600.314
931.101, 999.479
932.357, 1518.721
933.613, 218.049
934.868, 1377.465
936.124, 786.988
937.379, 646.590
938.634, 1406.268
939.889, 266.021
941.144, 955.850
942.398, 905.799
943.652, 435.822
944.906, 1685.926
946.160, 506.105
947.414, 1456.361
948.667, 1536.721
949.920, 667.158
951.173, 1517.668
952.426, 738.254
953.678, 768.910
954.931, 1339.674
956.183, 170.510
957.435, 1251.463
958.686, 542.467
959.938, 473.543
961.189, 1085.137
962.440, 146.404
963.691, 772.744
964.941, 691.867
966.192, 143.338
967.442, 1020.523
968.692, 222.131
969.942, 513.801
971.191, 955.535
972.441, 2.666
973.690, 969.207
974.939, 311.148
976.187, 253.152
977.436, 886.955
978.684, 130.898
979.932, 721.311
981.180, 213.736
982.428, 116.080
983.675, 882.660
984.922, 24.883
986.169, 467.641
987.416, 642.201
988.663, 145.146
989.909, 627.527
991.155, 159.740
992.401, 96.951
993.647, 495.869
994.893, 231.250
996.138, 501.627
997.383, 317.004
998.628, 39.996
999.873, 1073.037
1001.117, 136.133
1002.362, 369.283
1003.606, 755.021
1004.850, 131.691
1006.093, 951.629
1007.337, 236.117
1008.580, 129.537
1009.823, 863.006
1011.066, 56.586
1012.308, 880.279
1013.551, 602.652
1014.793, 26.436
1016.035, 1220.270
1017.277, 161.082
1018.518, 575.061
1019.760, 1009.092
1021.001, 243.154
1022.242, 1367.295
1023.483, 567.848
1024.723, 222.066
1025.964, 1296.355
1027.204, 61.793
1028.444, 726.156
1029.683, 830.559
1030.923, 154.998
1032.162, 939.510
1033.401, 145.611
1034.640, 300.191
1035.879, 884.873
1037.117, 37.211
1038.355, 927.523
1039.593, 478.654
1040.831, 393.482
1042.069, 1288.344
1043.306, 85.164
1044.544, 889.732
1045.781, 724.719
1047.017, 17.172
1048.254, 1227.803
1049.490, 427.359
1050.726, 462.389
1051.962, 1077.439
1053.198, 63.705
1054.434, 928.795
1055.669, 553.914
1056.904, 189.047
1058.139, 1014.199
1059.374, 29.416
1060.608, 714.648
1061.843, 879.896
1063.077, 158.914
1064.311, 1074.234
1065.544, 559.576
1066.778, 566.061
1068.011, 1251.430
1069.244, 196.816
1070.477, 922.215
1071.710, 927.625
1072.942, 311.111
1074.174, 1316.553
1075.406, 562.000
1076.638, 540.129
1077.870, 1125.592
1079.101, 91.059
1080.332, 916.533
1081.563, 722.012
1082.794, 259.848
1084.025, 1295.383
1085.255, 280.918
1086.485, 786.643
1087.715, 1032.193
1088.945, 227.742
1090.175, 1333.863
1091.404, 639.414
1092.633, 446.381
1093.862, 1041.926
1095.091, 127.469
1096.319, 694.961
1097.548, 880.510
1098.776, 146.568
1100.004, 1082.303
1101.231, 457.840
1102.459, 406.062
1103.686, 1171.586
1104.913, 37.100
1106.140, 778.594
1107.367, 604.088
1108.593, 330.426
1109.819, 605.299
1111.046, 399.410
1112.271, 114.178
1113.497, 390.803
1114.722, 244.232
1115.948, 632.379
1117.173, 317.178
1118.398, 191.961
1119.622, 1137.525
1120.847, 182.215
1122.071, 788.234
1123.295, 802.951
1124.519, 7.648
1125.742, 818.178
1126.966, 350.068
1128.189, 54.691
1129.412, 783.135
1130.635, 32.291
1131.857, 582.219
1133.080, 736.461
1134.302, 10.926
1135.524, 889.389
1136.746, 420.393
1137.967, 144.762
1139.188, 951.314
1140.410, 133.695
1141.631, 458.768
1142.851, 797.445
1144.072, 1.678
1145.292, 758.605
1146.512, 322.754
1147.732, 296.875
1148.952, 892.869
1150.172, 6.928
1151.391, 600.926
1152.610, 615.627
1153.829, 39.562
1155.048, 1064.602
1156.266, 108.557
1157.484, 412.373
1158.702, 901.186
1159.920, 75.070
1161.138, 808.635
1162.356, 654.072
1163.573, 42.375
1164.790, 872.691
1166.007, 116.279
1167.224, 519.648
1168.440, 842.225
1169.656, 24.492
1170.872, 718.691
1172.088, 488.590
1173.304, 91.684
1174.519, 1145.893
1175.735, 169.607
1176.950, 492.559
1178.165, 1064.643
1179.379, 92.502
1180.594, 720.207
1181.808, 669.250
1183.022, 61.861
1184.236, 1093.559
1185.449, 3.703
1186.663, 256.076
1187.876, 470.471
1189.089, 235.689
1190.302, 613.650
1191.515, 248.494
1192.727, 99.574
1193.939, 1051.668
1195.151, 46.119
1196.363, 447.734
1197.575, 839.295
1198.786, 161.242
1199.997, 972.678
1201.208, 655.662
1202.419, 366.988
1203.630, 1338.258
1204.840, 370.227
1206.051, 431.383
1207.261, 1032.482
1208.470, 93.797
1209.680, 994.744
1210.889, 707.570
1212.099, 208.768
1213.308, 1419.527
1214.516, 442.328
1215.725, 622.967
1216.933, 1213.547
1218.142, 7.434
1219.350, 1097.820
1220.557, 778.148
1221.765, 148.840
1222.972, 1219.023
1224.180, 489.180
1225.387, 589.811
1226.593, 1309.812
1227.800, 181.225
1229.006, 1231.086
1230.213, 820.889
1231.419, 403.426
1232.624, 1273.107
1233.830, 702.738
1235.035, 332.760
1236.241, 1242.281
1237.446, 252.166
1238.650, 811.568
1239.855, 890.908
1241.059, 222.979
1242.264, 1212.174
1243.468, 361.316
1244.671, 441.742
1245.875, 1250.775
1247.078, 189.750
1248.282, 869.008
1249.485, 1057.857
1250.687, 77.186
1251.890, 1085.871
1253.092, 554.484
1254.295, 393.451
1255.497, 1291.953
1256.699, 435.377
1257.900, 866.158
1259.102, 804.439
1260.303, 197.014
1261.504, 935.160
1262.705, 553.242
1263.905, 301.270
1265.106, 1229.215
1266.306, 247.102
1267.506, 665.375
1268.706, 1063.057
1269.905, 38.932
1271.105, 876.760
1272.304, 844.182
1273.503, 101.389
1274.702, 1118.637
1275.900, 551.633
1277.099, 479.254
1278.297, 1146.260
1279.495, 91.119
1280.693, 787.830
1281.891, 874.486
1283.088, 31.070
1284.285, 908.174
1285.482, 324.604
1286.679, 280.971
1287.876, 1237.297
1289.072, 151.102
1290.268, 617.771
1291.464, 933.818
1292.660, 209.725
1293.856, 1136.115
1295.051, 569.316
1296.247, 94.994
1297.442, 1170.992
1298.637, 285.389
1299.831, 490.840
1301.026, 1086.221
1302.220, 118.559
1303.414, 996.852
1304.608, 493.213
1305.802, 208.143
1306.995, 1073.416
1308.188, 221.293
1309.381, 465.973
1310.574, 891.168
1311.767, 34.303
1312.960, 910.105
1314.152, 748.074
1315.344, 2.334
1316.536, 1026.490
1317.728, 269.459
1318.919, 333.465
1320.110, 918.016
1321.301, 38.131
1322.492, 555.605
1323.683, 868.055
1324.874, 158.354
1326.064, 975.088
1327.254, 635.354
1328.444, 21.338
1329.634, 1105.596
1330.823, 158.727
1332.013, 201.777
1333.202, 1123.578
1334.391, 86.488
1335.580, 589.268
1336.768, 838.879
1337.956, 81.580
1339.145, 1099.656
1340.333, 492.221
1341.520, 344.717
1342.708, 1235.945
1343.895, 158.311
1345.083, 670.611
1346.270, 1033.158
1347.456, 94.664
1348.643, 777.406
1349.829, 589.418
1351.016, 88.627
1352.202, 1079.520
1353.387, 121.326
1354.573, 353.066
1355.759, 1143.629
1356.944, 105.275
1358.129, 776.869
1359.314, 1008.424
1360.498, 29.932
1361.683, 1293.332
1362.867, 825.396
1364.051, 326.797
1365.235, 1285.508
1366.419, 417.891
1367.602, 289.258
1368.785, 1010.557
1369.968, 117.896
1371.151, 760.838
1372.334, 983.588
1373.517, 42.355
1374.699, 1166.727
1375.881, 570.598
1377.063, 313.490
1378.245, 1497.723
1379.426, 319.809
1380.608, 873.049
1381.789, 1094.062
1382.970, 37.811
1384.150, 1114.980
1385.331, 978.092
1386.511, 151.586
1387.691, 1345.369
1388.871, 657.193
1390.051, 330.020
1391.231, 1552.182
1392.410, 275.707
1393.589, 742.320
1394.768, 1391.092
1395.947, 214.287
1397.126, 1097.346
1398.304, 985.506
1399.483, 360.928
1400.661, 1402.721
1401.838, 443.939
1403.016, 593.059
1404.194, 1263.096
1405.371, 405.471
1406.548, 942.645
1407.725, 1143.172
1408.901, 245.193
1410.078, 1266.926
1411.254, 956.203
1412.430, 295.506
1413.606, 1304.254
1414.782, 615.740
1415.958, 517.523
1417.133, 1296.066
1418.308, 203.773
1419.483, 1014.775
1420.658, 1121.152
1421.832, 310.152
1423.007, 1107.484
1424.181, 685.588
1425.355, 151.648
1426.529, 1337.895
1427.702, 408.486
1428.876, 478.293
1430.049, 1326.092
1431.222, 138.238
1432.395, 698.295
1433.567, 1150.395
1434.740, 116.039
1435.912, 1221.879
1437.084, 641.361
1438.256, 144.600
1439.428, 1493.164
1440.599, 382.418
1441.770, 460.539
1442.942, 1377.025
1444.112, 130.086
1445.283, 918.525
1446.454, 1035.848
1447.624, 103.021
1448.794, 1154.918
1449.964, 852.604
1451.134, 47.074
1452.303, 1233.463
1453.473, 579.072
1454.642, 485.922
1455.811, 1160.602
1456.980, 216.707
1458.148, 663.037
1459.317, 1009.207
1460.485, 15.176
1461.653, 999.746
1462.821, 845.703
1463.989, 70.756
1465.156, 1156.648
1466.323, 510.979
1467.490, 117.137
1468.657, 1513.730
1469.824, 118.332
1470.991, 344.762
1472.157, 1411.002
1473.323, 25.617
1474.489, 970.477
1475.655, 997.314
1476.820, 132.625
1477.986, 1189.301
1479.151, 415.316
1480.316, 272.691
1481.481, 1228.332
1482.645, 233.145
1483.810, 390.697
1484.974, 1218.355
1486.138, 36.148
1487.302, 780.773
1488.465, 1018.756
1489.629, 124.971
1490.792, 1092.717
1491.955, 600.809
1493.118, 129.598
1494.281, 1145.719
1495.443, 225.076
1496.606, 214.807
1497.768, 1164.926
1498.930, 155.664
1500.091, 603.680
1501.253, 965.354
1502.414, 2.150
1503.575, 921.168
1504.736, 555.768
1505.897, 8.457
1507.058, 1159.014
1508.218, 371.885
1509.379, 139.471
1510.539, 958.301
1511.698, 0.252
1512.858, 0.000
##END=



