##NAMES=Adamite
##RRUFFID=R040130
##IDEAL CHEMISTRY=Zn^2+^_2_As^5+^O_4_(OH)
##LOCALITY=Mina Ojuela, Mapimi, Durango, Mexico
##OWNER=RRUFF
##SOURCE=Bob Downs
##DESCRIPTION=Pale yellow spherical aggregate of bladed crystals
##STATUS=The identification of this mineral has been confirmed by X-ray diffraction and chemical analysis
##URL=rruff.info/R040130
##MEASURED CHEMISTRY=Zn_1.97_(As_1.01_O_4_)(OH)
##PIN_ID=S00334
##ORIENTATION=Laser parallel to -b* (0 -1 0). Fiducial mark perpendicular to laser is parallel to c [0 0 1]
110.082, 0.000
111.473, 4.551
112.864, 112.904
114.254, 207.602
115.644, 159.713
117.034, 345.457
118.424, 113.219
119.813, 584.898
121.203, 336.598
122.592, 390.730
123.981, 666.029
125.369, 563.295
126.758, 587.234
128.146, 379.488
129.534, 717.705
130.922, 496.639
132.309, 578.240
133.696, 379.623
135.083, 668.010
136.470, 324.516
137.857, 470.062
139.243, 260.504
140.630, 356.586
142.016, 326.025
143.401, 442.561
144.787, 419.990
146.172, 435.166
147.557, 359.973
148.942, 429.320
150.327, 459.385
151.711, 538.037
153.096, 587.807
154.480, 512.096
155.863, 450.855
157.247, 577.098
158.630, 499.867
160.013, 521.564
161.396, 510.111
162.779, 479.908
164.161, 540.102
165.544, 520.377
166.926, 615.797
168.308, 775.293
169.689, 518.924
171.070, 690.609
172.452, 611.906
173.833, 422.936
175.213, 726.732
176.594, 359.357
177.974, 616.881
179.354, 540.355
180.734, 456.834
182.114, 409.369
183.493, 691.002
184.872, 476.771
186.251, 560.721
187.630, 405.889
189.008, 306.295
190.387, 517.568
191.765, 250.008
193.143, 526.635
194.520, 426.650
195.898, 573.654
197.275, 467.750
198.652, 545.047
200.029, 565.916
201.405, 571.312
202.782, 616.957
204.158, 700.246
205.534, 1090.273
206.909, 974.211
208.285, 1069.076
209.660, 1281.475
211.035, 972.080
212.410, 1084.115
213.784, 876.848
215.159, 918.141
216.533, 1126.832
217.907, 1019.945
219.281, 1094.559
220.654, 971.152
222.027, 1410.879
223.400, 1191.777
224.773, 1414.365
226.146, 1420.814
227.518, 1653.941
228.891, 1672.133
230.263, 1688.588
231.634, 1792.422
233.006, 1416.078
234.377, 1281.684
235.748, 1131.688
237.119, 1027.172
238.490, 1334.596
239.860, 1038.945
241.231, 1286.217
242.601, 1386.400
243.970, 1440.488
245.340, 1588.479
246.709, 1589.367
248.079, 1857.148
249.448, 1602.822
250.816, 1805.389
252.185, 1576.846
253.553, 1353.195
254.921, 1349.441
256.289, 1140.584
257.657, 1109.633
259.024, 966.588
260.391, 892.453
261.758, 814.129
263.125, 691.924
264.492, 633.537
265.858, 508.070
267.224, 378.533
268.590, 256.926
269.956, 558.250
271.321, 389.500
272.687, 504.654
274.052, 100.744
275.416, 361.344
276.781, 164.039
278.146, 17.553
279.510, 139.900
280.874, 236.379
282.237, 205.863
283.601, 198.244
284.964, 64.250
286.327, 55.066
287.690, 0.699
289.053, 1.430
290.416, 72.439
291.778, 30.660
293.140, 199.105
294.502, 242.232
295.863, 67.227
297.225, 51.439
298.586, 170.260
299.947, 107.725
301.308, 147.420
302.668, 145.760
304.029, 117.297
305.389, 152.027
306.749, 80.961
308.108, 91.518
309.468, 94.383
310.827, 12.871
312.186, 135.523
313.545, 15.637
314.903, 95.355
316.262, 1.529
317.620, 100.143
318.978, 10.324
320.336, 85.957
321.693, 87.783
323.051, 1.195
324.408, 249.008
325.765, 134.539
327.121, 107.078
328.478, 152.910
329.834, 12.033
331.190, 58.207
332.546, 217.645
333.902, 90.689
335.257, 24.135
336.612, 104.873
337.967, 169.738
339.322, 157.525
340.677, 34.027
342.031, 37.447
343.385, 153.740
344.739, 86.926
346.093, 31.996
347.446, 90.045
348.799, 135.771
350.153, 161.494
351.505, 203.137
352.858, 164.684
354.210, 183.459
355.563, 201.301
356.915, 166.531
358.267, 98.562
359.618, 85.461
360.969, 362.246
362.321, 280.795
363.672, 252.131
365.022, 468.271
366.373, 241.156
367.723, 556.854
369.073, 575.326
370.423, 575.494
371.773, 452.381
373.122, 461.037
374.471, 823.504
375.821, 697.781
377.169, 756.906
378.518, 446.934
379.866, 571.775
381.215, 546.410
382.563, 623.938
383.910, 410.312
385.258, 649.498
386.605, 821.619
387.952, 527.721
389.299, 779.711
390.646, 679.678
391.992, 665.596
393.339, 781.461
394.685, 747.334
396.031, 806.871
397.376, 739.121
398.722, 896.027
400.067, 802.947
401.412, 854.887
402.757, 836.551
404.101, 852.816
405.446, 828.812
406.790, 889.826
408.134, 1042.863
409.478, 1312.922
410.821, 1189.004
412.165, 978.113
413.508, 1603.250
414.851, 1473.412
416.193, 1169.605
417.536, 1246.826
418.878, 1379.078
420.220, 1312.365
421.562, 1415.965
422.904, 1451.039
424.245, 1631.428
425.586, 1411.854
426.927, 1767.316
428.268, 1399.604
429.609, 1227.924
430.949, 1661.268
432.289, 1825.893
433.629, 1506.775
434.969, 1748.490
436.309, 1597.795
437.648, 1898.744
438.987, 1695.156
440.326, 1508.207
441.665, 1629.096
443.003, 1863.455
444.342, 1780.244
445.680, 1825.930
447.018, 1672.490
448.355, 1757.926
449.693, 1667.660
451.030, 1827.617
452.367, 1783.141
453.704, 1803.852
455.041, 1766.559
456.377, 1816.676
457.713, 1801.332
459.049, 1800.648
460.385, 1937.621
461.721, 2048.102
463.056, 1820.801
464.391, 1919.742
465.726, 2194.605
467.061, 1989.438
468.395, 1748.879
469.730, 2084.824
471.064, 1832.754
472.398, 2322.965
473.731, 1879.648
475.065, 2121.945
476.398, 1950.508
477.731, 2289.148
479.064, 2203.004
480.397, 2234.457
481.729, 2197.387
483.062, 2092.406
484.394, 2377.000
485.725, 2430.336
487.057, 2401.992
488.389, 2464.699
489.720, 2594.758
491.051, 2710.859
492.382, 2776.059
493.712, 2821.883
495.043, 2784.785
496.373, 2737.418
497.703, 2593.863
499.032, 2454.883
500.362, 2244.586
501.691, 2176.406
503.020, 2152.578
504.349, 2157.035
505.678, 2142.277
507.007, 2012.492
508.335, 1943.543
509.663, 2107.406
510.991, 2231.730
512.319, 2006.250
513.646, 2352.859
514.973, 2018.566
516.300, 2200.375
517.627, 2087.281
518.954, 1751.812
520.280, 2188.289
521.607, 2043.500
522.933, 2042.820
524.259, 1720.250
525.584, 1922.781
526.910, 2064.434
528.235, 1962.195
529.560, 2029.074
530.885, 1836.070
532.209, 1955.191
533.534, 2152.426
534.858, 2045.793
536.182, 1936.508
537.506, 1898.125
538.829, 2077.867
540.152, 1812.742
541.476, 2028.750
542.799, 1546.891
544.121, 1742.168
545.444, 1774.582
546.766, 1636.133
548.088, 2038.820
549.410, 1643.652
550.732, 2018.629
552.053, 1735.805
553.375, 1678.066
554.696, 1462.473
556.017, 1809.023
557.337, 1824.727
558.658, 1763.578
559.978, 1576.723
561.298, 1666.871
562.618, 1625.172
563.938, 1476.621
565.257, 1825.227
566.576, 1311.980
567.895, 1531.895
569.214, 1802.961
570.533, 1422.184
571.851, 1600.559
573.170, 1617.098
574.488, 1302.793
575.805, 1367.648
577.123, 1345.664
578.440, 1378.840
579.758, 1756.180
581.075, 1112.680
582.391, 1473.344
583.708, 1622.172
585.024, 1235.168
586.341, 1400.328
587.657, 1598.656
588.972, 1593.160
590.288, 1511.840
591.603, 1154.758
592.918, 1312.785
594.233, 1398.984
595.548, 1613.379
596.863, 1541.543
598.177, 1312.180
599.491, 1387.168
600.805, 1334.891
602.119, 1228.262
603.432, 1395.047
604.746, 1427.805
606.059, 1268.773
607.372, 969.984
608.685, 1482.422
609.997, 1011.469
611.309, 1217.340
612.621, 951.867
613.933, 1302.172
615.245, 1059.758
616.557, 1171.562
617.868, 1311.602
619.179, 1183.387
620.490, 860.910
621.801, 1461.727
623.111, 1067.781
624.421, 1711.258
625.731, 756.848
627.041, 1677.551
628.351, 883.637
629.660, 800.043
630.970, 1486.617
632.279, 964.465
633.588, 1113.531
634.896, 529.852
636.205, 1295.410
637.513, 917.180
638.821, 1137.434
640.129, 1318.688
641.437, 1168.191
642.744, 879.938
644.051, 933.492
645.358, 1006.738
646.665, 1194.242
647.972, 976.246
649.278, 945.250
650.584, 926.254
651.890, 1278.793
653.196, 921.547
654.502, 1115.547
655.807, 575.754
657.113, 930.172
658.418, 1190.863
659.722, 1033.777
661.027, 887.910
662.331, 553.258
663.636, 1121.828
664.940, 192.641
666.244, 1034.707
667.547, 564.984
668.851, 878.504
670.154, 698.234
671.457, 516.176
672.760, 1011.340
674.062, 596.719
675.365, 636.312
676.667, 842.133
677.969, 879.168
679.271, 952.426
680.572, 973.340
681.874, 888.707
683.175, 986.648
684.476, 610.801
685.777, 719.172
687.077, 585.754
688.378, 1109.555
689.678, 676.570
690.978, 804.805
692.278, 218.738
693.577, 972.887
694.877, 257.730
696.176, 961.793
697.475, 281.074
698.774, 685.570
700.072, 727.285
701.371, 436.215
702.669, 151.367
703.967, 518.734
705.265, 865.320
706.562, 594.125
707.860, 3.852
709.157, 781.391
710.454, 199.852
711.751, 712.535
713.047, 183.441
714.344, 573.566
715.640, 14.090
716.936, 308.469
718.232, 517.250
719.527, 164.250
720.823, 287.465
722.118, 441.898
723.413, 228.551
724.708, 246.426
726.002, 673.516
727.297, 219.828
728.591, 601.359
729.885, 652.105
731.179, 195.070
732.472, 76.258
733.766, 257.660
735.059, 282.277
736.352, 317.117
737.645, 355.176
738.937, 343.930
740.230, 266.938
741.522, 396.648
742.814, 412.574
744.106, 607.715
745.397, 351.070
746.689, 2.352
747.980, 457.434
749.271, 288.438
750.562, 448.656
751.853, 85.914
753.143, 107.719
754.433, 293.566
755.723, 37.371
757.013, 401.895
758.303, 72.621
759.592, 143.059
760.881, 105.051
762.170, 9.031
763.459, 56.324
764.748, 353.168
766.036, 447.453
767.325, 120.711
768.613, 90.312
769.901, 224.539
771.188, 27.977
772.476, 340.613
773.763, 350.539
775.050, 127.430
776.337, 58.402
777.624, 354.961
778.910, 9.473
780.196, 397.285
781.482, 133.746
782.768, 29.387
784.054, 0.277
785.339, 405.258
786.625, 23.988
787.910, 495.914
789.195, 10.039
790.479, 130.375
791.764, 330.926
793.048, 14.289
794.332, 348.684
795.616, 361.988
796.900, 383.496
798.183, 74.762
799.467, 264.156
800.750, 22.312
802.033, 101.332
803.316, 671.207
804.598, 506.070
805.880, 476.746
807.163, 425.777
808.445, 317.020
809.726, 321.469
811.008, 439.109
812.289, 18.004
813.570, 591.117
814.851, 653.426
816.132, 516.984
817.413, 279.688
818.693, 883.648
819.973, 482.578
821.253, 596.023
822.533, 850.730
823.813, 799.551
825.092, 457.543
826.371, 634.812
827.650, 590.168
828.929, 655.414
830.208, 837.199
831.486, 986.508
832.764, 1330.660
834.042, 1603.023
835.320, 2134.598
836.598, 2648.340
837.875, 3183.348
839.152, 3947.512
840.429, 5515.922
841.706, 6000.520
842.983, 7030.328
844.259, 7989.359
845.536, 7299.570
846.812, 6618.715
848.088, 5526.246
849.363, 4866.945
850.639, 3931.836
851.914, 2964.906
853.189, 2270.137
854.464, 2223.520
855.739, 2213.109
857.013, 1483.867
858.288, 1329.852
859.562, 1122.992
860.836, 1407.289
862.110, 709.664
863.383, 1151.238
864.656, 818.531
865.930, 1006.422
867.203, 910.449
868.475, 952.086
869.748, 884.883
871.020, 840.836
872.292, 723.492
873.564, 613.336
874.836, 646.348
876.108, 736.508
877.379, 1190.812
878.650, 1148.258
879.922, 1445.895
881.192, 1637.652
882.463, 1865.566
883.733, 2322.629
885.004, 2768.812
886.274, 3397.113
887.544, 3960.559
888.813, 4044.148
890.083, 3883.859
891.352, 3695.695
892.621, 2897.645
893.890, 2147.719
895.159, 1862.887
896.427, 1360.172
897.695, 1634.570
898.964, 1227.090
900.232, 1059.648
901.499, 984.379
902.767, 938.211
904.034, 436.141
905.301, 826.703
906.568, 671.816
907.835, 900.023
909.102, 338.797
910.368, 464.188
911.634, 644.453
912.900, 91.023
914.166, 827.719
915.432, 305.473
916.697, 219.312
917.962, 622.848
919.227, 310.859
920.492, 623.543
921.757, 411.723
923.021, 650.988
924.285, 620.332
925.550, 483.750
926.813, 459.789
928.077, 371.371
929.341, 428.996
930.604, 760.719
931.867, 57.355
933.130, 229.355
934.393, 602.418
935.655, 83.762
936.918, 590.773
938.180, 316.906
939.442, 208.098
940.703, 441.906
941.965, 322.973
943.226, 416.496
944.488, 46.391
945.749, 513.613
947.009, 127.566
948.270, 95.160
949.530, 288.211
950.791, 274.367
952.051, 399.742
953.311, 363.148
954.570, 367.508
955.830, 214.352
957.089, 246.043
958.348, 125.941
959.607, 272.684
960.866, 215.918
962.124, 208.453
963.383, 290.016
964.641, 119.742
965.899, 285.383
967.156, 80.281
968.414, 3.520
969.671, 285.305
970.928, 8.984
972.185, 120.285
973.442, 154.250
974.699, 346.836
975.955, 221.074
977.211, 54.012
978.468, 304.719
979.723, 183.367
980.979, 46.570
982.234, 934.590
983.490, 253.355
984.745, 422.625
986.000, 383.777
987.254, 70.785
988.509, 595.707
989.763, 483.691
991.017, 402.352
992.271, 420.910
993.525, 307.922
994.779, 713.055
996.032, 623.680
997.285, 810.348
998.538, 125.703
999.791, 1002.152
1001.044, 176.902
1002.296, 737.664
1003.548, 559.098
1004.800, 368.836
1006.052, 660.617
1007.304, 329.789
1008.555, 400.625
1009.807, 142.355
1011.058, 472.566
1012.309, 624.566
1013.559, 239.422
1014.810, 27.816
1016.060, 442.566
1017.310, 535.398
1018.560, 77.719
1019.810, 566.594
1021.060, 607.629
1022.309, 391.086
1023.558, 837.832
1024.807, 296.859
1026.056, 573.781
1027.305, 556.668
1028.553, 974.102
1029.801, 865.734
1031.049, 404.105
1032.297, 407.332
1033.545, 1148.285
1034.793, 662.086
1036.040, 669.762
1037.287, 871.613
1038.534, 706.738
1039.781, 998.602
1041.027, 532.242
1042.274, 798.691
1043.520, 1039.680
1044.766, 577.617
1046.012, 579.867
1047.257, 321.996
1048.503, 948.516
1049.748, 313.297
1050.993, 1033.336
1052.238, 691.832
1053.483, 544.301
1054.727, 821.562
1055.971, 817.738
1057.216, 641.070
1058.459, 803.062
1059.703, 767.973
1060.947, 845.156
1062.190, 773.516
1063.433, 694.969
1064.676, 556.449
1065.919, 467.719
1067.162, 1194.188
1068.404, 338.469
1069.646, 437.074
1070.888, 856.293
1072.130, 360.891
1073.372, 547.770
1074.613, 658.012
1075.855, 438.070
1077.096, 578.445
1078.337, 842.250
1079.578, 488.008
1080.818, 440.969
1082.059, 218.137
1083.299, 498.191
1084.539, 210.781
1085.779, 339.082
1087.018, 310.805
1088.258, 298.473
1089.497, 170.602
1090.736, 131.957
1091.975, 81.227
1093.213, 2.730
1094.452, 307.105
1095.690, 369.902
1096.928, 145.418
1098.166, 13.703
1099.404, 390.242
1100.642, 27.926
1101.879, 172.668
1103.116, 154.117
1104.353, 480.418
1105.590, 0.020
1106.827, 100.031
1108.063, 37.863
1109.299, 192.641
1110.536, 174.039
1111.771, 91.840
1113.007, 54.277
1114.243, 168.988
1115.478, 63.379
1116.713, 2.000
1117.948, 356.207
1119.183, 244.355
1120.418, 171.578
1121.652, 244.012
1122.886, 255.207
1124.120, 450.277
1125.354, 130.238
1126.588, 411.336
1127.821, 126.043
1129.055, 282.516
1130.288, 503.680
1131.521, 343.270
1132.753, 71.910
1133.986, 9.352
1135.218, 650.949
1136.450, 193.883
1137.682, 759.930
1138.914, 123.398
1140.146, 127.957
1141.377, 18.109
1142.609, 63.984
1143.840, 201.641
1145.071, 409.070
1146.301, 366.535
1147.532, 306.645
1148.762, 78.789
1149.992, 137.496
1151.222, 375.055
1152.452, 519.387
1153.682, 19.426
1154.911, 239.871
1156.140, 99.113
1157.369, 311.266
1158.598, 402.496
1159.827, 626.160
1161.055, 659.531
1162.284, 198.145
1163.512, 443.180
1164.740, 437.598
1165.967, 4.793
1167.195, 367.363
1168.422, 302.262
1169.650, 564.793
1170.877, 14.094
1172.103, 107.152
1173.330, 259.188
1174.557, 365.832
1175.783, 392.277
1177.009, 19.461
1178.235, 559.590
1179.461, 161.469
1180.686, 252.148
1181.912, 615.645
1183.137, 626.996
1184.362, 209.188
1185.587, 285.203
1186.811, 491.047
1188.036, 425.746
1189.260, 517.246
1190.484, 677.570
1191.708, 938.734
1192.932, 633.746
1194.155, 447.586
1195.378, 412.262
1196.602, 872.750
1197.825, 521.090
1199.047, 908.254
1200.270, 898.258
1201.492, 999.098
1202.715, 1128.938
1203.937, 879.316
1205.159, 942.688
1206.380, 1004.895
1207.602, 858.750
1208.823, 797.848
1210.044, 756.590
1211.265, 732.164
1212.486, 760.574
1213.707, 588.824
1214.927, 969.914
1216.147, 555.859
1217.367, 938.629
1218.587, 655.246
1219.807, 1048.703
1221.027, 865.012
1222.246, 475.164
1223.465, 961.148
1224.684, 1096.988
1225.903, 894.688
1227.121, 654.230
1228.340, 1014.629
1229.558, 1157.742
1230.776, 836.836
1231.994, 681.441
1233.212, 999.238
1234.429, 975.883
1235.646, 839.387
1236.864, 1293.176
1238.081, 735.621
1239.297, 1114.055
1240.514, 1195.965
1241.730, 689.746
1242.947, 974.961
1244.163, 777.457
1245.378, 1197.406
1246.594, 1291.652
1247.810, 691.109
1249.025, 1612.246
1250.240, 941.516
1251.455, 819.238
1252.670, 1146.270
1253.885, 1165.762
1255.099, 862.316
1256.313, 671.301
1257.527, 693.762
1258.741, 851.324
1259.955, 650.527
1261.168, 884.719
1262.382, 843.574
1263.595, 895.176
1264.808, 726.906
1266.021, 912.691
1267.233, 834.758
1268.446, 887.562
1269.658, 565.617
1270.870, 934.441
1272.082, 690.484
1273.294, 898.613
1274.505, 710.082
1275.716, 828.691
1276.928, 624.094
1278.139, 1051.516
1279.349, 953.871
1280.560, 907.969
1281.770, 1093.121
1282.981, 950.273
1284.191, 937.270
1285.401, 761.516
1286.610, 944.742
1287.820, 738.566
1289.029, 720.941
1290.239, 820.969
1291.448, 599.770
1292.656, 658.805
1293.865, 589.680
1295.073, 727.191
1296.282, 368.621
1297.490, 667.316
1298.698, 907.527
1299.906, 509.637
1301.113, 527.293
1302.320, 346.594
1303.528, 836.586
1304.735, 430.477
1305.942, 503.168
1307.148, 1010.562
1308.355, 321.836
1309.561, 973.172
1310.767, 561.172
1311.973, 658.441
1313.179, 263.285
1314.384, 972.812
1315.590, 657.938
1316.795, 743.266
1318.000, 437.938
1319.205, 741.105
1320.410, 891.152
1321.614, 795.516
1322.819, 727.227
1324.023, 833.312
1325.227, 819.922
1326.431, 904.848
1327.634, 911.238
1328.838, 703.430
1330.041, 722.582
1331.244, 918.312
1332.447, 416.883
1333.650, 783.734
1334.852, 814.941
1336.055, 461.688
1337.257, 553.762
1338.459, 456.789
1339.661, 877.453
1340.862, 784.176
1342.064, 632.988
1343.265, 486.453
1344.466, 865.645
1345.667, 683.141
1346.868, 1117.945
1348.068, 767.008
1349.269, 642.879
1350.469, 996.242
1351.669, 915.887
1352.869, 901.785
1354.069, 1313.047
1355.268, 318.820
1356.468, 1126.742
1357.667, 1239.141
1358.866, 614.902
1360.065, 1147.555
1361.263, 576.570
1362.462, 1047.305
1363.660, 1089.281
1364.858, 712.676
1366.056, 687.980
1367.254, 1013.398
1368.451, 700.973
1369.649, 523.730
1370.846, 924.641
1372.043, 693.258
1373.240, 728.750
1374.436, 823.715
1375.633, 638.551
1376.829, 505.207
1378.025, 311.488
1379.221, 822.809
1380.417, 609.660
1381.613, 451.570
1382.808, 957.258
1384.003, 601.688
1385.199, 569.969
1386.393, 288.797
1387.588, 797.688
1388.783, 440.598
1389.977, 596.492
1391.171, 424.293
1392.365, 255.996
1393.559, 586.809
1394.753, 175.652
1395.946, 681.570
1397.140, 211.555
1398.333, 460.629
1399.526, 385.797
1400.719, 398.082
1401.911, 606.477
1403.104, 368.973
1404.296, 377.664
1405.488, 553.488
1406.680, 45.535
1407.872, 292.609
1409.063, 794.938
1410.255, 162.434
1411.446, 652.074
1412.637, 418.891
1413.828, 409.945
1415.018, 597.266
1416.209, 696.914
1417.399, 12.891
1418.589, 731.160
1419.779, 155.672
1420.969, 611.453
1422.159, 197.531
1423.348, 540.941
1424.537, 440.723
1425.726, 294.898
1426.915, 427.520
1428.104, 474.613
1429.293, 467.777
1430.481, 68.480
1431.669, 524.828
1432.857, 401.762
1434.045, 125.371
1435.233, 664.562
1436.420, 722.438
1437.608, 349.156
1438.795, 194.812
1439.982, 465.504
1441.169, 338.309
1442.355, 480.699
1443.542, 462.000
1444.728, 110.133
1445.914, 274.398
1447.100, 137.578
1448.286, 249.480
1449.472, 2.395
1450.657, 0.000
##END=



