##NAMES=Adamite
##RRUFFID=R040130
##IDEAL CHEMISTRY=Zn^2+^_2_As^5+^O_4_(OH)
##LOCALITY=Mina Ojuela, Mapimi, Durango, Mexico
##OWNER=RRUFF
##SOURCE=Bob Downs
##DESCRIPTION=Pale yellow spherical aggregate of bladed crystals
##STATUS=The identification of this mineral has been confirmed by X-ray diffraction and chemical analysis
##URL=rruff.info/R040130
##MEASURED CHEMISTRY=Zn_1.97_(As_1.01_O_4_)(OH)
##PIN_ID=S00334
##ORIENTATION=Laser parallel to -b* (0 -1 0). Fiducial mark perpendicular to laser is parallel to c [0 0 1]
126.758, 0.000
128.146, 0.721
129.534, 446.652
130.922, 293.969
132.309, 416.111
133.696, 9.646
135.083, 519.639
136.470, 71.781
137.857, 276.184
139.243, 126.828
140.630, 223.428
142.016, 64.725
143.401, 242.533
144.787, 265.844
146.172, 357.527
147.557, 263.723
148.942, 308.857
150.327, 296.992
151.711, 230.514
153.096, 465.736
154.480, 441.805
155.863, 260.969
157.247, 483.141
158.630, 313.201
160.013, 440.607
161.396, 393.598
162.779, 343.727
164.161, 603.002
165.544, 513.916
166.926, 631.781
168.308, 581.953
169.689, 643.848
171.070, 1031.824
172.452, 777.969
173.833, 818.719
175.213, 884.641
176.594, 413.664
177.974, 734.346
179.354, 684.727
180.734, 500.680
182.114, 385.816
183.493, 510.902
184.872, 550.465
186.251, 479.721
187.630, 404.459
189.008, 405.584
190.387, 528.570
191.765, 411.500
193.143, 464.219
194.520, 307.715
195.898, 528.387
197.275, 418.268
198.652, 660.963
200.029, 408.414
201.405, 363.021
202.782, 438.156
204.158, 417.324
205.534, 682.893
206.909, 398.988
208.285, 451.355
209.660, 704.664
211.035, 637.172
212.410, 527.113
213.784, 473.248
215.159, 597.234
216.533, 827.346
217.907, 631.002
219.281, 724.988
220.654, 642.406
222.027, 720.598
223.400, 618.854
224.773, 940.131
226.146, 825.426
227.518, 1015.730
228.891, 847.322
230.263, 955.523
231.634, 1161.988
233.006, 707.977
234.377, 835.686
235.748, 648.701
237.119, 613.018
238.490, 792.002
239.860, 575.062
241.231, 629.988
242.601, 667.588
243.970, 815.248
245.340, 790.062
246.709, 481.834
248.079, 994.561
249.448, 502.232
250.816, 827.863
252.185, 597.398
253.553, 568.881
254.921, 912.232
256.289, 668.496
257.657, 630.668
259.024, 619.381
260.391, 507.359
261.758, 345.264
263.125, 441.094
264.492, 505.836
265.858, 279.492
267.224, 573.051
268.590, 155.537
269.956, 368.926
271.321, 486.232
272.687, 421.465
274.052, 507.650
275.416, 376.738
276.781, 412.762
278.146, 218.697
279.510, 26.543
280.874, 211.271
282.237, 194.936
283.601, 89.451
284.964, 102.912
286.327, 230.469
287.690, 94.691
289.053, 112.650
290.416, 158.500
291.778, 126.104
293.140, 207.578
294.502, 254.115
295.863, 78.879
297.225, 58.230
298.586, 284.150
299.947, 138.377
301.308, 142.244
302.668, 243.014
304.029, 208.000
305.389, 83.889
306.749, 8.514
308.108, 308.102
309.468, 68.434
310.827, 116.844
312.186, 199.980
313.545, 278.977
314.903, 254.834
316.262, 404.551
317.620, 366.131
318.978, 726.576
320.336, 799.885
321.693, 550.057
323.051, 787.090
324.408, 446.990
325.765, 670.746
327.121, 307.373
328.478, 87.857
329.834, 223.188
331.190, 235.369
332.546, 113.596
333.902, 59.223
335.257, 53.170
336.612, 133.232
337.967, 13.539
339.322, 21.500
340.677, 32.373
342.031, 15.369
343.385, 165.672
344.739, 16.887
346.093, 32.621
347.446, 109.529
348.799, 74.387
350.153, 117.178
351.505, 19.223
352.858, 36.191
354.210, 17.566
355.563, 107.723
356.915, 54.891
358.267, 136.186
359.618, 65.113
360.969, 178.734
362.321, 250.381
363.672, 200.662
365.022, 304.648
366.373, 298.783
367.723, 220.695
369.073, 245.678
370.423, 342.500
371.773, 139.533
373.122, 199.957
374.471, 528.020
375.821, 140.205
377.169, 591.350
378.518, 120.666
379.866, 266.035
381.215, 231.465
382.563, 158.219
383.910, 305.486
385.258, 152.254
386.605, 484.436
387.952, 18.445
389.299, 416.648
390.646, 246.736
391.992, 274.785
393.339, 296.752
394.685, 323.613
396.031, 837.113
397.376, 390.830
398.722, 643.758
400.067, 376.189
401.412, 460.633
402.757, 753.477
404.101, 416.797
405.446, 462.467
406.790, 556.867
408.134, 656.277
409.478, 682.240
410.821, 763.674
412.165, 696.145
413.508, 919.611
414.851, 794.361
416.193, 833.977
417.536, 645.484
418.878, 757.982
420.220, 810.396
421.562, 335.795
422.904, 792.344
424.245, 1063.693
425.586, 769.695
426.927, 1001.629
428.268, 893.191
429.609, 542.861
430.949, 899.666
432.289, 1113.416
433.629, 672.797
434.969, 898.605
436.309, 721.400
437.648, 1011.965
438.987, 987.139
440.326, 760.092
441.665, 798.727
443.003, 918.912
444.342, 816.906
445.680, 914.152
447.018, 962.797
448.355, 845.271
449.693, 750.193
451.030, 741.959
452.367, 703.588
453.704, 508.635
455.041, 744.418
456.377, 698.799
457.713, 796.914
459.049, 981.742
460.385, 947.484
461.721, 1029.816
463.056, 846.629
464.391, 745.211
465.726, 1169.613
467.061, 1081.527
468.395, 818.172
469.730, 1084.281
471.064, 771.320
472.398, 1421.770
473.731, 969.582
475.065, 1071.637
476.398, 1023.457
477.731, 1246.859
479.064, 1442.281
480.397, 1141.723
481.729, 1146.195
483.062, 1231.691
484.394, 1187.219
485.725, 1052.773
487.057, 1245.355
488.389, 1120.973
489.720, 1012.094
491.051, 1296.379
492.382, 1068.887
493.712, 1151.324
495.043, 955.945
496.373, 1116.500
497.703, 1153.562
499.032, 1336.949
500.362, 1184.020
501.691, 1198.223
503.020, 1013.047
504.349, 1117.469
505.678, 1357.500
507.007, 990.766
508.335, 932.414
509.663, 1370.055
510.991, 1268.090
512.319, 1274.770
513.646, 1379.512
514.973, 1038.602
516.300, 1466.973
517.627, 1389.941
518.954, 772.141
520.280, 1322.812
521.607, 1141.691
522.933, 1279.641
524.259, 1014.547
525.584, 930.641
526.910, 1259.805
528.235, 1141.047
529.560, 1356.363
530.885, 1346.594
532.209, 1099.801
533.534, 1230.352
534.858, 1247.988
536.182, 1074.391
537.506, 1168.207
538.829, 1226.574
540.152, 933.566
541.476, 1338.984
542.799, 731.160
544.121, 1214.422
545.444, 1353.781
546.766, 1013.180
548.088, 1129.992
549.410, 1092.633
550.732, 1380.367
552.053, 936.344
553.375, 940.270
554.696, 874.180
556.017, 1198.297
557.337, 1160.605
558.658, 1052.926
559.978, 915.430
561.298, 1150.957
562.618, 676.590
563.938, 926.805
565.257, 1061.652
566.576, 717.609
567.895, 1140.668
569.214, 1058.844
570.533, 892.129
571.851, 950.566
573.170, 1054.078
574.488, 818.699
575.805, 807.434
577.123, 983.383
578.440, 901.344
579.758, 1117.406
581.075, 747.586
582.391, 840.883
583.708, 916.309
585.024, 761.855
586.341, 971.520
587.657, 1180.316
588.972, 1166.234
590.288, 921.289
591.603, 656.480
592.918, 796.785
594.233, 804.215
595.548, 1086.766
596.863, 963.551
598.177, 813.242
599.491, 748.180
600.805, 771.301
602.119, 563.543
603.432, 1057.926
604.746, 990.504
606.059, 703.281
607.372, 378.195
608.685, 472.391
609.997, 435.746
611.309, 631.102
612.621, 544.664
613.933, 712.367
615.245, 600.305
616.557, 571.402
617.868, 483.688
619.179, 655.219
620.490, 485.902
621.801, 914.793
623.111, 497.922
624.421, 737.191
625.731, 387.621
627.041, 758.223
628.351, 332.961
629.660, 335.887
630.970, 959.977
632.279, 368.203
633.588, 469.574
634.896, 177.086
636.205, 659.734
637.513, 298.527
638.821, 551.457
640.129, 780.535
641.437, 597.750
642.744, 212.105
644.051, 496.602
645.358, 514.246
646.665, 614.031
647.972, 216.984
649.278, 243.078
650.584, 106.324
651.890, 681.773
653.196, 331.387
654.502, 568.199
655.807, 214.168
657.113, 428.324
658.418, 613.660
659.722, 513.172
661.027, 375.867
662.331, 261.719
663.636, 565.754
664.940, 122.020
666.244, 505.387
667.547, 11.961
668.851, 265.695
670.154, 200.617
671.457, 262.707
672.760, 501.984
674.062, 94.414
675.365, 259.020
676.667, 213.793
677.969, 467.727
679.271, 254.832
680.572, 44.898
681.874, 363.516
683.175, 496.094
684.476, 136.832
685.777, 353.730
687.077, 178.207
688.378, 677.980
689.678, 130.328
690.978, 389.836
692.278, 460.488
693.577, 565.223
694.877, 349.898
696.176, 606.055
697.475, 17.828
698.774, 437.449
700.072, 302.891
701.371, 215.500
702.669, 250.719
703.967, 197.160
705.265, 538.230
706.562, 367.461
707.860, 198.137
709.157, 308.387
710.454, 123.922
711.751, 477.910
713.047, 56.082
714.344, 268.078
715.640, 316.594
716.936, 75.824
718.232, 434.410
719.527, 110.832
720.823, 125.074
722.118, 159.141
723.413, 63.379
724.708, 142.785
726.002, 400.363
727.297, 95.887
728.591, 552.012
729.885, 544.078
731.179, 217.320
732.472, 59.270
733.766, 113.297
735.059, 387.035
736.352, 356.938
737.645, 148.016
738.937, 555.258
740.230, 179.676
741.522, 264.262
742.814, 322.016
744.106, 544.941
745.397, 282.035
746.689, 20.301
747.980, 326.734
749.271, 342.332
750.562, 564.105
751.853, 159.043
753.143, 370.148
754.433, 386.426
755.723, 4.871
757.013, 464.480
758.303, 162.262
759.592, 378.211
760.881, 60.320
762.170, 522.605
763.459, 429.051
764.748, 70.336
766.036, 646.430
767.325, 284.355
768.613, 354.449
769.901, 601.707
771.188, 247.129
772.476, 635.715
773.763, 175.465
775.050, 512.371
776.337, 348.441
777.624, 683.676
778.910, 499.066
780.196, 687.617
781.482, 345.336
782.768, 505.207
784.054, 627.234
785.339, 914.422
786.625, 672.777
787.910, 1133.285
789.195, 763.949
790.479, 1027.793
791.764, 1244.801
793.048, 1071.973
794.332, 1628.301
795.616, 1699.777
796.900, 1857.461
798.183, 1798.301
799.467, 2178.293
800.750, 2102.500
802.033, 2545.871
803.316, 3331.438
804.598, 2487.156
805.880, 3533.102
807.163, 3954.199
808.445, 4127.484
809.726, 5060.953
811.008, 5905.594
812.289, 6890.473
813.570, 8746.543
814.851, 10251.793
816.132, 11845.266
817.413, 12855.910
818.693, 13772.699
819.973, 12518.781
821.253, 11112.000
822.533, 9588.387
823.813, 7920.961
825.092, 6552.703
826.371, 5595.652
827.650, 4832.766
828.929, 4218.754
830.208, 3818.965
831.486, 3648.227
832.764, 3641.238
834.042, 3713.250
835.320, 4265.570
836.598, 4357.914
837.875, 5049.527
839.152, 5653.277
840.429, 7036.242
841.706, 7490.812
842.983, 8351.148
844.259, 9080.727
845.536, 8185.445
846.812, 7638.625
848.088, 6154.633
849.363, 5353.285
850.639, 4632.602
851.914, 3380.781
853.189, 2488.480
854.464, 2684.316
855.739, 2668.340
857.013, 1697.547
858.288, 1618.879
859.562, 1575.387
860.836, 1585.035
862.110, 1131.656
863.383, 1392.570
864.656, 1083.719
865.930, 1213.902
867.203, 949.117
868.475, 1171.543
869.748, 733.016
871.020, 1026.707
872.292, 1168.516
873.564, 959.000
874.836, 1074.082
876.108, 858.293
877.379, 1314.613
878.650, 1232.055
879.922, 1417.695
881.192, 1188.406
882.463, 1688.277
883.733, 1611.266
885.004, 2021.367
886.274, 2027.469
887.544, 2628.797
888.813, 2267.238
890.083, 2415.781
891.352, 2477.441
892.621, 2099.203
893.890, 1593.082
895.159, 1366.051
896.427, 1272.121
897.695, 1055.062
898.964, 1154.578
900.232, 895.953
901.499, 917.430
902.767, 819.992
904.034, 669.648
905.301, 767.395
906.568, 824.242
907.835, 895.176
909.102, 554.172
910.368, 706.266
911.634, 807.438
912.900, 477.691
914.166, 1189.031
915.432, 495.449
916.697, 219.941
917.962, 894.254
919.227, 513.902
920.492, 640.621
921.757, 523.410
923.021, 710.266
924.285, 837.191
925.550, 517.180
926.813, 709.238
928.077, 662.367
929.341, 692.559
930.604, 774.809
931.867, 444.125
933.130, 625.504
934.393, 846.934
935.655, 343.547
936.918, 780.098
938.180, 140.840
939.442, 454.512
940.703, 714.336
941.965, 647.551
943.226, 746.922
944.488, 530.777
945.749, 650.668
947.009, 346.594
948.270, 344.332
949.530, 458.547
950.791, 506.594
952.051, 290.906
953.311, 53.035
954.570, 137.867
955.830, 488.480
957.089, 284.430
958.348, 319.297
959.607, 592.121
960.866, 278.270
962.124, 174.102
963.383, 403.680
964.641, 383.371
965.899, 378.980
967.156, 541.297
968.414, 186.637
969.671, 441.422
970.928, 92.469
972.185, 438.355
973.442, 485.285
974.699, 531.578
975.955, 623.578
977.211, 30.574
978.468, 563.242
979.723, 376.344
980.979, 63.250
982.234, 915.523
983.490, 99.734
984.745, 401.254
986.000, 336.957
987.254, 189.852
988.509, 739.520
989.763, 263.855
991.017, 426.066
992.271, 352.340
993.525, 316.941
994.779, 678.832
996.032, 724.762
997.285, 709.449
998.538, 285.641
999.791, 1127.359
1001.044, 430.078
1002.296, 640.457
1003.548, 657.578
1004.800, 373.070
1006.052, 643.266
1007.304, 665.227
1008.555, 680.133
1009.807, 605.711
1011.058, 496.961
1012.309, 594.762
1013.559, 406.801
1014.810, 330.355
1016.060, 500.363
1017.310, 512.555
1018.560, 370.680
1019.810, 516.508
1021.060, 890.250
1022.309, 332.371
1023.558, 835.770
1024.807, 296.652
1026.056, 570.723
1027.305, 403.445
1028.553, 758.012
1029.801, 722.992
1031.049, 467.215
1032.297, 441.543
1033.545, 403.027
1034.793, 422.020
1036.040, 518.074
1037.287, 484.184
1038.534, 769.594
1039.781, 1041.395
1041.027, 962.613
1042.274, 788.215
1043.520, 782.520
1044.766, 734.926
1046.012, 363.316
1047.257, 348.023
1048.503, 1001.727
1049.748, 336.238
1050.993, 808.375
1052.238, 809.535
1053.483, 361.359
1054.727, 515.918
1055.971, 1121.320
1057.216, 481.719
1058.459, 701.105
1059.703, 710.262
1060.947, 597.586
1062.190, 727.617
1063.433, 570.535
1064.676, 562.328
1065.919, 425.566
1067.162, 961.020
1068.404, 140.902
1069.646, 409.301
1070.888, 709.215
1072.130, 235.164
1073.372, 391.945
1074.613, 704.383
1075.855, 416.047
1077.096, 289.602
1078.337, 589.164
1079.578, 506.441
1080.818, 393.895
1082.059, 270.715
1083.299, 603.941
1084.539, 140.641
1085.779, 419.004
1087.018, 94.727
1088.258, 211.535
1089.497, 200.574
1090.736, 19.461
1091.975, 141.129
1093.213, 102.984
1094.452, 364.398
1095.690, 371.469
1096.928, 66.820
1098.166, 279.805
1099.404, 426.574
1100.642, 112.805
1101.879, 106.082
1103.116, 21.727
1104.353, 344.922
1105.590, 156.809
1106.827, 273.723
1108.063, 4.906
1109.299, 28.383
1110.536, 40.535
1111.771, 182.238
1113.007, 21.570
1114.243, 35.816
1115.478, 169.160
1116.713, 184.762
1117.948, 286.219
1119.183, 220.699
1120.418, 7.633
1121.652, 108.367
1122.886, 26.129
1124.120, 115.293
1125.354, 80.629
1126.588, 101.711
1127.821, 157.754
1129.055, 273.445
1130.288, 326.473
1131.521, 56.711
1132.753, 86.879
1133.986, 48.758
1135.218, 568.348
1136.450, 347.738
1137.682, 471.988
1138.914, 98.750
1140.146, 34.719
1141.377, 6.664
1142.609, 233.266
1143.840, 263.410
1145.071, 348.227
1146.301, 208.875
1147.532, 287.469
1148.762, 35.703
1149.992, 43.211
1151.222, 38.523
1152.452, 385.871
1153.682, 38.742
1154.911, 350.176
1156.140, 1.094
1157.369, 4.363
1158.598, 180.723
1159.827, 612.422
1161.055, 235.789
1162.284, 316.383
1163.512, 237.930
1164.740, 530.117
1165.967, 421.594
1167.195, 448.465
1168.422, 204.973
1169.650, 533.406
1170.877, 106.566
1172.103, 359.574
1173.330, 284.398
1174.557, 566.945
1175.783, 377.293
1177.009, 114.359
1178.235, 492.523
1179.461, 320.207
1180.686, 349.684
1181.912, 540.977
1183.137, 490.059
1184.362, 322.949
1185.587, 363.641
1186.811, 628.133
1188.036, 272.777
1189.260, 580.895
1190.484, 354.816
1191.708, 652.660
1192.932, 638.195
1194.155, 385.555
1195.378, 315.719
1196.602, 789.684
1197.825, 340.645
1199.047, 834.215
1200.270, 523.605
1201.492, 933.797
1202.715, 305.812
1203.937, 689.625
1205.159, 671.250
1206.380, 939.695
1207.602, 878.566
1208.823, 544.043
1210.044, 687.934
1211.265, 693.637
1212.486, 603.152
1213.707, 565.461
1214.927, 835.547
1216.147, 688.441
1217.367, 1017.152
1218.587, 740.684
1219.807, 994.035
1221.027, 809.203
1222.246, 568.195
1223.465, 725.000
1224.684, 934.625
1225.903, 734.070
1227.121, 535.340
1228.340, 1049.430
1229.558, 894.352
1230.776, 754.090
1231.994, 605.531
1233.212, 923.930
1234.429, 869.020
1235.646, 782.070
1236.864, 1168.852
1238.081, 793.125
1239.297, 952.953
1240.514, 1287.520
1241.730, 956.766
1242.947, 993.832
1244.163, 836.965
1245.378, 1176.500
1246.594, 1141.078
1247.810, 629.270
1249.025, 1245.527
1250.240, 819.742
1251.455, 874.484
1252.670, 963.547
1253.885, 1028.566
1255.099, 683.512
1256.313, 306.000
1257.527, 459.258
1258.741, 360.004
1259.955, 624.059
1261.168, 652.582
1262.382, 820.270
1263.595, 1028.805
1264.808, 695.762
1266.021, 766.340
1267.233, 843.961
1268.446, 1011.410
1269.658, 552.367
1270.870, 820.488
1272.082, 673.488
1273.294, 849.680
1274.505, 840.320
1275.716, 874.027
1276.928, 450.246
1278.139, 834.863
1279.349, 567.094
1280.560, 727.480
1281.770, 732.562
1282.981, 638.734
1284.191, 865.117
1285.401, 669.504
1286.610, 583.707
1287.820, 681.477
1289.029, 278.832
1290.239, 851.023
1291.448, 627.352
1292.656, 586.109
1293.865, 790.230
1295.073, 584.281
1296.282, 624.605
1297.490, 583.000
1298.698, 536.961
1299.906, 698.113
1301.113, 662.398
1302.320, 598.680
1303.528, 492.199
1304.735, 351.973
1305.942, 388.109
1307.148, 928.984
1308.355, 479.277
1309.561, 880.090
1310.767, 522.707
1311.973, 384.172
1313.179, 139.027
1314.384, 969.477
1315.590, 265.984
1316.795, 860.430
1318.000, 499.945
1319.205, 504.281
1320.410, 638.391
1321.614, 170.383
1322.819, 572.680
1324.023, 618.258
1325.227, 850.469
1326.431, 648.762
1327.634, 831.488
1328.838, 608.855
1330.041, 880.758
1331.244, 560.637
1332.447, 308.309
1333.650, 429.832
1334.852, 595.707
1336.055, 344.797
1337.257, 569.848
1338.459, 415.473
1339.661, 802.926
1340.862, 707.828
1342.064, 300.246
1343.265, 687.719
1344.466, 900.844
1345.667, 680.477
1346.868, 1196.340
1348.068, 639.992
1349.269, 521.121
1350.469, 995.277
1351.669, 796.465
1352.869, 864.547
1354.069, 1152.441
1355.268, 296.703
1356.468, 1120.473
1357.667, 963.488
1358.866, 609.738
1360.065, 934.910
1361.263, 646.031
1362.462, 818.727
1363.660, 1070.199
1364.858, 885.828
1366.056, 790.438
1367.254, 918.066
1368.451, 903.332
1369.649, 641.543
1370.846, 804.715
1372.043, 506.438
1373.240, 890.859
1374.436, 828.379
1375.633, 722.309
1376.829, 707.328
1378.025, 373.773
1379.221, 717.992
1380.417, 719.609
1381.613, 555.684
1382.808, 969.273
1384.003, 629.602
1385.199, 757.125
1386.393, 328.812
1387.588, 868.316
1388.783, 354.762
1389.977, 632.840
1391.171, 421.414
1392.365, 466.977
1393.559, 853.598
1394.753, 383.207
1395.946, 518.004
1397.140, 357.273
1398.333, 671.816
1399.526, 272.344
1400.719, 465.469
1401.911, 771.082
1403.104, 409.758
1404.296, 324.477
1405.488, 651.246
1406.680, 120.113
1407.872, 397.145
1409.063, 670.586
1410.255, 216.191
1411.446, 655.949
1412.637, 190.867
1413.828, 532.980
1415.018, 627.258
1416.209, 351.711
1417.399, 54.336
1418.589, 523.094
1419.779, 126.996
1420.969, 516.102
1422.159, 103.469
1423.348, 319.156
1424.537, 327.145
1425.726, 176.363
1426.915, 528.855
1428.104, 128.668
1429.293, 41.824
1430.481, 117.363
1431.669, 261.305
1432.857, 359.695
1434.045, 267.551
1435.233, 509.902
1436.420, 612.785
1437.608, 474.246
1438.795, 227.355
1439.982, 354.188
1441.169, 204.820
1442.355, 240.332
1443.542, 459.836
1444.728, 123.473
1445.914, 318.383
1447.100, 288.762
1448.286, 286.855
1449.472, 22.031
1450.657, 707.508
1451.842, 532.996
1453.027, 362.160
1454.212, 630.652
1455.397, 0.664
1456.581, 0.000
##END=



