##NAMES=Adamite
##RRUFFID=R050020
##IDEAL CHEMISTRY=Zn^2+^_2_As^5+^O_4_(OH)
##LOCALITY=Mina Ojuela, Mapimi, Durango, Mexico
##OWNER=RRUFF
##SOURCE=Eugene Schlepp
##DESCRIPTION=Light green prismatic crystal
##STATUS=The identification of this mineral has been confirmed by X-ray diffraction and chemical analysis
##URL=rruff.info/R050020
##MEASURED CHEMISTRY=(Zn_1.97_Cu_0.03_)_Σ=2_((As_0.98_P_0.02_)_Σ=1_O_4_)(OH)
##PIN_ID=L00236
##ORIENTATION=Laser parallel to -c* (0 0 -1). Fiducial mark perpendicular to laser is parallel to a [1 0 0]
46.637, 0.000
48.043, 15.306
49.450, 62.659
50.856, 79.971
52.261, 132.959
53.667, 263.399
55.072, 337.792
56.477, 460.945
57.882, 535.903
59.287, 474.082
60.691, 532.983
62.095, 514.961
63.499, 550.951
64.903, 600.510
66.306, 568.783
67.709, 517.715
69.112, 438.529
70.515, 336.331
71.917, 290.860
73.319, 199.820
74.721, 161.187
76.123, 102.940
77.525, 51.062
78.926, 15.463
80.327, 18.647
81.728, 37.500
83.128, 40.033
84.529, 42.255
85.929, 46.171
87.329, 27.790
88.728, 4.883
90.128, 24.843
91.527, 104.083
92.926, 127.591
94.324, 196.355
95.723, 277.358
97.121, 399.584
98.519, 496.008
99.917, 578.614
101.314, 707.394
102.712, 805.345
104.109, 960.466
105.505, 1039.754
106.902, 1155.207
108.298, 1208.826
109.694, 1181.608
111.090, 1178.560
112.486, 1053.678
113.881, 1136.958
115.277, 1095.399
116.672, 1231.003
118.066, 1348.767
119.461, 1624.692
120.855, 1988.778
122.249, 2367.024
123.643, 2866.430
125.036, 3414.994
126.430, 4119.718
127.823, 4630.599
129.216, 5490.637
130.608, 6225.836
132.001, 6883.214
133.393, 7637.749
134.785, 7977.424
136.176, 8269.216
137.568, 8049.112
138.959, 7567.093
140.350, 6961.132
141.741, 6112.216
143.131, 5188.345
144.521, 4244.506
145.911, 3389.683
147.301, 2628.806
148.691, 2047.850
150.080, 1646.827
151.469, 1365.793
152.858, 1164.823
154.247, 1052.935
155.635, 1008.134
157.024, 1012.424
158.411, 970.806
159.799, 976.279
161.187, 925.848
162.574, 949.512
163.961, 1067.272
165.348, 1154.130
166.734, 1354.088
168.121, 1536.147
169.507, 1875.308
170.893, 2056.573
172.278, 2226.939
173.664, 2221.521
175.049, 2033.286
176.434, 1728.962
177.819, 1384.743
179.203, 1229.629
180.587, 981.620
181.971, 852.716
183.355, 730.917
184.739, 638.221
186.122, 586.631
187.505, 590.144
188.888, 620.761
190.271, 633.481
191.653, 637.304
193.035, 712.230
194.417, 791.259
195.799, 888.388
197.180, 1055.619
198.562, 1219.951
199.943, 1350.382
201.324, 1647.913
202.704, 1839.541
204.084, 2117.267
205.465, 2346.089
206.844, 2607.008
208.224, 2886.022
209.603, 2953.129
210.983, 2859.330
212.362, 2703.623
213.740, 2358.167
215.119, 2086.642
216.497, 1760.974
217.875, 1690.132
219.253, 1502.091
220.631, 1476.856
222.008, 1467.409
223.385, 1632.708
224.762, 1868.790
226.139, 2130.696
227.515, 2558.426
228.891, 2845.946
230.267, 3179.057
231.643, 3177.786
233.018, 2987.222
234.394, 2688.591
235.769, 2282.026
237.144, 1999.357
238.518, 1805.668
239.893, 1780.696
241.267, 1799.624
242.641, 2052.175
244.014, 2255.097
245.388, 2534.373
246.761, 2964.921
248.134, 3261.746
249.507, 3646.865
250.879, 3787.286
252.252, 3712.896
253.624, 3577.085
254.996, 3301.580
256.367, 3011.552
257.739, 2711.169
259.110, 2315.013
260.481, 2078.051
261.852, 1847.175
263.222, 1683.394
264.592, 1490.693
265.962, 1354.669
267.332, 1290.563
268.702, 1153.124
270.071, 1121.779
271.440, 1114.535
272.809, 947.376
274.178, 888.301
275.546, 844.308
276.915, 763.395
278.283, 661.559
279.650, 610.807
281.018, 417.158
282.385, 407.606
283.752, 256.166
285.119, 209.823
286.486, 264.559
287.852, 253.389
289.218, 206.306
290.584, 152.316
291.950, 115.420
293.316, 88.601
294.681, 39.866
296.046, 71.192
297.411, 13.395
298.775, 42.078
300.140, 25.379
301.504, 44.254
302.868, 92.964
304.231, 130.761
305.595, 219.621
306.958, 277.557
308.321, 425.566
309.684, 489.634
311.047, 598.781
312.409, 739.992
313.771, 803.274
315.133, 1177.625
316.495, 1200.046
317.856, 1463.540
319.217, 1690.091
320.578, 1857.701
321.939, 2105.388
323.299, 2137.133
324.660, 2117.942
326.020, 1876.807
327.380, 1628.730
328.739, 1340.716
330.099, 958.756
331.458, 783.885
332.817, 541.068
334.176, 394.316
335.534, 290.616
336.892, 213.969
338.251, 135.384
339.608, 53.848
340.966, 38.375
342.323, 27.937
343.681, 20.560
345.037, 62.251
346.394, 58.990
347.751, 134.782
349.107, 102.623
350.463, 105.511
351.819, 184.447
353.174, 287.428
354.530, 310.456
355.885, 390.529
357.240, 431.647
358.594, 541.810
359.949, 731.017
361.303, 850.267
362.657, 1106.560
364.011, 1500.897
365.365, 1829.275
366.718, 2327.695
368.071, 3124.157
369.424, 3947.659
370.777, 5093.201
372.129, 6178.783
373.481, 6982.405
374.833, 7278.066
376.185, 7063.765
377.537, 6283.499
378.888, 5163.269
380.239, 4143.074
381.590, 3117.914
382.941, 2372.791
384.291, 1828.705
385.642, 1441.658
386.992, 1172.651
388.341, 978.684
389.691, 791.758
391.040, 850.874
392.389, 788.032
393.738, 850.235
395.087, 934.484
396.435, 1068.780
397.784, 1244.215
399.132, 1473.453
400.479, 1716.951
401.827, 2041.436
403.174, 2387.969
404.521, 2724.552
405.868, 3173.184
407.215, 3613.870
408.561, 3997.620
409.908, 4489.434
411.254, 4715.312
412.599, 4986.258
413.945, 4881.267
415.290, 4903.338
416.636, 4809.465
417.980, 4767.640
419.325, 4526.817
420.670, 4331.075
422.014, 4070.620
423.358, 3621.781
424.702, 3162.016
426.045, 2605.617
427.389, 2148.612
428.732, 1772.857
430.075, 1360.138
431.417, 1078.492
432.760, 872.863
434.102, 727.045
435.444, 633.370
436.786, 484.607
438.127, 480.696
439.469, 383.584
440.810, 360.138
442.151, 343.763
443.492, 289.482
444.832, 336.828
446.172, 313.908
447.512, 267.515
448.852, 345.552
450.192, 329.284
451.531, 400.457
452.870, 376.320
454.209, 348.535
455.548, 506.020
456.887, 453.111
458.225, 534.211
459.563, 422.519
460.901, 410.786
462.238, 414.458
463.576, 296.576
464.913, 395.613
466.250, 345.778
467.587, 415.222
468.923, 420.014
470.259, 430.293
471.596, 417.888
472.931, 446.478
474.267, 518.428
475.603, 571.255
476.938, 630.904
478.273, 715.488
479.608, 660.867
480.942, 657.536
482.276, 610.283
483.611, 621.847
484.944, 586.015
486.278, 583.456
487.612, 672.551
488.945, 642.242
490.278, 738.708
491.611, 940.319
492.943, 900.803
494.276, 1092.673
495.608, 1015.172
496.940, 970.796
498.271, 795.263
499.603, 605.781
500.934, 589.307
502.265, 386.546
503.596, 333.082
504.927, 254.494
506.257, 253.040
507.587, 202.346
508.917, 188.200
510.247, 125.503
511.577, 202.063
512.906, 202.627
514.235, 271.193
515.564, 238.761
516.892, 364.331
518.221, 314.904
519.549, 426.478
520.877, 486.053
522.205, 577.629
523.533, 824.206
524.860, 843.784
526.187, 1116.361
527.514, 1344.939
528.841, 1571.517
530.167, 1965.094
531.493, 2282.670
532.820, 2667.246
534.145, 3230.819
535.471, 3514.392
536.796, 3924.964
538.122, 4014.533
539.447, 4106.099
540.771, 3861.665
542.096, 3672.227
543.420, 3265.787
544.744, 2731.344
546.068, 2573.898
547.392, 2161.449
548.715, 1778.996
550.039, 1460.539
551.362, 1201.250
552.684, 1109.613
554.007, 848.143
555.329, 741.668
556.652, 717.189
557.973, 532.705
559.295, 507.215
560.617, 387.719
561.938, 339.217
563.259, 293.708
564.580, 199.193
565.901, 200.672
567.221, 129.143
568.541, 134.606
569.861, 151.062
571.181, 61.510
572.501, 96.950
573.820, 61.380
575.139, 48.802
576.458, 43.214
577.777, 7.383
579.095, 56.999
580.414, 45.629
581.732, 20.298
583.049, 53.996
584.367, 6.741
585.685, 29.509
587.002, 66.313
588.319, 3.828
589.636, 65.051
590.952, 97.986
592.268, 24.992
593.585, 26.035
594.900, 23.116
596.216, 19.210
597.532, 2.614
598.847, 41.565
600.162, 109.791
601.477, 93.098
602.792, 151.479
604.106, 96.965
605.420, 19.527
606.734, 94.129
608.048, 53.805
609.361, 94.539
610.675, 88.349
611.988, 25.233
613.301, 63.161
614.614, 61.849
615.926, 72.154
617.238, 35.775
618.550, 5.312
619.862, 99.435
621.174, 35.638
622.485, 84.891
623.797, 17.781
625.108, 39.571
626.418, 27.975
627.729, 84.573
629.039, 57.892
630.349, 11.582
631.659, 11.973
632.969, 9.567
634.279, 6.199
635.588, 21.867
636.897, 62.421
638.206, 39.694
639.515, 41.050
640.823, 46.152
642.131, 3.337
643.439, 57.491
644.747, 26.631
646.055, 12.749
647.362, 114.839
648.669, 106.084
649.976, 76.907
651.283, 8.115
652.589, 59.825
653.896, 46.752
655.202, 1.337
656.508, 84.541
657.814, 70.406
659.119, 2.257
660.424, 86.077
661.729, 35.115
663.034, 63.643
664.339, 20.388
665.643, 48.112
666.947, 116.822
668.251, 94.518
669.555, 141.202
670.859, 130.873
672.162, 124.532
673.465, 117.178
674.768, 114.158
676.071, 178.434
677.373, 103.044
678.676, 135.642
679.978, 116.228
681.280, 82.803
682.581, 167.366
683.883, 141.918
685.184, 162.459
686.485, 217.989
687.786, 113.509
689.087, 178.018
690.387, 165.516
691.687, 113.004
692.987, 175.497
694.287, 142.980
695.586, 296.453
696.886, 128.923
698.185, 134.383
699.484, 185.835
700.783, 108.284
702.081, 182.723
703.379, 139.154
704.677, 79.576
705.975, 155.993
707.273, 83.407
708.570, 181.813
709.868, 146.213
711.165, 66.604
712.462, 162.989
713.758, 158.365
715.055, 156.735
716.351, 181.098
717.647, 149.453
718.943, 218.802
720.238, 94.145
721.533, 223.481
722.829, 170.812
724.124, 165.137
725.418, 292.456
726.713, 141.769
728.007, 250.078
729.301, 271.381
730.595, 284.681
731.889, 337.978
733.182, 366.882
734.476, 406.594
735.769, 452.878
737.061, 430.910
738.354, 469.360
739.647, 431.771
740.939, 513.852
742.231, 466.573
743.523, 385.078
744.814, 490.581
746.106, 373.045
747.397, 368.525
748.688, 380.229
749.978, 270.822
751.269, 377.538
752.559, 305.434
753.849, 415.563
755.139, 357.061
756.429, 300.518
757.719, 415.914
759.008, 293.716
760.297, 373.815
761.586, 346.420
762.875, 255.627
764.163, 438.169
765.451, 279.302
766.739, 323.776
768.027, 468.929
769.315, 369.845
770.602, 426.184
771.890, 386.544
773.177, 471.644
774.463, 488.900
775.750, 467.634
777.036, 619.100
778.323, 598.676
779.609, 681.154
780.894, 805.390
782.180, 839.306
783.465, 1031.764
784.750, 1034.936
786.035, 1164.143
787.320, 1321.019
788.605, 1466.045
789.889, 1755.281
791.173, 1925.610
792.457, 2144.172
793.741, 2620.472
795.024, 3009.722
796.307, 3588.185
797.591, 4120.072
798.873, 4904.712
800.156, 5581.727
801.439, 6106.174
802.721, 6751.874
804.003, 6489.456
805.285, 6295.191
806.566, 6358.568
807.848, 6304.344
809.129, 6680.022
810.410, 7303.886
811.691, 8189.722
812.971, 9355.578
814.252, 11339.747
815.532, 13815.647
816.812, 15937.695
818.092, 17073.639
819.371, 17574.059
820.651, 17654.785
821.930, 16590.795
823.209, 14746.829
824.488, 12812.883
825.766, 11598.962
827.045, 10445.063
828.323, 9881.199
829.601, 9767.360
830.878, 9643.556
832.156, 10359.786
833.433, 11186.044
834.710, 12152.342
835.987, 14218.666
837.264, 16095.015
838.540, 19331.408
839.817, 22677.961
841.093, 27044.412
842.369, 32220.904
843.644, 36337.422
844.920, 39923.988
846.195, 39873.891
847.470, 36750.504
848.745, 32507.180
850.020, 27045.193
851.294, 22951.922
852.568, 19318.990
853.842, 16066.828
855.116, 13993.663
856.390, 12150.627
857.663, 10807.516
858.936, 9745.021
860.209, 8293.034
861.482, 7750.194
862.755, 7137.387
864.027, 6534.449
865.299, 6201.571
866.571, 5848.720
867.843, 5775.896
869.115, 5753.102
870.386, 5740.333
871.657, 6217.611
872.928, 6414.930
874.199, 7112.278
875.470, 7549.699
876.740, 8507.118
878.010, 10334.567
879.280, 11662.064
880.550, 14209.593
881.820, 17247.148
883.089, 21705.148
884.358, 27292.766
885.627, 33660.422
886.896, 40098.121
888.164, 46065.840
889.433, 48893.609
890.701, 48321.402
891.969, 43609.250
893.236, 37177.148
894.504, 32075.088
895.771, 25413.072
897.038, 20751.107
898.305, 17309.188
899.572, 13777.321
900.838, 11875.516
902.105, 10103.769
903.371, 8502.064
904.637, 7500.402
905.902, 6368.791
907.168, 5837.216
908.433, 5090.689
909.698, 4603.244
910.963, 4269.856
912.228, 3781.547
913.492, 3680.300
914.757, 3226.096
916.021, 2928.956
917.285, 2919.868
918.548, 2511.845
919.812, 2583.887
921.075, 2321.974
922.338, 2100.119
923.601, 2148.294
924.864, 1991.526
926.126, 1944.985
927.388, 1961.291
928.650, 1752.661
929.912, 1780.090
931.174, 1507.580
932.435, 1512.215
933.697, 1394.790
934.958, 1209.411
936.218, 1224.064
937.479, 996.771
938.739, 996.515
940.000, 1019.303
941.260, 793.132
942.520, 901.006
943.779, 848.927
945.039, 874.877
946.298, 973.862
947.557, 907.896
948.816, 922.960
950.074, 1057.063
951.333, 856.195
952.591, 959.360
953.849, 749.561
955.107, 696.790
956.365, 687.086
957.622, 492.411
958.879, 660.777
960.136, 467.174
961.393, 386.600
962.650, 529.062
963.906, 310.557
965.162, 431.079
966.418, 397.636
967.674, 227.222
968.930, 334.853
970.185, 275.511
971.441, 264.201
972.696, 290.918
973.950, 142.664
975.205, 278.436
976.459, 210.238
977.714, 142.067
978.968, 242.623
980.222, 150.511
981.475, 121.386
982.729, 221.519
983.982, 24.485
985.235, 168.621
986.488, 44.637
987.740, 39.678
988.993, 98.111
990.245, 14.795
991.497, 118.718
992.749, 5.599
994.000, 41.761
995.252, 111.729
996.503, 128.061
997.754, 40.142
999.005, 64.052
1000.256, 67.698
1001.506, 67.634
1002.756, 24.920
1004.006, 57.621
1005.256, 32.668
1006.506, 10.002
1007.755, 64.346
1009.005, 36.468
1010.254, 55.086
1011.502, 14.771
1012.751, 13.877
1014.000, 22.552
1015.248, 7.333
1016.496, 68.798
1017.744, 161.283
1018.991, 23.821
1020.239, 100.341
1021.486, 176.241
1022.733, 17.334
1023.980, 156.917
1025.227, 1.224
1026.473, 105.482
1027.719, 167.112
1028.965, 52.398
1030.211, 135.052
1031.457, 164.468
1032.702, 22.851
1033.948, 136.840
1035.193, 43.722
1036.438, 145.819
1037.682, 165.648
1038.927, 49.499
1040.171, 180.372
1041.415, 119.413
1042.659, 67.836
1043.903, 173.581
1045.146, 58.602
1046.390, 83.117
1047.633, 101.193
1048.876, 46.986
1050.118, 92.942
1051.361, 14.646
1052.603, 83.215
1053.845, 142.106
1055.087, 4.766
1056.329, 82.672
1057.571, 114.616
1058.812, 48.924
1060.053, 171.853
1061.294, 32.835
1062.535, 77.830
1063.775, 128.778
1065.016, 24.285
1066.256, 137.242
1067.496, 52.553
1068.736, 61.709
1069.975, 135.678
1071.214, 19.218
1072.454, 183.249
1073.693, 182.230
1074.931, 5.691
1076.170, 132.292
1077.408, 61.276
1078.647, 75.916
1079.885, 200.902
1081.122, 30.032
1082.360, 166.048
1083.597, 98.023
1084.835, 79.539
1086.072, 243.513
1087.308, 66.501
1088.545, 161.770
1089.781, 169.739
1091.018, 64.943
1092.254, 165.110
1093.490, 90.072
1094.725, 131.997
1095.961, 175.952
1097.196, 65.903
1098.431, 216.947
1099.666, 153.891
1100.900, 71.979
1102.135, 147.941
1103.369, 53.897
1104.603, 81.460
1105.837, 189.454
1107.071, 78.505
1108.304, 165.055
1109.538, 94.956
1110.771, 32.889
1112.004, 81.362
1113.236, 32.240
1114.469, 47.146
1115.701, 84.103
1116.933, 48.958
1118.165, 114.939
1119.397, 34.776
1120.629, 40.677
1121.860, 155.797
1123.091, 44.605
1124.322, 53.239
1125.553, 111.047
1126.783, 35.174
1128.014, 141.226
1129.244, 21.035
1130.474, 39.966
1131.704, 104.081
1132.933, 53.262
1134.163, 24.390
1135.392, 121.264
1136.621, 54.151
1137.850, 112.465
1139.079, 5.150
1140.307, 41.656
1141.535, 106.059
1142.763, 72.507
1143.991, 81.520
1145.219, 73.686
1146.446, 70.972
1147.674, 141.121
1148.901, 3.072
1150.128, 2.311
1151.354, 80.787
1152.581, 58.063
1153.807, 52.211
1155.033, 38.400
1156.259, 37.492
1157.485, 49.189
1158.710, 9.393
1159.936, 31.567
1161.161, 125.463
1162.386, 91.582
1163.611, 77.292
1164.835, 49.776
1166.060, 41.618
1167.284, 76.552
1168.508, 25.231
1169.732, 27.472
1170.955, 54.294
1172.179, 21.943
1173.402, 45.716
1174.625, 61.119
1175.848, 42.273
1177.070, 122.516
1178.293, 26.191
1179.515, 144.696
1180.737, 85.900
1181.959, 16.633
1183.181, 40.786
1184.402, 61.592
1185.624, 61.967
1186.845, 62.489
1188.066, 19.397
1189.286, 36.706
1190.507, 29.422
1191.727, 60.027
1192.947, 38.252
1194.167, 23.866
1195.387, 32.032
1196.607, 77.168
1197.826, 4.106
1199.045, 42.962
1200.264, 180.003
1201.483, 16.022
1202.702, 192.004
1203.920, 102.371
1205.138, 10.690
1206.356, 133.197
1207.574, 102.258
1208.792, 102.101
1210.009, 178.303
1211.227, 56.102
1212.444, 179.873
1213.661, 69.623
1214.877, 35.346
1216.094, 179.037
1217.310, 59.886
1218.526, 114.528
1219.742, 144.146
1220.958, 106.821
1222.173, 176.200
1223.389, 144.751
1224.604, 6.279
1225.819, 206.762
1227.034, 116.310
1228.248, 110.639
1229.463, 225.051
1230.677, 67.628
1231.891, 156.991
1233.105, 136.333
1234.318, 88.677
1235.532, 257.968
1236.745, 41.298
1237.958, 102.537
1239.171, 159.752
1240.384, 51.959
1241.596, 151.123
1242.809, 153.264
1244.021, 126.525
1245.233, 182.615
1246.444, 115.737
1247.656, 145.816
1248.867, 146.835
1250.079, 70.878
1251.290, 136.842
1252.500, 122.782
1253.711, 71.888
1254.921, 294.766
1256.132, 148.620
1257.342, 76.508
1258.552, 196.305
1259.761, 152.077
1260.971, 138.821
1262.180, 214.541
1263.389, 130.233
1264.598, 206.898
1265.807, 146.539
1267.015, 106.177
1268.223, 202.767
1269.432, 65.324
1270.640, 161.873
1271.847, 198.377
1273.055, 33.153
1274.262, 267.216
1275.470, 98.672
1276.677, 93.868
1277.883, 184.230
1279.090, 149.426
1280.296, 102.743
1281.503, 216.027
1282.709, 42.917
1283.915, 201.312
1285.120, 168.111
1286.326, 96.541
1287.531, 197.677
1288.736, 55.009
1289.941, 120.099
1291.146, 234.180
1292.350, 41.551
1293.555, 175.639
1294.759, 156.580
1295.963, 54.406
1297.167, 205.368
1298.370, 105.333
1299.574, 98.256
1300.777, 278.159
1301.980, 89.222
1303.183, 84.229
1304.386, 89.150
1305.588, 14.489
1306.790, 142.287
1307.993, 135.733
1309.195, 33.490
1310.396, 169.342
1311.598, 99.020
1312.799, 50.710
1314.000, 186.017
1315.201, 9.124
1316.402, 102.738
1317.603, 106.072
1318.803, 16.553
1320.003, 166.106
1321.203, 58.000
1322.403, 77.521
1323.603, 156.273
1324.802, 81.757
1326.002, 121.203
1327.201, 113.454
1328.400, 4.517
1329.599, 152.776
1330.797, 68.039
1331.995, 19.275
1333.194, 105.678
1334.392, 11.648
1335.589, 126.700
1336.787, 148.766
1337.985, 29.331
1339.182, 152.330
1340.379, 147.604
1341.576, 10.292
1342.772, 166.058
1343.969, 128.534
1345.165, 106.681
1346.361, 213.054
1347.557, 23.172
1348.753, 137.248
1349.949, 148.952
1351.144, 47.029
1352.339, 197.047
1353.534, 22.046
1354.729, 104.077
1355.924, 236.543
1357.118, 99.553
1358.312, 121.203
1359.506, 108.144
1360.700, 8.873
1361.894, 237.535
1363.088, 147.604
1364.281, 70.564
1365.474, 208.426
1366.667, 113.515
1367.860, 94.463
1369.052, 245.759
1370.245, 64.777
1371.437, 97.617
1372.629, 184.438
1373.821, 42.046
1375.013, 168.694
1376.204, 135.074
1377.395, 79.130
1378.586, 147.971
1379.777, 67.239
1380.968, 166.460
1382.159, 220.541
1383.349, 78.495
1384.539, 113.885
1385.729, 220.710
1386.919, 45.023
1388.109, 239.304
1389.298, 65.190
1390.487, 68.972
1391.676, 271.666
1392.865, 65.045
1394.054, 177.847
1395.242, 253.542
1396.431, 25.292
1397.619, 212.088
1398.807, 125.703
1399.995, 56.016
1401.182, 166.344
1402.370, 105.658
1403.557, 149.494
1404.744, 253.991
1405.931, 121.624
1407.118, 113.535
1408.304, 307.003
1409.490, 58.425
1410.676, 99.535
1411.862, 166.281
1413.048, 56.943
1414.234, 209.756
1415.419, 121.666
1416.604, 30.160
1417.789, 258.344
1418.974, 56.881
1420.159, 105.998
1421.343, 207.475
1422.528, 96.133
1423.712, 229.650
1424.896, 186.124
1426.079, 7.909
1427.263, 240.472
1428.446, 61.368
1429.629, 113.304
1430.812, 193.852
1431.995, 46.397
1433.178, 120.249
1434.360, 165.476
1435.543, 30.351
1436.725, 168.870
1437.907, 119.377
1439.088, 94.733
1440.270, 231.201
1441.451, 114.502
1442.632, 153.928
1443.813, 221.204
1444.994, 4.633
1446.175, 112.672
1447.355, 239.007
1448.535, 47.257
1449.715, 111.616
1450.895, 166.926
1452.075, 7.934
1453.255, 206.124
1454.434, 100.329
1455.613, 57.502
1456.792, 191.325
1457.971, 85.628
1459.149, 104.787
1460.328, 247.105
1461.506, 47.429
1462.684, 108.766
1463.862, 215.040
1465.040, 51.357
1466.217, 225.733
1467.395, 136.474
1468.572, 76.786
1469.749, 275.089
1470.925, 119.444
1472.102, 159.311
1473.278, 275.773
1474.455, 12.736
1475.631, 133.773
1476.807, 118.090
1477.982, 67.642
1479.158, 202.231
1480.333, 119.832
1481.508, 63.859
1482.683, 192.475
1483.858, 158.108
1485.033, 76.235
1486.207, 239.909
1487.381, 60.629
