##NAMES=Adamite
##RRUFFID=R050020
##IDEAL CHEMISTRY=Zn^2+^_2_As^5+^O_4_(OH)
##LOCALITY=Mina Ojuela, Mapimi, Durango, Mexico
##OWNER=RRUFF
##SOURCE=Eugene Schlepp
##DESCRIPTION=Light green prismatic crystal
##STATUS=The identification of this mineral has been confirmed by X-ray diffraction and chemical analysis
##URL=rruff.info/R050020
##MEASURED CHEMISTRY=(Zn_1.97_Cu_0.03_)_Σ=2_((As_0.98_P_0.02_)_Σ=1_O_4_)(OH)
##PIN_ID=L00511
##ORIENTATION=Laser parallel to a* (1 0 0). Fiducial mark perpendicular to laser is parallel to b [0 1 0]
121.843, 0.000
123.240, 767.918
124.636, 119.236
126.031, 743.260
127.427, 1012.305
128.822, 886.801
130.217, 1735.695
131.612, 1431.518
133.006, 2342.789
134.400, 1838.199
135.794, 2327.021
137.188, 2060.895
138.581, 1726.145
139.975, 2063.160
141.368, 1131.605
142.760, 1472.787
144.153, 653.795
145.545, 866.277
146.937, 599.988
148.329, 224.576
149.720, 649.871
151.112, 114.037
152.503, 473.000
153.893, 29.213
155.284, 399.008
156.674, 290.797
158.064, 198.297
159.454, 556.293
160.843, 54.797
162.233, 613.695
163.622, 15.984
165.011, 454.928
166.399, 357.285
167.787, 381.906
169.175, 886.748
170.563, 340.738
171.951, 1003.934
173.338, 776.373
174.725, 1018.164
176.112, 829.982
177.499, 592.797
178.885, 696.480
180.271, 191.865
181.657, 747.742
183.043, 77.016
184.428, 491.961
185.813, 425.953
187.198, 29.053
188.583, 681.398
189.967, 166.633
191.351, 815.238
192.735, 177.041
194.119, 398.568
195.502, 499.426
196.885, 182.756
198.268, 827.131
199.651, 134.947
201.033, 807.973
202.415, 380.088
203.797, 697.553
205.179, 779.256
206.561, 572.816
207.942, 1160.504
209.323, 813.318
210.703, 1284.971
212.084, 717.887
213.464, 906.662
214.844, 1178.803
216.224, 518.824
217.603, 1198.773
218.983, 479.723
220.362, 779.471
221.741, 559.139
223.119, 498.725
224.497, 938.227
225.875, 467.641
227.253, 1241.121
228.631, 968.867
230.008, 1388.094
231.385, 1488.084
232.762, 943.895
234.139, 1480.352
235.515, 702.537
236.891, 1394.254
238.267, 783.293
239.643, 892.104
241.018, 1238.201
242.393, 377.129
243.768, 1287.246
245.143, 572.822
246.517, 1386.568
247.891, 1140.260
249.265, 1403.881
250.639, 1817.426
252.012, 1280.889
253.386, 1914.270
254.759, 1246.330
256.131, 1557.936
257.504, 1425.600
258.876, 1089.473
260.248, 1472.121
261.620, 596.957
262.991, 1326.727
264.363, 548.504
265.734, 860.170
267.104, 941.746
268.475, 523.230
269.845, 844.623
271.215, 175.928
272.585, 977.146
273.955, 318.287
275.324, 709.338
276.693, 821.469
278.062, 302.328
279.431, 934.717
280.799, 125.324
282.167, 475.840
283.535, 427.689
284.903, 51.994
286.270, 682.090
287.638, 91.459
289.005, 686.000
290.371, 193.959
291.738, 342.256
293.104, 450.785
294.470, 40.523
295.836, 628.611
297.201, 292.586
298.567, 486.119
299.932, 95.160
301.296, 263.480
302.661, 531.988
304.025, 209.518
305.389, 638.824
306.753, 147.121
308.117, 795.328
309.480, 673.477
310.843, 591.559
312.206, 1089.568
313.569, 447.506
314.931, 1415.379
316.293, 1181.031
317.655, 1228.752
319.017, 1596.076
320.378, 1133.611
321.740, 1770.902
323.101, 1048.107
324.461, 1455.217
325.822, 1052.232
327.182, 799.152
328.542, 1065.781
329.902, 302.490
331.261, 839.076
332.621, 195.539
333.980, 491.855
335.339, 508.049
336.697, 95.875
338.056, 410.004
339.414, 204.234
340.772, 271.305
342.129, 96.713
343.487, 88.037
344.844, 457.002
346.201, 388.086
347.557, 666.516
348.914, 89.006
350.270, 94.730
351.626, 179.346
352.982, 186.717
354.337, 699.902
355.693, 176.494
357.048, 576.900
358.402, 90.205
359.757, 253.365
361.111, 486.352
362.465, 100.787
363.819, 881.898
365.173, 74.473
366.526, 586.850
367.879, 769.049
369.232, 511.010
370.585, 1362.854
371.937, 634.627
373.290, 1606.197
374.642, 1237.451
375.993, 1458.459
377.345, 1619.201
378.696, 839.850
380.047, 1450.439
381.398, 530.973
382.748, 671.447
384.099, 751.867
385.449, 92.275
386.799, 762.598
388.148, 92.867
389.497, 553.055
390.847, 16.828
392.196, 33.225
393.544, 533.053
394.893, 237.344
396.241, 642.027
397.589, 11.227
398.936, 310.164
400.284, 578.820
401.631, 77.254
402.978, 1125.480
404.325, 383.625
405.672, 1150.303
407.018, 1088.270
408.364, 616.162
409.710, 1484.031
411.055, 691.879
412.401, 1649.703
413.746, 917.508
415.091, 995.293
416.435, 1563.059
417.780, 710.766
419.124, 1738.418
420.468, 1025.988
421.812, 1284.480
423.155, 1181.846
424.498, 529.105
425.842, 1406.352
427.184, 203.361
428.527, 970.582
429.869, 777.799
431.211, 524.732
432.553, 991.934
433.895, 162.828
435.236, 1190.014
436.577, 354.494
437.918, 611.674
439.259, 1158.842
440.599, 153.223
441.940, 1130.375
443.280, 60.215
444.619, 737.047
445.959, 663.496
447.298, 310.498
448.637, 1017.623
449.976, 196.121
451.315, 893.199
452.653, 575.371
453.991, 490.787
455.329, 947.314
456.667, 148.695
458.004, 1210.521
459.341, 345.916
460.678, 792.574
462.015, 1060.352
463.352, 323.869
464.688, 1124.904
466.024, 535.162
467.360, 1021.922
468.695, 1221.957
470.031, 638.676
471.366, 1605.375
472.701, 572.055
474.035, 1648.719
475.370, 1398.789
476.704, 1335.418
478.038, 1775.766
479.372, 922.373
480.705, 2138.971
482.038, 1215.555
483.371, 1152.129
484.704, 1958.691
486.037, 645.244
487.369, 1761.789
488.701, 978.330
490.033, 1174.861
491.365, 1168.729
492.696, 835.254
494.027, 1406.473
495.358, 522.738
496.689, 1179.141
498.019, 1045.906
499.350, 451.365
500.680, 1451.348
502.009, 304.578
503.339, 1382.350
504.668, 779.691
505.997, 625.768
507.326, 1384.342
508.655, 340.926
509.983, 1298.367
511.311, 475.500
512.639, 736.648
513.967, 1278.129
515.295, 334.840
516.622, 1307.398
517.949, 388.863
519.276, 1007.309
520.602, 1200.809
521.929, 357.645
523.255, 1255.391
524.581, 512.648
525.906, 1110.875
527.232, 927.855
528.557, 764.871
529.882, 1611.926
531.207, 404.094
532.531, 1701.230
533.855, 978.406
535.179, 1285.633
536.503, 1842.902
537.827, 983.379
539.150, 1960.746
540.473, 1268.164
541.796, 1185.633
543.119, 1873.160
544.441, 669.875
545.764, 1400.434
547.086, 898.117
548.407, 1058.941
549.729, 1316.742
551.050, 230.461
552.371, 1239.105
553.692, 507.082
555.013, 899.801
556.333, 897.906
557.653, 278.805
558.973, 1196.371
560.293, 194.684
561.612, 986.352
562.932, 664.805
564.251, 134.848
565.569, 1303.457
566.888, 192.148
568.206, 1170.914
569.524, 289.762
570.842, 488.688
572.160, 1127.691
573.477, 16.781
574.795, 1165.949
576.112, 225.199
577.428, 254.539
578.745, 753.957
580.061, 26.535
581.377, 923.051
582.693, 242.723
584.009, 522.484
585.324, 1052.340
586.639, 21.184
587.954, 1271.223
589.269, 121.355
590.583, 361.582
591.897, 961.906
593.212, 30.777
594.525, 1341.320
595.839, 281.973
597.152, 592.723
598.465, 983.574
599.778, 223.121
601.091, 1284.184
602.403, 131.367
603.716, 542.668
605.028, 994.074
606.339, 105.633
607.651, 1247.297
608.962, 69.070
610.273, 721.023
611.584, 733.109
612.895, 115.309
614.205, 1297.617
615.515, 160.305
616.825, 972.254
618.135, 915.055
619.444, 2.027
620.754, 1341.082
622.063, 145.680
623.372, 857.641
624.680, 751.188
625.989, 204.855
627.297, 1108.668
628.605, 72.602
629.912, 1096.656
631.220, 620.828
632.527, 144.879
633.834, 1159.508
635.141, 135.988
636.447, 1148.613
637.754, 613.332
639.060, 338.180
640.366, 933.156
641.671, 68.254
642.977, 953.488
644.282, 568.848
645.587, 214.336
646.892, 1469.957
648.196, 25.711
649.501, 941.605
650.805, 777.633
652.109, 153.824
653.412, 1290.152
654.716, 76.609
656.019, 1173.297
657.322, 320.125
658.625, 507.203
659.927, 1054.438
661.230, 31.852
662.532, 859.492
663.834, 327.281
665.135, 385.375
666.437, 1183.605
667.738, 12.074
669.039, 950.770
670.340, 369.637
671.640, 218.758
672.940, 1328.027
674.241, 182.449
675.540, 1077.191
676.840, 437.020
678.139, 397.012
679.439, 1087.156
680.738, 22.465
682.036, 1008.059
683.335, 278.777
684.633, 499.648
685.931, 1040.719
687.229, 198.055
688.527, 1423.281
689.824, 344.805
691.121, 356.480
692.418, 1028.375
693.715, 139.574
695.012, 942.605
696.308, 424.941
697.604, 27.438
698.900, 1090.094
700.195, 317.090
701.491, 1055.809
702.786, 538.941
704.081, 132.234
705.376, 845.727
706.670, 540.629
707.964, 813.082
709.259, 247.008
710.552, 321.102
711.846, 445.469
713.139, 419.961
714.433, 1074.707
715.726, 219.539
717.018, 544.543
718.311, 1009.742
719.603, 84.895
720.895, 840.625
722.187, 496.312
723.479, 382.164
724.770, 1118.191
726.061, 254.383
727.352, 1150.742
728.643, 387.273
729.934, 453.977
731.224, 1060.848
732.514, 437.895
733.804, 1285.105
735.094, 422.488
736.383, 649.078
737.672, 1406.824
738.961, 54.738
740.250, 1102.832
741.539, 1071.098
742.827, 489.535
744.115, 1768.152
745.403, 96.941
746.691, 1255.910
747.978, 1085.051
749.265, 194.383
750.552, 1713.879
751.839, 33.555
753.126, 923.410
754.412, 1143.438
755.698, 273.652
756.984, 1454.043
758.270, 184.621
759.555, 695.383
760.840, 1226.316
762.125, 187.430
763.410, 1358.719
764.695, 460.188
765.979, 931.832
767.263, 983.648
768.547, 315.645
769.831, 1447.816
771.114, 125.270
772.398, 1197.801
773.681, 1150.504
774.964, 133.238
776.246, 1636.297
777.529, 635.277
778.811, 878.684
780.093, 1702.266
781.375, 516.023
782.656, 2099.957
783.937, 1254.066
785.219, 1168.344
786.499, 2452.805
787.780, 933.375
789.060, 2828.184
790.341, 2379.449
791.621, 2314.605
792.901, 3729.941
794.180, 2725.453
795.459, 4891.137
796.739, 4557.000
798.017, 6343.027
799.296, 8419.238
800.575, 5695.637
801.853, 8002.207
803.131, 7588.957
804.409, 7065.879
805.686, 8502.973
806.964, 6430.301
808.241, 7677.797
809.518, 7815.469
810.795, 7083.426
812.071, 9711.562
813.347, 8469.961
814.623, 11168.594
815.899, 13227.391
817.175, 12666.492
818.450, 15115.758
819.726, 13255.195
821.001, 13464.867
822.275, 12704.727
823.550, 9424.730
824.824, 9924.906
826.098, 7675.246
827.372, 7235.781
828.646, 7543.754
829.920, 5294.625
831.193, 6935.695
832.466, 5956.930
833.739, 6198.336
835.011, 7859.559
836.284, 6821.289
837.556, 8783.203
838.828, 9425.461
840.100, 9727.703
841.371, 12685.035
842.642, 12184.184
843.914, 15036.906
845.184, 14302.676
846.455, 13225.719
847.726, 13575.805
848.996, 10209.492
850.266, 10423.059
851.536, 8526.773
852.805, 6220.645
854.075, 7095.559
855.344, 4669.594
856.613, 4883.949
857.881, 5068.488
859.150, 3053.184
860.418, 3930.051
861.686, 2857.723
862.954, 2692.875
864.222, 3288.219
865.489, 1582.191
866.756, 3085.008
868.023, 2340.922
869.290, 2146.984
870.557, 3213.199
871.823, 2009.570
873.089, 2624.574
874.355, 3191.324
875.621, 2128.223
876.886, 3845.262
878.152, 3302.531
879.417, 4039.941
880.682, 5287.527
881.946, 4685.254
883.211, 7733.129
884.475, 7421.195
885.739, 9209.406
887.003, 11147.758
888.266, 10269.332
889.530, 11718.016
890.793, 9796.859
892.056, 8305.836
893.318, 8534.953
894.581, 5554.355
895.843, 6003.895
897.105, 4593.555
898.367, 3363.504
899.629, 4493.586
900.890, 2113.828
902.152, 3134.211
903.413, 2844.727
904.673, 1335.379
905.934, 2896.156
907.194, 1377.066
908.454, 1738.109
909.714, 2069.281
910.974, 1010.582
912.234, 1912.004
913.493, 1393.551
914.752, 995.246
916.011, 1787.062
917.270, 549.000
918.528, 1731.062
919.786, 1603.242
921.044, 475.547
922.302, 2127.961
923.560, 320.520
924.817, 1353.207
926.074, 1336.012
927.331, 548.930
928.588, 1842.008
929.844, 905.223
931.101, 898.547
932.357, 1931.977
933.613, 25.520
934.868, 1819.176
936.124, 722.945
937.379, 586.812
938.634, 1870.797
939.889, 194.906
941.144, 1069.117
942.398, 1173.449
943.652, 247.891
944.906, 1852.434
946.160, 507.078
947.414, 1531.816
948.667, 1416.680
949.920, 481.637
951.173, 2149.625
952.426, 914.773
953.678, 690.016
954.931, 1765.352
956.183, 120.781
957.435, 1618.723
958.686, 834.363
959.938, 570.094
961.189, 1602.859
962.440, 148.770
963.691, 775.414
964.941, 1245.117
966.192, 161.262
967.442, 1157.508
968.692, 1013.824
969.942, 920.215
971.191, 1290.164
972.441, 6.719
973.690, 1173.691
974.939, 550.387
976.187, 237.148
977.436, 1330.840
978.684, 72.211
979.932, 854.801
981.180, 500.438
982.428, 157.641
983.675, 1285.688
984.922, 113.008
986.169, 610.391
987.416, 1122.723
988.663, 259.746
989.909, 987.750
991.155, 15.422
992.401, 176.895
993.647, 900.781
994.893, 311.492
996.138, 586.176
997.383, 604.773
998.628, 7.438
999.873, 1350.395
1001.117, 298.543
1002.362, 536.488
1003.606, 1199.070
1004.850, 232.867
1006.093, 1185.199
1007.337, 568.688
1008.580, 156.832
1009.823, 1185.301
1011.066, 66.398
1012.308, 991.926
1013.551, 959.348
1014.793, 192.273
1016.035, 1976.078
1017.277, 262.480
1018.518, 800.938
1019.760, 1611.465
1021.001, 340.020
1022.242, 2048.570
1023.483, 1018.539
1024.723, 297.129
1025.964, 2125.816
1027.204, 152.738
1028.444, 891.453
1029.683, 1357.457
1030.923, 287.023
1032.162, 1295.801
1033.401, 467.164
1034.640, 465.949
1035.879, 1624.773
1037.117, 34.961
1038.355, 1543.844
1039.593, 1176.984
1040.831, 456.945
1042.069, 2075.801
1043.306, 139.621
1044.544, 1108.484
1045.781, 1427.348
1047.017, 150.258
1048.254, 1839.105
1049.490, 885.621
1050.726, 456.457
1051.962, 1795.273
1053.198, 436.492
1054.434, 1415.281
1055.669, 914.059
1056.904, 475.980
1058.139, 1794.719
1059.374, 453.469
1060.608, 1103.172
1061.843, 1651.875
1063.077, 566.207
1064.311, 1694.977
1065.544, 1103.723
1066.778, 684.523
1068.011, 2293.219
1069.244, 582.188
1070.477, 1360.828
1071.710, 1739.434
1072.942, 481.941
1074.174, 1900.492
1075.406, 859.008
1076.638, 669.387
1077.870, 1687.836
1079.101, 366.254
1080.332, 1264.980
1081.563, 1273.309
1082.794, 443.840
1084.025, 1852.117
1085.255, 630.348
1086.485, 1060.508
1087.715, 1688.664
1088.945, 396.766
1090.175, 2056.438
1091.404, 1244.441
1092.633, 413.922
1093.862, 1851.828
1095.091, 309.680
1096.319, 993.172
1097.548, 1360.914
1098.776, 88.605
1100.004, 1616.793
1101.231, 794.348
1102.459, 463.516
1103.686, 1860.957
1104.913, 81.664
1106.140, 893.832
1107.367, 990.973
1108.593, 311.949
1109.819, 1297.480
1111.046, 205.809
1112.271, 89.348
1113.497, 816.926
1114.722, 346.871
1115.948, 972.746
1117.173, 638.547
1118.398, 75.723
1119.622, 1725.648
1120.847, 271.090
1122.071, 927.426
1123.295, 1253.238
1124.519, 48.465
1125.742, 1195.676
1126.966, 868.719
1128.189, 23.645
1129.412, 1284.121
1130.635, 278.805
1131.857, 853.398
1133.080, 1219.449
1134.302, 123.871
1135.524, 1076.617
1136.746, 1030.641
1137.967, 344.754
1139.188, 1434.086
1140.410, 401.438
1141.631, 706.191
1142.851, 1448.840
1144.072, 2.508
1145.292, 1339.902
1146.512, 703.348
1147.732, 356.637
1148.952, 1456.500
1150.172, 159.590
1151.391, 1102.551
1152.610, 1427.523
1153.829, 140.289
1155.048, 1423.789
1156.266, 387.969
1157.484, 580.383
1158.702, 1634.926
1159.920, 57.141
1161.138, 889.168
1162.356, 1156.469
1163.573, 251.711
1164.790, 1420.730
1166.007, 303.168
1167.224, 464.418
1168.440, 1299.215
1169.656, 139.750
1170.872, 1020.988
1172.088, 859.684
1173.304, 79.797
1174.519, 1720.461
1175.735, 133.512
1176.950, 443.484
1178.165, 1616.566
1179.379, 16.305
1180.594, 995.820
1181.808, 1023.348
1183.022, 42.637
1184.236, 1508.668
1185.449, 268.066
1186.663, 466.875
1187.876, 986.863
1189.089, 330.895
1190.302, 807.250
1191.515, 657.637
1192.727, 314.449
1193.939, 1813.055
1195.151, 154.137
1196.363, 431.344
1197.575, 1628.410
1198.786, 406.230
1199.997, 1343.039
1201.208, 1050.867
1202.419, 367.441
1203.630, 2073.867
1204.840, 756.926
1206.051, 563.109
1207.261, 1859.164
1208.470, 273.324
1209.680, 1479.094
1210.889, 1195.871
1212.099, 492.641
1213.308, 2258.023
1214.516, 734.727
1215.725, 859.867
1216.933, 2054.895
1218.142, 373.176
1219.350, 1617.930
1220.557, 1572.566
1221.765, 70.020
1222.972, 2164.324
1224.180, 968.844
1225.387, 773.316
1226.593, 2007.273
1227.800, 517.766
1229.006, 1961.492
1230.213, 1625.102
1231.419, 551.574
1232.624, 1934.945
1233.830, 1358.207
1235.035, 601.641
1236.241, 2104.652
1237.446, 617.895
1238.650, 1320.668
1239.855, 1673.293
1241.059, 296.023
1242.264, 2038.383
1243.468, 1000.637
1244.671, 792.363
1245.875, 2494.344
1247.078, 616.215
1248.282, 1337.961
1249.485, 1819.535
1250.687, 168.527
1251.890, 2069.762
1253.092, 1480.875
1254.295, 475.219
1255.497, 2035.969
1256.699, 915.953
1257.900, 1202.828
1259.102, 1483.203
1260.303, 333.406
1261.504, 1413.500
1262.705, 1243.410
1263.905, 189.707
1265.106, 1919.328
1266.306, 638.488
1267.506, 747.852
1268.706, 1897.094
1269.905, 10.660
1271.105, 1318.473
1272.304, 1677.199
1273.503, 72.770
1274.702, 1785.629
1275.900, 1043.125
1277.099, 531.328
1278.297, 1979.258
1279.495, 52.176
1280.693, 1139.812
1281.891, 1527.371
1283.088, 75.332
1284.285, 1362.871
1285.482, 650.039
1286.679, 497.086
1287.876, 1954.020
1289.072, 269.961
1290.268, 776.449
1291.464, 1652.809
1292.660, 98.766
1293.856, 1575.035
1295.051, 856.398
1296.247, 37.777
1297.442, 2209.191
1298.637, 639.395
1299.831, 484.809
1301.026, 1789.793
1302.220, 174.949
1303.414, 1449.973
1304.608, 895.820
1305.802, 240.613
1306.995, 1905.316
1308.188, 581.914
1309.381, 556.355
1310.574, 1759.336
1311.767, 223.512
1312.960, 1427.594
1314.152, 1380.168
1315.344, 175.965
1316.536, 1797.711
1317.728, 803.059
1318.919, 246.523
1320.110, 1702.832
1321.301, 205.254
1322.492, 858.379
1323.683, 1608.809
1324.874, 38.266
1326.064, 1514.523
1327.254, 965.766
1328.444, 81.633
1329.634, 1506.535
1330.823, 407.793
1332.013, 130.070
1333.202, 1807.297
1334.391, 229.367
1335.580, 771.355
1336.768, 1699.652
1337.956, 61.492
1339.145, 1485.578
1340.333, 875.250
1341.520, 426.859
1342.708, 2096.004
1343.895, 357.492
1345.083, 898.918
1346.270, 1877.133
1347.456, 71.535
1348.643, 1329.723
1349.829, 1409.969
1351.016, 418.836
1352.202, 1736.680
1353.387, 337.707
1354.573, 308.723
1355.759, 1937.660
1356.944, 258.688
1358.129, 1129.430
1359.314, 1830.512
1360.498, 31.648
1361.683, 2088.930
1362.867, 1681.395
1364.051, 62.828
1365.235, 2032.535
1366.419, 509.430
1367.602, 491.152
1368.785, 1737.332
1369.968, 90.656
1371.151, 1153.367
1372.334, 1765.172
1373.517, 37.129
1374.699, 2058.980
1375.881, 1212.227
1377.063, 489.246
1378.245, 2511.477
1379.426, 472.340
1380.608, 1254.820
1381.789, 2028.113
1382.970, 487.461
1384.150, 1629.797
1385.331, 1882.211
1386.511, 50.484
1387.691, 2356.172
1388.871, 1217.352
1390.051, 698.883
1391.231, 2636.523
1392.410, 489.469
1393.589, 1111.004
1394.768, 2270.504
1395.947, 401.328
1397.126, 1743.227
1398.304, 1712.781
1399.483, 511.047
1400.661, 2576.043
1401.838, 777.641
1403.016, 987.750
1404.194, 2331.797
1405.371, 688.102
1406.548, 1160.973
1407.725, 2090.395
1408.901, 564.352
1410.078, 1840.973
1411.254, 1835.094
1412.430, 354.398
1413.606, 2137.246
1414.782, 1022.051
1415.958, 586.242
1417.133, 2245.211
1418.308, 331.625
1419.483, 1394.156
1420.658, 2040.676
1421.832, 333.477
1423.007, 1528.422
1424.181, 1471.426
1425.355, 90.484
1426.529, 2198.020
1427.702, 904.988
1428.876, 662.070
1430.049, 2150.699
1431.222, 378.570
1432.395, 1002.020
1433.567, 1737.000
1434.740, 204.484
1435.912, 1885.414
1437.084, 1506.875
1438.256, 26.672
1439.428, 2389.434
1440.599, 712.559
1441.770, 262.641
1442.942, 2438.578
1444.112, 343.715
1445.283, 1038.496
1446.454, 1943.457
1447.624, 368.691
1448.794, 1747.895
1449.964, 1662.676
1451.134, 7.590
1452.303, 2152.516
1453.473, 876.770
1454.642, 591.875
1455.811, 2186.984
1456.980, 522.141
1458.148, 1087.430
1459.317, 2232.656
1460.485, 87.867
1461.653, 1472.711
1462.821, 1878.414
1463.989, 183.891
1465.156, 2210.129
1466.323, 1316.465
1467.490, 279.645
1468.657, 2695.852
1469.824, 592.293
1470.991, 460.254
1472.157, 2447.727
1473.323, 176.164
1474.489, 1519.680
1475.655, 1758.898
1476.820, 18.457
1477.986, 2228.344
1479.151, 978.699
1480.316, 496.227
1481.481, 2307.477
1482.645, 769.250
1483.810, 441.594
1484.974, 2193.262
1486.138, 546.938
1487.302, 1121.410
1488.465, 1926.832
1489.629, 283.371
1490.792, 1810.977
1491.955, 1269.934
1493.118, 336.504
1494.281, 2058.148
1495.443, 731.758
1496.606, 277.336
1497.768, 2035.359
1498.930, 416.117
1500.091, 1070.094
1501.253, 1678.207
1502.414, 121.492
1503.575, 1820.988
1504.736, 1448.586
1505.897, 8.598
1507.058, 2207.508
1508.218, 0.000
##END=



