##NAMES=Adamite
##RRUFFID=R040130
##IDEAL CHEMISTRY=Zn^2+^_2_As^5+^O_4_(OH)
##LOCALITY=Mina Ojuela, Mapimi, Durango, Mexico
##OWNER=RRUFF
##SOURCE=Bob Downs
##DESCRIPTION=Pale yellow spherical aggregate of bladed crystals
##STATUS=The identification of this mineral has been confirmed by X-ray diffraction and chemical analysis
##URL=rruff.info/R040130
##MEASURED CHEMISTRY=Zn_1.97_(As_1.01_O_4_)(OH)
##PIN_ID=S00334
##ORIENTATION=Laser parallel to -b* (0 -1 0). Fiducial mark perpendicular to laser is parallel to c [0 0 1]
123.981, 0.000
125.369, 72.816
126.758, 254.867
128.146, 9.150
129.534, 420.389
130.922, 278.598
132.309, 266.262
133.696, 59.707
135.083, 127.703
136.470, 193.375
137.857, 261.191
139.243, 220.246
140.630, 355.426
142.016, 307.156
143.401, 377.014
144.787, 262.791
146.172, 259.260
147.557, 234.607
148.942, 278.691
150.327, 294.643
151.711, 233.582
153.096, 554.994
154.480, 443.197
155.863, 243.709
157.247, 534.172
158.630, 374.309
160.013, 370.119
161.396, 325.256
162.779, 485.486
164.161, 479.428
165.544, 478.176
166.926, 505.680
168.308, 587.285
169.689, 557.564
171.070, 780.902
172.452, 750.627
173.833, 642.043
175.213, 657.842
176.594, 365.514
177.974, 617.336
179.354, 781.355
180.734, 469.498
182.114, 546.752
183.493, 800.213
184.872, 538.770
186.251, 673.521
187.630, 427.469
189.008, 512.324
190.387, 605.859
191.765, 495.752
193.143, 660.725
194.520, 331.971
195.898, 657.904
197.275, 501.574
198.652, 741.834
200.029, 550.068
201.405, 642.268
202.782, 456.688
204.158, 822.104
205.534, 775.850
206.909, 411.410
208.285, 652.439
209.660, 916.932
211.035, 738.346
212.410, 858.584
213.784, 764.477
215.159, 754.631
216.533, 984.234
217.907, 952.295
219.281, 925.771
220.654, 782.703
222.027, 1061.729
223.400, 813.383
224.773, 1037.562
226.146, 1053.738
227.518, 1154.102
228.891, 1054.893
230.263, 1176.209
231.634, 1069.371
233.006, 893.723
234.377, 919.764
235.748, 848.990
237.119, 776.789
238.490, 819.469
239.860, 822.203
241.231, 855.279
242.601, 997.771
243.970, 981.707
245.340, 1113.598
246.709, 741.428
248.079, 1298.189
249.448, 900.859
250.816, 1140.443
252.185, 855.930
253.553, 973.314
254.921, 1032.592
256.289, 1045.762
257.657, 798.830
259.024, 649.803
260.391, 709.676
261.758, 481.443
263.125, 631.090
264.492, 562.611
265.858, 479.027
267.224, 598.355
268.590, 207.586
269.956, 614.734
271.321, 624.807
272.687, 671.805
274.052, 432.727
275.416, 528.562
276.781, 620.303
278.146, 402.953
279.510, 223.477
280.874, 265.943
282.237, 270.342
283.601, 121.314
284.964, 128.084
286.327, 190.973
287.690, 76.285
289.053, 248.068
290.416, 280.215
291.778, 8.256
293.140, 183.105
294.502, 283.709
295.863, 18.248
297.225, 84.955
298.586, 124.803
299.947, 14.529
301.308, 150.328
302.668, 35.359
304.029, 28.408
305.389, 7.021
306.749, 27.650
308.108, 80.518
309.468, 184.502
310.827, 13.230
312.186, 81.238
313.545, 94.064
314.903, 63.166
316.262, 89.115
317.620, 172.740
318.978, 139.279
320.336, 200.482
321.693, 247.660
323.051, 280.672
324.408, 38.502
325.765, 292.121
327.121, 90.404
328.478, 123.148
329.834, 13.160
331.190, 158.621
332.546, 147.785
333.902, 224.535
335.257, 95.326
336.612, 120.559
337.967, 210.250
339.322, 55.777
340.677, 114.670
342.031, 75.148
343.385, 108.820
344.739, 51.604
346.093, 135.045
347.446, 106.693
348.799, 26.436
350.153, 168.455
351.505, 143.732
352.858, 77.279
354.210, 452.949
355.563, 160.172
356.915, 180.605
358.267, 394.172
359.618, 113.377
360.969, 435.998
362.321, 342.971
363.672, 375.629
365.022, 504.426
366.373, 458.955
367.723, 484.646
369.073, 496.764
370.423, 630.766
371.773, 642.035
373.122, 382.031
374.471, 620.527
375.821, 606.092
377.169, 757.738
378.518, 366.980
379.866, 565.164
381.215, 621.875
382.563, 451.242
383.910, 598.512
385.258, 656.160
386.605, 888.723
387.952, 362.277
389.299, 530.738
390.646, 598.035
391.992, 880.215
393.339, 429.324
394.685, 718.422
396.031, 1244.836
397.376, 637.355
398.722, 820.020
400.067, 924.914
401.412, 663.324
402.757, 1234.859
404.101, 1020.816
405.446, 715.664
406.790, 881.539
408.134, 1098.434
409.478, 1136.000
410.821, 1205.938
412.165, 1294.785
413.508, 1308.887
414.851, 1342.848
416.193, 1197.918
417.536, 1106.012
418.878, 1244.137
420.220, 1225.273
421.562, 1255.988
422.904, 1385.340
424.245, 1376.762
425.586, 1478.297
426.927, 1652.250
428.268, 1570.977
429.609, 1321.113
430.949, 1430.020
432.289, 1540.277
433.629, 1368.777
434.969, 1847.355
436.309, 1408.148
437.648, 1711.414
438.987, 1561.145
440.326, 1270.219
441.665, 1507.938
443.003, 1867.992
444.342, 1570.426
445.680, 1577.160
447.018, 1789.828
448.355, 1360.277
449.693, 1451.910
451.030, 1694.859
452.367, 2001.906
453.704, 1301.180
455.041, 1674.262
456.377, 1640.562
457.713, 1637.867
459.049, 1683.914
460.385, 1654.590
461.721, 2067.379
463.056, 1731.785
464.391, 1851.566
465.726, 2190.305
467.061, 2005.180
468.395, 1921.930
469.730, 2235.348
471.064, 1901.594
472.398, 2335.391
473.731, 1935.473
475.065, 2120.090
476.398, 2148.738
477.731, 2269.559
479.064, 2215.023
480.397, 2285.828
481.729, 2346.145
483.062, 2214.398
484.394, 2119.188
485.725, 2240.789
487.057, 2140.816
488.389, 2190.613
489.720, 1997.586
491.051, 2310.703
492.382, 2261.371
493.712, 2185.535
495.043, 1933.676
496.373, 1959.648
497.703, 2190.141
499.032, 2126.516
500.362, 2103.469
501.691, 2098.406
503.020, 1838.910
504.349, 2156.117
505.678, 2164.461
507.007, 1756.148
508.335, 1969.738
509.663, 2036.152
510.991, 1961.355
512.319, 1862.383
513.646, 2144.230
514.973, 1852.848
516.300, 2136.535
517.627, 2460.340
518.954, 1818.242
520.280, 2222.879
521.607, 1789.984
522.933, 2074.184
524.259, 1821.488
525.584, 1934.891
526.910, 2222.406
528.235, 1940.023
529.560, 2220.750
530.885, 1599.598
532.209, 1716.562
533.534, 1905.637
534.858, 2035.840
536.182, 1960.590
537.506, 2070.031
538.829, 1931.055
540.152, 1755.750
541.476, 2193.559
542.799, 1625.508
544.121, 1787.586
545.444, 2311.789
546.766, 1717.012
548.088, 2058.484
549.410, 1627.094
550.732, 2183.828
552.053, 1927.105
553.375, 1560.121
554.696, 1670.438
556.017, 1831.730
557.337, 1790.172
558.658, 1915.750
559.978, 1581.770
561.298, 1985.660
562.618, 1429.691
563.938, 1578.875
565.257, 1989.207
566.576, 1364.691
567.895, 1746.316
569.214, 1906.094
570.533, 1597.027
571.851, 1531.691
573.170, 1842.922
574.488, 1517.312
575.805, 1560.852
577.123, 1364.547
578.440, 1496.395
579.758, 1757.398
581.075, 1128.562
582.391, 1623.891
583.708, 1625.387
585.024, 1252.043
586.341, 1470.863
587.657, 1879.859
588.972, 1701.012
590.288, 1554.363
591.603, 992.031
592.918, 1567.707
594.233, 1391.902
595.548, 1775.914
596.863, 1287.562
598.177, 1225.910
599.491, 1418.430
600.805, 1247.965
602.119, 1230.859
603.432, 1661.043
604.746, 1504.375
606.059, 1379.059
607.372, 1010.844
608.685, 1559.867
609.997, 1103.371
611.309, 1190.867
612.621, 865.500
613.933, 1290.414
615.245, 1176.625
616.557, 1258.051
617.868, 1197.727
619.179, 1346.266
620.490, 913.426
621.801, 1320.168
623.111, 1154.824
624.421, 1580.973
625.731, 775.074
627.041, 1359.406
628.351, 989.945
629.660, 839.766
630.970, 1530.805
632.279, 959.094
633.588, 1054.590
634.896, 702.301
636.205, 1163.219
637.513, 702.344
638.821, 1135.672
640.129, 1160.195
641.437, 1135.910
642.744, 715.812
644.051, 912.957
645.358, 954.285
646.665, 931.867
647.972, 915.711
649.278, 796.781
650.584, 696.051
651.890, 751.301
653.196, 779.324
654.502, 856.309
655.807, 658.504
657.113, 701.898
658.418, 656.043
659.722, 839.320
661.027, 736.375
662.331, 520.645
663.636, 841.148
664.940, 141.918
666.244, 905.957
667.547, 311.211
668.851, 779.668
670.154, 693.332
671.457, 336.207
672.760, 1018.309
674.062, 665.617
675.365, 525.125
676.667, 556.844
677.969, 768.770
679.271, 477.945
680.572, 205.328
681.874, 664.918
683.175, 796.715
684.476, 551.719
685.777, 640.934
687.077, 154.359
688.378, 774.988
689.678, 417.828
690.978, 499.879
692.278, 387.859
693.577, 964.523
694.877, 199.891
696.176, 910.875
697.475, 48.848
698.774, 744.031
700.072, 431.430
701.371, 352.039
702.669, 102.145
703.967, 446.871
705.265, 767.098
706.562, 405.535
707.860, 121.809
709.157, 552.031
710.454, 111.906
711.751, 495.340
713.047, 196.809
714.344, 560.480
715.640, 115.625
716.936, 283.453
718.232, 542.746
719.527, 93.258
720.823, 160.980
722.118, 310.918
723.413, 132.066
724.708, 20.434
726.002, 572.008
727.297, 196.199
728.591, 410.762
729.885, 507.941
731.179, 299.332
732.472, 173.934
733.766, 95.754
735.059, 251.785
736.352, 471.031
737.645, 277.484
738.937, 405.152
740.230, 228.031
741.522, 54.125
742.814, 144.426
744.106, 364.941
745.397, 417.664
746.689, 7.398
747.980, 265.746
749.271, 20.902
750.562, 518.656
751.853, 115.574
753.143, 254.379
754.433, 248.539
755.723, 89.094
757.013, 522.469
758.303, 99.762
759.592, 210.191
760.881, 1.645
762.170, 244.719
763.459, 96.285
764.748, 269.945
766.036, 618.969
767.325, 260.918
768.613, 407.336
769.901, 501.797
771.188, 68.453
772.476, 480.312
773.763, 339.633
775.050, 412.535
776.337, 16.094
777.624, 279.469
778.910, 102.777
780.196, 547.156
781.482, 102.281
782.768, 186.598
784.054, 285.121
785.339, 491.832
786.625, 48.734
787.910, 526.500
789.195, 149.789
790.479, 409.277
791.764, 572.930
793.048, 251.840
794.332, 737.969
795.616, 656.336
796.900, 1153.914
798.183, 564.691
799.467, 1240.648
800.750, 886.848
802.033, 762.242
803.316, 1864.879
804.598, 837.703
805.880, 1792.828
807.163, 2077.137
808.445, 1884.727
809.726, 2111.578
811.008, 2491.641
812.289, 2905.980
813.570, 3559.496
814.851, 4269.199
816.132, 4804.133
817.413, 5077.273
818.693, 5117.531
819.973, 5006.816
821.253, 4542.566
822.533, 4160.496
823.813, 3377.629
825.092, 2542.930
826.371, 2493.938
827.650, 2049.633
828.929, 2269.621
830.208, 2027.777
831.486, 1764.102
832.764, 2089.699
834.042, 2093.430
835.320, 2734.379
836.598, 2885.598
837.875, 3297.992
839.152, 3759.547
840.429, 5012.336
841.706, 5405.352
842.983, 5938.613
844.259, 6034.156
845.536, 6031.777
846.812, 5557.164
848.088, 4539.160
849.363, 3988.871
850.639, 3220.219
851.914, 2436.773
853.189, 1779.504
854.464, 1493.621
855.739, 1702.551
857.013, 1122.973
858.288, 1191.500
859.562, 1014.199
860.836, 1083.055
862.110, 459.648
863.383, 1006.785
864.656, 614.906
865.930, 894.336
867.203, 800.930
868.475, 1076.797
869.748, 985.906
871.020, 840.707
872.292, 837.023
873.564, 746.508
874.836, 676.156
876.108, 434.965
877.379, 1022.902
878.650, 1225.973
879.922, 1304.199
881.192, 1290.984
882.463, 1742.480
883.733, 1763.105
885.004, 1969.844
886.274, 2257.699
887.544, 3230.676
888.813, 2726.773
890.083, 2758.977
891.352, 2738.309
892.621, 2070.742
893.890, 1723.293
895.159, 1455.949
896.427, 1182.711
897.695, 1014.758
898.964, 881.527
900.232, 763.461
901.499, 728.625
902.767, 682.566
904.034, 564.891
905.301, 711.867
906.568, 765.395
907.835, 857.008
909.102, 414.883
910.368, 530.660
911.634, 850.434
912.900, 418.398
914.166, 976.359
915.432, 606.488
916.697, 56.695
917.962, 879.801
919.227, 390.168
920.492, 713.695
921.757, 506.207
923.021, 594.789
924.285, 588.434
925.550, 574.156
926.813, 372.340
928.077, 268.211
929.341, 240.816
930.604, 610.805
931.867, 358.586
933.130, 127.688
934.393, 655.852
935.655, 195.188
936.918, 662.469
938.180, 123.156
939.442, 27.465
940.703, 637.090
941.965, 370.539
943.226, 72.254
944.488, 347.523
945.749, 642.465
947.009, 446.273
948.270, 158.621
949.530, 186.219
950.791, 457.945
952.051, 266.625
953.311, 348.062
954.570, 337.605
955.830, 219.082
957.089, 336.527
958.348, 123.414
959.607, 257.188
960.866, 179.887
962.124, 54.363
963.383, 237.898
964.641, 192.750
965.899, 431.625
967.156, 323.352
968.414, 161.523
969.671, 177.027
970.928, 63.871
972.185, 420.453
973.442, 279.465
974.699, 370.215
975.955, 354.555
977.211, 133.355
978.468, 610.598
979.723, 319.645
980.979, 150.695
982.234, 987.992
983.490, 231.293
984.745, 516.711
986.000, 493.016
987.254, 26.645
988.509, 688.133
989.763, 410.043
991.017, 605.070
992.271, 461.148
993.525, 583.512
994.779, 681.336
996.032, 605.719
997.285, 875.727
998.538, 173.309
999.791, 1030.488
1001.044, 317.902
1002.296, 777.133
1003.548, 410.316
1004.800, 618.312
1006.052, 585.965
1007.304, 336.508
1008.555, 790.840
1009.807, 679.129
1011.058, 656.762
1012.309, 717.629
1013.559, 673.785
1014.810, 376.531
1016.060, 735.234
1017.310, 726.105
1018.560, 350.562
1019.810, 495.629
1021.060, 759.875
1022.309, 560.652
1023.558, 1122.789
1024.807, 340.227
1026.056, 681.645
1027.305, 624.277
1028.553, 1181.602
1029.801, 840.520
1031.049, 498.371
1032.297, 716.613
1033.545, 1099.262
1034.793, 595.062
1036.040, 786.602
1037.287, 669.316
1038.534, 938.789
1039.781, 1248.750
1041.027, 1181.469
1042.274, 791.012
1043.520, 1171.352
1044.766, 749.188
1046.012, 549.621
1047.257, 583.184
1048.503, 1093.762
1049.748, 471.496
1050.993, 1209.250
1052.238, 898.527
1053.483, 560.531
1054.727, 593.039
1055.971, 489.902
1057.216, 771.234
1058.459, 618.402
1059.703, 737.988
1060.947, 849.180
1062.190, 698.164
1063.433, 666.648
1064.676, 649.973
1065.919, 445.230
1067.162, 1193.762
1068.404, 374.465
1069.646, 503.746
1070.888, 857.672
1072.130, 389.672
1073.372, 646.324
1074.613, 790.980
1075.855, 404.344
1077.096, 216.637
1078.337, 921.164
1079.578, 563.238
1080.818, 624.215
1082.059, 363.977
1083.299, 671.535
1084.539, 191.383
1085.779, 577.727
1087.018, 239.824
1088.258, 394.930
1089.497, 220.930
1090.736, 235.555
1091.975, 177.086
1093.213, 54.934
1094.452, 56.605
1095.690, 26.184
1096.928, 135.594
1098.166, 199.691
1099.404, 579.863
1100.642, 42.121
1101.879, 365.488
1103.116, 52.949
1104.353, 293.320
1105.590, 264.586
1106.827, 354.090
1108.063, 184.406
1109.299, 116.773
1110.536, 81.871
1111.771, 156.727
1113.007, 336.461
1114.243, 342.750
1115.478, 6.566
1116.713, 83.098
1117.948, 234.383
1119.183, 9.027
1120.418, 294.105
1121.652, 225.676
1122.886, 168.031
1124.120, 444.438
1125.354, 1.633
1126.588, 494.520
1127.821, 273.027
1129.055, 497.980
1130.288, 391.805
1131.521, 312.871
1132.753, 35.812
1133.986, 7.715
1135.218, 815.082
1136.450, 295.418
1137.682, 718.742
1138.914, 95.273
1140.146, 47.645
1141.377, 115.348
1142.609, 74.418
1143.840, 172.602
1145.071, 538.945
1146.301, 292.094
1147.532, 184.020
1148.762, 255.695
1149.992, 14.855
1151.222, 186.273
1152.452, 233.152
1153.682, 165.211
1154.911, 415.035
1156.140, 96.930
1157.369, 221.746
1158.598, 295.176
1159.827, 675.047
1161.055, 636.547
1162.284, 338.887
1163.512, 400.688
1164.740, 234.082
1165.967, 310.770
1167.195, 627.906
1168.422, 9.395
1169.650, 652.582
1170.877, 175.574
1172.103, 98.332
1173.330, 161.816
1174.557, 643.051
1175.783, 398.098
1177.009, 137.746
1178.235, 499.320
1179.461, 281.664
1180.686, 505.793
1181.912, 696.711
1183.137, 718.441
1184.362, 482.961
1185.587, 588.266
1186.811, 639.371
1188.036, 404.277
1189.260, 791.969
1190.484, 562.469
1191.708, 611.785
1192.932, 647.910
1194.155, 746.812
1195.378, 607.520
1196.602, 894.020
1197.825, 562.328
1199.047, 952.441
1200.270, 752.355
1201.492, 1109.066
1202.715, 1135.305
1203.937, 962.910
1205.159, 1084.047
1206.380, 958.988
1207.602, 532.734
1208.823, 540.277
1210.044, 700.617
1211.265, 906.766
1212.486, 891.715
1213.707, 649.469
1214.927, 969.031
1216.147, 800.406
1217.367, 1171.590
1218.587, 1049.574
1219.807, 860.375
1221.027, 824.988
1222.246, 681.414
1223.465, 855.645
1224.684, 764.359
1225.903, 838.512
1227.121, 827.176
1228.340, 1084.652
1229.558, 1285.945
1230.776, 993.066
1231.994, 661.887
1233.212, 1285.648
1234.429, 1052.855
1235.646, 882.254
1236.864, 1616.344
1238.081, 1069.418
1239.297, 957.609
1240.514, 1497.094
1241.730, 1083.301
1242.947, 1006.504
1244.163, 875.039
1245.378, 1406.195
1246.594, 1244.105
1247.810, 821.930
1249.025, 1599.102
1250.240, 1065.582
1251.455, 1072.223
1252.670, 1054.762
1253.885, 1052.742
1255.099, 838.695
1256.313, 736.594
1257.527, 725.516
1258.741, 1188.379
1259.955, 834.730
1261.168, 942.922
1262.382, 1301.125
1263.595, 1059.750
1264.808, 744.910
1266.021, 1273.332
1267.233, 930.387
1268.446, 1034.609
1269.658, 395.969
1270.870, 979.594
1272.082, 896.336
1273.294, 963.062
1274.505, 978.559
1275.716, 1136.914
1276.928, 669.887
1278.139, 1226.312
1279.349, 856.273
1280.560, 1346.797
1281.770, 1041.863
1282.981, 737.941
1284.191, 994.469
1285.401, 830.746
1286.610, 742.840
1287.820, 1045.523
1289.029, 176.617
1290.239, 1078.023
1291.448, 677.684
1292.656, 718.688
1293.865, 953.977
1295.073, 871.930
1296.282, 887.801
1297.490, 721.895
1298.698, 818.910
1299.906, 803.172
1301.113, 864.434
1302.320, 659.812
1303.528, 665.129
1304.735, 315.016
1305.942, 731.578
1307.148, 1061.766
1308.355, 411.293
1309.561, 1070.805
1310.767, 711.086
1311.973, 727.730
1313.179, 489.719
1314.384, 1240.523
1315.590, 607.781
1316.795, 893.699
1318.000, 381.336
1319.205, 912.059
1320.410, 950.043
1321.614, 156.086
1322.819, 777.391
1324.023, 776.891
1325.227, 926.332
1326.431, 617.219
1327.634, 310.188
1328.838, 540.504
1330.041, 430.488
1331.244, 531.043
1332.447, 650.328
1333.650, 729.863
1334.852, 809.309
1336.055, 744.406
1337.257, 972.184
1338.459, 586.066
1339.661, 1257.922
1340.862, 716.887
1342.064, 607.066
1343.265, 774.781
1344.466, 1065.945
1345.667, 813.777
1346.868, 1397.906
1348.068, 1093.285
1349.269, 541.305
1350.469, 1359.004
1351.669, 1073.715
1352.869, 1079.379
1354.069, 1398.273
1355.268, 567.504
1356.468, 1501.926
1357.667, 1436.977
1358.866, 909.098
1360.065, 1455.242
1361.263, 848.770
1362.462, 1078.809
1363.660, 1392.867
1364.858, 948.207
1366.056, 890.793
1367.254, 1197.133
1368.451, 900.023
1369.649, 677.156
1370.846, 1008.383
1372.043, 690.961
1373.240, 867.160
1374.436, 1049.461
1375.633, 1038.996
1376.829, 746.746
1378.025, 396.922
1379.221, 941.078
1380.417, 792.203
1381.613, 907.422
1382.808, 938.766
1384.003, 1011.398
1385.199, 1116.285
1386.393, 631.977
1387.588, 887.402
1388.783, 673.199
1389.977, 819.465
1391.171, 554.848
1392.365, 793.281
1393.559, 750.816
1394.753, 419.746
1395.946, 594.426
1397.140, 354.117
1398.333, 851.887
1399.526, 748.703
1400.719, 346.539
1401.911, 870.340
1403.104, 622.270
1404.296, 386.289
1405.488, 872.367
1406.680, 182.594
1407.872, 634.949
1409.063, 1039.473
1410.255, 281.137
1411.446, 815.969
1412.637, 679.992
1413.828, 677.199
1415.018, 709.656
1416.209, 784.324
1417.399, 205.254
1418.589, 1003.457
1419.779, 432.930
1420.969, 1081.672
1422.159, 271.730
1423.348, 852.117
1424.537, 530.785
1425.726, 680.746
1426.915, 705.039
1428.104, 693.664
1429.293, 785.750
1430.481, 739.219
1431.669, 902.688
1432.857, 755.832
1434.045, 853.219
1435.233, 1012.520
1436.420, 847.145
1437.608, 544.344
1438.795, 406.176
1439.982, 582.672
1441.169, 578.898
1442.355, 504.898
1443.542, 694.734
1444.728, 28.488
1445.914, 634.234
1447.100, 391.070
1448.286, 621.125
1449.472, 194.527
1450.657, 1145.453
1451.842, 326.090
1453.027, 551.664
1454.212, 802.453
1455.397, 254.809
1456.581, 401.172
1457.766, 741.121
1458.950, 40.578
1460.134, 873.102
1461.318, 182.625
1462.501, 145.180
1463.685, 439.570
1464.868, 0.000
##END=



