##NAMES=Adamite
##RRUFFID=R040130
##IDEAL CHEMISTRY=Zn^2+^_2_As^5+^O_4_(OH)
##LOCALITY=Mina Ojuela, Mapimi, Durango, Mexico
##OWNER=RRUFF
##SOURCE=Bob Downs
##DESCRIPTION=Pale yellow spherical aggregate of bladed crystals
##STATUS=The identification of this mineral has been confirmed by X-ray diffraction and chemical analysis
##URL=rruff.info/R040130
##MEASURED CHEMISTRY=Zn_1.97_(As_1.01_O_4_)(OH)
##PIN_ID=S00040
##ORIENTATION=Laser parallel to c* (0 0 1). Fiducial mark perpendicular to laser is parallel to a [1 0 0]
107.300, 0.000
108.691, 120.391
110.082, 183.383
111.473, 12.039
112.864, 7.396
114.254, 441.047
115.644, 500.529
117.034, 351.752
118.424, 250.719
119.813, 822.676
121.203, 723.037
122.592, 1070.334
123.981, 1769.191
125.369, 1930.297
126.758, 2422.391
128.146, 2928.248
129.534, 3897.674
130.922, 4115.523
132.309, 4764.676
133.696, 4922.020
135.083, 5848.445
136.470, 5650.855
137.857, 5740.180
139.243, 5401.355
140.630, 4808.318
142.016, 4059.006
143.401, 3509.365
144.787, 2795.334
146.172, 2135.867
147.557, 1637.916
148.942, 1180.439
150.327, 1021.383
151.711, 622.721
153.096, 888.584
154.480, 449.900
155.863, 624.631
157.247, 530.803
158.630, 552.273
160.013, 402.045
161.396, 543.111
162.779, 780.459
164.161, 809.098
165.544, 861.012
166.926, 858.197
168.308, 1130.701
169.689, 1107.467
171.070, 1641.461
172.452, 1727.672
173.833, 1615.076
175.213, 1670.654
176.594, 1230.385
177.974, 1199.248
179.354, 990.230
180.734, 611.312
182.114, 540.484
183.493, 697.732
184.872, 447.053
186.251, 586.430
187.630, 289.859
189.008, 489.326
190.387, 466.801
191.765, 412.211
193.143, 571.545
194.520, 309.951
195.898, 624.584
197.275, 592.188
198.652, 801.168
200.029, 752.664
201.405, 863.496
202.782, 937.164
204.158, 1073.766
205.534, 1657.963
206.909, 1449.678
208.285, 1725.566
209.660, 1947.717
211.035, 1694.105
212.410, 1783.639
213.784, 1497.254
215.159, 1476.967
216.533, 1409.791
217.907, 1103.932
219.281, 1168.297
220.654, 1030.689
222.027, 1059.086
223.400, 1262.537
224.773, 1302.383
226.146, 1347.387
227.518, 1388.818
228.891, 1540.117
230.263, 1581.053
231.634, 1613.990
233.006, 1638.023
234.377, 1488.061
235.748, 1151.094
237.119, 966.023
238.490, 1231.848
239.860, 1051.557
241.231, 1116.148
242.601, 1190.625
243.970, 1228.982
245.340, 1512.223
246.709, 1454.350
248.079, 1969.354
249.448, 1665.242
250.816, 1947.014
252.185, 1861.664
253.553, 1702.195
254.921, 1611.607
256.289, 1434.996
257.657, 1291.303
259.024, 1032.592
260.391, 970.816
261.758, 782.916
263.125, 829.887
264.492, 710.789
265.858, 704.635
267.224, 698.379
268.590, 626.559
269.956, 572.656
271.321, 468.109
272.687, 417.035
274.052, 177.492
275.416, 393.346
276.781, 233.428
278.146, 32.098
279.510, 179.666
280.874, 0.502
282.237, 182.945
283.601, 13.688
284.964, 114.873
286.327, 315.635
287.690, 56.756
289.053, 19.830
290.416, 157.156
291.778, 36.787
293.140, 81.598
294.502, 103.527
295.863, 115.949
297.225, 31.980
298.586, 13.182
299.947, 23.801
301.308, 85.262
302.668, 9.570
304.029, 18.756
305.389, 53.473
306.749, 112.543
308.108, 297.338
309.468, 366.176
310.827, 396.463
312.186, 346.723
313.545, 572.066
314.903, 464.977
316.262, 665.330
317.620, 1093.467
318.978, 1234.088
320.336, 1480.336
321.693, 1722.590
323.051, 1909.871
324.408, 1534.305
325.765, 1912.697
327.121, 1187.225
328.478, 1213.379
329.834, 1107.605
331.190, 907.287
332.546, 513.791
333.902, 667.014
335.257, 462.477
336.612, 337.432
337.967, 313.139
339.322, 205.393
340.677, 291.373
342.031, 222.969
343.385, 309.615
344.739, 494.596
346.093, 177.861
347.446, 193.693
348.799, 396.176
350.153, 554.965
351.505, 385.799
352.858, 460.463
354.210, 522.768
355.563, 620.375
356.915, 671.545
358.267, 844.641
359.618, 912.879
360.969, 1155.814
362.321, 1358.672
363.672, 1718.453
365.022, 2028.502
366.373, 2662.113
367.723, 3295.641
369.073, 4112.070
370.423, 4805.426
371.773, 5319.699
373.122, 6308.891
374.471, 6756.002
375.821, 6216.025
377.169, 5889.967
378.518, 4360.822
379.866, 3626.590
381.215, 2963.271
382.563, 2204.863
383.910, 1898.367
385.258, 1546.779
386.605, 1419.102
387.952, 874.330
389.299, 1241.465
390.646, 859.500
391.992, 844.434
393.339, 1047.273
394.685, 1052.020
396.031, 1254.670
397.376, 1239.225
398.722, 1610.686
400.067, 1649.336
401.412, 1873.699
402.757, 2156.781
404.101, 2451.951
405.446, 2749.348
406.790, 3215.236
408.134, 3638.531
409.478, 3918.230
410.821, 4159.836
412.165, 3804.346
413.508, 4174.764
414.851, 3783.086
416.193, 3440.318
417.536, 3317.457
418.878, 2946.627
420.220, 2522.576
421.562, 1780.750
422.904, 2111.652
424.245, 1768.328
425.586, 1472.051
426.927, 1732.107
428.268, 1002.502
429.609, 900.805
430.949, 785.014
432.289, 935.133
433.629, 409.158
434.969, 789.457
436.309, 306.324
437.648, 549.102
438.987, 343.807
440.326, 312.135
441.665, 171.654
443.003, 281.648
444.342, 165.318
445.680, 123.379
447.018, 294.191
448.355, 29.879
449.693, 58.170
451.030, 215.947
452.367, 349.631
453.704, 263.654
455.041, 203.020
456.377, 5.117
457.713, 157.818
459.049, 90.736
460.385, 192.680
461.721, 380.121
463.056, 78.727
464.391, 49.350
465.726, 229.264
467.061, 5.895
468.395, 13.141
469.730, 227.312
471.064, 225.756
472.398, 333.275
473.731, 38.787
475.065, 147.938
476.398, 131.533
477.731, 112.531
479.064, 186.121
480.397, 62.266
481.729, 157.426
483.062, 124.346
484.394, 2.865
485.725, 100.264
487.057, 41.326
488.389, 54.047
489.720, 105.217
491.051, 114.039
492.382, 231.693
493.712, 398.287
495.043, 25.207
496.373, 119.111
497.703, 194.309
499.032, 265.637
500.362, 60.629
501.691, 179.180
503.020, 239.389
504.349, 91.029
505.678, 17.674
507.007, 112.242
508.335, 92.816
509.663, 21.004
510.991, 160.643
512.319, 8.803
513.646, 249.596
514.973, 163.082
516.300, 472.006
517.627, 432.020
518.954, 218.045
520.280, 241.639
521.607, 216.250
522.933, 308.783
524.259, 113.244
525.584, 229.617
526.910, 605.916
528.235, 667.145
529.560, 717.305
530.885, 546.395
532.209, 728.412
533.534, 1058.363
534.858, 1293.248
536.182, 1222.064
537.506, 1332.816
538.829, 1304.502
540.152, 1401.125
541.476, 1168.686
542.799, 918.180
544.121, 944.613
545.444, 873.988
546.766, 531.301
548.088, 565.555
549.410, 740.752
550.732, 285.893
552.053, 326.977
553.375, 236.002
554.696, 202.979
556.017, 224.896
557.337, 183.766
558.658, 54.582
559.978, 128.660
561.298, 235.969
562.618, 65.549
563.938, 124.920
565.257, 301.488
566.576, 224.150
567.895, 95.049
569.214, 148.203
570.533, 214.314
571.851, 234.645
573.170, 221.414
574.488, 108.402
575.805, 154.352
577.123, 242.734
578.440, 180.027
579.758, 34.248
581.075, 7.580
582.391, 301.039
583.708, 103.375
585.024, 135.867
586.341, 198.551
587.657, 168.938
588.972, 229.299
590.288, 83.631
591.603, 21.938
592.918, 103.117
594.233, 61.098
595.548, 160.695
596.863, 221.867
598.177, 14.893
599.491, 230.812
600.805, 45.559
602.119, 6.377
603.432, 104.023
604.746, 341.098
606.059, 9.596
607.372, 45.082
608.685, 73.322
609.997, 103.404
611.309, 94.836
612.621, 105.199
613.933, 42.314
615.245, 7.273
616.557, 226.674
617.868, 79.379
619.179, 175.932
620.490, 19.559
621.801, 211.312
623.111, 99.828
624.421, 120.633
625.731, 234.801
627.041, 467.020
628.351, 227.195
629.660, 101.121
630.970, 460.473
632.279, 99.742
633.588, 139.449
634.896, 186.281
636.205, 146.244
637.513, 2.150
638.821, 9.510
640.129, 125.820
641.437, 343.119
642.744, 256.264
644.051, 140.447
645.358, 365.494
646.665, 28.908
647.972, 341.246
649.278, 72.875
650.584, 69.172
651.890, 390.496
653.196, 242.574
654.502, 466.152
655.807, 26.020
657.113, 200.143
658.418, 681.793
659.722, 218.713
661.027, 225.578
662.331, 450.107
663.636, 294.350
664.940, 113.025
666.244, 406.047
667.547, 23.762
668.851, 355.436
670.154, 257.275
671.457, 42.484
672.760, 456.391
674.062, 312.740
675.365, 567.168
676.667, 214.461
677.969, 300.045
679.271, 396.709
680.572, 211.455
681.874, 689.922
683.175, 606.836
684.476, 460.836
685.777, 526.924
687.077, 217.098
688.378, 577.365
689.678, 302.725
690.978, 751.176
692.278, 691.590
693.577, 805.363
694.877, 685.102
696.176, 578.938
697.475, 449.875
698.774, 688.912
700.072, 603.049
701.371, 527.293
702.669, 267.641
703.967, 485.092
705.265, 1069.652
706.562, 685.318
707.860, 344.098
709.157, 952.986
710.454, 351.988
711.751, 980.100
713.047, 744.326
714.344, 657.670
715.640, 711.842
716.936, 417.326
718.232, 1252.023
719.527, 899.842
720.823, 613.369
722.118, 1165.432
723.413, 713.121
724.708, 729.436
726.002, 921.879
727.297, 372.451
728.591, 966.154
729.885, 894.988
731.179, 693.953
732.472, 666.055
733.766, 797.166
735.059, 813.535
736.352, 833.730
737.645, 893.240
738.937, 1058.031
740.230, 668.814
741.522, 833.316
742.814, 806.535
744.106, 1179.895
745.397, 685.402
746.689, 752.057
747.980, 864.857
749.271, 827.457
750.562, 1147.561
751.853, 663.824
753.143, 992.238
754.433, 949.102
755.723, 629.836
757.013, 1032.123
758.303, 631.826
759.592, 1014.080
760.881, 708.518
762.170, 776.123
763.459, 837.951
764.748, 613.762
766.036, 1186.730
767.325, 725.098
768.613, 967.479
769.901, 1026.203
771.188, 971.139
772.476, 1262.268
773.763, 1143.930
775.050, 1240.197
776.337, 1036.924
777.624, 1091.895
778.910, 972.072
780.196, 1287.432
781.482, 1117.914
782.768, 1125.723
784.054, 1200.129
785.339, 1133.408
786.625, 1093.867
787.910, 1420.562
789.195, 1263.457
790.479, 1316.020
791.764, 1575.143
793.048, 1285.621
794.332, 1676.229
795.616, 1564.182
796.900, 1892.340
798.183, 1703.744
799.467, 2188.402
800.750, 2192.305
802.033, 2261.453
803.316, 2853.812
804.598, 2376.414
805.880, 3136.184
807.163, 3544.139
808.445, 3748.361
809.726, 4471.787
811.008, 5293.209
812.289, 6147.072
813.570, 7647.180
814.851, 9273.494
816.132, 10906.100
817.413, 12076.914
818.693, 12369.629
819.973, 12609.227
821.253, 11746.742
822.533, 10794.492
823.813, 9268.445
825.092, 8048.627
826.371, 7361.025
827.650, 6700.738
828.929, 6341.000
830.208, 6461.826
831.486, 6261.277
832.764, 6823.033
834.042, 7230.951
835.320, 8300.090
836.598, 9650.434
837.875, 11228.039
839.152, 13178.844
840.429, 16531.916
841.706, 18845.234
842.983, 21700.795
844.259, 24193.619
845.536, 23627.627
846.812, 21997.857
848.088, 18971.291
849.363, 16117.918
850.639, 13566.773
851.914, 11323.871
853.189, 9498.166
854.464, 8758.686
855.739, 8011.441
857.013, 6870.395
858.288, 6148.555
859.562, 5670.928
860.836, 5225.512
862.110, 4821.488
863.383, 4657.293
864.656, 4212.496
865.930, 4211.900
867.203, 3919.504
868.475, 4054.326
869.748, 3918.350
871.020, 4135.613
872.292, 4388.090
873.564, 4359.768
874.836, 4899.703
876.108, 5188.869
877.379, 6406.293
878.650, 7365.914
879.922, 8487.803
881.192, 10136.883
882.463, 13007.168
883.733, 15740.646
885.004, 19395.328
886.274, 23539.203
887.544, 28173.352
888.813, 30016.691
890.083, 30393.240
891.352, 28508.002
892.621, 24602.955
893.890, 20376.127
895.159, 16694.520
896.427, 13451.133
897.695, 11499.941
898.964, 9376.943
900.232, 7816.133
901.499, 6789.525
902.767, 5984.129
904.034, 5145.922
905.301, 4794.906
906.568, 4353.115
907.835, 4034.520
909.102, 3486.117
910.368, 2948.916
911.634, 3044.930
912.900, 2617.137
914.166, 2990.531
915.432, 2423.113
916.697, 2096.887
917.962, 2457.863
919.227, 1932.037
920.492, 2054.406
921.757, 1766.973
923.021, 1881.727
924.285, 1697.668
925.550, 1669.795
926.813, 1371.105
928.077, 1441.594
929.341, 1422.260
930.604, 1342.100
931.867, 1118.117
933.130, 1078.309
934.393, 1380.707
935.655, 982.285
936.918, 1246.076
938.180, 824.043
939.442, 948.184
940.703, 1192.506
941.965, 955.102
943.226, 729.350
944.488, 895.963
945.749, 728.396
947.009, 864.385
948.270, 719.756
949.530, 822.955
950.791, 840.670
952.051, 754.934
953.311, 766.006
954.570, 692.266
955.830, 644.982
957.089, 594.244
958.348, 512.961
959.607, 560.010
960.866, 614.053
962.124, 495.881
963.383, 625.711
964.641, 512.230
965.899, 695.012
967.156, 642.861
968.414, 358.859
969.671, 637.012
970.928, 390.301
972.185, 499.996
973.442, 414.586
974.699, 743.324
975.955, 436.250
977.211, 332.395
978.468, 537.951
979.723, 424.289
980.979, 327.162
982.234, 695.805
983.490, 11.037
984.745, 589.957
986.000, 475.764
987.254, 216.953
988.509, 680.260
989.763, 249.732
991.017, 422.820
992.271, 452.215
993.525, 426.744
994.779, 553.930
996.032, 377.072
997.285, 550.117
998.538, 243.920
999.791, 536.436
1001.044, 210.008
1002.296, 520.742
1003.548, 308.576
1004.800, 284.510
1006.052, 609.541
1007.304, 500.760
1008.555, 446.066
1009.807, 575.555
1011.058, 361.309
1012.309, 645.201
1013.559, 452.916
1014.810, 441.307
1016.060, 524.910
1017.310, 502.070
1018.560, 254.713
1019.810, 547.988
1021.060, 616.889
1022.309, 389.059
1023.558, 688.295
1024.807, 233.848
1026.056, 486.016
1027.305, 258.949
1028.553, 775.971
1029.801, 470.541
1031.049, 345.742
1032.297, 452.176
1033.545, 696.299
1034.793, 251.771
1036.040, 418.367
1037.287, 517.289
1038.534, 302.398
1039.781, 627.691
1041.027, 338.508
1042.274, 376.277
1043.520, 776.219
1044.766, 351.223
1046.012, 444.984
1047.257, 295.842
1048.503, 659.006
1049.748, 225.494
1050.993, 611.680
1052.238, 451.000
1053.483, 331.359
1054.727, 480.768
1055.971, 604.289
1057.216, 343.771
1058.459, 309.633
1059.703, 461.186
1060.947, 348.521
1062.190, 334.979
1063.433, 229.771
1064.676, 225.746
1065.919, 122.084
1067.162, 339.789
1068.404, 91.660
1069.646, 71.965
1070.888, 469.268
1072.130, 249.855
1073.372, 132.494
1074.613, 394.387
1075.855, 105.295
1077.096, 75.166
1078.337, 581.043
1079.578, 312.102
1080.818, 337.994
1082.059, 21.176
1083.299, 184.082
1084.539, 165.865
1085.779, 201.965
1087.018, 210.762
1088.258, 82.756
1089.497, 157.754
1090.736, 4.980
1091.975, 28.645
1093.213, 68.441
1094.452, 149.783
1095.690, 200.238
1096.928, 162.264
1098.166, 86.623
1099.404, 248.758
1100.642, 14.508
1101.879, 147.270
1103.116, 11.965
1104.353, 60.541
1105.590, 49.488
1106.827, 81.592
1108.063, 150.186
1109.299, 145.289
1110.536, 154.465
1111.771, 82.178
1113.007, 40.289
1114.243, 19.691
1115.478, 62.080
1116.713, 29.254
1117.948, 19.662
1119.183, 53.346
1120.418, 11.947
1121.652, 48.848
1122.886, 95.721
1124.120, 30.074
1125.354, 90.605
1126.588, 172.521
1127.821, 162.346
1129.055, 2.605
1130.288, 77.236
1131.521, 2.221
1132.753, 263.480
1133.986, 83.848
1135.218, 120.775
1136.450, 270.609
1137.682, 103.281
1138.914, 272.783
1140.146, 162.756
1141.377, 159.385
1142.609, 221.518
1143.840, 110.617
1145.071, 19.844
1146.301, 8.205
1147.532, 183.844
1148.762, 37.191
1149.992, 127.420
1151.222, 57.266
1152.452, 28.529
1153.682, 99.121
1154.911, 187.340
1156.140, 69.361
1157.369, 2.641
1158.598, 37.965
1159.827, 115.240
1161.055, 28.881
1162.284, 68.352
1163.512, 106.482
1164.740, 142.689
1165.967, 8.582
1167.195, 232.176
1168.422, 137.000
1169.650, 63.918
1170.877, 139.270
1172.103, 24.270
1173.330, 17.705
1174.557, 196.143
1175.783, 374.949
1177.009, 136.518
1178.235, 371.049
1179.461, 198.656
1180.686, 167.129
1181.912, 219.799
1183.137, 221.590
1184.362, 124.170
1185.587, 204.111
1186.811, 158.158
1188.036, 266.568
1189.260, 193.990
1190.484, 276.078
1191.708, 396.111
1192.932, 119.729
1194.155, 220.793
1195.378, 365.875
1196.602, 257.477
1197.825, 231.693
1199.047, 418.732
1200.270, 341.479
1201.492, 629.520
1202.715, 52.236
1203.937, 537.863
1205.159, 249.477
1206.380, 386.596
1207.602, 93.838
1208.823, 291.883
1210.044, 346.207
1211.265, 341.484
1212.486, 271.814
1213.707, 310.758
1214.927, 392.266
1216.147, 249.758
1217.367, 363.014
1218.587, 349.314
1219.807, 297.568
1221.027, 345.383
1222.246, 351.406
1223.465, 560.006
1224.684, 529.484
1225.903, 475.377
1227.121, 559.361
1228.340, 468.928
1229.558, 579.232
1230.776, 343.127
1231.994, 330.631
1233.212, 344.977
1234.429, 424.795
1235.646, 351.758
1236.864, 403.619
1238.081, 293.174
1239.297, 537.982
1240.514, 533.389
1241.730, 597.342
1242.947, 484.186
1244.163, 359.734
1245.378, 343.143
1246.594, 641.338
1247.810, 176.369
1249.025, 467.113
1250.240, 408.248
1251.455, 326.105
1252.670, 444.516
1253.885, 315.312
1255.099, 406.781
1256.313, 226.475
1257.527, 507.818
1258.741, 479.500
1259.955, 189.986
1261.168, 449.609
1262.382, 417.918
1263.595, 484.920
1264.808, 492.643
1266.021, 434.053
1267.233, 369.209
1268.446, 370.395
1269.658, 250.205
1270.870, 342.738
1272.082, 296.996
1273.294, 278.773
1274.505, 338.709
1275.716, 254.051
1276.928, 288.545
1278.139, 342.451
1279.349, 254.754
1280.560, 353.867
1281.770, 429.527
1282.981, 82.986
1284.191, 251.363
1285.401, 271.877
1286.610, 120.656
1287.820, 380.664
1289.029, 69.828
1290.239, 202.936
1291.448, 240.047
1292.656, 173.309
1293.865, 317.756
1295.073, 319.055
1296.282, 78.098
1297.490, 88.947
1298.698, 184.596
1299.906, 361.055
1301.113, 571.234
1302.320, 300.514
1303.528, 244.240
1304.735, 7.395
1305.942, 296.742
1307.148, 130.369
1308.355, 100.811
1309.561, 173.938
1310.767, 138.395
1311.973, 187.266
1313.179, 145.594
1314.384, 375.828
1315.590, 16.119
1316.795, 102.773
1318.000, 176.254
1319.205, 87.012
1320.410, 83.906
1321.614, 32.600
1322.819, 201.652
1324.023, 95.980
1325.227, 362.988
1326.431, 171.219
1327.634, 21.023
1328.838, 76.629
1330.041, 187.963
1331.244, 213.951
1332.447, 112.697
1333.650, 265.900
1334.852, 208.180
1336.055, 205.326
1337.257, 322.201
1338.459, 269.350
1339.661, 368.463
1340.862, 207.834
1342.064, 323.975
1343.265, 233.055
1344.466, 520.006
1345.667, 306.660
1346.868, 483.955
1348.068, 470.834
1349.269, 449.914
1350.469, 542.252
1351.669, 491.705
1352.869, 509.723
1354.069, 423.367
1355.268, 413.305
1356.468, 598.203
1357.667, 659.203
1358.866, 491.498
1360.065, 848.473
1361.263, 494.057
1362.462, 451.830
1363.660, 658.316
1364.858, 485.141
1366.056, 636.641
1367.254, 720.365
1368.451, 690.227
1369.649, 545.504
1370.846, 682.117
1372.043, 598.531
1373.240, 573.924
1374.436, 621.562
1375.633, 670.830
1376.829, 648.334
1378.025, 486.449
1379.221, 640.971
1380.417, 605.650
1381.613, 600.396
1382.808, 720.438
1384.003, 662.373
1385.199, 669.875
1386.393, 533.982
1387.588, 629.271
1388.783, 399.680
1389.977, 660.297
1391.171, 435.721
1392.365, 535.068
1393.559, 560.279
1394.753, 380.256
1395.946, 452.857
1397.140, 437.227
1398.333, 405.156
1399.526, 306.990
1400.719, 523.275
1401.911, 314.625
1403.104, 497.516
1404.296, 265.199
1405.488, 296.793
1406.680, 306.449
1407.872, 316.383
1409.063, 333.598
1410.255, 271.939
1411.446, 362.848
1412.637, 256.156
1413.828, 429.041
1415.018, 471.098
1416.209, 482.469
1417.399, 518.242
1418.589, 583.125
1419.779, 373.375
1420.969, 459.215
1422.159, 180.627
1423.348, 314.568
1424.537, 386.502
1425.726, 373.104
1426.915, 175.088
1428.104, 461.756
1429.293, 53.551
1430.481, 158.775
1431.669, 312.033
1432.857, 276.641
1434.045, 330.338
1435.233, 458.900
1436.420, 306.156
1437.608, 322.693
1438.795, 309.811
1439.982, 382.484
1441.169, 232.984
1442.355, 173.182
1443.542, 279.654
1444.728, 10.002
1445.914, 174.223
1447.100, 136.375
1448.286, 323.436
1449.472, 15.070
1450.657, 283.898
1451.842, 232.986
1453.027, 136.094
1454.212, 454.443
1455.397, 67.752
1456.581, 296.387
1457.766, 337.357
1458.950, 266.678
1460.134, 459.332
1461.318, 18.578
1462.501, 134.553
1463.685, 287.242
1464.868, 92.908
1466.051, 302.395
1467.234, 114.502
1468.417, 164.283
1469.600, 245.359
1470.782, 277.838
1471.965, 4.391
1473.147, 248.000
1474.329, 245.793
1475.510, 0.000
##END=



