##NAMES=Aegirine
##RRUFFID=R040054
##IDEAL CHEMISTRY=NaFe^3+^Si_2_O_6_
##LOCALITY=Mont Saint-Hilaire, Rouville County, Quebec, Canada
##OWNER=RRUFF
##SOURCE=Bob Downs
##DESCRIPTION=Black cleavage fragments
##STATUS=The identification of this mineral has been confirmed by X-ray diffraction and chemical analysis
##URL=rruff.info/R040054
##MEASURED CHEMISTRY=(Na_0.96_Ca_0.04_)(Fe_0.86_Ti_0.07_Mn_0.06_Mg_0.02_)(Si_0.97_Al_0.03_)_2_O_6_
##PIN_ID=L00298
##ORIENTATION=Laser parallel to a [1 0 0]. Fiducial mark perpendicular to laser is parallel to b* (0 1 0)
145.480, 0.000
146.865, 48.164
148.250, 4.121
149.635, 84.971
151.019, 1.716
152.403, 82.772
153.788, 103.898
155.171, 229.057
156.555, 387.258
157.939, 493.083
159.322, 727.247
160.705, 733.394
162.088, 770.386
163.470, 593.739
164.853, 515.969
166.235, 268.476
167.617, 119.062
168.998, 32.358
170.380, 26.348
171.761, 70.153
173.142, 151.511
174.523, 322.134
175.904, 431.304
177.284, 580.013
178.664, 625.154
180.044, 610.035
181.424, 513.631
182.803, 424.082
184.183, 454.629
185.562, 430.101
186.940, 612.217
188.319, 847.795
189.698, 1050.425
191.076, 1259.245
192.454, 1355.408
193.831, 1485.360
195.209, 1491.676
196.586, 1487.848
197.963, 1477.585
199.340, 1478.935
200.717, 1505.567
202.093, 1511.136
203.470, 1583.419
204.846, 1734.730
206.221, 1915.222
207.597, 2119.120
208.972, 2231.292
210.347, 2359.207
211.722, 2547.617
213.097, 2439.154
214.472, 2376.911
215.846, 2206.703
217.220, 1940.968
218.594, 1616.320
219.967, 1343.814
221.341, 1114.428
222.714, 959.052
224.087, 693.615
225.460, 639.060
226.832, 483.371
228.204, 393.632
229.577, 351.097
230.948, 334.742
232.320, 174.547
233.692, 101.488
235.063, 119.531
236.434, 125.649
237.805, 69.817
239.175, 4.983
240.545, 3.182
241.916, 23.695
243.286, 2.421
244.655, 15.470
246.025, 111.378
247.394, 29.312
248.763, 9.280
250.132, 0.713
251.501, 129.344
252.869, 1.537
254.237, 27.660
255.605, 19.055
256.973, 110.673
258.340, 204.196
259.708, 321.623
261.075, 323.952
262.442, 500.185
263.808, 433.322
265.175, 440.364
266.541, 354.314
267.907, 313.167
269.273, 273.907
270.639, 256.521
272.004, 289.979
273.369, 210.266
274.734, 239.358
276.099, 347.464
277.463, 338.814
278.828, 425.699
280.192, 442.995
281.556, 488.948
282.919, 534.808
284.283, 577.965
285.646, 635.455
287.009, 685.259
288.372, 740.324
289.734, 798.509
291.097, 818.107
292.459, 902.887
293.821, 1064.624
295.183, 1112.343
296.544, 1213.211
297.905, 1280.474
299.266, 1532.213
300.627, 1644.293
301.988, 1883.590
303.348, 2081.819
304.709, 2435.461
306.069, 2712.180
307.428, 3087.554
308.788, 3342.039
310.147, 3467.844
311.507, 3528.832
312.865, 3480.148
314.224, 3299.441
315.583, 2990.512
316.941, 2606.480
318.299, 2249.060
319.657, 1883.413
321.015, 1681.403
322.372, 1554.871
323.729, 1420.877
325.086, 1362.605
326.443, 1313.759
327.800, 1307.841
329.156, 1358.565
330.512, 1396.085
331.868, 1571.757
333.224, 1658.333
334.579, 1996.245
335.935, 2252.634
337.290, 2560.359
338.645, 2703.523
339.999, 2864.685
341.354, 2818.661
342.708, 2786.458
344.062, 2712.088
345.416, 2556.559
346.769, 2351.775
348.123, 2163.936
349.476, 2020.811
350.829, 1956.670
352.182, 1837.351
353.534, 1744.797
354.887, 1858.019
356.239, 1828.955
357.591, 1996.574
358.942, 2061.898
360.294, 2204.837
361.645, 2366.517
362.996, 2670.855
364.347, 3017.959
365.698, 3078.935
367.048, 3138.823
368.398, 3074.642
369.748, 3016.384
371.098, 2861.039
372.448, 2650.607
373.797, 2463.083
375.146, 2361.484
376.495, 2384.821
377.844, 2395.101
379.192, 2403.333
380.540, 2470.522
381.889, 2592.668
383.236, 2668.771
384.584, 2712.830
385.932, 2879.843
387.279, 2863.599
388.626, 2854.088
389.973, 2718.888
391.319, 2341.275
392.666, 2209.405
394.012, 1855.367
395.358, 1636.810
396.704, 1420.171
398.049, 1159.808
399.394, 981.522
400.740, 861.197
402.084, 797.095
403.429, 651.494
404.774, 577.203
406.118, 475.541
407.462, 422.748
408.806, 353.921
410.150, 335.231
411.493, 254.783
412.836, 272.945
414.179, 283.928
415.522, 205.109
416.865, 130.440
418.207, 135.417
419.549, 90.398
420.891, 104.441
422.233, 73.420
423.575, 59.372
424.916, 30.021
426.257, 0.764
427.598, 2.234
428.939, 55.500
430.279, 12.892
431.619, 8.662
432.959, 52.627
434.299, 44.628
435.639, 42.826
436.978, 24.909
438.318, 47.353
439.657, 13.708
440.996, 4.370
442.334, 46.954
443.673, 36.151
445.011, 4.225
446.349, 70.818
447.687, 68.039
449.024, 75.396
450.361, 101.994
451.699, 108.577
453.036, 133.284
454.372, 174.025
455.709, 208.956
457.045, 292.667
458.381, 310.464
459.717, 335.105
461.053, 382.914
462.388, 353.641
463.724, 334.958
465.059, 344.058
466.394, 430.609
467.728, 370.952
469.063, 388.506
470.397, 413.990
471.731, 356.682
473.065, 310.543
474.398, 323.889
475.732, 268.058
477.065, 265.263
478.398, 291.669
479.731, 283.826
481.063, 303.000
482.396, 301.896
483.728, 341.018
485.060, 360.971
486.391, 418.646
487.723, 461.272
489.054, 467.620
490.385, 645.156
491.716, 675.485
493.047, 899.526
494.377, 1020.763
495.708, 1273.787
497.038, 1475.720
498.368, 1445.229
499.697, 1400.471
501.027, 1325.258
502.356, 1190.860
503.685, 1043.323
505.014, 1022.829
506.342, 918.278
507.671, 796.561
508.999, 871.736
510.327, 829.732
511.655, 799.530
512.982, 818.271
514.310, 776.956
515.637, 832.585
516.964, 854.161
518.291, 899.684
519.617, 997.155
520.944, 1120.576
522.270, 1266.947
523.596, 1495.270
524.921, 1634.546
526.247, 1877.775
527.572, 2063.958
528.897, 2209.093
530.222, 2265.184
531.547, 2276.227
532.871, 2344.224
534.196, 2483.177
535.520, 2753.095
536.844, 2964.195
538.167, 3481.141
539.491, 3858.076
540.814, 4249.988
542.137, 4520.826
543.460, 4672.792
544.783, 4805.550
546.105, 4786.427
547.427, 4544.163
548.749, 4419.896
550.071, 4214.785
551.393, 4121.442
552.714, 4032.271
554.035, 3858.812
555.356, 3915.183
556.677, 3676.493
557.998, 3657.169
559.318, 3630.660
560.638, 3620.190
561.958, 3624.780
563.278, 3484.124
564.597, 3330.586
565.917, 3297.404
567.236, 3233.014
568.555, 3076.297
569.874, 2987.686
571.192, 2881.642
572.511, 2728.587
573.829, 2700.779
575.147, 2527.472
576.464, 2473.694
577.782, 2392.972
579.099, 2270.866
580.416, 2225.029
581.733, 2161.822
583.050, 1961.604
584.366, 1949.011
585.683, 1723.842
586.999, 1764.713
588.315, 1611.607
589.630, 1467.000
590.946, 1464.536
592.261, 1267.591
593.576, 1131.875
594.891, 1089.538
596.206, 945.598
597.520, 891.855
598.834, 706.742
600.148, 667.495
601.462, 560.865
602.776, 482.902
604.089, 420.436
605.402, 302.764
606.715, 283.045
608.028, 209.365
609.341, 192.882
610.653, 142.427
611.965, 114.081
613.277, 51.872
614.589, 84.892
615.901, 45.270
617.212, 40.003
618.523, 49.013
619.834, 24.948
621.145, 77.488
622.456, 25.605
623.766, 80.047
625.076, 74.937
626.386, 13.438
627.696, 27.407
629.006, 3.999
630.315, 0.643
631.624, 7.356
632.933, 21.011
634.242, 3.938
635.551, 5.920
636.859, 28.044
638.167, 22.481
639.475, 63.284
640.783, 25.571
642.090, 38.030
643.398, 86.442
644.705, 82.431
646.012, 137.871
647.318, 82.777
648.625, 122.503
649.931, 182.154
651.237, 122.190
652.543, 163.821
653.849, 171.029
655.155, 143.605
656.460, 179.525
657.765, 159.022
659.070, 186.480
660.375, 202.902
661.679, 176.288
662.984, 173.639
664.288, 196.953
665.592, 206.812
666.895, 233.477
668.199, 272.689
669.502, 295.870
670.805, 345.020
672.108, 494.138
673.411, 562.226
674.713, 666.282
676.016, 697.310
677.318, 692.306
678.620, 701.273
679.921, 643.210
681.223, 538.118
682.524, 481.997
683.825, 445.847
685.126, 369.667
686.427, 353.459
687.727, 292.223
689.028, 292.959
690.328, 278.667
691.628, 222.347
692.927, 165.999
694.227, 189.622
695.526, 179.217
696.825, 171.783
698.124, 176.321
699.423, 132.832
700.721, 169.313
702.020, 128.767
703.318, 149.192
704.616, 137.589
705.913, 87.959
707.211, 132.300
708.508, 79.736
709.805, 137.634
711.102, 168.685
712.399, 174.330
713.695, 78.558
714.992, 113.688
716.288, 96.320
717.584, 76.776
718.879, 130.255
720.175, 49.098
721.470, 101.368
722.765, 100.343
724.060, 123.676
725.355, 83.288
726.649, 107.249
727.944, 128.190
729.238, 96.113
730.532, 136.016
731.825, 158.902
733.119, 171.774
734.412, 160.631
735.705, 107.475
736.998, 126.305
738.291, 93.122
739.584, 105.926
740.876, 150.719
742.168, 135.503
743.460, 197.281
744.752, 207.063
746.043, 228.841
747.334, 247.612
748.626, 218.389
749.916, 325.156
751.207, 351.927
752.498, 537.689
753.788, 652.443
755.078, 795.189
756.368, 936.930
757.658, 894.852
758.947, 927.422
760.237, 768.165
761.526, 478.899
762.815, 366.625
764.104, 283.060
765.392, 203.426
766.680, 161.579
767.969, 110.613
769.257, 60.383
770.544, 48.289
771.832, 5.976
773.119, 8.714
774.406, 14.427
775.693, 23.030
776.980, 32.015
778.267, 27.910
779.553, 69.315
780.839, 50.585
782.125, 43.130
783.411, 83.667
784.697, 59.527
785.982, 35.665
787.267, 24.389
788.552, 95.035
789.837, 79.831
791.122, 61.936
792.406, 88.895
793.690, 60.978
794.974, 119.883
796.258, 72.126
797.542, 71.297
798.825, 24.287
800.108, 67.310
801.391, 76.145
802.674, 74.261
803.957, 74.498
805.239, 28.057
806.522, 41.120
807.804, 14.033
809.085, 5.080
810.367, 31.919
811.649, 59.218
812.930, 71.274
814.211, 47.450
815.492, 117.701
816.772, 131.847
818.053, 218.988
819.333, 181.234
820.613, 222.528
821.893, 284.940
823.173, 293.492
824.452, 346.042
825.732, 394.592
827.011, 363.140
828.290, 421.688
829.568, 529.236
830.847, 637.783
832.125, 606.332
833.403, 701.880
834.681, 798.429
835.959, 861.979
837.236, 963.530
838.514, 1081.082
839.791, 1140.636
841.068, 1366.192
842.345, 1437.750
843.621, 1585.311
844.898, 1649.874
846.174, 1782.429
847.450, 1897.760
848.726, 1999.204
850.001, 2068.616
851.277, 2147.012
852.552, 2159.439
853.827, 2196.699
855.102, 2329.125
856.376, 2242.396
857.651, 2309.768
858.925, 2278.105
860.199, 2267.250
861.473, 2283.596
862.746, 2266.737
864.020, 2275.139
865.293, 2155.687
866.566, 2185.275
867.839, 2262.487
869.112, 2095.861
870.384, 2138.189
871.656, 1988.454
872.928, 1901.962
874.200, 1987.154
875.472, 1940.594
876.744, 1790.048
878.015, 1565.634
879.286, 1492.092
880.557, 1423.677
881.828, 1309.383
883.098, 1298.979
884.369, 1234.784
885.639, 1401.687
886.909, 1468.614
888.178, 1268.552
889.448, 1547.339
890.717, 1570.225
891.987, 1634.995
893.256, 1271.843
894.524, 1187.855
895.793, 1068.900
897.061, 960.971
898.330, 923.065
899.598, 915.173
900.865, 889.306
902.133, 882.197
903.401, 885.992
904.668, 842.833
905.935, 845.743
907.202, 822.317
908.468, 828.595
909.735, 846.702
911.001, 850.671
912.267, 856.541
913.533, 915.901
914.799, 879.283
916.064, 883.678
917.330, 945.090
918.595, 938.525
919.860, 921.976
921.124, 941.447
922.389, 1053.816
923.653, 971.163
924.918, 1069.214
926.182, 1124.075
927.445, 1037.193
928.709, 1138.543
929.972, 1129.442
931.236, 1283.677
932.499, 1307.665
933.761, 1329.961
935.024, 1378.782
936.286, 1444.301
937.549, 1487.327
938.811, 1669.784
940.073, 1748.938
941.334, 1909.104
942.596, 2182.291
943.857, 2227.618
945.118, 2493.430
946.379, 2677.943
947.640, 3025.955
948.900, 3262.947
950.161, 3615.057
951.421, 3717.821
952.681, 3767.311
953.940, 3752.353
955.200, 3655.577
956.459, 3498.863
957.719, 3507.750
958.978, 3566.027
960.236, 3394.714
961.495, 3586.019
962.753, 3396.964
964.012, 3386.321
965.270, 3399.702
966.527, 3234.107
967.785, 3262.537
969.043, 3243.991
970.300, 3141.470
971.557, 3079.972
972.814, 2995.500
974.071, 2904.051
975.327, 2870.626
976.583, 2533.222
977.840, 2464.840
979.095, 2425.482
980.351, 2247.147
981.607, 2193.833
982.862, 2083.542
984.117, 1988.274
985.372, 2026.029
986.627, 1972.809
987.882, 1944.611
989.136, 1750.435
990.390, 1833.282
991.644, 1793.153
992.898, 1659.049
994.152, 1670.972
995.405, 1597.918
996.659, 1565.867
997.912, 1573.889
999.165, 1504.913
1000.417, 1540.963
1001.670, 1472.038
1002.922, 1462.138
1004.174, 1512.262
1005.426, 1456.409
1006.678, 1463.581
1007.930, 1472.777
1009.181, 1376.001
1010.432, 1482.250
1011.683, 1427.529
1012.934, 1385.835
1014.185, 1449.527
1015.435, 1378.886
1016.685, 1430.268
1017.935, 1409.043
1019.185, 1397.474
1020.435, 1345.613
1021.684, 1327.551
1022.934, 1374.095
1024.183, 1362.769
1025.432, 1381.727
1026.680, 1460.305
1027.929, 1426.332
1029.177, 1511.009
1030.425, 1502.370
1031.673, 1547.048
1032.921, 1679.696
1034.169, 1774.363
1035.416, 1812.702
1036.663, 1961.281
1037.911, 2058.059
1039.157, 2214.826
1040.404, 2309.635
1041.650, 2357.678
1042.897, 2414.582
1044.143, 2387.062
1045.389, 2390.943
1046.634, 2236.841
1047.880, 2086.582
1049.125, 2019.739
1050.371, 1846.365
1051.615, 1844.400
1052.860, 1834.354
1054.105, 1705.212
1055.349, 1806.371
1056.593, 1747.116
1057.837, 1775.767
1059.081, 1787.952
1060.325, 1805.063
1061.568, 1787.472
1062.812, 1799.625
1064.055, 1714.221
1065.298, 1764.382
1066.540, 1820.921
1067.783, 1740.064
1069.025, 1666.174
1070.267, 1596.097
1071.509, 1604.451
1072.751, 1630.865
1073.993, 1515.352
1075.234, 1612.642
1076.475, 1635.906
1077.716, 1561.186
1078.957, 1552.479
1080.198, 1587.976
1081.438, 1567.499
1082.679, 1521.872
1083.919, 1516.959
1085.159, 1497.384
1086.398, 1437.962
1087.638, 1401.493
1088.877, 1382.054
1090.116, 1350.721
1091.355, 1334.533
1092.594, 1319.201
1093.833, 1284.436
1095.071, 1276.087
1096.309, 1230.763
1097.547, 1215.710
1098.785, 1234.453
1100.023, 1110.223
1101.260, 1199.891
1102.498, 1163.749
1103.735, 1082.606
1104.972, 1092.116
1106.208, 1133.003
1107.445, 1040.253
1108.681, 1046.177
1109.918, 1024.419
1111.154, 1102.353
1112.389, 1014.301
1113.625, 967.255
1114.860, 1034.457
1116.096, 1024.465
1117.331, 1041.532
1118.566, 1023.713
1119.800, 1015.692
1121.035, 1103.305
1122.269, 1193.354
1123.503, 1176.100
1124.737, 1287.402
1125.971, 1137.472
1127.205, 1079.586
1128.438, 962.591
1129.671, 1034.599
1130.904, 939.162
1132.137, 938.832
1133.370, 872.109
1134.602, 892.400
1135.834, 901.424
1137.066, 816.461
1138.298, 806.500
1139.530, 799.134
1140.762, 682.473
1141.993, 692.666
1143.224, 506.862
1144.455, 554.679
1145.686, 440.486
1146.917, 445.254
1148.147, 368.041
1149.377, 273.404
1150.607, 255.866
1151.837, 157.025
1153.067, 126.251
1154.296, 130.510
1155.526, 51.590
1156.755, 85.799
1157.984, 79.493
1159.213, 23.559
1160.441, 115.489
1161.670, 16.275
1162.898, 51.968
1164.126, 26.064
1165.354, 38.714
1166.581, 18.865
1167.809, 42.725
1169.036, 16.777
1170.263, 0.479
1171.490, 30.440
1172.717, 51.391
1173.943, 20.105
1175.170, 65.766
1176.396, 90.812
1177.622, 36.119
1178.848, 56.347
1180.073, 21.609
1181.299, 85.657
1182.524, 13.747
1183.749, 50.090
1184.974, 2.805
1186.199, 18.146
1187.423, 21.454
1188.648, 2.854
1189.872, 12.207
1191.096, 30.642
1192.320, 78.988
1193.543, 46.329
1194.767, 42.793
1195.990, 0.636
1197.213, 38.959
1198.436, 28.588
1199.659, 42.245
1200.881, 7.849
1202.104, 59.558
1203.326, 67.958
1204.548, 17.766
1205.770, 9.469
1206.991, 20.677
1208.213, 59.093
1209.434, 13.004
1210.655, 21.940
1211.876, 28.095
1213.096, 6.119
1214.317, 17.871
1215.537, 39.110
1216.757, 2.080
1217.977, 16.032
1219.197, 14.971
1220.417, 13.771
1221.636, 35.817
1222.855, 49.727
1224.074, 50.801
1225.293, 109.509
1226.512, 21.439
1227.731, 22.293
1228.949, 92.134
1230.167, 7.039
1231.385, 78.771
1232.603, 30.874
1233.820, 48.346
1235.038, 7.888
1236.255, 17.854
1237.472, 45.580
1238.689, 46.292
1239.906, 16.991
1241.122, 88.673
1242.338, 73.341
1243.555, 32.992
1244.771, 91.648
1245.986, 108.269
1247.202, 3.125
1248.417, 62.469
1249.633, 70.035
1250.848, 22.586
1252.063, 78.115
1253.277, 34.624
1254.492, 78.107
1255.706, 38.032
1256.920, 86.529
1258.134, 113.498
1259.348, 120.096
1260.562, 45.370
1261.775, 75.602
1262.988, 63.729
1264.201, 50.103
1265.414, 95.031
1266.627, 31.993
1267.839, 75.936
1269.052, 77.140
1270.264, 97.869
1271.476, 76.237
1272.688, 67.661
1273.899, 101.411
1275.111, 111.690
1276.322, 85.099
1277.533, 62.546
1278.744, 55.543
1279.955, 55.519
1281.165, 98.473
1282.376, 96.407
1283.586, 97.323
1284.796, 41.216
1286.006, 56.086
1287.215, 24.936
1288.425, 67.762
1289.634, 36.569
1290.843, 37.354
1292.052, 39.117
1293.261, 38.848
1294.469, 58.577
1295.678, 53.275
1296.886, 75.952
1298.094, 69.609
1299.302, 67.245
1300.509, 94.861
1301.717, 28.458
1302.924, 45.029
1304.131, 32.826
1305.338, 37.100
1306.545, 28.598
1307.752, 69.714
1308.958, 88.165
1310.164, 71.595
1311.370, 48.633
1312.576, 57.020
1313.782, 119.701
1314.987, 23.587
1316.193, 85.870
1317.398, 79.028
1318.603, 44.906
1319.807, 66.168
1321.012, 79.985
1322.216, 28.155
1323.421, 101.646
1324.625, 122.824
1325.829, 56.036
1327.032, 51.232
1328.236, 100.759
1329.439, 46.049
1330.642, 36.142
1331.845, 115.250
1333.048, 65.318
1334.251, 73.155
1335.453, 97.460
1336.656, 59.578
1337.858, 47.586
1339.060, 59.581
1340.261, 74.736
1341.463, 100.478
1342.664, 97.756
1343.866, 127.627
1345.067, 49.584
1346.267, 69.639
1347.468, 19.399
1348.669, 71.576
1349.869, 31.851
1351.069, 64.595
1352.269, 37.418
1353.469, 58.960
1354.668, 102.338
1355.868, 91.134
1357.067, 98.746
1358.266, 65.359
1359.465, 80.257
1360.664, 65.081
1361.862, 67.145
1363.061, 96.761
1364.259, 102.823
1365.457, 118.271
1366.655, 116.727
1367.852, 83.777
1369.050, 137.403
1370.247, 37.618
1371.444, 92.887
1372.641, 66.529
1373.838, 63.997
1375.035, 55.171
1376.231, 75.056
1377.427, 94.063
1378.623, 85.032
1379.819, 95.307
1381.015, 104.659
1382.211, 140.429
1383.406, 108.315
1384.601, 127.828
1385.796, 98.276
1386.991, 85.290
1388.185, 40.867
1389.380, 71.466
1390.574, 70.977
1391.768, 42.527
1392.962, 91.564
1394.156, 43.738
1395.350, 97.183
1396.543, 74.422
1397.736, 46.052
1398.929, 123.289
1400.122, 39.533
1401.315, 107.683
1402.507, 79.369
1403.700, 66.057
1404.892, 95.471
1406.084, 101.631
1407.276, 71.407
1408.467, 113.764
1409.659, 51.025
1410.850, 81.760
1412.041, 104.115
1413.232, 77.510
1414.423, 81.670
1415.614, 55.421
1416.804, 42.449
1417.994, 55.244
1419.184, 54.866
1420.374, 72.320
1421.564, 77.843
1422.753, 70.186
1423.943, 28.975
1425.132, 134.808
1426.321, 32.512
1427.510, 64.800
1428.698, 27.531
1429.887, 89.333
1431.075, 138.355
1432.263, 108.714
1433.451, 287.388
1434.639, 81.393
1435.827, 71.358
1437.014, 55.266
1438.201, 127.034
1439.388, 34.907
1440.575, 71.745
1441.762, 127.552
1442.949, 73.334
1444.135, 76.084
1445.321, 83.789
1446.507, 19.460
1447.693, 98.042
1448.879, 68.602
1450.064, 59.150
1451.250, 55.676
1452.435, 22.239
1453.620, 90.850
1454.805, 71.459
1455.989, 50.149
1457.174, 101.920
1458.358, 82.758
1459.542, 74.652
1460.726, 99.611
1461.910, 70.604
1463.093, 47.634
1464.277, 95.692
1465.460, 64.711
1466.643, 86.861
1467.826, 56.980
1469.009, 26.100
1470.191, 19.219
1471.373, 101.341
1472.556, 48.476
1473.738, 100.624
1474.919, 31.792
1476.101, 81.988
1477.283, 2.772
1478.464, 1.480
1479.645, 57.871
1480.826, 33.282
1482.007, 52.748
1483.187, 57.263
1484.368, 53.823
1485.548, 11.429
1486.728, 61.085
1487.908, 30.796
1489.088, 57.574
1490.268, 64.431
1491.447, 16.108
1492.626, 92.001
1493.805, 34.101
1494.984, 0.700
1496.163, 2.611
1497.341, 0.952
1498.520, 6.652
1499.698, 14.490
1500.876, 9.929
1502.054, 0.264
1503.232, 8.926
1504.409, 0.000
##END=



