##NAMES=Aegirine
##RRUFFID=R050074
##IDEAL CHEMISTRY=NaFe^3+^Si_2_O_6_
##LOCALITY=Mt. Malosa, Zomba, Chilwa, Alkaline Area, Malawi
##OWNER=RRUFF
##SOURCE=Rock Currier
##DESCRIPTION=Black prismatic single crystal
##STATUS=The identification of this mineral has been confirmed by X-ray diffraction and chemical analysis
##URL=rruff.info/R050074
##MEASURED CHEMISTRY=(Na_0.98_Ca_0.02_)_Σ=1_(Fe^3+^_0.96_Ti_0.01_Mn_0.03_)_Σ=1_Si_2.00_O_6_
##PIN_ID=L00202
##ORIENTATION=Laser parallel to (1 0 1). Fiducial mark perpendicular to laser is parallel to -b [0 -1 0]
102.712, 0.000
104.109, 48.527
105.505, 2.749
106.902, 121.440
108.298, 60.643
109.694, 209.837
111.090, 171.903
112.486, 292.602
113.881, 490.590
115.277, 611.689
116.672, 570.202
118.066, 885.089
119.461, 1376.753
120.855, 339.982
122.249, 205.211
123.643, 406.032
125.036, 465.594
126.430, 483.898
127.823, 732.582
129.216, 893.681
130.608, 1119.470
132.001, 1343.938
133.393, 1352.408
134.785, 1493.792
136.176, 1364.592
137.568, 1074.558
138.959, 861.118
140.350, 649.560
141.741, 474.826
143.131, 330.310
144.521, 139.709
145.911, 110.463
147.301, 89.846
148.691, 32.829
150.080, 32.444
151.469, 58.853
152.858, 57.703
154.247, 184.306
155.635, 397.025
157.024, 710.917
158.411, 747.028
159.799, 815.409
161.187, 863.107
162.574, 764.483
163.961, 534.662
165.348, 393.821
166.734, 321.122
168.121, 200.917
169.507, 308.534
170.893, 332.194
172.278, 577.088
173.664, 765.913
175.049, 1075.463
176.434, 1256.748
177.819, 1472.762
179.203, 1375.844
180.587, 1412.100
181.971, 1226.690
183.355, 1069.192
184.739, 1080.868
186.122, 1213.414
187.505, 1439.616
188.888, 1660.589
190.271, 1951.292
191.653, 2051.319
193.035, 2187.611
194.417, 2054.134
195.799, 1982.833
197.180, 1901.664
198.562, 1755.583
199.943, 1624.558
201.324, 1672.570
202.704, 1750.598
204.084, 2019.625
205.465, 2296.636
206.844, 2776.592
208.224, 3331.449
209.603, 3778.144
210.983, 4049.605
212.362, 4005.257
213.740, 4024.295
215.119, 3419.592
216.497, 2685.847
217.875, 1982.022
219.253, 1370.066
220.631, 873.976
222.008, 540.793
223.385, 255.535
224.762, 169.199
226.139, 33.786
227.515, 37.294
228.891, 12.276
230.267, 61.925
231.643, 104.650
233.018, 108.451
234.394, 174.328
235.769, 77.279
237.144, 76.303
238.518, 11.401
239.893, 60.569
241.267, 7.810
242.641, 64.880
244.014, 94.500
245.388, 180.042
246.761, 153.458
248.134, 164.690
249.507, 225.680
250.879, 197.341
252.252, 255.639
253.624, 190.668
254.996, 211.468
256.367, 307.119
257.739, 262.821
259.110, 245.104
260.481, 264.457
261.852, 271.325
263.222, 261.375
264.592, 225.085
265.962, 262.260
267.332, 198.708
268.702, 212.958
270.071, 220.554
271.440, 285.475
272.809, 364.195
274.178, 457.279
275.546, 555.521
276.915, 702.770
278.283, 818.430
279.650, 1047.374
281.018, 1196.657
282.385, 1476.300
283.752, 1741.164
285.119, 2167.183
286.486, 2389.091
287.852, 2812.750
289.218, 2971.328
290.584, 3268.321
291.950, 3414.382
293.316, 3290.745
294.681, 3284.873
296.046, 2980.448
297.411, 2712.136
298.775, 2348.424
300.140, 2169.094
301.504, 1937.593
302.868, 1896.718
304.231, 1799.670
305.595, 1731.474
306.958, 1716.428
308.321, 1727.894
309.684, 1700.596
311.047, 1724.128
312.409, 1631.921
313.771, 1624.162
315.133, 1629.004
316.495, 1590.079
317.856, 1698.345
319.217, 1791.194
320.578, 1870.368
321.939, 1954.744
323.299, 2208.052
324.660, 2469.271
326.020, 2752.405
327.380, 3289.436
328.739, 3724.454
330.099, 4428.570
331.458, 5170.753
332.817, 5992.946
334.176, 6869.389
335.534, 7695.528
336.892, 8622.927
338.251, 9090.952
339.608, 9579.735
340.966, 9808.421
342.323, 10367.016
343.681, 10695.519
345.037, 10773.952
346.394, 10902.306
347.751, 10380.589
349.107, 9998.800
350.463, 8766.938
351.819, 7825.003
353.174, 6873.011
354.530, 5888.977
355.885, 5181.908
357.240, 4837.807
358.594, 4468.671
359.949, 4228.500
361.303, 4151.291
362.657, 4232.047
364.011, 4360.765
365.365, 4287.445
366.718, 4359.088
368.071, 4327.693
369.424, 4346.261
370.777, 4359.790
372.129, 4448.281
373.481, 4534.736
374.833, 4614.155
376.185, 5010.538
377.537, 5349.884
378.888, 6090.196
380.239, 6585.470
381.590, 7372.711
382.941, 8039.918
384.291, 8486.997
385.642, 8652.655
386.992, 8676.533
388.341, 8279.450
389.691, 7689.578
391.040, 6899.862
392.389, 6162.616
393.738, 5067.286
395.087, 4328.310
396.435, 3618.129
397.784, 2942.846
399.132, 2526.689
400.479, 2158.629
401.827, 1726.676
403.174, 1416.672
404.521, 1431.015
405.868, 1080.301
407.215, 854.171
408.561, 922.230
409.908, 789.958
411.254, 718.834
412.599, 610.320
413.945, 508.569
415.290, 562.311
416.636, 388.514
417.980, 423.899
419.325, 286.097
420.670, 218.932
422.014, 175.630
423.358, 137.496
424.702, 91.431
426.045, 72.593
427.389, 34.846
428.732, 29.708
430.075, 16.970
431.417, 56.633
432.760, 80.353
434.102, 72.566
435.444, 17.665
436.786, 29.368
438.127, 3.756
439.469, 15.386
440.810, 22.085
442.151, 44.640
443.492, 2.716
444.832, 53.005
446.172, 0.813
447.512, 11.685
448.852, 19.399
450.192, 75.620
451.531, 104.769
452.870, 181.015
454.209, 206.358
455.548, 199.458
456.887, 296.019
458.225, 235.316
459.563, 292.727
460.901, 408.172
462.238, 354.329
463.576, 404.825
464.913, 428.013
466.250, 383.580
467.587, 420.690
468.923, 301.276
470.259, 307.641
471.596, 212.021
472.931, 264.359
474.267, 297.875
475.603, 251.247
476.938, 234.643
478.273, 320.759
479.608, 363.952
480.942, 358.855
482.276, 408.802
483.611, 457.721
484.944, 477.358
486.278, 557.143
487.612, 623.723
488.945, 864.162
490.278, 1076.531
491.611, 1316.879
492.943, 1647.206
494.276, 1975.519
495.608, 2229.819
496.940, 2415.102
498.271, 2329.361
499.603, 2231.594
500.934, 1953.797
502.265, 1798.970
503.596, 1466.115
504.927, 1367.230
506.257, 1166.316
507.587, 1112.374
508.917, 1080.404
510.247, 1047.405
511.577, 1030.377
512.906, 1003.322
514.235, 1047.239
515.564, 996.128
516.892, 1178.989
518.221, 1174.822
519.549, 1329.627
520.877, 1366.405
522.205, 1510.154
523.533, 1702.875
524.860, 2006.569
526.187, 2142.235
527.514, 2492.873
528.841, 3026.483
530.167, 3332.066
531.493, 4058.622
532.820, 4791.149
534.145, 6022.648
535.471, 7046.122
536.796, 8559.565
538.122, 10312.981
539.447, 12156.369
540.771, 13789.921
542.096, 15313.463
543.420, 15767.132
544.744, 15960.749
546.068, 15204.183
547.392, 14447.729
548.715, 13581.414
550.039, 12414.945
551.362, 12118.543
552.684, 11182.421
554.007, 10996.064
555.329, 10739.812
556.652, 10923.464
557.973, 11247.315
559.295, 11221.132
560.617, 11214.931
561.938, 11108.772
563.259, 10352.667
564.580, 9726.645
565.901, 8850.593
567.221, 8124.673
568.541, 7318.588
569.861, 6621.057
571.181, 5972.928
572.501, 5356.774
573.820, 4831.339
575.139, 4279.531
576.458, 3904.205
577.777, 3578.723
579.095, 3205.098
580.414, 2969.088
581.732, 2691.956
583.049, 2420.624
584.367, 2216.794
585.685, 2035.819
587.002, 1844.368
588.319, 1648.970
589.636, 1488.485
590.952, 1317.497
592.268, 1174.936
593.585, 1018.877
594.900, 891.581
596.216, 776.675
597.532, 722.084
598.847, 578.634
600.162, 498.594
601.477, 322.633
602.792, 339.056
604.106, 309.933
605.420, 192.458
606.734, 180.370
608.048, 139.643
609.361, 148.769
610.675, 116.259
611.988, 84.570
613.301, 139.260
614.614, 24.048
615.926, 83.335
617.238, 48.758
618.550, 41.094
619.862, 107.789
621.174, 28.571
622.485, 102.070
623.797, 7.394
625.108, 11.362
626.418, 3.572
627.729, 44.795
629.039, 43.442
630.349, 56.311
631.659, 15.012
632.969, 49.275
634.279, 43.618
635.588, 111.547
636.897, 92.553
638.206, 155.722
639.515, 139.684
640.823, 141.716
642.131, 203.026
643.439, 166.784
644.747, 204.772
646.055, 235.112
647.362, 245.392
648.669, 278.293
649.976, 275.723
651.283, 283.460
652.589, 347.423
653.896, 335.216
655.202, 383.964
656.508, 387.684
657.814, 359.373
659.119, 415.034
660.424, 458.666
661.729, 504.268
663.034, 508.841
664.339, 590.386
665.643, 740.902
666.947, 845.389
668.251, 1037.848
669.555, 1180.279
670.859, 1524.681
672.162, 1695.055
673.465, 1927.402
674.768, 2123.720
676.071, 2219.009
677.373, 2248.272
678.676, 2153.506
679.978, 1926.713
681.280, 1663.893
682.581, 1381.046
683.883, 1171.171
685.184, 908.269
686.485, 664.340
687.786, 587.385
689.087, 463.402
690.387, 433.394
691.687, 321.358
692.987, 330.297
694.287, 208.209
695.586, 209.096
696.886, 140.956
698.185, 134.789
699.484, 95.594
700.783, 100.371
702.081, 137.120
703.379, 104.842
704.677, 66.536
705.975, 103.201
707.273, 84.839
708.570, 30.448
709.868, 79.026
711.165, 61.576
712.462, 90.097
713.758, 54.590
715.055, 67.054
716.351, 75.489
717.647, 65.895
718.943, 57.272
720.238, 36.620
721.533, 40.939
722.829, 26.044
724.124, 40.487
725.418, 16.716
726.713, 25.911
728.007, 41.075
729.301, 27.212
730.595, 32.319
731.889, 20.398
733.182, 4.447
734.476, 15.459
735.769, 2.100
737.061, 15.391
738.354, 19.688
739.647, 19.809
740.939, 26.419
742.231, 6.820
743.523, 4.586
744.814, 14.325
746.106, 61.046
747.397, 16.759
748.688, 47.466
749.978, 7.170
751.269, 12.853
752.559, 28.519
753.849, 41.171
755.139, 26.808
756.429, 66.433
757.719, 32.063
759.008, 23.654
760.297, 22.750
761.586, 33.187
762.875, 65.680
764.163, 60.413
765.451, 49.173
766.739, 42.126
768.027, 79.264
769.315, 66.253
770.602, 68.795
771.890, 44.160
773.177, 103.723
774.463, 72.416
775.750, 108.904
777.036, 87.826
778.323, 54.524
779.609, 54.678
780.894, 83.450
782.180, 28.777
783.465, 85.946
784.750, 97.198
786.035, 76.479
787.320, 52.001
788.605, 23.428
789.889, 18.440
791.173, 50.119
792.457, 16.458
793.741, 32.552
795.024, 52.746
796.307, 41.974
797.591, 84.982
798.873, 5.792
800.156, 64.279
801.439, 29.272
802.721, 42.246
804.003, 15.250
805.285, 23.270
806.566, 29.310
807.848, 3.629
809.129, 6.559
810.410, 22.480
811.691, 56.394
812.971, 59.300
814.252, 88.199
815.532, 82.092
816.812, 117.978
818.092, 183.858
819.371, 179.732
820.651, 215.600
821.930, 251.464
823.209, 282.322
824.488, 351.175
825.766, 345.025
827.045, 367.870
828.323, 484.711
829.601, 497.549
830.878, 563.384
832.156, 684.216
833.433, 735.045
834.710, 801.873
835.987, 944.697
837.264, 1045.521
838.540, 1250.343
839.817, 1256.163
841.093, 1462.983
842.369, 1658.803
843.644, 1783.622
844.920, 1990.441
846.195, 2215.261
847.470, 2497.082
848.745, 2785.903
850.020, 2970.725
851.294, 3266.360
852.568, 3522.978
853.842, 3769.442
855.116, 4265.937
856.390, 4566.594
857.663, 4938.128
858.936, 5333.512
860.209, 5832.063
861.482, 6321.549
862.755, 6778.773
864.027, 7321.260
865.299, 7418.688
866.571, 7646.251
867.843, 7543.681
869.115, 7521.178
870.386, 7188.733
871.657, 6701.284
872.928, 6315.820
874.199, 5881.293
875.470, 5379.815
876.740, 4990.211
878.010, 4565.780
879.280, 4213.954
880.550, 3917.458
881.820, 3597.797
883.089, 3363.740
884.358, 3126.433
885.627, 2974.926
886.896, 2816.483
888.164, 2659.153
889.433, 2612.692
890.701, 2497.199
891.969, 2460.762
893.236, 2315.361
894.504, 2212.598
895.771, 2274.891
897.038, 2134.106
898.305, 2120.834
899.572, 2032.048
900.838, 2010.957
902.105, 2055.192
903.371, 1961.807
904.637, 1979.715
905.902, 1949.975
907.168, 1904.315
908.433, 1921.633
909.698, 1893.153
910.963, 1961.568
912.228, 2037.985
913.492, 2031.292
914.757, 2043.019
916.021, 2146.767
917.285, 2119.903
918.548, 2238.816
919.812, 2164.229
921.075, 2253.371
922.338, 2391.392
923.601, 2393.330
924.864, 2514.891
926.126, 2576.782
927.388, 2687.712
928.650, 2766.426
929.912, 2891.537
931.174, 3060.818
932.435, 3205.168
933.697, 3278.818
934.958, 3552.878
936.218, 3735.545
937.479, 4091.597
938.739, 4386.043
940.000, 4680.072
941.260, 5171.833
942.520, 5607.944
943.779, 6268.341
945.039, 7052.717
946.298, 7630.297
947.557, 8856.805
948.816, 9404.035
950.074, 10298.812
951.333, 10818.367
952.591, 11214.568
953.849, 11492.828
955.107, 11400.475
956.365, 11629.587
957.622, 11888.396
958.879, 11966.979
960.136, 12646.729
961.393, 13216.521
962.650, 14056.350
963.906, 14746.206
965.162, 16556.094
966.418, 17936.010
967.674, 19745.951
968.930, 21175.928
970.185, 23085.936
971.441, 23455.971
972.696, 22306.043
973.950, 20896.141
975.205, 18706.275
976.459, 16546.438
977.714, 14466.631
978.968, 12656.858
980.222, 11277.117
981.475, 10297.405
982.729, 9257.726
983.982, 8688.077
985.235, 7938.471
986.488, 7188.894
987.740, 6969.349
988.993, 6096.836
990.245, 5791.354
991.497, 5225.903
992.749, 4808.486
994.000, 4412.099
995.252, 4090.743
996.503, 3771.420
997.754, 3523.128
999.005, 3213.868
1000.256, 2968.640
1001.506, 2750.442
1002.756, 2651.277
1004.006, 2544.144
1005.256, 2375.044
1006.506, 2300.979
1007.755, 2222.285
1009.005, 2122.944
1010.254, 2136.325
1011.502, 2133.390
1012.751, 2135.488
1014.000, 2105.685
1015.248, 2168.850
1016.496, 2197.970
1017.744, 2214.297
1018.991, 2342.995
1020.239, 2414.653
1021.486, 2495.570
1022.733, 2661.599
1023.980, 2764.460
1025.227, 2985.303
1026.473, 3169.551
1027.719, 3469.564
1028.965, 3824.009
1030.211, 4239.189
1031.457, 4836.755
1032.702, 5473.395
1033.948, 6334.289
1035.193, 7456.510
1036.438, 8510.844
1037.682, 9698.078
1038.927, 11153.799
1040.171, 12190.544
1041.415, 12994.024
1042.659, 13086.925
1043.903, 12281.127
1045.146, 11035.940
1046.390, 9449.589
1047.633, 7925.264
1048.876, 6661.980
1050.118, 5632.317
1051.361, 4807.377
1052.603, 4241.206
1053.845, 3570.795
1055.087, 3241.108
1056.329, 2749.878
1057.571, 2572.116
1058.812, 2354.003
1060.053, 2042.042
1061.294, 1904.798
1062.535, 1703.379
1063.775, 1598.957
1065.016, 1461.539
1066.256, 1349.628
1067.496, 1290.574
1068.736, 1243.212
1069.975, 1191.820
1071.214, 1159.726
1072.454, 1124.939
1073.693, 1065.899
1074.931, 1098.702
1076.170, 958.876
1077.408, 1005.153
1078.647, 946.050
1079.885, 937.983
1081.122, 941.940
1082.360, 845.932
1083.597, 856.718
1084.835, 857.779
1086.072, 832.572
1087.308, 835.984
1088.545, 871.235
1089.781, 828.346
1091.018, 855.610
1092.254, 826.989
1093.490, 819.712
1094.725, 784.028
1095.961, 835.177
1097.196, 854.544
1098.431, 836.305
1099.666, 844.531
1100.900, 925.451
1102.135, 894.922
1103.369, 929.436
1104.603, 928.055
1105.837, 895.609
1107.071, 983.192
1108.304, 914.838
1109.538, 986.462
1110.771, 989.123
1112.004, 1036.754
1113.236, 1056.473
1114.469, 1063.157
1115.701, 1085.955
1116.933, 1085.652
1118.165, 1193.419
1119.397, 1168.086
1120.629, 1303.501
1121.860, 1237.186
1123.091, 1302.184
1124.322, 1339.885
1125.553, 1332.637
1126.783, 1368.317
1128.014, 1491.042
1129.244, 1428.907
1130.474, 1454.701
1131.704, 1371.765
1132.933, 1489.552
1134.163, 1381.413
1135.392, 1333.449
1136.621, 1371.527
1137.850, 1264.301
1139.079, 1206.138
1140.307, 1081.522
1141.535, 986.792
1142.763, 823.326
1143.991, 772.178
1145.219, 621.976
1146.446, 513.241
1147.674, 363.046
1148.901, 342.895
1150.128, 277.858
1151.354, 153.773
1152.581, 249.890
1153.807, 152.875
1155.033, 100.674
1156.259, 114.873
1157.485, 18.226
1158.710, 8.638
1159.936, 10.471
1161.161, 2.462
1162.386, 7.689
1163.611, 32.638
1164.835, 4.064
1166.060, 17.892
1167.284, 39.628
1168.508, 93.596
1169.732, 43.757
1170.955, 38.843
1172.179, 71.006
1173.402, 42.818
1174.625, 36.854
1175.848, 107.020
1177.070, 53.255
1178.293, 57.650
1179.515, 41.068
1180.737, 43.369
1181.959, 46.929
1183.181, 47.001
1184.402, 91.504
1185.624, 65.776
1186.845, 80.365
1188.066, 26.813
1189.286, 15.320
1190.507, 34.829
1191.727, 42.806
1192.947, 22.683
1194.167, 53.485
1195.387, 4.429
1196.607, 61.110
1197.826, 39.344
1199.045, 34.344
1200.264, 13.144
1201.483, 39.239
1202.702, 2.631
1203.920, 35.443
1205.138, 28.572
1206.356, 29.718
1207.574, 39.898
1208.792, 19.949
1210.009, 16.218
1211.227, 17.113
1212.444, 8.597
1213.661, 35.817
1214.877, 25.859
1216.094, 36.597
1217.310, 21.115
1218.526, 18.329
1219.742, 12.853
1220.958, 36.671
1222.173, 23.081
1223.389, 22.471
1224.604, 53.841
1225.819, 57.231
1227.034, 74.648
1228.248, 76.571
1229.463, 20.286
1230.677, 69.691
1231.891, 23.961
1233.105, 12.207
1234.318, 57.766
1235.532, 22.040
1236.745, 71.270
1237.958, 53.505
1239.171, 39.054
1240.384, 115.167
1241.596, 29.285
1242.809, 92.375
1244.021, 46.420
1245.233, 10.445
1246.444, 44.440
1247.656, 112.416
1248.867, 29.623
1250.079, 70.569
1251.290, 91.648
1252.500, 90.623
1253.711, 81.728
1254.921, 91.558
1256.132, 87.331
1257.342, 98.462
1258.552, 81.251
1259.761, 94.062
1260.971, 76.797
1262.180, 98.508
1263.389, 85.467
1264.598, 170.861
1265.807, 51.502
1267.015, 122.115
1268.223, 73.706
1269.432, 123.278
1270.640, 109.818
1271.847, 48.333
1273.055, 140.819
1274.262, 93.279
1275.470, 111.714
1276.677, 80.117
1277.883, 24.490
1279.090, 103.828
1280.296, 86.146
1281.503, 84.426
1282.709, 149.691
1283.915, 118.910
1285.120, 71.116
1286.326, 126.276
1287.531, 98.410
1288.736, 123.732
1289.941, 148.807
1291.146, 81.905
1292.350, 139.927
1293.555, 130.925
1294.759, 107.899
1295.963, 117.847
1297.167, 95.771
1298.370, 117.664
1299.574, 134.532
1300.777, 92.376
1301.980, 126.194
1303.183, 134.638
1304.386, 142.408
1305.588, 104.154
1306.790, 119.816
1307.993, 129.513
1309.195, 74.271
1310.396, 95.821
1311.598, 90.007
1312.799, 104.238
1314.000, 118.217
1315.201, 104.094
1316.402, 110.145
1317.603, 77.221
1318.803, 90.281
1320.003, 98.200
1321.203, 94.691
1322.403, 114.456
1323.603, 109.844
1324.802, 38.164
1326.002, 136.237
1327.201, 62.989
1328.400, 95.637
1329.599, 63.396
1330.797, 84.675
1331.995, 61.946
1333.194, 63.486
1334.392, 61.626
1335.589, 31.483
1336.787, 111.744
1337.985, 80.338
1339.182, 115.596
1340.379, 54.980
1341.576, 93.751
1342.772, 80.773
1343.969, 86.617
1345.165, 89.201
1346.361, 85.799
1347.557, 67.885
1348.753, 69.537
1349.949, 62.717
1351.144, 60.122
1352.339, 35.501
1353.534, 19.059
1354.729, 69.664
1355.924, 50.253
1357.118, 93.359
1358.312, 41.633
1359.506, 33.236
1360.700, 70.889
1361.894, 57.271
1363.088, 65.370
1364.281, 43.747
1365.474, 88.300
1366.667, 84.515
1367.860, 67.652
1369.052, 59.869
1370.245, 49.414
1371.437, 74.957
1372.629, 71.487
1373.821, 39.251
1375.013, 72.756
1376.204, 70.560
1377.395, 18.727
1378.586, 47.074
1379.777, 50.572
1380.968, 44.914
1382.159, 14.146
1383.349, 83.048
1384.539, 57.378
1385.729, 58.656
1386.919, 106.497
1388.109, 75.990
1389.298, 66.757
1390.487, 83.575
1391.676, 21.276
1392.865, 57.956
1394.054, 28.514
1395.242, 41.968
1396.431, 22.482
1397.619, 42.253
1398.807, 27.446
1399.995, 64.799
1401.182, 71.071
1402.370, 47.016
1403.557, 72.868
1404.744, 70.958
1405.931, 75.561
1407.118, 70.945
1408.304, 59.734
1409.490, 57.701
1410.676, 57.125
1411.862, 48.727
1413.048, 79.074
1414.234, 87.344
1415.419, 109.923
1416.604, 60.267
1417.789, 70.644
1418.974, 49.719
1420.159, 54.280
1421.343, 53.406
1422.528, 38.026
1423.712, 57.805
1424.896, 34.987
1426.079, 91.722
1427.263, 31.573
1428.446, 49.441
1429.629, 42.467
1430.812, 0.292
1431.995, 46.699
1433.178, 18.267
1434.360, 60.554
1435.543, 67.212
1436.725, 62.990
1437.907, 50.573
1439.088, 44.159
1440.270, 58.811
1441.451, 65.509
1442.632, 81.228
1443.813, 85.803
1444.994, 64.605
1446.175, 75.394
1447.355, 44.343
1448.535, 22.064
1449.715, 83.952
1450.895, 20.604
1452.075, 79.821
1453.255, 27.420
1454.434, 78.281
1455.613, 54.037
1456.792, 21.797
1457.971, 34.586
1459.149, 55.815
1460.328, 23.855
1461.506, 47.138
1462.684, 32.242
1463.862, 34.848
1465.040, 54.351
1466.217, 32.962
1467.395, 58.565
1468.572, 57.162
1469.749, 46.737
1470.925, 45.333
1472.102, 70.935
1473.278, 53.583
1474.455, 51.237
1475.631, 62.182
1476.807, 31.653
1477.982, 76.469
1479.158, 62.678
1480.333, 73.760
1481.508, 42.287
1482.683, 60.176
1483.858, 58.101
1485.033, 62.032
1486.207, 16.968
1487.381, 68.881
1488.555, 20.783
1489.729, 38.739
1490.903, 27.732
1492.076, 31.731
1493.250, 8.757
1494.423, 21.909
1495.596, 0.481
1496.769, 46.427
1497.941, 43.353
1499.114, 57.297
1500.286, 27.259
1501.458, 47.234
1502.630, 21.231
1503.802, 66.253
1504.973, 31.273
1506.145, 30.286
1507.316, 55.293
1508.487, 62.288
1509.657, 10.511
1510.828, 57.690
1511.999, 17.210
1513.169, 41.810
1514.339, 65.508
1515.509, 32.328
1516.678, 68.318
1517.848, 42.447
1519.017, 36.629
1520.187, 33.234
1521.356, 4.430
1522.524, 8.640
1523.693, 29.547
1524.861, 0.000
##END=



