##NAMES=Aegirine
##RRUFFID=R050074
##IDEAL CHEMISTRY=NaFe^3+^Si_2_O_6_
##LOCALITY=Mt. Malosa, Zomba, Chilwa, Alkaline Area, Malawi
##OWNER=RRUFF
##SOURCE=Rock Currier
##DESCRIPTION=Black prismatic single crystal
##STATUS=The identification of this mineral has been confirmed by X-ray diffraction and chemical analysis
##URL=rruff.info/R050074
##MEASURED CHEMISTRY=(Na_0.98_Ca_0.02_)_Σ=1_(Fe^3+^_0.96_Ti_0.01_Mn_0.03_)_Σ=1_Si_2.00_O_6_
##PIN_ID=L00512
##ORIENTATION=Laser parallel to -b* (0 -1 0). Fiducial mark perpendicular to laser is parallel to c [0 0 1]
99.917, 0.000
101.314, 116.258
102.712, 108.534
104.109, 5.216
105.505, 83.491
106.902, 307.732
108.298, 321.540
109.694, 300.851
111.090, 318.222
112.486, 394.077
113.881, 573.179
115.277, 543.544
116.672, 640.505
118.066, 493.307
119.461, 476.471
120.855, 435.377
122.249, 323.266
123.643, 374.530
125.036, 511.668
126.430, 461.556
127.823, 527.884
129.216, 596.261
130.608, 673.893
132.001, 679.546
133.393, 700.168
134.785, 634.684
136.176, 548.795
137.568, 444.308
138.959, 436.896
140.350, 354.032
141.741, 358.692
143.131, 235.757
144.521, 222.894
145.911, 134.660
147.301, 118.898
148.691, 52.771
150.080, 82.373
151.469, 122.889
152.858, 73.158
154.247, 113.126
155.635, 71.332
157.024, 25.828
158.411, 26.820
159.799, 5.784
161.187, 63.766
162.574, 97.053
163.961, 143.483
165.348, 198.837
166.734, 221.008
168.121, 440.824
169.507, 729.566
170.893, 1111.102
172.278, 1695.238
173.664, 2452.138
175.049, 2997.017
176.434, 3330.154
177.819, 3230.289
179.203, 2972.409
180.587, 2287.220
181.971, 1643.967
183.355, 1290.815
184.739, 933.513
186.122, 800.959
187.505, 775.764
188.888, 664.888
190.271, 624.292
191.653, 609.934
193.035, 535.775
194.417, 501.777
195.799, 605.097
197.180, 507.581
198.562, 491.858
199.943, 418.177
201.324, 471.522
202.704, 517.866
204.084, 527.188
205.465, 572.467
206.844, 657.668
208.224, 654.761
209.603, 738.745
210.983, 767.609
212.362, 711.307
213.740, 673.818
215.119, 563.199
216.497, 479.458
217.875, 389.609
219.253, 334.686
220.631, 256.685
222.008, 155.603
223.385, 170.438
224.762, 65.191
226.139, 15.856
227.515, 17.420
228.891, 29.273
230.267, 43.220
231.643, 68.547
233.018, 46.426
234.394, 109.416
235.769, 71.508
237.144, 111.692
238.518, 58.957
239.893, 46.303
241.267, 28.740
242.641, 65.279
244.014, 38.938
245.388, 54.736
246.761, 37.710
248.134, 18.882
249.507, 10.979
250.879, 0.040
252.252, 37.095
253.624, 76.939
254.996, 127.575
256.367, 128.014
257.739, 227.292
259.110, 253.440
260.481, 341.498
261.852, 385.482
263.222, 488.800
264.592, 476.433
265.962, 598.649
267.332, 715.019
268.702, 837.117
270.071, 866.572
271.440, 1075.785
272.809, 1135.972
274.178, 1192.890
275.546, 1198.268
276.915, 1179.312
278.283, 1161.936
279.650, 1181.922
281.018, 1048.540
282.385, 1030.712
283.752, 1005.366
285.119, 866.620
286.486, 857.284
287.852, 850.124
289.218, 758.525
290.584, 819.802
291.950, 745.396
293.316, 821.723
294.681, 785.761
296.046, 796.943
297.411, 923.024
298.775, 812.022
300.140, 899.459
301.504, 948.760
302.868, 929.114
304.231, 989.416
305.595, 978.119
306.958, 1076.722
308.321, 1105.477
309.684, 1099.876
311.047, 1155.345
312.409, 1161.400
313.771, 1150.124
315.133, 1197.238
316.495, 1237.251
317.856, 1293.989
319.217, 1390.692
320.578, 1478.579
321.939, 1620.454
323.299, 1797.402
324.660, 2036.608
326.020, 2308.679
327.380, 2622.092
328.739, 3150.490
330.099, 3540.158
331.458, 3980.253
332.817, 4378.232
334.176, 4602.967
335.534, 4713.348
336.892, 4651.498
338.251, 4451.437
339.608, 4231.211
340.966, 3889.857
342.323, 3522.411
343.681, 3232.890
345.037, 2975.313
346.394, 2813.691
347.751, 2686.033
349.107, 2551.060
350.463, 2312.527
351.819, 2273.883
353.174, 2324.766
354.530, 2176.469
355.885, 2250.101
357.240, 2194.409
358.594, 2251.562
359.949, 2257.132
361.303, 2271.277
362.657, 2388.341
364.011, 2418.082
365.365, 2462.028
366.718, 2598.152
368.071, 2705.299
369.424, 2849.620
370.777, 3055.281
372.129, 3433.914
373.481, 3830.884
374.833, 4312.960
376.185, 4988.788
377.537, 5780.445
378.888, 6572.629
380.239, 7643.450
381.590, 8354.885
382.941, 9035.965
384.291, 9296.394
385.642, 9375.869
386.992, 9075.542
388.341, 8543.700
389.691, 7590.417
391.040, 6847.263
392.389, 5915.396
393.738, 4899.201
395.087, 4187.992
396.435, 3514.233
397.784, 2866.584
399.132, 2481.376
400.479, 2139.709
401.827, 1776.416
403.174, 1554.980
404.521, 1339.710
405.868, 1183.982
407.215, 1053.795
408.561, 996.723
409.908, 867.152
411.254, 787.831
412.599, 706.079
413.945, 615.096
415.290, 563.432
416.636, 507.429
417.980, 434.080
419.325, 376.762
420.670, 348.304
422.014, 309.097
423.358, 278.354
424.702, 279.810
426.045, 207.718
427.389, 236.585
428.732, 157.878
430.075, 174.576
431.417, 140.519
432.760, 139.394
434.102, 134.624
435.444, 95.932
436.786, 122.596
438.127, 93.194
439.469, 84.724
440.810, 130.190
442.151, 111.576
443.492, 114.938
444.832, 137.225
446.172, 127.541
447.512, 163.726
448.852, 155.274
450.192, 170.859
451.531, 153.344
452.870, 168.478
454.209, 172.371
455.548, 116.461
456.887, 216.052
458.225, 157.962
459.563, 103.078
460.901, 168.648
462.238, 57.815
463.576, 122.337
464.913, 70.566
466.250, 76.779
467.587, 53.696
468.923, 46.625
470.259, 47.538
471.596, 35.457
472.931, 28.437
474.267, 66.330
475.603, 35.249
476.938, 36.027
478.273, 87.776
479.608, 90.656
480.942, 111.373
482.276, 91.062
483.611, 92.754
484.944, 67.462
486.278, 115.184
487.612, 97.913
488.945, 155.637
490.278, 121.361
491.611, 171.081
492.943, 190.798
494.276, 224.515
495.608, 266.223
496.940, 269.929
498.271, 239.629
499.603, 339.319
500.934, 283.008
502.265, 345.687
503.596, 266.358
504.927, 295.034
506.257, 337.700
507.587, 374.359
508.917, 405.010
510.247, 414.655
511.577, 453.296
512.906, 441.932
514.235, 434.566
515.564, 560.199
516.892, 572.830
518.221, 740.461
519.549, 758.093
520.877, 909.723
522.205, 1000.353
523.533, 1198.984
524.860, 1456.617
526.187, 1608.251
527.514, 1903.885
528.841, 2289.519
530.167, 2764.153
531.493, 3296.784
532.820, 3854.414
534.145, 4949.039
535.471, 5574.661
536.796, 6838.279
538.122, 7984.895
539.447, 8946.512
540.771, 9838.127
542.096, 10359.749
543.420, 10241.371
544.744, 10063.001
546.068, 9314.712
547.392, 8716.360
548.715, 7918.157
550.039, 6971.888
551.362, 6401.793
552.684, 5672.748
554.007, 5130.606
555.329, 4573.635
556.652, 4140.820
557.973, 3868.017
559.295, 3456.150
560.617, 3179.392
561.938, 2956.647
563.259, 2711.932
564.580, 2542.260
565.901, 2417.717
567.221, 2177.199
568.541, 1975.755
569.861, 1907.423
571.181, 1805.224
572.501, 1539.120
573.820, 1429.752
575.139, 1397.378
576.458, 1301.341
577.777, 1193.923
579.095, 1048.381
580.414, 989.834
581.732, 932.615
583.049, 860.479
584.367, 798.950
585.685, 764.216
587.002, 681.432
588.319, 609.670
589.636, 593.896
590.952, 484.715
592.268, 346.570
593.585, 371.536
594.900, 268.249
596.216, 250.166
597.532, 198.648
598.847, 196.346
600.162, 142.168
601.477, 85.883
602.792, 103.926
604.106, 34.636
605.420, 79.001
606.734, 48.046
608.048, 9.215
609.361, 24.999
610.675, 22.674
611.988, 32.127
613.301, 13.491
614.614, 29.124
615.926, 46.126
617.238, 3.241
618.550, 28.949
619.862, 8.888
621.174, 28.598
622.485, 14.755
623.797, 14.137
625.108, 26.442
626.418, 19.916
627.729, 17.501
629.039, 13.724
630.349, 1.093
631.659, 25.800
632.969, 20.293
634.279, 61.521
635.588, 67.699
636.897, 41.306
638.206, 80.876
639.515, 91.109
640.823, 125.134
642.131, 143.214
643.439, 174.883
644.747, 192.212
646.055, 220.032
647.362, 231.793
648.669, 268.877
649.976, 264.004
651.283, 324.422
652.589, 341.617
653.896, 312.708
655.202, 382.024
656.508, 404.174
657.814, 497.933
659.119, 480.940
660.424, 533.196
661.729, 652.860
663.034, 775.854
664.339, 885.991
665.643, 1064.071
666.947, 1266.136
668.251, 1536.195
669.555, 1786.188
670.859, 2190.118
672.162, 2493.101
673.465, 2761.996
674.768, 2919.935
676.071, 2719.813
677.373, 2638.684
678.676, 2358.544
679.978, 1985.397
681.280, 1570.240
682.581, 1292.075
683.883, 1049.902
685.184, 833.719
686.485, 659.527
687.786, 521.106
689.087, 434.117
690.387, 346.898
691.687, 288.670
692.987, 228.845
694.287, 189.188
695.586, 142.932
696.886, 119.668
698.185, 90.394
699.484, 102.111
700.783, 100.819
702.081, 73.517
703.379, 90.204
704.677, 58.883
705.975, 79.550
707.273, 43.207
708.570, 38.853
709.868, 66.486
711.165, 35.108
712.462, 6.718
713.758, 16.314
715.055, 41.897
716.351, 28.026
717.647, 34.200
718.943, 35.492
720.238, 32.167
721.533, 10.421
722.829, 12.424
724.124, 4.891
725.418, 2.064
726.713, 0.484
728.007, 2.051
729.301, 8.363
730.595, 12.761
731.889, 1.856
733.182, 27.507
734.476, 58.854
735.769, 10.812
737.061, 0.497
738.354, 20.788
739.647, 25.936
740.939, 10.310
742.231, 24.542
743.523, 0.760
744.814, 2.962
746.106, 28.148
747.397, 20.321
748.688, 6.482
749.978, 13.628
751.269, 7.357
752.559, 68.883
753.849, 10.994
755.139, 28.092
756.429, 37.178
757.719, 5.253
759.008, 5.688
760.297, 0.270
761.586, 17.292
762.875, 3.721
764.163, 9.052
765.451, 20.207
766.739, 3.610
768.027, 6.450
769.315, 16.802
770.602, 41.616
771.890, 17.810
773.177, 65.267
774.463, 24.246
775.750, 0.878
777.036, 40.913
778.323, 40.709
779.609, 87.544
780.894, 22.147
782.180, 45.190
783.465, 19.490
784.750, 38.218
786.035, 76.048
787.320, 20.843
788.605, 83.692
789.889, 17.449
791.173, 54.209
792.457, 20.138
793.741, 29.933
795.024, 10.729
796.307, 11.549
797.591, 23.392
798.873, 31.263
800.156, 24.832
801.439, 1.085
802.721, 10.817
804.003, 25.030
805.285, 10.932
806.566, 20.082
807.848, 22.917
809.129, 9.946
810.410, 23.001
811.691, 18.064
812.971, 51.844
814.252, 10.740
815.532, 34.378
816.812, 46.469
818.092, 14.306
819.371, 20.130
820.651, 20.941
821.930, 19.578
823.209, 32.530
824.488, 44.307
825.766, 29.074
827.045, 55.830
828.323, 33.576
829.601, 74.311
830.878, 56.036
832.156, 85.751
833.433, 53.456
834.710, 74.151
835.987, 120.837
837.264, 94.513
838.540, 89.179
839.817, 143.836
841.093, 111.483
842.369, 138.121
843.644, 152.749
844.920, 168.368
846.195, 197.978
847.470, 185.579
848.745, 226.171
850.020, 215.754
851.294, 209.328
852.568, 291.891
853.842, 251.448
855.116, 322.996
856.390, 299.465
857.663, 287.996
858.936, 350.388
860.209, 342.859
861.482, 360.171
862.755, 372.458
864.027, 409.853
865.299, 373.109
866.571, 452.239
867.843, 423.403
869.115, 410.666
870.386, 431.865
871.657, 450.083
872.928, 448.300
874.199, 444.496
875.470, 453.597
876.740, 454.701
878.010, 462.759
879.280, 512.733
880.550, 475.598
881.820, 433.385
883.089, 523.454
884.358, 492.536
885.627, 468.301
886.896, 519.447
888.164, 468.726
889.433, 548.009
890.701, 547.828
891.969, 505.936
893.236, 541.355
894.504, 567.422
895.771, 571.156
897.038, 604.324
898.305, 607.188
899.572, 612.317
900.838, 614.419
902.105, 639.582
903.371, 614.499
904.637, 708.505
905.902, 760.833
907.168, 827.920
908.433, 828.083
909.698, 834.288
910.963, 909.188
912.228, 973.521
913.492, 902.163
914.757, 982.287
916.021, 988.692
917.285, 1094.703
918.548, 1115.198
919.812, 1089.984
921.075, 1128.895
922.338, 1210.560
923.601, 1291.785
924.864, 1416.390
926.126, 1444.118
927.388, 1559.354
928.650, 1563.903
929.912, 1656.176
931.174, 1802.461
932.435, 1869.821
933.697, 1921.196
934.958, 2077.527
936.218, 2267.052
937.479, 2473.479
938.739, 2577.544
940.000, 2784.991
941.260, 3123.580
942.520, 3282.229
943.779, 3747.676
945.039, 3966.178
946.298, 4258.111
947.557, 4875.175
948.816, 4860.200
950.074, 5249.537
951.333, 5166.421
952.591, 5265.747
953.849, 5346.383
955.107, 5079.558
956.365, 5079.905
957.622, 4917.029
958.879, 4729.370
960.136, 4679.812
961.393, 4452.027
962.650, 4266.405
963.906, 4087.169
965.162, 3970.683
966.418, 3808.945
967.674, 3538.795
968.930, 3201.313
970.185, 3155.685
971.441, 2883.110
972.696, 2616.548
973.950, 2503.991
975.205, 2192.497
976.459, 2092.061
977.714, 1910.573
978.968, 1808.168
980.222, 1758.718
981.475, 1584.325
982.729, 1559.938
983.982, 1406.557
985.235, 1371.182
986.488, 1336.812
987.740, 1231.448
988.993, 1126.092
990.245, 1191.740
991.497, 1011.396
992.749, 1007.056
994.000, 893.724
995.252, 910.399
996.503, 835.081
997.754, 801.769
999.005, 785.463
1000.256, 757.165
1001.506, 736.006
1002.756, 700.586
1004.006, 683.307
1005.256, 674.034
1006.506, 623.769
1007.755, 643.510
1009.005, 629.259
1010.254, 614.015
1011.502, 636.779
1012.751, 699.550
1014.000, 631.330
1015.248, 722.119
1016.496, 728.916
1017.744, 710.722
1018.991, 809.541
1020.239, 798.371
1021.486, 818.214
1022.733, 820.067
1023.980, 808.930
1025.227, 872.180
1026.473, 830.061
1027.719, 872.951
1028.965, 919.734
1030.211, 878.428
1031.457, 979.350
1032.702, 979.006
1033.948, 991.948
1035.193, 1073.831
1036.438, 1056.792
1037.682, 1095.144
1038.927, 1101.122
1040.171, 1099.112
1041.415, 1122.622
1042.659, 1107.947
1043.903, 1064.988
1045.146, 1053.025
1046.390, 959.669
1047.633, 883.727
1048.876, 871.795
1050.118, 869.808
1051.361, 890.688
1052.603, 846.266
1053.845, 801.456
1055.087, 816.374
1056.329, 772.252
1057.571, 773.939
1058.812, 728.368
1060.053, 703.980
1061.294, 698.170
1062.535, 634.339
1063.775, 706.534
1065.016, 684.709
1066.256, 669.641
1067.496, 717.362
1068.736, 718.860
1069.975, 660.479
1071.214, 724.343
1072.454, 717.966
1073.693, 721.251
1074.931, 737.643
1076.170, 708.008
1077.408, 748.360
1078.647, 737.827
1079.885, 720.244
1081.122, 733.358
1082.360, 709.800
1083.597, 791.221
1084.835, 805.647
1086.072, 730.540
1087.308, 788.075
1088.545, 710.848
1089.781, 784.486
1091.018, 796.014
1092.254, 807.855
1093.490, 847.419
1094.725, 818.996
1095.961, 816.946
1097.196, 892.549
1098.431, 840.163
1099.666, 864.791
1100.900, 899.437
1102.135, 922.085
1103.369, 940.800
1104.603, 963.463
1105.837, 944.129
1107.071, 1048.806
1108.304, 1060.487
1109.538, 1138.261
1110.771, 1136.969
1112.004, 1115.713
1113.236, 1218.583
1114.469, 1175.310
1115.701, 1226.058
1116.933, 1307.860
1118.165, 1302.612
1119.397, 1429.404
1120.629, 1432.244
1121.860, 1560.192
1123.091, 1702.969
1124.322, 1730.746
1125.553, 1694.901
1126.783, 1617.759
1128.014, 1672.538
1129.244, 1689.320
1130.474, 1773.104
1131.704, 1740.182
1132.933, 1695.680
1134.163, 1675.472
1135.392, 1621.280
1136.621, 1564.155
1137.850, 1479.457
1139.079, 1359.751
1140.307, 1254.552
1141.535, 1062.354
1142.763, 893.586
1143.991, 811.392
1145.219, 639.198
1146.446, 578.057
1147.674, 413.878
1148.901, 414.690
1150.128, 323.502
1151.354, 224.316
1152.581, 214.199
1153.807, 136.049
1155.033, 128.865
1156.259, 106.754
1157.485, 70.611
1158.710, 40.522
1159.936, 33.437
1161.161, 26.407
1162.386, 46.450
1163.611, 31.062
1164.835, 40.381
1166.060, 32.217
1167.284, 26.625
1168.508, 55.743
1169.732, 24.867
1170.955, 35.103
1172.179, 14.000
1173.402, 22.961
1174.625, 13.155
1175.848, 21.964
1177.070, 19.824
1178.293, 43.137
1179.515, 18.049
1180.737, 23.989
1181.959, 53.234
1183.181, 8.526
1184.402, 27.726
1185.624, 5.271
1186.845, 7.301
1188.066, 11.665
1189.286, 24.927
1190.507, 19.526
1191.727, 6.037
1192.947, 11.596
1194.167, 7.120
1195.387, 13.995
1196.607, 32.328
1197.826, 45.625
1199.045, 55.820
1200.264, 0.224
1201.483, 28.384
1202.702, 11.162
1203.920, 23.595
1205.138, 19.047
1206.356, 21.514
1207.574, 8.861
1208.792, 19.372
1210.009, 13.120
1211.227, 12.341
1212.444, 39.834
1213.661, 36.043
1214.877, 0.115
1216.094, 33.467
1217.310, 5.064
1218.526, 16.682
1219.742, 19.683
1220.958, 11.916
1222.173, 11.474
1223.389, 18.906
1224.604, 11.417
1225.819, 11.969
1227.034, 4.667
1228.248, 20.217
1229.463, 32.510
1230.677, 33.797
1231.891, 1.118
1233.105, 13.388
1234.318, 4.739
1235.532, 9.993
1236.745, 59.239
1237.958, 5.479
1239.171, 34.709
1240.384, 41.933
1241.596, 5.151
1242.809, 55.400
1244.021, 62.606
1245.233, 72.807
1246.444, 37.002
1247.656, 66.225
1248.867, 24.491
1250.079, 40.668
1251.290, 56.839
1252.500, 42.042
1253.711, 50.200
1254.921, 24.212
1256.132, 68.356
1257.342, 35.492
1258.552, 18.621
1259.761, 64.743
1260.971, 40.893
1262.180, 32.022
1263.389, 46.122
1264.598, 37.213
1265.807, 27.339
1267.015, 19.414
1268.223, 45.806
1269.432, 46.865
1270.640, 12.916
1271.847, 29.956
1273.055, 101.987
1274.262, 52.008
1275.470, 69.137
1276.677, 57.156
1277.883, 55.130
1279.090, 80.093
1280.296, 49.044
1281.503, 33.984
1282.709, 104.913
1283.915, 57.831
1285.120, 81.740
1286.326, 66.636
1287.531, 15.522
1288.736, 76.392
1289.941, 59.248
1291.146, 44.434
1292.350, 54.262
1293.555, 74.078
1294.759, 61.881
1295.963, 72.675
1297.167, 41.453
1298.370, 50.421
1299.574, 73.177
1300.777, 41.925
1301.980, 49.670
1303.183, 37.399
1304.386, 37.118
1305.588, 32.824
1306.790, 28.515
1307.993, 40.197
1309.195, 29.869
1310.396, 5.530
1311.598, 15.177
1312.799, 0.814
1314.000, 25.435
1315.201, 20.975
1316.402, 42.645
1317.603, 34.855
1318.803, 22.433
1320.003, 44.991
1321.203, 23.657
1322.403, 32.412
1323.603, 54.938
1324.802, 26.730
1326.002, 66.234
1327.201, 55.792
1328.400, 59.271
1329.599, 23.357
1330.797, 21.813
1331.995, 21.558
1333.194, 53.185
1334.392, 13.295
1335.589, 38.695
1336.787, 8.097
1337.985, 46.887
1339.182, 25.263
1340.379, 67.629
1341.576, 42.046
1342.772, 3.405
1343.969, 82.446
1345.165, 17.156
1346.361, 3.665
1347.557, 50.214
1348.753, 45.952
1349.949, 65.947
1351.144, 2.243
1352.339, 58.991
1353.534, 109.248
1354.729, 9.481
1355.924, 34.733
1357.118, 24.233
1358.312, 33.944
1359.506, 39.886
1360.700, 31.708
1361.894, 42.290
1363.088, 33.725
1364.281, 22.300
1365.474, 20.335
1366.667, 11.415
1367.860, 0.516
1369.052, 13.503
1370.245, 17.551
1371.437, 4.087
1372.629, 49.969
1373.821, 81.052
1375.013, 19.127
1376.204, 36.744
1377.395, 9.735
1378.586, 51.515
1379.777, 57.448
1380.968, 36.528
1382.159, 30.325
1383.349, 50.459
1384.539, 33.063
1385.729, 18.112
1386.919, 30.592
1388.109, 41.996
1389.298, 53.445
1390.487, 19.877
1391.676, 10.206
1392.865, 79.405
1394.054, 40.760
1395.242, 19.054
1396.431, 66.260
1397.619, 8.641
1398.807, 27.219
1399.995, 33.400
1401.182, 35.654
1402.370, 82.890
1403.557, 19.091
1404.744, 22.197
1405.931, 30.378
1407.118, 52.027
1408.304, 16.167
1409.490, 60.213
1410.676, 0.687
1411.862, 65.309
1413.048, 61.328
1414.234, 30.228
1415.419, 63.006
1416.604, 75.516
1417.789, 5.105
1418.974, 16.913
1420.159, 33.654
1421.343, 51.837
1422.528, 51.943
1423.712, 56.650
1424.896, 83.721
1426.079, 51.150
1427.263, 39.949
1428.446, 38.938
1429.629, 54.248
1430.812, 36.193
1431.995, 27.891
1433.178, 4.661
1434.360, 17.201
1435.543, 51.603
1436.725, 20.356
1437.907, 54.152
1439.088, 77.548
1440.270, 4.143
1441.451, 34.517
1442.632, 35.351
1443.813, 6.217
1444.994, 43.042
1446.175, 65.699
1447.355, 19.850
1448.535, 27.570
1449.715, 8.448
1450.895, 72.244
1452.075, 44.946
1453.255, 24.811
1454.434, 34.670
1455.613, 21.435
1456.792, 38.251
1457.971, 20.972
1459.149, 49.562
1460.328, 24.220
1461.506, 40.015
1462.684, 14.679
1463.862, 36.320
1465.040, 39.170
1466.217, 42.848
1467.395, 61.862
1468.572, 40.592
1469.749, 57.099
1470.925, 10.594
1472.102, 43.717
1473.278, 34.284
1474.455, 99.869
1475.631, 84.746
1476.807, 60.052
1477.982, 80.666
1479.158, 42.257
1480.333, 38.931
1481.508, 47.631
1482.683, 11.693
1483.858, 10.418
1485.033, 10.107
1486.207, 27.173
1487.381, 80.585
1488.555, 24.337
1489.729, 6.079
1490.903, 79.813
1492.076, 12.544
1493.250, 53.315
1494.423, 37.129
1495.596, 19.960
1496.769, 68.834
1497.941, 79.756
1499.114, 65.731
1500.286, 49.739
1501.458, 57.784
1502.630, 21.930
1503.802, 80.143
1504.973, 16.433
1506.145, 55.438
1507.316, 20.086
1508.487, 18.714
1509.657, 20.309
1510.828, 51.851
1511.999, 33.305
1513.169, 62.625
1514.339, 34.731
1515.509, 21.265
1516.678, 48.565
1517.848, 3.077
1519.017, 7.992
1520.187, 40.740
1521.356, 59.532
1522.524, 66.132
1523.693, 0.000
##END=



