##NAMES=Aegirine
##RRUFFID=R050074
##IDEAL CHEMISTRY=NaFe^3+^Si_2_O_6_
##LOCALITY=Mt. Malosa, Zomba, Chilwa, Alkaline Area, Malawi
##OWNER=RRUFF
##SOURCE=Rock Currier
##DESCRIPTION=Black prismatic single crystal
##STATUS=The identification of this mineral has been confirmed by X-ray diffraction and chemical analysis
##URL=rruff.info/R050074
##MEASURED CHEMISTRY=(Na_0.98_Ca_0.02_)_Σ=1_(Fe^3+^_0.96_Ti_0.01_Mn_0.03_)_Σ=1_Si_2.00_O_6_
##PIN_ID=L00155
##ORIENTATION=Laser parallel to -c* (0 0 -1). Fiducial mark perpendicular to laser is parallel to a [1 0 0]
94.307, 0.000
95.702, 34.930
97.097, 25.216
98.492, 81.841
99.886, 107.204
101.281, 103.158
102.675, 62.995
104.069, 7.892
105.462, 33.154
106.856, 33.195
108.249, 86.915
109.642, 192.565
111.035, 250.081
112.427, 390.627
113.820, 537.696
115.212, 692.120
116.603, 567.638
117.995, 470.507
119.386, 353.569
120.778, 384.113
122.168, 302.511
123.559, 305.701
124.950, 365.714
126.340, 517.254
127.730, 500.435
129.119, 753.017
130.509, 1017.133
131.898, 1600.798
133.287, 2023.339
134.676, 2215.822
136.065, 2333.100
137.453, 2118.745
138.841, 1603.953
140.229, 1172.139
141.617, 801.925
143.004, 529.923
144.392, 359.213
145.779, 273.867
147.165, 164.956
148.552, 135.539
149.938, 117.625
151.324, 91.258
152.710, 76.118
154.096, 65.951
155.481, 60.466
156.866, 64.333
158.251, 84.798
159.636, 111.878
161.020, 144.595
162.405, 162.415
163.789, 161.209
165.172, 74.089
166.556, 3.613
167.939, 53.301
169.322, 66.357
170.705, 37.792
172.088, 30.213
173.470, 210.044
174.853, 421.823
176.234, 687.773
177.616, 1113.526
178.998, 1416.245
180.379, 1658.663
181.760, 1558.325
183.141, 1201.049
184.521, 890.211
185.902, 611.814
187.282, 437.079
188.662, 507.472
190.042, 585.393
191.421, 753.154
192.800, 965.571
194.179, 982.246
195.558, 1049.938
196.937, 1085.626
198.315, 987.488
199.693, 1113.430
201.071, 1142.880
202.449, 1360.837
203.826, 1630.748
205.203, 2056.183
206.580, 2654.455
207.957, 3504.367
209.333, 4835.712
210.710, 6393.684
212.086, 7870.323
213.462, 8897.820
214.837, 8985.062
216.213, 8062.069
217.588, 6576.959
218.963, 4970.788
220.337, 3535.567
221.712, 2610.292
223.086, 1894.961
224.460, 1461.553
225.834, 1122.079
227.207, 863.552
228.581, 639.975
229.954, 520.348
231.327, 388.670
232.699, 234.944
234.072, 288.168
235.444, 189.343
236.816, 106.470
238.188, 123.550
239.559, 54.583
240.931, 83.570
242.302, 41.511
243.673, 14.592
245.043, 78.254
246.414, 30.968
247.784, 59.268
249.154, 15.658
250.523, 50.149
251.893, 44.754
253.262, 39.482
254.631, 92.378
256.000, 20.436
257.369, 24.664
258.737, 23.612
260.105, 21.827
261.473, 6.369
262.841, 42.831
264.208, 67.685
265.576, 83.927
266.943, 168.629
268.310, 139.969
269.676, 189.747
271.042, 267.016
272.409, 259.993
273.775, 380.859
275.140, 408.696
276.506, 440.463
277.871, 508.024
279.236, 527.125
280.601, 468.574
281.965, 421.230
283.330, 414.916
284.694, 403.032
286.058, 400.135
287.421, 435.920
288.785, 494.321
290.148, 523.554
291.511, 635.724
292.874, 697.577
294.236, 750.108
295.599, 703.322
296.961, 715.049
298.323, 635.352
299.684, 592.374
301.046, 619.201
302.407, 502.966
303.768, 529.760
305.129, 518.532
306.489, 572.029
307.850, 579.938
309.210, 567.861
310.570, 569.473
311.929, 561.019
313.289, 587.967
314.648, 586.740
316.007, 497.819
317.366, 504.693
318.724, 510.088
320.083, 508.220
321.441, 525.384
322.799, 544.905
324.156, 530.808
325.514, 698.080
326.871, 682.509
328.228, 826.853
329.585, 1060.935
330.941, 1286.617
332.298, 1575.645
333.654, 2007.614
335.010, 2571.090
336.365, 3184.891
337.721, 3866.356
339.076, 4327.895
340.431, 4710.374
341.786, 4696.135
343.140, 4537.812
344.495, 4216.417
345.849, 3819.962
347.203, 3502.454
348.556, 3083.902
349.910, 2852.581
351.263, 2360.508
352.616, 2145.702
353.969, 1840.193
355.321, 1779.357
356.674, 1709.579
358.026, 1794.774
359.378, 1955.942
360.729, 2194.083
362.081, 2630.195
363.432, 3041.275
364.783, 3631.324
366.134, 4299.346
367.484, 4867.337
368.835, 5056.305
370.185, 5104.240
371.535, 4800.147
372.884, 4517.027
374.234, 4345.884
375.583, 4188.715
376.932, 4280.525
378.281, 4467.313
379.630, 5007.080
380.978, 5625.826
382.326, 6482.552
383.674, 7324.258
385.022, 7983.943
386.369, 8297.611
387.717, 8251.255
389.064, 7595.884
390.411, 6654.493
391.757, 5731.821
393.104, 4822.642
394.450, 3876.914
395.796, 3130.451
397.141, 2627.291
398.487, 2112.456
399.832, 1741.882
401.177, 1440.507
402.522, 1217.265
403.867, 1011.444
405.211, 901.025
406.555, 829.273
407.899, 700.428
409.243, 642.743
410.587, 580.328
411.930, 553.697
413.273, 528.952
414.616, 459.600
415.959, 400.627
417.301, 361.386
418.644, 281.714
419.986, 227.832
421.327, 203.073
422.669, 154.377
424.010, 136.373
425.351, 151.099
426.692, 111.076
428.033, 97.199
429.374, 40.982
430.714, 78.471
432.054, 48.339
433.394, 16.549
434.733, 31.683
436.073, 36.275
437.412, 14.936
438.751, 15.677
440.090, 49.650
441.428, 27.344
442.767, 16.370
444.105, 16.159
445.443, 9.761
446.780, 25.458
448.118, 26.790
449.455, 7.152
450.792, 1.275
452.129, 55.388
453.465, 42.477
454.802, 89.533
456.138, 90.581
457.474, 90.583
458.809, 105.557
460.145, 132.542
461.480, 153.392
462.815, 144.585
464.150, 114.144
465.485, 93.856
466.819, 128.571
468.153, 86.414
469.487, 129.371
470.821, 73.398
472.155, 87.375
473.488, 125.048
474.821, 95.113
476.154, 147.376
477.487, 116.122
478.819, 166.261
480.151, 187.124
481.483, 213.014
482.815, 300.908
484.147, 292.880
485.478, 379.823
486.809, 428.880
488.140, 533.766
489.471, 712.723
490.802, 934.596
492.132, 1276.558
493.462, 1733.542
494.792, 2240.502
496.122, 2896.493
497.451, 3389.495
498.780, 3590.492
500.109, 3314.481
501.438, 2831.457
502.767, 2379.418
504.095, 1852.367
505.423, 1577.302
506.751, 1330.223
508.079, 1179.132
509.406, 1079.027
510.734, 955.912
512.061, 870.790
513.388, 878.661
514.714, 795.522
516.041, 740.371
517.367, 851.207
518.693, 882.031
520.019, 908.842
521.344, 913.641
522.670, 1092.428
523.995, 1213.202
525.320, 1387.964
526.644, 1475.714
527.969, 1750.452
529.293, 2134.178
530.617, 2477.892
531.941, 2959.593
533.265, 3723.283
534.588, 4713.961
535.911, 5826.627
537.234, 7474.282
538.557, 9643.922
539.880, 12235.555
541.202, 15037.175
542.524, 17498.781
543.846, 18560.375
545.168, 18601.990
546.489, 16913.605
547.811, 14785.380
549.132, 12607.015
550.453, 10328.723
551.773, 8890.448
553.094, 7487.570
554.414, 6658.267
555.734, 5984.892
557.054, 5453.489
558.374, 5189.336
559.693, 4872.038
561.012, 4771.631
562.331, 4507.554
563.650, 4195.292
564.968, 3979.026
566.287, 3581.911
567.605, 3317.024
568.923, 2985.081
570.240, 2752.857
571.558, 2536.661
572.875, 2382.223
574.192, 2204.022
575.509, 1993.205
576.825, 1894.619
578.142, 1731.449
579.458, 1535.804
580.774, 1510.885
582.090, 1403.624
583.405, 1355.445
584.721, 1260.838
586.036, 1178.072
587.351, 1131.307
588.665, 1018.224
589.980, 940.151
591.294, 820.049
592.608, 760.323
593.922, 666.125
595.236, 598.768
596.549, 547.591
597.862, 497.469
599.175, 403.462
600.488, 360.105
601.801, 322.124
603.113, 260.702
604.425, 270.222
605.737, 181.085
607.049, 164.133
608.361, 172.880
609.672, 112.860
610.983, 98.498
612.294, 161.913
613.605, 74.957
614.915, 83.996
616.225, 90.437
617.536, 74.821
618.845, 72.914
620.155, 14.269
621.464, 48.297
622.774, 37.380
624.083, 24.505
625.391, 48.575
626.700, 32.419
628.008, 4.319
629.317, 17.537
630.625, 25.513
631.932, 19.730
633.240, 5.102
634.547, 14.840
635.854, 11.539
637.161, 13.682
638.468, 13.966
639.774, 37.740
641.081, 45.743
642.387, 44.578
643.693, 62.191
644.998, 102.618
646.304, 88.868
647.609, 122.037
648.914, 95.062
650.219, 97.749
651.523, 164.149
652.828, 115.381
654.132, 173.370
655.436, 206.618
656.740, 163.852
658.043, 166.073
659.346, 224.282
660.650, 213.477
661.952, 237.659
663.255, 265.828
664.558, 280.985
665.860, 316.128
667.162, 392.280
668.464, 438.375
669.766, 577.480
671.067, 678.572
672.368, 796.650
673.669, 1004.716
674.970, 1202.769
676.271, 1263.809
677.571, 1340.479
678.871, 1356.851
680.171, 1274.853
681.471, 1168.842
682.771, 954.819
684.070, 800.783
685.369, 642.734
686.668, 454.673
687.967, 398.600
689.266, 278.514
690.564, 239.416
691.862, 217.305
693.160, 183.182
694.458, 155.046
695.755, 139.899
697.053, 137.739
698.350, 107.567
699.646, 102.383
700.943, 84.187
702.240, 79.978
703.536, 38.757
704.832, 68.522
706.128, 48.275
707.423, 40.014
708.719, 16.260
710.014, 42.439
711.309, 58.125
712.604, 62.798
713.898, 8.458
715.193, 36.103
716.487, 61.735
717.781, 6.354
719.075, 26.957
720.368, 28.546
721.662, 8.122
722.955, 2.683
724.248, 4.225
725.541, 29.750
726.833, 8.739
728.125, 21.250
729.418, 9.208
730.709, 7.651
732.001, 0.077
733.293, 14.484
734.584, 4.123
735.875, 17.750
737.166, 31.403
738.457, 17.090
739.747, 20.198
741.037, 20.475
742.327, 7.260
743.617, 3.013
744.907, 14.784
746.196, 3.578
747.486, 15.388
748.775, 6.221
750.063, 3.071
751.352, 29.062
752.640, 16.188
753.929, 22.304
755.217, 13.589
756.504, 7.501
757.792, 17.580
759.079, 67.651
760.367, 0.717
761.654, 7.772
762.940, 37.817
764.227, 5.854
765.513, 2.119
766.799, 0.893
768.085, 7.108
769.371, 24.149
770.657, 3.806
771.942, 29.252
773.227, 9.369
774.512, 4.513
775.797, 20.920
777.081, 24.212
778.365, 26.580
779.650, 40.033
780.933, 55.427
782.217, 20.942
783.501, 13.601
784.784, 8.225
786.067, 28.594
787.350, 46.258
788.633, 5.143
789.915, 52.885
791.197, 27.005
792.479, 43.831
793.761, 35.699
795.043, 40.175
796.324, 37.872
797.606, 67.162
798.887, 14.998
800.167, 46.685
801.448, 11.471
802.728, 44.186
804.009, 22.002
805.289, 34.829
806.568, 32.623
807.848, 11.442
809.128, 22.725
810.407, 7.886
811.686, 32.040
812.965, 41.189
814.243, 23.331
815.522, 3.467
816.800, 32.598
818.078, 27.723
819.355, 34.842
820.633, 39.956
821.910, 31.065
823.188, 69.169
824.465, 80.268
825.741, 76.362
827.018, 110.588
828.294, 87.537
829.570, 144.618
830.846, 178.695
832.122, 172.767
833.398, 216.836
834.673, 204.901
835.948, 233.962
837.223, 252.020
838.498, 281.075
839.772, 308.126
841.047, 372.174
842.321, 426.219
843.595, 449.262
844.868, 522.302
846.142, 556.339
847.415, 685.373
848.688, 783.406
849.961, 785.436
851.234, 909.464
852.507, 984.491
853.779, 1035.516
855.051, 1234.509
856.323, 1252.486
857.595, 1408.292
858.866, 1480.224
860.137, 1705.074
861.409, 1875.891
862.679, 2097.304
863.950, 2219.136
865.221, 2441.036
866.491, 2601.957
867.761, 2608.628
869.031, 2580.445
870.301, 2388.375
871.570, 2262.977
872.839, 2073.773
874.109, 1819.584
875.377, 1690.258
876.646, 1500.709
877.915, 1360.237
879.183, 1243.077
880.451, 1136.913
881.719, 1045.501
882.987, 974.414
884.254, 911.467
885.521, 871.820
886.788, 838.674
888.055, 814.497
889.322, 791.127
890.588, 777.757
891.855, 763.181
893.121, 749.122
894.387, 749.081
895.652, 725.119
896.918, 682.411
898.183, 712.038
899.448, 700.334
900.713, 702.959
901.978, 778.140
903.242, 705.520
904.506, 761.648
905.771, 711.737
907.034, 749.867
908.298, 784.705
909.562, 744.691
910.825, 797.844
912.088, 840.168
913.351, 806.886
914.613, 911.946
915.876, 973.238
917.138, 974.253
918.400, 1096.872
919.662, 1040.672
920.924, 1153.045
922.185, 1224.440
923.447, 1297.443
924.708, 1343.574
925.969, 1381.889
927.229, 1552.495
928.490, 1603.178
929.750, 1738.688
931.010, 1892.082
932.270, 2042.686
933.530, 2194.359
934.789, 2395.164
936.048, 2597.423
937.308, 2975.020
938.566, 3212.481
939.825, 3663.901
941.084, 4155.773
942.342, 4617.846
943.600, 5466.533
944.858, 6382.254
946.116, 7426.495
947.373, 8859.508
948.630, 9986.688
949.888, 11332.090
951.144, 11880.685
952.401, 12027.455
953.658, 11566.314
954.914, 10463.326
956.170, 9711.674
957.426, 9089.312
958.682, 8767.114
959.937, 8866.168
961.193, 8555.972
962.448, 8435.783
963.703, 8165.612
964.957, 8165.455
966.212, 8175.309
967.466, 8615.181
968.720, 9265.064
969.974, 10684.969
971.228, 11954.884
972.482, 12654.817
973.735, 12454.767
974.988, 11154.728
976.241, 9564.704
977.494, 7828.697
978.746, 6513.703
979.999, 5353.725
981.251, 4607.761
982.503, 4024.811
983.755, 3587.877
985.006, 3195.959
986.258, 2878.056
987.509, 2662.167
988.760, 2332.295
990.011, 2191.438
991.261, 2003.594
992.512, 1841.766
993.762, 1684.953
995.012, 1593.154
996.262, 1402.370
997.511, 1354.602
998.761, 1299.847
1000.010, 1175.108
1001.259, 1131.385
1002.508, 1052.676
1003.756, 1022.983
1005.005, 1005.306
1006.253, 965.645
1007.501, 916.998
1008.749, 936.366
1009.996, 900.900
1011.244, 868.152
1012.491, 889.570
1013.738, 885.011
1014.985, 905.468
1016.232, 850.940
1017.478, 958.428
1018.724, 876.970
1019.970, 950.009
1021.216, 982.544
1022.462, 1094.197
1023.707, 1077.388
1024.953, 1158.079
1026.198, 1209.044
1027.443, 1295.668
1028.687, 1289.477
1029.932, 1439.852
1031.176, 1587.036
1032.420, 1759.738
1033.664, 2028.815
1034.908, 2315.547
1036.152, 2747.816
1037.395, 3286.636
1038.638, 4025.581
1039.881, 4884.712
1041.124, 5984.546
1042.366, 6959.396
1043.609, 7297.255
1044.851, 6888.816
1046.093, 5742.105
1047.335, 4581.225
1048.576, 3617.161
1049.818, 2891.733
1051.059, 2434.010
1052.300, 2112.740
1053.541, 1877.609
1054.781, 1693.735
1056.022, 1542.022
1057.262, 1460.969
1058.502, 1305.524
1059.742, 1301.220
1060.981, 1125.509
1062.221, 1106.233
1063.460, 993.725
1064.699, 953.355
1065.938, 890.491
1067.177, 879.640
1068.415, 799.140
1069.653, 761.354
1070.891, 818.339
1072.129, 775.915
1073.367, 810.281
1074.604, 735.760
1075.842, 734.052
1077.079, 796.921
1078.316, 695.211
1079.553, 742.132
1080.789, 710.532
1082.025, 689.337
1083.262, 689.733
1084.498, 699.129
1085.733, 676.517
1086.969, 644.028
1088.204, 659.500
1089.439, 652.410
1090.674, 668.917
1091.909, 611.417
1093.144, 610.746
1094.378, 613.551
1095.612, 587.125
1096.846, 625.743
1098.080, 663.709
1099.314, 641.720
1100.547, 653.883
1101.781, 659.993
1103.014, 655.450
1104.247, 639.183
1105.479, 700.881
1106.712, 708.639
1107.944, 627.333
1109.176, 737.549
1110.408, 719.326
1111.640, 669.116
1112.871, 728.917
1114.102, 760.897
1115.334, 735.754
1116.565, 829.717
1117.795, 782.100
1119.026, 808.368
1120.256, 844.372
1121.486, 921.486
1122.716, 1002.418
1123.946, 1029.550
1125.176, 1020.443
1126.405, 1007.314
1127.634, 1000.324
1128.863, 993.187
1130.092, 987.014
1131.321, 999.079
1132.549, 1019.512
1133.778, 1007.402
1135.006, 971.394
1136.233, 1010.586
1137.461, 905.453
1138.689, 892.344
1139.916, 793.246
1141.143, 718.261
1142.370, 658.174
1143.597, 561.113
1144.823, 471.059
1146.050, 389.925
1147.276, 318.793
1148.502, 296.071
1149.727, 239.016
1150.953, 143.971
1152.178, 169.268
1153.404, 92.146
1154.629, 60.025
1155.853, 64.923
1157.078, 16.061
1158.302, 61.999
1159.527, 5.293
1160.751, 141.258
1161.975, 78.853
1163.198, 56.206
1164.422, 30.224
1165.645, 1.826
1166.868, 18.910
1168.091, 6.021
1169.314, 30.071
1170.536, 20.055
1171.759, 5.146
1172.981, 13.206
1174.203, 1.810
1175.424, 28.331
1176.646, 36.896
1177.867, 14.977
1179.089, 40.091
1180.310, 45.178
1181.530, 15.873
1182.751, 62.339
1183.971, 54.329
1185.192, 4.634
1186.412, 25.526
1187.632, 2.258
1188.851, 35.072
1190.071, 34.419
1191.290, 12.541
1192.509, 23.668
1193.728, 36.059
1194.947, 32.213
1196.165, 25.658
1197.384, 36.021
1198.602, 42.453
1199.820, 27.972
1201.037, 15.435
1202.255, 17.306
1203.472, 11.229
1204.690, 4.120
1205.907, 21.717
1207.124, 1.702
1208.340, 20.870
1209.557, 0.516
1210.773, 2.094
1211.989, 24.239
1213.205, 40.588
1214.421, 1.909
1215.636, 11.220
1216.851, 4.477
1218.067, 2.817
1219.281, 8.106
1220.496, 6.375
1221.711, 17.635
1222.925, 15.113
1224.139, 36.204
1225.353, 1.427
1226.567, 15.636
1227.781, 27.109
1228.994, 27.062
1230.207, 32.229
1231.421, 21.470
1232.633, 30.776
1233.846, 28.398
1235.059, 8.253
1236.271, 30.379
1237.483, 40.507
1238.695, 42.722
1239.907, 23.694
1241.118, 37.774
1242.330, 32.843
1243.541, 13.903
1244.752, 13.949
1245.963, 10.970
1247.173, 5.018
1248.384, 10.026
1249.594, 36.942
1250.804, 74.902
1252.014, 39.851
1253.223, 4.787
1254.433, 3.294
1255.642, 45.607
1256.851, 44.508
1258.060, 44.386
1259.269, 27.254
1260.478, 36.106
1261.686, 29.947
1262.894, 15.775
1264.102, 19.589
1265.310, 30.389
1266.518, 26.268
1267.725, 36.655
1268.932, 26.963
1270.139, 42.804
1271.346, 49.558
1272.553, 35.293
1273.759, 54.997
1274.966, 69.688
1276.172, 34.366
1277.378, 21.029
1278.583, 54.722
1279.789, 41.356
1280.994, 30.975
1282.200, 64.609
1283.405, 60.207
1284.609, 58.888
1285.814, 43.466
1287.018, 59.007
1288.223, 53.604
1289.427, 53.116
1290.631, 86.614
1291.834, 74.155
1293.038, 32.625
1294.241, 58.795
1295.444, 57.238
1296.647, 33.667
1297.850, 78.095
1299.053, 87.497
1300.255, 73.887
1301.457, 43.264
1302.659, 65.642
1303.861, 35.994
1305.063, 60.388
1306.264, 49.711
1307.466, 84.080
1308.667, 54.378
1309.868, 65.660
1311.068, 73.891
1312.269, 68.628
1313.469, 74.269
1314.669, 53.008
1315.869, 68.602
1317.069, 60.753
1318.269, 51.580
1319.468, 78.754
1320.668, 28.748
1321.867, 56.178
1323.066, 60.807
1324.264, 51.930
1325.463, 37.680
1326.661, 69.860
1327.859, 35.426
1329.057, 76.441
1330.255, 26.338
1331.452, 46.068
1332.650, 88.098
1333.847, 68.179
1335.044, 31.195
1336.241, 30.511
1337.438, 64.878
1338.634, 27.646
1339.830, 66.609
1341.027, 38.943
1342.222, 46.568
1343.418, 68.745
1344.614, 37.790
1345.809, 49.578
1347.004, 86.451
1348.199, 53.442
1349.394, 64.812
1350.589, 44.043
1351.783, 39.683
1352.978, 60.887
1354.172, 32.327
1355.365, 57.633
1356.559, 45.430
1357.753, 63.306
1358.946, 62.747
1360.139, 80.476
1361.332, 49.440
1362.525, 47.802
1363.718, 70.375
1364.910, 59.846
1366.102, 71.509
1367.294, 28.589
1368.486, 61.255
1369.678, 80.298
1370.869, 35.869
1372.061, 53.042
1373.252, 45.637
1374.443, 26.237
1375.634, 17.777
1376.824, 51.340
1378.015, 13.879
1379.205, 43.992
1380.395, 41.653
1381.585, 60.195
1382.775, 51.761
1383.964, 57.474
1385.153, 79.541
1386.343, 66.172
1387.531, 56.258
1388.720, 70.919
1389.909, 58.810
1391.097, 55.659
1392.285, 53.976
1393.473, 47.739
1394.661, 44.238
1395.849, 56.181
1397.037, 47.038
1398.224, 57.427
1399.411, 37.678
1400.598, 55.076
1401.785, 43.678
1402.971, 44.147
1404.158, 50.103
1405.344, 44.836
1406.530, 45.261
1407.716, 44.513
1408.901, 17.795
1410.087, 19.241
1411.272, 19.214
1412.457, 16.160
1413.642, 32.178
1414.827, 33.151
1416.012, 43.840
1417.196, 63.750
1418.380, 99.797
1419.564, 43.853
1420.748, 23.902
1421.932, 58.780
1423.115, 44.564
1424.299, 24.826
1425.482, 29.675
1426.665, 9.209
1427.847, 25.886
1429.030, 42.438
1430.212, 13.422
1431.395, 82.199
1432.577, 33.958
1433.759, 14.727
1434.940, 60.684
1436.122, 9.195
1437.303, 33.023
1438.484, 51.281
1439.665, 24.409
1440.846, 27.562
1442.026, 77.798
1443.207, 40.056
1444.387, 23.298
1445.567, 40.528
1446.747, 12.765
1447.927, 31.858
1449.106, 11.999
1450.286, 36.255
1451.465, 66.042
1452.644, 40.869
1453.822, 40.023
1455.001, 23.221
1456.179, 42.407
1457.358, 31.582
1458.536, 11.796
1459.714, 50.015
1460.891, 35.303
1462.069, 43.441
1463.246, 34.626
1464.423, 47.827
1465.600, 28.030
1466.777, 44.228
1467.954, 5.197
1469.130, 25.983
1470.306, 70.869
1471.483, 59.009
1472.658, 20.197
1473.834, 48.269
1475.010, 8.470
1476.185, 32.578
1477.360, 22.453
1478.535, 11.482
1479.710, 30.802
1480.885, 56.929
1482.059, 16.957
1483.234, 39.163
1484.408, 22.410
1485.582, 25.603
1486.755, 29.637
1487.929, 3.347
1489.102, 14.882
1490.275, 20.593
1491.449, 24.343
1492.621, 50.366
1493.794, 58.597
1494.967, 63.824
1496.139, 36.048
1497.311, 53.874
1498.483, 3.107
1499.655, 58.298
1500.826, 22.219
1501.998, 51.453
1503.169, 19.951
1504.340, 46.908
1505.511, 20.983
1506.682, 72.037
1507.852, 40.030
1509.023, 39.892
1510.193, 60.702
1511.363, 41.431
1512.532, 50.176
1513.702, 65.643
1514.872, 38.199
1516.041, 40.900
1517.210, 24.624
1518.379, 42.431
1519.548, 38.311
1520.716, 0.604
1521.885, 26.647
1523.053, 10.128
1524.221, 0.513
1525.389, 0.000
##END=



