##NAMES=Aegirine
##RRUFFID=R040054
##IDEAL CHEMISTRY=NaFe^3+^Si_2_O_6_
##LOCALITY=Mont Saint-Hilaire, Rouville County, Quebec, Canada
##OWNER=RRUFF
##SOURCE=Bob Downs
##DESCRIPTION=Black cleavage fragments
##STATUS=The identification of this mineral has been confirmed by X-ray diffraction and chemical analysis
##URL=rruff.info/R040054
##MEASURED CHEMISTRY=(Na_0.96_Ca_0.04_)(Fe_0.86_Ti_0.07_Mn_0.06_Mg_0.02_)(Si_0.97_Al_0.03_)_2_O_6_
##PIN_ID=M00355
##ORIENTATION=Laser parallel to [1 0 1]. Fiducial mark perpendicular to laser is parallel to b* (0 1 0)
171.949, 0.000
173.326, 5.365
174.702, 103.088
176.077, 202.621
177.453, 202.660
178.828, 426.349
180.204, 830.563
181.579, 1331.018
182.953, 1608.756
184.328, 1671.789
185.702, 1379.618
187.076, 741.409
188.450, 371.658
189.824, 197.667
191.198, 285.168
192.571, 508.259
193.944, 518.011
195.317, 841.096
196.689, 942.712
198.062, 1260.690
199.434, 1316.524
200.806, 1580.392
202.178, 1749.931
203.549, 1980.521
204.921, 2169.414
206.292, 2527.081
207.663, 3112.439
209.033, 3503.393
210.404, 4137.241
211.774, 5064.318
213.144, 6093.754
214.514, 7161.672
215.884, 7554.305
217.253, 8089.627
218.622, 7945.110
219.991, 7074.477
221.360, 6303.539
222.729, 5388.463
224.097, 4603.971
225.465, 3479.546
226.833, 3043.431
228.201, 2399.624
229.568, 2021.804
230.936, 1760.687
232.303, 1446.913
233.670, 1206.433
235.036, 961.121
236.403, 809.991
237.769, 766.286
239.135, 608.788
240.501, 531.407
241.867, 505.213
243.232, 355.107
244.597, 303.007
245.962, 230.934
247.327, 232.055
248.691, 149.384
250.056, 115.917
251.420, 129.650
252.784, 152.566
254.147, 11.356
255.511, 75.859
256.874, 62.187
258.237, 1.612
259.600, 88.118
260.963, 22.691
262.325, 2.318
263.687, 24.012
265.049, 63.308
266.411, 66.189
267.773, 60.580
269.134, 107.118
270.495, 137.442
271.856, 218.800
273.217, 182.216
274.577, 76.688
275.938, 117.785
277.298, 147.205
278.658, 273.573
280.017, 375.890
281.377, 382.151
282.736, 423.337
284.095, 465.433
285.454, 489.417
286.812, 412.270
288.171, 375.974
289.529, 269.522
290.887, 368.923
292.245, 406.102
293.602, 318.012
294.960, 415.604
296.317, 391.756
297.674, 398.665
299.030, 557.537
300.387, 405.633
301.743, 578.906
303.099, 639.991
304.455, 662.502
305.811, 567.423
307.166, 688.538
308.522, 705.524
309.877, 636.532
311.232, 749.126
312.586, 677.419
313.941, 659.968
315.295, 740.656
316.649, 559.301
318.003, 594.810
319.356, 710.853
320.709, 591.382
322.063, 508.301
323.416, 610.437
324.768, 662.830
326.121, 637.143
327.473, 748.478
328.825, 736.057
330.177, 964.292
331.529, 1080.592
332.880, 1291.648
334.232, 1565.446
335.583, 1826.098
336.934, 2369.367
338.284, 2826.287
339.635, 3305.041
340.985, 3807.631
342.335, 4159.065
343.685, 4335.735
345.034, 4450.328
346.384, 4324.170
347.733, 4070.836
349.082, 3637.338
350.431, 3357.705
351.779, 2980.926
353.128, 2686.011
354.476, 2494.952
355.824, 2323.725
357.171, 2357.318
358.519, 2200.714
359.866, 2410.852
361.213, 2433.788
362.560, 2765.497
363.907, 3084.965
365.253, 3471.096
366.600, 4193.872
367.946, 4507.203
369.291, 5316.968
370.637, 5583.539
371.983, 5780.065
373.328, 5716.575
374.673, 5463.074
376.018, 5449.564
377.362, 5036.029
378.707, 5022.482
380.051, 5058.918
381.395, 5265.340
382.739, 5861.756
384.082, 6208.165
385.426, 6804.566
386.769, 7350.917
388.112, 7867.153
389.454, 8362.694
390.797, 8148.000
392.139, 8322.708
393.481, 7457.442
394.823, 6991.278
396.165, 7314.625
397.506, 4998.231
398.848, 4306.178
400.189, 3386.889
401.530, 2977.549
402.870, 2426.901
404.211, 1963.680
405.551, 1762.683
406.891, 1358.767
408.231, 1282.732
409.571, 1090.901
410.910, 997.368
412.249, 897.671
413.588, 739.403
414.927, 767.923
416.266, 586.362
417.604, 536.159
418.942, 505.545
420.280, 393.329
421.618, 295.938
422.956, 270.939
424.293, 265.947
425.630, 148.423
426.967, 124.919
428.304, 156.598
429.641, 71.464
430.977, 54.360
432.313, 12.961
433.649, 31.615
434.985, 24.299
436.320, 18.333
437.656, 44.800
438.991, 29.690
440.326, 30.865
441.660, 46.314
442.995, 5.200
444.329, 17.465
445.663, 81.948
446.997, 41.631
448.331, 29.831
449.664, 17.996
450.997, 5.014
452.331, 31.863
453.663, 50.664
454.996, 64.144
456.328, 120.591
457.661, 97.018
458.993, 86.421
460.325, 186.812
461.656, 158.191
462.988, 175.563
464.319, 166.898
465.650, 189.198
466.981, 163.458
468.311, 113.681
469.642, 126.859
470.972, 109.995
472.302, 40.092
473.632, 93.152
474.961, 54.467
476.291, 77.668
477.620, 101.915
478.949, 101.102
480.278, 151.423
481.606, 193.701
482.935, 266.927
484.263, 329.163
485.591, 394.334
486.918, 338.180
488.246, 532.725
489.573, 659.848
490.900, 741.266
492.227, 970.540
493.554, 1181.759
494.881, 1612.007
496.207, 2114.270
497.533, 2542.412
498.859, 3290.532
500.185, 3618.608
501.510, 3911.676
502.836, 3764.676
504.161, 3328.666
505.486, 2837.536
506.810, 2489.456
508.135, 2101.296
509.459, 1963.025
510.783, 1745.780
512.107, 1664.415
513.431, 1429.979
514.754, 1465.557
516.077, 1344.146
517.401, 1274.756
518.723, 1232.359
520.046, 1201.731
521.369, 1348.569
522.691, 1255.170
524.013, 1437.780
525.335, 1587.403
526.656, 1609.033
527.978, 1893.172
529.299, 2137.454
530.620, 2466.887
531.941, 2899.482
533.262, 3391.069
534.582, 4017.645
535.902, 4601.217
537.222, 5733.782
538.542, 7038.337
539.862, 8352.885
541.181, 10597.419
542.501, 12271.947
543.820, 14286.483
545.139, 15671.019
546.457, 16105.547
547.776, 16590.082
549.094, 15204.610
550.412, 14359.142
551.730, 13083.679
553.047, 11528.230
554.365, 11032.806
555.682, 9667.414
556.999, 8992.045
558.316, 8336.716
559.632, 8191.439
560.949, 7513.875
562.265, 6961.096
563.581, 6596.105
564.897, 6141.111
566.213, 5796.208
567.528, 5661.123
568.843, 5257.861
570.158, 5095.057
571.473, 4744.688
572.788, 4542.987
574.102, 4378.026
575.416, 4005.977
576.730, 3896.642
578.044, 3591.348
579.358, 3428.557
580.671, 3320.550
581.984, 3044.254
583.297, 2932.738
584.610, 2719.216
585.923, 2609.759
587.235, 2462.941
588.547, 2275.540
589.859, 2245.734
591.171, 1974.266
592.483, 1917.383
593.794, 1837.837
595.105, 1609.327
596.416, 1478.887
597.727, 1416.595
599.038, 1175.480
600.348, 970.429
601.658, 878.014
602.968, 795.255
604.278, 699.336
605.588, 523.555
606.897, 431.056
608.206, 407.388
609.516, 398.975
610.824, 291.872
612.133, 259.878
613.441, 166.604
614.750, 160.687
616.058, 84.273
617.365, 98.568
618.673, 79.043
619.980, 82.478
621.288, 43.909
622.595, 44.710
623.902, 47.616
625.208, 40.008
626.515, 51.448
627.821, 16.314
629.127, 34.373
630.433, 71.021
631.738, 29.936
633.044, 28.097
634.349, 70.604
635.654, 6.498
636.959, 6.277
638.263, 31.690
639.568, 47.224
640.872, 65.733
642.176, 66.059
643.480, 86.328
644.784, 94.259
646.087, 121.526
647.390, 121.002
648.693, 143.189
649.996, 169.164
651.299, 172.586
652.601, 199.444
653.904, 280.034
655.206, 282.563
656.508, 324.765
657.809, 296.523
659.111, 372.496
660.412, 368.211
661.713, 380.045
663.014, 379.859
664.315, 415.247
665.615, 495.879
666.915, 508.755
668.215, 559.014
669.515, 637.080
670.815, 685.566
672.115, 801.124
673.414, 962.352
674.713, 1148.387
676.012, 1337.033
677.311, 1577.814
678.609, 1657.611
679.907, 1774.365
681.205, 1691.076
682.503, 1513.743
683.801, 1321.366
685.099, 1150.946
686.396, 1014.031
687.693, 870.167
688.990, 771.423
690.287, 646.828
691.583, 549.189
692.880, 478.507
694.176, 405.780
695.472, 321.008
696.768, 372.192
698.063, 300.332
699.358, 337.427
700.654, 266.477
701.949, 272.481
703.243, 218.439
704.538, 214.351
705.832, 190.215
707.127, 223.031
708.421, 148.800
709.714, 249.523
711.008, 169.202
712.301, 149.835
713.595, 182.423
714.888, 146.968
716.180, 153.008
717.473, 207.934
718.765, 145.358
720.058, 144.743
721.350, 147.095
722.641, 143.410
723.933, 130.683
725.225, 139.911
726.516, 129.753
727.807, 112.247
729.098, 109.373
730.388, 148.465
731.679, 118.522
732.969, 167.541
734.259, 123.520
735.549, 178.463
736.839, 153.366
738.128, 165.027
739.418, 121.049
740.707, 181.828
741.996, 134.566
743.284, 133.261
744.573, 113.913
745.861, 70.521
747.149, 89.317
748.437, 62.597
749.725, 93.064
751.013, 75.488
752.300, 45.870
753.587, 29.198
754.874, 110.470
756.161, 126.400
757.447, 103.361
758.734, 128.192
760.020, 120.001
761.306, 82.595
762.592, 94.152
763.877, 24.683
765.163, 20.117
766.448, 30.981
767.733, 18.188
769.018, 14.062
770.302, 44.722
771.587, 36.098
772.871, 57.989
774.155, 12.135
775.439, 23.372
776.723, 62.708
778.006, 109.021
779.289, 95.985
780.573, 14.890
781.855, 71.423
783.138, 70.984
784.421, 39.627
785.703, 104.233
786.985, 61.990
788.267, 42.749
789.549, 92.474
790.830, 31.315
792.112, 101.104
793.393, 87.908
794.674, 68.807
795.954, 111.789
797.235, 28.880
798.515, 56.025
799.796, 31.240
801.076, 47.506
802.355, 82.834
803.635, 96.245
804.914, 77.745
806.194, 43.321
807.473, 59.949
808.752, 7.640
810.030, 29.357
811.309, 26.115
812.587, 24.908
813.865, 37.734
815.143, 24.728
816.421, 26.503
817.698, 25.589
818.975, 23.658
820.252, 118.711
821.529, 119.747
822.806, 90.769
824.083, 121.775
825.359, 90.767
826.635, 140.744
827.911, 199.708
829.187, 245.660
830.462, 283.599
831.738, 300.525
833.013, 342.440
834.288, 403.345
835.563, 430.803
836.837, 478.123
838.112, 523.998
839.386, 580.863
840.660, 652.843
841.934, 704.450
843.208, 769.160
844.481, 836.112
845.754, 894.774
847.027, 977.918
848.300, 1032.735
849.573, 1119.243
850.845, 1215.663
852.118, 1275.239
853.390, 1389.653
854.662, 1477.102
855.934, 1527.811
857.205, 1572.235
858.476, 1582.664
859.748, 1663.111
861.019, 1754.548
862.289, 1839.935
863.560, 1821.374
864.830, 1858.774
866.101, 1942.105
867.371, 1890.433
868.640, 1910.953
869.910, 1978.347
871.180, 1919.980
872.449, 1917.422
873.718, 1837.133
874.987, 1714.741
876.255, 1656.418
877.524, 1521.906
878.792, 1480.693
880.060, 1336.277
881.328, 1290.871
882.596, 1226.393
883.864, 1100.579
885.131, 1056.023
886.398, 995.079
887.665, 912.582
888.932, 953.022
890.199, 967.654
891.465, 863.592
892.731, 812.262
893.997, 828.032
895.263, 881.719
896.529, 731.549
897.794, 804.368
899.059, 833.042
900.325, 839.798
901.589, 740.064
902.854, 810.163
904.119, 792.023
905.383, 811.338
906.647, 822.604
907.911, 808.114
909.175, 899.852
910.438, 841.935
911.702, 938.385
912.965, 775.146
914.228, 1000.286
915.491, 1020.305
916.753, 906.353
918.016, 1080.177
919.278, 1083.181
920.540, 1112.348
921.802, 1150.823
923.064, 1189.938
924.325, 1331.134
925.586, 1399.818
926.848, 1557.165
928.109, 1508.926
929.369, 1549.962
930.630, 1750.060
931.890, 1916.657
933.150, 1872.395
934.410, 2035.084
935.670, 2260.053
936.930, 2429.916
938.189, 2585.830
939.448, 2750.437
940.707, 3187.264
941.966, 3433.559
943.225, 3782.415
944.483, 4348.296
945.742, 4684.583
947.000, 5533.808
948.258, 6010.381
949.515, 6817.161
950.773, 7573.348
952.030, 8120.419
953.287, 8456.639
954.544, 8716.612
955.801, 8584.780
957.058, 8383.001
958.314, 7881.268
959.570, 7759.580
960.827, 7877.935
962.082, 7596.338
963.338, 7524.788
964.594, 7143.287
965.849, 6861.838
967.104, 6690.433
968.359, 6039.102
969.614, 5897.821
970.868, 5526.586
972.122, 5225.401
973.377, 4999.262
974.631, 4683.173
975.884, 4463.143
977.138, 4052.159
978.391, 3615.223
979.645, 3454.177
980.898, 3290.504
982.151, 2993.721
983.403, 2892.987
984.656, 2553.303
985.908, 2636.668
987.160, 2408.083
988.412, 2168.548
989.664, 2255.064
990.915, 2017.630
992.167, 1986.255
993.418, 1918.931
994.669, 1796.656
995.920, 1777.433
997.170, 1676.259
998.421, 1660.147
999.671, 1601.087
1000.921, 1460.084
1002.171, 1462.138
1003.421, 1440.243
1004.670, 1349.399
1005.919, 1380.608
1007.168, 1322.866
1008.417, 1333.176
1009.666, 1293.536
1010.915, 1275.947
1012.163, 1363.408
1013.411, 1341.918
1014.659, 1210.479
1015.907, 1306.091
1017.155, 1294.754
1018.402, 1215.471
1019.650, 1231.240
1020.897, 1309.063
1022.144, 1395.946
1023.390, 1350.881
1024.637, 1380.868
1025.883, 1437.911
1027.129, 1495.016
1028.375, 1477.169
1029.621, 1733.373
1030.867, 1699.689
1032.112, 1934.068
1033.357, 2109.430
1034.602, 2248.859
1035.847, 2551.291
1037.092, 2668.803
1038.336, 2893.771
1039.581, 3174.489
1040.825, 3511.266
1042.069, 3826.203
1043.312, 3977.168
1044.556, 4158.586
1045.799, 4056.376
1047.043, 3693.506
1048.286, 3334.782
1049.528, 3112.131
1050.771, 2838.351
1052.014, 2641.849
1053.256, 2446.864
1054.498, 2440.164
1055.740, 2238.703
1056.982, 2231.096
1058.223, 2296.259
1059.464, 2273.909
1060.706, 2206.660
1061.947, 2145.969
1063.187, 2039.893
1064.428, 2070.930
1065.669, 1932.577
1066.909, 1866.711
1068.149, 1867.929
1069.389, 1755.236
1070.628, 1805.772
1071.868, 1769.012
1073.107, 1688.853
1074.346, 1796.342
1075.585, 1742.165
1076.824, 1682.785
1078.063, 1709.739
1079.301, 1613.790
1080.539, 1749.085
1081.777, 1716.936
1083.015, 1550.427
1084.253, 1615.076
1085.490, 1563.617
1086.728, 1535.082
1087.965, 1556.898
1089.202, 1457.597
1090.439, 1486.547
1091.675, 1394.960
1092.912, 1365.032
1094.148, 1462.176
1095.384, 1328.296
1096.620, 1314.948
1097.855, 1402.810
1099.091, 1345.855
1100.326, 1436.068
1101.561, 1388.631
1102.796, 1486.822
1104.031, 1395.100
1105.265, 1307.727
1106.500, 1401.045
1107.734, 1315.290
1108.968, 1382.374
1110.202, 1458.865
1111.436, 1359.463
1112.669, 1429.875
1113.902, 1536.565
1115.135, 1419.104
1116.368, 1455.695
1117.601, 1540.263
1118.834, 1362.901
1120.066, 1491.408
1121.298, 1473.059
1122.530, 1532.749
1123.762, 1668.299
1124.994, 1582.794
1126.225, 1689.553
1127.456, 1762.216
1128.688, 1720.816
1129.918, 1780.467
1131.149, 1752.329
1132.380, 1782.993
1133.610, 1854.316
1134.840, 1728.941
1136.070, 1929.607
1137.300, 1715.574
1138.530, 1690.534
1139.759, 1729.217
1140.989, 1536.120
1142.218, 1460.950
1143.447, 1371.777
1144.675, 1206.486
1145.904, 1097.192
1147.132, 889.018
1148.360, 802.239
1149.588, 670.003
1150.816, 510.158
1152.044, 431.244
1153.271, 325.518
1154.499, 204.430
1155.726, 168.710
1156.953, 120.561
1158.180, 74.246
1159.406, 83.656
1160.632, 24.391
1161.859, 27.123
1163.085, 3.146
1164.311, 3.740
1165.536, 4.055
1166.762, 20.072
1167.987, 12.973
1169.212, 23.683
1170.437, 62.770
1171.662, 89.534
1172.886, 71.902
1174.111, 72.070
1175.335, 33.494
1176.559, 88.825
1177.783, 62.306
1179.007, 4.729
1180.230, 93.313
1181.453, 47.355
1182.676, 57.921
1183.899, 43.964
1185.122, 49.200
1186.345, 64.886
1187.567, 19.945
1188.789, 89.515
1190.011, 40.466
1191.233, 59.179
1192.455, 14.157
1193.677, 49.233
1194.898, 27.046
1196.119, 11.211
1197.340, 75.286
1198.561, 28.445
1199.781, 49.842
1201.002, 63.164
1202.222, 35.560
1203.442, 86.537
1204.662, 7.907
1205.882, 36.324
1207.101, 30.961
1208.321, 45.022
1209.540, 28.659
1210.759, 42.377
1211.978, 1.137
1213.196, 35.980
1214.415, 14.760
1215.633, 29.650
1216.851, 26.378
1218.069, 9.321
1219.287, 1.467
1220.504, 22.288
1221.722, 19.142
1222.939, 34.062
1224.156, 97.804
1225.373, 60.497
1226.590, 75.162
1227.806, 36.801
1229.022, 33.407
1230.239, 31.023
1231.454, 128.613
1232.670, 36.882
1233.886, 33.544
1235.101, 116.931
1236.317, 55.290
1237.532, 108.616
1238.746, 39.923
1239.961, 23.182
1241.176, 77.443
1242.390, 70.625
1243.604, 110.773
1244.818, 37.893
1246.032, 90.968
1247.246, 85.013
1248.459, 96.026
1249.672, 87.008
1250.886, 129.014
1252.098, 93.932
1253.311, 91.818
1254.524, 143.671
1255.736, 33.493
1256.948, 94.264
1258.160, 115.002
1259.372, 141.706
1260.584, 126.540
1261.795, 32.180
1263.007, 131.766
1264.218, 46.319
1265.429, 66.824
1266.640, 142.287
1267.850, 99.717
1269.061, 102.113
1270.271, 162.474
1271.481, 110.801
1272.691, 123.093
1273.901, 126.427
1275.110, 157.651
1276.320, 161.839
1277.529, 135.989
1278.738, 99.096
1279.947, 152.163
1281.155, 105.191
1282.364, 111.181
1283.572, 101.131
1284.780, 76.039
1285.988, 102.905
1287.196, 143.724
1288.404, 146.503
1289.611, 107.245
1290.818, 185.982
1292.025, 186.644
1293.232, 197.264
1294.439, 101.774
1295.646, 160.228
1296.852, 126.708
1298.058, 139.160
1299.264, 188.572
1300.470, 97.948
1301.676, 109.881
1302.881, 173.082
1304.086, 127.246
1305.292, 163.264
1306.496, 138.294
1307.701, 154.884
1308.906, 132.115
1310.110, 182.029
1311.315, 88.826
1312.519, 133.591
1313.722, 80.542
1314.926, 48.266
1316.130, 127.498
1317.333, 68.486
1318.536, 96.276
1319.739, 165.244
1320.942, 92.492
1322.145, 123.291
1323.347, 145.018
1324.550, 82.232
1325.752, 188.856
1326.954, 106.413
1328.156, 144.400
1329.357, 150.935
1330.559, 36.434
1331.760, 115.862
1332.961, 53.089
1334.162, 121.632
1335.363, 163.596
1336.563, 58.945
1337.764, 36.999
1338.964, 128.285
1340.164, 101.292
1341.364, 92.189
1342.563, 99.851
1343.763, 69.055
1344.962, 79.542
1346.161, 41.881
1347.360, 76.340
1348.559, 82.885
1349.758, 88.081
1350.956, 68.396
1352.155, 46.463
1353.353, 77.069
1354.551, 98.019
1355.748, 108.898
1356.946, 81.802
1358.143, 163.176
1359.341, 70.343
1360.538, 67.328
1361.734, 138.145
1362.931, 95.613
1364.128, 96.455
1365.324, 127.211
1366.520, 95.617
1367.716, 70.445
1368.912, 100.235
1370.108, 59.187
1371.303, 133.732
1372.499, 94.167
1373.694, 153.790
1374.889, 111.134
1376.084, 70.632
1377.278, 125.167
1378.473, 77.638
1379.667, 54.039
1380.861, 137.571
1382.055, 142.962
1383.249, 145.315
1384.442, 130.806
1385.636, 111.354
1386.829, 138.640
1388.022, 99.026
1389.215, 28.473
1390.408, 92.874
1391.600, 130.066
1392.792, 77.463
1393.985, 107.208
1395.177, 77.661
1396.368, 83.871
1397.560, 141.519
1398.752, 113.686
1399.943, 95.857
1401.134, 135.013
1402.325, 36.324
1403.516, 108.595
1404.707, 164.347
1405.897, 98.771
1407.087, 90.123
1408.277, 65.507
1409.467, 67.854
1410.657, 69.790
1411.847, 54.940
1413.036, 76.344
1414.225, 84.881
1415.414, 62.979
1416.603, 149.385
1417.792, 142.877
1418.981, 27.360
1420.169, 125.348
1421.357, 137.111
1422.545, 88.890
1423.733, 117.192
1424.921, 54.581
1426.108, 71.246
1427.296, 95.613
1428.483, 24.233
1429.670, 98.686
1430.857, 45.849
1432.043, 79.748
1433.230, 159.330
1434.416, 21.173
1435.602, 111.032
1436.788, 85.725
1437.974, 99.260
1439.160, 91.310
1440.345, 91.028
1441.530, 74.041
1442.716, 82.056
1443.900, 42.984
1445.085, 46.886
1446.270, 52.933
1447.454, 58.963
1448.638, 100.961
1449.823, 119.904
1451.006, 107.907
1452.190, 90.907
1453.374, 77.886
1454.557, 38.745
1455.740, 125.681
1456.923, 116.611
1458.106, 55.538
1459.289, 131.143
1460.472, 96.060
1461.654, 36.995
1462.836, 92.347
1464.018, 63.558
1465.200, 74.549
1466.382, 130.417
1467.563, 2.693
1468.744, 122.225
1469.926, 57.152
1471.107, 5.899
1472.287, 131.098
1473.468, 62.031
1474.649, 33.086
1475.829, 96.228
1477.009, 19.410
1478.189, 42.621
1479.369, 86.892
1480.548, 29.203
1481.728, 34.550
1482.907, 99.926
1484.086, 44.325
1485.265, 64.743
1486.444, 15.181
1487.623, 22.638
1488.801, 29.116
1489.979, 87.617
1491.157, 42.146
1492.335, 81.708
1493.513, 7.313
1494.691, 7.036
1495.868, 72.662
1497.045, 92.420
1498.222, 39.084
1499.399, 120.564
1500.576, 68.495
1501.753, 63.497
1502.929, 29.564
1504.105, 5.300
1505.281, 106.905
1506.457, 65.184
1507.633, 48.546
1508.808, 77.002
1509.984, 57.562
1511.159, 51.350
1512.334, 80.081
1513.509, 96.976
1514.683, 87.038
1515.858, 159.245
1517.032, 36.537
1518.206, 136.009
1519.380, 38.756
1520.554, 50.848
1521.728, 108.377
1522.902, 39.549
1524.075, 0.498
1525.248, 100.541
1526.421, 0.000
##END=



