##NAMES=Aegirine
##RRUFFID=R050074
##IDEAL CHEMISTRY=NaFe^3+^Si_2_O_6_
##LOCALITY=Mt. Malosa, Zomba, Chilwa, Alkaline Area, Malawi
##OWNER=RRUFF
##SOURCE=Rock Currier
##DESCRIPTION=Black prismatic single crystal
##STATUS=The identification of this mineral has been confirmed by X-ray diffraction and chemical analysis
##URL=rruff.info/R050074
##MEASURED CHEMISTRY=(Na_0.98_Ca_0.02_)_Σ=1_(Fe^3+^_0.96_Ti_0.01_Mn_0.03_)_Σ=1_Si_2.00_O_6_
##PIN_ID=L00155
##ORIENTATION=Laser parallel to -c* (0 0 -1). Fiducial mark perpendicular to laser is parallel to a [1 0 0]
101.281, 0.000
102.675, 10.943
104.069, 5.219
105.462, 9.798
106.856, 3.187
108.249, 41.476
109.642, 101.841
111.035, 157.073
112.427, 223.338
113.820, 422.129
115.212, 541.721
116.603, 416.425
117.995, 330.295
119.386, 279.898
120.778, 224.542
122.168, 149.909
123.559, 159.833
124.950, 262.786
126.340, 279.308
127.730, 334.732
129.119, 528.339
130.509, 810.324
131.898, 1257.068
133.287, 1557.824
134.676, 1754.826
136.065, 1846.921
137.453, 1598.176
138.841, 1251.668
140.229, 886.875
141.617, 708.825
143.004, 446.068
144.392, 305.351
145.779, 251.686
147.165, 156.270
148.552, 133.285
149.938, 81.883
151.324, 119.181
152.710, 70.532
154.096, 79.485
155.481, 42.897
156.866, 33.682
158.251, 47.591
159.636, 7.672
161.020, 57.142
162.405, 77.919
163.789, 83.042
165.172, 102.403
166.556, 174.934
167.939, 187.225
169.322, 254.274
170.705, 377.670
172.088, 585.079
173.470, 912.687
174.853, 1343.264
176.234, 2201.684
177.616, 3293.756
178.998, 4261.861
180.379, 4710.409
181.760, 4678.428
183.141, 4104.789
184.521, 3122.333
185.902, 2410.374
187.282, 2146.886
188.662, 2354.032
190.042, 2889.461
191.421, 3514.142
192.800, 3921.040
194.179, 4077.127
195.558, 3707.724
196.937, 3171.183
198.315, 2494.636
199.693, 1776.159
201.071, 1357.731
202.449, 1021.336
203.826, 850.960
205.203, 752.594
206.580, 691.204
207.957, 661.764
209.333, 806.248
210.710, 916.641
212.086, 1128.922
213.462, 1235.078
214.837, 1245.113
216.213, 1173.042
217.588, 968.866
218.963, 687.585
220.337, 546.223
221.712, 384.799
223.086, 233.310
224.460, 136.752
225.834, 89.127
227.207, 76.434
228.581, 10.325
229.954, 5.147
231.327, 36.031
232.699, 57.976
234.072, 61.981
235.444, 99.044
236.816, 70.179
238.188, 99.387
239.559, 97.651
240.931, 64.967
242.302, 75.335
243.673, 61.768
245.043, 95.292
246.414, 15.945
247.784, 91.758
249.154, 11.781
250.523, 20.052
251.893, 45.593
253.262, 0.403
254.631, 8.545
256.000, 30.265
257.369, 61.786
258.737, 64.140
260.105, 82.342
261.473, 139.440
262.841, 184.461
264.208, 240.420
265.576, 350.509
266.943, 378.273
268.310, 511.831
269.676, 548.743
271.042, 661.567
272.409, 823.886
273.775, 974.199
275.140, 1088.150
276.506, 1131.817
277.871, 1161.309
279.236, 1164.453
280.601, 1034.147
281.965, 935.437
283.330, 812.423
284.694, 763.290
286.058, 749.567
287.421, 694.209
288.785, 763.460
290.148, 727.470
291.511, 811.057
292.874, 783.177
294.236, 857.968
295.599, 888.424
296.961, 844.381
298.323, 892.083
299.684, 837.518
301.046, 844.652
302.407, 919.636
303.768, 906.413
305.129, 892.024
306.489, 979.484
307.850, 1029.329
309.210, 1100.387
310.570, 1130.204
311.929, 1170.125
313.289, 1225.677
314.648, 1184.381
316.007, 1229.332
317.366, 1327.432
318.724, 1287.442
320.083, 1400.634
321.441, 1534.456
322.799, 1701.472
324.156, 1928.027
325.514, 2147.981
326.871, 2470.113
328.228, 2780.085
329.585, 3401.909
330.941, 4136.045
332.298, 5031.698
333.654, 6343.273
335.010, 7833.231
336.365, 9534.761
337.721, 11267.253
339.076, 12539.630
340.431, 12881.843
341.786, 12353.895
343.140, 11515.840
344.495, 10227.696
345.849, 8669.489
347.203, 7404.229
348.556, 6261.937
349.910, 5522.623
351.263, 4591.297
352.616, 4056.958
353.969, 3417.611
355.321, 3108.251
356.674, 2860.877
358.026, 2707.489
359.378, 2611.083
360.729, 2614.663
362.081, 2578.226
363.432, 2672.774
364.783, 2790.305
366.134, 3042.820
367.484, 3278.999
368.835, 3568.765
370.185, 3903.274
371.535, 4108.658
372.884, 4591.646
374.234, 5197.064
375.583, 6006.468
376.932, 6911.858
378.281, 8323.232
379.630, 10284.597
380.978, 12365.944
382.326, 14886.448
383.674, 17446.363
385.022, 19455.605
386.369, 20413.635
387.717, 20120.598
389.064, 18466.801
390.411, 15962.795
391.757, 13655.286
393.104, 11058.196
394.450, 8839.255
395.796, 7158.033
397.141, 5833.649
398.487, 4713.036
399.832, 3834.325
401.177, 3277.875
402.522, 2684.628
403.867, 2286.528
405.211, 1985.871
406.555, 1705.160
407.899, 1539.439
409.243, 1339.800
410.587, 1211.500
411.930, 1059.318
413.273, 953.721
414.616, 834.632
415.959, 761.492
417.301, 663.989
418.644, 635.320
419.986, 529.321
421.327, 428.444
422.669, 354.880
424.010, 351.014
425.351, 279.581
426.692, 198.684
428.033, 242.388
429.374, 172.153
430.714, 205.431
432.054, 134.827
433.394, 134.652
434.733, 91.795
436.073, 115.894
437.412, 99.957
438.751, 46.974
440.090, 43.952
441.428, 66.892
442.767, 78.791
444.105, 68.653
445.443, 17.475
446.780, 63.259
448.118, 46.008
449.455, 45.525
450.792, 90.228
452.129, 88.831
453.465, 136.527
454.802, 142.196
456.138, 126.852
457.474, 175.498
458.809, 154.134
460.145, 149.759
461.480, 157.386
462.815, 145.012
464.150, 151.646
465.485, 162.278
466.819, 143.904
468.153, 124.529
469.487, 122.146
470.821, 79.764
472.155, 79.381
473.488, 75.007
474.821, 93.646
476.154, 101.962
477.487, 111.957
478.819, 141.645
480.151, 161.352
481.483, 193.083
482.815, 216.831
484.147, 202.592
485.478, 256.375
486.809, 346.174
488.140, 370.987
489.471, 537.812
490.802, 560.653
492.132, 804.505
493.462, 1113.371
494.792, 1399.248
496.122, 1908.134
497.451, 2145.028
498.780, 2275.923
500.109, 2125.820
501.438, 1940.720
502.767, 1645.623
504.095, 1318.530
505.423, 1196.443
506.751, 1085.361
508.079, 1022.282
509.406, 945.207
510.734, 904.884
512.061, 904.071
513.388, 882.009
514.714, 906.952
516.041, 964.898
517.367, 1034.850
518.693, 1171.805
520.019, 1183.765
521.344, 1320.728
522.670, 1475.696
523.995, 1736.669
525.320, 2024.646
526.644, 2291.627
527.969, 2747.614
529.293, 3374.609
530.617, 3873.611
531.941, 4815.623
533.265, 6008.640
534.588, 7777.665
535.911, 9668.689
537.234, 12699.722
538.557, 16290.759
539.880, 20871.799
541.202, 25832.844
542.524, 29743.893
543.846, 31534.959
545.168, 31226.035
546.489, 28007.129
547.811, 24348.244
549.132, 20199.385
550.453, 16280.560
551.773, 13831.819
553.094, 11313.079
554.414, 9804.377
555.734, 8465.909
557.054, 7535.760
558.374, 6695.371
559.693, 6089.020
561.012, 5660.906
562.331, 5218.873
563.650, 4747.604
564.968, 4337.622
566.287, 3944.650
567.605, 3627.839
568.923, 3265.010
570.240, 3033.219
571.558, 2742.468
572.875, 2639.288
574.192, 2326.697
575.509, 2179.271
576.825, 2053.726
578.142, 1857.867
579.458, 1731.251
580.774, 1659.428
582.090, 1579.048
583.405, 1432.287
584.721, 1346.187
586.036, 1301.289
587.351, 1242.854
588.665, 1127.920
589.980, 1073.613
591.294, 991.854
592.608, 907.417
593.922, 828.521
595.236, 712.798
596.549, 665.861
597.862, 562.072
599.175, 507.292
600.488, 439.369
601.801, 352.993
603.113, 290.901
604.425, 304.703
605.737, 259.010
607.049, 200.154
608.361, 197.009
609.672, 168.640
610.983, 133.742
612.294, 166.702
613.605, 137.328
614.915, 135.039
616.225, 127.565
617.536, 124.649
618.845, 128.533
620.155, 134.736
621.464, 99.624
622.774, 125.947
624.083, 69.209
625.391, 106.527
626.700, 108.562
628.008, 70.080
629.317, 94.823
630.625, 87.937
631.932, 148.585
633.240, 174.945
634.547, 166.940
635.854, 129.465
637.161, 162.606
638.468, 179.331
639.774, 185.895
641.081, 247.189
642.387, 249.289
643.693, 263.967
644.998, 279.756
646.304, 318.572
647.609, 386.277
648.914, 416.401
650.219, 395.355
651.523, 401.975
652.828, 510.360
654.132, 517.712
655.436, 591.018
656.740, 559.318
658.043, 598.624
659.346, 648.890
660.650, 754.066
661.952, 779.537
663.255, 933.699
664.558, 952.855
665.860, 1154.004
667.162, 1355.146
668.464, 1540.282
669.766, 1859.410
671.067, 2287.532
672.368, 2711.646
673.669, 3309.753
674.970, 3995.852
676.271, 4507.944
677.571, 4912.030
678.871, 4879.107
680.171, 4619.178
681.471, 4052.240
682.771, 3302.294
684.070, 2680.341
685.369, 2078.380
686.668, 1609.412
687.967, 1220.434
689.266, 957.450
690.564, 847.457
691.862, 685.455
693.160, 538.446
694.458, 447.678
695.755, 376.402
697.053, 283.367
698.350, 241.324
699.646, 212.272
700.943, 167.159
702.240, 165.142
703.536, 124.064
704.832, 126.977
706.128, 116.880
707.423, 70.774
708.719, 80.659
710.014, 86.533
711.309, 40.397
712.604, 0.750
713.898, 49.087
715.193, 52.912
716.487, 11.725
717.781, 6.524
719.075, 75.308
720.368, 20.081
721.662, 29.838
722.955, 17.418
724.248, 18.299
725.541, 23.002
726.833, 21.689
728.125, 5.639
729.418, 5.012
730.709, 1.645
732.001, 14.742
733.293, 26.155
734.584, 29.601
735.875, 42.082
737.166, 4.396
738.457, 25.145
739.747, 67.718
741.037, 41.348
742.327, 8.982
743.617, 24.706
744.907, 48.426
746.196, 29.192
747.486, 49.992
748.775, 11.838
750.063, 29.708
751.352, 17.387
752.640, 15.532
753.929, 15.478
755.217, 8.550
756.504, 1.438
757.792, 38.554
759.079, 15.532
760.367, 4.498
761.654, 11.554
762.940, 39.631
764.227, 32.748
765.513, 55.902
766.799, 66.105
768.085, 33.364
769.371, 37.661
770.657, 27.999
771.942, 17.373
773.227, 62.777
774.512, 51.236
775.797, 78.743
777.081, 37.312
778.365, 19.923
779.650, 37.564
780.933, 0.247
782.217, 25.951
783.501, 15.690
784.784, 38.456
786.067, 47.262
787.350, 8.113
788.633, 66.988
789.915, 58.918
791.197, 41.899
792.479, 53.922
793.761, 12.992
795.043, 6.089
796.324, 20.210
797.606, 13.360
798.887, 15.640
800.167, 1.260
801.448, 14.962
802.728, 5.211
804.009, 2.480
805.289, 3.230
806.568, 9.258
807.848, 10.085
809.128, 16.269
810.407, 14.922
811.686, 10.564
812.965, 17.193
814.243, 50.810
815.522, 2.417
816.800, 88.008
818.078, 39.588
819.355, 59.158
820.633, 91.717
821.910, 60.266
823.188, 94.805
824.465, 105.334
825.741, 119.853
827.018, 123.362
828.294, 103.861
829.570, 160.350
830.846, 194.830
832.122, 198.301
833.398, 189.762
834.673, 206.213
835.948, 204.656
837.223, 246.089
838.498, 271.514
839.772, 285.930
841.047, 311.337
842.321, 343.736
843.595, 392.126
844.868, 397.508
846.142, 440.881
847.415, 508.246
848.688, 605.604
849.961, 628.953
851.234, 695.295
852.507, 703.629
853.779, 715.955
855.051, 921.274
856.323, 983.585
857.595, 1015.890
858.866, 1089.187
860.137, 1243.478
861.409, 1374.710
862.679, 1517.977
863.950, 1717.247
865.221, 1792.332
866.491, 1895.145
867.761, 1915.253
869.031, 1868.371
870.301, 1825.312
871.570, 1697.224
872.839, 1575.428
874.109, 1496.396
875.377, 1321.400
876.646, 1178.301
877.915, 1127.255
879.183, 1028.232
880.451, 994.200
881.719, 975.633
882.987, 959.518
884.254, 907.275
885.521, 877.182
886.788, 875.197
888.055, 867.478
889.322, 870.749
890.588, 876.023
891.855, 929.850
893.121, 905.462
894.387, 948.715
895.652, 1005.703
896.918, 978.949
898.183, 1007.734
899.448, 1023.703
900.713, 1072.384
901.978, 1092.371
903.242, 1076.311
904.506, 1213.423
905.771, 1154.190
907.034, 1271.964
908.298, 1297.002
909.562, 1312.558
910.825, 1432.806
912.088, 1512.964
913.351, 1598.631
914.613, 1677.808
915.876, 1810.096
917.138, 1868.813
918.400, 1996.078
919.662, 2088.707
920.924, 2198.393
922.185, 2342.812
923.447, 2526.840
924.708, 2726.494
925.969, 2830.352
927.229, 3105.946
928.490, 3267.821
929.750, 3500.309
931.010, 3919.864
932.270, 4220.358
933.530, 4577.073
934.789, 5033.314
936.048, 5527.171
937.308, 6270.675
938.566, 6950.643
939.825, 7834.997
941.084, 9032.769
942.342, 10278.073
943.600, 12064.464
944.858, 14000.130
946.116, 16278.310
947.373, 19666.916
948.630, 22404.727
949.888, 25282.967
951.144, 26331.105
952.401, 26450.223
953.658, 24798.455
954.914, 21977.271
956.170, 19426.268
957.426, 17425.600
958.682, 15995.181
959.937, 15484.798
961.193, 14634.468
962.448, 13944.146
963.703, 12793.827
964.957, 12123.550
966.212, 11533.372
967.466, 11362.902
968.720, 11562.747
969.974, 12732.604
971.228, 13822.476
972.482, 14012.355
973.735, 13522.251
974.988, 12292.160
976.241, 10952.079
977.494, 8282.012
978.746, 6954.958
979.999, 5840.916
981.251, 5104.886
982.503, 4502.870
983.755, 4024.868
985.006, 3689.883
986.258, 3316.911
987.509, 3149.953
988.760, 2709.008
990.011, 2562.076
991.261, 2335.158
992.512, 2072.253
993.762, 1930.362
995.012, 1840.484
996.262, 1645.621
997.511, 1545.771
998.761, 1496.934
1000.010, 1359.111
1001.259, 1303.302
1002.508, 1158.506
1003.756, 1074.725
1005.005, 1100.957
1006.253, 978.204
1007.501, 951.464
1008.749, 952.739
1009.996, 897.100
1011.244, 879.931
1012.491, 858.649
1013.738, 822.980
1014.985, 792.326
1016.232, 775.687
1017.478, 799.065
1018.724, 799.816
1019.970, 847.866
1021.216, 862.290
1022.462, 892.588
1023.707, 962.264
1024.953, 1045.736
1026.198, 1026.547
1027.443, 1079.446
1028.687, 1108.495
1029.932, 1194.178
1031.176, 1314.144
1032.420, 1362.487
1033.664, 1603.972
1034.908, 1850.300
1036.152, 2123.595
1037.395, 2613.761
1038.638, 3142.049
1039.881, 3880.793
1041.124, 4868.977
1042.366, 5641.793
1043.609, 6177.251
1044.851, 5715.107
1046.093, 4819.255
1047.335, 3796.977
1048.576, 2920.336
1049.818, 2394.148
1051.059, 1973.916
1052.300, 1643.471
1053.541, 1498.792
1054.781, 1287.622
1056.022, 1141.661
1057.262, 1043.903
1058.502, 932.390
1059.742, 857.899
1060.981, 818.066
1062.221, 757.334
1063.460, 743.542
1064.699, 733.330
1065.938, 690.087
1067.177, 663.312
1068.415, 630.951
1069.653, 626.626
1070.891, 652.584
1072.129, 606.125
1073.367, 671.407
1074.604, 681.523
1075.842, 661.434
1077.079, 656.803
1078.316, 633.801
1079.553, 637.251
1080.789, 684.749
1082.025, 665.513
1083.262, 676.420
1084.498, 674.916
1085.733, 657.081
1086.969, 650.644
1088.204, 706.485
1089.439, 694.573
1090.674, 731.176
1091.909, 704.275
1093.144, 715.929
1094.378, 708.813
1095.612, 702.953
1096.846, 763.662
1098.080, 742.942
1099.314, 781.705
1100.547, 784.495
1101.781, 793.381
1103.014, 830.249
1104.247, 883.041
1105.479, 900.144
1106.712, 937.955
1107.944, 945.138
1109.176, 962.987
1110.408, 976.928
1111.640, 995.812
1112.871, 1045.663
1114.102, 1006.520
1115.334, 1087.436
1116.565, 1111.347
1117.795, 1131.332
1119.026, 1227.214
1120.256, 1261.196
1121.486, 1331.089
1122.716, 1381.336
1123.946, 1402.450
1125.176, 1456.808
1126.405, 1444.725
1127.634, 1446.646
1128.863, 1472.576
1130.092, 1544.565
1131.321, 1494.838
1132.549, 1630.671
1133.778, 1562.635
1135.006, 1553.662
1136.233, 1552.617
1137.461, 1463.575
1138.689, 1415.546
1139.916, 1345.512
1141.143, 1174.502
1142.370, 1068.581
1143.597, 899.555
1144.823, 791.531
1146.050, 701.510
1147.276, 565.492
1148.502, 463.475
1149.727, 373.460
1150.953, 292.472
1152.178, 245.464
1153.404, 169.489
1154.629, 139.484
1155.853, 86.550
1157.078, 69.550
1158.302, 73.549
1159.527, 36.561
1160.751, 44.562
1161.975, 96.564
1163.198, 24.566
1164.422, 64.568
1165.645, 22.571
1166.868, 23.750
1168.091, 37.880
1169.314, 42.913
1170.536, 9.831
1171.759, 7.236
1172.981, 31.751
1174.203, 13.775
1175.424, 33.815
1176.646, 5.860
1177.867, 12.919
1179.089, 18.922
1180.310, 36.885
1181.530, 33.415
1182.751, 63.687
1183.971, 28.696
1185.192, 29.562
1186.412, 19.653
1187.632, 41.789
1188.851, 34.891
1190.071, 27.994
1191.290, 65.154
1192.509, 36.992
1193.728, 29.246
1194.947, 38.321
1196.165, 60.486
1197.384, 42.808
1198.602, 38.365
1199.820, 33.699
1201.037, 25.131
1202.255, 43.567
1203.472, 30.042
1204.690, 20.415
1205.907, 5.827
1207.124, 7.751
1208.340, 4.647
1209.557, 25.939
1210.773, 2.535
1211.989, 1.167
1213.205, 7.790
1214.421, 13.433
1215.636, 2.885
1216.851, 0.793
1218.067, 7.496
1219.281, 51.755
1220.496, 0.924
1221.711, 12.671
1222.925, 33.559
1224.139, 3.815
1225.353, 30.138
1226.567, 24.435
1227.781, 12.325
1228.994, 9.654
1230.207, 42.865
1231.421, 6.082
1232.633, 38.278
1233.846, 16.451
1235.059, 10.647
1236.271, 51.797
1237.483, 12.925
1238.695, 57.039
1239.907, 23.220
1241.118, 15.359
1242.330, 88.436
1243.541, 4.557
1244.752, 49.511
1245.963, 47.490
1247.173, 32.458
1248.384, 36.416
1249.594, 59.364
1250.804, 25.314
1252.014, 84.240
1253.223, 24.155
1254.433, 57.537
1255.642, 39.675
1256.851, 54.564
1258.060, 84.440
1259.269, 94.294
1260.478, 54.136
1261.686, 57.967
1262.894, 43.786
1264.102, 94.592
1265.310, 47.387
1266.518, 78.169
1267.725, 72.755
1268.932, 85.527
1270.139, 75.271
1271.346, 103.152
1272.553, 86.912
1273.759, 89.468
1274.966, 64.179
1276.172, 37.856
1277.378, 19.737
1278.583, 75.378
1279.789, 62.012
1280.994, 92.687
1282.200, 107.409
1283.405, 80.056
1284.609, 110.632
1285.814, 78.181
1287.018, 58.733
1288.223, 98.251
1289.427, 94.753
1290.631, 114.237
1291.834, 89.701
1293.038, 93.151
1294.241, 95.587
1295.444, 83.835
1296.647, 120.271
1297.850, 82.667
1299.053, 126.049
1300.255, 74.445
1301.457, 90.801
1302.659, 93.143
1303.861, 89.472
1305.063, 125.787
1306.264, 98.083
1307.466, 152.429
1308.667, 100.739
1309.868, 108.992
1311.068, 62.230
1312.269, 67.453
1313.469, 60.661
1314.669, 70.998
1315.869, 73.958
1317.069, 87.125
1318.269, 91.459
1319.468, 97.697
1320.668, 90.428
1321.867, 104.440
1323.066, 78.182
1324.264, 66.490
1325.463, 58.660
1326.661, 52.020
1327.859, 57.378
1329.057, 43.865
1330.255, 62.239
1331.452, 69.168
1332.650, 54.659
1333.847, 50.525
1335.044, 53.770
1336.241, 25.628
1337.438, 55.198
1338.634, 32.226
1339.830, 34.597
1341.027, 43.526
1342.222, 4.544
1343.418, 32.759
1344.614, 43.210
1345.809, 37.152
1347.004, 35.891
1348.199, 44.433
1349.394, 54.182
1350.589, 49.835
1351.783, 51.185
1352.978, 45.146
1354.172, 39.721
1355.365, 44.721
1356.559, 38.765
1357.753, 38.869
1358.946, 41.865
1360.139, 37.754
1361.332, 41.675
1362.525, 46.008
1363.718, 29.608
1364.910, 41.381
1366.102, 40.379
1367.294, 31.934
1368.486, 17.885
1369.678, 19.817
1370.869, 2.131
1372.061, 15.088
1373.252, 28.168
1374.443, 24.941
1375.634, 25.782
1376.824, 29.240
1378.015, 21.673
1379.205, 27.514
1380.395, 30.548
1381.585, 29.999
1382.775, 17.161
1383.964, 20.354
1385.153, 27.692
1386.343, 50.515
1387.531, 24.156
1388.720, 43.405
1389.909, 74.093
1391.097, 45.729
1392.285, 56.425
1393.473, 40.080
1394.661, 64.604
1395.849, 49.158
1397.037, 0.784
1398.224, 8.379
1399.411, 40.945
1400.598, 41.412
1401.785, 60.497
1402.971, 47.845
1404.158, 50.626
1405.344, 56.436
1406.530, 43.866
1407.716, 41.202
1408.901, 45.508
1410.087, 6.216
1411.272, 35.997
1412.457, 59.166
1413.642, 11.252
1414.827, 56.381
1416.012, 8.506
1417.196, 32.574
1418.380, 48.388
1419.564, 3.954
1420.748, 53.704
1421.932, 33.622
1423.115, 19.577
1424.299, 9.442
1425.482, 17.986
1426.665, 30.411
1427.847, 43.827
1429.030, 27.554
1430.212, 38.207
1431.395, 51.699
1432.577, 46.623
1433.759, 79.416
1434.940, 35.269
1436.122, 31.223
1437.303, 11.581
1438.484, 21.627
1439.665, 59.749
1440.846, 54.898
1442.026, 21.066
1443.207, 27.250
1444.387, 49.406
1445.567, 34.637
1446.747, 61.598
1447.927, 42.339
1449.106, 10.163
1450.286, 15.120
1451.465, 51.060
1452.644, 31.069
1453.822, 52.934
1455.001, 42.843
1456.179, 35.919
1457.358, 25.140
1458.536, 39.342
1459.714, 34.497
1460.891, 74.590
1462.069, 0.135
1463.246, 11.226
1464.423, 8.324
1465.600, 61.408
1466.777, 42.478
1467.954, 11.443
1469.130, 55.064
1470.306, 30.706
1471.483, 36.582
1472.658, 70.911
1473.834, 42.637
1475.010, 40.014
1476.185, 60.910
1477.360, 44.794
1478.535, 52.518
1479.710, 11.762
1480.885, 47.059
1482.059, 17.882
1483.234, 7.678
1484.408, 12.539
1485.582, 16.377
1486.755, 25.999
1487.929, 53.676
1489.102, 41.506
1490.275, 55.016
1491.449, 54.264
1492.621, 51.866
1493.794, 45.765
1494.967, 24.169
1496.139, 15.665
1497.311, 16.693
1498.483, 7.705
1499.655, 23.114
1500.826, 6.958
1501.998, 7.636
1503.169, 11.585
1504.340, 27.274
1505.511, 41.218
1506.682, 46.398
1507.852, 50.156
1509.023, 51.184
1510.193, 44.322
1511.363, 25.306
1512.532, 22.261
1513.702, 36.233
1514.872, 2.439
1516.041, 30.964
1517.210, 46.452
1518.379, 40.087
1519.548, 29.699
1520.716, 7.100
1521.885, 0.035
1523.053, 0.000
##END=



