##NAMES=Aegirine
##RRUFFID=R050074
##IDEAL CHEMISTRY=NaFe^3+^Si_2_O_6_
##LOCALITY=Mt. Malosa, Zomba, Chilwa, Alkaline Area, Malawi
##OWNER=RRUFF
##SOURCE=Rock Currier
##DESCRIPTION=Black prismatic single crystal
##STATUS=The identification of this mineral has been confirmed by X-ray diffraction and chemical analysis
##URL=rruff.info/R050074
##MEASURED CHEMISTRY=(Na_0.98_Ca_0.02_)_Σ=1_(Fe^3+^_0.96_Ti_0.01_Mn_0.03_)_Σ=1_Si_2.00_O_6_
##PIN_ID=L00435
##ORIENTATION=Laser parallel to a* (1 0 0). Fiducial mark perpendicular to laser is parallel to -b [0 -1 0]
148.552, 0.000
149.938, 54.341
151.324, 85.707
152.710, 102.844
154.096, 10.827
155.481, 96.404
156.866, 10.057
158.251, 62.587
159.636, 152.962
161.020, 175.761
162.405, 153.834
163.789, 129.492
165.172, 81.029
166.556, 77.978
167.939, 110.183
169.322, 135.672
170.705, 252.286
172.088, 346.962
173.470, 566.066
174.853, 758.885
176.234, 987.861
177.616, 1299.591
178.998, 1649.570
180.379, 2084.615
181.760, 2311.890
183.141, 2392.605
184.521, 2676.978
185.902, 3206.186
187.282, 4138.425
188.662, 5947.364
190.042, 8512.587
191.421, 11330.308
192.800, 13389.756
194.179, 14045.023
195.558, 12963.481
196.937, 10977.789
198.315, 8108.212
199.693, 5810.063
201.071, 4047.682
202.449, 3037.232
203.826, 2479.622
205.203, 2029.681
206.580, 1797.096
207.957, 1737.161
209.333, 1807.780
210.710, 2065.691
212.086, 2465.298
213.462, 2682.881
214.837, 2766.468
216.213, 2504.085
217.588, 2048.753
218.963, 1523.713
220.337, 1125.645
221.712, 732.079
223.086, 526.490
224.460, 411.948
225.834, 355.385
227.207, 184.766
228.581, 139.068
229.954, 112.281
231.327, 97.462
232.699, 77.752
234.072, 48.117
235.444, 16.532
236.816, 62.981
238.188, 67.532
239.559, 16.017
240.931, 69.486
242.302, 44.941
243.673, 11.611
245.043, 73.838
246.414, 3.293
247.784, 6.762
249.154, 14.750
250.523, 17.240
251.893, 32.451
253.262, 22.131
254.631, 37.517
256.000, 30.849
257.369, 41.227
258.737, 7.333
260.105, 77.479
261.473, 70.627
262.841, 121.527
264.208, 133.536
265.576, 186.431
266.943, 219.265
268.310, 251.040
269.676, 348.752
271.042, 403.383
272.409, 567.918
273.775, 672.350
275.140, 797.664
276.506, 901.796
277.871, 937.792
279.236, 937.905
280.601, 878.161
281.965, 812.263
283.330, 699.320
284.694, 554.120
286.058, 516.666
287.421, 449.909
288.785, 473.778
290.148, 396.191
291.511, 400.897
292.874, 427.860
294.236, 487.990
295.599, 492.762
296.961, 536.079
298.323, 514.382
299.684, 465.420
301.046, 507.487
302.407, 503.121
303.768, 490.995
305.129, 658.536
306.489, 700.708
307.850, 761.610
309.210, 803.328
310.570, 886.980
311.929, 957.994
313.289, 969.944
314.648, 1020.654
316.007, 940.086
317.366, 1060.828
318.724, 1149.045
320.083, 1227.511
321.441, 1401.639
322.799, 1620.512
324.156, 1764.395
325.514, 2032.178
326.871, 2379.854
328.228, 2828.422
329.585, 3475.700
330.941, 4095.824
332.298, 4838.945
333.654, 5936.036
335.010, 7047.061
336.365, 8426.961
337.721, 9856.726
339.076, 11026.355
340.431, 11795.852
341.786, 11705.222
343.140, 11174.470
344.495, 9943.606
345.849, 8322.642
347.203, 6791.578
348.556, 5487.423
349.910, 4673.179
351.263, 3848.843
352.616, 3334.383
353.969, 2927.788
355.321, 2733.048
356.674, 2550.155
358.026, 2478.998
359.378, 2422.565
360.729, 2383.914
362.081, 2351.105
363.432, 2416.173
364.783, 2564.133
366.134, 2568.994
367.484, 2564.751
368.835, 2453.433
370.185, 2323.054
371.535, 2127.627
372.884, 1960.165
374.234, 1770.676
375.583, 1743.163
376.932, 1659.625
378.281, 1648.063
379.630, 1763.477
380.978, 1907.865
382.326, 2054.226
383.674, 2212.557
385.022, 2426.860
386.369, 2479.133
387.717, 2558.246
389.064, 2361.096
390.411, 2157.137
391.757, 1982.774
393.104, 1699.165
394.450, 1401.356
395.796, 1126.282
397.141, 1000.730
398.487, 797.380
399.832, 715.042
401.177, 542.655
402.522, 475.493
403.867, 394.966
405.211, 371.970
406.555, 290.373
407.899, 260.541
409.243, 190.123
410.587, 175.473
411.930, 225.927
413.273, 182.446
414.616, 138.333
415.959, 70.954
417.301, 119.901
418.644, 85.685
419.986, 61.655
421.327, 34.707
422.669, 38.849
424.010, 52.530
425.351, 53.729
426.692, 23.873
428.033, 24.644
429.374, 37.319
430.714, 30.905
432.054, 17.875
433.394, 20.853
434.733, 24.096
436.073, 65.086
437.412, 3.128
438.751, 31.797
440.090, 14.309
441.428, 25.545
442.767, 43.362
444.105, 39.857
445.443, 21.872
446.780, 13.561
448.118, 57.457
449.455, 20.250
450.792, 33.991
452.129, 7.531
453.465, 100.269
454.802, 112.989
456.138, 78.690
457.474, 153.492
458.809, 96.063
460.145, 133.603
461.480, 184.705
462.815, 169.344
464.150, 198.719
465.485, 183.161
466.819, 214.732
468.153, 252.312
469.487, 146.735
470.821, 163.570
472.155, 137.664
473.488, 164.149
474.821, 144.663
476.154, 126.979
477.487, 217.311
478.819, 228.403
480.151, 235.000
481.483, 268.230
482.815, 387.364
484.147, 415.301
485.478, 525.324
486.809, 572.172
488.140, 773.998
489.471, 1044.641
490.802, 1391.949
492.132, 1722.898
493.462, 2397.352
494.792, 3083.821
496.122, 3863.242
497.451, 4403.657
498.780, 4650.988
500.109, 4311.284
501.438, 3612.552
502.767, 2865.794
504.095, 2122.002
505.423, 1679.176
506.751, 1324.320
508.079, 1085.430
509.406, 910.508
510.734, 784.555
512.061, 721.577
513.388, 663.568
514.714, 604.527
516.041, 527.454
517.367, 487.350
518.693, 533.216
520.019, 565.054
521.344, 545.863
522.670, 592.645
523.995, 599.400
525.320, 652.770
526.644, 684.831
527.969, 788.508
529.293, 885.159
530.617, 983.785
531.941, 1126.385
533.265, 1253.960
534.588, 1544.511
535.911, 1758.036
537.234, 2287.536
538.557, 2852.449
539.880, 3407.461
541.202, 4181.887
542.524, 4888.306
543.846, 5399.737
545.168, 5678.088
546.489, 5354.449
547.811, 5036.750
549.132, 4469.028
550.453, 3837.373
551.773, 3556.653
553.094, 3100.977
554.414, 3154.372
555.734, 2882.746
557.054, 2601.038
558.374, 2452.333
559.693, 2354.624
561.012, 2330.960
562.331, 2305.298
563.650, 2205.641
564.968, 2104.903
566.287, 1957.884
567.605, 1945.762
568.923, 1794.262
570.240, 1796.744
571.558, 1674.608
572.875, 1654.173
574.192, 1481.567
575.509, 1435.515
576.825, 1393.777
578.142, 1268.939
579.458, 1165.018
580.774, 1122.784
582.090, 1043.769
583.405, 1016.792
584.721, 960.762
586.036, 888.489
587.351, 867.100
588.665, 722.952
589.980, 710.247
591.294, 625.570
592.608, 561.999
593.922, 505.706
595.236, 439.847
596.549, 410.855
597.862, 342.369
599.175, 290.747
600.488, 243.230
601.801, 170.677
603.113, 178.431
604.425, 169.676
605.737, 93.833
607.049, 99.351
608.361, 93.545
609.672, 84.950
610.983, 27.069
612.294, 44.955
613.605, 44.892
614.915, 9.572
616.225, 55.643
617.536, 50.258
618.845, 15.384
620.155, 9.836
621.464, 23.795
622.774, 43.339
624.083, 7.624
625.391, 5.267
626.700, 36.852
628.008, 11.233
629.317, 18.622
630.625, 3.381
631.932, 2.523
633.240, 21.692
634.547, 11.880
635.854, 61.968
637.161, 9.060
638.468, 19.908
639.774, 37.220
641.081, 77.198
642.387, 50.781
643.693, 85.906
644.998, 87.715
646.304, 122.511
647.609, 122.903
648.914, 120.371
650.219, 152.524
651.523, 146.004
652.828, 147.114
654.132, 145.235
655.436, 181.517
656.740, 181.701
658.043, 194.998
659.346, 233.233
660.650, 238.177
661.952, 247.115
663.255, 301.587
664.558, 316.628
665.860, 430.480
667.162, 503.832
668.464, 542.105
669.766, 671.004
671.067, 867.721
672.368, 925.410
673.669, 1066.083
674.970, 1218.739
676.271, 1304.378
677.571, 1414.002
678.871, 1323.610
680.171, 1191.202
681.471, 1153.778
682.771, 920.338
684.070, 832.883
685.369, 619.412
686.668, 531.925
687.967, 397.424
689.266, 357.907
690.564, 262.375
691.862, 263.828
693.160, 180.266
694.458, 196.689
695.755, 173.097
697.053, 139.491
698.350, 125.870
699.646, 116.234
700.943, 140.584
702.240, 118.919
703.536, 150.240
704.832, 136.274
706.128, 103.839
707.423, 114.117
708.719, 98.381
710.014, 76.630
711.309, 76.864
712.604, 92.082
713.898, 88.286
715.193, 84.580
716.487, 75.651
717.781, 73.810
719.075, 73.955
720.368, 81.084
721.662, 66.199
722.955, 70.301
724.248, 91.389
725.541, 82.466
726.833, 40.532
728.125, 67.585
729.418, 62.625
730.709, 76.655
732.001, 72.676
733.293, 53.687
734.584, 24.687
735.875, 46.677
737.166, 36.015
738.457, 60.644
739.747, 54.638
741.037, 81.640
742.327, 101.644
743.617, 86.650
744.907, 75.662
746.196, 92.677
747.486, 72.687
748.775, 73.912
750.063, 70.627
751.352, 63.714
752.640, 58.728
753.929, 53.735
755.217, 46.514
756.504, 108.741
757.792, 53.735
759.079, 139.735
760.367, 137.730
761.654, 96.472
762.940, 87.236
764.227, 55.975
765.513, 62.678
766.799, 35.140
768.085, 30.673
769.371, 53.202
770.657, 29.580
771.942, 77.146
773.227, 1.687
774.512, 10.623
775.797, 15.020
777.081, 31.553
778.365, 13.976
779.650, 50.675
780.933, 3.568
782.217, 12.934
783.501, 5.144
784.784, 3.485
786.067, 15.313
787.350, 1.202
788.633, 52.952
789.915, 29.789
791.197, 27.447
792.479, 75.669
793.761, 31.596
795.043, 24.483
796.324, 35.229
797.606, 28.120
798.887, 55.893
800.167, 5.707
801.448, 50.389
802.728, 68.114
804.009, 10.093
805.289, 53.570
806.568, 9.694
807.848, 49.041
809.128, 18.826
810.407, 1.423
811.686, 20.337
812.965, 37.116
814.243, 17.076
815.522, 13.263
816.800, 7.557
818.078, 0.611
819.355, 17.770
820.633, 7.077
821.910, 24.935
823.188, 1.188
824.465, 29.302
825.741, 56.413
827.018, 80.518
828.294, 51.619
829.570, 56.715
830.846, 90.808
832.122, 99.896
833.398, 116.980
834.673, 113.060
835.948, 170.136
837.223, 163.208
838.498, 184.277
839.772, 244.342
841.047, 277.404
842.321, 382.462
843.595, 391.913
844.868, 439.126
846.142, 431.619
847.415, 507.666
848.688, 513.709
849.961, 570.750
851.234, 576.789
852.507, 686.806
853.779, 729.784
855.051, 847.816
856.323, 883.809
857.595, 970.837
858.866, 1069.392
860.137, 1139.800
861.409, 1264.783
862.679, 1354.702
863.950, 1450.534
865.221, 1585.369
866.491, 1696.271
867.761, 1662.161
869.031, 1741.038
870.301, 1650.880
871.570, 1630.719
872.839, 1499.562
874.109, 1316.438
875.377, 1263.256
876.646, 1141.094
877.915, 1027.025
879.183, 999.923
880.451, 899.650
881.719, 822.494
882.987, 804.338
884.254, 724.245
885.521, 721.153
886.788, 684.987
888.055, 678.705
889.322, 670.526
890.588, 621.309
891.855, 614.213
893.121, 613.109
894.387, 614.128
895.652, 612.223
896.918, 585.281
898.183, 587.704
899.448, 566.395
900.713, 572.417
901.978, 589.452
903.242, 582.057
904.506, 587.494
905.771, 549.502
907.034, 558.500
908.298, 521.477
909.562, 536.634
910.825, 561.657
912.088, 575.816
913.351, 548.977
914.613, 553.139
915.876, 555.304
917.138, 575.364
918.400, 564.495
919.662, 507.444
920.924, 574.419
922.185, 560.495
923.447, 614.484
924.708, 623.690
925.969, 592.298
927.229, 665.252
928.490, 684.982
929.750, 712.054
931.010, 699.899
932.270, 780.510
933.530, 776.325
934.789, 872.357
936.048, 883.756
937.308, 988.646
938.566, 1048.543
939.825, 1163.227
941.084, 1266.854
942.342, 1442.949
943.600, 1787.198
944.858, 2081.466
946.116, 2462.518
947.373, 3086.007
948.630, 3593.881
949.888, 4229.200
951.144, 4519.818
952.401, 4501.443
953.658, 4224.457
954.914, 3698.384
956.170, 3323.618
957.426, 3155.512
958.682, 3079.770
959.937, 3222.006
961.193, 3147.071
962.448, 3127.220
963.703, 2883.249
964.957, 2528.327
966.212, 2249.686
967.466, 2040.041
968.720, 1875.853
969.974, 1841.086
971.228, 1717.497
972.482, 1718.400
973.735, 1667.372
974.988, 1550.710
976.241, 1520.221
977.494, 1439.751
978.746, 1189.290
979.999, 1061.836
981.251, 981.389
982.503, 905.951
983.755, 894.520
985.006, 790.097
986.258, 782.682
987.509, 786.277
988.760, 722.879
990.011, 719.489
991.261, 649.113
992.512, 639.746
993.762, 653.385
995.012, 667.033
996.262, 663.355
997.511, 668.365
998.761, 668.028
1000.010, 658.710
1001.259, 662.401
1002.508, 648.100
1003.756, 678.808
1005.005, 678.490
1006.253, 722.248
1007.501, 701.979
1008.749, 720.719
1009.996, 731.467
1011.244, 709.224
1012.491, 752.990
1013.738, 731.763
1014.985, 769.547
1016.232, 798.338
1017.478, 751.189
1018.724, 887.998
1019.970, 835.815
1021.216, 846.642
1022.462, 840.479
1023.707, 767.355
1024.953, 762.216
1026.198, 743.087
1027.443, 762.969
1028.687, 772.858
1029.932, 703.847
1031.176, 805.754
1032.420, 799.333
1033.664, 845.256
1034.908, 972.141
1036.152, 958.250
1037.395, 1140.209
1038.638, 1236.733
1039.881, 1472.892
1041.124, 1798.847
1042.366, 2121.864
1043.609, 2377.755
1044.851, 2294.717
1046.093, 1942.726
1047.335, 1658.742
1048.576, 1297.825
1049.818, 1130.486
1051.059, 951.312
1052.300, 883.396
1053.541, 918.438
1054.781, 842.357
1056.022, 799.710
1057.262, 829.947
1058.502, 754.316
1059.742, 778.401
1060.981, 740.273
1062.221, 684.588
1063.460, 692.690
1064.699, 676.824
1065.938, 685.937
1067.177, 669.120
1068.415, 643.252
1069.653, 630.417
1070.891, 637.620
1072.129, 594.796
1073.367, 645.680
1074.604, 627.026
1075.842, 628.375
1077.079, 645.640
1078.316, 653.646
1079.553, 704.830
1080.789, 703.061
1082.025, 713.321
1083.262, 771.641
1084.498, 802.999
1085.733, 850.383
1086.969, 882.641
1088.204, 793.915
1089.439, 779.199
1090.674, 678.777
1091.909, 657.108
1093.144, 575.598
1094.378, 535.933
1095.612, 540.591
1096.846, 444.034
1098.080, 451.410
1099.314, 467.805
1100.547, 501.095
1101.781, 412.510
1103.014, 417.943
1104.247, 430.274
1105.479, 380.733
1106.712, 416.251
1107.944, 372.805
1109.176, 394.325
1110.408, 387.844
1111.640, 352.354
1112.871, 393.875
1114.102, 369.704
1115.334, 385.952
1116.565, 368.515
1117.795, 329.061
1119.026, 339.689
1120.256, 323.251
1121.486, 315.889
1122.716, 341.563
1123.946, 300.237
1125.176, 328.887
1126.405, 313.533
1127.634, 249.107
1128.863, 282.686
1130.092, 257.336
1131.321, 311.914
1132.549, 244.572
1133.778, 206.152
1135.006, 225.099
1136.233, 241.681
1137.461, 251.263
1138.689, 201.395
1139.916, 232.979
1141.143, 172.562
1142.370, 144.219
1143.597, 145.854
1144.823, 98.559
1146.050, 157.274
1147.276, 93.127
1148.502, 116.778
1149.727, 57.616
1150.953, 51.264
1152.178, 108.848
1153.404, 43.431
1154.629, 46.014
1155.853, 53.596
1157.078, 17.178
1158.302, 47.954
1159.527, 62.534
1160.751, 77.184
1161.975, 5.899
1163.198, 2.476
1164.422, 2.948
1165.645, 17.625
1166.868, 3.197
1168.091, 13.859
1169.314, 13.525
1170.536, 1.312
1171.759, 12.501
1172.981, 13.611
1174.203, 13.366
1175.424, 32.925
1176.646, 3.492
1177.867, 38.074
1179.089, 63.375
1180.310, 15.158
1181.530, 51.240
1182.751, 4.448
1183.971, 2.336
1185.192, 27.825
1186.412, 4.109
1187.632, 49.561
1188.851, 50.079
1190.071, 15.682
1191.290, 32.297
1192.509, 12.164
1193.728, 12.524
1194.947, 16.926
1196.165, 9.577
1197.384, 11.882
1198.602, 15.559
1199.820, 14.440
1201.037, 43.928
1202.255, 18.549
1203.472, 16.297
1204.690, 18.013
1205.907, 19.208
1207.124, 23.492
1208.340, 25.304
1209.557, 30.411
1210.773, 15.127
1211.989, 25.335
1213.205, 7.538
1214.421, 21.736
1215.636, 15.931
1216.851, 9.120
1218.067, 10.693
1219.281, 37.521
1220.496, 3.622
1221.711, 28.240
1222.925, 7.873
1224.139, 6.020
1225.353, 42.075
1226.567, 8.835
1227.781, 20.259
1228.994, 10.344
1230.207, 9.593
1231.421, 25.546
1232.633, 29.478
1233.846, 28.495
1235.059, 28.552
1236.271, 5.586
1237.483, 26.582
1238.695, 9.573
1239.907, 49.555
1241.118, 6.531
1242.330, 6.506
1243.541, 42.448
1244.752, 36.392
1245.963, 2.673
1247.173, 78.248
1248.384, 42.162
1249.594, 1.928
1250.804, 48.971
1252.014, 4.136
1253.223, 23.745
1254.433, 36.620
1255.642, 39.519
1256.851, 62.379
1258.060, 77.402
1259.269, 57.248
1260.478, 43.139
1261.686, 38.984
1262.894, 72.799
1264.102, 26.606
1265.310, 43.406
1266.518, 27.217
1267.725, 22.998
1268.932, 23.769
1270.139, 28.532
1271.346, 30.176
1272.553, 72.032
1273.759, 47.768
1274.966, 31.496
1276.172, 55.215
1277.378, 30.926
1278.583, 66.623
1279.789, 14.301
1280.994, 56.968
1282.200, 84.625
1283.405, 7.727
1284.609, 58.904
1285.814, 67.521
1287.018, 35.127
1288.223, 40.724
1289.427, 28.311
1290.631, 27.888
1291.834, 20.377
1293.038, 38.010
1294.241, 21.555
1295.444, 39.091
1296.647, 80.619
1297.850, 61.138
1299.053, 89.648
1300.255, 73.051
1301.457, 100.643
1302.659, 26.128
1303.861, 76.603
1305.063, 39.070
1306.264, 30.529
1307.466, 71.978
1308.667, 100.419
1309.868, 80.801
1311.068, 57.225
1312.269, 35.641
1313.469, 18.048
1314.669, 23.445
1315.869, 0.197
1317.069, 14.178
1318.269, 28.542
1319.468, 62.896
1320.668, 52.243
1321.867, 55.488
1323.066, 69.815
1324.264, 51.472
1325.463, 34.782
1326.661, 18.132
1327.859, 18.258
1329.057, 16.058
1330.255, 19.431
1331.452, 30.323
1332.650, 35.606
1333.847, 51.826
1335.044, 63.174
1336.241, 22.451
1337.438, 67.680
1338.634, 15.904
1339.830, 42.060
1341.027, 7.640
1342.222, 53.054
1343.418, 41.212
1344.614, 34.413
1345.809, 15.737
1347.004, 51.629
1348.199, 24.638
1349.394, 53.515
1350.589, 18.679
1351.783, 78.837
1352.978, 70.991
1354.172, 75.738
1355.365, 63.856
1356.559, 75.998
1357.753, 56.071
1358.946, 59.441
1360.139, 41.293
1361.332, 58.794
1362.525, 55.886
1363.718, 57.274
1364.910, 61.202
1366.102, 57.710
1367.294, 60.155
1368.486, 54.447
1369.678, 34.500
1370.869, 25.512
1372.061, 26.511
1373.252, 69.426
1374.443, 40.297
1375.634, 48.139
1376.824, 38.097
1378.015, 16.039
1379.205, 19.968
1380.395, 41.618
1381.585, 31.527
1382.775, 67.295
1383.964, 35.269
1385.153, 42.163
1386.343, 56.428
1387.531, 35.779
1388.720, 31.107
1389.909, 57.234
1391.097, 52.320
1392.285, 83.479
1393.473, 28.633
1394.661, 50.740
1395.849, 55.777
1397.037, 60.782
1398.224, 15.634
1399.411, 46.532
1400.598, 0.581
1401.785, 29.535
1402.971, 10.465
1404.158, 19.023
1405.344, 31.202
1406.530, 23.152
1407.716, 30.359
1408.901, 15.551
1410.087, 34.037
1411.272, 26.520
1412.457, 37.375
1413.642, 35.167
1414.827, 34.098
1416.012, 28.495
1417.196, 29.099
1418.380, 28.191
1419.564, 20.490
1420.748, 42.282
1421.932, 48.532
1423.115, 41.919
1424.299, 54.498
1425.482, 78.112
1426.665, 70.207
1427.847, 56.902
1429.030, 63.041
1430.212, 47.644
1431.395, 63.212
1432.577, 38.628
1433.759, 79.775
1434.940, 75.488
1436.122, 66.010
1437.303, 99.705
1438.484, 30.379
1439.665, 53.147
1440.846, 60.880
1442.026, 39.599
1443.207, 49.304
1444.387, 80.997
1445.567, 105.727
1446.747, 40.481
1447.927, 53.236
1449.106, 16.934
1450.286, 92.696
1451.465, 49.494
1452.644, 81.140
1453.822, 88.927
1455.001, 75.708
1456.179, 52.498
1457.358, 125.295
1458.536, 73.104
1459.714, 99.898
1460.891, 81.677
1462.069, 40.376
1463.246, 99.750
1464.423, 57.370
1465.600, 71.089
1466.777, 112.850
1467.954, 59.567
1469.130, 90.895
1470.306, 99.105
1471.483, 93.875
1472.658, 107.648
1473.834, 98.473
1475.010, 51.342
1476.185, 95.227
1477.360, 78.161
1478.535, 54.116
1479.710, 118.100
1480.885, 102.105
1482.059, 83.128
1483.234, 34.163
1484.408, 86.214
1485.582, 59.282
1486.755, 34.366
1487.929, 43.470
1489.102, 31.592
1490.275, 77.736
1491.449, 53.900
1492.621, 52.086
1493.794, 9.301
1494.967, 24.434
1496.139, 20.874
1497.311, 79.225
1498.483, 54.622
1499.655, 103.071
1500.826, 49.572
1501.998, 3.877
1503.169, 20.729
1504.340, 34.392
1505.511, 80.121
1506.682, 45.921
1507.852, 42.803
1509.023, 52.779
1510.193, 51.591
1511.363, 48.874
1512.532, 48.208
1513.702, 47.252
1514.872, 28.887
1516.041, 29.925
1517.210, 8.033
1518.379, 44.575
1519.548, 71.149
1520.716, 29.365
1521.885, 19.625
1523.053, 20.508
1524.221, 0.000
##END=



