##NAMES=Aegirine
##RRUFFID=R050074
##IDEAL CHEMISTRY=NaFe^3+^Si_2_O_6_
##LOCALITY=Mt. Malosa, Zomba, Chilwa, Alkaline Area, Malawi
##OWNER=RRUFF
##SOURCE=Rock Currier
##DESCRIPTION=Black prismatic single crystal
##STATUS=The identification of this mineral has been confirmed by X-ray diffraction and chemical analysis
##URL=rruff.info/R050074
##MEASURED CHEMISTRY=(Na_0.98_Ca_0.02_)_Σ=1_(Fe^3+^_0.96_Ti_0.01_Mn_0.03_)_Σ=1_Si_2.00_O_6_
##PIN_ID=L00155
##ORIENTATION=Laser parallel to -c* (0 0 -1). Fiducial mark perpendicular to laser is parallel to a [1 0 0]
95.702, 0.000
97.097, 43.818
98.492, 32.347
99.886, 45.724
101.281, 99.760
102.675, 3.740
104.069, 51.431
105.462, 36.005
106.856, 13.318
108.249, 72.915
109.642, 192.215
111.035, 314.394
112.427, 427.745
113.820, 612.051
115.212, 625.536
116.603, 567.834
117.995, 419.254
119.386, 424.925
120.778, 415.969
122.168, 364.698
123.559, 432.901
124.950, 426.367
126.340, 445.097
127.730, 447.106
129.119, 430.092
130.509, 548.869
131.898, 824.884
133.287, 962.920
134.676, 1062.752
136.065, 1120.847
137.453, 950.106
138.841, 790.375
140.229, 487.765
141.617, 378.027
143.004, 192.802
144.392, 108.036
145.779, 92.720
147.165, 16.900
148.552, 19.390
149.938, 54.120
151.324, 53.275
152.710, 40.157
154.096, 37.198
155.481, 142.870
156.866, 408.192
158.251, 674.177
159.636, 1045.842
161.020, 1237.860
162.405, 1303.697
163.789, 1223.164
165.172, 905.136
166.556, 520.295
167.939, 341.407
169.322, 202.365
170.705, 145.298
172.088, 208.724
173.470, 327.678
174.853, 496.060
176.234, 807.206
177.616, 1112.241
178.998, 1512.678
180.379, 1721.454
181.760, 1627.544
183.141, 1396.901
184.521, 999.494
185.902, 739.328
187.282, 685.373
188.662, 734.598
190.042, 1060.949
191.421, 1288.395
192.800, 1408.911
194.179, 1458.440
195.558, 1300.958
196.937, 1241.454
198.315, 1018.921
199.693, 854.354
201.071, 830.743
202.449, 882.053
203.826, 1078.234
205.203, 1237.225
206.580, 1683.938
207.957, 2396.464
209.333, 3362.888
210.710, 4717.275
212.086, 6413.634
213.462, 7769.956
214.837, 8417.213
216.213, 7864.351
217.588, 6678.356
218.963, 5070.281
220.337, 3412.153
221.712, 2144.974
223.086, 1386.743
224.460, 877.458
225.834, 579.119
227.207, 424.731
228.581, 244.295
229.954, 169.811
231.327, 49.280
232.699, 22.702
234.072, 19.922
235.444, 61.592
236.816, 44.308
238.188, 66.068
239.559, 41.872
240.931, 45.103
242.302, 27.613
243.673, 36.550
245.043, 13.556
246.414, 2.660
247.784, 12.093
249.154, 59.642
250.523, 78.986
251.893, 119.147
253.262, 172.145
254.631, 220.014
256.000, 295.240
257.369, 343.924
258.737, 454.437
260.105, 548.351
261.473, 788.043
262.841, 1063.921
264.208, 1193.130
265.576, 1300.647
266.943, 1239.531
268.310, 1163.163
269.676, 992.973
271.042, 826.212
272.409, 819.122
273.775, 782.474
275.140, 780.015
276.506, 922.595
277.871, 1001.223
279.236, 1058.395
280.601, 1106.269
281.965, 1240.123
283.330, 1369.051
284.694, 1614.898
286.058, 1902.521
287.421, 2331.451
288.785, 2947.889
290.148, 3470.750
291.511, 4238.281
292.874, 4749.732
294.236, 5025.667
295.599, 4948.557
296.961, 4646.432
298.323, 4175.073
299.684, 3501.520
301.046, 3034.857
302.407, 2688.112
303.768, 2418.290
305.129, 2332.581
306.489, 2256.320
307.850, 2357.683
309.210, 2473.924
310.570, 2580.837
311.929, 2608.712
313.289, 2560.434
314.648, 2388.925
316.007, 2105.489
317.366, 1915.221
318.724, 1719.786
320.083, 1577.306
321.441, 1509.509
322.799, 1488.173
324.156, 1524.426
325.514, 1624.675
326.871, 1780.844
328.228, 1989.894
329.585, 2304.777
330.941, 2684.474
332.298, 3292.002
333.654, 4003.946
335.010, 4877.806
336.365, 5863.332
337.721, 6933.618
339.076, 8297.312
340.431, 9442.022
341.786, 10906.753
343.140, 12451.467
344.495, 14266.158
345.849, 15930.832
347.203, 17065.488
348.556, 16720.119
349.910, 15864.460
351.263, 13028.565
352.616, 10802.860
353.969, 8387.393
355.321, 6620.898
356.674, 5316.376
358.026, 4417.831
359.378, 3852.256
360.729, 3477.654
362.081, 3247.026
363.432, 3237.372
364.783, 3262.690
366.134, 3247.983
367.484, 3369.249
368.835, 3387.490
370.185, 3403.708
371.535, 3298.901
372.884, 3360.072
374.234, 3271.219
375.583, 3382.344
376.932, 3591.446
378.281, 3978.525
379.630, 4648.582
380.978, 5280.616
382.326, 6184.629
383.674, 7051.623
385.022, 7774.593
386.369, 8298.546
387.717, 8062.479
389.064, 7347.733
390.411, 6401.332
391.757, 5584.928
393.104, 4541.904
394.450, 3655.216
395.796, 2931.851
397.141, 2400.183
398.487, 1899.939
399.832, 1587.820
401.177, 1293.377
402.522, 1134.487
403.867, 906.430
405.211, 822.504
406.555, 640.053
407.899, 590.086
409.243, 496.838
410.587, 427.443
411.930, 405.228
413.273, 284.334
414.616, 294.959
415.959, 244.080
417.301, 158.611
418.644, 157.630
419.986, 103.853
421.327, 90.535
422.669, 46.607
424.010, 61.121
425.351, 33.569
426.692, 18.955
428.033, 24.727
429.374, 22.473
430.714, 20.719
432.054, 28.146
433.394, 37.078
434.733, 46.077
436.073, 69.149
437.412, 33.305
438.751, 17.527
440.090, 60.811
441.428, 11.329
442.767, 19.104
444.105, 26.941
445.443, 3.582
446.780, 15.157
448.118, 24.783
449.455, 31.461
450.792, 27.812
452.129, 72.048
453.465, 69.250
454.802, 153.565
456.138, 258.821
457.474, 567.220
458.809, 322.549
460.145, 401.767
461.480, 751.179
462.815, 874.692
464.150, 676.203
465.485, 733.660
466.819, 691.165
468.153, 647.680
469.487, 583.201
470.821, 466.653
472.155, 383.104
473.488, 353.534
474.821, 316.960
476.154, 269.606
477.487, 225.233
478.819, 232.811
480.151, 213.423
481.483, 269.920
482.815, 237.354
484.147, 220.760
485.478, 285.061
486.809, 326.303
488.140, 314.471
489.471, 469.616
490.802, 501.740
492.132, 712.855
493.462, 873.956
494.792, 1172.052
496.122, 1412.146
497.451, 1670.239
498.780, 1710.322
500.109, 1646.392
501.438, 1471.446
502.767, 1235.481
504.095, 1053.498
505.423, 996.496
506.751, 799.475
508.079, 756.436
509.406, 727.378
510.734, 669.303
512.061, 714.210
513.388, 696.101
514.714, 677.972
516.041, 727.825
517.367, 761.659
518.693, 847.475
520.019, 873.272
521.344, 1016.051
522.670, 1054.811
523.995, 1239.552
525.320, 1378.275
526.644, 1577.979
527.969, 1820.665
529.293, 2214.332
530.617, 2443.981
531.941, 2932.612
533.265, 3380.223
534.588, 4212.815
535.911, 5009.391
537.234, 6372.948
538.557, 8054.487
539.880, 10136.004
541.202, 12277.560
542.524, 14219.157
543.846, 15110.866
545.168, 15192.525
546.489, 13954.315
547.811, 12625.952
549.132, 11047.696
550.453, 9589.336
551.773, 9061.187
553.094, 8453.141
554.414, 8606.070
555.734, 8829.325
557.054, 9672.659
558.374, 10515.481
559.693, 11318.837
561.012, 11870.900
562.331, 12003.150
563.650, 11174.819
564.968, 10517.041
566.287, 9150.466
567.605, 8062.349
568.923, 6807.984
570.240, 5834.438
571.558, 5065.242
572.875, 4467.539
574.192, 3852.491
575.509, 3443.078
576.825, 3074.398
578.142, 2804.499
579.458, 2519.959
580.774, 2264.706
582.090, 2075.307
583.405, 1903.994
584.721, 1723.534
586.036, 1552.879
587.351, 1390.932
588.665, 1247.567
589.980, 1190.334
591.294, 1089.499
592.608, 966.290
593.922, 833.512
595.236, 711.437
596.549, 672.091
597.862, 591.310
599.175, 516.686
600.488, 453.086
601.801, 394.344
603.113, 353.073
604.425, 298.651
605.737, 253.934
607.049, 216.906
608.361, 211.630
609.672, 180.425
610.983, 159.520
612.294, 112.374
613.605, 125.452
614.915, 89.323
616.225, 108.678
617.536, 136.008
618.845, 87.691
620.155, 57.299
621.464, 55.793
622.774, 70.075
624.083, 57.915
625.391, 57.878
626.700, 57.371
628.008, 74.342
629.317, 80.683
630.625, 88.130
631.932, 97.655
633.240, 52.515
634.547, 65.907
635.854, 83.457
637.161, 78.728
638.468, 112.136
639.774, 128.060
641.081, 133.037
642.387, 155.896
643.693, 165.350
644.998, 183.313
646.304, 193.075
647.609, 211.587
648.914, 215.574
650.219, 215.993
651.523, 257.498
652.828, 296.877
654.132, 248.576
655.436, 274.914
656.740, 279.232
658.043, 313.768
659.346, 312.045
660.650, 328.302
661.952, 336.539
663.255, 378.756
664.558, 417.953
665.860, 472.131
667.162, 546.289
668.464, 631.427
669.766, 756.545
671.067, 884.644
672.368, 1048.723
673.669, 1232.783
674.970, 1524.824
676.271, 1698.846
677.571, 1842.849
678.871, 1848.833
680.171, 1753.797
681.471, 1591.744
682.771, 1264.671
684.070, 1045.580
685.369, 804.470
686.668, 623.342
687.967, 559.196
689.266, 445.032
690.564, 315.849
691.862, 257.649
693.160, 223.430
694.458, 162.194
695.755, 167.940
697.053, 120.669
698.350, 104.380
699.646, 72.072
700.943, 77.745
702.240, 40.399
703.536, 71.033
704.832, 39.648
706.128, 60.244
707.423, 25.820
708.719, 21.375
710.014, 0.907
711.309, 4.589
712.604, 5.904
713.898, 2.304
715.193, 6.296
716.487, 18.070
717.781, 13.412
719.075, 60.730
720.368, 14.030
721.662, 7.695
722.955, 24.546
724.248, 4.767
725.541, 9.040
726.833, 1.119
728.125, 41.249
729.418, 8.636
730.709, 11.446
732.001, 8.491
733.293, 5.457
734.584, 15.449
735.875, 21.472
737.166, 6.527
738.457, 7.607
739.747, 7.710
741.037, 12.163
742.327, 16.977
743.617, 9.140
744.907, 1.679
746.196, 14.481
747.486, 14.277
748.775, 34.938
750.063, 46.862
751.352, 79.661
752.640, 93.460
753.929, 136.256
755.217, 195.057
756.504, 285.855
757.792, 293.652
759.079, 332.442
760.367, 263.229
761.654, 200.013
762.940, 91.796
764.227, 41.580
765.513, 10.359
766.799, 23.870
768.085, 55.262
769.371, 45.649
770.657, 82.231
771.942, 66.805
773.227, 41.324
774.512, 6.085
775.797, 39.987
777.081, 69.933
778.365, 47.878
779.650, 66.916
780.933, 44.010
782.217, 36.144
783.501, 76.237
784.784, 29.365
786.067, 65.487
787.350, 38.619
788.633, 49.970
789.915, 73.303
791.197, 52.615
792.479, 89.984
793.761, 63.277
795.043, 50.547
796.324, 50.830
797.606, 24.049
798.887, 70.243
800.167, 63.407
801.448, 0.590
802.728, 37.778
804.009, 19.015
805.289, 4.195
806.568, 21.590
807.848, 13.627
809.128, 7.149
810.407, 25.922
811.686, 11.307
812.965, 24.460
814.243, 56.225
815.522, 26.989
816.800, 113.752
818.078, 77.515
819.355, 118.277
820.633, 157.039
821.910, 132.802
823.188, 202.565
824.465, 235.328
825.741, 205.093
827.018, 297.858
828.294, 292.625
829.570, 341.394
830.846, 387.164
832.122, 421.937
833.398, 472.711
834.673, 559.489
835.948, 636.269
837.223, 731.052
838.498, 766.839
839.772, 907.629
841.047, 1054.423
842.321, 1115.220
843.595, 1342.023
844.868, 1472.829
846.142, 1651.640
847.415, 1922.456
848.688, 2105.277
849.961, 2307.103
851.234, 2604.881
852.507, 2846.604
853.779, 3016.204
855.051, 3526.841
856.323, 3805.335
857.595, 4185.970
858.866, 4696.488
860.137, 5331.106
861.409, 5973.510
862.679, 6730.814
863.950, 7532.159
865.221, 7936.190
866.491, 8402.177
867.761, 8368.708
869.031, 8314.734
870.301, 7703.089
871.570, 7054.291
872.839, 6226.111
874.109, 5491.419
875.377, 4827.558
876.646, 4275.277
877.915, 3689.280
879.183, 3310.495
880.451, 2873.388
881.719, 2638.371
882.987, 2384.774
884.254, 2158.357
885.521, 2044.876
886.788, 1922.636
888.055, 1748.823
889.322, 1662.692
890.588, 1562.535
891.855, 1521.365
893.121, 1432.248
894.387, 1455.237
895.652, 1463.664
896.918, 1353.612
898.183, 1379.251
899.448, 1358.507
900.713, 1329.807
901.978, 1374.311
903.242, 1275.900
904.506, 1373.557
905.771, 1295.247
907.034, 1338.969
908.298, 1502.714
909.562, 1613.477
910.825, 1455.263
912.088, 1425.066
913.351, 1448.892
914.613, 1465.746
915.876, 1528.625
917.138, 1573.530
918.400, 1702.332
919.662, 1657.376
920.924, 1838.567
922.185, 1868.418
923.447, 1955.038
924.708, 2100.688
925.969, 2149.238
927.229, 2246.377
928.490, 2354.877
929.750, 2486.592
931.010, 2665.755
932.270, 2834.801
933.530, 3060.320
934.789, 3257.367
936.048, 3448.046
937.308, 3952.624
938.566, 4271.132
939.825, 4759.309
941.084, 5328.895
942.342, 5952.148
943.600, 6921.724
944.858, 7849.093
946.116, 8985.194
947.373, 10812.121
948.630, 12159.106
949.888, 13767.667
951.144, 14743.674
952.401, 15140.162
953.658, 14959.742
954.914, 14067.854
956.170, 13647.541
957.426, 13147.146
958.682, 13176.888
959.937, 13776.316
961.193, 14426.113
962.448, 15585.939
963.703, 16535.561
964.957, 18825.439
966.212, 21465.352
967.466, 25485.287
968.720, 30565.256
969.974, 38125.254
971.228, 44665.273
972.482, 48225.328
973.735, 47825.398
974.988, 41835.520
976.241, 34925.656
977.494, 27445.826
978.746, 21896.027
979.999, 17716.262
981.251, 14796.519
982.503, 12536.806
983.755, 10917.122
985.006, 9727.466
986.258, 8507.837
987.509, 7728.236
988.760, 6815.666
990.011, 6273.122
991.261, 5507.608
992.512, 4917.123
993.762, 4356.667
995.012, 4050.241
996.262, 3627.843
997.511, 3280.473
998.761, 3028.131
1000.010, 2795.817
1001.259, 2555.533
1002.508, 2355.276
1003.756, 2187.048
1005.005, 2044.850
1006.253, 1950.681
1007.501, 1808.542
1008.749, 1734.433
1009.996, 1637.353
1011.244, 1577.302
1012.491, 1595.368
1013.738, 1528.133
1014.985, 1556.287
1016.232, 1549.379
1017.478, 1600.502
1018.724, 1675.080
1019.970, 1665.583
1021.216, 1789.262
1022.462, 1864.042
1023.707, 1935.710
1024.953, 2095.461
1026.198, 2192.115
1027.443, 2439.163
1028.687, 2605.636
1029.932, 2987.854
1031.176, 3435.777
1032.420, 3985.908
1033.664, 4689.798
1034.908, 5747.776
1036.152, 7019.711
1037.395, 8774.339
1038.638, 11199.949
1039.881, 14322.771
1041.124, 18236.674
1042.366, 21542.232
1043.609, 23115.189
1044.851, 21308.041
1046.093, 17321.793
1047.335, 13366.393
1048.576, 9920.896
1049.818, 7571.304
1051.059, 5937.984
1052.300, 4699.134
1053.541, 3975.141
1054.781, 3339.525
1056.022, 2793.062
1057.262, 2446.355
1058.502, 2120.445
1059.742, 1900.666
1060.981, 1615.795
1062.221, 1463.891
1063.460, 1354.466
1064.699, 1169.948
1065.938, 1039.967
1067.177, 1024.189
1068.415, 888.552
1069.653, 850.238
1070.891, 887.731
1072.129, 842.146
1073.367, 801.277
1074.604, 776.225
1075.842, 701.319
1077.079, 710.785
1078.316, 666.096
1079.553, 663.822
1080.789, 623.464
1082.025, 628.450
1083.262, 627.563
1084.498, 611.224
1085.733, 636.247
1086.969, 593.563
1088.204, 554.356
1089.439, 596.564
1090.674, 602.401
1091.909, 543.379
1093.144, 590.242
1094.378, 534.141
1095.612, 562.182
1096.846, 556.138
1098.080, 582.119
1099.314, 580.153
1100.547, 618.496
1101.781, 579.633
1103.014, 615.730
1104.247, 643.821
1105.479, 610.938
1106.712, 673.437
1107.944, 638.624
1109.176, 684.103
1110.408, 651.307
1111.640, 684.885
1112.871, 695.116
1114.102, 684.300
1115.334, 749.563
1116.565, 737.810
1117.795, 767.024
1119.026, 821.514
1120.256, 769.795
1121.486, 831.120
1122.716, 829.550
1123.946, 846.891
1125.176, 900.482
1126.405, 958.727
1127.634, 929.056
1128.863, 894.352
1130.092, 973.650
1131.321, 938.032
1132.549, 981.521
1133.778, 965.840
1135.006, 968.164
1136.233, 899.495
1137.461, 829.830
1138.689, 803.222
1139.916, 745.058
1141.143, 647.666
1142.370, 553.140
1143.597, 518.533
1144.823, 448.900
1146.050, 379.274
1147.276, 248.653
1148.502, 223.034
1149.727, 134.493
1150.953, 117.882
1152.178, 97.419
1153.404, 76.811
1154.629, 39.204
1155.853, 34.656
1157.078, 15.421
1158.302, 21.614
1159.527, 3.986
1160.751, 26.574
1161.975, 33.846
1163.198, 50.434
1164.422, 10.120
1165.645, 15.445
1166.868, 11.564
1168.091, 15.217
1169.314, 54.860
1170.536, 51.546
1171.759, 51.255
1172.981, 79.934
1174.203, 68.735
1175.424, 73.835
1176.646, 68.190
1177.867, 61.971
1179.089, 63.896
1180.310, 42.570
1181.530, 58.488
1182.751, 56.334
1183.971, 17.224
1185.192, 64.145
1186.412, 18.071
1187.632, 34.092
1188.851, 59.098
1190.071, 16.287
1191.290, 13.288
1192.509, 26.368
1193.728, 38.562
1194.947, 35.714
1196.165, 33.035
1197.384, 20.278
1198.602, 26.630
1199.820, 14.025
1201.037, 44.078
1202.255, 45.399
1203.472, 8.564
1204.690, 26.163
1205.907, 5.320
1207.124, 21.267
1208.340, 1.265
1209.557, 23.833
1210.773, 5.433
1211.989, 12.990
1213.205, 37.452
1214.421, 19.973
1215.636, 4.614
1216.851, 19.735
1218.067, 2.092
1219.281, 8.424
1220.496, 13.751
1221.711, 12.057
1222.925, 41.359
1224.139, 33.768
1225.353, 8.191
1226.567, 33.450
1227.781, 23.030
1228.994, 21.237
1230.207, 47.601
1231.421, 27.729
1232.633, 20.845
1233.846, 43.990
1235.059, 27.366
1236.271, 48.642
1237.483, 40.951
1238.695, 76.199
1239.907, 103.387
1241.118, 46.550
1242.330, 64.644
1243.541, 81.709
1244.752, 59.748
1245.963, 40.725
1247.173, 54.703
1248.384, 65.807
1249.594, 74.068
1250.804, 72.017
1252.014, 42.867
1253.223, 63.733
1254.433, 46.642
1255.642, 68.381
1256.851, 45.285
1258.060, 70.036
1259.269, 94.771
1260.478, 69.535
1261.686, 77.436
1262.894, 90.155
1264.102, 57.925
1265.310, 79.658
1266.518, 30.361
1267.725, 65.979
1268.932, 75.557
1270.139, 59.145
1271.346, 36.051
1272.553, 87.717
1273.759, 98.208
1274.966, 101.855
1276.172, 83.306
1277.378, 73.865
1278.583, 125.458
1279.789, 116.472
1280.994, 112.142
1282.200, 131.663
1283.405, 96.004
1284.609, 60.304
1285.814, 73.664
1287.018, 85.953
1288.223, 104.811
1289.427, 125.068
1290.631, 116.400
1291.834, 121.621
1293.038, 128.770
1294.241, 99.898
1295.444, 118.028
1296.647, 90.118
1297.850, 139.233
1299.053, 127.330
1300.255, 108.360
1301.457, 99.420
1302.659, 107.425
1303.861, 133.394
1305.063, 121.255
1306.264, 79.427
1307.466, 116.226
1308.667, 88.140
1309.868, 79.000
1311.068, 81.416
1312.269, 126.923
1313.469, 120.349
1314.669, 122.549
1315.869, 123.975
1317.069, 105.270
1318.269, 66.681
1319.468, 50.701
1320.668, 74.310
1321.867, 80.187
1323.066, 103.370
1324.264, 57.350
1325.463, 81.596
1326.661, 61.750
1327.859, 60.011
1329.057, 61.309
1330.255, 54.228
1331.452, 62.588
1332.650, 55.882
1333.847, 81.532
1335.044, 45.788
1336.241, 51.160
1337.438, 65.623
1338.634, 49.249
1339.830, 80.983
1341.027, 48.816
1342.222, 67.381
1343.418, 57.480
1344.614, 27.725
1345.809, 40.593
1347.004, 21.314
1348.199, 26.317
1349.394, 56.485
1350.589, 36.526
1351.783, 60.534
1352.978, 76.839
1354.172, 77.530
1355.365, 45.313
1356.559, 37.559
1357.753, 25.602
1358.946, 39.508
1360.139, 48.101
1361.332, 42.743
1362.525, 42.806
1363.718, 39.016
1364.910, 39.430
1366.102, 35.712
1367.294, 20.682
1368.486, 18.540
1369.678, 34.460
1370.869, 7.291
1372.061, 34.762
1373.252, 18.451
1374.443, 51.274
1375.634, 49.801
1376.824, 38.001
1378.015, 11.678
1379.205, 16.670
1380.395, 13.443
1381.585, 16.749
1382.775, 20.711
1383.964, 21.917
1385.153, 28.395
1386.343, 30.576
1387.531, 33.814
1388.720, 44.557
1389.909, 40.311
1391.097, 18.930
1392.285, 7.942
1393.473, 35.942
1394.661, 57.598
1395.849, 45.144
1397.037, 48.591
1398.224, 46.293
1399.411, 24.094
1400.598, 55.564
1401.785, 69.284
1402.971, 40.962
1404.158, 14.949
1405.344, 41.082
1406.530, 24.577
1407.716, 28.055
1408.901, 30.397
1410.087, 44.599
1411.272, 53.943
1412.457, 41.045
1413.642, 0.210
1414.827, 14.958
1416.012, 45.851
1417.196, 10.198
1418.380, 43.298
1419.564, 14.427
1420.748, 6.985
1421.932, 34.047
1423.115, 20.144
1424.299, 36.924
1425.482, 33.755
1426.665, 37.607
1427.847, 17.593
1429.030, 28.668
1430.212, 9.246
1431.395, 25.993
1432.577, 17.723
1433.759, 24.197
1434.940, 60.006
1436.122, 42.115
1437.303, 30.424
1438.484, 36.982
1439.665, 24.305
1440.846, 23.928
1442.026, 40.822
1443.207, 23.168
1444.387, 31.474
1445.567, 38.245
1446.747, 33.849
1447.927, 44.808
1449.106, 56.256
1450.286, 24.016
1451.465, 47.484
1452.644, 68.085
1453.822, 35.886
1455.001, 31.845
1456.179, 22.952
1457.358, 16.826
1458.536, 55.079
1459.714, 29.212
1460.891, 45.106
1462.069, 69.353
1463.246, 47.979
1464.423, 35.823
1465.600, 36.580
1466.777, 26.516
1467.954, 30.836
1469.130, 15.581
1470.306, 21.248
1471.483, 4.509
1472.658, 43.348
1473.834, 35.417
1475.010, 31.321
1476.185, 51.431
1477.360, 18.762
1478.535, 35.606
1479.710, 31.533
1480.885, 66.338
1482.059, 30.109
1483.234, 47.777
1484.408, 44.663
1485.582, 37.535
1486.755, 40.246
1487.929, 37.810
1489.102, 12.816
1490.275, 35.416
1491.449, 27.224
1492.621, 19.031
1493.794, 36.834
1494.967, 21.577
1496.139, 31.623
1497.311, 29.375
1498.483, 44.894
1499.655, 24.698
1500.826, 33.709
1501.998, 28.730
1503.169, 60.771
1504.340, 41.255
1505.511, 36.417
1506.682, 32.675
1507.852, 10.699
1509.023, 40.892
1510.193, 45.232
1511.363, 16.661
1512.532, 30.163
1513.702, 2.214
1514.872, 52.406
1516.041, 20.138
1517.210, 39.658
1518.379, 63.417
1519.548, 0.203
1520.716, 0.000
##END=



