##NAMES=Aegirine
##RRUFFID=R040054
##IDEAL CHEMISTRY=NaFe^3+^Si_2_O_6_
##LOCALITY=Mont Saint-Hilaire, Rouville County, Quebec, Canada
##OWNER=RRUFF
##SOURCE=Bob Downs
##DESCRIPTION=Black cleavage fragments
##STATUS=The identification of this mineral has been confirmed by X-ray diffraction and chemical analysis
##URL=rruff.info/R040054
##MEASURED CHEMISTRY=(Na_0.96_Ca_0.04_)(Fe_0.86_Ti_0.07_Mn_0.06_Mg_0.02_)(Si_0.97_Al_0.03_)_2_O_6_
##PIN_ID=M00470
##ORIENTATION=Laser parallel to -c [0 0 -1]. Fiducial mark perpendicular to laser is parallel to -b* (0 -1 0)
171.949, 0.000
173.326, 6.643
174.702, 126.534
176.077, 448.902
177.453, 853.807
178.828, 1752.470
180.204, 2771.053
181.579, 3978.153
182.953, 5493.082
184.328, 5801.359
185.702, 5289.767
187.076, 3738.825
188.450, 2360.035
189.824, 1492.236
191.198, 884.521
192.571, 767.631
193.944, 651.461
195.317, 647.380
196.689, 563.046
198.062, 652.350
199.434, 563.116
200.806, 582.194
202.178, 549.351
203.549, 598.111
204.921, 564.393
206.292, 607.631
207.663, 801.236
209.033, 1042.416
210.404, 1135.018
211.774, 1442.702
213.144, 1638.343
214.514, 1865.097
215.884, 1916.082
217.253, 1953.815
218.622, 1895.855
219.991, 1770.416
221.360, 1567.173
222.729, 1415.145
224.097, 1099.310
225.465, 824.644
226.833, 686.113
228.201, 425.675
229.568, 268.300
230.936, 243.966
232.303, 120.672
233.670, 151.417
235.036, 110.202
236.403, 24.026
237.769, 7.109
239.135, 32.185
240.501, 5.167
241.867, 114.974
243.232, 82.636
244.597, 192.237
245.962, 88.754
247.327, 0.004
248.691, 63.968
250.056, 71.648
251.420, 88.047
252.784, 53.178
254.147, 17.045
255.511, 0.648
256.874, 105.916
258.237, 110.609
259.600, 192.412
260.963, 388.303
262.325, 377.262
263.687, 302.255
265.049, 300.250
266.411, 511.221
267.773, 793.157
269.134, 1142.058
270.495, 737.925
271.856, 697.762
273.217, 963.570
274.577, 1106.332
275.938, 1389.014
277.298, 1552.595
278.658, 1847.002
280.017, 2036.174
281.377, 1960.020
282.736, 1985.457
284.095, 1773.675
285.454, 1745.628
286.812, 1436.367
288.171, 1342.002
289.529, 1152.618
290.887, 977.252
292.245, 1014.903
293.602, 918.582
294.960, 889.291
296.317, 891.030
297.674, 871.798
299.030, 875.594
300.387, 903.418
301.743, 951.270
303.099, 935.146
304.455, 1048.408
305.811, 1061.574
307.166, 1061.532
308.522, 1138.416
309.877, 1104.605
311.232, 1222.116
312.586, 1229.804
313.941, 1258.799
315.295, 1316.957
316.649, 1330.254
318.003, 1295.349
319.356, 1276.977
320.709, 1357.166
322.063, 1303.849
323.416, 1367.701
324.768, 1572.751
326.121, 1559.965
327.473, 1823.992
328.825, 1962.516
330.177, 2186.861
331.529, 2612.528
332.880, 2875.035
334.232, 3626.660
335.583, 4024.043
336.934, 4896.198
338.284, 5827.850
339.635, 6517.977
340.985, 7357.818
342.335, 7767.343
343.685, 8246.651
345.034, 8025.715
346.384, 7654.477
347.733, 7383.110
349.082, 6561.381
350.431, 6319.440
351.779, 5506.994
353.128, 5164.116
354.476, 4680.633
355.824, 4223.492
357.171, 4182.015
358.519, 3720.117
359.866, 3661.932
361.213, 3539.622
362.560, 3502.269
363.907, 3597.923
365.253, 3462.575
366.600, 3722.243
367.946, 3695.929
369.291, 3847.630
370.637, 3988.346
371.983, 4021.075
373.328, 4220.818
374.673, 4451.910
376.018, 4936.106
377.362, 5399.136
378.707, 6120.635
380.051, 7142.735
381.395, 7924.223
382.739, 9663.044
384.082, 10960.068
385.426, 12385.486
386.769, 14182.933
388.112, 14962.853
389.454, 16425.162
390.797, 16329.949
392.139, 16112.081
393.481, 14880.524
394.823, 13254.623
396.165, 11968.294
397.506, 9750.923
398.848, 8466.083
400.189, 6893.848
401.530, 5592.839
402.870, 4735.334
404.211, 3798.931
405.551, 3289.428
406.891, 2728.018
408.231, 2378.567
409.571, 2149.778
410.910, 1742.992
412.249, 1525.955
413.588, 1314.918
414.927, 1120.242
416.266, 1070.843
417.604, 885.806
418.942, 840.768
420.280, 770.730
421.618, 589.693
422.956, 473.657
424.293, 439.623
425.630, 420.591
426.967, 322.794
428.304, 267.541
429.641, 187.526
430.977, 194.521
432.313, 156.526
433.649, 104.544
434.985, 109.572
436.320, 8.610
437.656, 25.655
438.991, 13.708
440.326, 56.771
441.660, 29.841
442.995, 23.082
444.329, 50.999
445.663, 52.914
446.997, 41.833
448.331, 44.753
449.664, 34.679
450.997, 11.613
452.331, 8.454
453.663, 18.515
454.996, 13.436
456.328, 65.591
457.661, 55.610
458.993, 111.630
460.325, 92.650
461.656, 153.676
462.988, 181.706
464.319, 149.715
465.650, 136.699
466.981, 174.653
468.311, 79.578
469.642, 35.469
470.972, 56.413
472.302, 13.764
473.632, 13.701
474.961, 27.748
476.291, 15.095
477.620, 56.956
478.949, 9.160
480.278, 74.960
481.606, 32.039
482.935, 35.880
484.263, 35.692
485.591, 50.726
486.918, 48.292
488.246, 58.115
489.573, 88.979
490.900, 69.061
492.227, 91.639
493.554, 80.617
494.881, 193.176
496.207, 253.486
497.533, 211.393
498.859, 361.915
500.185, 387.696
501.510, 456.142
502.836, 470.593
504.161, 430.079
505.486, 550.589
506.810, 621.137
508.135, 524.736
509.459, 618.352
510.783, 566.983
512.107, 735.630
513.431, 630.294
514.754, 686.983
516.077, 810.698
517.401, 834.443
518.723, 925.200
520.046, 929.015
521.369, 1076.844
522.691, 1165.707
524.013, 1259.596
525.335, 1492.521
526.656, 1647.503
527.978, 2035.543
529.299, 2363.649
530.620, 2682.809
531.941, 3252.061
533.262, 3788.385
534.582, 4612.819
535.902, 5645.141
537.222, 6784.375
538.542, 8275.440
539.862, 9791.062
541.181, 11666.729
542.501, 13862.436
543.820, 15358.167
545.139, 16783.908
546.457, 17119.658
547.776, 17865.400
549.094, 16961.137
550.412, 15376.859
551.730, 14562.570
553.047, 12248.270
554.365, 11603.960
555.682, 10229.633
556.999, 9505.292
558.316, 8760.937
559.632, 7836.562
560.949, 7582.173
562.265, 6987.767
563.581, 6583.344
564.897, 6208.905
566.213, 5734.447
567.528, 5479.973
568.843, 4961.481
570.158, 4650.972
571.473, 4391.642
572.788, 4004.396
574.102, 3964.167
575.416, 3627.241
576.730, 3398.756
578.044, 3245.302
579.358, 2857.486
580.671, 2921.761
581.984, 2627.973
583.297, 2461.379
584.610, 2359.648
585.923, 2170.986
587.235, 2187.210
588.547, 1840.042
589.859, 1882.456
591.171, 1708.783
592.483, 1656.535
593.794, 1525.214
595.105, 1263.275
596.416, 1213.218
597.727, 1102.581
599.038, 938.814
600.348, 835.856
601.658, 682.097
602.968, 603.595
604.278, 543.738
605.588, 413.658
606.897, 360.659
608.206, 231.916
609.516, 244.081
610.824, 221.151
612.133, 90.991
613.441, 118.810
614.750, 50.042
616.058, 65.101
617.365, 78.370
618.673, 48.775
619.980, 67.635
621.288, 3.735
622.595, 16.652
623.902, 44.266
625.208, 12.024
626.515, 29.254
627.821, 6.023
629.127, 4.531
630.433, 43.714
631.738, 3.937
633.044, 4.325
634.349, 7.140
635.654, 84.154
636.959, 6.057
638.263, 24.604
639.568, 118.879
640.872, 72.955
642.176, 176.454
643.480, 230.684
644.784, 284.417
646.087, 329.625
647.390, 271.614
648.693, 387.761
649.996, 407.662
651.299, 428.295
652.601, 523.222
653.904, 550.238
655.206, 593.950
656.508, 649.036
657.809, 670.850
659.111, 749.882
660.412, 793.929
661.713, 861.271
663.014, 907.659
664.315, 1078.045
665.615, 1230.018
666.915, 1298.299
668.215, 1447.242
669.515, 1695.036
670.815, 2054.384
672.115, 2435.447
673.414, 2860.625
674.713, 3434.502
676.012, 3780.733
677.311, 4255.701
678.609, 4667.515
679.907, 4621.638
681.205, 4540.353
682.503, 3989.453
683.801, 3451.069
685.099, 2903.635
686.396, 2318.149
687.693, 2032.614
688.990, 1635.852
690.287, 1345.907
691.583, 1159.706
692.880, 896.968
694.176, 816.180
695.472, 635.342
696.768, 585.453
698.063, 542.513
699.358, 438.522
700.654, 449.482
701.949, 349.390
703.243, 328.248
704.538, 412.056
705.832, 304.812
707.127, 337.702
708.421, 294.116
709.714, 316.781
711.008, 213.336
712.301, 189.840
713.595, 181.291
714.888, 123.688
716.180, 187.029
717.473, 181.317
718.765, 153.554
720.058, 146.739
721.350, 143.874
722.641, 140.113
723.933, 137.986
725.225, 153.965
726.516, 158.897
727.807, 173.779
729.098, 163.623
730.388, 147.425
731.679, 151.187
732.969, 112.905
734.259, 149.573
735.549, 149.192
736.839, 172.762
738.128, 122.287
739.418, 147.759
740.707, 155.183
741.996, 98.556
743.284, 169.875
744.573, 116.145
745.861, 93.363
747.149, 123.526
748.437, 135.639
749.725, 115.702
751.013, 114.715
752.300, 133.593
753.587, 116.509
754.874, 147.102
756.161, 226.720
757.447, 153.363
758.734, 203.821
760.020, 139.344
761.306, 163.385
762.592, 162.611
763.877, 54.761
765.163, 27.060
766.448, 48.800
767.733, 10.053
769.018, 2.281
770.302, 62.757
771.587, 7.398
772.871, 75.190
774.155, 28.345
775.439, 98.547
776.723, 22.395
778.006, 64.324
779.289, 48.745
780.573, 13.504
781.855, 3.007
783.138, 77.545
784.421, 50.214
785.703, 91.978
786.985, 131.865
788.267, 29.897
789.549, 28.011
790.830, 34.200
792.112, 37.469
793.393, 63.818
794.674, 71.262
795.954, 83.805
797.235, 60.455
798.515, 77.193
799.796, 55.029
801.076, 57.948
802.355, 45.950
803.635, 71.025
804.914, 92.188
806.194, 75.452
807.473, 75.803
808.752, 71.949
810.030, 84.761
811.309, 60.369
812.587, 73.048
813.865, 80.805
815.143, 13.358
816.421, 37.494
817.698, 7.395
818.975, 37.686
820.252, 12.256
821.529, 17.771
822.806, 60.777
824.083, 21.761
825.359, 28.723
826.635, 76.665
827.911, 34.587
829.187, 27.489
830.462, 94.372
831.738, 117.237
833.013, 172.083
834.288, 131.913
835.563, 109.725
836.837, 238.521
838.112, 178.303
839.386, 234.069
840.660, 321.820
841.934, 268.557
843.208, 343.281
844.481, 385.993
845.754, 390.691
847.027, 400.379
848.300, 445.262
849.573, 523.521
850.845, 520.874
852.118, 581.184
853.390, 615.745
854.662, 668.493
855.934, 726.795
857.205, 750.967
858.476, 790.107
859.748, 912.235
861.019, 984.347
862.289, 986.451
863.560, 1077.631
864.830, 1081.838
866.101, 1186.118
867.371, 1237.355
868.640, 1223.523
869.910, 1274.713
871.180, 1291.692
872.449, 1250.889
873.718, 1253.092
874.987, 1223.414
876.255, 1105.509
877.524, 1103.733
878.792, 956.002
880.060, 1029.909
881.328, 931.270
882.596, 955.393
883.864, 878.293
885.131, 890.479
886.398, 892.734
887.665, 777.914
888.932, 822.104
890.199, 834.400
891.465, 819.633
892.731, 759.028
893.997, 819.680
895.263, 943.145
896.529, 834.818
897.794, 915.260
899.059, 921.838
900.325, 914.438
901.589, 956.074
902.854, 998.162
904.119, 1026.270
905.383, 1061.776
906.647, 1101.314
907.911, 1212.690
909.175, 1231.886
910.438, 1167.455
911.702, 1385.424
912.965, 1306.599
914.228, 1379.142
915.491, 1469.958
916.753, 1462.978
918.016, 1627.594
919.278, 1686.479
920.540, 1658.866
921.802, 1847.283
923.064, 1809.918
924.325, 1979.915
925.586, 2044.157
926.848, 2139.699
928.109, 2215.969
929.369, 2518.165
930.630, 2518.684
931.890, 2740.855
933.150, 2685.311
934.410, 2979.571
935.670, 3072.833
936.930, 3293.796
938.189, 3571.726
939.448, 3664.650
940.707, 4070.998
941.966, 4297.043
943.225, 4530.446
944.483, 5142.003
945.742, 5634.009
947.000, 6175.307
948.258, 6688.497
949.515, 7410.989
950.773, 8083.134
952.030, 8640.557
953.287, 9051.343
954.544, 9435.435
955.801, 9493.151
957.058, 9610.479
958.314, 9408.299
959.570, 9566.162
960.827, 10074.077
962.082, 9972.043
963.338, 10180.056
964.594, 10548.120
965.849, 10426.246
967.104, 11114.419
968.359, 11222.648
969.614, 11630.948
970.868, 12269.295
972.122, 12317.689
973.377, 12286.142
974.631, 11834.644
975.884, 11053.200
977.138, 9891.810
978.391, 8670.481
979.645, 7929.208
980.898, 7137.984
982.151, 6436.815
983.403, 5945.695
984.656, 5374.628
985.908, 5253.619
987.160, 4773.662
988.412, 4423.761
989.664, 4271.917
990.915, 3893.123
992.167, 3592.385
993.418, 3513.700
994.669, 3174.070
995.920, 2990.507
997.170, 2761.999
998.421, 2514.545
999.671, 2317.146
1000.921, 2274.800
1002.171, 2062.517
1003.421, 1979.291
1004.670, 1943.119
1005.919, 1799.004
1007.168, 1701.944
1008.417, 1577.938
1009.666, 1594.989
1010.915, 1520.093
1012.163, 1480.252
1013.411, 1454.467
1014.659, 1422.736
1015.907, 1431.062
1017.155, 1372.442
1018.402, 1396.877
1019.650, 1376.370
1020.897, 1331.918
1022.144, 1413.520
1023.390, 1367.177
1024.637, 1403.890
1025.883, 1458.657
1027.129, 1517.479
1028.375, 1544.355
1029.621, 1726.285
1030.867, 1805.268
1032.112, 1944.304
1033.357, 2226.394
1034.602, 2312.536
1035.847, 2611.731
1037.092, 2984.985
1038.336, 3328.333
1039.581, 3746.726
1040.825, 4051.066
1042.069, 4751.520
1043.312, 4953.132
1044.556, 4870.764
1045.799, 4765.252
1047.043, 4303.754
1048.286, 3736.891
1049.528, 3410.557
1050.771, 2917.860
1052.014, 2614.467
1053.256, 2328.808
1054.498, 2166.580
1055.740, 2015.541
1056.982, 1837.676
1058.223, 1787.697
1059.464, 1700.287
1060.706, 1619.924
1061.947, 1560.265
1063.187, 1592.235
1064.428, 1553.179
1065.669, 1511.541
1066.909, 1443.060
1068.149, 1405.773
1069.389, 1380.784
1070.628, 1468.404
1071.868, 1502.457
1073.107, 1378.849
1074.346, 1546.306
1075.585, 1464.785
1076.824, 1442.012
1078.063, 1562.976
1079.301, 1478.928
1080.539, 1537.524
1081.777, 1560.218
1083.015, 1572.099
1084.253, 1637.611
1085.490, 1635.021
1086.728, 1552.337
1087.965, 1696.646
1089.202, 1670.771
1090.439, 1661.471
1091.675, 1758.557
1092.912, 1671.810
1094.148, 1742.217
1095.384, 1776.853
1096.620, 1720.199
1097.855, 1898.271
1099.091, 1897.714
1100.326, 1915.263
1101.561, 2003.653
1102.796, 2102.701
1104.031, 2046.271
1105.265, 2027.976
1106.500, 2138.280
1107.734, 2231.870
1108.968, 2238.514
1110.202, 2374.360
1111.436, 2356.571
1112.669, 2437.867
1113.902, 2590.591
1115.135, 2610.019
1116.368, 2637.777
1117.601, 2713.614
1118.834, 2723.590
1120.066, 2838.420
1121.298, 2876.104
1122.530, 3004.973
1123.762, 3134.860
1124.994, 3079.848
1126.225, 3273.772
1127.456, 3411.043
1128.688, 3397.438
1129.918, 3564.413
1131.149, 3492.431
1132.380, 3584.438
1133.610, 3791.460
1134.840, 3968.290
1136.070, 4133.783
1137.300, 3704.030
1138.530, 3454.277
1139.759, 3524.378
1140.989, 3260.481
1142.218, 2941.698
1143.447, 2796.833
1144.675, 2449.080
1145.904, 2280.299
1147.132, 2032.454
1148.360, 1653.616
1149.588, 1406.788
1150.816, 1098.967
1152.044, 829.265
1153.271, 754.458
1154.499, 464.690
1155.726, 395.896
1156.953, 339.107
1158.180, 234.378
1159.406, 202.650
1160.632, 143.000
1161.859, 93.721
1163.085, 73.354
1164.311, 35.586
1165.536, 35.820
1166.762, 46.055
1167.987, 15.290
1169.212, 18.525
1170.437, 39.241
1171.662, 7.980
1172.886, 33.800
1174.111, 56.594
1175.335, 57.229
1176.559, 54.843
1177.783, 49.566
1179.007, 46.988
1180.230, 103.109
1181.453, 62.152
1182.676, 52.898
1183.899, 114.728
1185.122, 29.562
1186.345, 52.703
1187.567, 35.880
1188.789, 52.949
1190.011, 77.148
1191.233, 20.310
1192.455, 122.870
1193.677, 87.265
1194.898, 64.818
1196.119, 76.120
1197.340, 93.725
1198.561, 50.278
1199.781, 79.012
1201.002, 51.492
1202.222, 1.725
1203.442, 32.630
1204.662, 13.693
1205.882, 19.256
1207.101, 17.112
1208.321, 53.992
1209.540, 4.775
1210.759, 2.158
1211.978, 9.055
1213.196, 8.070
1214.415, 5.873
1215.633, 1.002
1216.851, 40.290
1218.069, 8.458
1219.287, 20.897
1220.504, 38.179
1221.722, 60.392
1222.939, 1.899
1224.156, 93.476
1225.373, 42.144
1226.590, 14.568
1227.806, 66.386
1229.022, 30.631
1230.239, 6.841
1231.454, 54.002
1232.670, 11.135
1233.886, 11.750
1235.101, 69.524
1236.317, 60.658
1237.532, 41.944
1238.746, 36.870
1239.961, 86.756
1241.176, 35.167
1242.390, 10.981
1243.604, 54.741
1244.818, 100.653
1246.032, 55.491
1247.246, 129.413
1248.459, 100.096
1249.672, 46.782
1250.886, 134.162
1252.098, 59.681
1253.311, 144.159
1254.524, 210.605
1255.736, 108.131
1256.948, 140.512
1258.160, 88.916
1259.372, 29.230
1260.584, 162.853
1261.795, 131.193
1263.007, 179.514
1264.218, 146.732
1265.429, 48.861
1266.640, 95.029
1267.850, 113.320
1269.061, 116.425
1270.271, 148.625
1271.481, 168.604
1272.691, 132.617
1273.901, 154.739
1275.110, 134.568
1276.320, 144.364
1277.529, 172.185
1278.738, 163.938
1279.947, 206.630
1281.155, 170.343
1282.364, 144.964
1283.572, 209.598
1284.780, 165.273
1285.988, 173.785
1287.196, 245.263
1288.404, 164.701
1289.611, 167.101
1290.818, 193.454
1292.025, 175.931
1293.232, 228.245
1294.439, 213.514
1295.646, 265.700
1296.852, 233.846
1298.058, 226.951
1299.264, 288.052
1300.470, 293.074
1301.676, 274.114
1302.881, 255.901
1304.086, 230.989
1305.292, 153.918
1306.496, 147.704
1307.701, 94.498
1308.906, 141.448
1310.110, 194.422
1311.315, 62.832
1312.519, 134.723
1313.722, 138.742
1314.926, 126.229
1316.130, 181.398
1317.333, 173.328
1318.536, 142.130
1319.739, 159.787
1320.942, 135.612
1322.145, 85.932
1323.347, 154.237
1324.550, 67.869
1325.752, 106.894
1326.954, 161.972
1328.156, 112.831
1329.357, 145.417
1330.559, 10.985
1331.760, 113.159
1332.961, 64.763
1334.162, 82.969
1335.363, 150.865
1336.563, 97.724
1337.764, 92.595
1338.964, 70.757
1340.164, 44.219
1341.364, 72.727
1342.563, 79.621
1343.763, 78.258
1344.962, 57.126
1346.161, 111.196
1347.360, 69.399
1348.559, 125.699
1349.758, 66.012
1350.956, 72.999
1352.155, 81.443
1353.353, 60.995
1354.551, 50.383
1355.748, 76.620
1356.946, 35.630
1358.143, 210.933
1359.341, 141.061
1360.538, 236.724
1361.734, 99.832
1362.931, 89.100
1364.128, 48.711
1365.324, 61.799
1366.520, 42.752
1367.716, 96.107
1368.912, 121.177
1370.108, 27.194
1371.303, 98.010
1372.499, 90.462
1373.694, 49.829
1374.889, 54.769
1376.084, 41.006
1377.278, 5.913
1378.473, 64.743
1379.667, 11.435
1380.861, 90.272
1382.055, 132.258
1383.249, 110.059
1384.442, 57.843
1385.636, 95.529
1386.829, 69.281
1388.022, 105.687
1389.215, 27.973
1390.408, 54.623
1391.600, 51.293
1392.792, 65.980
1393.985, 79.722
1395.177, 56.599
1396.368, 33.717
1397.560, 53.082
1398.752, 34.372
1399.943, 63.769
1401.134, 48.141
1402.325, 30.979
1403.516, 92.671
1404.707, 74.485
1405.897, 58.231
1407.087, 64.793
1408.277, 130.368
1409.467, 56.848
1410.657, 90.264
1411.847, 56.638
1413.036, 38.970
1414.225, 154.233
1415.414, 63.427
1416.603, 112.566
1417.792, 64.452
1418.981, 77.926
1420.169, 26.646
1421.357, 44.935
1422.545, 44.540
1423.733, 68.591
1424.921, 74.416
1426.108, 58.355
1427.296, 40.292
1428.483, 70.171
1429.670, 72.266
1430.857, 69.464
1432.043, 50.727
1433.230, 96.817
1434.416, 100.485
1435.602, 58.393
1436.788, 91.151
1437.974, 110.812
1439.160, 35.823
1440.345, 49.702
1441.530, 67.639
1442.716, 66.351
1443.900, 114.875
1445.085, 58.204
1446.270, 31.489
1447.454, 98.244
1448.638, 83.073
1449.823, 119.509
1451.006, 116.843
1452.190, 77.625
1453.374, 127.698
1454.557, 40.378
1455.740, 0.385
1456.923, 101.637
1458.106, 0.730
1459.289, 112.251
1460.472, 117.971
1461.654, 29.997
1462.836, 109.478
1464.018, 100.938
1465.200, 104.706
1466.382, 97.234
1467.563, 107.123
1468.744, 126.050
1469.926, 75.884
1471.107, 49.429
1472.287, 39.328
1473.468, 89.221
1474.649, 30.760
1475.829, 55.506
1477.009, 93.480
1478.189, 53.387
1479.369, 176.405
1480.548, 74.499
1481.728, 129.604
1482.907, 80.745
1484.086, 23.875
1485.265, 103.037
1486.444, 43.216
1487.623, 99.362
1488.801, 92.546
1489.979, 32.749
1491.157, 39.988
1492.335, 67.754
1493.513, 67.582
1494.691, 38.908
1495.868, 104.263
1497.045, 48.670
1498.222, 79.126
1499.399, 122.619
1500.576, 23.169
1501.753, 45.774
1502.929, 115.449
1504.105, 42.180
1505.281, 124.966
1506.457, 93.807
1507.633, 50.710
1508.808, 54.685
1509.984, 89.741
1511.159, 84.938
1512.334, 67.258
1513.509, 70.700
1514.683, 79.275
1515.858, 122.000
1517.032, 10.105
1518.206, 24.989
1519.380, 60.323
1520.554, 14.935
1521.728, 145.875
1522.902, 52.736
1524.075, 6.173
1525.248, 65.367
1526.421, 5.028
1527.594, 0.000
##END=



