##NAMES=Aegirine
##RRUFFID=R040054
##IDEAL CHEMISTRY=NaFe^3+^Si_2_O_6_
##LOCALITY=Mont Saint-Hilaire, Rouville County, Quebec, Canada
##OWNER=RRUFF
##SOURCE=Bob Downs
##DESCRIPTION=Black cleavage fragments
##STATUS=The identification of this mineral has been confirmed by X-ray diffraction and chemical analysis
##URL=rruff.info/R040054
##MEASURED CHEMISTRY=(Na_0.96_Ca_0.04_)(Fe_0.86_Ti_0.07_Mn_0.06_Mg_0.02_)(Si_0.97_Al_0.03_)_2_O_6_
##PIN_ID=M00355
##ORIENTATION=Laser parallel to [1 0 1]. Fiducial mark perpendicular to laser is parallel to b* (0 1 0)
154.038, 0.000
155.417, 8.852
156.796, 69.190
158.175, 182.152
159.553, 594.543
160.931, 905.835
162.309, 1140.489
163.687, 1506.270
165.065, 1820.642
166.442, 1975.699
167.819, 1809.947
169.196, 1266.844
170.573, 627.910
171.949, 247.062
173.326, 59.967
174.702, 28.860
176.077, 7.387
177.453, 78.363
178.828, 209.281
180.204, 454.308
181.579, 597.094
182.953, 834.647
184.328, 1062.142
185.702, 1129.122
187.076, 754.325
188.450, 958.149
189.824, 1061.982
191.198, 1589.281
192.571, 2180.579
193.944, 2798.470
195.317, 3601.400
196.689, 3985.016
198.062, 4288.643
199.434, 3845.738
200.806, 3609.632
202.178, 2994.721
203.549, 2638.463
204.921, 2385.213
206.292, 2222.209
207.663, 2301.619
209.033, 2160.164
210.404, 2468.126
211.774, 2631.627
213.144, 2921.472
214.514, 3107.085
215.884, 3189.125
217.253, 3138.250
218.622, 3064.395
219.991, 2773.936
221.360, 2462.441
222.729, 2124.955
224.097, 1697.509
225.465, 1255.168
226.833, 1059.900
228.201, 767.726
229.568, 632.889
230.936, 481.365
232.303, 331.123
233.670, 326.128
235.036, 180.351
236.403, 194.751
237.769, 103.300
239.135, 47.952
240.501, 50.703
241.867, 48.545
243.232, 11.541
244.597, 41.582
245.962, 16.406
247.327, 33.596
248.691, 78.605
250.056, 44.645
251.420, 104.733
252.784, 19.891
254.147, 17.137
255.511, 18.484
256.874, 91.938
258.237, 67.499
259.600, 65.456
260.963, 31.942
262.325, 11.181
263.687, 51.204
265.049, 153.128
266.411, 268.939
267.773, 216.290
269.134, 215.378
270.495, 138.398
271.856, 109.458
273.217, 104.225
274.577, 144.702
275.938, 326.826
277.298, 435.595
278.658, 522.100
280.017, 701.273
281.377, 786.143
282.736, 923.814
284.095, 981.720
285.454, 1089.716
286.812, 1148.764
288.171, 1360.404
289.529, 1487.227
290.887, 1673.516
292.245, 1945.306
293.602, 2051.393
294.960, 2336.017
296.317, 2328.063
297.674, 2454.425
299.030, 2450.333
300.387, 2275.921
301.743, 2251.688
303.099, 2027.160
304.455, 2071.337
305.811, 1925.597
307.166, 2023.637
308.522, 2145.424
309.877, 2169.827
311.232, 2366.115
312.586, 2438.842
313.941, 2546.526
315.295, 2629.776
316.649, 2457.432
318.003, 2484.956
319.356, 2174.974
320.709, 2065.683
322.063, 1808.354
323.416, 1661.226
324.768, 1627.118
326.121, 1544.060
327.473, 1604.980
328.825, 1587.713
330.177, 1766.926
331.529, 2000.934
332.880, 2046.233
334.232, 2476.693
335.583, 2797.737
336.934, 3337.674
338.284, 3723.981
339.635, 4295.089
340.985, 4960.116
342.335, 5242.573
343.685, 5654.625
345.034, 5386.361
346.384, 5367.676
347.733, 5218.620
349.082, 4690.142
350.431, 4484.250
351.779, 4083.051
353.128, 3740.460
354.476, 3308.552
355.824, 3000.465
357.171, 2819.272
358.519, 2493.979
359.866, 2432.565
361.213, 2331.031
362.560, 2405.437
363.907, 2409.802
365.253, 2518.135
366.600, 2808.438
367.946, 2730.712
369.291, 2914.956
370.637, 3020.170
371.983, 2911.353
373.328, 2948.505
374.673, 2748.595
376.018, 2725.038
377.362, 2590.753
378.707, 2723.530
380.051, 2653.249
381.395, 2709.412
382.739, 3010.768
384.082, 3086.659
385.426, 3333.051
386.769, 3502.564
388.112, 3711.021
389.454, 3746.229
390.797, 3709.370
392.139, 3626.461
393.481, 3231.214
394.823, 3057.850
396.165, 2713.880
397.506, 2212.742
398.848, 1958.547
400.189, 1517.568
401.530, 1422.518
402.870, 1085.369
404.211, 828.950
405.551, 824.700
406.891, 602.813
408.231, 582.897
409.571, 472.573
410.910, 414.058
412.249, 393.708
413.588, 423.849
414.927, 336.963
416.266, 294.202
417.604, 226.027
418.942, 224.771
420.280, 136.078
421.618, 177.057
422.956, 113.521
424.293, 78.369
425.630, 90.004
426.967, 7.609
428.304, 78.180
429.641, 20.720
430.977, 4.227
432.313, 19.304
433.649, 1.123
434.985, 12.366
436.320, 10.864
437.656, 28.119
438.991, 13.345
440.326, 14.519
441.660, 19.376
442.995, 46.678
444.329, 56.686
445.663, 67.810
446.997, 36.527
448.331, 89.314
449.664, 44.016
450.997, 52.630
452.331, 62.159
453.663, 98.602
454.996, 73.962
456.328, 123.239
457.661, 81.437
458.993, 124.552
460.325, 199.589
461.656, 175.552
462.988, 232.442
464.319, 227.422
465.650, 160.014
466.981, 213.698
468.311, 201.316
469.642, 188.931
470.972, 129.415
472.302, 105.203
473.632, 155.904
474.961, 141.665
476.291, 239.737
477.620, 154.287
478.949, 195.774
480.278, 174.433
481.606, 268.167
482.935, 263.980
484.263, 228.852
485.591, 294.507
486.918, 454.027
488.246, 417.983
489.573, 663.334
490.900, 609.148
492.227, 854.632
493.554, 1069.530
494.881, 1225.358
496.207, 1608.441
497.533, 2011.284
498.859, 2576.426
500.185, 2568.909
501.510, 2694.499
502.836, 2667.705
504.161, 2300.641
505.486, 2024.859
506.810, 1685.672
508.135, 1518.108
509.459, 1303.829
510.783, 1135.665
512.107, 1150.352
513.431, 974.938
514.754, 1022.701
516.077, 995.474
517.401, 918.000
518.723, 972.726
520.046, 997.066
521.369, 1062.420
522.691, 1087.829
524.013, 1221.178
525.335, 1343.527
526.656, 1457.876
527.978, 1662.230
529.299, 1899.584
530.620, 2029.944
531.941, 2284.304
533.262, 2401.678
534.582, 2634.070
535.902, 2779.461
537.222, 3175.866
538.542, 3805.300
539.862, 4250.750
541.181, 5141.238
542.501, 5954.733
543.820, 6708.236
545.139, 7331.747
546.457, 7695.286
547.776, 7928.850
549.094, 7552.435
550.412, 7366.029
551.730, 7099.620
553.047, 6593.199
554.365, 6766.643
555.682, 6429.978
556.999, 6673.441
558.316, 6726.818
559.632, 6909.660
560.949, 7372.236
562.265, 7295.023
563.581, 7497.266
564.897, 7379.538
566.213, 6991.990
567.528, 6914.000
568.843, 6496.025
570.158, 6081.042
571.473, 5718.525
572.788, 5172.004
574.102, 4882.594
575.416, 4551.139
576.730, 4358.099
578.044, 3883.225
579.358, 3964.000
580.671, 3595.751
581.984, 3221.672
583.297, 3122.054
584.610, 2830.694
585.923, 2615.312
587.235, 2463.937
588.547, 2229.919
589.859, 2068.232
591.171, 1909.872
592.483, 1725.197
593.794, 1553.638
595.105, 1382.880
596.416, 1311.332
597.727, 1130.658
599.038, 1063.106
600.348, 936.197
601.658, 734.463
602.968, 644.055
604.278, 571.834
605.588, 432.776
606.897, 447.424
608.206, 298.735
609.516, 254.348
610.824, 193.804
612.133, 223.179
613.441, 125.254
614.750, 128.191
616.058, 100.338
617.365, 18.391
618.673, 116.871
619.980, 115.927
621.288, 65.151
622.595, 35.248
623.902, 5.753
625.208, 2.208
626.515, 27.535
627.821, 30.969
629.127, 18.483
630.433, 38.928
631.738, 0.800
633.044, 25.298
634.349, 33.152
635.654, 46.948
636.959, 65.188
638.263, 61.405
639.568, 49.104
640.872, 5.489
642.176, 4.788
643.480, 30.084
644.784, 86.418
646.087, 30.194
647.390, 117.293
648.693, 209.274
649.996, 146.540
651.299, 131.872
652.601, 166.306
653.904, 194.907
655.206, 162.879
656.508, 163.470
657.809, 220.287
659.111, 175.106
660.412, 267.859
661.713, 279.071
663.014, 254.054
664.315, 304.661
665.615, 312.349
666.915, 341.301
668.215, 387.860
669.515, 459.828
670.815, 530.961
672.115, 561.453
673.414, 653.755
674.713, 796.823
676.012, 935.628
677.311, 1016.392
678.609, 1041.115
679.907, 1083.797
681.205, 1135.438
682.503, 1002.039
683.801, 943.597
685.099, 759.114
686.396, 647.591
687.693, 583.025
688.990, 507.419
690.287, 433.772
691.583, 365.081
692.880, 308.349
694.176, 300.576
695.472, 244.762
696.768, 267.906
698.063, 167.011
699.358, 238.073
700.654, 222.097
701.949, 173.084
703.243, 197.033
704.538, 225.945
705.832, 116.821
707.127, 168.660
708.421, 169.463
709.714, 177.231
711.008, 164.968
712.301, 109.670
713.595, 99.337
714.888, 78.970
716.180, 78.398
717.473, 113.122
718.765, 92.657
720.058, 151.167
721.350, 141.646
722.641, 113.093
723.933, 139.508
725.225, 103.896
726.516, 104.251
727.807, 121.572
729.098, 139.865
730.388, 102.127
731.679, 122.356
732.969, 97.555
734.259, 141.722
735.549, 124.859
736.839, 118.966
738.128, 134.043
739.418, 343.420
740.707, 356.108
741.996, 283.209
743.284, 83.059
744.573, 96.987
745.861, 183.882
747.149, 208.748
748.437, 125.586
749.725, 193.395
751.013, 144.111
752.300, 158.863
753.587, 130.216
754.874, 302.562
756.161, 298.756
757.447, 431.548
758.734, 529.776
760.020, 533.979
761.306, 530.924
762.592, 437.709
763.877, 252.334
765.163, 157.819
766.448, 154.441
767.733, 117.122
769.018, 78.292
770.302, 13.993
771.587, 338.150
772.871, 149.714
774.155, 251.509
775.439, 23.454
776.723, 0.076
778.006, 54.131
779.289, 36.721
780.573, 32.731
781.855, 134.921
783.138, 36.835
784.421, 73.552
785.703, 65.635
786.985, 137.394
788.267, 42.881
789.549, 131.722
790.830, 77.779
792.112, 110.770
793.393, 103.750
794.674, 85.994
795.954, 91.331
797.235, 49.502
798.515, 65.942
799.796, 132.064
801.076, 58.288
802.355, 84.820
803.635, 58.085
804.914, 64.351
806.194, 60.569
807.473, 18.275
808.752, 41.782
810.030, 32.321
811.309, 9.886
812.587, 5.466
813.865, 58.943
815.143, 41.346
816.421, 92.744
817.698, 150.137
818.975, 122.525
820.252, 263.910
821.529, 277.291
822.806, 299.669
824.083, 357.046
825.359, 365.420
826.635, 438.793
827.911, 455.166
829.187, 536.537
830.462, 675.909
831.738, 666.282
833.013, 854.655
834.288, 919.031
835.563, 1029.408
836.837, 1214.458
838.112, 1303.841
839.386, 1519.173
840.660, 1772.292
841.934, 1860.537
843.208, 2202.931
844.481, 2460.833
845.754, 2679.993
847.027, 3016.173
848.300, 3229.407
849.573, 3496.602
850.845, 3764.558
852.118, 4038.478
853.390, 4362.938
854.662, 4373.417
855.934, 4833.468
857.205, 4954.401
858.476, 5136.673
859.748, 5433.922
861.019, 5569.061
862.289, 5854.346
863.560, 6039.490
864.830, 6024.659
866.101, 6509.933
867.371, 6295.318
868.640, 6380.553
869.910, 6415.910
871.180, 6081.177
872.449, 5976.677
873.718, 5632.126
874.987, 5135.578
876.255, 4844.127
877.524, 4232.831
878.792, 4028.553
880.060, 3595.293
881.328, 3254.727
882.596, 3043.257
883.864, 2621.053
885.131, 2473.869
886.398, 2210.629
887.665, 1910.485
888.932, 1892.363
890.199, 1753.263
891.465, 1618.185
892.731, 1637.133
893.997, 1398.116
895.263, 1328.134
896.529, 1157.176
897.794, 1129.256
899.059, 1129.364
900.325, 1077.516
901.589, 973.708
902.854, 989.934
904.119, 865.220
905.383, 862.535
906.647, 830.848
907.911, 874.597
909.175, 825.086
910.438, 706.674
911.702, 846.321
912.965, 710.399
914.228, 780.445
915.491, 816.065
916.753, 654.165
918.016, 710.686
919.278, 736.203
920.540, 740.715
921.802, 722.809
923.064, 745.582
924.325, 716.492
925.586, 754.134
926.848, 763.664
928.109, 783.219
929.369, 835.577
930.630, 859.582
931.890, 949.000
933.150, 904.199
934.410, 1010.402
935.670, 1053.692
936.930, 1088.528
938.189, 1188.614
939.448, 1250.576
940.707, 1376.803
941.966, 1452.669
943.225, 1668.246
944.483, 1840.444
945.742, 2032.486
947.000, 2340.175
948.258, 2511.065
949.515, 2871.201
950.773, 3290.609
952.030, 3358.088
953.287, 3678.615
954.544, 3750.198
955.801, 3800.838
957.058, 3809.533
958.314, 3711.278
959.570, 3872.075
960.827, 3929.922
962.082, 3921.824
963.338, 4127.774
964.594, 4051.772
965.849, 4153.820
967.104, 4343.916
968.359, 4241.060
969.614, 4389.254
970.868, 4682.497
972.122, 4649.787
973.377, 4664.130
974.631, 4342.522
975.884, 4010.964
977.138, 3628.459
978.391, 3041.004
979.645, 2846.602
980.898, 2410.252
982.151, 2211.954
983.403, 2050.709
984.656, 1739.517
985.908, 1817.375
987.160, 1652.285
988.412, 1469.248
989.664, 1527.267
990.915, 1308.341
992.167, 1278.468
993.418, 1339.648
994.669, 1213.878
995.920, 1294.159
997.170, 1167.491
998.421, 1084.875
999.671, 1220.312
1000.921, 1113.799
1002.171, 995.347
1003.421, 1098.944
1004.670, 1063.599
1005.919, 1138.318
1007.168, 1105.090
1008.417, 1128.913
1009.666, 1189.785
1010.915, 1151.707
1012.163, 1272.678
1013.411, 1229.698
1014.659, 1301.767
1015.907, 1370.885
1017.155, 1354.053
1018.402, 1371.271
1019.650, 1485.537
1020.897, 1553.851
1022.144, 1672.217
1023.390, 1621.631
1024.637, 1680.118
1025.883, 1811.644
1027.129, 1954.456
1028.375, 2071.764
1029.621, 2382.739
1030.867, 2502.440
1032.112, 2947.371
1033.357, 3204.226
1034.602, 3745.111
1035.847, 4444.894
1037.092, 4961.339
1038.336, 5866.979
1039.581, 6649.005
1040.825, 7775.712
1042.069, 8904.238
1043.312, 9236.411
1044.556, 9375.225
1045.799, 8860.296
1047.043, 7644.452
1048.286, 6531.375
1049.528, 5246.003
1050.771, 4539.659
1052.014, 3887.718
1053.256, 3244.481
1054.498, 2987.441
1055.740, 2616.540
1056.982, 2351.498
1058.223, 2298.492
1059.464, 2052.295
1060.706, 1922.242
1061.947, 1888.564
1063.187, 1686.721
1064.428, 1715.196
1065.669, 1541.572
1066.909, 1543.217
1068.149, 1515.794
1069.389, 1404.450
1070.628, 1394.988
1071.868, 1359.699
1073.107, 1246.952
1074.346, 1439.400
1075.585, 1287.947
1076.824, 1358.091
1078.063, 1382.610
1079.301, 1274.011
1080.539, 1304.949
1081.777, 1369.612
1083.015, 1261.961
1084.253, 1252.014
1085.490, 1106.110
1086.728, 1196.182
1087.965, 1131.806
1089.202, 1078.801
1090.439, 1102.333
1091.675, 1095.823
1092.912, 1022.719
1094.148, 1118.365
1095.384, 1005.599
1096.620, 955.862
1097.855, 1087.158
1099.091, 986.454
1100.326, 961.756
1101.561, 894.076
1102.796, 880.132
1104.031, 972.791
1105.265, 889.194
1106.500, 958.627
1107.734, 1002.127
1108.968, 834.723
1110.202, 961.360
1111.436, 891.106
1112.669, 891.832
1113.902, 955.640
1115.135, 895.473
1116.368, 911.222
1117.601, 953.123
1118.834, 829.748
1120.066, 874.383
1121.298, 873.924
1122.530, 992.623
1123.762, 1077.370
1124.994, 1064.222
1126.225, 1047.799
1127.456, 977.385
1128.688, 860.979
1129.918, 996.637
1131.149, 882.440
1132.380, 883.168
1133.610, 904.994
1134.840, 899.310
1136.070, 903.939
1137.300, 798.829
1138.530, 709.750
1139.759, 864.391
1140.989, 709.310
1142.218, 627.955
1143.447, 624.602
1144.675, 502.250
1145.904, 497.899
1147.132, 334.549
1148.360, 327.393
1149.588, 250.097
1150.816, 237.745
1152.044, 161.398
1153.271, 116.042
1154.499, 78.555
1155.726, 56.277
1156.953, 1.418
1158.180, 3.097
1159.406, 13.277
1160.632, 50.660
1161.859, 41.745
1163.085, 30.899
1164.311, 55.728
1165.536, 1.193
1166.762, 67.462
1167.987, 46.646
1169.212, 17.188
1170.437, 72.242
1171.662, 57.813
1172.886, 82.800
1174.111, 106.389
1175.335, 4.914
1176.559, 105.843
1177.783, 49.897
1179.007, 34.049
1180.230, 71.956
1181.453, 36.493
1182.676, 34.446
1183.899, 80.745
1185.122, 1.166
1186.345, 102.963
1187.567, 74.015
1188.789, 12.202
1190.011, 53.517
1191.233, 33.846
1192.455, 5.089
1193.677, 65.254
1194.898, 46.295
1196.119, 34.064
1197.340, 73.335
1198.561, 3.273
1199.781, 17.431
1201.002, 42.340
1202.222, 67.297
1203.442, 24.560
1204.662, 14.020
1205.882, 16.921
1207.101, 59.477
1208.321, 24.922
1209.540, 41.179
1210.759, 23.649
1211.978, 53.525
1213.196, 22.297
1214.415, 11.036
1215.633, 55.734
1216.851, 40.594
1218.069, 70.083
1219.287, 12.654
1220.504, 8.490
1221.722, 17.971
1222.939, 46.409
1224.156, 35.848
1225.373, 45.735
1226.590, 31.073
1227.806, 83.373
1229.022, 82.644
1230.239, 88.924
1231.454, 106.137
1232.670, 99.002
1233.886, 103.034
1235.101, 94.621
1236.317, 94.727
1237.532, 93.803
1238.746, 84.849
1239.961, 78.763
1241.176, 78.605
1242.390, 74.401
1243.604, 77.777
1244.818, 75.660
1246.032, 76.508
1247.246, 83.584
1248.459, 77.101
1249.672, 100.846
1250.886, 102.685
1252.098, 135.364
1253.311, 100.012
1254.524, 97.627
1255.736, 92.208
1256.948, 136.752
1258.160, 156.266
1259.372, 152.747
1260.584, 126.195
1261.795, 105.610
1263.007, 116.990
1264.218, 107.337
1265.429, 49.649
1266.640, 175.911
1267.850, 63.206
1269.061, 19.390
1270.271, 164.510
1271.481, 109.599
1272.691, 208.651
1273.901, 199.607
1275.110, 186.679
1276.320, 159.609
1277.529, 171.526
1278.738, 123.405
1279.947, 148.245
1281.155, 189.049
1282.364, 160.816
1283.572, 186.542
1284.780, 92.232
1285.988, 129.882
1287.196, 106.493
1288.404, 157.038
1289.611, 180.555
1290.818, 197.790
1292.025, 119.532
1293.232, 151.614
1294.439, 91.980
1295.646, 214.128
1296.852, 129.363
1298.058, 115.577
1299.264, 216.896
1300.470, 146.559
1301.676, 142.032
1302.881, 167.130
1304.086, 69.555
1305.292, 141.166
1306.496, 165.150
1307.701, 71.505
1308.906, 71.610
1310.110, 147.640
1311.315, 41.907
1312.519, 125.490
1313.722, 62.075
1314.926, 125.287
1316.130, 152.820
1317.333, 90.215
1318.536, 97.499
1319.739, 152.960
1320.942, 104.418
1322.145, 77.124
1323.347, 65.710
1324.550, 48.498
1325.752, 30.771
1326.954, 49.631
1328.156, 24.964
1329.357, 38.062
1330.559, 92.263
1331.760, 33.408
1332.961, 98.697
1334.162, 29.858
1335.363, 145.501
1336.563, 29.978
1337.764, 23.376
1338.964, 101.200
1340.164, 90.668
1341.364, 55.261
1342.563, 133.331
1343.763, 99.154
1344.962, 101.504
1346.161, 111.330
1347.360, 47.259
1348.559, 83.212
1349.758, 4.387
1350.956, 83.644
1352.155, 129.137
1353.353, 6.672
1354.551, 100.802
1355.748, 86.181
1356.946, 103.972
1358.143, 61.732
1359.341, 47.460
1360.538, 92.188
1361.734, 101.908
1362.931, 114.148
1364.128, 81.190
1365.324, 131.832
1366.520, 111.510
1367.716, 101.094
1368.912, 134.612
1370.108, 39.032
1371.303, 126.411
1372.499, 131.680
1373.694, 76.967
1374.889, 73.175
1376.084, 84.356
1377.278, 145.622
1378.473, 133.736
1379.667, 23.127
1380.861, 106.509
1382.055, 126.924
1383.249, 90.179
1384.442, 163.379
1385.636, 119.474
1386.829, 115.838
1388.022, 137.192
1389.215, 102.536
1390.408, 140.809
1391.600, 125.936
1392.792, 57.141
1393.985, 110.255
1395.177, 105.889
1396.368, 23.225
1397.560, 165.325
1398.752, 54.434
1399.943, 40.900
1401.134, 150.986
1402.325, 62.288
1403.516, 139.530
1404.707, 130.455
1405.897, 57.567
1407.087, 116.819
1408.277, 130.069
1409.467, 112.944
1410.657, 182.473
1411.847, 88.349
1413.036, 74.923
1414.225, 96.344
1415.414, 37.926
1416.603, 110.440
1417.792, 85.176
1418.981, 73.242
1420.169, 134.373
1421.357, 110.250
1422.545, 145.078
1423.733, 104.684
1424.921, 89.584
1426.108, 68.984
1427.296, 164.375
1428.483, 54.993
1429.670, 134.489
1430.857, 103.965
1432.043, 6.416
1433.230, 181.331
1434.416, 110.504
1435.602, 93.581
1436.788, 173.758
1437.974, 100.838
1439.160, 49.165
1440.345, 202.383
1441.530, 101.788
1442.716, 112.994
1443.900, 156.129
1445.085, 136.301
1446.270, 101.424
1447.454, 164.526
1448.638, 82.608
1449.823, 178.567
1451.006, 76.623
1452.190, 171.669
1453.374, 116.708
1454.557, 86.511
1455.740, 113.517
1456.923, 137.513
1458.106, 83.494
1459.289, 158.458
1460.472, 161.411
1461.654, 81.367
1462.836, 208.204
1464.018, 115.221
1465.200, 80.226
1466.382, 121.219
1467.563, 68.216
1468.744, 71.234
1469.926, 140.274
1471.107, 41.341
1472.287, 68.439
1473.468, 100.584
1474.649, 46.811
1475.829, 124.065
1477.009, 93.344
1478.189, 46.697
1479.369, 98.101
1480.548, 33.556
1481.728, 62.039
1482.907, 130.535
1484.086, 35.099
1485.265, 112.701
1486.444, 113.323
1487.623, 39.967
1488.801, 80.642
1489.979, 42.648
1491.157, 60.103
1492.335, 58.902
1493.513, 4.249
1494.691, 35.659
1495.868, 94.635
1497.045, 67.680
1498.222, 118.803
1499.399, 63.009
1500.576, 4.304
1501.753, 95.689
1502.929, 47.171
1504.105, 32.750
1505.281, 180.435
1506.457, 35.233
1507.633, 19.157
1508.808, 122.072
1509.984, 34.390
1511.159, 106.255
1512.334, 48.614
1513.509, 54.981
1514.683, 115.324
1515.858, 58.591
1517.032, 9.704
1518.206, 75.434
1519.380, 16.242
1520.554, 5.526
1521.728, 77.535
1522.902, 97.878
1524.075, 27.966
1525.248, 79.015
1526.421, 0.000
##END=



