##NAMES=Aegirine
##RRUFFID=R040054
##IDEAL CHEMISTRY=NaFe^3+^Si_2_O_6_
##LOCALITY=Mont Saint-Hilaire, Rouville County, Quebec, Canada
##OWNER=RRUFF
##SOURCE=Bob Downs
##DESCRIPTION=Black cleavage fragments
##STATUS=The identification of this mineral has been confirmed by X-ray diffraction and chemical analysis
##URL=rruff.info/R040054
##MEASURED CHEMISTRY=(Na_0.96_Ca_0.04_)(Fe_0.86_Ti_0.07_Mn_0.06_Mg_0.02_)(Si_0.97_Al_0.03_)_2_O_6_
##PIN_ID=M00355
##ORIENTATION=Laser parallel to [1 0 1]. Fiducial mark perpendicular to laser is parallel to b* (0 1 0)
171.949, 0.000
173.326, 8.666
174.702, 53.916
176.077, 153.726
177.453, 155.100
178.828, 426.613
180.204, 600.461
181.579, 1045.269
182.953, 1275.814
184.328, 1741.960
185.702, 1986.608
187.076, 2341.917
188.450, 3071.584
189.824, 4094.754
191.198, 5775.246
192.571, 7589.808
193.944, 9606.856
195.317, 12012.728
196.689, 12794.527
198.062, 13212.043
199.434, 11644.740
200.806, 9943.146
202.178, 7826.449
203.549, 6052.867
204.921, 4890.561
206.292, 3879.664
207.663, 3479.146
209.033, 3109.129
210.404, 3013.207
211.774, 2732.090
213.144, 2653.533
214.514, 2648.353
215.884, 2432.263
217.253, 2416.525
218.622, 2166.074
219.991, 1832.347
221.360, 1673.090
222.729, 1396.662
224.097, 1314.616
225.465, 945.334
226.833, 855.177
228.201, 689.108
229.568, 585.095
230.936, 394.109
232.303, 297.127
233.670, 281.142
235.036, 160.174
236.403, 163.278
237.769, 132.541
239.135, 95.020
240.501, 13.796
241.867, 71.228
243.232, 66.854
244.597, 80.061
245.962, 58.958
247.327, 50.632
248.691, 82.310
250.056, 47.113
251.420, 70.181
252.784, 30.919
254.147, 52.478
255.511, 96.886
256.874, 63.172
258.237, 84.359
259.600, 47.734
260.963, 50.143
262.325, 22.491
263.687, 1.482
265.049, 4.456
266.411, 110.545
267.773, 58.162
269.134, 79.694
270.495, 75.211
271.856, 46.964
273.217, 124.649
274.577, 101.270
275.938, 418.809
277.298, 545.249
278.658, 873.572
280.017, 1123.750
281.377, 853.678
282.736, 919.329
284.095, 905.687
285.454, 796.766
286.812, 747.600
288.171, 758.150
289.529, 717.439
290.887, 709.536
292.245, 648.504
293.602, 668.390
294.960, 741.530
296.317, 603.756
297.674, 754.659
299.030, 800.452
300.387, 802.583
301.743, 892.216
303.099, 875.705
304.455, 981.148
305.811, 1000.921
307.166, 1040.101
308.522, 1071.352
309.877, 1152.700
311.232, 1225.228
312.586, 1274.333
313.941, 1307.977
315.295, 1383.690
316.649, 1436.131
318.003, 1516.727
319.356, 1580.844
320.709, 1695.104
322.063, 1786.188
323.416, 1973.809
324.768, 2197.023
326.121, 2397.624
327.473, 2691.279
328.825, 2938.709
330.177, 3413.884
331.529, 3988.919
332.880, 4471.418
334.232, 5431.924
335.583, 6156.089
336.934, 7479.804
338.284, 8723.265
339.635, 9506.446
340.985, 10659.344
342.335, 10991.953
343.685, 11454.304
345.034, 10596.409
346.384, 9878.291
347.733, 8809.984
349.082, 7471.462
350.431, 6752.704
351.779, 5503.695
353.128, 4994.392
354.476, 4363.695
355.824, 3711.485
357.171, 3635.822
358.519, 3121.746
359.866, 3027.327
361.213, 2769.504
362.560, 2605.334
363.907, 2530.941
365.253, 2336.366
366.600, 2455.702
367.946, 2235.952
369.291, 2219.117
370.637, 2217.238
371.983, 2151.347
373.328, 2216.445
374.673, 2167.530
376.018, 2224.604
377.362, 2247.980
378.707, 2441.909
380.051, 2505.766
381.395, 2612.615
382.739, 2839.511
384.082, 2854.054
385.426, 3113.067
386.769, 3161.784
388.112, 3277.722
389.454, 3382.278
390.797, 3371.715
392.139, 3345.681
393.481, 3082.281
394.823, 2932.720
396.165, 2603.657
397.506, 2197.025
398.848, 2026.167
400.189, 1616.834
401.530, 1466.428
402.870, 1192.396
404.211, 908.905
405.551, 872.986
406.891, 654.912
408.231, 633.528
409.571, 590.870
410.910, 535.013
412.249, 449.328
413.588, 346.839
414.927, 321.702
416.266, 250.492
417.604, 260.769
418.942, 263.145
420.280, 182.264
421.618, 200.318
422.956, 117.622
424.293, 87.897
425.630, 55.145
426.967, 16.365
428.304, 13.559
429.641, 9.726
430.977, 61.133
432.313, 8.965
433.649, 5.958
434.985, 8.904
436.320, 53.874
437.656, 15.879
438.991, 67.910
440.326, 5.980
441.660, 51.076
442.995, 47.211
444.329, 19.389
445.663, 40.606
446.997, 15.868
448.331, 24.811
449.664, 11.550
450.997, 32.969
452.331, 24.456
453.663, 44.986
454.996, 27.379
456.328, 150.738
457.661, 157.056
458.993, 96.342
460.325, 244.604
461.656, 192.848
462.988, 136.076
464.319, 173.250
465.650, 178.373
466.981, 224.439
468.311, 99.449
469.642, 130.398
470.972, 105.287
472.302, 130.114
473.632, 153.159
474.961, 144.201
476.291, 216.984
477.620, 173.028
478.949, 200.964
480.278, 267.062
481.606, 329.375
482.935, 371.463
484.263, 440.781
485.591, 554.750
486.918, 647.466
488.246, 767.372
489.573, 1011.248
490.900, 1101.653
492.227, 1598.720
493.554, 2021.000
494.881, 2469.695
496.207, 3296.312
497.533, 3870.005
498.859, 4714.461
500.185, 4980.524
501.510, 4984.785
502.836, 4763.150
504.161, 3836.607
505.486, 3205.963
506.810, 2622.305
508.135, 2125.460
509.459, 1921.610
510.783, 1616.462
512.107, 1423.320
513.431, 1168.135
514.754, 1105.939
516.077, 1029.743
517.401, 926.558
518.723, 896.377
520.046, 842.204
521.369, 864.021
522.691, 881.826
524.013, 878.621
525.335, 908.409
526.656, 924.190
527.978, 1057.968
529.299, 1179.745
530.620, 1266.534
531.941, 1426.364
533.262, 1573.190
534.582, 1865.051
535.902, 2075.957
537.222, 2505.887
538.542, 3008.848
539.862, 3405.842
541.181, 4239.861
542.501, 4916.893
543.820, 5590.942
545.139, 6135.024
546.457, 6349.126
547.776, 6673.256
549.094, 6307.402
550.412, 6261.563
551.730, 6075.717
553.047, 5589.872
554.365, 5634.027
555.682, 5215.164
556.999, 5018.290
558.316, 4900.414
559.632, 4512.239
560.949, 4566.112
562.265, 4317.986
563.581, 4359.552
564.897, 4264.106
566.213, 4098.407
567.528, 4095.468
568.843, 3801.400
570.158, 3704.250
571.473, 3549.727
572.788, 3458.373
574.102, 3389.144
575.416, 3170.983
576.730, 3136.458
578.044, 3021.482
579.358, 2767.935
580.671, 2774.715
581.984, 2606.231
583.297, 2682.506
584.610, 2352.993
585.923, 2280.650
587.235, 2262.167
588.547, 1966.565
589.859, 2048.207
591.171, 1798.516
592.483, 1719.409
593.794, 1583.909
595.105, 1369.864
596.416, 1374.197
597.727, 1171.430
599.038, 1056.337
600.348, 892.255
601.658, 786.739
602.968, 677.000
604.278, 546.933
605.588, 437.543
606.897, 375.926
608.206, 316.076
609.516, 284.039
610.824, 220.781
612.133, 198.383
613.441, 170.508
614.750, 101.608
616.058, 132.292
617.365, 89.014
618.673, 63.982
619.980, 74.549
621.288, 27.334
622.595, 0.792
623.902, 7.185
625.208, 20.707
626.515, 11.351
627.821, 27.529
629.127, 15.917
630.433, 5.422
631.738, 52.554
633.044, 33.871
634.349, 22.404
635.654, 10.896
636.959, 39.360
638.263, 25.694
639.568, 56.198
640.872, 16.000
642.176, 87.947
643.480, 64.590
644.784, 44.333
646.087, 67.731
647.390, 68.083
648.693, 110.426
649.996, 112.677
651.299, 174.134
652.601, 175.975
653.904, 193.506
655.206, 241.298
656.508, 220.922
657.809, 234.743
659.111, 270.085
660.412, 262.887
661.713, 294.491
663.014, 346.062
664.315, 348.537
665.615, 378.466
666.915, 465.117
668.215, 537.399
669.515, 633.043
670.815, 801.729
672.115, 859.016
673.414, 1090.274
674.713, 1199.002
676.012, 1305.766
677.311, 1574.048
678.609, 1685.882
679.907, 1594.203
681.205, 1615.582
682.503, 1446.237
683.801, 1233.552
685.099, 1073.835
686.396, 848.085
687.693, 756.303
688.990, 660.487
690.287, 536.639
691.583, 496.759
692.880, 426.844
694.176, 327.898
695.472, 327.917
696.768, 300.904
698.063, 201.858
699.358, 276.778
700.654, 258.667
701.949, 205.524
703.243, 183.349
704.538, 200.143
705.832, 162.906
707.127, 182.639
708.421, 170.343
709.714, 124.020
711.008, 229.667
712.301, 144.289
713.595, 174.882
714.888, 91.469
716.180, 96.026
717.473, 163.557
718.765, 121.064
720.058, 140.559
721.350, 103.032
722.641, 113.498
723.933, 138.938
725.225, 156.366
726.516, 135.783
727.807, 88.178
729.098, 135.557
730.388, 182.914
731.679, 113.245
732.969, 164.554
734.259, 192.847
735.549, 169.122
736.839, 167.372
738.128, 140.598
739.418, 138.794
740.707, 192.962
741.996, 142.105
743.284, 155.217
744.573, 177.302
745.861, 161.360
747.149, 174.390
748.437, 158.395
749.725, 75.370
751.013, 131.317
752.300, 143.236
753.587, 73.131
754.874, 119.718
756.161, 97.422
757.447, 110.899
758.734, 157.233
760.020, 122.592
761.306, 157.706
762.592, 113.529
763.877, 77.498
765.163, 76.160
766.448, 55.093
767.733, 23.206
769.018, 7.052
770.302, 42.847
771.587, 97.043
772.871, 1.492
774.155, 15.683
775.439, 65.628
776.723, 9.957
778.006, 15.435
779.289, 0.752
780.573, 4.742
781.855, 29.996
783.138, 32.424
784.421, 42.866
785.703, 14.573
786.985, 44.180
788.267, 39.667
789.549, 9.214
790.830, 54.518
792.112, 36.897
793.393, 27.295
794.674, 54.743
795.954, 94.256
797.235, 74.859
798.515, 89.540
799.796, 16.307
801.076, 17.111
802.355, 16.953
803.635, 9.832
804.914, 15.369
806.194, 24.685
807.473, 24.667
808.752, 26.688
810.030, 36.746
811.309, 6.849
812.587, 15.977
813.865, 62.133
815.143, 11.347
816.421, 4.586
817.698, 45.846
818.975, 73.850
820.252, 4.467
821.529, 85.197
822.806, 36.848
824.083, 60.486
825.359, 61.112
826.635, 32.726
827.911, 154.328
829.187, 109.918
830.462, 213.498
831.738, 101.066
833.013, 199.624
834.288, 258.171
835.563, 292.708
836.837, 355.225
838.112, 383.743
839.386, 422.251
840.660, 433.752
841.934, 507.166
843.208, 556.649
844.481, 649.961
845.754, 730.363
847.027, 790.705
848.300, 836.829
849.573, 925.275
850.845, 1025.491
852.118, 1061.849
853.390, 1239.817
854.662, 1226.806
855.934, 1265.109
857.205, 1289.215
858.476, 1409.412
859.748, 1539.436
861.019, 1504.508
862.289, 1611.701
863.560, 1662.975
864.830, 1704.156
866.101, 1730.117
867.371, 1745.301
868.640, 1717.675
869.910, 1733.474
871.180, 1685.086
872.449, 1705.453
873.718, 1721.808
874.987, 1664.158
876.255, 1619.388
877.524, 1487.613
878.792, 1387.972
880.060, 1328.224
881.328, 1197.542
882.596, 1188.899
883.864, 1008.257
885.131, 1048.615
886.398, 992.973
887.665, 943.953
888.932, 884.201
890.199, 877.512
891.465, 786.506
892.731, 729.726
893.997, 753.852
895.263, 721.052
896.529, 725.432
897.794, 676.719
899.059, 676.121
900.325, 686.395
901.589, 596.517
902.854, 708.666
904.119, 629.738
905.383, 616.290
906.647, 676.097
907.911, 626.215
909.175, 658.637
910.438, 563.247
911.702, 644.021
912.965, 574.343
914.228, 664.725
915.491, 518.852
916.753, 492.075
918.016, 598.127
919.278, 559.481
920.540, 495.720
921.802, 562.295
923.064, 607.902
924.325, 600.514
925.586, 552.499
926.848, 617.671
928.109, 586.753
929.369, 615.144
930.630, 644.273
931.890, 653.561
933.150, 579.181
934.410, 641.239
935.670, 584.349
936.930, 575.646
938.189, 633.975
939.448, 638.391
940.707, 633.346
941.966, 671.036
943.225, 686.192
944.483, 827.431
945.742, 752.622
947.000, 875.212
948.258, 842.835
949.515, 943.980
950.773, 1055.089
952.030, 1064.690
953.287, 1230.731
954.544, 1234.275
955.801, 1336.753
957.058, 1371.949
958.314, 1409.477
959.570, 1509.038
960.827, 1517.982
962.082, 1564.229
963.338, 1572.859
964.594, 1586.522
965.849, 1606.208
967.104, 1627.917
968.359, 1644.652
969.614, 1663.413
970.868, 1690.199
972.122, 1669.009
973.377, 1667.371
974.631, 1705.703
975.884, 1596.586
977.138, 1444.492
978.391, 1333.423
979.645, 1326.378
980.898, 1220.359
982.151, 1094.364
983.403, 1110.394
984.656, 1044.450
985.908, 1000.536
987.160, 991.648
988.412, 854.787
989.664, 961.954
990.915, 874.147
992.167, 922.368
993.418, 927.614
994.669, 869.887
995.920, 875.188
997.170, 851.515
998.421, 859.874
999.671, 926.258
1000.921, 924.670
1002.171, 956.389
1003.421, 955.577
1004.670, 1001.069
1005.919, 1042.588
1007.168, 1070.133
1008.417, 964.705
1009.666, 1044.303
1010.915, 1016.929
1012.163, 1122.584
1013.411, 1056.268
1014.659, 1116.977
1015.907, 1148.713
1017.155, 1085.476
1018.402, 1033.265
1019.650, 1148.082
1020.897, 1076.924
1022.144, 1150.795
1023.390, 1049.694
1024.637, 1071.680
1025.883, 1115.631
1027.129, 1065.610
1028.375, 1131.616
1029.621, 1172.648
1030.867, 1265.706
1032.112, 1429.590
1033.357, 1463.703
1034.602, 1649.841
1035.847, 1747.100
1037.092, 2037.564
1038.336, 2180.988
1039.581, 2523.760
1040.825, 2762.425
1042.069, 2993.140
1043.312, 3053.038
1044.556, 3005.819
1045.799, 2975.456
1047.043, 2610.537
1048.286, 2369.377
1049.528, 2127.022
1050.771, 1981.158
1052.014, 1796.810
1053.256, 1669.037
1054.498, 1689.699
1055.740, 1606.549
1056.982, 1593.295
1058.223, 1571.220
1059.464, 1582.064
1060.706, 1531.949
1061.947, 1509.946
1063.187, 1520.734
1064.428, 1514.381
1065.669, 1414.745
1066.909, 1409.746
1068.149, 1441.294
1069.389, 1296.773
1070.628, 1407.007
1071.868, 1429.827
1073.107, 1352.730
1074.346, 1435.423
1075.585, 1363.125
1076.824, 1307.965
1078.063, 1327.446
1079.301, 1362.177
1080.539, 1397.739
1081.777, 1348.997
1083.015, 1289.768
1084.253, 1344.753
1085.490, 1247.677
1086.728, 1221.385
1087.965, 1185.979
1089.202, 1142.858
1090.439, 1134.295
1091.675, 1056.947
1092.912, 1028.021
1094.148, 1068.726
1095.384, 1018.449
1096.620, 985.153
1097.855, 1023.774
1099.091, 972.672
1100.326, 966.412
1101.561, 947.422
1102.796, 939.960
1104.031, 924.734
1105.265, 833.826
1106.500, 861.714
1107.734, 850.564
1108.968, 747.379
1110.202, 908.214
1111.436, 789.048
1112.669, 741.954
1113.902, 822.807
1115.135, 717.668
1116.368, 720.538
1117.601, 777.417
1118.834, 693.471
1120.066, 659.366
1121.298, 696.720
1122.530, 689.661
1123.762, 648.578
1124.994, 595.854
1126.225, 596.785
1127.456, 637.723
1128.688, 575.869
1129.918, 578.819
1131.149, 531.888
1132.380, 555.848
1133.610, 521.730
1134.840, 495.271
1136.070, 489.247
1137.300, 482.252
1138.530, 495.256
1139.759, 525.245
1140.989, 485.000
1142.218, 389.832
1143.447, 400.195
1144.675, 333.933
1145.904, 253.276
1147.132, 238.383
1148.360, 222.445
1149.588, 172.814
1150.816, 141.827
1152.044, 156.383
1153.271, 125.398
1154.499, 8.965
1155.726, 104.245
1156.953, 3.739
1158.180, 15.435
1159.406, 70.449
1160.632, 63.477
1161.859, 58.556
1163.085, 10.567
1164.311, 47.414
1165.536, 22.219
1166.762, 25.237
1167.987, 4.737
1169.212, 34.756
1170.437, 32.791
1171.662, 17.703
1172.886, 34.764
1174.111, 64.727
1175.335, 10.783
1176.559, 18.825
1177.783, 87.917
1179.007, 34.884
1180.230, 59.102
1181.453, 3.508
1182.676, 74.672
1183.899, 0.597
1185.122, 44.239
1186.345, 16.404
1187.567, 35.960
1188.789, 48.184
1190.011, 33.885
1191.233, 34.516
1192.455, 61.164
1193.677, 29.167
1194.898, 38.956
1196.119, 6.473
1197.340, 15.896
1198.561, 52.313
1199.781, 29.921
1201.002, 1.748
1202.222, 42.289
1203.442, 15.375
1204.662, 1.072
1205.882, 3.261
1207.101, 53.358
1208.321, 3.079
1209.540, 12.272
1210.759, 7.549
1211.978, 18.398
1213.196, 27.280
1214.415, 10.795
1215.633, 7.146
1216.851, 48.116
1218.069, 17.857
1219.287, 43.814
1220.504, 15.757
1221.722, 5.682
1222.939, 60.583
1224.156, 16.476
1225.373, 42.527
1226.590, 42.359
1227.806, 147.175
1229.022, 7.024
1230.239, 26.763
1231.454, 64.512
1232.670, 25.244
1233.886, 12.992
1235.101, 69.682
1236.317, 26.355
1237.532, 41.008
1238.746, 52.645
1239.961, 78.264
1241.176, 62.866
1242.390, 69.452
1243.604, 54.037
1244.818, 84.598
1246.032, 167.142
1247.246, 106.131
1248.459, 128.181
1249.672, 13.674
1250.886, 103.138
1252.098, 32.586
1253.311, 70.011
1254.524, 127.418
1255.736, 38.808
1256.948, 146.177
1258.160, 82.572
1259.372, 48.906
1260.584, 129.218
1261.795, 20.513
1263.007, 97.778
1264.218, 53.025
1265.429, 48.251
1266.640, 131.457
1267.850, 83.643
1269.061, 85.810
1270.271, 100.962
1271.481, 49.091
1272.691, 54.839
1273.901, 49.569
1275.110, 36.338
1276.320, 52.373
1277.529, 74.385
1278.738, 85.375
1279.947, 53.343
1281.155, 102.290
1282.364, 46.217
1283.572, 170.122
1284.780, 47.003
1285.988, 61.861
1287.196, 115.698
1288.404, 71.453
1289.611, 109.241
1290.818, 101.008
1292.025, 90.750
1293.232, 159.462
1294.439, 104.152
1295.646, 46.018
1296.852, 98.631
1298.058, 97.222
1299.264, 158.693
1300.470, 106.963
1301.676, 75.279
1302.881, 121.252
1304.086, 78.341
1305.292, 87.393
1306.496, 27.518
1307.701, 90.262
1308.906, 58.417
1310.110, 104.140
1311.315, 26.136
1312.519, 70.344
1313.722, 10.078
1314.926, 28.308
1316.130, 101.975
1317.333, 91.229
1318.536, 30.317
1319.739, 8.533
1320.942, 29.415
1322.145, 64.742
1323.347, 58.881
1324.550, 21.919
1325.752, 97.194
1326.954, 55.629
1328.156, 49.366
1329.357, 77.488
1330.559, 30.103
1331.760, 37.817
1332.961, 71.811
1334.162, 103.230
1335.363, 60.578
1336.563, 46.146
1337.764, 30.713
1338.964, 83.150
1340.164, 88.959
1341.364, 97.529
1342.563, 90.279
1343.763, 65.348
1344.962, 85.909
1346.161, 87.263
1347.360, 64.699
1348.559, 90.357
1349.758, 103.133
1350.956, 58.639
1352.155, 88.590
1353.353, 43.328
1354.551, 23.646
1355.748, 122.335
1356.946, 55.909
1358.143, 87.534
1359.341, 46.467
1360.538, 53.966
1361.734, 123.623
1362.931, 43.009
1364.128, 79.869
1365.324, 106.494
1366.520, 74.801
1367.716, 109.313
1368.912, 127.863
1370.108, 83.450
1371.303, 88.019
1372.499, 45.590
1373.694, 98.115
1374.889, 142.670
1376.084, 75.219
1377.278, 88.761
1378.473, 57.346
1379.667, 51.709
1380.861, 73.235
1382.055, 115.305
1383.249, 97.791
1384.442, 98.306
1385.636, 111.467
1386.829, 37.978
1388.022, 72.390
1389.215, 62.590
1390.408, 56.998
1391.600, 108.240
1392.792, 82.598
1393.985, 97.816
1395.177, 129.851
1396.368, 58.165
1397.560, 105.429
1398.752, 42.686
1399.943, 100.963
1401.134, 171.922
1402.325, 85.324
1403.516, 210.351
1404.707, 134.362
1405.897, 87.193
1407.087, 92.970
1408.277, 89.008
1409.467, 58.120
1410.657, 140.279
1411.847, 54.481
1413.036, 74.928
1414.225, 161.039
1415.414, 123.025
1416.603, 115.023
1417.792, 135.841
1418.981, 109.661
1420.169, 136.833
1421.357, 127.045
1422.545, 77.587
1423.733, 117.105
1424.921, 131.857
1426.108, 118.681
1427.296, 147.898
1428.483, 123.514
1429.670, 27.403
1430.857, 105.265
1432.043, 75.330
1433.230, 117.017
1434.416, 145.172
1435.602, 58.341
1436.788, 139.545
1437.974, 124.785
1439.160, 89.039
1440.345, 151.287
1441.530, 56.230
1442.716, 167.484
1443.900, 118.705
1445.085, 106.959
1446.270, 119.156
1447.454, 135.400
1448.638, 130.635
1449.823, 150.856
1451.006, 157.532
1452.190, 51.185
1453.374, 152.329
1454.557, 142.477
1455.740, 82.618
1456.923, 156.747
1458.106, 58.781
1459.289, 94.886
1460.472, 141.999
1461.654, 63.104
1462.836, 151.202
1464.018, 99.279
1465.200, 169.371
1466.382, 196.469
1467.563, 77.575
1468.744, 162.684
1469.926, 172.788
1471.107, 57.903
1472.287, 185.021
1473.468, 139.170
1474.649, 57.364
1475.829, 111.604
1477.009, 82.012
1478.189, 38.462
1479.369, 141.943
1480.548, 102.450
1481.728, 62.976
1482.907, 67.516
1484.086, 54.068
1485.265, 51.640
1486.444, 146.227
1487.623, 40.831
1488.801, 103.451
1489.979, 32.094
1491.157, 88.765
1492.335, 149.465
1493.513, 31.204
1494.691, 83.983
1495.868, 128.807
1497.045, 60.683
1498.222, 77.614
1499.399, 147.608
1500.576, 27.328
1501.753, 115.808
1502.929, 109.006
1504.105, 27.267
1505.281, 7.595
1506.457, 55.996
1507.633, 38.481
1508.808, 55.059
1509.984, 67.744
1511.159, 115.546
1512.334, 118.479
1513.509, 57.556
1514.683, 91.058
1515.858, 57.286
1517.032, 30.581
1518.206, 51.932
1519.380, 26.482
1520.554, 1.310
1521.728, 52.449
1522.902, 31.147
1524.075, 47.186
1525.248, 78.436
1526.421, 0.000
##END=



