##NAMES=Aegirine
##RRUFFID=R050074
##IDEAL CHEMISTRY=NaFe^3+^Si_2_O_6_
##LOCALITY=Mt. Malosa, Zomba, Chilwa, Alkaline Area, Malawi
##OWNER=RRUFF
##SOURCE=Rock Currier
##DESCRIPTION=Black prismatic single crystal
##STATUS=The identification of this mineral has been confirmed by X-ray diffraction and chemical analysis
##URL=rruff.info/R050074
##MEASURED CHEMISTRY=(Na_0.98_Ca_0.02_)_Σ=1_(Fe^3+^_0.96_Ti_0.01_Mn_0.03_)_Σ=1_Si_2.00_O_6_
##PIN_ID=L00512
##ORIENTATION=Laser parallel to -b* (0 -1 0). Fiducial mark perpendicular to laser is parallel to c [0 0 1]
109.694, 0.000
111.090, 0.966
112.486, 215.233
113.881, 350.706
115.277, 351.292
116.672, 229.959
118.066, 318.043
119.461, 196.810
120.855, 158.619
122.249, 71.505
123.643, 176.957
125.036, 187.291
126.430, 100.962
127.823, 63.811
129.216, 47.655
130.608, 32.482
132.001, 89.435
133.393, 104.153
134.785, 174.281
136.176, 241.033
137.568, 233.696
138.959, 314.688
140.350, 254.024
141.741, 174.336
143.131, 173.422
144.521, 166.357
145.911, 183.227
147.301, 143.644
148.691, 77.580
150.080, 97.842
151.469, 68.037
152.858, 28.935
154.247, 62.972
155.635, 30.823
157.024, 0.362
158.411, 20.404
159.799, 28.368
161.187, 36.318
162.574, 13.113
163.961, 102.903
165.348, 58.449
166.734, 137.141
168.121, 139.390
169.507, 327.962
170.893, 518.979
172.278, 628.349
173.664, 819.207
175.049, 970.608
176.434, 1072.458
177.819, 1193.854
179.203, 1269.909
180.587, 1301.480
181.971, 1428.604
183.355, 1609.945
184.739, 1925.355
186.122, 2342.396
187.505, 2752.780
188.888, 3180.063
190.271, 3458.262
191.653, 3613.198
193.035, 3511.861
194.417, 3288.692
195.799, 2953.548
197.180, 2470.429
198.562, 2043.974
199.943, 1732.685
201.324, 1460.430
202.704, 1235.593
204.084, 1057.234
205.465, 929.557
206.844, 856.919
208.224, 681.694
209.603, 651.458
210.983, 619.198
212.362, 566.889
213.740, 460.515
215.119, 413.061
216.497, 315.415
217.875, 275.692
219.253, 211.838
220.631, 164.862
222.008, 66.782
223.385, 99.618
224.762, 16.391
226.139, 35.094
227.515, 17.724
228.891, 72.275
230.267, 48.256
231.643, 11.127
233.018, 9.576
234.394, 10.369
235.769, 23.250
237.144, 25.221
238.518, 32.280
239.893, 14.427
241.267, 4.920
242.641, 31.988
244.014, 21.593
245.388, 32.068
246.761, 19.428
248.134, 14.663
249.507, 24.755
250.879, 53.311
252.252, 24.468
253.624, 18.942
254.996, 0.527
256.367, 22.703
257.739, 6.862
259.110, 0.176
260.481, 18.606
261.852, 0.487
263.222, 46.632
264.592, 0.652
265.962, 2.650
267.332, 34.021
268.702, 52.252
270.071, 22.602
271.440, 120.725
272.809, 78.676
274.178, 156.537
275.546, 157.309
276.915, 176.912
278.283, 226.135
279.650, 197.722
281.018, 220.598
282.385, 255.708
283.752, 298.394
285.119, 308.667
286.486, 299.968
287.852, 287.207
289.218, 304.120
290.584, 371.547
291.950, 347.317
293.316, 393.361
294.681, 400.653
296.046, 387.216
297.411, 470.562
298.775, 505.429
300.140, 526.403
301.504, 556.139
302.868, 605.610
304.231, 624.964
305.595, 631.761
306.958, 719.328
308.321, 739.432
309.684, 740.487
311.047, 780.358
312.409, 832.270
313.771, 835.707
315.133, 823.181
316.495, 935.253
317.856, 976.616
319.217, 1124.964
320.578, 1216.764
321.939, 1343.342
323.299, 1518.195
324.660, 1740.471
326.020, 2035.773
327.380, 2322.360
328.739, 2743.561
330.099, 3169.070
331.458, 3494.169
332.817, 3775.038
334.176, 4012.744
335.534, 3960.945
336.892, 3913.337
338.251, 3637.527
339.608, 3364.517
340.966, 3037.318
342.323, 2697.983
343.681, 2430.510
345.037, 2204.868
346.394, 1988.084
347.751, 1835.174
349.107, 1760.220
350.463, 1709.975
351.819, 1749.672
353.174, 1720.265
354.530, 1822.761
355.885, 1799.175
357.240, 1945.516
358.594, 1988.788
359.949, 2033.553
361.303, 2053.876
362.657, 2022.946
364.011, 1988.202
365.365, 1891.146
366.718, 1781.031
368.071, 1637.859
369.424, 1570.635
370.777, 1468.364
372.129, 1412.917
373.481, 1393.305
374.833, 1369.520
376.185, 1375.476
377.537, 1340.950
378.888, 1465.186
380.239, 1452.978
381.590, 1455.566
382.941, 1437.733
384.291, 1463.478
385.642, 1436.193
386.992, 1363.298
388.341, 1334.992
389.691, 1240.132
391.040, 1150.851
392.389, 1066.525
393.738, 903.445
395.087, 774.935
396.435, 665.283
397.784, 633.583
399.132, 537.076
400.479, 471.446
401.827, 447.375
403.174, 351.427
404.521, 369.076
405.868, 311.028
407.215, 287.728
408.561, 320.609
409.908, 264.242
411.254, 275.761
412.599, 241.478
413.945, 244.102
415.290, 196.790
416.636, 208.578
417.980, 158.527
419.325, 121.153
420.670, 116.718
422.014, 93.707
423.358, 73.232
424.702, 119.273
426.045, 37.362
427.389, 64.341
428.732, 34.488
430.075, 70.183
431.417, 53.090
432.760, 47.594
434.102, 25.088
435.444, 55.209
436.786, 30.960
438.127, 77.610
439.469, 65.310
440.810, 66.194
442.151, 82.852
443.492, 105.603
444.832, 59.534
446.172, 3.546
447.512, 71.497
448.852, 79.409
450.192, 120.548
451.531, 120.420
452.870, 68.204
454.209, 79.171
455.548, 101.219
456.887, 124.901
458.225, 106.157
459.563, 107.248
460.901, 63.522
462.238, 65.840
463.576, 41.315
464.913, 82.074
466.250, 103.890
467.587, 36.402
468.923, 100.007
470.259, 58.428
471.596, 72.836
472.931, 189.019
474.267, 116.657
475.603, 107.089
476.938, 80.675
478.273, 125.927
479.608, 154.953
480.942, 127.075
482.276, 138.165
483.611, 220.964
484.944, 211.787
486.278, 337.789
487.612, 395.684
488.945, 549.687
490.278, 701.514
491.611, 820.175
492.943, 1029.887
494.276, 1122.499
495.608, 1171.990
496.940, 1150.447
498.271, 1015.871
499.603, 865.260
500.934, 748.619
502.265, 667.948
503.596, 517.245
504.927, 458.520
506.257, 347.764
507.587, 363.989
508.917, 335.182
510.247, 315.345
511.577, 327.478
512.906, 280.582
514.235, 281.656
515.564, 272.701
516.892, 262.718
518.221, 353.707
519.549, 323.667
520.877, 331.600
522.205, 385.505
523.533, 382.382
524.860, 446.233
526.187, 451.056
527.514, 473.853
528.841, 566.623
530.167, 603.366
531.493, 687.725
532.820, 725.776
534.145, 897.442
535.471, 1001.085
536.796, 1188.733
538.122, 1332.332
539.447, 1560.021
540.771, 1718.580
542.096, 1883.124
543.420, 1979.702
544.744, 1991.213
546.068, 2000.901
547.392, 2016.531
548.715, 2000.255
550.039, 1881.858
551.362, 1916.376
552.684, 1727.893
554.007, 1681.391
555.329, 1546.984
556.652, 1479.473
557.973, 1448.087
559.295, 1377.614
560.617, 1365.085
561.938, 1273.568
563.259, 1245.898
564.580, 1259.290
565.901, 1246.466
567.221, 1252.419
568.541, 1169.583
569.861, 1123.613
571.181, 1104.579
572.501, 1021.430
573.820, 987.370
575.139, 914.978
576.458, 885.657
577.777, 835.213
579.095, 761.655
580.414, 756.040
581.732, 675.284
583.049, 673.630
584.367, 628.000
585.685, 535.164
587.002, 545.357
588.319, 400.498
589.636, 417.808
590.952, 534.965
592.268, 402.126
593.585, 329.171
594.900, 224.344
596.216, 218.496
597.532, 161.793
598.847, 114.037
600.162, 115.321
601.477, 92.602
602.792, 62.019
604.106, 63.304
605.420, 66.416
606.734, 46.714
608.048, 9.049
609.361, 22.595
610.675, 23.915
611.988, 7.255
613.301, 17.652
614.614, 47.237
615.926, 6.527
617.238, 4.788
618.550, 21.644
619.862, 19.834
621.174, 1.325
622.485, 5.985
623.797, 7.245
625.108, 28.240
626.418, 1.347
627.729, 26.167
629.039, 17.935
630.349, 23.917
631.659, 4.309
632.969, 9.441
634.279, 10.233
635.588, 6.170
636.897, 43.913
638.206, 27.335
639.515, 29.619
640.823, 90.915
642.131, 81.995
643.439, 36.252
644.747, 57.913
646.055, 29.003
647.362, 64.774
648.669, 100.132
649.976, 81.892
651.283, 99.531
652.589, 168.065
653.896, 129.876
655.202, 196.091
656.508, 149.774
657.814, 159.560
659.119, 154.650
660.424, 162.361
661.729, 203.312
663.034, 222.237
664.339, 304.000
665.643, 352.751
666.947, 423.548
668.251, 477.046
669.555, 554.584
670.859, 635.058
672.162, 709.520
673.465, 763.970
674.768, 827.408
676.071, 744.834
677.373, 753.250
678.676, 611.654
679.978, 497.046
681.280, 462.427
682.581, 352.797
683.883, 306.156
685.184, 201.504
686.485, 187.841
687.786, 204.168
689.087, 145.484
690.387, 161.789
691.687, 110.084
692.987, 93.368
694.287, 108.642
695.586, 71.906
696.886, 108.159
698.185, 96.401
699.484, 83.634
700.783, 107.857
702.081, 50.069
703.379, 60.270
704.677, 35.460
705.975, 61.639
707.273, 79.806
708.570, 76.964
709.868, 83.079
711.165, 58.248
712.462, 82.375
713.758, 51.492
715.055, 72.598
716.351, 92.693
717.647, 83.779
718.943, 34.856
720.238, 40.922
721.533, 40.978
722.829, 72.025
724.124, 55.065
725.418, 32.095
726.713, 60.117
728.007, 54.132
729.301, 44.139
730.595, 79.138
731.889, 82.131
733.182, 58.118
734.476, 49.099
735.769, 61.074
737.061, 86.044
738.354, 30.010
739.647, 81.970
740.939, 46.926
742.231, 68.877
743.523, 52.824
744.814, 48.767
746.106, 93.704
747.397, 62.638
748.688, 70.568
749.978, 70.494
751.269, 45.417
752.559, 56.335
753.849, 55.281
755.139, 45.080
756.429, 60.917
757.719, 49.658
759.008, 33.272
760.297, 16.891
761.586, 38.523
762.875, 60.073
764.163, 11.261
765.451, 34.708
766.739, 54.448
768.027, 12.831
769.315, 2.743
770.602, 6.008
771.890, 7.772
773.177, 0.574
774.463, 8.073
775.750, 15.625
777.036, 20.330
778.323, 18.457
779.609, 21.893
780.894, 7.730
782.180, 14.540
783.465, 4.223
784.750, 17.050
786.035, 17.497
787.320, 21.399
788.605, 10.463
789.889, 16.570
791.173, 4.393
792.457, 45.022
793.741, 30.801
795.024, 12.406
796.307, 38.131
797.591, 42.061
798.873, 27.933
800.156, 18.177
801.439, 12.760
802.721, 23.997
804.003, 13.434
805.285, 11.646
806.566, 10.159
807.848, 3.505
809.129, 5.125
810.410, 7.139
811.691, 16.476
812.971, 4.107
814.252, 3.253
815.532, 43.392
816.812, 4.935
818.092, 44.743
819.371, 19.551
820.651, 60.842
821.930, 43.129
823.209, 4.413
824.488, 29.693
825.766, 52.969
827.045, 29.243
828.323, 51.514
829.601, 52.090
830.878, 70.046
832.156, 59.308
833.433, 83.567
834.710, 82.824
835.987, 117.079
837.264, 149.330
838.540, 143.580
839.817, 164.827
841.093, 197.072
842.369, 197.315
843.644, 217.556
844.920, 208.795
846.195, 222.031
847.470, 262.237
848.745, 272.471
850.020, 299.591
851.294, 299.821
852.568, 331.877
853.842, 331.222
855.116, 397.448
856.390, 381.487
857.663, 429.570
858.936, 454.552
860.209, 457.646
861.482, 494.819
862.755, 510.988
864.027, 517.187
865.299, 491.284
866.571, 581.493
867.843, 486.576
869.115, 584.750
870.386, 544.982
871.657, 534.211
872.928, 561.247
874.199, 549.312
875.470, 547.218
876.740, 544.582
878.010, 520.718
879.280, 551.763
880.550, 516.930
881.820, 586.087
883.089, 520.212
884.358, 535.480
885.627, 547.752
886.896, 498.950
888.164, 545.115
889.433, 556.336
890.701, 515.618
891.969, 583.722
893.236, 555.005
894.504, 539.188
895.771, 594.466
897.038, 532.682
898.305, 531.885
899.572, 547.173
900.838, 513.443
902.105, 555.737
903.371, 508.035
904.637, 521.259
905.902, 513.534
907.168, 574.809
908.433, 570.047
909.698, 549.359
910.963, 516.629
912.228, 588.851
913.492, 514.015
914.757, 548.279
916.021, 546.641
917.285, 532.780
918.548, 538.073
919.812, 540.140
921.075, 503.688
922.338, 544.287
923.601, 565.372
924.864, 548.774
926.126, 587.637
927.388, 602.037
928.650, 623.032
929.912, 626.779
931.174, 671.639
932.435, 696.320
933.697, 690.820
934.958, 805.965
936.218, 803.679
937.479, 894.069
938.739, 924.477
940.000, 961.317
941.260, 1168.773
942.520, 1151.918
943.779, 1370.738
945.039, 1531.331
946.298, 1578.768
947.557, 1822.238
948.816, 1861.270
950.074, 2032.084
951.333, 2023.741
952.591, 2085.959
953.849, 2135.486
955.107, 2076.419
956.365, 2095.940
957.622, 2084.575
958.879, 2072.307
960.136, 2133.755
961.393, 2089.796
962.650, 2057.360
963.906, 1976.815
965.162, 1929.959
966.418, 1830.475
967.674, 1705.447
968.930, 1513.037
970.185, 1569.968
971.441, 1419.647
972.696, 1359.334
973.950, 1314.028
975.205, 1188.676
976.459, 1123.382
977.714, 1057.094
978.968, 978.813
980.222, 969.538
981.475, 918.269
982.729, 897.006
983.982, 859.750
985.235, 807.360
986.488, 774.259
987.740, 711.023
988.993, 711.793
990.245, 685.570
991.497, 607.353
992.749, 691.142
994.000, 610.938
995.252, 625.741
996.503, 584.551
997.754, 551.367
999.005, 621.189
1000.256, 511.019
1001.506, 584.856
1002.756, 545.699
1004.006, 565.549
1005.256, 544.406
1006.506, 544.710
1007.755, 565.140
1009.005, 557.018
1010.254, 539.904
1011.502, 560.798
1012.751, 555.259
1014.000, 581.091
1015.248, 563.011
1016.496, 569.785
1017.744, 566.127
1018.991, 551.671
1020.239, 573.625
1021.486, 589.897
1022.733, 583.854
1023.980, 579.484
1025.227, 572.820
1026.473, 545.809
1027.719, 547.144
1028.965, 536.650
1030.211, 504.659
1031.457, 516.138
1032.702, 525.841
1033.948, 518.871
1035.193, 549.627
1036.438, 558.672
1037.682, 590.814
1038.927, 584.120
1040.171, 549.263
1041.415, 608.331
1042.659, 557.407
1043.903, 558.499
1045.146, 591.586
1046.390, 538.684
1047.633, 576.787
1048.876, 549.897
1050.118, 588.013
1051.361, 578.829
1052.603, 581.337
1053.845, 564.216
1055.087, 598.601
1056.329, 537.745
1057.571, 563.930
1058.812, 595.794
1060.053, 543.953
1061.294, 574.520
1062.535, 560.642
1063.775, 588.768
1065.016, 578.900
1066.256, 491.543
1067.496, 556.495
1068.736, 522.207
1069.975, 493.677
1071.214, 542.149
1072.454, 499.672
1073.693, 494.453
1074.931, 547.681
1076.170, 562.306
1077.408, 491.556
1078.647, 489.816
1079.885, 502.087
1081.122, 457.427
1082.360, 427.729
1083.597, 423.008
1084.835, 489.319
1086.072, 431.636
1087.308, 455.963
1088.545, 430.287
1089.781, 356.777
1091.018, 413.161
1092.254, 360.593
1093.490, 433.970
1094.725, 347.345
1095.961, 414.731
1097.196, 328.121
1098.431, 306.524
1099.666, 344.981
1100.900, 363.410
1102.135, 299.942
1103.369, 342.613
1104.603, 328.068
1105.837, 307.849
1107.071, 330.318
1108.304, 274.928
1109.538, 298.182
1110.771, 333.666
1112.004, 303.159
1113.236, 306.653
1114.469, 295.226
1115.701, 279.157
1116.933, 328.677
1118.165, 260.194
1119.397, 298.724
1120.629, 289.455
1121.860, 266.006
1123.091, 304.541
1124.322, 307.077
1125.553, 249.615
1126.783, 260.154
1128.014, 240.694
1129.244, 241.235
1130.474, 220.777
1131.704, 222.401
1132.933, 225.012
1134.163, 176.557
1135.392, 191.102
1136.621, 217.647
1137.850, 127.193
1139.079, 170.740
1140.307, 201.286
1141.535, 170.302
1142.763, 163.901
1143.991, 157.004
1145.219, 100.606
1146.446, 63.186
1147.674, 59.733
1148.901, 46.572
1150.128, 57.600
1151.354, 50.456
1152.581, 45.395
1153.807, 57.708
1155.033, 32.754
1156.259, 42.790
1157.485, 35.334
1158.710, 48.894
1159.936, 27.996
1161.161, 7.466
1162.386, 7.135
1163.611, 35.656
1164.835, 16.305
1166.060, 5.057
1167.284, 36.621
1168.508, 8.875
1169.732, 36.376
1170.955, 0.145
1172.179, 33.818
1173.402, 46.399
1174.625, 8.002
1175.848, 10.533
1177.070, 35.929
1178.293, 47.612
1179.515, 23.165
1180.737, 22.672
1181.959, 12.900
1183.181, 29.148
1184.402, 1.447
1185.624, 4.018
1186.845, 17.604
1188.066, 14.833
1189.286, 25.318
1190.507, 7.696
1191.727, 26.072
1192.947, 31.726
1194.167, 41.099
1195.387, 51.673
1196.607, 16.040
1197.826, 8.595
1199.045, 3.241
1200.264, 24.851
1201.483, 0.468
1202.702, 28.108
1203.920, 10.427
1205.138, 7.256
1206.356, 44.050
1207.574, 49.647
1208.792, 10.377
1210.009, 10.119
1211.227, 18.874
1212.444, 40.645
1213.661, 6.445
1214.877, 18.254
1216.094, 30.067
1217.310, 2.082
1218.526, 1.740
1219.742, 2.125
1220.958, 33.001
1222.173, 1.815
1223.389, 56.929
1224.604, 48.039
1225.819, 52.145
1227.034, 17.246
1228.248, 29.342
1229.463, 6.566
1230.677, 56.512
1231.891, 36.095
1233.105, 32.068
1234.318, 45.725
1235.532, 11.786
1236.745, 24.842
1237.958, 17.895
1239.171, 30.973
1240.384, 78.017
1241.596, 53.572
1242.809, 63.070
1244.021, 51.117
1245.233, 28.137
1246.444, 63.153
1247.656, 19.161
1248.867, 12.164
1250.079, 101.160
1251.290, 9.324
1252.500, 54.309
1253.711, 18.288
1254.921, 0.262
1256.132, 78.226
1257.342, 40.184
1258.552, 72.138
1259.761, 25.085
1260.971, 8.026
1262.180, 41.959
1263.389, 66.886
1264.598, 73.807
1265.807, 17.721
1267.015, 40.629
1268.223, 60.575
1269.432, 95.460
1270.640, 89.374
1271.847, 63.203
1273.055, 82.059
1274.262, 58.909
1275.470, 58.751
1276.677, 28.585
1277.883, 31.412
1279.090, 60.232
1280.296, 72.042
1281.503, 61.842
1282.709, 62.635
1283.915, 59.420
1285.120, 51.201
1286.326, 43.964
1287.531, 37.490
1288.736, 88.465
1289.941, 37.205
1291.146, 42.935
1292.350, 75.658
1293.555, 36.375
1294.759, 58.083
1295.963, 46.786
1297.167, 79.482
1298.370, 58.603
1299.574, 70.160
1300.777, 27.504
1301.980, 55.156
1303.183, 48.802
1304.386, 7.560
1305.588, 62.760
1306.790, 34.210
1307.993, 6.822
1309.195, 11.580
1310.396, 20.173
1311.598, 36.758
1312.799, 57.336
1314.000, 62.595
1315.201, 39.167
1316.402, 21.713
1317.603, 28.261
1318.803, 26.802
1320.003, 61.995
1321.203, 86.018
1322.403, 89.537
1323.603, 43.219
1324.802, 8.410
1326.002, 42.907
1327.201, 2.677
1328.400, 65.158
1329.599, 38.541
1330.797, 40.760
1331.995, 31.142
1333.194, 23.598
1334.392, 91.048
1335.589, 57.479
1336.787, 8.083
1337.985, 58.837
1339.182, 17.258
1340.379, 51.673
1341.576, 52.083
1342.772, 61.794
1343.969, 33.812
1345.165, 29.544
1346.361, 12.687
1347.557, 79.071
1348.753, 60.414
1349.949, 69.080
1351.144, 66.451
1352.339, 62.416
1353.534, 53.827
1354.729, 96.246
1355.924, 57.088
1357.118, 65.546
1358.312, 36.393
1359.506, 28.207
1360.700, 68.264
1361.894, 2.684
1363.088, 51.322
1364.281, 78.072
1365.474, 21.621
1366.667, 42.292
1367.860, 56.565
1369.052, 44.833
1370.245, 68.096
1371.437, 68.901
1372.629, 43.536
1373.821, 75.806
1375.013, 38.078
1376.204, 26.304
1377.395, 42.838
1378.586, 31.165
1379.777, 63.578
1380.968, 61.079
1382.159, 20.568
1383.349, 70.003
1384.539, 30.128
1385.729, 72.236
1386.919, 77.525
1388.109, 53.098
1389.298, 52.490
1390.487, 82.315
1391.676, 41.677
1392.865, 55.807
1394.054, 4.126
1395.242, 59.452
1396.431, 72.766
1397.619, 40.065
1398.807, 39.175
1399.995, 66.447
1401.182, 65.706
1402.370, 73.372
1403.557, 79.089
1404.744, 74.237
1405.931, 57.400
1407.118, 40.510
1408.304, 91.660
1409.490, 73.821
1410.676, 13.770
1411.862, 56.786
1413.048, 70.798
1414.234, 74.354
1415.419, 86.024
1416.604, 50.097
1417.789, 44.849
1418.974, 85.590
1420.159, 46.651
1421.343, 70.699
1422.528, 61.155
1423.712, 50.275
1424.896, 28.269
1426.079, 89.092
1427.263, 17.142
1428.446, 61.149
1429.629, 61.812
1430.812, 23.789
1431.995, 65.616
1433.178, 31.183
1434.360, 45.158
1435.543, 59.150
1436.725, 36.178
1437.907, 70.247
1439.088, 36.323
1440.270, 69.527
1441.451, 50.661
1442.632, 70.612
1443.813, 76.113
1444.994, 59.765
1446.175, 81.838
1447.355, 59.904
1448.535, 44.962
1449.715, 58.005
1450.895, 97.967
1452.075, 60.981
1453.255, 98.992
1454.434, 62.000
1455.613, 76.999
1456.792, 28.582
1457.971, 71.543
1459.149, 36.492
1460.328, 55.425
1461.506, 92.345
1462.684, 41.252
1463.862, 38.147
1465.040, 66.933
1466.217, 60.874
1467.395, 85.834
1468.572, 62.799
1469.749, 79.760
1470.925, 81.742
1472.102, 61.735
1473.278, 39.745
1474.455, 111.799
1475.631, 80.865
1476.807, 58.937
1477.982, 105.009
1479.158, 8.909
1480.333, 47.233
1481.508, 91.427
1482.683, 31.625
1483.858, 52.828
1485.033, 55.041
1486.207, 1.737
1487.381, 69.507
1488.555, 60.777
1489.729, 13.069
1490.903, 85.390
1492.076, 66.748
1493.250, 46.139
1494.423, 87.565
1495.596, 4.030
1496.769, 51.534
1497.941, 68.080
1499.114, 4.129
1500.286, 37.246
1501.458, 41.631
1502.630, 7.211
1503.802, 24.539
1504.973, 61.847
1506.145, 18.112
1507.316, 55.168
1508.487, 70.110
1509.657, 32.963
1510.828, 59.749
1511.999, 36.241
1513.169, 11.911
1514.339, 17.143
1515.509, 0.123
1516.678, 0.000
##END=



