##NAMES=Aegirine
##RRUFFID=R040054
##IDEAL CHEMISTRY=NaFe^3+^Si_2_O_6_
##LOCALITY=Mont Saint-Hilaire, Rouville County, Quebec, Canada
##OWNER=RRUFF
##SOURCE=Bob Downs
##DESCRIPTION=Black cleavage fragments
##STATUS=The identification of this mineral has been confirmed by X-ray diffraction and chemical analysis
##URL=rruff.info/R040054
##MEASURED CHEMISTRY=(Na_0.96_Ca_0.04_)(Fe_0.86_Ti_0.07_Mn_0.06_Mg_0.02_)(Si_0.97_Al_0.03_)_2_O_6_
##PIN_ID=L00298
##ORIENTATION=Laser parallel to a [1 0 0]. Fiducial mark perpendicular to laser is parallel to b* (0 1 0)
120.508, 0.000
121.897, 27.452
123.286, 1.683
124.675, 29.816
126.063, 229.046
127.452, 288.093
128.840, 535.128
130.228, 850.045
131.615, 1357.002
133.003, 1762.625
134.390, 1801.716
135.777, 1687.084
137.164, 1327.660
138.550, 972.208
139.937, 751.978
141.323, 483.925
142.709, 490.769
144.094, 349.553
145.480, 398.487
146.865, 383.799
148.250, 323.263
149.635, 293.278
151.019, 207.455
152.403, 159.974
153.788, 132.321
155.171, 82.276
156.555, 101.858
157.939, 29.601
159.322, 24.101
160.705, 51.390
162.088, 72.375
163.470, 20.126
164.853, 22.299
166.235, 81.070
167.617, 1.706
168.998, 9.518
170.380, 4.281
171.761, 115.076
173.142, 178.611
174.523, 465.373
175.904, 796.407
177.284, 1109.791
178.664, 1170.819
180.044, 995.249
181.424, 832.869
182.803, 565.384
184.183, 392.048
185.562, 376.275
186.940, 418.782
188.319, 585.279
189.698, 685.709
191.076, 879.292
192.454, 1111.759
193.831, 1233.243
195.209, 1385.593
196.586, 1487.579
197.963, 1795.573
199.340, 1903.991
200.717, 2179.262
202.093, 2398.955
203.470, 2725.428
204.846, 3116.222
206.221, 3608.933
207.597, 4277.307
208.972, 4721.856
210.347, 5244.568
211.722, 5556.468
213.097, 5458.493
214.472, 5140.608
215.846, 4802.776
217.220, 4253.968
218.594, 3545.156
219.967, 3208.312
221.341, 2599.400
222.714, 2305.390
224.087, 1932.273
225.460, 1635.021
226.832, 1379.630
228.204, 1167.071
229.577, 964.664
230.948, 810.946
232.320, 667.953
233.692, 595.186
235.063, 529.369
236.434, 513.479
237.805, 308.522
239.175, 292.262
240.545, 251.422
241.916, 153.269
243.286, 186.044
244.655, 125.748
246.025, 81.380
247.394, 60.942
248.763, 85.434
250.132, 27.144
251.501, 0.209
252.869, 71.496
254.237, 90.285
255.605, 46.132
256.973, 64.044
258.340, 51.022
259.708, 18.072
261.075, 0.794
262.442, 11.562
263.808, 46.779
265.175, 106.242
266.541, 72.838
267.907, 127.588
269.273, 13.624
270.639, 68.519
272.004, 4.688
273.369, 166.185
274.734, 197.056
276.099, 162.089
277.463, 265.999
278.828, 335.024
280.192, 319.482
281.556, 336.872
282.919, 344.317
284.283, 334.255
285.646, 350.476
287.009, 368.908
288.372, 426.602
289.734, 396.148
291.097, 435.141
292.459, 447.632
293.821, 447.625
295.183, 552.884
296.544, 594.849
297.905, 576.034
299.266, 731.669
300.627, 701.662
301.988, 754.567
303.348, 878.644
304.709, 861.468
306.069, 850.804
307.428, 971.872
308.788, 889.815
310.147, 816.533
311.507, 942.835
312.865, 959.382
314.224, 900.861
315.583, 836.706
316.941, 783.730
318.299, 813.507
319.657, 805.167
321.015, 749.901
322.372, 862.218
323.729, 750.186
325.086, 949.458
326.443, 1015.861
327.800, 1090.099
329.156, 1284.914
330.512, 1484.799
331.868, 1690.694
333.224, 2032.802
334.579, 2417.093
335.935, 2757.019
337.290, 3220.418
338.645, 3497.250
339.999, 3636.813
341.354, 3666.278
342.708, 3502.637
344.062, 3396.871
345.416, 3075.966
346.769, 2824.440
348.123, 2530.993
349.476, 2419.220
350.829, 2297.405
352.182, 2025.875
353.534, 2051.395
354.887, 2010.135
356.239, 2162.696
357.591, 2140.005
358.942, 2437.106
360.294, 2703.095
361.645, 3022.009
362.996, 3413.856
364.347, 3879.649
365.698, 4247.391
367.048, 4451.082
368.398, 4467.723
369.748, 4477.317
371.098, 4298.864
372.448, 4142.373
373.797, 3982.844
375.146, 3923.285
376.495, 3993.691
377.844, 4143.063
379.192, 4315.401
380.540, 4467.707
381.889, 4978.978
383.236, 5164.212
384.584, 5535.415
385.932, 5851.582
387.279, 5749.718
388.626, 5716.821
389.973, 5437.894
391.319, 4885.933
392.666, 4465.943
394.012, 3739.922
395.358, 3257.319
396.704, 2658.391
398.049, 2273.168
399.394, 1905.859
400.740, 1592.644
402.084, 1373.283
403.429, 1187.572
404.774, 1075.003
406.118, 876.729
407.462, 818.815
408.806, 767.292
410.150, 686.426
411.493, 663.985
412.836, 530.376
414.179, 516.517
415.522, 452.865
416.865, 350.395
418.207, 354.728
419.549, 265.968
420.891, 289.057
422.233, 251.247
423.575, 157.650
424.916, 154.656
426.257, 104.135
427.598, 65.910
428.939, 51.811
430.279, 25.304
431.619, 18.518
432.959, 9.121
434.299, 2.360
435.639, 33.132
436.978, 15.757
438.318, 21.078
439.657, 5.186
440.996, 32.560
442.334, 15.152
443.673, 46.188
445.011, 19.031
446.349, 77.309
447.687, 114.809
449.024, 132.656
450.361, 72.208
451.699, 112.876
453.036, 113.296
454.372, 112.082
455.709, 167.021
457.045, 118.548
458.381, 173.445
459.717, 179.792
461.053, 217.194
462.388, 118.690
463.724, 200.620
465.059, 136.209
466.394, 150.229
467.728, 92.458
469.063, 125.573
470.397, 77.412
471.731, 88.570
473.065, 170.044
474.398, 123.516
475.732, 155.099
477.065, 212.695
478.398, 167.153
479.731, 269.577
481.063, 262.944
482.396, 310.278
483.728, 416.571
485.060, 373.791
486.391, 541.116
487.723, 639.335
489.054, 784.522
490.385, 1065.092
491.716, 1317.615
493.047, 1729.633
494.377, 2084.430
495.708, 2568.073
497.038, 2985.834
498.368, 2944.451
499.697, 2886.962
501.027, 2574.437
502.356, 2305.877
503.685, 2028.283
505.014, 1834.387
506.342, 1576.993
507.671, 1493.300
508.999, 1387.579
510.327, 1233.832
511.655, 1184.059
512.982, 1162.258
514.310, 1016.429
515.637, 1020.572
516.964, 1008.687
518.291, 1010.774
519.617, 1052.835
520.944, 1071.870
522.270, 1211.879
523.596, 1393.861
524.921, 1449.819
526.247, 1672.751
527.572, 1952.658
528.897, 2285.539
530.222, 2621.395
531.547, 3073.227
532.871, 3634.032
534.196, 4457.812
535.520, 5380.567
536.844, 6334.300
538.167, 7609.004
539.491, 8862.685
540.814, 9896.342
542.137, 10719.984
543.460, 10893.716
544.783, 10967.299
546.105, 10681.065
547.427, 10104.861
548.749, 9478.550
550.071, 8702.270
551.393, 8175.948
552.714, 7579.582
554.035, 7123.416
555.356, 6897.084
556.677, 6360.738
557.998, 6097.164
559.318, 5866.833
560.638, 5566.532
561.958, 5422.208
563.278, 5302.892
564.597, 4968.576
565.917, 4748.177
567.236, 4607.820
568.555, 4307.369
569.874, 4048.845
571.192, 3941.266
572.511, 3710.107
573.829, 3566.488
575.147, 3369.797
576.464, 3275.883
577.782, 3057.865
579.099, 2858.760
580.416, 2746.836
581.733, 2714.524
583.050, 2503.866
584.366, 2466.456
585.683, 2196.607
586.999, 2232.527
588.315, 1984.584
589.630, 1888.596
590.946, 1758.855
592.261, 1566.723
593.576, 1453.835
594.891, 1357.032
596.206, 1178.325
597.520, 1104.432
598.834, 880.274
600.148, 748.482
601.462, 700.062
602.776, 603.105
604.089, 462.030
605.402, 364.163
606.715, 337.665
608.028, 220.615
609.341, 257.450
610.653, 92.545
611.965, 82.998
613.277, 219.312
614.589, 71.075
615.901, 70.874
617.212, 2.544
618.523, 26.926
619.834, 44.909
621.145, 12.415
622.456, 8.801
623.766, 41.551
625.076, 62.181
626.386, 41.130
627.696, 84.901
629.006, 17.958
630.315, 15.067
631.624, 14.267
632.933, 1.114
634.242, 0.060
635.551, 5.656
636.859, 10.849
638.167, 26.234
639.475, 32.418
640.783, 43.549
642.090, 55.628
643.398, 30.419
644.705, 52.652
646.012, 63.130
647.318, 94.479
648.625, 117.150
649.931, 111.670
651.237, 164.638
652.543, 202.551
653.849, 171.544
655.155, 198.675
656.460, 237.826
657.765, 222.895
659.070, 230.938
660.375, 275.956
661.679, 256.948
662.984, 255.914
664.288, 291.854
665.592, 354.770
666.895, 405.484
668.199, 466.524
669.502, 580.363
670.805, 686.177
672.108, 829.966
673.411, 956.730
674.713, 1169.469
676.016, 1262.183
677.318, 1237.873
678.620, 1213.538
679.921, 1130.179
681.223, 987.795
682.524, 787.386
683.825, 750.954
685.126, 555.497
686.427, 511.016
687.727, 437.511
689.028, 372.981
690.328, 353.428
691.628, 279.852
692.927, 251.251
694.227, 258.627
695.526, 246.980
696.825, 182.309
698.124, 179.615
699.423, 149.897
700.721, 179.155
702.020, 128.390
703.318, 113.600
704.616, 132.785
705.913, 117.946
707.211, 120.082
708.508, 124.194
709.805, 69.281
711.102, 102.343
712.399, 99.380
713.695, 147.392
714.992, 84.382
716.288, 71.346
717.584, 72.286
718.879, 65.200
720.175, 62.067
721.470, 76.953
722.765, 63.792
724.060, 83.606
725.355, 98.396
726.649, 108.163
727.944, 86.907
729.238, 40.627
730.532, 104.322
731.825, 70.993
733.119, 110.644
734.412, 55.272
735.705, 45.880
736.998, 107.466
738.291, 101.031
739.584, 41.579
740.876, 106.108
742.168, 155.619
743.460, 106.115
744.752, 109.595
746.043, 46.060
747.334, 83.506
748.626, 66.937
749.916, 77.352
751.207, 34.749
752.498, 83.129
753.788, 128.492
755.078, 64.842
756.368, 129.174
757.658, 111.494
758.947, 109.799
760.237, 115.090
761.526, 61.365
762.815, 18.623
764.104, 21.141
765.392, 22.946
766.680, 29.056
767.969, 11.258
769.257, 23.185
770.544, 5.479
771.832, 12.917
773.119, 3.363
774.406, 32.044
775.693, 52.636
776.980, 40.757
778.267, 52.626
779.553, 81.016
780.839, 50.713
782.125, 53.380
783.411, 71.853
784.697, 89.729
785.982, 72.008
787.267, 70.365
788.552, 21.911
789.837, 46.532
791.122, 44.082
792.406, 76.659
793.690, 46.248
794.974, 58.863
796.258, 1.491
797.542, 50.089
798.825, 24.844
800.108, 67.541
801.391, 106.258
802.674, 35.938
803.957, 34.562
805.239, 26.247
806.522, 43.742
807.804, 29.125
809.085, 39.338
810.367, 16.096
811.649, 42.528
812.930, 47.141
814.211, 34.743
815.492, 68.335
816.772, 87.918
818.053, 135.490
819.333, 136.053
820.613, 173.019
821.893, 197.151
823.173, 223.686
824.452, 212.213
825.732, 224.731
827.011, 280.241
828.290, 337.742
829.568, 282.236
830.847, 337.722
832.125, 382.201
833.403, 410.672
834.681, 466.137
835.959, 462.594
837.236, 554.045
838.514, 579.490
839.791, 559.929
841.068, 654.361
842.345, 677.789
843.621, 755.210
844.898, 792.626
846.174, 791.038
847.450, 923.444
848.726, 859.846
850.001, 928.243
851.277, 1015.634
852.552, 1025.014
853.827, 1111.271
855.102, 1154.651
856.376, 1176.093
857.651, 1164.931
858.925, 1204.122
860.199, 1257.254
861.473, 1235.398
862.746, 1245.562
864.020, 1221.499
865.293, 1238.577
866.566, 1244.647
867.839, 1285.921
869.112, 1255.936
870.384, 1229.901
871.656, 1191.874
872.928, 1201.825
874.200, 1096.772
875.472, 1086.788
876.744, 1130.752
878.015, 981.812
879.286, 958.950
880.557, 941.136
881.828, 774.241
883.098, 878.158
884.369, 770.351
885.639, 825.414
886.909, 799.656
888.178, 766.690
889.448, 769.706
890.717, 739.006
891.987, 762.304
893.256, 796.379
894.524, 785.754
895.793, 733.298
897.061, 792.726
898.330, 772.191
899.598, 819.403
900.865, 818.792
902.133, 820.121
903.401, 840.828
904.668, 835.445
905.935, 847.195
907.202, 845.848
908.468, 827.258
909.735, 844.937
911.001, 872.580
912.267, 927.238
913.533, 883.931
914.799, 930.426
916.064, 1004.548
917.330, 1075.541
918.595, 1083.451
919.860, 1067.003
921.124, 1109.688
922.389, 1222.663
923.653, 1263.375
924.918, 1345.043
926.182, 1317.698
927.445, 1415.279
928.709, 1485.601
929.972, 1549.723
931.236, 1624.146
932.499, 1795.897
933.761, 1871.697
935.024, 1930.441
936.286, 2100.229
937.549, 2188.974
938.811, 2391.881
940.073, 2527.941
941.334, 2806.030
942.596, 3054.701
943.857, 3215.582
945.118, 3723.478
946.379, 4048.347
947.640, 4515.481
948.900, 4850.014
950.161, 5245.821
951.421, 5516.181
952.681, 5627.025
953.940, 5791.506
955.200, 5698.394
956.459, 5522.422
957.719, 5537.995
958.978, 5642.611
960.236, 5594.139
961.495, 5581.522
962.753, 5401.882
964.012, 5367.315
965.270, 5152.772
966.527, 4978.249
967.785, 4833.741
969.043, 4539.255
970.300, 4473.788
971.557, 4396.341
972.814, 4063.911
974.071, 3932.501
975.327, 3698.109
976.583, 3507.737
977.840, 3398.383
979.095, 3327.050
980.351, 3160.737
981.607, 3048.446
982.862, 2921.181
984.117, 2822.935
985.372, 2752.708
986.627, 2714.511
987.882, 2526.333
989.136, 2383.175
990.390, 2460.042
991.644, 2267.928
992.898, 2122.836
994.152, 2196.764
995.405, 2059.711
996.659, 1936.678
997.912, 1849.665
999.165, 1823.673
1000.417, 1866.702
1001.670, 1787.750
1002.922, 1690.818
1004.174, 1738.907
1005.426, 1643.017
1006.678, 1658.148
1007.930, 1574.304
1009.181, 1616.481
1010.432, 1574.680
1011.683, 1527.899
1012.934, 1539.141
1014.185, 1563.405
1015.435, 1455.696
1016.685, 1559.009
1017.935, 1403.345
1019.185, 1430.701
1020.435, 1489.154
1021.684, 1429.555
1022.934, 1463.457
1024.183, 1452.879
1025.432, 1478.033
1026.680, 1463.663
1027.929, 1544.317
1029.177, 1625.976
1030.425, 1636.961
1031.673, 1625.534
1032.921, 1809.180
1034.169, 1833.042
1035.416, 1891.112
1036.663, 2020.993
1037.911, 2008.195
1039.157, 2302.041
1040.404, 2292.827
1041.650, 2407.146
1042.897, 2472.099
1044.143, 2405.685
1045.389, 2445.850
1046.634, 2315.019
1047.880, 2264.069
1049.125, 2248.571
1050.371, 2131.627
1051.615, 2204.515
1052.860, 2271.984
1054.105, 2092.398
1055.349, 2293.768
1056.593, 2279.317
1057.837, 2182.472
1059.081, 2329.582
1060.325, 2169.031
1061.568, 2244.438
1062.812, 2156.671
1064.055, 2142.443
1065.298, 2221.578
1066.540, 2148.272
1067.783, 2036.063
1069.025, 2092.202
1070.267, 1992.426
1071.509, 2056.814
1072.751, 1985.092
1073.993, 1948.123
1075.234, 2057.385
1076.475, 1948.668
1077.716, 1859.022
1078.957, 1914.469
1080.198, 1859.714
1081.438, 1777.136
1082.679, 1817.583
1083.919, 1750.343
1085.159, 1774.852
1086.398, 1659.297
1087.638, 1664.879
1088.877, 1664.562
1090.116, 1599.303
1091.355, 1689.041
1092.594, 1538.797
1093.833, 1499.383
1095.071, 1557.029
1096.309, 1467.815
1097.547, 1470.754
1098.785, 1491.718
1100.023, 1410.458
1101.260, 1504.724
1102.498, 1428.632
1103.735, 1395.659
1104.972, 1537.653
1106.208, 1453.702
1107.445, 1405.778
1108.681, 1440.859
1109.918, 1472.522
1111.154, 1468.432
1112.389, 1415.662
1113.625, 1433.802
1114.860, 1510.911
1116.096, 1454.167
1117.331, 1520.343
1118.566, 1556.901
1119.800, 1548.081
1121.035, 1686.193
1122.269, 1832.313
1123.503, 1890.438
1124.737, 1878.742
1125.971, 1811.947
1127.205, 1738.331
1128.438, 1692.723
1129.671, 1654.641
1130.904, 1663.262
1132.137, 1635.493
1133.370, 1644.729
1134.602, 1641.023
1135.834, 1629.217
1137.066, 1624.850
1138.298, 1480.065
1139.530, 1486.384
1140.762, 1393.840
1141.993, 1241.230
1143.224, 1146.429
1144.455, 1075.663
1145.686, 915.997
1146.917, 813.581
1148.147, 708.838
1149.377, 613.157
1150.607, 532.607
1151.837, 358.904
1153.067, 351.251
1154.296, 249.670
1155.526, 169.005
1156.755, 200.339
1157.984, 134.702
1159.213, 71.927
1160.441, 93.531
1161.670, 60.316
1162.898, 46.387
1164.126, 48.927
1165.354, 24.667
1166.581, 27.972
1167.809, 4.468
1169.036, 31.751
1170.263, 20.606
1171.490, 28.242
1172.717, 1.329
1173.943, 33.632
1175.170, 34.172
1176.396, 50.851
1177.622, 16.641
1178.848, 5.510
1180.073, 1.637
1181.299, 9.808
1182.524, 14.836
1183.749, 30.290
1184.974, 67.177
1186.199, 60.271
1187.423, 73.981
1188.648, 65.358
1189.872, 74.294
1191.096, 83.246
1192.320, 75.455
1193.543, 58.524
1194.767, 55.584
1195.990, 12.761
1197.213, 37.657
1198.436, 6.300
1199.659, 41.948
1200.881, 7.140
1202.104, 38.366
1203.326, 7.675
1204.548, 33.031
1205.770, 15.420
1206.991, 35.826
1208.213, 34.262
1209.434, 2.273
1210.655, 54.201
1211.876, 6.284
1213.096, 35.240
1214.317, 19.795
1215.537, 28.626
1216.757, 12.217
1217.977, 6.625
1219.197, 14.022
1220.417, 2.591
1221.636, 34.781
1222.855, 44.143
1224.074, 23.497
1225.293, 5.159
1226.512, 16.835
1227.731, 18.538
1228.949, 57.731
1230.167, 11.990
1231.385, 60.234
1232.603, 1.467
1233.820, 72.687
1235.038, 30.898
1236.255, 26.097
1237.472, 33.282
1238.689, 36.456
1239.906, 5.615
1241.122, 5.759
1242.338, 53.888
1243.555, 29.007
1244.771, 29.107
1245.986, 8.190
1247.202, 20.541
1248.417, 59.306
1249.633, 41.429
1250.848, 55.454
1252.063, 48.467
1253.277, 47.489
1254.492, 52.460
1255.706, 19.418
1256.920, 14.348
1258.134, 38.252
1259.348, 11.139
1260.562, 65.006
1261.775, 40.858
1262.988, 54.691
1264.201, 29.507
1265.414, 59.305
1266.627, 87.079
1267.839, 94.836
1269.052, 91.134
1270.264, 47.290
1271.476, 65.981
1272.688, 44.654
1273.899, 45.324
1275.111, 25.954
1276.322, 10.562
1277.533, 71.146
1278.744, 71.711
1279.955, 0.257
1281.165, 85.772
1282.376, 40.266
1283.586, 22.739
1284.796, 61.189
1286.006, 51.621
1287.215, 57.060
1288.425, 106.444
1289.634, 87.809
1290.843, 65.157
1292.052, 48.487
1293.261, 87.459
1294.469, 73.754
1295.678, 59.032
1296.886, 81.292
1298.094, 70.534
1299.302, 63.759
1300.509, 26.966
1301.717, 76.152
1302.924, 71.320
1304.131, 133.471
1305.338, 54.605
1306.545, 46.720
1307.752, 36.816
1308.958, 59.891
1310.164, 49.947
1311.370, 87.984
1312.576, 60.002
1313.782, 108.927
1314.987, 55.908
1316.193, 75.391
1317.398, 58.548
1318.603, 84.458
1319.807, 114.364
1321.012, 77.111
1322.216, 95.903
1323.421, 152.280
1324.625, 86.118
1325.829, 97.886
1327.032, 88.445
1328.236, 54.797
1329.439, 122.345
1330.642, 108.574
1331.845, 40.164
1333.048, 76.818
1334.251, 72.945
1335.453, 63.431
1336.656, 86.289
1337.858, 86.571
1339.060, 49.852
1340.261, 65.255
1341.463, 30.209
1342.664, 36.569
1343.866, 6.205
1345.067, 47.204
1346.267, 52.324
1347.468, 63.431
1348.669, 71.362
1349.869, 88.690
1351.069, 79.068
1352.269, 92.111
1353.469, 88.127
1354.668, 97.464
1355.868, 81.195
1357.067, 95.649
1358.266, 91.471
1359.465, 97.214
1360.664, 24.625
1361.862, 74.630
1363.061, 154.864
1364.259, 87.220
1365.457, 172.808
1366.655, 91.389
1367.852, 119.535
1369.050, 141.782
1370.247, 76.949
1371.444, 71.320
1372.641, 118.523
1373.838, 104.852
1375.035, 99.598
1376.231, 94.679
1377.427, 91.010
1378.623, 95.814
1379.819, 84.046
1381.015, 104.915
1382.211, 93.396
1383.406, 92.760
1384.601, 71.344
1385.796, 92.886
1386.991, 92.354
1388.185, 94.300
1389.380, 67.458
1390.574, 122.720
1391.768, 94.561
1392.962, 34.893
1394.156, 68.274
1395.350, 84.344
1396.543, 49.088
1397.736, 69.715
1398.929, 69.326
1400.122, 93.355
1401.315, 77.659
1402.507, 110.235
1403.700, 109.016
1404.892, 100.797
1406.084, 107.286
1407.276, 60.660
1408.467, 90.246
1409.659, 89.329
1410.850, 71.751
1412.041, 116.954
1413.232, 92.703
1414.423, 100.163
1415.614, 77.129
1416.804, 36.040
1417.994, 65.359
1419.184, 60.046
1420.374, 81.188
1421.564, 130.447
1422.753, 91.363
1423.943, 110.424
1425.132, 91.742
1426.321, 108.857
1427.510, 65.138
1428.698, 92.478
1429.887, 25.417
1431.075, 71.940
1432.263, 114.171
1433.451, 60.688
1434.639, 116.299
1435.827, 11.055
1437.014, 97.616
1438.201, 73.311
1439.388, 79.705
1440.575, 121.383
1441.762, 33.043
1442.949, 63.682
1444.135, 82.305
1445.321, 92.964
1446.507, 68.620
1447.693, 91.255
1448.879, 51.852
1450.064, 59.430
1451.250, 75.992
1452.435, 41.511
1453.620, 105.033
1454.805, 70.537
1455.989, 50.809
1457.174, 120.185
1458.358, 81.645
1459.542, 77.797
1460.726, 74.055
1461.910, 56.151
1463.093, 24.642
1464.277, 67.163
1465.460, 38.709
1466.643, 78.307
1467.826, 79.886
1469.009, 55.538
1470.191, 85.209
1471.373, 61.926
1472.556, 104.677
1473.738, 42.360
1474.919, 68.216
1476.101, 28.089
1477.283, 88.617
1478.464, 70.437
1479.645, 56.264
1480.826, 33.096
1482.007, 37.935
1483.187, 64.781
1484.368, 37.638
1485.548, 15.514
1486.728, 60.416
1487.908, 4.354
1489.088, 40.321
1490.268, 88.323
1491.447, 30.360
1492.626, 23.434
1493.805, 40.541
1494.984, 86.680
1496.163, 49.036
1497.341, 71.339
1498.520, 5.511
1499.698, 65.963
1500.876, 68.488
1502.054, 62.952
1503.232, 8.010
1504.409, 38.723
1505.586, 20.566
1506.763, 89.539
1507.940, 82.349
1509.117, 75.409
1510.294, 57.536
1511.470, 38.789
1512.647, 48.990
1513.823, 16.353
1514.999, 0.085
1516.174, 0.000
##END=



