##NAMES=Aegirine
##RRUFFID=R040054
##IDEAL CHEMISTRY=NaFe^3+^Si_2_O_6_
##LOCALITY=Mont Saint-Hilaire, Rouville County, Quebec, Canada
##OWNER=RRUFF
##SOURCE=Bob Downs
##DESCRIPTION=Black cleavage fragments
##STATUS=The identification of this mineral has been confirmed by X-ray diffraction and chemical analysis
##URL=rruff.info/R040054
##MEASURED CHEMISTRY=(Na_0.96_Ca_0.04_)(Fe_0.86_Ti_0.07_Mn_0.06_Mg_0.02_)(Si_0.97_Al_0.03_)_2_O_6_
##PIN_ID=M00470
##ORIENTATION=Laser parallel to -c [0 0 -1]. Fiducial mark perpendicular to laser is parallel to -b* (0 -1 0)
173.326, 0.000
174.702, 15.538
176.077, 87.795
177.453, 235.849
178.828, 576.868
180.204, 876.175
181.579, 1455.186
182.953, 1979.073
184.328, 2100.408
185.702, 1791.980
187.076, 1181.123
188.450, 604.437
189.824, 172.588
191.198, 170.146
192.571, 76.774
193.944, 115.991
195.317, 178.393
196.689, 214.403
198.062, 410.774
199.434, 390.090
200.806, 672.820
202.178, 720.331
203.549, 905.727
204.921, 1074.819
206.292, 1391.592
207.663, 1981.154
209.033, 2360.355
210.404, 3243.228
211.774, 4084.362
213.144, 4944.100
214.514, 6231.541
215.884, 6812.822
217.253, 7621.265
218.622, 7579.888
219.991, 6718.676
221.360, 5637.606
222.729, 4206.657
224.097, 3081.815
225.465, 2053.064
226.833, 1541.385
228.201, 969.748
229.568, 650.124
230.936, 513.493
232.303, 272.853
233.670, 183.202
235.036, 79.542
236.403, 27.914
237.769, 29.589
239.135, 71.539
240.501, 66.824
241.867, 113.671
243.232, 25.221
244.597, 83.770
245.962, 97.428
247.327, 24.183
248.691, 51.864
250.056, 11.461
251.420, 19.020
252.784, 60.861
254.147, 110.586
255.511, 191.838
256.874, 254.529
258.237, 339.247
259.600, 494.972
260.963, 527.696
262.325, 598.411
263.687, 760.104
265.049, 902.753
266.411, 1210.336
267.773, 1469.845
269.134, 1555.279
270.495, 1086.643
271.856, 720.938
273.217, 783.166
274.577, 711.330
275.938, 867.430
277.298, 868.454
278.658, 1015.359
280.017, 1202.031
281.377, 1095.386
282.736, 1252.469
284.095, 1291.264
285.454, 1428.852
286.812, 1503.323
288.171, 1702.729
289.529, 1910.094
290.887, 2112.435
292.245, 2572.748
293.602, 2667.037
294.960, 3259.298
296.317, 3353.924
297.674, 3609.161
299.030, 3656.077
300.387, 3671.162
301.743, 3664.718
303.099, 3429.604
304.455, 3396.766
305.811, 3314.146
307.166, 3309.601
308.522, 3349.537
309.877, 3459.743
311.232, 3786.764
312.586, 3981.996
313.941, 4099.990
315.295, 4290.121
316.649, 4108.650
318.003, 3996.324
319.356, 3664.847
320.709, 3400.070
322.063, 2980.729
323.416, 2682.568
324.768, 2647.468
326.121, 2274.361
327.473, 2493.205
328.825, 2421.968
330.177, 2542.624
331.529, 2836.147
332.880, 3050.532
334.232, 3428.776
335.583, 3860.886
336.934, 4829.849
338.284, 5822.834
339.635, 6295.368
340.985, 7498.111
342.335, 8400.415
343.685, 9669.196
345.034, 11304.317
346.384, 12126.038
347.733, 13627.724
349.082, 14089.245
350.431, 15450.640
351.779, 14641.814
353.128, 13902.562
354.476, 12672.808
355.824, 10762.676
357.171, 9602.185
358.519, 7771.428
359.866, 6920.556
361.213, 5929.632
362.560, 5168.683
363.907, 4757.720
365.253, 4284.747
366.600, 4238.757
367.946, 3879.754
369.291, 3973.735
370.637, 3876.698
371.983, 3741.646
373.328, 3713.576
374.673, 3529.489
376.018, 3654.385
377.362, 3542.263
378.707, 3846.555
380.051, 4190.333
381.395, 4391.958
382.739, 5145.391
384.082, 5507.335
385.426, 6216.393
386.769, 6875.799
388.112, 7221.945
389.454, 7804.264
390.797, 7632.497
392.139, 7539.779
393.481, 6992.176
394.823, 6242.644
396.165, 5555.932
397.506, 4547.087
398.848, 4013.265
400.189, 3228.104
401.530, 2648.635
402.870, 2190.426
404.211, 1825.582
405.551, 1530.943
406.891, 1268.273
408.231, 1028.574
409.571, 917.846
410.910, 843.086
412.249, 712.298
413.588, 553.478
414.927, 515.630
416.266, 463.753
417.604, 331.847
418.942, 396.911
420.280, 217.945
421.618, 281.945
422.956, 196.865
424.293, 219.857
425.630, 78.767
426.967, 37.645
428.304, 4.488
429.641, 47.937
430.977, 59.948
432.313, 83.248
433.649, 71.611
434.985, 87.032
436.320, 76.518
437.656, 33.064
438.991, 58.658
440.326, 55.308
441.660, 34.012
442.995, 56.763
444.329, 40.578
445.663, 49.457
446.997, 36.415
448.331, 19.505
449.664, 47.301
450.997, 5.976
452.331, 79.553
453.663, 146.040
454.996, 113.437
456.328, 252.748
457.661, 320.017
458.993, 358.244
460.325, 522.440
461.656, 551.612
462.988, 662.765
464.319, 846.897
465.650, 826.984
466.981, 996.023
468.311, 923.123
469.642, 944.553
470.972, 805.030
472.302, 774.266
473.632, 681.721
474.961, 576.205
476.291, 630.561
477.620, 424.885
478.949, 462.324
480.278, 364.696
481.606, 315.927
482.935, 395.741
484.263, 273.291
485.591, 330.939
486.918, 347.907
488.246, 384.349
489.573, 411.640
490.900, 357.945
492.227, 420.940
493.554, 477.570
494.881, 570.336
496.207, 666.774
497.533, 771.891
498.859, 962.006
500.185, 1077.964
501.510, 1039.541
502.836, 1105.125
504.161, 1010.620
505.486, 968.980
506.810, 933.472
508.135, 850.608
509.459, 866.911
510.783, 843.076
512.107, 837.248
513.431, 812.424
514.754, 876.624
516.077, 933.818
517.401, 860.018
518.723, 1012.223
520.046, 1038.428
521.369, 1161.630
522.691, 1385.842
524.013, 1511.074
525.335, 1733.014
526.656, 1854.545
527.978, 2168.808
529.299, 2409.109
530.620, 2625.452
531.941, 3127.834
533.262, 3381.226
534.582, 3722.651
535.902, 4143.104
537.222, 4605.545
538.542, 5610.985
539.862, 6246.410
541.181, 7361.808
542.501, 8557.176
543.820, 9512.504
545.139, 10557.793
546.457, 10783.043
547.776, 11028.251
549.094, 10583.413
550.412, 10108.530
551.730, 9933.604
553.047, 8968.631
554.365, 9183.613
555.682, 8818.554
556.999, 8793.576
558.316, 9188.423
559.632, 9113.515
560.949, 9678.051
562.265, 9572.732
563.581, 9506.715
564.897, 9560.992
566.213, 8675.363
567.528, 8319.342
568.843, 7582.687
570.158, 6945.384
571.473, 6227.493
572.788, 5556.373
574.102, 5287.015
575.416, 4683.095
576.730, 4330.237
578.044, 3947.984
579.358, 3655.370
580.671, 3382.853
581.984, 3035.331
583.297, 2844.622
584.610, 2571.709
585.923, 2433.388
587.235, 2342.099
588.547, 1989.236
589.859, 2012.067
591.171, 1700.568
592.483, 1529.625
593.794, 1432.095
595.105, 1224.310
596.416, 1130.157
597.727, 1003.444
599.038, 852.613
600.348, 751.934
601.658, 672.312
602.968, 579.594
604.278, 509.150
605.588, 411.343
606.897, 359.491
608.206, 254.595
609.516, 225.653
610.824, 142.667
612.133, 120.780
613.441, 160.542
614.750, 101.406
616.058, 83.220
617.365, 98.980
618.673, 93.690
619.980, 57.349
621.288, 59.887
622.595, 41.500
623.902, 18.769
625.208, 18.211
626.515, 24.819
627.821, 1.368
629.127, 13.139
630.433, 35.142
631.738, 91.432
633.044, 60.621
634.349, 22.398
635.654, 105.601
636.959, 0.457
638.263, 53.508
639.568, 54.888
640.872, 76.827
642.176, 149.296
643.480, 159.720
644.784, 188.847
646.087, 226.232
647.390, 211.082
648.693, 334.198
649.996, 277.517
651.299, 428.238
652.601, 335.473
653.904, 429.690
655.206, 450.128
656.508, 426.465
657.809, 463.076
659.111, 452.592
660.412, 484.903
661.713, 574.848
663.014, 576.593
664.315, 620.142
665.615, 728.266
666.915, 721.458
668.215, 820.647
669.515, 926.375
670.815, 1086.944
672.115, 1232.604
673.414, 1416.281
674.713, 1689.280
676.012, 2193.518
677.311, 2071.568
678.609, 2273.565
679.907, 2205.441
681.205, 2172.218
682.503, 1876.930
683.801, 1699.577
685.099, 1460.162
686.396, 1181.681
687.693, 1015.135
688.990, 896.527
690.287, 699.855
691.583, 637.120
692.880, 504.321
694.176, 457.460
695.472, 377.537
696.768, 329.294
698.063, 353.500
699.358, 288.389
700.654, 324.212
701.949, 358.975
703.243, 304.677
704.538, 291.320
705.832, 184.903
707.127, 268.422
708.421, 197.883
709.714, 233.287
711.008, 235.637
712.301, 170.938
713.595, 230.203
714.888, 204.440
716.180, 160.656
717.473, 196.845
718.765, 206.014
720.058, 181.161
721.350, 217.272
722.641, 137.356
723.933, 120.407
725.225, 170.413
726.516, 180.392
727.807, 160.338
729.098, 196.254
730.388, 242.139
731.679, 187.979
732.969, 181.771
734.259, 195.517
735.549, 154.216
736.839, 224.862
738.128, 167.460
739.418, 190.005
740.707, 203.499
741.996, 283.938
743.284, 164.328
744.573, 233.663
745.861, 260.948
747.149, 238.183
748.437, 289.368
749.725, 304.393
751.013, 370.987
752.300, 383.437
753.587, 486.026
754.874, 581.300
756.161, 710.446
757.447, 828.625
758.734, 992.737
760.020, 864.640
761.306, 763.289
762.592, 738.225
763.877, 346.686
765.163, 211.106
766.448, 92.336
767.733, 79.157
769.018, 20.415
770.302, 13.278
771.587, 11.094
772.871, 11.706
774.155, 30.059
775.439, 74.657
776.723, 35.048
778.006, 29.224
779.289, 68.499
780.573, 7.274
781.855, 123.657
783.138, 107.717
784.421, 99.804
785.703, 137.869
786.985, 130.189
788.267, 150.274
789.549, 101.651
790.830, 111.998
792.112, 100.463
793.393, 164.038
794.674, 79.762
795.954, 115.576
797.235, 117.503
798.515, 103.542
799.796, 101.680
801.076, 130.915
802.355, 160.262
803.635, 71.739
804.914, 119.286
806.194, 79.931
807.473, 105.646
808.752, 121.445
810.030, 67.335
811.309, 71.281
812.587, 95.281
813.865, 53.348
815.143, 1.545
816.421, 0.424
817.698, 5.289
818.975, 50.142
820.252, 25.985
821.529, 107.821
822.806, 90.649
824.083, 104.471
825.359, 142.287
826.635, 183.097
827.911, 225.903
829.187, 242.707
830.462, 297.507
831.738, 357.814
833.013, 422.103
834.288, 504.900
835.563, 531.568
836.837, 611.365
838.112, 740.875
839.386, 757.569
840.660, 1039.376
841.934, 1027.017
843.208, 1262.614
844.481, 1324.682
845.754, 1431.216
847.027, 1677.445
848.300, 1753.862
849.573, 1958.315
850.845, 2056.423
852.118, 2181.903
853.390, 2409.289
854.662, 2473.403
855.934, 2707.811
857.205, 2904.289
858.476, 3024.682
859.748, 3376.271
861.019, 3464.265
862.289, 3872.928
863.560, 4016.395
864.830, 4096.941
866.101, 4587.430
867.371, 4601.120
868.640, 4626.056
869.910, 4841.778
871.180, 4478.509
872.449, 4487.341
873.718, 4273.019
874.987, 4024.065
876.255, 3841.884
877.524, 3525.850
878.792, 3305.920
880.060, 3138.188
881.328, 2826.164
882.596, 2837.484
883.864, 2454.832
885.131, 2464.208
886.398, 2228.612
887.665, 2016.047
888.932, 2072.514
890.199, 2035.016
891.465, 1846.553
892.731, 1772.127
893.997, 1743.740
895.263, 1823.395
896.529, 1665.096
897.794, 1688.853
899.059, 1708.658
900.325, 1663.524
901.589, 1597.449
902.854, 1688.451
904.119, 1642.241
905.383, 1712.082
906.647, 1719.790
907.911, 1704.522
909.175, 1770.840
910.438, 1564.305
911.702, 1855.757
912.965, 1663.292
914.228, 1754.817
915.491, 1915.951
916.753, 1755.550
918.016, 1920.651
919.278, 1919.839
920.540, 2003.363
921.802, 2056.668
923.064, 2122.258
924.325, 2187.168
925.586, 2264.634
926.848, 2290.720
928.109, 2322.324
929.369, 2445.961
930.630, 2545.384
931.890, 2689.933
933.150, 2799.740
934.410, 2913.701
935.670, 3061.391
936.930, 3207.472
938.189, 3389.785
939.448, 3540.306
940.707, 3959.260
941.966, 4202.182
943.225, 4453.124
944.483, 5013.561
945.742, 5483.184
947.000, 6196.736
948.258, 6880.303
949.515, 7572.561
950.773, 8387.598
952.030, 9174.851
953.287, 10122.177
954.544, 10879.636
955.801, 11447.223
957.058, 12364.894
958.314, 12722.643
959.570, 13660.480
960.827, 15208.394
962.082, 15986.391
963.338, 17904.473
964.594, 19942.627
965.849, 21870.879
967.104, 25349.203
968.359, 27347.619
969.614, 30606.117
970.868, 33984.695
972.122, 34873.344
973.377, 36052.086
974.631, 34380.910
975.884, 31789.822
977.138, 28878.814
978.391, 24097.887
979.645, 21807.045
980.898, 19006.293
982.151, 16765.623
983.403, 15555.049
984.656, 13424.560
985.908, 12844.160
987.160, 11723.842
988.412, 10573.615
989.664, 10133.473
990.915, 9013.416
992.167, 8223.442
993.418, 7863.556
994.669, 6873.750
995.920, 6474.035
997.170, 5774.406
998.421, 5124.867
999.671, 4925.416
1000.921, 4496.048
1002.171, 3954.766
1003.421, 3823.568
1004.670, 3424.457
1005.919, 3303.430
1007.168, 2980.487
1008.417, 2712.629
1009.666, 2691.861
1010.915, 2376.175
1012.163, 2441.574
1013.411, 2219.057
1014.659, 2156.622
1015.907, 2190.269
1017.155, 2029.999
1018.402, 2061.811
1019.650, 2107.707
1020.897, 2185.683
1022.144, 2272.740
1023.390, 2258.879
1024.637, 2254.099
1025.883, 2515.742
1027.129, 2593.396
1028.375, 2868.923
1029.621, 3233.280
1030.867, 3435.414
1032.112, 4079.885
1033.357, 4569.296
1034.602, 5225.715
1035.847, 6221.409
1037.092, 7121.124
1038.336, 8409.910
1039.581, 9521.090
1040.825, 11218.141
1042.069, 12739.282
1043.312, 13226.873
1044.556, 13366.673
1045.799, 12965.441
1047.043, 10905.078
1048.286, 9644.153
1049.528, 7983.618
1050.771, 6703.550
1052.014, 5864.629
1053.256, 4897.743
1054.498, 4357.610
1055.740, 3687.343
1056.982, 3285.169
1058.223, 3158.808
1059.464, 2828.393
1060.706, 2539.979
1061.947, 2466.114
1063.187, 2161.211
1064.428, 2050.440
1065.669, 1944.818
1066.909, 1763.991
1068.149, 2060.780
1069.389, 1636.157
1070.628, 1820.110
1071.868, 2054.763
1073.107, 1376.761
1074.346, 1405.794
1075.585, 1328.712
1076.824, 1284.142
1078.063, 1334.877
1079.301, 1294.185
1080.539, 1282.290
1081.777, 1216.554
1083.015, 1161.412
1084.253, 1218.020
1085.490, 1169.733
1086.728, 1188.770
1087.965, 1159.802
1089.202, 1069.377
1090.439, 1141.469
1091.675, 1098.496
1092.912, 1109.600
1094.148, 1230.611
1095.384, 1188.707
1096.620, 1111.800
1097.855, 1254.981
1099.091, 1231.196
1100.326, 1275.398
1101.561, 1220.856
1102.796, 1267.409
1104.031, 1344.745
1105.265, 1250.115
1106.500, 1329.542
1107.734, 1467.763
1108.968, 1388.673
1110.202, 1504.137
1111.436, 1444.630
1112.669, 1435.746
1113.902, 1545.713
1115.135, 1516.073
1116.368, 1660.749
1117.601, 1685.200
1118.834, 1735.959
1120.066, 1883.729
1121.298, 1797.080
1122.530, 1773.823
1123.762, 1977.565
1124.994, 1962.335
1126.225, 2045.119
1127.456, 2069.979
1128.688, 2058.340
1129.918, 2224.288
1131.149, 2177.346
1132.380, 2094.604
1133.610, 2187.641
1134.840, 2128.772
1136.070, 2122.720
1137.300, 2132.270
1138.530, 1895.449
1139.759, 1995.404
1140.989, 1749.849
1142.218, 1627.874
1143.447, 1493.869
1144.675, 1336.365
1145.904, 1149.367
1147.132, 913.396
1148.360, 745.574
1149.588, 635.736
1150.816, 523.905
1152.044, 397.458
1153.271, 306.042
1154.499, 214.758
1155.726, 127.963
1156.953, 44.103
1158.180, 18.602
1159.406, 14.231
1160.632, 0.116
1161.859, 33.811
1163.085, 51.439
1164.311, 76.447
1165.536, 51.130
1166.762, 86.708
1167.987, 70.224
1169.212, 133.042
1170.437, 115.040
1171.662, 146.229
1172.886, 79.569
1174.111, 137.815
1175.335, 80.902
1176.559, 110.339
1177.783, 91.521
1179.007, 99.965
1180.230, 87.762
1181.453, 89.378
1182.676, 92.275
1183.899, 104.705
1185.122, 130.244
1186.345, 108.314
1187.567, 116.789
1188.789, 56.967
1190.011, 93.303
1191.233, 74.293
1192.455, 41.766
1193.677, 60.349
1194.898, 13.032
1196.119, 26.386
1197.340, 24.078
1198.561, 96.284
1199.781, 44.578
1201.002, 56.500
1202.222, 18.524
1203.442, 39.675
1204.662, 41.470
1205.882, 68.110
1207.101, 33.792
1208.321, 21.080
1209.540, 25.167
1210.759, 1.764
1211.978, 19.904
1213.196, 9.813
1214.415, 56.580
1215.633, 40.749
1216.851, 5.909
1218.069, 38.219
1219.287, 70.340
1220.504, 15.413
1221.722, 77.637
1222.939, 51.768
1224.156, 53.346
1225.373, 112.470
1226.590, 60.577
1227.806, 121.948
1229.022, 107.771
1230.239, 43.481
1231.454, 175.105
1232.670, 67.577
1233.886, 104.282
1235.101, 130.713
1236.317, 134.042
1237.532, 132.801
1238.746, 92.186
1239.961, 108.375
1241.176, 156.738
1242.390, 185.834
1243.604, 110.886
1244.818, 121.886
1246.032, 75.848
1247.246, 155.798
1248.459, 110.691
1249.672, 102.479
1250.886, 161.208
1252.098, 124.900
1253.311, 182.540
1254.524, 191.375
1255.736, 191.958
1256.948, 200.519
1258.160, 186.969
1259.372, 144.499
1260.584, 181.848
1261.795, 172.158
1263.007, 160.408
1264.218, 182.826
1265.429, 176.750
1266.640, 211.845
1267.850, 155.034
1269.061, 183.024
1270.271, 260.963
1271.481, 168.972
1272.691, 141.802
1273.901, 231.690
1275.110, 173.409
1276.320, 243.073
1277.529, 236.684
1278.738, 208.348
1279.947, 214.850
1281.155, 216.784
1282.364, 182.741
1283.572, 236.071
1284.780, 219.520
1285.988, 219.738
1287.196, 235.899
1288.404, 213.004
1289.611, 205.708
1290.818, 243.426
1292.025, 214.292
1293.232, 206.355
1294.439, 267.831
1295.646, 204.825
1296.852, 287.906
1298.058, 242.001
1299.264, 203.838
1300.470, 209.681
1301.676, 227.459
1302.881, 233.873
1304.086, 200.476
1305.292, 168.985
1306.496, 201.097
1307.701, 158.042
1308.906, 172.066
1310.110, 220.311
1311.315, 166.146
1312.519, 200.635
1313.722, 127.695
1314.926, 123.663
1316.130, 161.625
1317.333, 174.905
1318.536, 176.387
1319.739, 145.840
1320.942, 93.554
1322.145, 127.391
1323.347, 135.305
1324.550, 54.730
1325.752, 108.257
1326.954, 93.709
1328.156, 70.089
1329.357, 24.241
1330.559, 104.798
1331.760, 103.344
1332.961, 114.365
1334.162, 63.737
1335.363, 136.821
1336.563, 62.937
1337.764, 70.263
1338.964, 77.069
1340.164, 137.667
1341.364, 64.675
1342.563, 145.933
1343.763, 77.059
1344.962, 118.620
1346.161, 107.469
1347.360, 65.232
1348.559, 86.681
1349.758, 88.144
1350.956, 54.072
1352.155, 59.492
1353.353, 24.983
1354.551, 48.405
1355.748, 46.627
1356.946, 26.367
1358.143, 64.818
1359.341, 78.187
1360.538, 81.528
1361.734, 142.886
1362.931, 52.994
1364.128, 91.013
1365.324, 153.251
1366.520, 36.461
1367.716, 72.618
1368.912, 102.985
1370.108, 57.666
1371.303, 109.794
1372.499, 102.897
1373.694, 129.381
1374.889, 98.017
1376.084, 85.264
1377.278, 87.204
1378.473, 112.367
1379.667, 101.224
1380.861, 102.212
1382.055, 176.485
1383.249, 50.370
1384.442, 88.260
1385.636, 82.126
1386.829, 152.985
1388.022, 67.771
1389.215, 99.062
1390.408, 91.773
1391.600, 120.254
1392.792, 99.526
1393.985, 120.065
1395.177, 113.938
1396.368, 59.953
1397.560, 94.402
1398.752, 91.652
1399.943, 62.966
1401.134, 123.531
1402.325, 61.144
1403.516, 120.212
1404.707, 154.507
1405.897, 89.600
1407.087, 58.268
1408.277, 88.115
1409.467, 66.829
1410.657, 102.377
1411.847, 76.592
1413.036, 36.047
1414.225, 96.766
1415.414, 73.953
1416.603, 72.657
1417.792, 84.862
1418.981, 114.113
1420.169, 75.799
1421.357, 124.520
1422.545, 24.274
1423.733, 94.292
1424.921, 66.464
1426.108, 94.976
1427.296, 148.923
1428.483, 83.580
1429.670, 110.938
1430.857, 81.056
1432.043, 43.920
1433.230, 54.862
1434.416, 125.643
1435.602, 88.840
1436.788, 75.266
1437.974, 39.889
1439.160, 46.950
1440.345, 165.108
1441.530, 68.248
1442.716, 105.762
1443.900, 127.009
1445.085, 73.229
1446.270, 92.368
1447.454, 119.838
1448.638, 73.389
1449.823, 79.539
1451.006, 64.021
1452.190, 45.472
1453.374, 120.756
1454.557, 51.230
1455.740, 114.663
1456.923, 95.580
1458.106, 62.848
1459.289, 56.979
1460.472, 71.305
1461.654, 92.642
1462.836, 91.687
1464.018, 44.996
1465.200, 24.061
1466.382, 162.141
1467.563, 22.455
1468.744, 85.556
1469.926, 102.783
1471.107, 64.776
1472.287, 106.180
1473.468, 126.620
1474.649, 85.104
1475.829, 87.212
1477.009, 37.757
1478.189, 66.342
1479.369, 134.003
1480.548, 102.626
1481.728, 101.376
1482.907, 104.147
1484.086, 43.790
1485.265, 51.604
1486.444, 77.492
1487.623, 58.422
1488.801, 87.386
1489.979, 96.394
1491.157, 50.427
1492.335, 101.488
1493.513, 95.600
1494.691, 108.761
1495.868, 163.974
1497.045, 53.014
1498.222, 71.096
1499.399, 88.510
1500.576, 91.015
1501.753, 130.597
1502.929, 132.278
1504.105, 44.045
1505.281, 140.902
1506.457, 62.857
1507.633, 27.081
1508.808, 101.089
1509.984, 81.379
1511.159, 122.805
1512.334, 152.380
1513.509, 127.149
1514.683, 140.116
1515.858, 118.289
1517.032, 76.632
1518.206, 101.280
1519.380, 94.638
1520.554, 35.240
1521.728, 94.536
1522.902, 88.460
1524.075, 0.943
1525.248, 93.864
1526.421, 13.309
1527.594, 0.000
##END=



