##NAMES=Aegirine
##RRUFFID=R050074
##IDEAL CHEMISTRY=NaFe^3+^Si_2_O_6_
##LOCALITY=Mt. Malosa, Zomba, Chilwa, Alkaline Area, Malawi
##OWNER=RRUFF
##SOURCE=Rock Currier
##DESCRIPTION=Black prismatic single crystal
##STATUS=The identification of this mineral has been confirmed by X-ray diffraction and chemical analysis
##URL=rruff.info/R050074
##MEASURED CHEMISTRY=(Na_0.98_Ca_0.02_)_Σ=1_(Fe^3+^_0.96_Ti_0.01_Mn_0.03_)_Σ=1_Si_2.00_O_6_
##PIN_ID=L00512
##ORIENTATION=Laser parallel to -b* (0 -1 0). Fiducial mark perpendicular to laser is parallel to c [0 0 1]
118.066, 0.000
119.461, 39.817
120.855, 31.000
122.249, 32.330
123.643, 1.103
125.036, 25.390
126.430, 44.447
127.823, 106.979
129.216, 220.348
130.608, 290.939
132.001, 448.214
133.393, 389.883
134.785, 452.468
136.176, 329.679
137.568, 321.830
138.959, 335.516
140.350, 346.050
141.741, 297.461
143.131, 277.946
144.521, 203.167
145.911, 218.188
147.301, 181.182
148.691, 160.004
150.080, 112.571
151.469, 101.401
152.858, 70.133
154.247, 89.085
155.635, 27.261
157.024, 59.863
158.411, 60.906
159.799, 19.557
161.187, 35.472
162.574, 42.727
163.961, 55.405
165.348, 22.136
166.734, 106.807
168.121, 130.688
169.507, 205.660
170.893, 417.113
172.278, 682.464
173.664, 960.858
175.049, 1238.041
176.434, 1333.666
177.819, 1309.924
179.203, 1254.109
180.587, 1059.141
181.971, 1010.410
183.355, 1019.895
184.739, 1057.827
186.122, 1148.072
187.505, 1326.929
188.888, 1439.383
190.271, 1544.506
191.653, 1581.951
193.035, 1573.852
194.417, 1392.697
195.799, 1356.300
197.180, 1174.094
198.562, 983.310
199.943, 832.622
201.324, 733.141
202.704, 677.282
204.084, 571.434
205.465, 639.848
206.844, 630.982
208.224, 597.226
209.603, 560.689
210.983, 523.781
212.362, 477.038
213.740, 406.528
215.119, 292.047
216.497, 304.577
217.875, 190.092
219.253, 145.569
220.631, 90.985
222.008, 78.327
223.385, 23.535
224.762, 66.655
226.139, 28.302
227.515, 1.312
228.891, 6.645
230.267, 58.563
231.643, 2.435
233.018, 13.880
234.394, 45.993
235.769, 12.299
237.144, 75.670
238.518, 67.104
239.893, 54.604
241.267, 37.168
242.641, 9.794
244.014, 17.485
245.388, 33.757
246.761, 6.068
248.134, 43.035
249.507, 36.090
250.879, 55.982
252.252, 40.799
253.624, 41.488
254.996, 55.031
256.367, 38.407
257.739, 129.653
259.110, 97.744
260.481, 67.649
261.852, 209.338
263.222, 175.856
264.592, 195.241
265.962, 231.515
267.332, 237.771
268.702, 303.155
270.071, 349.024
271.440, 342.421
272.809, 416.069
274.178, 402.725
275.546, 421.315
276.915, 424.973
278.283, 442.193
279.650, 372.699
281.018, 341.176
282.385, 353.426
283.752, 323.536
285.119, 334.889
286.486, 295.708
287.852, 334.002
289.218, 318.210
290.584, 317.060
291.950, 320.154
293.316, 337.854
294.681, 349.029
296.046, 406.773
297.411, 407.328
298.775, 407.300
300.140, 387.996
301.504, 417.398
302.868, 433.994
304.231, 466.712
305.595, 501.755
306.958, 550.217
308.321, 591.473
309.684, 620.967
311.047, 567.511
312.409, 606.458
313.771, 676.131
315.133, 682.164
316.495, 743.948
317.856, 769.157
319.217, 836.233
320.578, 883.224
321.939, 951.422
323.299, 1066.436
324.660, 1255.373
326.020, 1404.086
327.380, 1626.217
328.739, 1818.418
330.099, 2151.821
331.458, 2381.350
332.817, 2584.920
334.176, 2641.895
335.534, 2751.530
336.892, 2685.447
338.251, 2521.166
339.608, 2332.722
340.966, 2214.073
342.323, 2026.190
343.681, 1941.063
345.037, 1824.753
346.394, 1744.304
347.751, 1712.730
349.107, 1718.056
350.463, 1696.285
351.819, 1790.421
353.174, 1858.484
354.530, 1988.480
355.885, 2190.419
357.240, 2365.308
358.594, 2696.156
359.949, 2911.967
361.303, 3144.746
362.657, 3321.493
364.011, 3393.205
365.365, 3370.880
366.718, 3207.516
368.071, 3122.713
369.424, 2886.165
370.777, 2743.551
372.129, 2687.770
373.481, 2660.963
374.833, 2741.665
376.185, 2820.305
377.537, 2999.631
378.888, 3211.456
380.239, 3374.314
381.590, 3629.408
382.941, 3776.118
384.291, 3787.203
385.642, 3796.125
386.992, 3624.910
388.341, 3449.640
389.691, 3015.618
391.040, 2710.315
392.389, 2353.495
393.738, 2035.096
395.087, 1677.092
396.435, 1428.659
397.784, 1209.667
399.132, 1040.817
400.479, 909.014
401.827, 738.772
403.174, 611.340
404.521, 639.027
405.868, 486.459
407.215, 492.438
408.561, 468.663
409.908, 385.410
411.254, 387.812
412.599, 345.104
413.945, 293.719
415.290, 268.103
416.636, 278.505
417.980, 249.117
419.325, 158.490
420.670, 158.884
422.014, 101.009
423.358, 96.808
424.702, 75.813
426.045, 63.596
427.389, 79.529
428.732, 28.608
430.075, 102.706
431.417, 64.071
432.760, 26.619
434.102, 102.128
435.444, 65.935
436.786, 50.672
438.127, 28.475
439.469, 30.280
440.810, 32.917
442.151, 20.857
443.492, 73.378
444.832, 42.920
446.172, 94.393
447.512, 86.958
448.852, 80.401
450.192, 28.151
451.531, 31.329
452.870, 102.135
454.209, 67.325
455.548, 114.539
456.887, 113.424
458.225, 56.678
459.563, 100.855
460.901, 70.755
462.238, 47.669
463.576, 56.886
464.913, 89.753
466.250, 85.083
467.587, 54.589
468.923, 14.299
470.259, 70.893
471.596, 32.474
472.931, 95.000
474.267, 92.512
475.603, 102.939
476.938, 87.380
478.273, 98.648
479.608, 133.042
480.942, 131.596
482.276, 166.786
483.611, 172.061
484.944, 207.280
486.278, 250.360
487.612, 303.925
488.945, 361.595
490.278, 464.606
491.611, 602.580
492.943, 738.547
494.276, 798.499
495.608, 845.430
496.940, 816.339
498.271, 780.228
499.603, 632.094
500.934, 566.943
502.265, 508.775
503.596, 425.585
504.927, 443.386
506.257, 385.168
507.587, 335.930
508.917, 374.674
510.247, 323.400
511.577, 349.108
512.906, 354.799
514.235, 332.472
515.564, 358.128
516.892, 362.767
518.221, 452.390
519.549, 450.996
520.877, 520.585
522.205, 556.159
523.533, 646.715
524.860, 758.256
526.187, 819.781
527.514, 923.289
528.841, 1185.783
530.167, 1284.262
531.493, 1572.727
532.820, 1879.176
534.145, 2284.612
535.471, 2625.035
536.796, 3155.446
538.122, 3635.845
539.447, 4080.249
540.771, 4505.631
542.096, 4679.007
543.420, 4636.455
544.744, 4479.857
546.068, 4214.286
547.392, 3940.734
548.715, 3638.265
550.039, 3239.809
551.362, 3101.209
552.684, 2717.865
554.007, 2444.414
555.329, 2259.868
556.652, 2073.523
557.973, 1932.600
559.295, 1760.096
560.617, 1628.400
561.938, 1515.655
563.259, 1397.083
564.580, 1329.121
565.901, 1267.837
567.221, 1208.606
568.541, 1072.346
569.861, 1032.270
571.181, 951.973
572.501, 879.618
573.820, 852.337
575.139, 780.031
576.458, 707.020
577.777, 710.120
579.095, 662.469
580.414, 593.678
581.732, 499.345
583.049, 527.400
584.367, 498.247
585.685, 425.275
587.002, 385.997
588.319, 334.662
589.636, 308.253
590.952, 270.252
592.268, 256.017
593.585, 238.881
594.900, 178.571
596.216, 192.111
597.532, 110.716
598.847, 114.896
600.162, 60.432
601.477, 69.949
602.792, 73.728
604.106, 41.216
605.420, 15.384
606.734, 3.753
608.048, 14.968
609.361, 40.606
610.675, 24.052
611.988, 15.474
613.301, 13.675
614.614, 123.692
615.926, 48.878
617.238, 54.331
618.550, 22.299
619.862, 26.625
621.174, 26.364
622.485, 21.413
623.797, 31.516
625.108, 11.296
626.418, 2.384
627.729, 9.529
629.039, 4.848
630.349, 10.136
631.659, 5.271
632.969, 18.470
634.279, 7.188
635.588, 44.891
636.897, 9.553
638.206, 6.278
639.515, 54.445
640.823, 30.239
642.131, 42.641
643.439, 71.809
644.747, 51.317
646.055, 81.546
647.362, 89.963
648.669, 131.856
649.976, 134.166
651.283, 157.821
652.589, 176.813
653.896, 168.814
655.202, 200.873
656.508, 164.807
657.814, 170.773
659.119, 237.857
660.424, 247.716
661.729, 350.049
663.034, 332.888
664.339, 356.715
665.643, 477.540
666.947, 522.346
668.251, 649.142
669.555, 714.928
670.859, 879.703
672.162, 1022.468
673.465, 1162.223
674.768, 1176.967
676.071, 1104.701
677.373, 1039.426
678.676, 892.140
679.978, 750.844
681.280, 661.539
682.581, 535.223
683.883, 431.898
685.184, 370.563
686.485, 279.218
687.786, 231.863
689.087, 172.499
690.387, 178.125
691.687, 118.742
692.987, 130.349
694.287, 86.947
695.586, 80.534
696.886, 85.113
698.185, 85.682
699.484, 63.242
700.783, 73.792
702.081, 66.332
703.379, 61.862
704.677, 41.381
705.975, 41.891
707.273, 77.389
708.570, 16.878
709.868, 42.354
711.165, 65.820
712.462, 18.277
713.758, 2.279
715.055, 62.149
716.351, 27.567
717.647, 10.973
718.943, 61.367
720.238, 0.751
721.533, 11.881
722.829, 19.467
724.124, 25.802
725.418, 4.125
726.713, 35.434
728.007, 48.732
729.301, 14.019
730.595, 6.294
731.889, 0.557
733.182, 3.701
734.476, 14.965
735.769, 11.246
737.061, 6.553
738.354, 5.633
739.647, 16.808
740.939, 2.976
742.231, 50.133
743.523, 12.283
744.814, 23.427
746.106, 46.562
747.397, 5.690
748.688, 34.810
749.978, 38.921
751.269, 69.027
752.559, 19.126
753.849, 2.781
755.139, 37.300
756.429, 28.230
757.719, 17.198
759.008, 67.179
760.297, 15.979
761.586, 9.733
762.875, 27.327
764.163, 8.700
765.451, 6.493
766.739, 39.393
768.027, 1.742
769.315, 13.110
770.602, 4.169
771.890, 11.580
773.177, 44.652
774.463, 17.324
775.750, 18.851
777.036, 4.633
778.323, 3.686
779.609, 4.262
780.894, 8.237
782.180, 4.053
783.465, 7.361
784.750, 9.920
786.035, 2.471
787.320, 4.051
788.605, 10.415
789.889, 31.170
791.173, 12.626
792.457, 36.246
793.741, 29.066
795.024, 10.558
796.307, 38.167
797.591, 4.242
798.873, 38.233
800.156, 33.830
801.439, 20.331
802.721, 28.818
804.003, 36.299
805.285, 7.806
806.566, 8.674
807.848, 5.147
809.129, 16.387
810.410, 12.063
811.691, 15.493
812.971, 18.064
814.252, 24.347
815.532, 40.247
816.812, 72.132
818.092, 23.506
819.371, 13.875
820.651, 48.238
821.930, 61.597
823.209, 36.950
824.488, 80.300
825.766, 62.644
827.045, 98.984
828.323, 91.319
829.601, 56.650
830.878, 110.976
832.156, 131.298
833.433, 118.616
834.710, 98.930
835.987, 146.240
837.264, 165.545
838.540, 172.847
839.817, 254.984
841.093, 245.028
842.369, 256.235
843.644, 275.018
844.920, 257.302
846.195, 284.582
847.470, 319.859
848.745, 358.133
850.020, 367.390
851.294, 376.658
852.568, 379.922
853.842, 446.106
855.116, 465.334
856.390, 512.530
857.663, 523.024
858.936, 510.798
860.209, 541.891
861.482, 527.133
862.755, 558.122
864.027, 567.217
865.299, 590.411
866.571, 581.406
867.843, 553.998
869.115, 626.178
870.386, 595.214
871.657, 576.182
872.928, 608.363
874.199, 564.089
875.470, 592.148
876.740, 569.175
878.010, 611.236
879.280, 555.121
880.550, 599.225
881.820, 603.388
883.089, 588.418
884.358, 602.381
885.627, 639.105
886.896, 630.480
888.164, 639.343
889.433, 653.549
890.701, 615.896
891.969, 644.846
893.236, 597.918
894.504, 641.764
895.771, 706.992
897.038, 605.064
898.305, 685.186
899.572, 626.408
900.838, 678.375
902.105, 746.559
903.371, 690.765
904.637, 739.110
905.902, 692.215
907.168, 755.795
908.433, 719.034
909.698, 739.240
910.963, 824.407
912.228, 785.743
913.492, 761.617
914.757, 803.766
916.021, 798.012
917.285, 859.161
918.548, 875.608
919.812, 939.174
921.075, 952.244
922.338, 993.142
923.601, 989.695
924.864, 1061.950
926.126, 1096.223
927.388, 1126.523
928.650, 1195.664
929.912, 1236.107
931.174, 1337.261
932.435, 1426.474
933.697, 1545.051
934.958, 1648.089
936.218, 1755.806
937.479, 1896.034
938.739, 2008.967
940.000, 2185.825
941.260, 2387.208
942.520, 2603.542
943.779, 2947.965
945.039, 3212.026
946.298, 3454.527
947.557, 3972.106
948.816, 4028.102
950.074, 4472.469
951.333, 4380.495
952.591, 4290.794
953.849, 4318.904
955.107, 4043.532
956.365, 4009.738
957.622, 3855.593
958.879, 3683.111
960.136, 3757.615
961.393, 3457.061
962.650, 3446.626
963.906, 3243.154
965.162, 3099.560
966.418, 3016.187
967.674, 2786.334
968.930, 2532.973
970.185, 2532.619
971.441, 2259.263
972.696, 2081.921
973.950, 1920.587
975.205, 1748.259
976.459, 1679.938
977.714, 1527.623
978.968, 1471.314
980.222, 1357.013
981.475, 1274.718
982.729, 1140.430
983.982, 1061.149
985.235, 1051.875
986.488, 981.607
987.740, 960.345
988.993, 856.092
990.245, 861.844
991.497, 760.604
992.749, 751.371
994.000, 739.145
995.252, 728.926
996.503, 648.714
997.754, 609.509
999.005, 627.310
1000.256, 558.119
1001.506, 553.935
1002.756, 529.758
1004.006, 531.588
1005.256, 535.425
1006.506, 542.270
1007.755, 505.123
1009.005, 508.984
1010.254, 483.853
1011.502, 507.731
1012.751, 556.616
1014.000, 515.509
1015.248, 521.410
1016.496, 521.320
1017.744, 493.243
1018.991, 552.171
1020.239, 487.163
1021.486, 534.106
1022.733, 561.505
1023.980, 565.945
1025.227, 562.770
1026.473, 544.253
1027.719, 582.524
1028.965, 575.627
1030.211, 627.640
1031.457, 627.661
1032.702, 606.452
1033.948, 640.634
1035.193, 698.678
1036.438, 660.048
1037.682, 720.114
1038.927, 739.195
1040.171, 681.289
1041.415, 685.388
1042.659, 650.495
1043.903, 704.501
1045.146, 649.001
1046.390, 548.131
1047.633, 615.279
1048.876, 557.425
1050.118, 546.440
1051.361, 560.644
1052.603, 507.346
1053.845, 538.985
1055.087, 530.430
1056.329, 492.667
1057.571, 505.782
1058.812, 464.984
1060.053, 471.772
1061.294, 402.560
1062.535, 397.595
1063.775, 406.964
1065.016, 396.279
1066.256, 412.598
1067.496, 448.835
1068.736, 399.194
1069.975, 416.314
1071.214, 473.619
1072.454, 409.114
1073.693, 426.481
1074.931, 404.333
1076.170, 361.783
1077.408, 395.156
1078.647, 372.736
1079.885, 433.090
1081.122, 438.450
1082.360, 365.915
1083.597, 407.289
1084.835, 388.451
1086.072, 403.841
1087.308, 413.306
1088.545, 399.757
1089.781, 383.184
1091.018, 388.599
1092.254, 376.197
1093.490, 424.719
1094.725, 397.415
1095.961, 412.997
1097.196, 441.775
1098.431, 394.296
1099.666, 400.109
1100.900, 477.707
1102.135, 457.998
1103.369, 431.524
1104.603, 421.062
1105.837, 420.688
1107.071, 473.039
1108.304, 480.028
1109.538, 504.075
1110.771, 475.704
1112.004, 532.320
1113.236, 522.902
1114.469, 475.492
1115.701, 601.084
1116.933, 559.693
1118.165, 566.373
1119.397, 594.055
1120.629, 612.667
1121.860, 564.281
1123.091, 661.896
1124.322, 629.513
1125.553, 651.132
1126.783, 699.783
1128.014, 671.450
1129.244, 684.092
1130.474, 735.716
1131.704, 704.342
1132.933, 717.969
1134.163, 643.597
1135.392, 669.226
1136.621, 651.882
1137.850, 575.513
1139.079, 514.171
1140.307, 489.878
1141.535, 456.511
1142.763, 356.203
1143.991, 314.837
1145.219, 236.471
1146.446, 219.106
1147.674, 170.741
1148.901, 179.376
1150.128, 165.011
1151.354, 100.647
1152.581, 87.350
1153.807, 33.047
1155.033, 56.682
1156.259, 33.675
1157.485, 31.309
1158.710, 30.149
1159.936, 23.831
1161.161, 13.464
1162.386, 27.141
1163.611, 7.897
1164.835, 0.538
1166.060, 39.171
1167.284, 3.068
1168.508, 29.675
1169.732, 12.696
1170.955, 13.003
1172.179, 19.150
1173.402, 45.455
1174.625, 25.659
1175.848, 4.049
1177.070, 5.585
1178.293, 5.345
1179.515, 48.019
1180.737, 4.447
1181.959, 9.085
1183.181, 39.811
1184.402, 6.737
1185.624, 10.652
1186.845, 2.200
1188.066, 11.700
1189.286, 25.236
1190.507, 15.269
1191.727, 22.678
1192.947, 23.813
1194.167, 5.278
1195.387, 32.356
1196.607, 13.186
1197.826, 1.262
1199.045, 7.295
1200.264, 37.861
1201.483, 18.451
1202.702, 2.324
1203.920, 28.286
1205.138, 43.235
1206.356, 6.399
1207.574, 21.971
1208.792, 9.633
1210.009, 1.694
1211.227, 13.292
1212.444, 4.376
1213.661, 27.322
1214.877, 28.860
1216.094, 24.559
1217.310, 16.713
1218.526, 2.219
1219.742, 8.960
1220.958, 2.752
1222.173, 5.512
1223.389, 10.262
1224.604, 2.948
1225.819, 33.131
1227.034, 42.323
1228.248, 8.513
1229.463, 72.897
1230.677, 4.940
1231.891, 30.316
1233.105, 13.464
1234.318, 18.606
1235.532, 26.760
1236.745, 31.889
1237.958, 8.064
1239.171, 13.194
1240.384, 6.339
1241.596, 11.439
1242.809, 5.298
1244.021, 25.653
1245.233, 11.272
1246.444, 14.788
1247.656, 2.147
1248.867, 51.908
1250.079, 42.007
1251.290, 19.209
1252.500, 1.752
1253.711, 4.698
1254.921, 3.827
1256.132, 25.423
1257.342, 29.419
1258.552, 55.410
1259.761, 71.394
1260.971, 41.370
1262.180, 40.340
1263.389, 24.304
1264.598, 24.474
1265.807, 57.352
1267.015, 53.295
1268.223, 50.230
1269.432, 51.253
1270.640, 46.075
1271.847, 36.986
1273.055, 33.888
1274.262, 40.783
1275.470, 48.669
1276.677, 61.542
1277.883, 62.404
1279.090, 63.258
1280.296, 58.102
1281.503, 40.938
1282.709, 52.763
1283.915, 41.577
1285.120, 30.414
1286.326, 73.212
1287.531, 35.001
1288.736, 81.817
1289.941, 55.587
1291.146, 64.348
1292.350, 64.100
1293.555, 51.842
1294.759, 96.672
1295.963, 53.399
1297.167, 35.118
1298.370, 36.899
1299.574, 70.601
1300.777, 14.289
1301.980, 56.967
1303.183, 21.637
1304.386, 41.299
1305.588, 80.952
1306.790, 42.596
1307.993, 29.094
1309.195, 52.777
1310.396, 61.390
1311.598, 29.003
1312.799, 30.551
1314.000, 1.147
1315.201, 38.289
1316.402, 21.388
1317.603, 33.103
1318.803, 20.164
1320.003, 41.436
1321.203, 34.878
1322.403, 20.410
1323.603, 33.932
1324.802, 40.683
1326.002, 57.044
1327.201, 4.543
1328.400, 37.718
1329.599, 7.200
1330.797, 36.672
1331.995, 51.131
1333.194, 38.588
1334.392, 67.039
1335.589, 23.589
1336.787, 40.648
1337.985, 62.076
1339.182, 1.485
1340.379, 61.896
1341.576, 50.437
1342.772, 53.791
1343.969, 55.651
1345.165, 46.554
1346.361, 3.652
1347.557, 46.957
1348.753, 13.386
1349.949, 61.750
1351.144, 23.506
1352.339, 52.263
1353.534, 41.771
1354.729, 32.951
1355.924, 30.508
1357.118, 43.419
1358.312, 6.733
1359.506, 23.929
1360.700, 24.375
1361.894, 0.361
1363.088, 4.280
1364.281, 16.933
1365.474, 19.662
1366.667, 27.373
1367.860, 27.032
1369.052, 39.060
1370.245, 28.319
1371.437, 27.577
1372.629, 0.736
1373.821, 53.994
1375.013, 8.848
1376.204, 42.182
1377.395, 36.439
1378.586, 27.521
1379.777, 55.445
1380.968, 19.805
1382.159, 28.986
1383.349, 23.465
1384.539, 48.128
1385.729, 22.681
1386.919, 28.118
1388.109, 57.619
1389.298, 60.042
1390.487, 26.313
1391.676, 26.674
1392.865, 15.018
1394.054, 1.190
1395.242, 26.506
1396.431, 56.808
1397.619, 3.059
1398.807, 37.258
1399.995, 62.514
1401.182, 28.756
1402.370, 49.952
1403.557, 83.132
1404.744, 32.238
1405.931, 51.347
1407.118, 6.512
1408.304, 19.662
1409.490, 40.796
1410.676, 31.749
1411.862, 60.388
1413.048, 61.377
1414.234, 32.198
1415.419, 65.017
1416.604, 58.025
1417.789, 38.696
1418.974, 55.201
1420.159, 29.715
1421.343, 25.347
1422.528, 55.952
1423.712, 67.772
1424.896, 28.912
1426.079, 82.230
1427.263, 16.124
1428.446, 75.012
1429.629, 36.764
1430.812, 12.748
1431.995, 83.674
1433.178, 41.597
1434.360, 75.935
1435.543, 63.644
1436.725, 0.486
1437.907, 33.469
1439.088, 48.364
1440.270, 3.050
1441.451, 51.959
1442.632, 43.596
1443.813, 45.408
1444.994, 85.367
1446.175, 23.378
1447.355, 69.960
1448.535, 60.772
1449.715, 16.224
1450.895, 5.740
1452.075, 89.602
1453.255, 95.522
1454.434, 42.438
1455.613, 55.448
1456.792, 32.405
1457.971, 60.884
1459.149, 40.825
1460.328, 47.440
1461.506, 26.368
1462.684, 59.285
1463.862, 50.191
1465.040, 56.726
1466.217, 74.601
1467.395, 81.479
1468.572, 80.969
1469.749, 76.350
1470.925, 72.139
1472.102, 50.065
1473.278, 39.006
1474.455, 22.882
1475.631, 24.850
1476.807, 33.724
1477.982, 28.728
1479.158, 27.431
1480.333, 45.447
1481.508, 30.217
1482.683, 51.285
1483.858, 29.359
1485.033, 17.451
1486.207, 41.843
1487.381, 25.822
1488.555, 52.800
1489.729, 36.785
1490.903, 10.784
1492.076, 56.793
1493.250, 42.813
1494.423, 64.851
1495.596, 68.899
1496.769, 27.956
1497.941, 49.022
1499.114, 31.097
1500.286, 98.187
1501.458, 32.295
1502.630, 31.410
1503.802, 61.627
1504.973, 28.031
1506.145, 61.285
1507.316, 38.791
1508.487, 44.370
1509.657, 33.041
1510.828, 44.827
1511.999, 65.766
1513.169, 31.881
1514.339, 64.220
1515.509, 1.183
1516.678, 16.755
1517.848, 21.141
1519.017, 33.824
1520.187, 0.000
##END=



