##NAMES=Aegirine
##RRUFFID=R050074
##IDEAL CHEMISTRY=NaFe^3+^Si_2_O_6_
##LOCALITY=Mt. Malosa, Zomba, Chilwa, Alkaline Area, Malawi
##OWNER=RRUFF
##SOURCE=Rock Currier
##DESCRIPTION=Black prismatic single crystal
##STATUS=The identification of this mineral has been confirmed by X-ray diffraction and chemical analysis
##URL=rruff.info/R050074
##MEASURED CHEMISTRY=(Na_0.98_Ca_0.02_)_Σ=1_(Fe^3+^_0.96_Ti_0.01_Mn_0.03_)_Σ=1_Si_2.00_O_6_
##PIN_ID=L00202
##ORIENTATION=Laser parallel to (1 0 1). Fiducial mark perpendicular to laser is parallel to -b [0 -1 0]
97.121, 0.000
98.519, 20.171
99.917, 42.871
101.314, 78.525
102.712, 5.210
104.109, 43.521
105.505, 6.495
106.902, 150.951
108.298, 162.677
109.694, 52.397
111.090, 6.471
112.486, 361.146
113.881, 310.790
115.277, 377.483
116.672, 758.219
118.066, 383.595
119.461, 276.032
120.855, 586.708
122.249, 418.905
123.643, 482.776
125.036, 517.804
126.430, 589.016
127.823, 526.752
129.216, 727.111
130.608, 906.138
132.001, 1181.876
133.393, 1123.428
134.785, 1127.285
136.176, 956.884
137.568, 836.878
138.959, 692.730
140.350, 558.540
141.741, 458.067
143.131, 311.252
144.521, 273.694
145.911, 176.350
147.301, 116.332
148.691, 119.780
150.080, 25.814
151.469, 53.539
152.858, 5.219
154.247, 45.566
155.635, 57.832
157.024, 62.780
158.411, 88.758
159.799, 176.696
161.187, 230.683
162.574, 266.801
163.961, 325.210
165.348, 333.778
166.734, 362.615
168.121, 354.515
169.507, 438.327
170.893, 573.684
172.278, 767.773
173.664, 1009.814
175.049, 1225.726
176.434, 1399.712
177.819, 1572.410
179.203, 1707.511
180.587, 1637.301
181.971, 1660.418
183.355, 1736.511
184.739, 2036.588
186.122, 2354.436
187.505, 2863.065
188.888, 3399.268
190.271, 3863.883
191.653, 4192.061
193.035, 4083.824
194.417, 3969.438
195.799, 3550.133
197.180, 3127.881
198.562, 2666.664
199.943, 2267.462
201.324, 1893.264
202.704, 1636.044
204.084, 1422.770
205.465, 1256.403
206.844, 1264.911
208.224, 1080.252
209.603, 1183.425
210.983, 1254.444
212.362, 1223.336
213.740, 1163.105
215.119, 1098.737
216.497, 840.213
217.875, 687.550
219.253, 495.780
220.631, 333.912
222.008, 253.943
223.385, 122.872
224.762, 73.698
226.139, 12.782
227.515, 61.959
228.891, 69.438
230.267, 67.017
231.643, 114.692
233.018, 79.463
234.394, 80.329
235.769, 97.287
237.144, 57.337
238.518, 58.468
239.893, 65.727
241.267, 38.065
242.641, 51.567
244.014, 71.255
245.388, 5.804
246.761, 62.541
248.134, 19.934
249.507, 33.008
250.879, 18.792
252.252, 7.692
253.624, 12.569
254.996, 21.363
256.367, 25.551
257.739, 18.694
259.110, 58.895
260.481, 58.326
261.852, 72.070
263.222, 52.549
264.592, 92.913
265.962, 86.428
267.332, 182.556
268.702, 190.052
270.071, 205.732
271.440, 287.704
272.809, 304.027
274.178, 337.836
275.546, 364.681
276.915, 417.091
278.283, 554.103
279.650, 548.538
281.018, 615.512
282.385, 706.886
283.752, 697.034
285.119, 829.404
286.486, 917.585
287.852, 1076.356
289.218, 1123.276
290.584, 1159.819
291.950, 1336.699
293.316, 1350.920
294.681, 1367.062
296.046, 1328.727
297.411, 1352.018
298.775, 1309.062
300.140, 1251.876
301.504, 1261.392
302.868, 1262.710
304.231, 1264.817
305.595, 1256.161
306.958, 1372.836
308.321, 1390.719
309.684, 1379.257
311.047, 1500.744
312.409, 1506.375
313.771, 1626.770
315.133, 1583.283
316.495, 1744.026
317.856, 1858.925
319.217, 2031.074
320.578, 2160.308
321.939, 2408.470
323.299, 2621.870
324.660, 2914.084
326.020, 3372.428
327.380, 3842.498
328.739, 4506.357
330.099, 5128.524
331.458, 5901.239
332.817, 6634.331
334.176, 7370.623
335.534, 7975.309
336.892, 8290.596
338.251, 8236.692
339.608, 7933.090
340.966, 7509.308
342.323, 6985.361
343.681, 6635.293
345.037, 6155.105
346.394, 5909.805
347.751, 5385.411
349.107, 5183.931
350.463, 4696.373
351.819, 4398.743
353.174, 3961.054
354.530, 3605.308
355.885, 3343.512
357.240, 3257.678
358.594, 3125.806
359.949, 3169.895
361.303, 3109.943
362.657, 3250.954
364.011, 3351.924
365.365, 3422.855
366.718, 3453.747
368.071, 3580.599
369.424, 3648.412
370.777, 3839.187
372.129, 3893.863
373.481, 4082.562
374.833, 4388.225
376.185, 4689.850
377.537, 5178.442
378.888, 5791.998
380.239, 6352.535
381.590, 7009.415
382.941, 7681.471
384.291, 8082.432
385.642, 8322.719
386.992, 8201.436
388.341, 7889.266
389.691, 7255.060
391.040, 6601.295
392.389, 5885.122
393.738, 5043.167
395.087, 4294.283
396.435, 3698.676
397.784, 3165.080
399.132, 2587.484
400.479, 2222.463
401.827, 1995.438
403.174, 1681.027
404.521, 1451.419
405.868, 1321.032
407.215, 1307.479
408.561, 1144.078
409.908, 1088.948
411.254, 983.086
412.599, 886.679
413.945, 844.928
415.290, 813.870
416.636, 742.057
417.980, 645.339
419.325, 560.087
420.670, 481.746
422.014, 413.257
423.358, 369.813
424.702, 382.628
426.045, 247.060
427.389, 279.959
428.732, 206.698
430.075, 168.359
431.417, 219.997
432.760, 216.691
434.102, 167.003
435.444, 176.373
436.786, 174.870
438.127, 162.406
439.469, 148.093
440.810, 104.293
442.151, 114.947
443.492, 163.721
444.832, 128.368
446.172, 132.908
447.512, 158.961
448.852, 142.344
450.192, 223.951
451.531, 187.795
452.870, 236.559
454.209, 274.033
455.548, 231.655
456.887, 268.660
458.225, 276.063
459.563, 252.632
460.901, 238.342
462.238, 255.024
463.576, 250.581
464.913, 250.169
466.250, 245.833
467.587, 244.954
468.923, 229.647
470.259, 214.902
471.596, 213.480
472.931, 214.883
474.267, 226.347
475.603, 219.750
476.938, 278.195
478.273, 314.647
479.608, 317.961
480.942, 292.237
482.276, 355.448
483.611, 423.548
484.944, 505.584
486.278, 514.594
487.612, 653.591
488.945, 812.586
490.278, 1065.576
491.611, 1331.576
492.943, 1742.583
494.276, 1967.593
495.608, 2241.601
496.940, 2400.601
498.271, 2240.593
499.603, 2165.571
500.934, 1954.534
502.265, 1685.481
503.596, 1425.414
504.927, 1281.333
506.257, 1161.237
507.587, 1059.129
508.917, 1029.008
510.247, 926.874
511.577, 939.728
512.906, 942.569
514.235, 930.398
515.564, 923.216
516.892, 998.021
518.221, 1060.816
519.549, 1162.598
520.877, 1285.369
522.205, 1415.129
523.533, 1546.877
524.860, 1759.615
526.187, 1961.341
527.514, 2262.056
528.841, 2756.760
530.167, 3111.454
531.493, 3720.138
532.820, 4436.810
534.145, 5451.473
535.471, 6537.125
536.796, 7843.766
538.122, 9345.398
539.447, 10927.020
540.771, 12298.633
542.096, 13400.245
543.420, 13811.857
544.744, 13943.473
546.068, 13065.253
547.392, 12366.900
548.715, 11328.821
550.039, 10040.680
551.362, 9452.515
552.684, 8454.562
554.007, 7816.588
555.329, 7268.629
556.652, 6822.765
557.973, 6483.986
559.295, 6211.385
560.617, 5982.784
561.938, 5772.435
563.259, 5291.913
564.580, 5029.245
565.901, 4607.894
567.221, 4276.575
568.541, 3797.263
569.861, 3498.026
571.181, 3232.715
572.501, 3005.471
573.820, 2652.212
575.139, 2437.021
576.458, 2241.757
577.777, 2090.552
579.095, 1932.254
580.414, 1764.775
581.732, 1633.468
583.049, 1473.610
584.367, 1412.292
585.685, 1263.276
587.002, 1150.839
588.319, 1036.806
589.636, 929.177
590.952, 848.656
592.268, 731.719
593.585, 681.630
594.900, 562.538
596.216, 435.660
597.532, 409.573
598.847, 382.533
600.162, 278.315
601.477, 188.078
602.792, 172.965
604.106, 133.686
605.420, 109.224
606.734, 118.777
608.048, 66.345
609.361, 3.741
610.675, 10.524
611.988, 73.221
613.301, 31.461
614.614, 21.067
615.926, 60.530
617.238, 14.354
618.550, 9.070
619.862, 7.913
621.174, 2.713
622.485, 3.376
623.797, 17.638
625.108, 28.310
626.418, 13.259
627.729, 37.064
629.039, 4.596
630.349, 30.455
631.659, 16.856
632.969, 32.737
634.279, 24.319
635.588, 24.577
636.897, 58.167
638.206, 72.871
639.515, 91.782
640.823, 116.385
642.131, 129.265
643.439, 167.581
644.747, 194.113
646.055, 212.885
647.362, 201.666
648.669, 244.459
649.976, 259.216
651.283, 302.156
652.589, 335.222
653.896, 312.496
655.202, 380.183
656.508, 381.371
657.814, 440.598
659.119, 472.701
660.424, 477.792
661.729, 597.871
663.034, 668.938
664.339, 711.993
665.643, 903.037
666.947, 1039.068
668.251, 1209.088
669.555, 1454.097
670.859, 1809.093
672.162, 2045.077
673.465, 2262.050
674.768, 2590.011
676.071, 2662.959
677.373, 2586.896
678.676, 2461.822
679.978, 2202.735
681.280, 1907.637
682.581, 1577.526
683.883, 1322.404
685.184, 1051.270
686.485, 817.124
687.786, 682.967
689.087, 483.797
690.387, 465.616
691.687, 345.423
692.987, 292.218
694.287, 241.001
695.586, 184.772
696.886, 171.532
698.185, 233.280
699.484, 136.016
700.783, 160.740
702.081, 85.453
703.379, 120.152
704.677, 57.839
705.975, 79.511
707.273, 94.169
708.570, 54.815
709.868, 70.445
711.165, 80.060
712.462, 68.661
713.758, 59.246
715.055, 28.816
716.351, 38.368
717.647, 3.904
718.943, 38.419
720.238, 81.917
721.533, 14.400
722.829, 16.864
724.124, 20.310
725.418, 7.737
726.713, 27.144
728.007, 14.533
729.301, 22.155
730.595, 10.918
731.889, 32.588
733.182, 11.098
734.476, 8.812
735.769, 4.555
737.061, 25.676
738.354, 2.111
739.647, 12.078
740.939, 51.247
742.231, 14.597
743.523, 28.530
744.814, 21.641
746.106, 11.261
747.397, 21.190
748.688, 21.849
749.978, 35.874
751.269, 9.884
752.559, 28.324
753.849, 43.143
755.139, 13.794
756.429, 6.284
757.719, 22.386
759.008, 54.479
760.297, 67.668
761.586, 65.871
762.875, 17.129
764.163, 58.540
765.451, 1.277
766.739, 44.007
768.027, 35.529
769.315, 12.728
770.602, 13.536
771.890, 28.115
773.177, 8.002
774.463, 53.093
775.750, 43.231
777.036, 31.312
778.323, 45.492
779.609, 21.941
780.894, 51.657
782.180, 71.135
783.465, 61.240
784.750, 86.730
786.035, 44.109
787.320, 51.597
788.605, 30.076
789.889, 37.631
791.173, 8.233
792.457, 61.721
793.741, 48.213
795.024, 8.319
796.307, 2.939
797.591, 57.405
798.873, 10.231
800.156, 32.150
801.439, 15.566
802.721, 67.011
804.003, 50.508
805.285, 20.050
806.566, 4.620
807.848, 18.788
809.129, 1.183
810.410, 30.560
811.691, 16.926
812.971, 44.279
814.252, 80.621
815.532, 38.951
816.812, 58.272
818.092, 76.582
819.371, 81.881
820.651, 114.170
821.930, 124.448
823.209, 107.717
824.488, 124.975
825.766, 158.224
827.045, 200.463
828.323, 227.693
829.601, 232.913
830.878, 274.124
832.156, 319.325
833.433, 340.107
834.710, 441.702
835.987, 388.876
837.264, 432.043
838.540, 426.201
839.817, 518.350
841.093, 598.491
842.369, 596.624
843.644, 700.749
844.920, 762.866
846.195, 855.976
847.470, 1000.078
848.745, 1065.172
850.020, 1120.259
851.294, 1295.340
852.568, 1298.412
853.842, 1448.478
855.116, 1663.538
856.390, 1754.435
857.663, 1902.472
858.936, 1961.246
860.209, 2114.106
861.482, 2331.024
862.755, 2496.773
864.027, 2693.585
865.299, 2771.435
866.571, 2937.235
867.843, 2857.994
869.115, 2825.627
870.386, 2806.296
871.657, 2641.756
872.928, 2510.434
874.199, 2404.302
875.470, 2217.885
876.740, 2052.480
878.010, 1942.095
879.280, 1797.943
880.550, 1707.616
881.820, 1603.902
883.089, 1558.547
884.358, 1540.147
885.627, 1502.841
886.896, 1448.506
888.164, 1375.289
889.433, 1377.278
890.701, 1319.976
891.969, 1273.084
893.236, 1313.756
894.504, 1251.599
895.771, 1289.042
897.038, 1282.806
898.305, 1294.556
899.572, 1252.166
900.838, 1169.228
902.105, 1314.005
903.371, 1240.846
904.637, 1305.490
905.902, 1360.310
907.168, 1309.041
908.433, 1310.781
909.698, 1341.601
910.963, 1360.519
912.228, 1426.479
913.492, 1384.656
914.757, 1470.940
916.021, 1534.161
917.285, 1551.918
918.548, 1680.031
919.812, 1699.018
921.075, 1631.870
922.338, 1805.650
923.601, 1820.469
924.864, 1901.111
926.126, 1970.913
927.388, 2004.088
928.650, 2134.878
929.912, 2170.375
931.174, 2383.053
932.435, 2536.134
933.697, 2568.503
934.958, 2801.672
936.218, 2933.512
937.479, 3228.776
938.739, 3467.706
940.000, 3703.217
941.260, 4159.013
942.520, 4496.387
943.779, 5024.480
945.039, 5596.469
946.298, 6073.313
947.557, 7038.348
948.816, 7460.165
950.074, 8015.547
951.333, 8444.711
952.591, 8611.636
953.849, 8449.555
955.107, 8194.461
956.365, 7870.404
957.622, 7788.165
958.879, 7546.802
960.136, 7526.228
961.393, 7425.245
962.650, 7544.760
963.906, 7484.238
965.162, 7803.842
966.418, 7943.458
967.674, 8313.088
968.930, 8552.733
970.185, 8942.390
971.441, 9122.062
972.696, 8691.748
973.950, 8201.445
975.205, 7311.157
976.459, 6603.883
977.714, 5710.623
978.968, 5074.380
980.222, 4599.151
981.475, 4262.938
982.729, 3799.741
983.982, 3573.559
985.235, 3365.391
986.488, 3120.237
987.740, 2947.098
988.993, 2682.973
990.245, 2548.862
991.497, 2217.767
992.749, 2152.687
994.000, 1992.619
995.252, 1802.568
996.503, 1744.533
997.754, 1643.513
999.005, 1564.508
1000.256, 1429.518
1001.506, 1308.542
1002.756, 1278.581
1004.006, 1223.636
1005.256, 1156.705
1006.506, 1148.789
1007.755, 1076.889
1009.005, 1008.003
1010.254, 1091.135
1011.502, 1039.282
1012.751, 1122.445
1014.000, 1067.671
1015.248, 1091.125
1016.496, 1142.338
1017.744, 1062.757
1018.991, 1139.669
1020.239, 1140.934
1021.486, 1203.915
1022.733, 1291.958
1023.980, 1300.415
1025.227, 1371.747
1026.473, 1480.776
1027.719, 1606.850
1028.965, 1709.378
1030.211, 1863.399
1031.457, 2004.726
1032.702, 2247.788
1033.948, 2524.742
1035.193, 2852.888
1036.438, 3188.608
1037.682, 3548.479
1038.927, 3970.518
1040.171, 4462.669
1041.415, 4739.265
1042.659, 4984.445
1043.903, 4954.293
1045.146, 4444.459
1046.390, 3934.428
1047.633, 3371.849
1048.876, 2842.637
1050.118, 2482.152
1051.361, 2103.982
1052.603, 1894.118
1053.845, 1678.847
1055.087, 1533.598
1056.329, 1306.361
1057.571, 1251.293
1058.812, 1120.607
1060.053, 1143.995
1061.294, 981.074
1062.535, 902.937
1063.775, 880.066
1065.016, 831.385
1066.256, 799.603
1067.496, 797.473
1068.736, 759.475
1069.975, 744.953
1071.214, 732.758
1072.454, 708.825
1073.693, 702.756
1074.931, 692.915
1076.170, 669.842
1077.408, 660.286
1078.647, 620.884
1079.885, 622.083
1081.122, 630.384
1082.360, 601.152
1083.597, 595.483
1084.835, 646.789
1086.072, 619.387
1087.308, 621.776
1088.545, 575.194
1089.781, 623.732
1091.018, 618.360
1092.254, 604.873
1093.490, 611.522
1094.725, 587.103
1095.961, 643.553
1097.196, 676.407
1098.431, 604.980
1099.666, 643.591
1100.900, 716.379
1102.135, 615.008
1103.369, 733.654
1104.603, 704.327
1105.837, 702.398
1107.071, 786.156
1108.304, 752.881
1109.538, 834.709
1110.771, 745.499
1112.004, 785.296
1113.236, 845.175
1114.469, 816.957
1115.701, 856.948
1116.933, 892.827
1118.165, 900.006
1119.397, 965.827
1120.629, 958.678
1121.860, 973.507
1123.091, 1037.399
1124.322, 1082.215
1125.553, 1059.166
1126.783, 1135.078
1128.014, 1118.944
1129.244, 1135.117
1130.474, 1228.620
1131.704, 1123.465
1132.933, 1142.650
1134.163, 1135.503
1135.392, 1053.421
1136.621, 1171.446
1137.850, 1015.312
1139.079, 999.536
1140.307, 932.446
1141.535, 763.322
1142.763, 738.266
1143.991, 605.779
1145.219, 499.735
1146.446, 427.750
1147.674, 305.742
1148.901, 309.670
1150.128, 226.647
1151.354, 159.607
1152.581, 155.570
1153.807, 57.520
1155.033, 72.496
1156.259, 55.467
1157.485, 24.547
1158.710, 47.544
1159.936, 65.582
1161.161, 2.240
1162.386, 12.234
1163.611, 8.755
1164.835, 9.309
1166.060, 22.018
1167.284, 16.250
1168.508, 21.799
1169.732, 40.648
1170.955, 46.757
1172.179, 14.419
1173.402, 19.287
1174.625, 37.340
1175.848, 5.431
1177.070, 34.570
1178.293, 21.750
1179.515, 49.726
1180.737, 12.808
1181.959, 15.791
1183.181, 24.894
1184.402, 42.803
1185.624, 11.098
1186.845, 45.349
1188.066, 35.620
1189.286, 75.830
1190.507, 21.589
1191.727, 41.963
1192.947, 4.745
1194.167, 44.192
1195.387, 33.260
1196.607, 11.674
1197.826, 16.186
1199.045, 3.578
1200.264, 12.965
1201.483, 21.666
1202.702, 21.406
1203.920, 9.921
1205.138, 26.405
1206.356, 2.904
1207.574, 29.448
1208.792, 17.497
1210.009, 4.167
1211.227, 30.301
1212.444, 27.854
1213.661, 37.231
1214.877, 43.963
1216.094, 21.754
1217.310, 9.298
1218.526, 29.997
1219.742, 18.234
1220.958, 17.115
1222.173, 0.672
1223.389, 3.511
1224.604, 14.680
1225.819, 33.839
1227.034, 19.990
1228.248, 9.868
1229.463, 23.252
1230.677, 41.364
1231.891, 14.466
1233.105, 35.591
1234.318, 36.037
1235.532, 23.108
1236.745, 20.284
1237.958, 33.332
1239.171, 30.886
1240.384, 35.155
1241.596, 6.145
1242.809, 21.796
1244.021, 57.763
1245.233, 50.824
1246.444, 28.819
1247.656, 69.756
1248.867, 79.773
1250.079, 72.690
1251.290, 23.656
1252.500, 48.558
1253.711, 65.440
1254.921, 40.311
1256.132, 51.164
1257.342, 52.002
1258.552, 39.827
1259.761, 60.639
1260.971, 35.482
1262.180, 44.309
1263.389, 29.082
1264.598, 60.837
1265.807, 57.269
1267.015, 65.078
1268.223, 51.805
1269.432, 104.506
1270.640, 47.192
1271.847, 13.883
1273.055, 66.534
1274.262, 37.171
1275.470, 25.789
1276.677, 82.387
1277.883, 38.970
1279.090, 80.594
1280.296, 65.144
1281.503, 50.794
1282.709, 96.311
1283.915, 40.809
1285.120, 73.292
1286.326, 100.760
1287.531, 68.209
1288.736, 31.641
1289.941, 68.052
1291.146, 58.449
1292.350, 61.829
1293.555, 78.193
1294.759, 67.858
1295.963, 72.870
1297.167, 73.182
1298.370, 77.478
1299.574, 72.073
1300.777, 74.030
1301.980, 59.269
1303.183, 69.500
1304.386, 63.717
1305.588, 53.920
1306.790, 69.062
1307.993, 72.978
1309.195, 86.134
1310.396, 48.084
1311.598, 48.519
1312.799, 80.702
1314.000, 55.064
1315.201, 87.367
1316.402, 48.257
1317.603, 42.271
1318.803, 65.591
1320.003, 68.867
1321.203, 79.689
1322.403, 84.118
1323.603, 51.145
1324.802, 55.427
1326.002, 46.819
1327.201, 55.020
1328.400, 39.646
1329.599, 102.128
1330.797, 70.446
1331.995, 66.678
1333.194, 49.442
1334.392, 18.626
1335.589, 65.142
1336.787, 15.341
1337.985, 86.742
1339.182, 22.692
1340.379, 47.275
1341.576, 78.136
1342.772, 37.690
1343.969, 35.939
1345.165, 32.595
1346.361, 53.229
1347.557, 34.850
1348.753, 30.456
1349.949, 49.048
1351.144, 29.418
1352.339, 11.751
1353.534, 24.300
1354.729, 33.605
1355.924, 38.740
1357.118, 61.984
1358.312, 23.612
1359.506, 61.097
1360.700, 22.595
1361.894, 41.833
1363.088, 5.284
1364.281, 24.874
1365.474, 50.247
1366.667, 59.861
1367.860, 58.696
1369.052, 71.956
1370.245, 67.668
1371.437, 71.925
1372.629, 57.879
1373.821, 67.191
1375.013, 59.578
1376.204, 43.674
1377.395, 8.958
1378.586, 65.238
1379.777, 26.362
1380.968, 73.357
1382.159, 33.937
1383.349, 38.957
1384.539, 56.488
1385.729, 0.906
1386.919, 63.867
1388.109, 25.221
1389.298, 37.889
1390.487, 61.428
1391.676, 27.908
1392.865, 54.280
1394.054, 34.336
1395.242, 46.807
1396.431, 95.221
1397.619, 55.577
1398.807, 86.769
1399.995, 59.047
1401.182, 66.049
1402.370, 77.338
1403.557, 36.473
1404.744, 36.299
1405.931, 52.483
1407.118, 94.855
1408.304, 3.236
1409.490, 25.775
1410.676, 41.740
1411.862, 86.677
1413.048, 62.424
1414.234, 39.159
1415.419, 68.663
1416.604, 115.469
1417.789, 57.373
1418.974, 76.237
1420.159, 80.258
1421.343, 25.371
1422.528, 68.062
1423.712, 14.571
1424.896, 86.853
1426.079, 49.975
1427.263, 48.779
1428.446, 75.384
1429.629, 91.317
1430.812, 53.276
1431.995, 57.495
1433.178, 84.274
1434.360, 43.732
1435.543, 53.362
1436.725, 36.833
1437.907, 67.462
1439.088, 77.636
1440.270, 49.408
1441.451, 84.032
1442.632, 86.580
1443.813, 69.359
1444.994, 41.318
1446.175, 91.306
1447.355, 104.280
1448.535, 45.257
1449.715, 63.154
1450.895, 38.382
1452.075, 68.074
1453.255, 38.321
1454.434, 1.762
1455.613, 94.324
1456.792, 33.969
1457.971, 53.484
1459.149, 92.009
1460.328, 29.658
1461.506, 63.309
1462.684, 40.947
1463.862, 0.357
1465.040, 80.953
1466.217, 19.598
1467.395, 47.089
1468.572, 41.547
1469.749, 34.043
1470.925, 77.549
1472.102, 53.889
1473.278, 9.057
1474.455, 33.559
1475.631, 43.054
1476.807, 28.566
1477.982, 79.086
1479.158, 26.599
1480.333, 17.120
1481.508, 52.656
1482.683, 40.181
1483.858, 51.717
1485.033, 88.220
1486.207, 53.687
1487.381, 61.145
1488.555, 27.361
1489.729, 28.020
1490.903, 19.681
1492.076, 25.339
1493.250, 52.514
1494.423, 19.198
1495.596, 48.936
1496.769, 42.690
1497.941, 70.331
1499.114, 6.141
1500.286, 35.976
1501.458, 27.836
1502.630, 21.728
1503.802, 39.655
1504.973, 20.634
1506.145, 50.687
1507.316, 40.789
1508.487, 56.995
1509.657, 34.272
1510.828, 48.449
1511.999, 55.900
1513.169, 3.532
1514.339, 69.176
1515.509, 11.045
1516.678, 70.122
1517.848, 24.797
1519.017, 2.283
1520.187, 31.038
1521.356, 0.000
##END=



