##NAMES=Aegirine
##RRUFFID=R050074
##IDEAL CHEMISTRY=NaFe^3+^Si_2_O_6_
##LOCALITY=Mt. Malosa, Zomba, Chilwa, Alkaline Area, Malawi
##OWNER=RRUFF
##SOURCE=Rock Currier
##DESCRIPTION=Black prismatic single crystal
##STATUS=The identification of this mineral has been confirmed by X-ray diffraction and chemical analysis
##URL=rruff.info/R050074
##MEASURED CHEMISTRY=(Na_0.98_Ca_0.02_)_Σ=1_(Fe^3+^_0.96_Ti_0.01_Mn_0.03_)_Σ=1_Si_2.00_O_6_
##PIN_ID=L00202
##ORIENTATION=Laser parallel to (1 0 1). Fiducial mark perpendicular to laser is parallel to -b [0 -1 0]
104.109, 0.000
105.505, 1.799
106.902, 103.929
108.298, 148.942
109.694, 162.481
111.090, 114.345
112.486, 246.601
113.881, 524.294
115.277, 439.498
116.672, 376.425
118.066, 240.689
119.461, 264.082
120.855, 156.598
122.249, 208.251
123.643, 204.428
125.036, 206.905
126.430, 287.587
127.823, 483.094
129.216, 628.589
130.608, 861.372
132.001, 1136.595
133.393, 1250.748
134.785, 1263.712
136.176, 1307.336
137.568, 1086.412
138.959, 968.967
140.350, 689.650
141.741, 529.519
143.131, 401.853
144.521, 274.552
145.911, 223.928
147.301, 177.617
148.691, 86.856
150.080, 65.946
151.469, 50.878
152.858, 51.763
154.247, 149.694
155.635, 141.747
157.024, 259.988
158.411, 249.468
159.799, 301.233
161.187, 225.325
162.574, 279.773
163.961, 118.605
165.348, 32.740
166.734, 61.451
168.121, 90.881
169.507, 33.061
170.893, 54.538
172.278, 223.051
173.664, 412.679
175.049, 618.698
176.434, 770.896
177.819, 893.924
179.203, 940.984
180.587, 864.255
181.971, 730.766
183.355, 564.952
184.739, 502.169
186.122, 421.628
187.505, 527.056
188.888, 673.578
190.271, 709.987
191.653, 855.598
193.035, 913.882
194.417, 883.142
195.799, 1064.337
197.180, 967.699
198.562, 1133.196
199.943, 1282.787
201.324, 1525.445
202.704, 1811.145
204.084, 2182.858
205.465, 2567.565
206.844, 3248.253
208.224, 3913.893
209.603, 4473.448
210.983, 4985.882
212.362, 5108.191
213.740, 4984.399
215.119, 4372.514
216.497, 3696.531
217.875, 2936.417
219.253, 2386.026
220.631, 1732.383
222.008, 1280.613
223.385, 1014.757
224.762, 770.826
226.139, 499.812
227.515, 341.691
228.891, 338.448
230.267, 204.101
231.643, 139.667
233.018, 113.147
234.394, 32.544
235.769, 3.141
237.144, 50.908
238.518, 55.757
239.893, 14.685
241.267, 10.306
242.641, 56.781
244.014, 14.948
245.388, 30.192
246.761, 14.514
248.134, 11.081
249.507, 40.435
250.879, 33.078
252.252, 16.130
253.624, 20.866
254.996, 45.099
256.367, 21.528
257.739, 19.836
259.110, 31.132
260.481, 5.829
261.852, 63.720
263.222, 16.418
264.592, 36.494
265.962, 97.883
267.332, 43.781
268.702, 114.363
270.071, 83.304
271.440, 134.005
272.809, 228.379
274.178, 233.366
275.546, 276.440
276.915, 353.721
278.283, 378.004
279.650, 394.859
281.018, 526.152
282.385, 593.822
283.752, 610.143
285.119, 749.220
286.486, 857.569
287.852, 1045.949
289.218, 1082.430
290.584, 1204.871
291.950, 1328.157
293.316, 1313.976
294.681, 1289.418
296.046, 1207.500
297.411, 1129.131
298.775, 1021.530
300.140, 983.354
301.504, 968.709
302.868, 913.420
304.231, 863.135
305.595, 936.523
306.958, 991.726
308.321, 1048.443
309.684, 1033.303
311.047, 993.768
312.409, 1033.441
313.771, 1009.969
315.133, 894.969
316.495, 961.402
317.856, 903.762
319.217, 843.213
320.578, 890.350
321.939, 972.245
323.299, 945.761
324.660, 1050.390
326.020, 1134.375
327.380, 1285.705
328.739, 1446.469
330.099, 1801.603
331.458, 2124.318
332.817, 2450.027
334.176, 2848.153
335.534, 3228.746
336.892, 3677.009
338.251, 3889.148
339.608, 4115.856
340.966, 4247.972
342.323, 4315.976
343.681, 4518.814
345.037, 4534.463
346.394, 4597.486
347.751, 4322.674
349.107, 4155.467
350.463, 3644.815
351.819, 3316.511
353.174, 2972.742
354.530, 2639.065
355.885, 2448.932
357.240, 2383.740
358.594, 2299.497
359.949, 2480.210
361.303, 2578.880
362.657, 2837.506
364.011, 3047.087
365.365, 3123.622
366.718, 3279.113
368.071, 3243.556
369.424, 3255.954
370.777, 3229.306
372.129, 3193.613
373.481, 3145.874
374.833, 3286.089
376.185, 3369.259
377.537, 3673.385
378.888, 4062.468
380.239, 4366.506
381.590, 4799.501
382.941, 5269.456
384.291, 5594.370
385.642, 5789.242
386.992, 5742.076
388.341, 5475.708
389.691, 4954.177
391.040, 4507.952
392.389, 3950.686
393.738, 3356.371
395.087, 2885.434
396.435, 2411.152
397.784, 1945.474
399.132, 1638.226
400.479, 1374.998
401.827, 1231.482
403.174, 917.562
404.521, 842.153
405.868, 756.628
407.215, 697.748
408.561, 584.932
409.908, 506.118
411.254, 473.832
412.599, 407.432
413.945, 408.510
415.290, 392.457
416.636, 316.343
417.980, 263.729
419.325, 182.617
420.670, 179.719
422.014, 119.083
423.358, 110.727
424.702, 57.644
426.045, 16.693
427.389, 7.156
428.732, 29.459
430.075, 4.021
431.417, 18.114
432.760, 8.461
434.102, 13.874
435.444, 18.975
436.786, 15.983
438.127, 13.221
439.469, 15.349
440.810, 13.918
442.151, 6.214
443.492, 18.340
444.832, 9.391
446.172, 3.579
447.512, 16.947
448.852, 11.604
450.192, 43.863
451.531, 0.639
452.870, 87.813
454.209, 160.382
455.548, 150.968
456.887, 158.548
458.225, 198.980
459.563, 189.382
460.901, 244.055
462.238, 205.456
463.576, 264.118
464.913, 209.625
466.250, 250.898
467.587, 202.314
468.923, 143.560
470.259, 171.388
471.596, 125.128
472.931, 174.240
474.267, 166.431
475.603, 167.573
476.938, 191.336
478.273, 175.767
479.608, 221.976
480.942, 243.014
482.276, 271.920
483.611, 310.808
484.944, 354.519
486.278, 414.090
487.612, 453.808
488.945, 632.503
490.278, 747.082
491.611, 1011.445
492.943, 1261.047
494.276, 1458.520
495.608, 1652.960
496.940, 1704.493
498.271, 1787.421
499.603, 1678.614
500.934, 1528.783
502.265, 1383.918
503.596, 1132.018
504.927, 1021.082
506.257, 880.114
507.587, 857.115
508.917, 845.087
510.247, 744.033
511.577, 720.953
512.906, 731.847
514.235, 645.712
515.564, 700.548
516.892, 758.353
518.221, 803.125
519.549, 844.866
520.877, 937.575
522.205, 1097.253
523.533, 1152.900
524.860, 1367.516
526.187, 1521.101
527.514, 1769.654
528.841, 2062.176
530.167, 2274.668
531.493, 2756.129
532.820, 3232.559
534.145, 3946.959
535.471, 4749.330
536.796, 5867.770
538.122, 7019.206
539.447, 8291.604
540.771, 9394.113
542.096, 10576.574
543.420, 10858.994
544.744, 11051.435
546.068, 10523.825
547.392, 9846.175
548.715, 9088.502
550.039, 8041.007
551.362, 7663.322
552.684, 6935.953
554.007, 6561.444
555.329, 6295.675
556.652, 6083.804
557.973, 5948.119
559.295, 5899.484
560.617, 5811.910
561.938, 5716.286
563.259, 5270.926
564.580, 5015.407
565.901, 4586.829
567.221, 4202.976
568.541, 3785.330
569.861, 3481.432
571.181, 3184.685
572.501, 3014.603
573.820, 2622.227
575.139, 2470.257
576.458, 2207.143
577.777, 2077.651
579.095, 1885.645
580.414, 1758.796
581.732, 1610.604
583.049, 1500.456
584.367, 1410.039
585.685, 1230.364
587.002, 1081.608
588.319, 1012.099
589.636, 965.361
590.952, 826.760
592.268, 761.032
593.585, 666.423
594.900, 585.794
596.216, 537.822
597.532, 464.974
598.847, 368.711
600.162, 379.475
601.477, 224.422
602.792, 247.554
604.106, 207.634
605.420, 183.737
606.734, 176.098
608.048, 149.714
609.361, 127.380
610.675, 123.207
611.988, 78.202
613.301, 63.184
614.614, 52.170
615.926, 77.102
617.238, 73.332
618.550, 0.123
619.862, 47.765
621.174, 35.290
622.485, 0.871
623.797, 27.197
625.108, 2.239
626.418, 35.384
627.729, 56.627
629.039, 14.924
630.349, 23.835
631.659, 23.768
632.969, 33.368
634.279, 10.156
635.588, 70.441
636.897, 6.090
638.206, 46.714
639.515, 71.996
640.823, 73.477
642.131, 110.811
643.439, 139.447
644.747, 97.189
646.055, 99.337
647.362, 121.401
648.669, 171.899
649.976, 119.645
651.283, 151.371
652.589, 157.466
653.896, 215.727
655.202, 218.249
656.508, 246.402
657.814, 237.475
659.119, 278.294
660.424, 264.805
661.729, 255.292
663.034, 299.899
664.339, 331.338
665.643, 367.752
666.947, 471.144
668.251, 568.511
669.555, 607.855
670.859, 787.175
672.162, 890.472
673.465, 1043.746
674.768, 1135.996
676.071, 1159.223
677.373, 1232.427
678.676, 1096.608
679.978, 998.767
681.280, 880.903
682.581, 773.017
683.883, 633.108
685.184, 490.177
686.485, 412.224
687.786, 381.248
689.087, 271.251
690.387, 267.232
691.687, 165.191
692.987, 140.128
694.287, 132.044
695.586, 132.937
696.886, 97.808
698.185, 100.458
699.484, 102.479
700.783, 88.281
702.081, 92.060
703.379, 92.816
704.677, 90.549
705.975, 40.259
707.273, 79.946
708.570, 17.610
709.868, 1.752
711.165, 82.852
712.462, 102.434
713.758, 54.994
715.055, 41.532
716.351, 28.047
717.647, 41.538
718.943, 15.006
720.238, 20.448
721.533, 28.865
722.829, 3.259
724.124, 43.622
725.418, 3.962
726.713, 38.272
728.007, 59.560
729.301, 6.828
730.595, 26.068
731.889, 16.287
733.182, 35.484
734.476, 82.369
735.769, 42.633
737.061, 64.165
738.354, 0.897
739.647, 57.210
740.939, 66.302
742.231, 68.382
743.523, 49.450
744.814, 58.939
746.106, 53.547
747.397, 64.577
748.688, 46.595
749.978, 58.600
751.269, 29.594
752.559, 96.576
753.849, 136.548
755.139, 124.512
756.429, 87.468
757.719, 93.415
759.008, 111.352
760.297, 52.279
761.586, 24.195
762.875, 16.100
764.163, 28.102
765.451, 21.436
766.739, 6.182
768.027, 41.401
769.315, 25.701
770.602, 41.873
771.890, 27.594
773.177, 21.369
774.463, 2.503
775.750, 6.678
777.036, 7.694
778.323, 25.875
779.609, 32.900
780.894, 49.143
782.180, 34.294
783.465, 6.899
784.750, 57.880
786.035, 96.103
787.320, 65.484
788.605, 52.882
789.889, 60.426
791.173, 16.770
792.457, 81.405
793.741, 24.938
795.024, 61.393
796.307, 39.894
797.591, 44.277
798.873, 11.582
800.156, 55.080
801.439, 19.616
802.721, 46.082
804.003, 51.376
805.285, 16.068
806.566, 5.359
807.848, 9.771
809.129, 16.017
810.410, 19.455
811.691, 37.564
812.971, 4.874
814.252, 18.803
815.532, 52.473
816.812, 2.864
818.092, 44.789
819.371, 57.434
820.651, 84.073
821.930, 125.706
823.209, 112.332
824.488, 92.951
825.766, 168.565
827.045, 125.174
828.323, 218.776
829.601, 262.374
830.878, 268.965
832.156, 327.552
833.433, 325.135
834.710, 388.712
835.987, 422.286
837.264, 487.855
838.540, 558.420
839.817, 634.981
841.093, 704.539
842.369, 799.093
843.644, 877.644
844.920, 940.192
846.195, 1043.736
847.470, 1176.178
848.745, 1363.589
850.020, 1418.007
851.294, 1588.281
852.568, 1701.571
853.842, 1807.873
855.116, 2098.120
856.390, 2175.387
857.663, 2327.661
858.936, 2480.932
860.209, 2760.002
861.482, 3059.245
862.755, 3289.149
864.027, 3507.179
865.299, 3545.463
866.571, 3718.837
867.843, 3602.019
869.115, 3639.153
870.386, 3435.236
871.657, 3305.383
872.928, 3079.274
874.199, 2793.332
875.470, 2557.475
876.740, 2370.551
878.010, 2223.139
879.280, 2037.637
880.550, 1887.883
881.820, 1762.229
883.089, 1640.221
884.358, 1595.176
885.627, 1446.287
886.896, 1411.619
888.164, 1322.175
889.433, 1319.586
890.701, 1221.111
891.969, 1268.580
893.236, 1239.103
894.504, 1219.678
895.771, 1181.272
897.038, 1137.801
898.305, 1125.390
899.572, 1060.970
900.838, 1047.620
902.105, 1036.302
903.371, 1013.901
904.637, 1049.488
905.902, 1056.374
907.168, 1105.285
908.433, 1133.211
909.698, 1073.111
910.963, 1081.052
912.228, 1121.003
913.492, 1111.801
914.757, 1146.512
916.021, 1182.158
917.285, 1159.545
918.548, 1254.356
919.812, 1211.738
921.075, 1301.437
922.338, 1353.084
923.601, 1426.813
924.864, 1432.406
926.126, 1453.392
927.388, 1481.750
928.650, 1599.637
929.912, 1640.541
931.174, 1760.438
932.435, 1915.990
933.697, 2011.627
934.958, 2178.168
936.218, 2271.085
937.479, 2458.416
938.739, 2663.429
940.000, 2768.407
941.260, 3181.198
942.520, 3438.589
943.779, 3858.546
945.039, 4356.723
946.298, 4703.330
947.557, 5561.854
948.816, 5942.687
950.074, 6462.312
951.333, 6817.831
952.591, 7102.932
953.849, 7070.106
955.107, 7105.837
956.365, 7131.310
957.622, 7236.903
958.879, 7307.898
960.136, 7555.832
961.393, 7763.502
962.650, 8041.036
963.906, 8277.637
965.162, 8975.987
966.418, 9434.634
967.674, 10283.302
968.930, 10971.838
970.185, 11860.539
971.441, 12089.257
972.696, 11497.994
973.950, 10876.744
975.205, 9595.516
976.459, 8354.302
977.714, 7313.105
978.968, 6305.926
980.222, 5642.764
981.475, 5037.617
982.729, 4680.489
983.982, 4395.379
985.235, 3930.289
986.488, 3695.217
987.740, 3458.160
988.993, 3061.123
990.245, 2918.102
991.497, 2639.098
992.749, 2468.113
994.000, 2231.144
995.252, 2103.192
996.503, 1963.258
997.754, 1786.341
999.005, 1695.443
1000.256, 1623.563
1001.506, 1472.702
1002.756, 1398.858
1004.006, 1389.033
1005.256, 1315.229
1006.506, 1324.443
1007.755, 1205.675
1009.005, 1139.936
1010.254, 1241.436
1011.502, 1137.763
1012.751, 1270.794
1014.000, 1233.160
1015.248, 1248.951
1016.496, 1324.738
1017.744, 1368.230
1018.991, 1378.656
1020.239, 1417.102
1021.486, 1492.566
1022.733, 1564.347
1023.980, 1688.682
1025.227, 1759.721
1026.473, 1890.623
1027.719, 2067.634
1028.965, 2175.312
1030.211, 2353.279
1031.457, 2607.240
1032.702, 2958.215
1033.948, 3391.405
1035.193, 3814.389
1036.438, 4397.410
1037.682, 5134.278
1038.927, 5937.429
1040.171, 6549.101
1041.415, 6994.047
1042.659, 7203.822
1043.903, 6774.177
1045.146, 6027.028
1046.390, 5145.011
1047.633, 4323.035
1048.876, 3616.016
1050.118, 3214.011
1051.361, 2824.306
1052.603, 2483.232
1053.845, 2131.167
1055.087, 2072.451
1056.329, 1877.397
1057.571, 1767.465
1058.812, 1584.525
1060.053, 1520.266
1061.294, 1332.381
1062.535, 1281.048
1063.775, 1162.995
1065.016, 1090.431
1066.256, 1047.803
1067.496, 1016.504
1068.736, 973.842
1069.975, 938.297
1071.214, 907.914
1072.454, 867.591
1073.693, 854.868
1074.931, 838.956
1076.170, 825.438
1077.408, 848.702
1078.647, 783.984
1079.885, 816.238
1081.122, 809.571
1082.360, 780.889
1083.597, 697.209
1084.835, 749.566
1086.072, 703.060
1087.308, 755.722
1088.545, 703.261
1089.781, 669.762
1091.018, 688.262
1092.254, 693.760
1093.490, 706.761
1094.725, 712.303
1095.961, 706.973
1097.196, 714.710
1098.431, 677.242
1099.666, 658.049
1100.900, 743.772
1102.135, 663.528
1103.369, 713.199
1104.603, 757.962
1105.837, 678.806
1107.071, 752.633
1108.304, 715.730
1109.538, 775.442
1110.771, 849.365
1112.004, 823.024
1113.236, 886.866
1114.469, 827.692
1115.701, 846.538
1116.933, 887.480
1118.165, 907.384
1119.397, 918.411
1120.629, 1008.413
1121.860, 903.215
1123.091, 952.315
1124.322, 1040.148
1125.553, 1012.036
1126.783, 1106.918
1128.014, 1088.666
1129.244, 1056.619
1130.474, 1167.521
1131.704, 1110.428
1132.933, 1161.030
1134.163, 1094.934
1135.392, 1067.941
1136.621, 1055.855
1137.850, 971.716
1139.079, 869.658
1140.307, 935.426
1141.535, 741.405
1142.763, 651.235
1143.991, 630.126
1145.219, 479.938
1146.446, 362.098
1147.674, 279.887
1148.901, 188.334
1150.128, 174.848
1151.354, 76.694
1152.581, 119.023
1153.807, 109.899
1155.033, 43.740
1156.259, 38.751
1157.485, 35.331
1158.710, 0.458
1159.936, 23.863
1161.161, 0.256
1162.386, 35.908
1163.611, 14.722
1164.835, 3.989
1166.060, 24.719
1167.284, 10.798
1168.508, 50.756
1169.732, 9.435
1170.955, 53.797
1172.179, 47.957
1173.402, 28.148
1174.625, 28.839
1175.848, 22.174
1177.070, 42.296
1178.293, 6.766
1179.515, 56.326
1180.737, 26.865
1181.959, 22.394
1183.181, 69.969
1184.402, 66.596
1185.624, 38.286
1186.845, 45.672
1188.066, 17.247
1189.286, 45.354
1190.507, 5.373
1191.727, 21.692
1192.947, 2.946
1194.167, 29.935
1195.387, 5.058
1196.607, 43.729
1197.826, 47.670
1199.045, 40.856
1200.264, 55.896
1201.483, 12.915
1202.702, 6.770
1203.920, 23.880
1205.138, 24.845
1206.356, 1.329
1207.574, 19.372
1208.792, 1.289
1210.009, 50.057
1211.227, 9.362
1212.444, 23.566
1213.661, 27.954
1214.877, 5.451
1216.094, 6.590
1217.310, 65.900
1218.526, 46.396
1219.742, 34.862
1220.958, 54.268
1222.173, 28.719
1223.389, 53.091
1224.604, 53.483
1225.819, 65.074
1227.034, 51.521
1228.248, 61.696
1229.463, 67.772
1230.677, 65.044
1231.891, 35.357
1233.105, 24.600
1234.318, 40.817
1235.532, 57.387
1236.745, 65.138
1237.958, 72.087
1239.171, 0.361
1240.384, 73.746
1241.596, 48.228
1242.809, 39.485
1244.021, 118.529
1245.233, 9.443
1246.444, 55.616
1247.656, 53.730
1248.867, 78.079
1250.079, 61.052
1251.290, 47.053
1252.500, 52.955
1253.711, 32.836
1254.921, 3.261
1256.132, 45.756
1257.342, 105.568
1258.552, 64.360
1259.761, 70.203
1260.971, 66.950
1262.180, 50.966
1263.389, 56.669
1264.598, 46.365
1265.807, 49.120
1267.015, 84.756
1268.223, 44.438
1269.432, 80.662
1270.640, 68.357
1271.847, 71.028
1273.055, 105.472
1274.262, 60.950
1275.470, 70.393
1276.677, 69.399
1277.883, 29.203
1279.090, 71.649
1280.296, 58.986
1281.503, 70.520
1282.709, 83.691
1283.915, 67.395
1285.120, 106.843
1286.326, 64.052
1287.531, 92.233
1288.736, 77.441
1289.941, 96.571
1291.146, 52.679
1292.350, 101.894
1293.555, 51.940
1294.759, 104.049
1295.963, 88.811
1297.167, 45.784
1298.370, 80.825
1299.574, 88.741
1300.777, 3.635
1301.980, 74.494
1303.183, 77.108
1304.386, 34.893
1305.588, 136.970
1306.790, 14.707
1307.993, 49.015
1309.195, 94.324
1310.396, 98.921
1311.598, 40.574
1312.799, 103.252
1314.000, 75.853
1315.201, 109.131
1316.402, 65.851
1317.603, 63.903
1318.803, 34.043
1320.003, 73.072
1321.203, 51.426
1322.403, 88.490
1323.603, 106.552
1324.802, 89.592
1326.002, 80.435
1327.201, 85.085
1328.400, 82.422
1329.599, 82.523
1330.797, 37.336
1331.995, 46.618
1333.194, 31.619
1334.392, 61.783
1335.589, 107.355
1336.787, 59.423
1337.985, 88.473
1339.182, 115.350
1340.379, 55.261
1341.576, 78.138
1342.772, 9.707
1343.969, 3.634
1345.165, 56.555
1346.361, 30.114
1347.557, 65.011
1348.753, 118.823
1349.949, 67.569
1351.144, 91.622
1352.339, 40.291
1353.534, 1.397
1354.729, 69.214
1355.924, 38.530
1357.118, 70.902
1358.312, 94.947
1359.506, 17.354
1360.700, 73.638
1361.894, 70.299
1363.088, 73.856
1364.281, 125.327
1365.474, 69.856
1366.667, 100.254
1367.860, 75.730
1369.052, 30.257
1370.245, 54.738
1371.437, 9.140
1372.629, 53.561
1373.821, 123.932
1375.013, 70.274
1376.204, 82.455
1377.395, 99.831
1378.586, 19.000
1379.777, 7.171
1380.968, 101.358
1382.159, 36.472
1383.349, 104.989
1384.539, 15.894
1385.729, 37.819
1386.919, 85.810
1388.109, 101.691
1389.298, 67.634
1390.487, 50.347
1391.676, 13.788
1392.865, 71.543
1394.054, 60.201
1395.242, 116.697
1396.431, 95.002
1397.619, 69.402
1398.807, 34.616
1399.995, 107.963
1401.182, 79.343
1402.370, 61.551
1403.557, 117.904
1404.744, 20.868
1405.931, 89.909
1407.118, 73.960
1408.304, 53.980
1409.490, 89.634
1410.676, 59.215
1411.862, 0.848
1413.048, 43.292
1414.234, 38.261
1415.419, 7.278
1416.604, 109.551
1417.789, 72.522
1418.974, 116.098
1420.159, 67.787
1421.343, 46.158
1422.528, 67.102
1423.712, 16.442
1424.896, 5.407
1426.079, 65.929
1427.263, 16.303
1428.446, 108.785
1429.629, 66.557
1430.812, 47.405
1431.995, 155.949
1433.178, 100.673
1434.360, 26.996
1435.543, 133.757
1436.725, 34.841
1437.907, 9.434
1439.088, 96.287
1440.270, 30.147
1441.451, 124.558
1442.632, 120.399
1443.813, 76.652
1444.994, 137.420
1446.175, 126.235
1447.355, 78.070
1448.535, 106.261
1449.715, 90.887
1450.895, 67.578
1452.075, 117.343
1453.255, 108.265
1454.434, 37.580
1455.613, 99.501
1456.792, 75.802
1457.971, 109.328
1459.149, 37.844
1460.328, 93.172
1461.506, 79.704
1462.684, 83.691
1463.862, 91.213
1465.040, 81.397
1466.217, 85.110
1467.395, 40.200
1468.572, 49.358
1469.749, 143.740
1470.925, 72.278
1472.102, 109.566
1473.278, 55.878
1474.455, 107.971
1475.631, 42.728
1476.807, 65.407
1477.982, 59.686
1479.158, 11.815
1480.333, 43.666
1481.508, 78.702
1482.683, 90.488
1483.858, 87.400
1485.033, 68.615
1486.207, 34.795
1487.381, 35.247
1488.555, 32.232
1489.729, 21.207
1490.903, 48.132
1492.076, 48.245
1493.250, 53.169
1494.423, 57.164
1495.596, 48.307
1496.769, 41.253
1497.941, 89.329
1499.114, 63.549
1500.286, 107.756
1501.458, 65.040
1502.630, 12.428
1503.802, 32.056
1504.973, 91.269
1506.145, 38.649
1507.316, 102.925
1508.487, 63.889
1509.657, 20.389
1510.828, 77.944
1511.999, 122.573
1513.169, 60.261
1514.339, 87.292
1515.509, 27.480
1516.678, 47.560
1517.848, 1.077
1519.017, 19.618
1520.187, 92.327
1521.356, 21.393
1522.524, 7.739
1523.693, 55.560
1524.861, 0.000
##END=



