##NAMES=Aegirine
##RRUFFID=R040054
##IDEAL CHEMISTRY=NaFe^3+^Si_2_O_6_
##LOCALITY=Mont Saint-Hilaire, Rouville County, Quebec, Canada
##OWNER=RRUFF
##SOURCE=Bob Downs
##DESCRIPTION=Black cleavage fragments
##STATUS=The identification of this mineral has been confirmed by X-ray diffraction and chemical analysis
##URL=rruff.info/R040054
##MEASURED CHEMISTRY=(Na_0.96_Ca_0.04_)(Fe_0.86_Ti_0.07_Mn_0.06_Mg_0.02_)(Si_0.97_Al_0.03_)_2_O_6_
##PIN_ID=L00062
##ORIENTATION=Laser parallel to -b* (0 -1 0). Fiducial mark perpendicular to laser is parallel to c [0 0 1]
126.063, 0.000
127.452, 42.817
128.840, 158.646
130.228, 321.255
131.615, 680.069
133.003, 921.587
134.390, 910.059
135.777, 874.706
137.164, 736.063
138.550, 694.396
139.937, 392.855
141.323, 332.449
142.709, 213.042
144.094, 235.896
145.480, 249.688
146.865, 197.863
148.250, 175.958
149.635, 62.640
151.019, 28.655
152.403, 64.238
153.788, 25.766
155.171, 48.883
156.555, 16.321
157.939, 30.039
159.322, 0.896
160.705, 23.989
162.088, 58.281
163.470, 97.679
164.853, 93.306
166.235, 54.469
167.617, 62.641
168.998, 133.076
170.380, 176.826
171.761, 474.946
173.142, 761.100
174.523, 1278.899
175.904, 1967.654
177.284, 2534.000
178.664, 2879.979
180.044, 3129.283
181.424, 3220.578
182.803, 3103.739
184.183, 3089.116
185.562, 3397.881
186.940, 4150.938
188.319, 5043.305
189.698, 5776.889
191.076, 6393.191
192.454, 6297.984
193.831, 6046.573
195.209, 5093.482
196.586, 4115.836
197.963, 3142.000
199.340, 2482.081
200.717, 2016.422
202.093, 1673.740
203.470, 1434.083
204.846, 1395.433
206.221, 1252.023
207.597, 1385.087
208.972, 1342.164
210.347, 1399.750
211.722, 1424.202
213.097, 1388.829
214.472, 1320.816
215.846, 1196.494
217.220, 978.352
218.594, 830.341
219.967, 731.420
221.341, 515.546
222.714, 449.687
224.087, 327.803
225.460, 218.834
226.832, 156.806
228.204, 63.722
229.577, 62.565
230.948, 55.340
232.320, 74.916
233.692, 36.188
235.063, 26.490
236.434, 52.835
237.805, 68.240
239.175, 62.720
240.545, 36.283
241.916, 87.937
243.286, 79.683
244.655, 7.523
246.025, 21.454
247.394, 43.524
248.763, 74.585
250.132, 20.782
251.501, 16.066
252.869, 20.564
254.237, 4.112
255.605, 42.566
256.973, 78.905
258.340, 147.105
259.708, 186.132
261.075, 216.958
262.442, 212.493
263.808, 227.747
265.175, 368.697
266.541, 351.362
267.907, 423.742
269.273, 567.915
270.639, 660.854
272.004, 821.619
273.369, 977.649
274.734, 1038.155
276.099, 1143.119
277.463, 1095.623
278.828, 1151.792
280.192, 1012.818
281.556, 967.175
282.919, 835.603
284.283, 777.985
285.646, 661.095
287.009, 496.049
288.372, 508.760
289.734, 462.358
291.097, 522.345
292.459, 476.962
293.821, 484.145
295.183, 563.702
296.544, 571.778
297.905, 590.211
299.266, 681.810
300.627, 721.869
301.988, 803.222
303.348, 814.281
304.709, 842.668
306.069, 862.706
307.428, 879.380
308.788, 920.173
310.147, 935.073
311.507, 979.350
312.865, 1051.197
314.224, 1087.929
315.583, 1087.111
316.941, 1133.110
318.299, 1143.315
319.657, 1351.149
321.015, 1371.252
322.372, 1564.943
323.729, 1600.896
325.086, 1796.924
326.443, 1991.049
327.800, 2312.271
329.156, 2652.188
330.512, 3143.383
331.868, 3834.428
333.224, 4353.969
334.579, 5261.668
335.935, 6065.617
337.290, 6868.052
338.645, 7390.304
339.999, 7732.349
341.354, 7554.138
342.708, 7225.662
344.062, 6936.780
345.416, 6217.541
346.769, 5857.923
348.123, 4907.950
349.476, 4425.667
350.829, 4055.158
352.182, 3785.362
353.534, 3750.356
354.887, 3807.175
356.239, 3960.864
357.591, 4397.454
358.942, 4735.950
360.294, 5359.374
361.645, 6116.741
362.996, 7125.072
364.347, 7963.373
365.698, 8561.644
367.048, 8839.885
368.398, 8628.098
369.748, 8196.275
371.098, 7584.403
372.448, 7002.481
373.797, 6400.505
375.146, 6088.484
376.495, 6006.417
377.844, 6214.313
379.192, 6472.172
380.540, 6819.994
381.889, 7487.329
383.236, 7894.222
384.584, 8530.186
385.932, 8875.847
387.279, 8700.695
388.626, 8574.609
389.973, 7967.736
391.319, 6989.190
392.666, 6170.628
394.012, 5293.893
395.358, 4454.135
396.704, 3647.837
398.049, 3063.179
399.394, 2529.898
400.740, 2052.681
402.084, 1872.841
403.429, 1594.692
404.774, 1434.333
406.118, 1182.522
407.462, 1061.273
408.806, 952.182
410.150, 762.318
411.493, 702.958
412.836, 595.009
414.179, 502.390
415.522, 476.867
416.865, 322.575
418.207, 310.787
419.549, 275.747
420.891, 203.659
422.233, 230.990
423.575, 104.569
424.916, 78.103
426.257, 94.756
427.598, 43.385
428.939, 10.073
430.279, 43.757
431.619, 46.823
432.959, 16.969
434.299, 71.425
435.639, 6.873
436.978, 36.287
438.318, 52.666
439.657, 6.990
440.996, 42.687
442.334, 63.576
443.673, 19.814
445.011, 35.036
446.349, 29.162
447.687, 52.779
449.024, 32.698
450.361, 42.725
451.699, 97.846
453.036, 106.279
454.372, 98.618
455.709, 122.875
457.045, 106.761
458.381, 125.147
459.717, 182.612
461.053, 170.498
462.388, 199.142
463.724, 124.813
465.059, 154.813
466.394, 106.722
467.728, 166.719
469.063, 118.574
470.397, 180.300
471.731, 154.115
473.065, 137.901
474.398, 209.882
475.732, 209.663
477.065, 259.442
478.398, 297.374
479.731, 353.944
481.063, 367.467
482.396, 392.874
483.728, 525.129
485.060, 593.331
486.391, 710.494
487.723, 886.384
489.054, 1075.192
490.385, 1354.996
491.716, 1724.706
493.047, 2163.384
494.377, 2803.029
495.708, 3241.642
497.038, 3471.215
498.368, 3455.747
499.697, 3132.239
501.027, 2735.690
502.356, 2383.104
503.685, 1925.478
505.014, 1684.815
506.342, 1488.117
507.671, 1333.384
508.999, 1261.619
510.327, 1105.821
511.655, 1033.994
512.982, 1005.136
514.310, 940.250
515.637, 1015.335
516.964, 960.393
518.291, 986.699
519.617, 1043.426
520.944, 1044.402
522.270, 1175.351
523.596, 1257.273
524.921, 1361.167
526.247, 1535.036
527.572, 1806.877
528.897, 2088.692
530.222, 2498.480
531.547, 3036.241
532.871, 3510.975
534.196, 4486.683
535.520, 5420.365
536.844, 6613.020
538.167, 8136.649
539.491, 9660.250
540.814, 10913.828
542.137, 11677.383
543.460, 11950.987
544.783, 11814.688
546.105, 10878.290
547.427, 9871.860
548.749, 8895.385
550.071, 7919.094
551.393, 7122.959
552.714, 6392.717
554.035, 5740.519
555.356, 5413.467
556.677, 4843.265
557.998, 4515.165
559.318, 4252.207
560.638, 3994.009
561.958, 3754.035
563.278, 3617.054
564.597, 3354.919
565.917, 3176.955
567.236, 3048.727
568.555, 2851.843
569.874, 2718.815
571.192, 2657.931
572.511, 2480.008
573.829, 2473.041
575.147, 2263.048
576.464, 2207.333
577.782, 2023.667
579.099, 2053.880
580.416, 1954.871
581.733, 1891.853
583.050, 1726.496
584.366, 1713.951
585.683, 1521.398
586.999, 1544.655
588.315, 1423.588
589.630, 1365.940
590.946, 1265.800
592.261, 1168.111
593.576, 1068.532
594.891, 923.630
596.206, 800.100
597.520, 707.522
598.834, 658.659
600.148, 550.799
601.462, 478.781
602.776, 393.658
604.089, 310.233
605.402, 258.934
606.715, 194.455
608.028, 168.608
609.341, 97.281
610.653, 65.477
611.965, 17.860
613.277, 64.050
614.589, 16.545
615.901, 51.137
617.212, 32.775
618.523, 3.720
619.834, 24.502
621.145, 18.521
622.456, 31.781
623.766, 68.562
625.076, 7.925
626.386, 35.144
627.696, 22.514
629.006, 24.390
630.315, 31.095
631.624, 27.417
632.933, 18.990
634.242, 10.139
635.551, 0.189
636.859, 54.547
638.167, 55.676
639.475, 83.044
640.783, 117.894
642.090, 91.345
643.398, 173.747
644.705, 192.442
646.012, 207.772
647.318, 209.096
648.625, 275.615
649.931, 242.974
651.237, 262.308
652.543, 318.093
653.849, 312.377
655.155, 359.764
656.460, 375.158
657.765, 368.423
659.070, 406.751
660.375, 473.912
661.679, 505.048
662.984, 481.160
664.288, 575.248
665.592, 676.312
666.895, 734.352
668.199, 911.368
669.502, 1080.361
670.805, 1226.330
672.108, 1626.274
673.411, 1845.197
674.713, 2150.094
676.016, 2407.970
677.318, 2526.821
678.620, 2362.650
679.921, 2188.455
681.223, 1902.238
682.524, 1501.997
683.825, 1264.734
685.126, 954.448
686.427, 824.139
687.727, 628.808
689.028, 557.454
690.328, 654.077
691.628, 456.446
692.927, 486.258
694.227, 291.815
695.526, 249.351
696.825, 291.864
698.124, 212.355
699.423, 159.825
700.721, 131.272
702.020, 149.696
703.318, 153.097
704.616, 159.477
705.913, 112.834
707.211, 74.167
708.508, 98.476
709.805, 86.761
711.102, 58.021
712.399, 97.257
713.695, 75.467
714.992, 46.653
716.288, 108.813
717.584, 59.949
718.879, 65.060
720.175, 108.145
721.470, 73.205
722.765, 137.241
724.060, 57.253
725.355, 90.240
726.649, 61.201
727.944, 72.137
729.238, 84.048
730.532, 84.934
731.825, 109.795
733.119, 89.635
734.412, 85.453
735.705, 67.250
736.998, 96.026
738.291, 49.783
739.584, 67.521
740.876, 85.240
742.168, 76.942
743.460, 48.627
744.752, 49.296
746.043, 64.948
747.334, 25.590
748.626, 49.213
749.916, 54.819
751.207, 18.409
752.498, 22.549
753.788, 18.531
755.078, 18.934
756.368, 28.431
757.658, 61.969
758.947, 7.565
760.237, 14.191
761.526, 28.849
762.815, 42.549
764.104, 10.352
765.392, 48.486
766.680, 32.187
767.969, 65.350
769.257, 51.768
770.544, 8.894
771.832, 24.457
773.119, 9.862
774.406, 12.042
775.693, 10.468
776.980, 4.983
778.267, 43.591
779.553, 30.375
780.839, 71.341
782.125, 77.266
783.411, 55.163
784.697, 64.241
785.982, 33.381
787.267, 77.798
788.552, 25.102
789.837, 80.477
791.122, 64.089
792.406, 1.584
793.690, 72.755
794.974, 47.049
796.258, 78.246
797.542, 26.626
798.825, 14.695
800.108, 44.710
801.391, 78.705
802.674, 14.764
803.957, 77.219
805.239, 55.506
806.522, 3.849
807.804, 72.093
809.085, 10.024
810.367, 2.943
811.649, 22.848
812.930, 2.742
814.211, 55.623
815.492, 96.494
816.772, 104.354
818.053, 148.206
819.333, 170.046
820.613, 194.878
821.893, 192.700
823.173, 225.514
824.452, 277.318
825.732, 286.114
827.011, 343.901
828.290, 362.680
829.568, 377.451
830.847, 417.364
832.125, 443.007
833.403, 473.716
834.681, 516.457
835.959, 546.190
837.236, 589.916
838.514, 610.636
839.791, 575.349
841.068, 684.056
842.345, 707.757
843.621, 805.452
844.898, 756.141
846.174, 849.825
847.450, 866.503
848.726, 934.176
850.001, 977.844
851.277, 1054.507
852.552, 1146.166
853.827, 1178.745
855.102, 1223.205
856.376, 1213.743
857.651, 1338.297
858.925, 1352.879
860.199, 1324.269
861.473, 1367.498
862.746, 1347.830
864.020, 1389.117
865.293, 1354.286
866.566, 1344.622
867.839, 1312.869
869.112, 1258.000
870.384, 1311.395
871.656, 1234.591
872.928, 1289.812
874.200, 1183.223
875.472, 1142.492
876.744, 1171.034
878.015, 1108.248
879.286, 1129.616
880.557, 1097.874
881.828, 1080.184
883.098, 1088.265
884.369, 1041.929
885.639, 1110.424
886.909, 1014.856
888.178, 1062.278
889.448, 1068.641
890.717, 1042.153
891.987, 1116.479
893.256, 1095.889
894.524, 1125.387
895.793, 1186.863
897.061, 1190.249
898.330, 1214.657
899.598, 1273.146
900.865, 1348.501
902.133, 1346.978
903.401, 1333.505
904.668, 1367.805
905.935, 1444.231
907.202, 1470.582
908.468, 1551.042
909.735, 1492.944
911.001, 1601.772
912.267, 1623.965
913.533, 1627.787
914.799, 1740.770
916.064, 1749.915
917.330, 1889.039
918.595, 1877.870
919.860, 1944.545
921.124, 2064.385
922.389, 2212.110
923.653, 2275.487
924.918, 2448.992
926.182, 2526.425
927.445, 2633.978
928.709, 2761.436
929.972, 3006.254
931.236, 3126.846
932.499, 3349.379
933.761, 3528.427
935.024, 3867.143
936.286, 4021.324
937.549, 4403.030
938.811, 4887.665
940.073, 5311.664
941.334, 6011.920
942.596, 6409.856
943.857, 7233.888
945.118, 8232.736
946.379, 9207.331
947.640, 10593.556
948.900, 11467.922
950.161, 12645.445
951.421, 13013.679
952.681, 12820.260
953.940, 12514.847
955.200, 11663.225
956.459, 10662.755
957.719, 9862.300
958.978, 9261.386
960.236, 8790.964
961.495, 8360.433
962.753, 7739.885
964.012, 7339.458
965.270, 6544.962
966.527, 6056.626
967.785, 5495.308
969.043, 4948.004
970.300, 4547.719
971.557, 4260.452
972.814, 3869.202
974.071, 3650.969
975.327, 3485.753
976.583, 3114.554
977.840, 3013.374
979.095, 2859.211
980.351, 2633.066
981.607, 2507.937
982.862, 2386.828
984.117, 2241.735
985.372, 2191.664
986.627, 2119.611
987.882, 1944.579
989.136, 1893.564
990.390, 1809.567
991.644, 1734.591
992.898, 1593.634
994.152, 1635.695
995.405, 1501.775
996.659, 1471.874
997.912, 1439.992
999.165, 1451.128
1000.417, 1334.283
1001.670, 1299.456
1002.922, 1257.647
1004.174, 1304.856
1005.426, 1242.084
1006.678, 1240.332
1007.930, 1144.598
1009.181, 1134.884
1010.432, 1119.188
1011.683, 1128.513
1012.934, 1132.860
1014.185, 1089.226
1015.435, 1065.613
1016.685, 1066.020
1017.935, 993.447
1019.185, 1047.894
1020.435, 955.521
1021.684, 910.147
1022.934, 964.772
1024.183, 862.000
1025.432, 918.663
1026.680, 932.229
1027.929, 879.157
1029.177, 1003.025
1030.425, 996.780
1031.673, 956.599
1032.921, 1014.267
1034.169, 1046.623
1035.416, 1089.410
1036.663, 1147.807
1037.911, 1103.279
1039.157, 1235.360
1040.404, 1237.707
1041.650, 1230.617
1042.897, 1300.868
1044.143, 1203.005
1045.389, 1201.561
1046.634, 1155.211
1047.880, 1205.549
1049.125, 1177.851
1050.371, 1100.161
1051.615, 1135.787
1052.860, 1175.177
1054.105, 1136.643
1055.349, 1183.938
1056.593, 1104.553
1057.837, 1153.564
1059.081, 1126.630
1060.325, 1076.568
1061.568, 1180.293
1062.812, 1132.494
1064.055, 1083.624
1065.298, 1133.877
1066.540, 1068.011
1067.783, 1021.264
1069.025, 1040.014
1070.267, 1032.595
1071.509, 1022.903
1072.751, 1041.188
1073.993, 1031.631
1075.234, 1078.042
1076.475, 1089.491
1077.716, 1134.102
1078.957, 1135.297
1080.198, 1127.835
1081.438, 1135.639
1082.679, 1076.365
1083.919, 1090.931
1085.159, 1124.538
1086.398, 1028.559
1087.638, 1119.226
1088.877, 1062.155
1090.116, 1104.624
1091.355, 1040.429
1092.594, 1064.028
1093.833, 1045.852
1095.071, 1031.688
1096.309, 1013.610
1097.547, 992.977
1098.785, 1095.884
1100.023, 1056.476
1101.260, 1065.508
1102.498, 1010.301
1103.735, 1083.295
1104.972, 1049.303
1106.208, 1082.319
1107.445, 1089.408
1108.681, 1073.443
1109.918, 1133.662
1111.154, 1183.712
1112.389, 1132.964
1113.625, 1174.449
1114.860, 1163.523
1116.096, 1241.604
1117.331, 1190.692
1118.566, 1265.881
1119.800, 1322.121
1121.035, 1449.235
1122.269, 1541.347
1123.503, 1567.597
1124.737, 1515.727
1125.971, 1488.867
1127.205, 1422.131
1128.438, 1384.379
1129.671, 1396.521
1130.904, 1368.942
1132.137, 1403.865
1133.370, 1396.988
1134.602, 1405.193
1135.834, 1469.932
1137.066, 1452.099
1138.298, 1315.296
1139.530, 1374.975
1140.762, 1341.593
1141.993, 1156.820
1143.224, 1046.313
1144.455, 908.638
1145.686, 839.939
1146.917, 696.247
1148.147, 600.470
1149.377, 512.739
1150.607, 425.932
1151.837, 347.169
1153.067, 278.159
1154.296, 229.562
1155.526, 161.869
1156.755, 114.302
1157.984, 80.045
1159.213, 65.034
1160.441, 64.638
1161.670, 26.837
1162.898, 41.122
1164.126, 49.425
1165.354, 20.653
1166.581, 31.850
1167.809, 8.899
1169.036, 7.708
1170.263, 6.519
1171.490, 24.202
1172.717, 5.976
1173.943, 36.196
1175.170, 13.635
1176.396, 49.418
1177.622, 29.220
1178.848, 7.038
1180.073, 6.302
1181.299, 18.582
1182.524, 25.268
1183.749, 60.858
1184.974, 2.802
1186.199, 43.455
1187.423, 78.430
1188.648, 2.449
1189.872, 9.212
1191.096, 23.556
1192.320, 12.610
1193.543, 77.676
1194.767, 39.789
1195.990, 22.092
1197.213, 84.887
1198.436, 41.100
1199.659, 68.236
1200.881, 68.467
1202.104, 64.785
1203.326, 21.163
1204.548, 26.544
1205.770, 19.042
1206.991, 39.163
1208.213, 18.627
1209.434, 11.957
1210.655, 23.045
1211.876, 15.436
1213.096, 20.975
1214.317, 42.589
1215.537, 3.139
1216.757, 9.262
1217.977, 3.771
1219.197, 1.261
1220.417, 20.882
1221.636, 41.462
1222.855, 18.189
1224.074, 16.118
1225.293, 3.490
1226.512, 17.114
1227.731, 14.136
1228.949, 18.532
1230.167, 57.797
1231.385, 99.672
1232.603, 19.127
1233.820, 66.041
1235.038, 22.211
1236.255, 9.378
1237.472, 42.561
1238.689, 9.177
1239.906, 56.444
1241.122, 57.530
1242.338, 45.601
1243.555, 19.671
1244.771, 76.748
1245.986, 2.213
1247.202, 44.801
1248.417, 13.904
1249.633, 81.498
1250.848, 71.456
1252.063, 159.432
1253.277, 57.381
1254.492, 88.566
1255.706, 41.498
1256.920, 93.424
1258.134, 42.310
1259.348, 32.182
1260.562, 96.101
1261.775, 102.936
1262.988, 91.845
1264.201, 59.650
1265.414, 51.438
1266.627, 82.212
1267.839, 87.970
1269.052, 54.711
1270.264, 85.432
1271.476, 85.137
1272.688, 57.825
1273.899, 63.497
1275.111, 95.151
1276.322, 80.789
1277.533, 108.409
1278.744, 25.006
1279.955, 83.638
1281.165, 38.194
1282.376, 105.728
1283.586, 90.243
1284.796, 42.740
1286.006, 46.212
1287.215, 87.727
1288.425, 54.156
1289.634, 67.565
1290.843, 73.958
1292.052, 73.622
1293.261, 94.693
1294.469, 85.034
1295.678, 110.356
1296.886, 94.661
1298.094, 109.947
1299.302, 117.216
1300.509, 80.469
1301.717, 65.706
1302.924, 88.925
1304.131, 65.126
1305.338, 56.296
1306.545, 113.449
1307.752, 89.585
1308.958, 85.700
1310.164, 103.797
1311.370, 122.877
1312.576, 98.941
1313.782, 141.828
1314.987, 118.634
1316.193, 81.600
1317.398, 100.885
1318.603, 113.738
1319.807, 124.689
1321.012, 34.279
1322.216, 97.932
1323.421, 97.700
1324.625, 70.406
1325.829, 119.266
1327.032, 71.439
1328.236, 62.183
1329.439, 133.686
1330.642, 61.380
1331.845, 110.834
1333.048, 111.024
1334.251, 58.654
1335.453, 35.944
1336.656, 126.351
1337.858, 117.341
1339.060, 138.239
1340.261, 24.451
1341.463, 43.700
1342.664, 93.950
1343.866, 61.882
1345.067, 70.051
1346.267, 76.148
1347.468, 83.419
1348.669, 70.374
1349.869, 70.960
1351.069, 33.480
1352.269, 103.144
1353.469, 53.045
1354.668, 15.479
1355.868, 75.997
1357.067, 40.407
1358.266, 38.955
1359.465, 40.396
1360.664, 31.543
1361.862, 45.953
1363.061, 36.586
1364.259, 63.402
1365.457, 68.676
1366.655, 60.056
1367.852, 79.406
1369.050, 43.601
1370.247, 33.217
1371.444, 113.531
1372.641, 26.474
1373.838, 49.482
1375.035, 13.375
1376.231, 61.710
1377.427, 101.364
1378.623, 55.008
1379.819, 52.040
1381.015, 43.996
1382.211, 5.683
1383.406, 23.915
1384.601, 66.773
1385.796, 81.552
1386.991, 53.173
1388.185, 48.692
1389.380, 55.056
1390.574, 98.906
1391.768, 31.390
1392.962, 1.735
1394.156, 61.985
1395.350, 58.218
1396.543, 100.545
1397.736, 15.581
1398.929, 52.808
1400.122, 48.905
1401.315, 100.361
1402.507, 78.489
1403.700, 36.454
1404.892, 64.089
1406.084, 30.811
1407.276, 69.621
1408.467, 52.489
1409.659, 71.364
1410.850, 73.114
1412.041, 61.555
1413.232, 80.292
1414.423, 83.139
1415.614, 101.682
1416.804, 103.294
1417.994, 111.168
1419.184, 71.316
1420.374, 79.909
1421.564, 80.870
1422.753, 30.013
1423.943, 72.218
1425.132, 97.254
1426.321, 47.318
1427.510, 82.464
1428.698, 39.912
1429.887, 24.446
1431.075, 85.095
1432.263, 46.546
1433.451, 85.135
1434.639, 110.889
1435.827, 46.291
1437.014, 122.997
1438.201, 84.968
1439.388, 53.379
1440.575, 65.680
1441.762, 79.114
1442.949, 125.918
1444.135, 74.721
1445.321, 113.184
1446.507, 99.728
1447.693, 103.202
1448.879, 72.992
1450.064, 84.714
1451.250, 91.338
1452.435, 71.728
1453.620, 57.433
1454.805, 50.052
1455.989, 59.493
1457.174, 64.999
1458.358, 47.314
1459.542, 93.239
1460.726, 100.713
1461.910, 102.063
1463.093, 69.350
1464.277, 37.840
1465.460, 89.310
1466.643, 48.780
1467.826, 38.246
1469.009, 70.702
1470.191, 88.152
1471.373, 63.468
1472.556, 88.964
1473.738, 88.478
1474.919, 46.828
1476.101, 74.416
1477.283, 22.998
1478.464, 22.576
1479.645, 49.166
1480.826, 95.765
1482.007, 24.350
1483.187, 67.928
1484.368, 18.604
1485.548, 42.289
1486.728, 58.996
1487.908, 75.702
1489.088, 85.470
1490.268, 74.274
1491.447, 14.107
1492.626, 81.967
1493.805, 52.854
1494.984, 26.773
1496.163, 80.735
1497.341, 29.739
1498.520, 62.784
1499.698, 29.872
1500.876, 58.009
1502.054, 24.163
1503.232, 6.589
1504.409, 5.724
1505.586, 1.032
1506.763, 23.285
1507.940, 33.790
1509.117, 29.377
1510.294, 62.056
1511.470, 11.520
1512.647, 0.650
1513.823, 30.115
1514.999, 37.270
1516.174, 8.224
1517.350, 13.719
1518.526, 0.000
##END=



