##NAMES=Aegirine
##RRUFFID=R040054
##IDEAL CHEMISTRY=NaFe^3+^Si_2_O_6_
##LOCALITY=Mont Saint-Hilaire, Rouville County, Quebec, Canada
##OWNER=RRUFF
##SOURCE=Bob Downs
##DESCRIPTION=Black cleavage fragments
##STATUS=The identification of this mineral has been confirmed by X-ray diffraction and chemical analysis
##URL=rruff.info/R040054
##MEASURED CHEMISTRY=(Na_0.96_Ca_0.04_)(Fe_0.86_Ti_0.07_Mn_0.06_Mg_0.02_)(Si_0.97_Al_0.03_)_2_O_6_
##PIN_ID=L00062
##ORIENTATION=Laser parallel to -b* (0 -1 0). Fiducial mark perpendicular to laser is parallel to c [0 0 1]
120.508, 0.000
121.897, 52.738
123.286, 2.722
124.675, 141.055
126.063, 65.906
127.452, 183.019
128.840, 416.227
130.228, 574.449
131.615, 858.244
133.003, 936.089
134.390, 1004.854
135.777, 1016.747
137.164, 922.776
138.550, 744.052
139.937, 641.902
141.323, 438.204
142.709, 365.090
144.094, 233.949
145.480, 250.796
146.865, 150.064
148.250, 154.596
149.635, 54.982
151.019, 101.223
152.403, 681.876
153.788, 314.632
155.171, 679.119
156.555, 35.440
157.939, 29.269
159.322, 66.874
160.705, 72.187
162.088, 90.031
163.470, 73.038
164.853, 248.442
166.235, 520.021
167.617, 176.958
168.998, 368.403
170.380, 634.132
171.761, 1219.337
173.142, 2144.656
174.523, 3568.317
175.904, 5395.792
177.284, 7030.630
178.664, 7926.731
180.044, 8096.587
181.424, 7589.105
182.803, 6165.346
184.183, 4604.395
185.562, 3500.500
186.940, 2876.540
188.319, 2761.038
189.698, 2649.753
191.076, 2744.606
192.454, 2589.244
193.831, 2345.790
195.209, 2030.547
196.586, 1719.221
197.963, 1368.818
199.340, 1229.383
200.717, 1105.944
202.093, 1086.513
203.470, 1002.257
204.846, 1033.490
206.221, 1106.140
207.597, 1327.154
208.972, 1443.481
210.347, 1731.064
211.722, 1863.858
213.097, 1897.833
214.472, 1787.947
215.846, 1572.150
217.220, 1407.410
218.594, 1160.686
219.967, 928.006
221.341, 703.336
222.714, 515.579
224.087, 312.736
225.460, 286.812
226.832, 226.850
228.204, 54.846
229.577, 47.843
230.948, 30.168
232.320, 142.207
233.692, 86.292
235.063, 81.438
236.434, 79.657
237.805, 23.830
239.175, 76.841
240.545, 60.010
241.916, 145.289
243.286, 71.878
244.655, 67.546
246.025, 53.292
247.394, 8.101
248.763, 30.970
250.132, 9.101
251.501, 28.886
252.869, 21.068
254.237, 110.932
255.605, 228.667
256.973, 264.236
258.340, 349.569
259.708, 488.523
261.075, 571.137
262.442, 744.462
263.808, 799.471
265.175, 880.170
266.541, 1007.625
267.907, 1189.882
269.273, 1401.961
270.639, 1760.938
272.004, 2017.854
273.369, 2173.810
274.734, 2321.255
276.099, 2361.947
277.463, 2385.443
278.828, 2264.359
280.192, 2149.711
281.556, 1929.694
282.919, 1688.526
284.283, 1447.300
285.646, 1241.888
287.009, 1124.562
288.372, 1085.476
289.734, 992.332
291.097, 966.541
292.459, 952.346
293.821, 956.732
295.183, 978.115
296.544, 1062.193
297.905, 1125.249
299.266, 1255.854
300.627, 1293.697
301.988, 1450.600
303.348, 1387.114
304.709, 1537.789
306.069, 1514.175
307.428, 1613.603
308.788, 1720.150
310.147, 1685.352
311.507, 1783.910
312.865, 1846.213
314.224, 1739.225
315.583, 1783.177
316.941, 1878.596
318.299, 1944.182
319.657, 2057.763
321.015, 2224.618
322.372, 2377.642
323.729, 2560.578
325.086, 2868.032
326.443, 3314.478
327.800, 3790.364
329.156, 4286.013
330.512, 5146.965
331.868, 6103.642
333.224, 7241.652
334.579, 8730.622
335.935, 10000.234
337.290, 11579.639
338.645, 12698.780
339.999, 13067.578
341.354, 13045.869
342.708, 12323.739
344.062, 11711.250
345.416, 10218.352
346.769, 9225.114
348.123, 8041.604
349.476, 7207.866
350.829, 6463.924
352.182, 5729.878
353.534, 5445.762
354.887, 5101.604
356.239, 4817.428
357.591, 4660.244
358.942, 4488.057
360.294, 4478.870
361.645, 4656.677
362.996, 4718.484
364.347, 4749.889
365.698, 4983.237
367.048, 5023.258
368.398, 5347.432
369.748, 5692.927
371.098, 6248.703
372.448, 6804.469
373.797, 7620.224
375.146, 8615.966
376.495, 9931.696
377.844, 11597.413
379.192, 13363.116
380.540, 15588.805
381.889, 17974.479
383.236, 20149.330
384.584, 22343.244
385.932, 23986.389
387.279, 23997.889
388.626, 23729.209
389.973, 22219.826
391.319, 19577.119
392.666, 17164.250
394.012, 14457.262
395.358, 12083.350
396.704, 9853.059
398.049, 8143.181
399.394, 6813.527
400.740, 5817.488
402.084, 4667.232
403.429, 3877.147
404.774, 3452.821
406.118, 2851.215
407.462, 2515.996
408.806, 2197.785
410.150, 1833.523
411.493, 1576.941
412.836, 1378.957
414.179, 1308.733
415.522, 1060.565
416.865, 923.615
418.207, 770.132
419.549, 614.985
420.891, 523.589
422.233, 388.977
423.575, 322.736
424.916, 299.249
426.257, 237.021
427.598, 156.161
428.939, 117.626
430.279, 110.097
431.619, 109.577
432.959, 51.064
434.299, 89.559
435.639, 1.931
436.978, 26.582
438.318, 71.097
439.657, 9.610
440.996, 18.866
442.334, 27.330
443.673, 54.800
445.011, 48.264
446.349, 21.266
447.687, 45.729
449.024, 41.143
450.361, 137.516
451.699, 106.862
453.036, 138.171
454.372, 155.459
455.709, 133.725
457.045, 140.050
458.381, 236.348
459.717, 200.896
461.053, 236.376
462.388, 129.817
463.724, 109.522
465.059, 168.178
466.394, 65.156
467.728, 87.529
469.063, 68.083
470.397, 93.448
471.731, 54.277
473.065, 56.861
474.398, 59.563
475.732, 99.827
477.065, 87.353
478.398, 116.566
479.731, 165.133
481.063, 186.607
482.396, 290.642
483.728, 249.823
485.060, 343.031
486.391, 337.255
487.723, 376.496
489.054, 448.761
490.385, 610.038
491.716, 766.315
493.047, 943.509
494.377, 1190.923
495.708, 1303.217
497.038, 1519.500
498.368, 1583.769
499.697, 1630.024
501.027, 1573.267
502.356, 1576.500
503.685, 1445.725
505.014, 1417.940
506.342, 1465.150
507.671, 1488.354
508.999, 1512.554
510.327, 1431.750
511.655, 1507.943
512.982, 1361.135
514.310, 1558.323
515.637, 1596.510
516.964, 1549.694
518.291, 1662.876
519.617, 1836.055
520.944, 2012.185
522.270, 2460.405
523.596, 2622.576
524.921, 2903.745
526.247, 3405.914
527.572, 4145.083
528.897, 4874.249
530.222, 5854.416
531.547, 7189.576
532.871, 8534.733
534.196, 10779.889
535.520, 13215.037
536.844, 16160.187
538.167, 20195.328
539.491, 23410.463
540.814, 26325.600
542.137, 28180.727
543.460, 28885.855
544.783, 28130.988
546.105, 26216.127
547.427, 23731.275
548.749, 21066.441
550.071, 18801.615
551.393, 16646.828
552.714, 15012.339
554.035, 13447.630
555.356, 12343.238
556.677, 11138.793
557.998, 10334.437
559.318, 9570.476
560.638, 8996.395
561.958, 8402.436
563.278, 7918.527
564.597, 7389.879
565.917, 6800.968
567.236, 6427.215
568.555, 6043.554
569.874, 5592.004
571.192, 5422.401
572.511, 4942.785
573.829, 4750.335
575.147, 4413.891
576.464, 4312.474
577.782, 4091.060
579.099, 3854.507
580.416, 3661.275
581.733, 3527.829
583.050, 3302.518
584.366, 3324.063
585.683, 2978.332
586.999, 3017.904
588.315, 2723.571
589.630, 2556.131
590.946, 2434.977
592.261, 2125.908
593.576, 2002.079
594.891, 1797.641
596.206, 1488.582
597.520, 1409.314
598.834, 1147.671
600.148, 961.658
601.462, 820.762
602.776, 688.460
604.089, 575.566
605.402, 463.917
606.715, 428.850
608.028, 268.181
609.341, 239.401
610.653, 138.713
611.965, 193.339
613.277, 125.083
614.589, 79.027
615.901, 84.125
617.212, 25.065
618.523, 43.190
619.834, 53.539
621.145, 2.107
622.456, 3.897
623.766, 15.878
625.076, 30.368
626.386, 43.268
627.696, 27.795
629.006, 1.674
630.315, 50.272
631.624, 30.852
632.933, 140.995
634.242, 84.724
635.551, 165.838
636.859, 72.289
638.167, 151.018
639.475, 238.764
640.783, 224.314
642.090, 295.287
643.398, 400.538
644.705, 446.832
646.012, 478.615
647.318, 524.126
648.625, 677.120
649.931, 684.429
651.237, 779.530
652.543, 739.243
653.849, 822.179
655.155, 929.656
656.460, 993.156
657.765, 976.556
659.070, 1103.920
660.375, 1154.174
661.679, 1333.277
662.984, 1411.311
664.288, 1621.320
665.592, 1838.304
666.895, 2065.263
668.199, 2497.195
669.502, 3138.102
670.805, 3585.983
672.108, 4396.838
673.411, 5207.667
674.713, 6016.471
676.016, 6707.247
677.318, 6681.998
678.620, 6426.724
679.921, 5818.420
681.223, 4880.092
682.524, 3968.737
683.825, 3290.355
685.126, 2547.947
686.427, 2123.511
687.727, 1724.049
689.028, 1382.560
690.328, 1184.043
691.628, 974.500
692.927, 808.930
694.227, 717.332
695.526, 551.707
696.825, 546.055
698.124, 459.375
699.423, 369.668
700.721, 324.934
702.020, 348.172
703.318, 310.382
704.616, 266.564
705.913, 228.719
707.211, 270.845
708.508, 153.944
709.805, 233.011
711.102, 160.050
712.399, 188.058
713.695, 180.035
714.992, 99.981
716.288, 138.893
717.584, 122.772
718.879, 122.617
720.175, 128.428
721.470, 103.204
722.765, 127.945
724.060, 116.652
725.355, 98.323
726.649, 119.957
727.944, 130.556
729.238, 99.120
730.532, 103.646
731.825, 100.136
733.119, 101.590
734.412, 136.006
735.705, 59.387
736.998, 110.729
738.291, 61.035
739.584, 74.302
740.876, 80.533
742.168, 3.272
743.460, 107.871
744.752, 11.982
746.043, 59.050
747.334, 22.083
748.626, 0.079
749.916, 27.025
751.207, 19.936
752.498, 51.808
753.788, 23.353
755.078, 37.575
756.368, 45.137
757.658, 43.182
758.947, 0.434
760.237, 3.005
761.526, 38.471
762.815, 52.015
764.104, 91.635
765.392, 47.353
766.680, 98.145
767.969, 83.039
769.257, 40.026
770.544, 58.175
771.832, 65.401
773.119, 70.980
774.406, 56.593
775.693, 32.261
776.980, 76.281
778.267, 76.351
779.553, 97.837
780.839, 80.817
782.125, 33.067
783.411, 99.202
784.697, 67.890
785.982, 94.412
787.267, 56.135
788.552, 63.488
789.837, 87.172
791.122, 27.631
792.406, 61.548
793.690, 61.230
794.974, 42.830
796.258, 82.495
797.542, 40.246
798.825, 42.061
800.108, 66.938
801.391, 47.891
802.674, 24.909
803.957, 78.979
805.239, 29.131
806.522, 22.665
807.804, 6.431
809.085, 62.163
810.367, 47.868
811.649, 63.209
812.930, 63.196
814.211, 80.822
815.492, 108.422
816.772, 120.998
818.053, 143.551
819.333, 135.081
820.613, 179.588
821.893, 236.073
823.173, 226.536
824.452, 273.978
825.732, 257.397
827.011, 353.795
828.290, 351.171
829.568, 327.527
830.847, 400.862
832.125, 358.177
833.403, 382.471
834.681, 455.746
835.959, 465.000
837.236, 485.235
838.514, 503.451
839.791, 523.647
841.068, 530.825
842.345, 571.985
843.621, 560.125
844.898, 541.248
846.174, 639.353
847.450, 671.441
848.726, 677.511
850.001, 715.564
851.277, 811.600
852.552, 777.619
853.827, 853.623
855.102, 852.610
856.376, 797.581
857.651, 872.537
858.925, 922.477
860.199, 924.402
861.473, 888.312
862.746, 943.937
864.020, 938.819
865.293, 973.443
866.566, 940.171
867.839, 976.854
869.112, 981.190
870.384, 1009.677
871.656, 960.084
872.928, 973.484
874.200, 990.896
875.472, 978.193
876.744, 1024.585
878.015, 961.919
879.286, 955.169
880.557, 1066.507
881.828, 978.884
883.098, 1019.122
884.369, 1012.377
885.639, 1107.611
886.909, 1130.844
888.178, 1033.215
889.448, 1132.271
890.717, 1133.543
891.987, 1206.614
893.256, 1206.751
894.524, 1230.923
895.793, 1336.471
897.061, 1345.784
898.330, 1442.193
899.598, 1539.321
900.865, 1552.129
902.133, 1627.869
903.401, 1653.807
904.668, 1742.525
905.935, 1871.644
907.202, 1867.898
908.468, 1996.271
909.735, 1995.418
911.001, 2104.460
912.267, 2309.253
913.533, 2377.215
914.799, 2456.597
916.064, 2490.136
917.330, 2667.212
918.595, 2899.091
919.860, 2942.802
921.124, 3087.477
922.389, 3461.872
923.653, 3483.149
924.918, 3778.993
926.182, 3847.508
927.445, 4159.954
928.709, 4369.954
929.972, 4656.231
931.236, 4943.542
932.499, 5279.562
933.761, 5633.721
935.024, 5941.917
936.286, 6273.035
937.549, 6709.167
938.811, 7380.687
940.073, 7924.653
941.334, 8738.209
942.596, 9550.329
943.857, 10506.241
945.118, 11830.091
946.379, 13104.020
947.640, 14739.162
948.900, 15781.874
950.161, 17257.301
951.421, 17692.680
952.681, 17716.568
953.940, 17371.713
955.200, 16548.371
956.459, 15611.710
957.719, 15108.255
958.978, 14737.181
960.236, 14305.881
961.495, 14015.035
962.753, 13034.159
964.012, 12453.380
965.270, 11262.631
966.527, 10441.987
967.785, 9621.494
969.043, 8931.060
970.300, 8190.647
971.557, 7800.260
972.814, 7179.893
974.071, 6789.549
975.327, 6479.224
976.583, 6002.921
977.840, 5692.642
979.095, 5495.383
980.351, 5150.146
981.607, 5032.931
982.862, 4809.740
984.117, 4541.569
985.372, 4377.422
986.627, 4296.298
987.882, 4047.199
989.136, 3833.122
990.390, 3646.066
991.644, 3443.034
992.898, 3235.024
994.152, 3223.035
995.405, 3003.072
996.659, 2884.129
997.912, 2691.210
999.165, 2670.315
1000.417, 2578.443
1001.670, 2377.595
1002.922, 2362.773
1004.174, 2280.974
1005.426, 2177.200
1006.678, 2199.450
1007.930, 2014.723
1009.181, 2012.021
1010.432, 1997.342
1011.683, 1850.687
1012.934, 1889.056
1014.185, 1880.450
1015.435, 1722.868
1016.685, 1762.312
1017.935, 1583.780
1019.185, 1554.277
1020.435, 1559.800
1021.684, 1530.349
1022.934, 1541.494
1024.183, 1475.099
1025.432, 1503.728
1026.680, 1530.490
1027.929, 1513.173
1029.177, 1595.152
1030.425, 1585.022
1031.673, 1698.561
1032.921, 2123.434
1034.169, 1821.375
1035.416, 2053.460
1036.663, 2204.367
1037.911, 1938.330
1039.157, 2027.676
1040.404, 2040.334
1041.650, 2162.899
1042.897, 2287.481
1044.143, 2202.677
1045.389, 2273.202
1046.634, 2087.571
1047.880, 1979.813
1049.125, 1961.747
1050.371, 1852.926
1051.615, 1915.355
1052.860, 1929.465
1054.105, 1788.970
1055.349, 1845.614
1056.593, 1809.095
1057.837, 1778.359
1059.081, 1874.562
1060.325, 1756.977
1061.568, 1883.569
1062.812, 1728.547
1064.055, 1703.330
1065.298, 1764.045
1066.540, 1792.002
1067.783, 1732.072
1069.025, 1764.136
1070.267, 1778.868
1071.509, 1850.724
1072.751, 1863.764
1073.993, 1863.500
1075.234, 1927.184
1076.475, 1908.074
1077.716, 2022.378
1078.957, 1953.167
1080.198, 1995.098
1081.438, 2126.836
1082.679, 2027.145
1083.919, 2073.288
1085.159, 2110.622
1086.398, 2087.007
1087.638, 2071.588
1088.877, 2080.071
1090.116, 2079.183
1091.355, 2134.309
1092.594, 2107.087
1093.833, 2193.354
1095.071, 2217.367
1096.309, 2197.335
1097.547, 2259.228
1098.785, 2235.039
1100.023, 2284.884
1101.260, 2371.112
1102.498, 2391.029
1103.735, 2389.089
1104.972, 2568.159
1106.208, 2539.985
1107.445, 2563.717
1108.681, 2647.871
1109.918, 2636.176
1111.154, 2820.614
1112.389, 2715.835
1113.625, 2864.120
1114.860, 2946.014
1116.096, 2960.235
1117.331, 3084.403
1118.566, 3188.815
1119.800, 3252.924
1121.035, 3420.288
1122.269, 3583.839
1123.503, 3728.133
1124.737, 3746.382
1125.971, 3738.337
1127.205, 3753.609
1128.438, 3715.006
1129.671, 3822.284
1130.904, 3986.258
1132.137, 3924.555
1133.370, 3957.944
1134.602, 4052.069
1135.834, 4005.629
1137.066, 3951.961
1138.298, 3743.367
1139.530, 3709.852
1140.762, 3558.206
1141.993, 3161.582
1143.224, 2927.091
1144.455, 2627.687
1145.686, 2269.992
1146.917, 2052.530
1148.147, 1705.983
1149.377, 1505.382
1150.607, 1235.642
1151.837, 994.052
1153.067, 824.769
1154.296, 706.208
1155.526, 544.760
1156.755, 449.294
1157.984, 358.728
1159.213, 313.166
1160.441, 264.660
1161.670, 214.105
1162.898, 179.552
1164.126, 129.136
1165.354, 114.659
1166.581, 84.809
1167.809, 69.362
1169.036, 58.821
1170.263, 27.615
1171.490, 5.114
1172.717, 28.674
1173.943, 6.597
1175.170, 51.918
1176.396, 14.315
1177.622, 38.863
1178.848, 29.322
1180.073, 3.804
1181.299, 36.048
1182.524, 11.035
1183.749, 0.229
1184.974, 1.887
1186.199, 56.449
1187.423, 42.972
1188.648, 56.888
1189.872, 71.936
1191.096, 64.130
1192.320, 67.768
1193.543, 79.448
1194.767, 75.819
1195.990, 36.538
1197.213, 39.260
1198.436, 24.909
1199.659, 17.540
1200.881, 23.069
1202.104, 23.719
1203.326, 52.256
1204.548, 78.974
1205.770, 76.107
1206.991, 46.181
1208.213, 63.232
1209.434, 35.977
1210.655, 95.111
1211.876, 12.385
1213.096, 78.679
1214.317, 62.715
1215.537, 45.112
1216.757, 5.793
1217.977, 22.249
1219.197, 7.733
1220.417, 1.137
1221.636, 13.463
1222.855, 3.046
1224.074, 3.591
1225.293, 11.879
1226.512, 12.505
1227.731, 23.782
1228.949, 0.629
1230.167, 4.938
1231.385, 50.239
1232.603, 4.086
1233.820, 2.438
1235.038, 59.669
1236.255, 30.889
1237.472, 41.304
1238.689, 29.488
1239.906, 17.211
1241.122, 26.252
1242.338, 30.460
1243.555, 37.730
1244.771, 84.055
1245.986, 69.137
1247.202, 31.381
1248.417, 73.429
1249.633, 47.110
1250.848, 53.169
1252.063, 23.164
1253.277, 27.309
1254.492, 58.404
1255.706, 45.812
1256.920, 41.860
1258.134, 58.751
1259.348, 53.624
1260.562, 31.478
1261.775, 73.310
1262.988, 91.153
1264.201, 53.958
1265.414, 30.887
1266.627, 60.731
1267.839, 52.456
1269.052, 81.158
1270.264, 95.840
1271.476, 41.502
1272.688, 98.139
1273.899, 71.782
1275.111, 137.408
1276.322, 45.994
1277.533, 128.603
1278.744, 88.118
1279.955, 44.604
1281.165, 70.062
1282.376, 115.496
1283.586, 96.904
1284.796, 81.286
1286.006, 121.644
1287.215, 112.976
1288.425, 84.282
1289.634, 139.576
1290.843, 85.828
1292.052, 86.045
1293.261, 108.232
1294.469, 143.392
1295.678, 53.530
1296.886, 136.640
1298.094, 79.723
1299.302, 122.782
1300.509, 97.819
1301.717, 103.832
1302.924, 149.857
1304.131, 157.822
1305.338, 118.766
1306.545, 135.682
1307.752, 157.577
1308.958, 102.448
1310.164, 118.284
1311.370, 68.095
1312.576, 113.878
1313.782, 151.637
1314.987, 113.366
1316.193, 92.500
1317.398, 114.170
1318.603, 113.817
1319.807, 98.333
1321.012, 91.932
1322.216, 147.233
1323.421, 116.646
1324.625, 56.391
1325.829, 117.804
1327.032, 129.150
1328.236, 99.353
1329.439, 142.911
1330.642, 107.272
1331.845, 92.251
1333.048, 104.889
1334.251, 102.624
1335.453, 102.343
1336.656, 108.451
1337.858, 107.233
1339.060, 68.183
1340.261, 89.262
1341.463, 85.658
1342.664, 70.812
1343.866, 87.720
1345.067, 56.958
1346.267, 27.805
1347.468, 59.520
1348.669, 66.403
1349.869, 32.519
1351.069, 97.717
1352.269, 81.709
1353.469, 43.546
1354.668, 78.004
1355.868, 93.667
1357.067, 106.420
1358.266, 38.957
1359.465, 103.417
1360.664, 13.907
1361.862, 86.769
1363.061, 99.539
1364.259, 43.150
1365.457, 57.092
1366.655, 68.702
1367.852, 37.396
1369.050, 48.433
1370.247, 26.690
1371.444, 70.590
1372.641, 50.718
1373.838, 106.323
1375.035, 65.078
1376.231, 11.647
1377.427, 43.157
1378.623, 89.580
1379.819, 73.960
1381.015, 27.591
1382.211, 75.425
1383.406, 36.657
1384.601, 4.390
1385.796, 48.770
1386.991, 34.041
1388.185, 27.387
1389.380, 71.903
1390.574, 31.687
1391.768, 85.805
1392.962, 7.518
1394.156, 54.222
1395.350, 85.627
1396.543, 30.612
1397.736, 34.206
1398.929, 12.110
1400.122, 34.669
1401.315, 93.020
1402.507, 94.489
1403.700, 94.447
1404.892, 115.082
1406.084, 55.305
1407.276, 59.393
1408.467, 28.603
1409.659, 36.453
1410.850, 77.450
1412.041, 104.445
1413.232, 76.453
1414.423, 68.482
1415.614, 67.181
1416.804, 52.062
1417.994, 43.628
1419.184, 50.001
1420.374, 37.280
1421.564, 56.525
1422.753, 93.446
1423.943, 53.833
1425.132, 80.069
1426.321, 87.909
1427.510, 76.972
1428.698, 84.161
1429.887, 87.915
1431.075, 92.088
1432.263, 40.029
1433.451, 38.657
1434.639, 68.038
1435.827, 46.077
1437.014, 66.877
1438.201, 93.502
1439.388, 103.777
1440.575, 41.342
1441.762, 65.272
1442.949, 43.798
1444.135, 79.302
1445.321, 22.392
1446.507, 72.178
1447.693, 112.122
1448.879, 39.727
1450.064, 36.644
1451.250, 119.105
1452.435, 89.904
1453.620, 56.165
1454.805, 47.385
1455.989, 45.665
1457.174, 81.718
1458.358, 72.895
1459.542, 57.969
1460.726, 108.125
1461.910, 42.561
1463.093, 29.880
1464.277, 76.805
1465.460, 78.875
1466.643, 31.166
1467.826, 23.420
1469.009, 27.479
1470.191, 16.457
1471.373, 5.303
1472.556, 6.388
1473.738, 5.602
1474.919, 25.469
1476.101, 22.704
1477.283, 49.045
1478.464, 50.464
1479.645, 78.882
1480.826, 16.316
1482.007, 31.730
1483.187, 45.991
1484.368, 8.376
1485.548, 97.746
1486.728, 24.205
1487.908, 24.672
1489.088, 73.196
1490.268, 63.786
1491.447, 54.389
1492.626, 50.030
1493.805, 57.701
1494.984, 23.419
1496.163, 22.904
1497.341, 61.431
1498.520, 44.196
1499.698, 60.992
1500.876, 22.821
1502.054, 51.676
1503.232, 40.609
1504.409, 23.594
1505.586, 19.628
1506.763, 58.712
1507.940, 34.916
1509.117, 55.298
1510.294, 44.797
1511.470, 2.558
1512.647, 36.267
1513.823, 22.332
1514.999, 13.675
1516.174, 61.317
1517.350, 1.052
1518.526, 0.000
##END=



