##NAMES=Aegirine
##RRUFFID=R040054
##IDEAL CHEMISTRY=NaFe^3+^Si_2_O_6_
##LOCALITY=Mont Saint-Hilaire, Rouville County, Quebec, Canada
##OWNER=RRUFF
##SOURCE=Bob Downs
##DESCRIPTION=Black cleavage fragments
##STATUS=The identification of this mineral has been confirmed by X-ray diffraction and chemical analysis
##URL=rruff.info/R040054
##MEASURED CHEMISTRY=(Na_0.96_Ca_0.04_)(Fe_0.86_Ti_0.07_Mn_0.06_Mg_0.02_)(Si_0.97_Al_0.03_)_2_O_6_
##PIN_ID=L00062
##ORIENTATION=Laser parallel to -b* (0 -1 0). Fiducial mark perpendicular to laser is parallel to c [0 0 1]
126.063, 0.000
127.452, 1.324
128.840, 61.945
130.228, 100.146
131.615, 200.491
133.003, 142.093
134.390, 26.242
135.777, 159.842
137.164, 119.553
138.550, 255.795
139.937, 198.542
141.323, 104.224
142.709, 133.860
144.094, 115.866
145.480, 96.763
146.865, 88.586
148.250, 71.670
149.635, 33.944
151.019, 42.523
152.403, 25.836
153.788, 57.430
155.171, 44.705
156.555, 41.866
157.939, 93.080
159.322, 46.284
160.705, 104.214
162.088, 120.403
163.470, 139.392
164.853, 237.092
166.235, 136.732
167.617, 180.519
168.998, 274.649
170.380, 465.304
171.761, 709.634
173.142, 881.769
174.523, 1298.156
175.904, 1791.850
177.284, 2143.478
178.664, 2474.586
180.044, 2644.983
181.424, 2996.647
182.803, 3327.716
184.183, 4113.085
185.562, 5391.158
186.940, 7155.758
188.319, 9266.667
189.698, 11025.663
191.076, 12036.179
192.454, 11952.416
193.831, 11494.493
195.209, 9612.905
196.586, 7736.943
197.963, 6007.223
199.340, 4592.047
200.717, 3716.182
202.093, 3114.776
203.470, 2630.399
204.846, 2438.040
206.221, 2351.705
207.597, 2196.383
208.972, 2135.127
210.347, 2270.151
211.722, 2115.421
213.097, 2037.899
214.472, 1874.548
215.846, 1725.340
217.220, 1398.248
218.594, 1239.245
219.967, 1039.311
221.341, 796.420
222.714, 734.553
224.087, 536.688
225.460, 416.810
226.832, 302.907
228.204, 204.980
229.577, 263.021
230.948, 83.036
232.320, 148.037
233.692, 104.018
235.063, 71.973
236.434, 1.893
237.805, 23.231
239.175, 25.587
240.545, 35.663
241.916, 2.008
243.286, 71.403
244.655, 47.897
246.025, 69.474
247.394, 50.133
248.763, 39.872
250.132, 16.689
251.501, 82.583
252.869, 102.554
254.237, 49.600
255.605, 39.720
256.973, 18.087
258.340, 79.804
259.708, 47.407
261.075, 100.878
262.442, 113.202
263.808, 99.359
265.175, 160.304
266.541, 178.033
267.907, 195.515
269.273, 314.867
270.639, 391.645
272.004, 554.297
273.369, 631.162
274.734, 764.532
276.099, 819.125
277.463, 919.979
278.828, 937.621
280.192, 912.173
281.556, 973.324
282.919, 867.677
284.283, 840.008
285.646, 772.987
287.009, 670.106
288.372, 740.784
289.734, 668.723
291.097, 726.668
292.459, 751.809
293.821, 744.126
295.183, 807.069
296.544, 893.598
297.905, 898.812
299.266, 990.202
300.627, 1036.481
301.988, 1142.267
303.348, 1111.919
304.709, 1198.110
306.069, 1225.780
307.428, 1333.476
308.788, 1304.566
310.147, 1313.231
311.507, 1422.763
312.865, 1449.055
314.224, 1483.646
315.583, 1503.176
316.941, 1594.081
318.299, 1742.131
319.657, 1897.356
321.015, 1958.391
322.372, 2244.374
323.729, 2394.647
325.086, 2650.137
326.443, 3038.491
327.800, 3485.752
329.156, 4043.263
330.512, 4649.045
331.868, 5593.951
333.224, 6611.080
334.579, 7722.812
335.935, 9054.430
337.290, 10245.933
338.645, 10797.328
339.999, 11104.270
341.354, 10959.689
342.708, 10450.603
344.062, 9621.334
345.416, 8211.832
346.769, 7392.080
348.123, 6332.065
349.476, 5676.736
350.829, 4875.111
352.182, 4520.247
353.534, 4277.064
354.887, 4051.646
356.239, 4012.090
357.591, 4076.418
358.942, 4193.644
360.294, 4377.785
361.645, 4647.858
362.996, 4990.886
364.347, 5250.884
365.698, 5332.854
367.048, 5356.797
368.398, 5006.710
369.748, 4580.596
371.098, 4243.453
372.448, 3814.281
373.797, 3525.077
375.146, 3379.843
376.495, 3241.576
377.844, 3136.274
379.192, 3156.939
380.540, 3135.569
381.889, 3168.165
383.236, 3225.724
384.584, 3227.136
385.932, 3270.582
387.279, 3177.164
388.626, 3067.452
389.973, 2981.479
391.319, 2695.955
392.666, 2456.896
394.012, 2179.545
395.358, 1927.911
396.704, 1680.456
398.049, 1417.946
399.394, 1274.049
400.740, 1011.589
402.084, 963.838
403.429, 814.625
404.774, 834.790
406.118, 615.361
407.462, 590.422
408.806, 534.143
410.150, 477.094
411.493, 411.703
412.836, 408.781
414.179, 286.738
415.522, 250.454
416.865, 174.508
418.207, 222.192
419.549, 96.275
420.891, 127.805
422.233, 69.714
423.575, 60.567
424.916, 84.561
426.257, 0.368
427.598, 32.919
428.939, 38.600
430.279, 15.413
431.619, 43.103
432.959, 33.092
434.299, 50.734
435.639, 43.549
436.978, 0.823
438.318, 7.933
439.657, 20.000
440.996, 31.975
442.334, 28.003
443.673, 23.941
445.011, 3.161
446.349, 49.695
447.687, 5.519
449.024, 62.306
450.361, 105.061
451.699, 115.785
453.036, 146.724
454.372, 152.689
455.709, 156.147
457.045, 168.348
458.381, 158.752
459.717, 179.943
461.053, 200.830
462.388, 217.835
463.724, 178.449
465.059, 212.910
466.394, 185.119
467.728, 127.490
469.063, 179.863
470.397, 199.374
471.731, 152.998
473.065, 141.537
474.398, 196.833
475.732, 179.390
477.065, 247.634
478.398, 223.286
479.731, 336.676
481.063, 312.588
482.396, 418.926
483.728, 429.196
485.060, 582.471
486.391, 766.416
487.723, 894.518
489.054, 1095.297
490.385, 1432.972
491.716, 1911.870
493.047, 2508.301
494.377, 3004.814
495.708, 3616.119
497.038, 3854.534
498.368, 3754.857
499.697, 3391.095
501.027, 2865.292
502.356, 2356.484
503.685, 1878.609
505.014, 1514.697
506.342, 1235.745
507.671, 1059.758
508.999, 949.734
510.327, 760.675
511.655, 767.583
512.982, 654.458
514.310, 603.301
515.637, 555.114
516.964, 521.896
518.291, 481.650
519.617, 493.373
520.944, 519.067
522.270, 513.732
523.596, 590.369
524.921, 629.976
526.247, 625.554
527.572, 662.104
528.897, 752.625
530.222, 907.116
531.547, 1036.579
532.871, 1130.013
534.196, 1385.418
535.520, 1659.795
536.844, 1933.143
538.167, 2374.462
539.491, 2805.751
540.814, 3239.048
542.137, 3567.370
543.460, 3729.625
544.783, 3852.873
546.105, 3915.112
547.427, 3840.398
548.749, 3718.557
550.071, 3656.776
551.393, 3634.116
552.714, 3473.354
554.035, 3392.654
555.356, 3462.937
556.677, 3240.225
557.998, 3225.472
559.318, 3178.927
560.638, 3099.143
561.958, 3020.368
563.278, 3011.392
564.597, 2949.416
565.917, 2870.653
567.236, 2930.758
568.555, 2892.034
569.874, 2770.082
571.192, 2817.836
572.511, 2694.630
573.829, 2757.163
575.147, 2632.528
576.464, 2608.516
577.782, 2459.905
579.099, 2548.625
580.416, 2455.739
581.733, 2409.490
583.050, 2297.070
584.366, 2279.784
585.683, 2070.845
586.999, 2094.193
588.315, 1932.590
589.630, 1816.919
590.946, 1728.493
592.261, 1536.025
593.576, 1497.503
594.891, 1359.936
596.206, 1178.141
597.520, 1060.478
598.834, 888.890
600.148, 774.459
601.462, 659.844
602.776, 588.266
604.089, 465.499
605.402, 363.346
606.715, 320.383
608.028, 206.120
609.341, 243.215
610.653, 130.063
611.965, 108.245
613.277, 47.517
614.589, 59.727
615.901, 75.191
617.212, 0.906
618.523, 48.226
619.834, 20.720
621.145, 7.397
622.456, 38.879
623.766, 12.628
625.076, 54.845
626.386, 37.833
627.696, 56.714
629.006, 3.786
630.315, 23.466
631.624, 68.719
632.933, 22.822
634.242, 34.895
635.551, 3.675
636.859, 9.276
638.167, 8.756
639.475, 11.517
640.783, 20.254
642.090, 16.057
643.398, 93.777
644.705, 51.776
646.012, 128.992
647.318, 148.750
648.625, 93.873
649.931, 204.152
651.237, 177.911
652.543, 228.622
653.849, 195.373
655.155, 212.284
656.460, 237.637
657.765, 260.215
659.070, 220.898
660.375, 322.583
661.679, 272.990
662.984, 329.374
664.288, 360.732
665.592, 375.067
666.895, 418.378
668.199, 597.666
669.502, 640.930
670.805, 802.170
672.108, 1008.387
673.411, 1171.581
674.713, 1325.751
676.016, 1365.476
677.318, 1448.023
678.620, 1322.125
679.921, 1234.204
681.223, 1084.260
682.524, 914.294
683.825, 785.305
685.126, 626.294
686.427, 542.261
687.727, 422.206
689.028, 384.129
690.328, 392.030
691.628, 330.909
692.927, 299.546
694.227, 293.603
695.526, 218.417
696.825, 180.211
698.124, 165.982
699.423, 173.732
700.721, 167.461
702.020, 161.168
703.318, 142.854
704.616, 166.518
705.913, 145.752
707.211, 111.781
708.508, 130.380
709.805, 111.956
711.102, 111.510
712.399, 106.042
713.695, 112.552
714.992, 62.039
716.288, 119.502
717.584, 115.243
718.879, 190.364
720.175, 166.764
721.470, 116.143
722.765, 149.501
724.060, 111.839
725.355, 142.155
726.649, 169.450
727.944, 150.528
729.238, 104.983
730.532, 126.222
731.825, 157.444
733.119, 111.649
734.412, 161.838
735.705, 85.012
736.998, 114.169
738.291, 138.311
739.584, 135.440
740.876, 300.554
742.168, 203.264
743.460, 229.750
744.752, 105.829
746.043, 99.896
747.334, 86.949
748.626, 140.989
749.916, 124.016
751.207, 86.031
752.498, 67.035
753.788, 69.026
755.078, 40.004
756.368, 82.974
757.658, 61.931
758.947, 40.875
760.237, 17.192
761.526, 7.456
762.815, 1.167
764.104, 18.438
765.392, 40.274
766.680, 2.198
767.969, 16.212
769.257, 17.354
770.544, 7.467
771.832, 0.748
773.119, 2.418
774.406, 30.636
775.693, 24.036
776.980, 70.668
778.267, 12.922
779.553, 1.646
780.839, 45.452
782.125, 5.654
783.411, 20.447
784.697, 28.736
785.982, 14.015
787.267, 64.123
788.552, 3.570
789.837, 37.768
791.122, 53.444
792.406, 62.929
793.690, 38.011
794.974, 26.583
796.258, 62.149
797.542, 77.787
798.825, 51.167
800.108, 87.769
801.391, 49.121
802.674, 72.433
803.957, 76.035
805.239, 35.239
806.522, 52.583
807.804, 86.785
809.085, 58.168
810.367, 66.784
811.649, 9.135
812.930, 22.211
814.211, 2.607
815.492, 63.014
816.772, 65.629
818.053, 102.237
819.333, 97.838
820.613, 154.433
821.893, 139.022
823.173, 124.604
824.452, 126.181
825.732, 161.751
827.011, 194.317
828.290, 284.877
829.568, 272.432
830.847, 323.981
832.125, 324.527
833.403, 404.067
834.681, 352.604
835.959, 460.136
837.236, 486.665
838.514, 544.189
839.791, 544.710
841.068, 647.228
842.345, 630.742
843.621, 765.254
844.898, 747.763
846.174, 894.269
847.450, 912.773
848.726, 963.274
850.001, 1090.773
851.277, 1202.236
852.552, 1227.643
853.827, 1349.086
855.102, 1384.508
856.376, 1465.908
857.651, 1507.237
858.925, 1599.670
860.199, 1572.021
861.473, 1637.235
862.746, 1649.533
864.020, 1686.762
865.293, 1681.995
866.566, 1688.211
867.839, 1706.461
869.112, 1739.506
870.384, 1759.799
871.656, 1766.081
872.928, 1767.578
874.200, 1685.080
875.472, 1621.393
876.744, 1682.852
878.015, 1576.163
879.286, 1564.620
880.557, 1495.149
881.828, 1424.672
883.098, 1415.012
884.369, 1313.452
885.639, 1349.002
886.909, 1359.407
888.178, 1306.981
889.448, 1312.304
890.717, 1283.760
891.987, 1300.334
893.256, 1331.923
894.524, 1226.559
895.793, 1342.212
897.061, 1296.876
898.330, 1371.430
899.598, 1301.981
900.865, 1388.505
902.133, 1424.240
903.401, 1411.966
904.668, 1389.554
905.935, 1437.089
907.202, 1384.646
908.468, 1402.105
909.735, 1408.766
911.001, 1469.357
912.267, 1483.891
913.533, 1450.261
914.799, 1572.101
916.064, 1497.630
917.330, 1570.985
918.595, 1578.622
919.860, 1565.045
921.124, 1581.415
922.389, 1638.094
923.653, 1705.093
924.918, 1770.847
926.182, 1821.451
927.445, 1878.216
928.709, 1988.985
929.972, 1990.975
931.236, 2131.561
932.499, 2181.495
933.761, 2271.928
935.024, 2428.456
936.286, 2577.651
937.549, 2740.399
938.811, 3013.082
940.073, 3257.895
941.334, 3584.253
942.596, 3959.991
943.857, 4388.725
945.118, 4968.912
946.379, 5580.679
947.640, 6365.162
948.900, 6728.562
950.161, 7273.033
951.421, 7499.213
952.681, 7213.160
953.940, 7059.555
955.200, 6528.573
956.459, 6109.422
957.719, 5945.782
958.978, 5693.179
960.236, 5428.528
961.495, 5194.707
962.753, 4915.438
964.012, 4653.940
965.270, 4188.323
966.527, 3992.699
967.785, 3692.345
969.043, 3295.007
970.300, 3044.685
971.557, 2979.380
972.814, 2589.092
974.071, 2443.820
975.327, 2384.564
976.583, 2201.325
977.840, 2093.103
979.095, 1979.897
980.351, 1869.709
981.607, 1745.538
982.862, 1665.021
984.117, 1594.258
985.372, 1532.151
986.627, 1502.062
987.882, 1501.989
989.136, 1358.934
990.390, 1391.895
991.644, 1355.873
992.898, 1383.869
994.152, 1348.881
995.405, 1334.091
996.659, 1337.500
997.912, 1308.029
999.165, 1321.112
1000.417, 1350.214
1001.670, 1332.332
1002.922, 1353.471
1004.174, 1337.627
1005.426, 1374.802
1006.678, 1387.993
1007.930, 1367.203
1009.181, 1442.431
1010.432, 1457.677
1011.683, 1496.940
1012.934, 1577.222
1014.185, 1458.780
1015.435, 1444.098
1016.685, 1562.435
1017.935, 1367.789
1019.185, 1358.161
1020.435, 1282.553
1021.684, 1268.964
1022.934, 1330.796
1024.183, 1242.335
1025.432, 1398.964
1026.680, 1199.453
1027.929, 1010.959
1029.177, 1102.785
1030.425, 984.535
1031.673, 1093.535
1032.921, 1132.103
1034.169, 1152.486
1035.416, 1166.389
1036.663, 1260.710
1037.911, 1157.425
1039.157, 1171.075
1040.404, 1221.943
1041.650, 1264.966
1042.897, 1342.391
1044.143, 1226.901
1045.389, 1368.494
1046.634, 1316.531
1047.880, 1338.412
1049.125, 1411.870
1050.371, 1395.982
1051.615, 1439.186
1052.860, 1444.072
1054.105, 1479.114
1055.349, 1552.056
1056.593, 1586.225
1057.837, 1621.790
1059.081, 1658.700
1060.325, 1612.143
1061.568, 1702.132
1062.812, 1570.898
1064.055, 1506.960
1065.298, 1658.508
1066.540, 1574.729
1067.783, 1517.806
1069.025, 1572.992
1070.267, 1548.100
1071.509, 1663.298
1072.751, 1552.672
1073.993, 1510.280
1075.234, 1607.512
1076.475, 1530.781
1077.716, 1572.792
1078.957, 1518.198
1080.198, 1504.798
1081.438, 1500.759
1082.679, 1434.009
1083.919, 1431.209
1085.159, 1417.580
1086.398, 1353.816
1087.638, 1335.088
1088.877, 1251.389
1090.116, 1312.702
1091.355, 1231.705
1092.594, 1199.807
1093.833, 1117.780
1095.071, 1142.164
1096.309, 1055.618
1097.547, 1106.122
1098.785, 1032.582
1100.023, 943.087
1101.260, 1043.584
1102.498, 955.113
1103.735, 900.663
1104.972, 882.239
1106.208, 872.842
1107.445, 862.486
1108.681, 852.163
1109.918, 785.979
1111.154, 807.536
1112.389, 748.469
1113.625, 744.197
1114.860, 805.992
1116.096, 719.731
1117.331, 712.637
1118.566, 677.524
1119.800, 757.277
1121.035, 822.036
1122.269, 861.798
1123.503, 831.970
1124.737, 843.336
1125.971, 696.110
1127.205, 671.036
1128.438, 554.860
1129.671, 586.693
1130.904, 603.844
1132.137, 471.784
1133.370, 524.217
1134.602, 510.122
1135.834, 522.003
1137.066, 445.806
1138.298, 379.650
1139.530, 420.457
1140.762, 391.358
1141.993, 346.168
1143.224, 267.527
1144.455, 305.340
1145.686, 226.190
1146.917, 288.139
1148.147, 157.986
1149.377, 178.855
1150.607, 152.322
1151.837, 79.230
1153.067, 109.179
1154.296, 184.002
1155.526, 109.911
1156.755, 103.986
1157.984, 50.803
1159.213, 85.619
1160.441, 67.434
1161.670, 13.752
1162.898, 41.080
1164.126, 16.979
1165.354, 41.787
1166.581, 7.593
1167.809, 14.578
1169.036, 13.380
1170.263, 0.053
1171.490, 21.149
1172.717, 8.663
1173.943, 2.504
1175.170, 2.286
1176.396, 46.934
1177.622, 28.180
1178.848, 31.441
1180.073, 15.335
1181.299, 5.947
1182.524, 45.765
1183.749, 31.527
1184.974, 37.838
1186.199, 19.827
1187.423, 4.416
1188.648, 23.762
1189.872, 61.054
1191.096, 61.414
1192.320, 45.854
1193.543, 20.136
1194.767, 32.625
1195.990, 40.882
1197.213, 50.425
1198.436, 50.959
1199.659, 29.033
1200.881, 30.673
1202.104, 44.169
1203.326, 1.202
1204.548, 36.507
1205.770, 25.246
1206.991, 17.010
1208.213, 56.796
1209.434, 20.623
1210.655, 8.474
1211.876, 31.343
1213.096, 41.232
1214.317, 16.834
1215.537, 10.892
1216.757, 69.059
1217.977, 6.061
1219.197, 24.081
1220.417, 11.130
1221.636, 16.799
1222.855, 4.280
1224.074, 31.379
1225.293, 13.490
1226.512, 9.348
1227.731, 12.805
1228.949, 29.017
1230.167, 0.831
1231.385, 21.723
1232.603, 64.416
1233.820, 46.192
1235.038, 43.961
1236.255, 48.722
1237.472, 62.476
1238.689, 36.221
1239.906, 55.957
1241.122, 62.721
1242.338, 44.440
1243.555, 37.150
1244.771, 54.851
1245.986, 51.649
1247.202, 61.424
1248.417, 68.875
1249.633, 66.528
1250.848, 67.170
1252.063, 67.378
1253.277, 58.422
1254.492, 56.030
1255.706, 37.619
1256.920, 13.187
1258.134, 34.736
1259.348, 66.273
1260.562, 53.796
1261.775, 84.303
1262.988, 40.797
1264.201, 43.276
1265.414, 88.737
1266.627, 226.183
1267.839, 180.194
1269.052, 200.031
1270.264, 144.434
1271.476, 104.822
1272.688, 47.195
1273.899, 66.551
1275.111, 65.887
1276.322, 9.208
1277.533, 49.507
1278.744, 4.790
1279.955, 54.050
1281.165, 60.829
1282.376, 104.523
1283.586, 71.736
1284.796, 113.932
1286.006, 60.112
1287.215, 119.276
1288.425, 33.422
1289.634, 109.548
1290.843, 75.657
1292.052, 56.751
1293.261, 77.830
1294.469, 72.894
1295.678, 31.944
1296.886, 64.937
1298.094, 58.997
1299.302, 86.002
1300.509, 65.993
1301.717, 50.972
1302.924, 104.935
1304.131, 90.886
1305.338, 89.823
1306.545, 97.748
1307.752, 84.401
1308.958, 68.299
1310.164, 107.183
1311.370, 102.053
1312.576, 58.910
1313.782, 146.753
1314.987, 28.582
1316.193, 126.370
1317.398, 85.536
1318.603, 78.320
1319.807, 116.086
1321.012, 96.837
1322.216, 99.272
1323.421, 94.788
1324.625, 75.057
1325.829, 104.762
1327.032, 97.287
1328.236, 104.967
1329.439, 135.999
1330.642, 94.574
1331.845, 62.218
1333.048, 113.648
1334.251, 66.930
1335.453, 70.813
1336.656, 100.617
1337.858, 43.343
1339.060, 85.627
1340.261, 36.075
1341.463, 83.950
1342.664, 48.175
1343.866, 17.316
1345.067, 65.779
1346.267, 31.091
1347.468, 40.507
1348.669, 97.705
1349.869, 79.511
1351.069, 63.980
1352.269, 78.922
1353.469, 56.325
1354.668, 93.958
1355.868, 93.314
1357.067, 41.195
1358.266, 55.418
1359.465, 42.825
1360.664, 77.101
1361.862, 78.470
1363.061, 36.760
1364.259, 34.887
1365.457, 48.797
1366.655, 48.100
1367.852, 77.381
1369.050, 78.933
1370.247, 48.512
1371.444, 98.503
1372.641, 46.149
1373.838, 55.542
1375.035, 79.923
1376.231, 25.097
1377.427, 45.381
1378.623, 71.981
1379.819, 61.586
1381.015, 69.104
1382.211, 96.618
1383.406, 81.056
1384.601, 17.535
1385.796, 99.020
1386.991, 126.478
1388.185, 46.843
1389.380, 39.140
1390.574, 51.257
1391.768, 86.522
1392.962, 70.492
1394.156, 79.768
1395.350, 140.016
1396.543, 64.235
1397.736, 102.205
1398.929, 83.705
1400.122, 69.696
1401.315, 104.534
1402.507, 87.517
1403.700, 95.405
1404.892, 51.698
1406.084, 87.586
1407.276, 107.281
1408.467, 100.252
1409.659, 61.795
1410.850, 56.463
1412.041, 61.883
1413.232, 50.609
1414.423, 72.273
1415.614, 74.813
1416.804, 82.191
1417.994, 94.562
1419.184, 109.250
1420.374, 97.515
1421.564, 133.012
1422.753, 92.439
1423.943, 66.922
1425.132, 127.382
1426.321, 48.701
1427.510, 89.034
1428.698, 128.464
1429.887, 84.703
1431.075, 109.853
1432.263, 97.519
1433.451, 109.889
1434.639, 133.453
1435.827, 134.165
1437.014, 118.922
1438.201, 120.724
1439.388, 71.561
1440.575, 74.419
1441.762, 64.256
1442.949, 61.316
1444.135, 72.292
1445.321, 94.307
1446.507, 130.328
1447.693, 99.356
1448.879, 147.375
1450.064, 70.378
1451.250, 67.354
1452.435, 79.230
1453.620, 126.155
1454.805, 73.068
1455.989, 155.975
1457.174, 103.870
1458.358, 102.744
1459.542, 113.623
1460.726, 163.553
1461.910, 90.478
1463.093, 85.414
1464.277, 111.362
1465.460, 62.328
1466.643, 105.310
1467.826, 114.303
1469.009, 49.332
1470.191, 85.398
1471.373, 44.491
1472.556, 111.611
1473.738, 44.768
1474.919, 115.963
1476.101, 65.218
1477.283, 89.526
1478.464, 66.865
1479.645, 106.230
1480.826, 70.620
1482.007, 23.029
1483.187, 77.457
1484.368, 82.904
1485.548, 58.374
1486.728, 39.876
1487.908, 63.414
1489.088, 18.994
1490.268, 76.622
1491.447, 57.301
1492.626, 39.034
1493.805, 3.827
1494.984, 23.683
1496.163, 44.605
1497.341, 53.596
1498.520, 19.656
1499.698, 26.787
1500.876, 2.006
1502.054, 3.289
1503.232, 42.683
1504.409, 6.189
1505.586, 93.819
1506.763, 96.585
1507.940, 36.503
1509.117, 38.593
1510.294, 62.376
1511.470, 3.181
1512.647, 61.508
1513.823, 85.479
1514.999, 19.847
1516.174, 67.153
1517.350, 22.452
1518.526, 0.000
##END=



