##NAMES=Aegirine
##RRUFFID=R040054
##IDEAL CHEMISTRY=NaFe^3+^Si_2_O_6_
##LOCALITY=Mont Saint-Hilaire, Rouville County, Quebec, Canada
##OWNER=RRUFF
##SOURCE=Bob Downs
##DESCRIPTION=Black cleavage fragments
##STATUS=The identification of this mineral has been confirmed by X-ray diffraction and chemical analysis
##URL=rruff.info/R040054
##MEASURED CHEMISTRY=(Na_0.96_Ca_0.04_)(Fe_0.86_Ti_0.07_Mn_0.06_Mg_0.02_)(Si_0.97_Al_0.03_)_2_O_6_
##PIN_ID=L00298
##ORIENTATION=Laser parallel to a [1 0 0]. Fiducial mark perpendicular to laser is parallel to b* (0 1 0)
148.250, 0.000
149.635, 161.588
151.019, 1.922
152.403, 134.667
153.788, 22.018
155.171, 161.873
156.555, 140.680
157.939, 104.290
159.322, 52.536
160.705, 38.921
162.088, 78.493
163.470, 121.917
164.853, 106.504
166.235, 112.731
167.617, 34.425
168.998, 80.831
170.380, 182.493
171.761, 287.296
173.142, 388.662
174.523, 580.601
175.904, 800.303
177.284, 940.942
178.664, 1112.157
180.044, 1116.733
181.424, 1146.586
182.803, 1282.843
184.183, 1489.688
185.562, 1840.597
186.940, 2410.027
188.319, 3150.991
189.698, 3911.177
191.076, 4442.838
192.454, 4533.015
193.831, 4377.604
195.209, 3995.466
196.586, 3436.271
197.963, 2782.550
199.340, 2311.695
200.717, 2041.226
202.093, 1736.468
203.470, 1600.113
204.846, 1452.447
206.221, 1338.835
207.597, 1260.565
208.972, 1098.190
210.347, 1092.053
211.722, 965.777
213.097, 899.999
214.472, 860.785
215.846, 787.561
217.220, 712.477
218.594, 638.158
219.967, 548.015
221.341, 465.905
222.714, 387.834
224.087, 303.776
225.460, 331.722
226.832, 291.651
228.204, 292.557
229.577, 175.453
230.948, 213.386
232.320, 159.452
233.692, 77.638
235.063, 88.944
236.434, 105.349
237.805, 11.164
239.175, 29.605
240.545, 32.990
241.916, 9.674
243.286, 17.619
244.655, 19.125
246.025, 10.897
247.394, 70.308
248.763, 76.497
250.132, 2.325
251.501, 28.846
252.869, 0.984
254.237, 31.191
255.605, 47.381
256.973, 39.595
258.340, 19.161
259.708, 65.885
261.075, 72.573
262.442, 36.227
263.808, 57.847
265.175, 62.434
266.541, 89.988
267.907, 107.128
269.273, 108.993
270.639, 154.437
272.004, 195.833
273.369, 230.175
274.734, 206.451
276.099, 309.613
277.463, 398.639
278.828, 356.562
280.192, 514.376
281.556, 476.028
282.919, 475.719
284.283, 485.073
285.646, 501.684
287.009, 460.226
288.372, 496.929
289.734, 525.021
291.097, 469.392
292.459, 581.254
293.821, 547.985
295.183, 610.387
296.544, 605.016
297.905, 695.386
299.266, 744.812
300.627, 708.140
301.988, 780.800
303.348, 864.533
304.709, 889.003
306.069, 840.250
307.428, 918.787
308.788, 1079.697
310.147, 938.467
311.507, 1065.417
312.865, 1033.350
314.224, 1058.506
315.583, 1047.119
316.941, 1056.135
318.299, 1107.458
319.657, 1182.601
321.015, 1204.373
322.372, 1326.137
323.729, 1369.479
325.086, 1521.778
326.443, 1662.781
327.800, 1836.826
329.156, 2059.603
330.512, 2400.289
331.868, 2789.556
333.224, 3122.901
334.579, 3753.324
335.935, 4147.649
337.290, 4853.869
338.645, 5287.978
339.999, 5420.970
341.354, 5407.852
342.708, 5095.626
344.062, 4937.303
345.416, 4408.890
346.769, 4104.389
348.123, 3693.811
349.476, 3578.158
350.829, 3343.422
352.182, 3146.606
353.534, 3119.702
354.887, 3094.694
356.239, 3181.583
357.591, 3463.279
358.942, 3707.791
360.294, 4149.157
361.645, 4541.341
362.996, 4864.341
364.347, 5445.203
365.698, 5552.897
367.048, 5592.475
368.398, 5280.997
369.748, 4955.462
371.098, 4429.882
372.448, 3956.264
373.797, 3522.620
375.146, 3217.955
376.495, 3044.278
377.844, 2821.593
379.192, 2724.898
380.540, 2662.194
381.889, 2617.479
383.236, 2565.756
384.584, 2519.022
385.932, 2531.207
387.279, 2438.037
388.626, 2340.982
389.973, 2331.758
391.319, 2043.535
392.666, 1926.748
394.012, 1713.189
395.358, 1551.278
396.704, 1319.561
398.049, 1134.993
399.394, 1009.636
400.740, 791.244
402.084, 763.729
403.429, 607.035
404.774, 525.957
406.118, 456.287
407.462, 405.583
408.806, 376.628
410.150, 315.733
411.493, 287.475
412.836, 275.186
414.179, 223.967
415.522, 212.644
416.865, 125.323
418.207, 138.006
419.549, 62.198
420.891, 105.617
422.233, 108.797
423.575, 52.058
424.916, 60.819
426.257, 45.891
427.598, 20.018
428.939, 2.438
430.279, 20.008
431.619, 52.553
432.959, 16.468
434.299, 8.543
435.639, 39.749
436.978, 2.844
438.318, 36.360
439.657, 25.971
440.996, 14.678
442.334, 12.312
443.673, 41.932
445.011, 29.537
446.349, 9.124
447.687, 39.692
449.024, 4.758
450.361, 87.773
451.699, 108.284
453.036, 89.812
454.372, 80.642
455.709, 93.482
457.045, 144.480
458.381, 87.526
459.717, 117.514
461.053, 160.589
462.388, 106.653
463.724, 101.251
465.059, 64.198
466.394, 60.352
467.728, 96.801
469.063, 73.344
470.397, 79.178
471.731, 72.373
473.065, 49.790
474.398, 78.635
475.732, 46.897
477.065, 74.719
478.398, 7.790
479.731, 18.088
481.063, 86.316
482.396, 68.867
483.728, 129.804
485.060, 101.534
486.391, 184.140
487.723, 157.809
489.054, 258.111
490.385, 342.602
491.716, 403.931
493.047, 569.210
494.377, 725.401
495.708, 884.523
497.038, 927.994
498.368, 971.750
499.697, 916.747
501.027, 894.715
502.356, 744.725
503.685, 575.639
505.014, 445.527
506.342, 385.761
507.671, 384.738
508.999, 369.442
510.327, 340.617
511.655, 257.814
512.982, 244.681
514.310, 210.016
515.637, 262.699
516.964, 186.358
518.291, 208.993
519.617, 268.605
520.944, 268.196
522.270, 245.764
523.596, 315.311
524.921, 289.837
526.247, 372.344
527.572, 362.832
528.897, 364.300
530.222, 480.748
531.547, 531.177
532.871, 539.588
534.196, 669.979
535.520, 724.351
536.844, 771.704
538.167, 976.037
539.491, 1078.352
540.814, 1244.647
542.137, 1378.923
543.460, 1492.301
544.783, 1727.659
546.105, 1761.877
547.427, 1948.408
548.749, 1991.598
550.071, 2096.913
551.393, 2168.094
552.714, 2194.310
554.035, 2269.651
555.356, 2294.715
556.677, 2304.581
557.998, 2332.294
559.318, 2296.463
560.638, 2270.823
561.958, 2250.197
563.278, 2230.026
564.597, 2219.633
565.917, 2217.875
567.236, 2177.978
568.555, 2205.126
569.874, 2200.200
571.192, 2229.466
572.511, 2073.660
573.829, 2084.762
575.147, 2063.748
576.464, 1991.399
577.782, 2036.122
579.099, 1911.554
580.416, 2018.166
581.733, 1930.428
583.050, 1714.198
584.366, 1843.602
585.683, 1620.937
586.999, 1609.156
588.315, 1488.226
589.630, 1419.837
590.946, 1386.162
592.261, 1217.323
593.576, 1129.408
594.891, 1101.638
596.206, 975.661
597.520, 878.847
598.834, 757.185
600.148, 699.248
601.462, 594.284
602.776, 538.427
604.089, 393.502
605.402, 273.472
606.715, 287.654
608.028, 171.575
609.341, 152.938
610.653, 140.337
611.965, 63.230
613.277, 56.446
614.589, 16.191
615.901, 8.047
617.212, 16.295
618.523, 5.663
619.834, 6.027
621.145, 7.022
622.456, 12.129
623.766, 28.828
625.076, 31.312
626.386, 31.630
627.696, 66.094
629.006, 36.927
630.315, 8.981
631.624, 31.134
632.933, 13.404
634.242, 3.837
635.551, 11.551
636.859, 73.731
638.167, 22.612
639.475, 17.776
640.783, 41.540
642.090, 70.445
643.398, 98.623
644.705, 81.154
646.012, 164.698
647.318, 121.631
648.625, 153.689
649.931, 162.716
651.237, 176.354
652.543, 190.910
653.849, 164.849
655.155, 202.059
656.460, 225.602
657.765, 202.052
659.070, 182.479
660.375, 199.882
661.679, 241.262
662.984, 209.620
664.288, 283.956
665.592, 298.268
666.895, 314.559
668.199, 333.827
669.502, 482.073
670.805, 484.296
672.108, 670.499
673.411, 710.678
674.713, 794.828
676.016, 915.965
677.318, 922.080
678.620, 890.174
679.921, 806.246
681.223, 673.297
682.524, 622.327
683.825, 562.336
685.126, 434.323
686.427, 407.291
687.727, 349.236
689.028, 337.162
690.328, 300.778
691.628, 249.951
692.927, 250.814
694.227, 203.658
695.526, 185.481
696.825, 169.284
698.124, 165.067
699.423, 134.830
700.721, 133.572
702.020, 176.294
703.318, 80.996
704.616, 156.675
705.913, 121.335
707.211, 147.974
708.508, 134.594
709.805, 99.193
711.102, 109.772
712.399, 130.331
713.695, 120.870
714.992, 122.389
716.288, 74.888
717.584, 71.367
718.879, 96.824
720.175, 117.260
721.470, 98.678
722.765, 128.076
724.060, 114.455
725.355, 133.814
726.649, 90.156
727.944, 104.478
729.238, 115.780
730.532, 134.064
731.825, 128.331
733.119, 145.581
734.412, 143.815
735.705, 170.034
736.998, 177.238
738.291, 113.426
739.584, 124.599
740.876, 124.757
742.168, 145.902
743.460, 181.032
744.752, 113.150
746.043, 150.258
747.334, 136.352
748.626, 161.433
749.916, 115.501
751.207, 106.557
752.498, 133.600
753.788, 183.631
755.078, 104.654
756.368, 158.664
757.658, 151.663
758.947, 124.650
760.237, 160.625
761.526, 73.589
762.815, 61.541
764.104, 67.482
765.392, 73.409
766.680, 66.286
767.969, 19.829
769.257, 0.671
770.544, 9.369
771.832, 14.154
773.119, 14.919
774.406, 3.189
775.693, 3.724
776.980, 5.205
778.267, 67.068
779.553, 59.777
780.839, 30.639
782.125, 80.226
783.411, 46.202
784.697, 45.485
785.982, 2.922
787.267, 43.149
788.552, 60.693
789.837, 48.854
791.122, 74.742
792.406, 53.082
793.690, 69.829
794.974, 68.958
796.258, 59.534
797.542, 66.955
798.825, 52.310
800.108, 38.777
801.391, 91.925
802.674, 9.322
803.957, 47.593
805.239, 0.139
806.522, 59.075
807.804, 11.268
809.085, 18.579
810.367, 1.746
811.649, 29.079
812.930, 38.901
814.211, 114.652
815.492, 86.466
816.772, 107.277
818.053, 185.085
819.333, 130.890
820.613, 197.692
821.893, 252.492
823.173, 253.289
824.452, 263.084
825.732, 323.877
827.011, 344.669
828.290, 382.884
829.568, 409.247
830.847, 457.034
832.125, 479.821
833.403, 513.607
834.681, 657.392
835.959, 631.177
837.236, 736.962
838.514, 847.747
839.791, 866.533
841.068, 972.371
842.345, 1011.985
843.621, 1127.893
844.898, 1128.681
846.174, 1221.471
847.450, 1346.263
848.726, 1385.056
850.001, 1465.851
851.277, 1579.647
852.552, 1610.446
853.827, 1744.127
855.102, 1817.810
856.376, 1821.617
857.651, 1920.096
858.925, 1864.900
860.199, 1907.566
861.473, 1918.352
862.746, 1891.094
864.020, 1849.893
865.293, 1895.003
866.566, 1919.270
867.839, 1923.696
869.112, 1848.985
870.384, 1876.297
871.656, 1862.654
872.928, 1869.412
874.200, 1846.205
875.472, 1755.939
876.744, 1811.810
878.015, 1668.641
879.286, 1621.565
880.557, 1610.328
881.828, 1551.168
883.098, 1527.076
884.369, 1466.066
885.639, 1438.522
886.909, 1443.102
888.178, 1388.151
889.448, 1413.212
890.717, 1413.290
891.987, 1332.346
893.256, 1398.452
894.524, 1379.576
895.793, 1500.712
897.061, 1525.871
898.330, 1451.045
899.598, 1529.251
900.865, 1497.478
902.133, 1440.735
903.401, 1452.007
904.668, 1448.295
905.935, 1440.221
907.202, 1519.935
908.468, 1469.270
909.735, 1533.645
911.001, 1587.030
912.267, 1549.432
913.533, 1616.845
914.799, 1589.172
916.064, 1561.466
917.330, 1585.808
918.595, 1569.350
919.860, 1615.573
921.124, 1597.680
922.389, 1668.831
923.653, 1730.514
924.918, 1657.953
926.182, 1699.393
927.445, 1806.011
928.709, 1879.258
929.972, 1953.491
931.236, 1951.924
932.499, 2099.943
933.761, 2121.919
935.024, 2228.919
936.286, 2342.264
937.549, 2397.811
938.811, 2637.280
940.073, 2801.193
941.334, 3126.068
942.596, 3284.767
943.857, 3525.911
945.118, 4016.666
946.379, 4284.438
947.640, 4763.406
948.900, 5094.034
950.161, 5397.269
951.421, 5540.490
952.681, 5512.583
953.940, 5330.461
955.200, 5187.207
956.459, 4768.982
957.719, 4569.138
958.978, 4468.373
960.236, 4294.223
961.495, 4156.102
962.753, 4034.032
964.012, 3864.359
965.270, 3680.705
966.527, 3491.070
967.785, 3335.457
969.043, 3170.864
970.300, 2875.290
971.557, 2849.738
972.814, 2569.205
974.071, 2492.693
975.327, 2481.201
976.583, 2350.665
977.840, 2198.202
979.095, 2273.850
980.351, 1878.440
981.607, 1840.054
982.862, 1833.695
984.117, 1666.360
985.372, 1696.045
986.627, 1551.752
987.882, 1531.479
989.136, 1515.226
990.390, 1467.993
991.644, 1368.780
992.898, 1367.587
994.152, 1359.415
995.405, 1289.263
996.659, 1326.132
997.912, 1371.022
999.165, 1295.934
1000.417, 1357.867
1001.670, 1345.820
1002.922, 1371.793
1004.174, 1367.791
1005.426, 1321.809
1006.678, 1359.847
1007.930, 1380.906
1009.181, 1374.990
1010.432, 1410.093
1011.683, 1440.308
1012.934, 1366.670
1014.185, 1448.079
1015.435, 1372.265
1016.685, 1365.473
1017.935, 1300.702
1019.185, 1315.950
1020.435, 1244.380
1021.684, 1134.698
1022.934, 1215.662
1024.183, 1177.149
1025.432, 1102.938
1026.680, 1157.510
1027.929, 1103.108
1029.177, 1155.525
1030.425, 1206.763
1031.673, 1159.075
1032.921, 1238.213
1034.169, 1292.707
1035.416, 1311.385
1036.663, 1403.915
1037.911, 1341.766
1039.157, 1368.169
1040.404, 1402.459
1041.650, 1444.724
1042.897, 1496.340
1044.143, 1416.104
1045.389, 1501.300
1046.634, 1451.142
1047.880, 1405.028
1049.125, 1471.883
1050.371, 1369.274
1051.615, 1431.968
1052.860, 1504.498
1054.105, 1443.019
1055.349, 1503.558
1056.593, 1584.356
1057.837, 1547.169
1059.081, 1610.855
1060.325, 1608.695
1061.568, 1585.156
1062.812, 1572.023
1064.055, 1549.904
1065.298, 1530.798
1066.540, 1593.957
1067.783, 1538.727
1069.025, 1611.852
1070.267, 1556.986
1071.509, 1655.039
1072.751, 1621.238
1073.993, 1532.545
1075.234, 1689.177
1076.475, 1610.544
1077.716, 1554.351
1078.957, 1551.226
1080.198, 1472.104
1081.438, 1555.181
1082.679, 1451.369
1083.919, 1481.841
1085.159, 1456.067
1086.398, 1391.202
1087.638, 1324.354
1088.877, 1305.863
1090.116, 1292.413
1091.355, 1252.751
1092.594, 1216.114
1093.833, 1205.526
1095.071, 1152.942
1096.309, 1074.478
1097.547, 1086.189
1098.785, 1093.684
1100.023, 983.204
1101.260, 1022.000
1102.498, 1009.558
1103.735, 904.147
1104.972, 985.771
1106.208, 919.389
1107.445, 849.349
1108.681, 853.995
1109.918, 779.649
1111.154, 784.392
1112.389, 748.064
1113.625, 703.742
1114.860, 710.426
1116.096, 690.115
1117.331, 653.009
1118.566, 715.708
1119.800, 705.723
1121.035, 737.451
1122.269, 809.164
1123.503, 960.051
1124.737, 966.936
1125.971, 850.831
1127.205, 701.560
1128.438, 612.310
1129.671, 531.802
1130.904, 559.180
1132.137, 471.894
1133.370, 426.762
1134.602, 466.579
1135.834, 427.389
1137.066, 446.140
1138.298, 369.894
1139.530, 327.696
1140.762, 345.452
1141.993, 334.210
1143.224, 262.969
1144.455, 256.076
1145.686, 189.851
1146.917, 243.199
1148.147, 153.961
1149.377, 133.722
1150.607, 139.866
1151.837, 99.214
1153.067, 121.064
1154.296, 104.824
1155.526, 42.584
1156.755, 90.251
1157.984, 36.010
1159.213, 5.234
1160.441, 11.248
1161.670, 37.499
1162.898, 30.272
1164.126, 14.187
1165.354, 18.013
1166.581, 22.741
1167.809, 7.219
1169.036, 46.498
1170.263, 20.636
1171.490, 46.806
1172.717, 34.053
1173.943, 7.301
1175.170, 28.590
1176.396, 9.134
1177.622, 37.113
1178.848, 20.320
1180.073, 33.266
1181.299, 74.942
1182.524, 87.499
1183.749, 19.039
1184.974, 56.243
1186.199, 15.774
1187.423, 29.301
1188.648, 43.821
1189.872, 7.609
1191.096, 33.213
1192.320, 6.841
1193.543, 48.449
1194.767, 64.125
1195.990, 30.819
1197.213, 38.476
1198.436, 74.254
1199.659, 7.029
1200.881, 53.836
1202.104, 21.371
1203.326, 108.722
1204.548, 67.456
1205.770, 100.912
1206.991, 188.897
1208.213, 16.099
1209.434, 234.882
1210.655, 131.141
1211.876, 97.892
1213.096, 8.222
1214.317, 1.286
1215.537, 11.634
1216.757, 37.457
1217.977, 17.415
1219.197, 13.277
1220.417, 21.873
1221.636, 5.948
1222.855, 12.754
1224.074, 11.454
1225.293, 27.686
1226.512, 5.048
1227.731, 13.236
1228.949, 41.453
1230.167, 18.133
1231.385, 74.213
1232.603, 5.871
1233.820, 6.510
1235.038, 1.126
1236.255, 23.726
1237.472, 59.315
1238.689, 58.894
1239.906, 51.983
1241.122, 113.018
1242.338, 36.564
1243.555, 28.100
1244.771, 79.706
1245.986, 77.215
1247.202, 29.714
1248.417, 122.199
1249.633, 76.319
1250.848, 59.130
1252.063, 83.575
1253.277, 30.005
1254.492, 83.421
1255.706, 102.811
1256.920, 51.182
1258.134, 81.538
1259.348, 80.252
1260.562, 82.208
1261.775, 118.521
1262.988, 41.818
1264.201, 85.096
1265.414, 37.357
1266.627, 71.598
1267.839, 138.823
1269.052, 47.028
1270.264, 48.214
1271.476, 48.383
1272.688, 80.534
1273.899, 76.661
1275.111, 25.770
1276.322, 6.858
1277.533, 20.973
1278.744, 55.962
1279.955, 66.983
1281.165, 69.988
1282.376, 110.974
1283.586, 112.943
1284.796, 74.896
1286.006, 92.819
1287.215, 110.726
1288.425, 96.616
1289.634, 45.490
1290.843, 85.343
1292.052, 36.181
1293.261, 90.000
1294.469, 94.804
1295.678, 45.592
1296.886, 37.363
1298.094, 70.116
1299.302, 98.853
1300.509, 95.575
1301.717, 28.281
1302.924, 98.968
1304.131, 121.640
1305.338, 56.204
1306.545, 143.624
1307.752, 84.002
1308.958, 59.609
1310.164, 70.199
1311.370, 94.774
1312.576, 18.333
1313.782, 98.715
1314.987, 60.214
1316.193, 62.072
1317.398, 68.412
1318.603, 63.454
1319.807, 71.717
1321.012, 63.664
1322.216, 59.386
1323.421, 51.995
1324.625, 69.535
1325.829, 73.254
1327.032, 111.621
1328.236, 72.807
1329.439, 44.148
1330.642, 88.170
1331.845, 71.645
1333.048, 63.237
1334.251, 65.859
1335.453, 4.865
1336.656, 70.272
1337.858, 61.977
1339.060, 102.040
1340.261, 57.065
1341.463, 40.127
1342.664, 97.655
1343.866, 41.886
1345.067, 45.287
1346.267, 9.701
1347.468, 53.102
1348.669, 91.250
1349.869, 60.389
1351.069, 55.660
1352.269, 95.783
1353.469, 94.291
1354.668, 77.400
1355.868, 62.502
1357.067, 46.597
1358.266, 41.437
1359.465, 48.704
1360.664, 82.562
1361.862, 74.453
1363.061, 95.435
1364.259, 107.291
1365.457, 79.057
1366.655, 118.519
1367.852, 99.269
1369.050, 116.598
1370.247, 111.913
1371.444, 34.187
1372.641, 90.333
1373.838, 26.413
1375.035, 5.752
1376.231, 108.609
1377.427, 59.672
1378.623, 61.919
1379.819, 101.992
1381.015, 33.258
1382.211, 96.419
1383.406, 102.395
1384.601, 75.322
1385.796, 35.485
1386.991, 83.593
1388.185, 3.335
1389.380, 91.322
1390.574, 75.362
1391.768, 79.372
1392.962, 79.127
1394.156, 77.701
1395.350, 93.420
1396.543, 89.916
1397.736, 23.742
1398.929, 89.737
1400.122, 81.190
1401.315, 52.744
1402.507, 112.421
1403.700, 61.009
1404.892, 83.621
1406.084, 101.750
1407.276, 59.550
1408.467, 115.564
1409.659, 58.155
1410.850, 63.575
1412.041, 91.762
1413.232, 54.790
1414.423, 80.055
1415.614, 109.961
1416.804, 80.391
1417.994, 57.368
1419.184, 73.245
1420.374, 43.195
1421.564, 110.039
1422.753, 62.830
1423.943, 126.928
1425.132, 129.084
1426.321, 110.390
1427.510, 121.057
1428.698, 104.503
1429.887, 30.658
1431.075, 81.747
1432.263, 94.994
1433.451, 61.741
1434.639, 122.140
1435.827, 104.563
1437.014, 65.025
1438.201, 93.475
1439.388, 33.912
1440.575, 54.354
1441.762, 68.826
1442.949, 50.300
1444.135, 56.786
1445.321, 99.305
1446.507, 77.858
1447.693, 93.593
1448.879, 48.113
1450.064, 121.656
1451.250, 69.170
1452.435, 77.662
1453.620, 70.125
1454.805, 62.108
1455.989, 63.793
1457.174, 73.186
1458.358, 81.566
1459.542, 91.957
1460.726, 85.387
1461.910, 94.081
1463.093, 37.218
1464.277, 100.647
1465.460, 95.098
1466.643, 99.580
1467.826, 149.075
1469.009, 68.633
1470.191, 72.218
1471.373, 31.836
1472.556, 79.485
1473.738, 83.160
1474.919, 52.936
1476.101, 63.741
1477.283, 76.586
1478.464, 0.549
1479.645, 46.335
1480.826, 12.241
1482.007, 72.168
1483.187, 27.115
1484.368, 58.116
1485.548, 27.142
1486.728, 89.201
1487.908, 20.306
1489.088, 20.460
1490.268, 9.669
1491.447, 62.937
1492.626, 40.271
1493.805, 54.676
1494.984, 44.154
1496.163, 42.557
1497.341, 43.067
1498.520, 26.066
1499.698, 41.841
1500.876, 1.746
1502.054, 8.763
1503.232, 64.906
1504.409, 4.191
1505.586, 0.365
1506.763, 55.259
1507.940, 53.085
1509.117, 8.144
1510.294, 85.485
1511.470, 8.159
1512.647, 32.192
1513.823, 75.773
1514.999, 32.017
1516.174, 87.175
1517.350, 0.322
1518.526, 0.000
##END=



