##NAMES=Aegirine
##RRUFFID=R040054
##IDEAL CHEMISTRY=NaFe^3+^Si_2_O_6_
##LOCALITY=Mont Saint-Hilaire, Rouville County, Quebec, Canada
##OWNER=RRUFF
##SOURCE=Bob Downs
##DESCRIPTION=Black cleavage fragments
##STATUS=The identification of this mineral has been confirmed by X-ray diffraction and chemical analysis
##URL=rruff.info/R040054
##MEASURED CHEMISTRY=(Na_0.96_Ca_0.04_)(Fe_0.86_Ti_0.07_Mn_0.06_Mg_0.02_)(Si_0.97_Al_0.03_)_2_O_6_
##PIN_ID=M00470
##ORIENTATION=Laser parallel to -c [0 0 -1]. Fiducial mark perpendicular to laser is parallel to -b* (0 -1 0)
173.326, 0.000
174.702, 65.583
176.077, 83.248
177.453, 137.145
178.828, 472.115
180.204, 719.915
181.579, 1109.687
182.953, 1384.968
184.328, 1373.946
185.702, 1142.859
187.076, 603.083
188.450, 258.917
189.824, 51.080
191.198, 186.298
192.571, 115.109
193.944, 295.809
195.317, 479.781
196.689, 640.977
198.062, 936.670
199.434, 1157.041
200.806, 1360.390
202.178, 1583.490
203.549, 1779.724
204.921, 2149.349
206.292, 2448.657
207.663, 3037.478
209.033, 3582.958
210.404, 4199.849
211.774, 5069.330
213.144, 5771.873
214.514, 6947.706
215.884, 7195.640
217.253, 7730.540
218.622, 7551.351
219.991, 6770.576
221.360, 5954.818
222.729, 4955.560
224.097, 4153.466
225.465, 3333.061
226.833, 2802.618
228.201, 2268.600
229.568, 1799.766
230.936, 1603.331
232.303, 1249.841
233.670, 1078.793
235.036, 917.306
236.403, 728.813
237.769, 622.328
239.135, 514.913
240.501, 443.603
241.867, 277.591
243.232, 248.707
244.597, 201.859
245.962, 153.990
247.327, 178.126
248.691, 129.193
250.056, 90.894
251.420, 113.539
252.784, 37.359
254.147, 88.330
255.511, 72.566
256.874, 49.347
258.237, 46.026
259.600, 1.382
260.963, 18.137
262.325, 32.598
263.687, 70.011
265.049, 100.385
266.411, 13.729
267.773, 205.943
269.134, 346.616
270.495, 19.728
271.856, 228.100
273.217, 72.516
274.577, 134.979
275.938, 9.490
277.298, 82.954
278.658, 98.354
280.017, 269.711
281.377, 293.024
282.736, 250.277
284.095, 248.460
285.454, 272.951
286.812, 344.576
288.171, 304.444
289.529, 297.062
290.887, 265.504
292.245, 346.741
293.602, 254.729
294.960, 400.661
296.317, 443.391
297.674, 461.810
299.030, 468.075
300.387, 555.753
301.743, 607.279
303.099, 557.318
304.455, 686.722
305.811, 634.665
307.166, 679.624
308.522, 805.156
309.877, 776.107
311.232, 864.645
312.586, 750.522
313.941, 843.225
315.295, 874.349
316.649, 806.977
318.003, 852.025
319.356, 670.299
320.709, 759.578
322.063, 670.467
323.416, 616.588
324.768, 742.895
326.121, 723.338
327.473, 861.718
328.825, 885.576
330.177, 999.466
331.529, 1217.887
332.880, 1399.012
334.232, 1678.393
335.583, 2012.278
336.934, 2837.017
338.284, 3082.605
339.635, 3378.087
340.985, 3844.439
342.335, 4061.642
343.685, 4504.682
345.034, 4310.544
346.384, 4154.223
347.733, 4090.726
349.082, 3650.082
350.431, 3577.292
351.779, 3171.372
353.128, 3049.340
354.476, 2775.189
355.824, 2615.907
357.171, 2629.492
358.519, 2331.917
359.866, 2502.167
361.213, 2571.131
362.560, 2736.748
363.907, 3107.127
365.253, 3339.192
366.600, 3991.952
367.946, 4349.669
369.291, 4841.980
370.637, 5168.944
371.983, 5305.801
373.328, 5282.625
374.673, 5019.432
376.018, 4976.219
377.362, 4782.996
378.707, 4929.758
380.051, 5126.508
381.395, 5273.252
382.739, 5819.989
384.082, 6116.722
385.426, 6753.448
386.769, 7430.167
388.112, 7606.277
389.454, 8262.251
390.797, 8037.932
392.139, 7943.177
393.481, 7348.657
394.823, 6533.657
396.165, 5918.104
397.506, 4972.913
398.848, 4276.065
400.189, 3431.522
401.530, 2898.722
402.870, 2392.577
404.211, 1938.698
405.551, 1769.156
406.891, 1356.281
408.231, 1306.422
409.571, 1122.976
410.910, 975.433
412.249, 908.956
413.588, 750.606
414.927, 706.898
416.266, 586.056
417.604, 558.693
418.942, 514.203
420.280, 404.373
421.618, 372.315
422.956, 294.716
424.293, 242.331
425.630, 153.169
426.967, 156.102
428.304, 66.823
429.641, 66.523
430.977, 48.324
432.313, 16.557
433.649, 17.360
434.985, 39.231
436.320, 13.054
437.656, 7.971
438.991, 5.675
440.326, 65.187
441.660, 64.079
442.995, 45.001
444.329, 39.946
445.663, 1.085
446.997, 4.584
448.331, 32.907
449.664, 2.948
450.997, 27.984
452.331, 27.892
453.663, 59.736
454.996, 106.537
456.328, 163.317
457.661, 99.070
458.993, 170.805
460.325, 208.525
461.656, 150.236
462.988, 175.936
464.319, 262.626
465.650, 203.284
466.981, 247.907
468.311, 200.497
469.642, 183.172
470.972, 197.686
472.302, 87.194
473.632, 67.626
474.961, 151.212
476.291, 194.087
477.620, 113.705
478.949, 193.654
480.278, 197.879
481.606, 209.266
482.935, 272.889
484.263, 284.486
485.591, 330.882
486.918, 397.972
488.246, 484.822
489.573, 683.642
490.900, 691.569
492.227, 997.023
493.554, 1161.914
494.881, 1442.694
496.207, 1980.664
497.533, 2313.788
498.859, 2899.049
500.185, 3133.109
501.510, 3359.893
502.836, 3348.644
504.161, 2910.060
505.486, 2597.535
506.810, 2251.925
508.135, 1865.131
509.459, 1802.108
510.783, 1544.987
512.107, 1478.894
513.431, 1236.962
514.754, 1390.900
516.077, 1262.900
517.401, 1184.883
518.723, 1188.817
520.046, 1193.742
521.369, 1269.678
522.691, 1337.621
524.013, 1436.571
525.335, 1651.512
526.656, 1641.454
527.978, 1974.400
529.299, 2249.332
530.620, 2541.244
531.941, 3032.155
533.262, 3360.065
534.582, 4059.985
535.902, 4783.898
537.222, 5775.808
538.542, 7190.723
539.862, 8485.621
541.181, 10400.507
542.501, 12095.379
543.820, 13590.240
545.139, 14845.121
546.457, 15160.018
547.776, 15594.927
549.094, 14469.835
550.412, 13494.747
551.730, 12769.667
553.047, 11084.610
554.365, 10679.581
555.682, 9444.552
556.999, 8779.498
558.316, 8274.418
559.632, 7479.339
560.949, 7374.329
562.265, 6709.479
563.581, 6504.609
564.897, 6289.654
566.213, 5874.906
567.528, 5629.983
568.843, 5304.575
570.158, 5038.235
571.473, 4584.632
572.788, 4338.008
574.102, 4145.172
575.416, 3866.632
576.730, 3729.647
578.044, 3593.949
579.358, 3265.659
580.671, 3196.334
581.984, 2931.605
583.297, 2906.847
584.610, 2610.100
585.923, 2524.742
587.235, 2302.538
588.547, 2051.362
589.859, 2033.051
591.171, 1933.350
592.483, 1702.910
593.794, 1627.661
595.105, 1400.281
596.416, 1382.447
597.727, 1157.615
599.038, 1062.006
600.348, 922.720
601.658, 764.875
602.968, 660.058
604.278, 531.895
605.588, 501.013
606.897, 354.257
608.206, 356.390
609.516, 307.055
610.824, 154.314
612.133, 206.417
613.441, 173.630
614.750, 185.361
616.058, 137.644
617.365, 66.183
618.673, 112.886
619.980, 32.182
621.288, 38.914
622.595, 59.530
623.902, 47.562
625.208, 19.004
626.515, 15.394
627.821, 25.289
629.127, 19.198
630.433, 6.539
631.738, 10.726
633.044, 27.828
634.349, 17.477
635.654, 0.837
636.959, 17.385
638.263, 4.500
639.568, 4.885
640.872, 13.368
642.176, 39.964
643.480, 46.998
644.784, 100.806
646.087, 90.395
647.390, 112.073
648.693, 162.957
649.996, 217.503
651.299, 269.793
652.601, 242.896
653.904, 214.651
655.206, 251.259
656.508, 241.064
657.809, 251.995
659.111, 278.328
660.412, 311.766
661.713, 336.690
663.014, 399.578
664.315, 428.728
665.615, 524.003
666.915, 567.736
668.215, 628.131
669.515, 751.504
670.815, 839.951
672.115, 965.369
673.414, 1141.038
674.713, 1387.286
676.012, 1489.834
677.311, 1674.571
678.609, 1819.081
679.907, 1817.665
681.205, 1787.077
682.503, 1512.440
683.801, 1419.755
685.099, 1207.021
686.396, 994.239
687.693, 853.408
688.990, 774.527
690.287, 605.598
691.583, 594.619
692.880, 508.591
694.176, 482.514
695.472, 382.388
696.768, 385.211
698.063, 331.985
699.358, 312.710
700.654, 308.386
701.949, 245.011
703.243, 255.586
704.538, 279.110
705.832, 220.584
707.127, 252.006
708.421, 271.377
709.714, 246.700
711.008, 206.975
712.301, 204.425
713.595, 224.379
714.888, 158.511
716.180, 193.599
717.473, 162.640
718.765, 124.633
720.058, 156.580
721.350, 111.482
722.641, 141.334
723.933, 150.159
725.225, 131.954
726.516, 168.716
727.807, 132.443
729.098, 124.124
730.388, 144.759
731.679, 146.358
732.969, 171.913
734.259, 191.423
735.549, 104.891
736.839, 135.309
738.128, 135.681
739.418, 208.005
740.707, 176.286
741.996, 199.521
743.284, 228.711
744.573, 162.858
745.861, 163.960
747.149, 169.017
748.437, 81.028
749.725, 120.989
751.013, 127.779
752.300, 109.648
753.587, 93.439
754.874, 161.219
756.161, 183.759
757.447, 196.928
758.734, 182.273
760.020, 150.206
761.306, 179.128
762.592, 100.107
763.877, 152.137
765.163, 2.104
766.448, 24.181
767.733, 33.479
769.018, 0.065
770.302, 8.333
771.587, 31.463
772.871, 7.881
774.155, 43.822
775.439, 0.248
776.723, 8.951
778.006, 31.389
779.289, 71.051
780.573, 23.615
781.855, 49.986
783.138, 34.414
784.421, 47.591
785.703, 50.915
786.985, 113.237
788.267, 67.478
789.549, 8.577
790.830, 122.642
792.112, 76.835
793.393, 91.274
794.674, 50.669
795.954, 84.196
797.235, 55.788
798.515, 26.400
799.796, 93.064
801.076, 82.821
802.355, 84.662
803.635, 33.586
804.914, 71.560
806.194, 83.604
807.473, 26.727
808.752, 12.889
810.030, 63.081
811.309, 69.332
812.587, 94.645
813.865, 42.032
815.143, 63.461
816.421, 77.942
817.698, 4.482
818.975, 43.959
820.252, 47.385
821.529, 75.746
822.806, 36.193
824.083, 79.577
825.359, 41.947
826.635, 45.304
827.911, 104.650
829.187, 60.984
830.462, 158.308
831.738, 171.621
833.013, 221.924
834.288, 241.217
835.563, 257.503
836.837, 319.780
838.112, 312.049
839.386, 352.312
840.660, 407.428
841.934, 549.595
843.208, 465.840
844.481, 589.852
845.754, 585.014
847.027, 622.247
848.300, 698.396
849.573, 797.366
850.845, 901.332
852.118, 839.398
853.390, 1023.167
854.662, 1017.108
855.934, 1129.916
857.205, 1186.519
858.476, 1208.320
859.748, 1297.811
861.019, 1406.566
862.289, 1466.375
863.560, 1557.848
864.830, 1570.037
866.101, 1685.807
867.371, 1682.553
868.640, 1681.412
869.910, 1799.295
871.180, 1601.314
872.449, 1726.442
873.718, 1660.151
874.987, 1604.057
876.255, 1581.984
877.524, 1527.269
878.792, 1454.428
880.060, 1360.717
881.328, 1194.061
882.596, 1314.226
883.864, 1163.420
885.131, 1216.663
886.398, 1138.396
887.665, 1039.466
888.932, 1082.596
890.199, 1054.669
891.465, 1010.695
892.731, 931.067
893.997, 1031.557
895.263, 994.066
896.529, 1033.595
897.794, 1002.049
899.059, 992.629
900.325, 998.930
901.589, 999.674
902.854, 1012.650
904.119, 1021.123
905.383, 1059.765
906.647, 1062.637
907.911, 1103.235
909.175, 1085.183
910.438, 1086.992
911.702, 1123.438
912.965, 1138.116
914.228, 1082.347
915.491, 1160.170
916.753, 1191.401
918.016, 1188.162
919.278, 1316.224
920.540, 1314.536
921.802, 1421.086
923.064, 1425.555
924.325, 1676.834
925.586, 1673.446
926.848, 1656.313
928.109, 1721.386
929.369, 1675.811
930.630, 1985.399
931.890, 2105.980
933.150, 2154.396
934.410, 2334.965
935.670, 2457.778
936.930, 2662.109
938.189, 2911.351
939.448, 3019.661
940.707, 3414.702
941.966, 3664.293
943.225, 3928.235
944.483, 4542.232
945.742, 4989.165
947.000, 5673.138
948.258, 6276.881
949.515, 7049.051
950.773, 7754.943
952.030, 8329.646
953.287, 8993.585
954.544, 9251.471
955.801, 9149.533
957.058, 9367.650
958.314, 9045.817
959.570, 9364.032
960.827, 9812.303
962.082, 9600.618
963.338, 9858.992
964.594, 10317.411
965.849, 10385.888
967.104, 11044.414
968.359, 11122.997
969.614, 11561.627
970.868, 12200.319
972.122, 12199.066
973.377, 12207.873
974.631, 11816.739
975.884, 10925.662
977.138, 10024.645
978.391, 8623.679
979.645, 7972.769
980.898, 7101.917
982.151, 6391.122
983.403, 6040.379
984.656, 5339.696
985.908, 5179.074
987.160, 4823.510
988.412, 4320.001
989.664, 4259.552
990.915, 3844.158
992.167, 3562.824
993.418, 3522.548
994.669, 3139.329
995.920, 3016.177
997.170, 2671.080
998.421, 2615.041
999.671, 2453.060
1000.921, 2334.136
1002.171, 2043.271
1003.421, 2028.465
1004.670, 1902.725
1005.919, 1907.042
1007.168, 1750.418
1008.417, 1708.850
1009.666, 1663.347
1010.915, 1509.901
1012.163, 1604.513
1013.411, 1557.181
1014.659, 1523.906
1015.907, 1511.688
1017.155, 1520.528
1018.402, 1597.425
1019.650, 1590.381
1020.897, 1538.392
1022.144, 1664.462
1023.390, 1658.588
1024.637, 1672.771
1025.883, 1836.016
1027.129, 1727.508
1028.375, 1893.865
1029.621, 2022.279
1030.867, 2066.749
1032.112, 2327.055
1033.357, 2570.100
1034.602, 2721.626
1035.847, 3069.401
1037.092, 3274.679
1038.336, 3656.558
1039.581, 4099.417
1040.825, 4595.688
1042.069, 5048.593
1043.312, 5301.668
1044.556, 5317.098
1045.799, 5216.185
1047.043, 4587.993
1048.286, 4249.039
1049.528, 3773.963
1050.771, 3309.672
1052.014, 3250.740
1053.256, 3110.467
1054.498, 3073.112
1055.740, 2735.646
1056.982, 2613.952
1058.223, 2547.737
1059.464, 2482.886
1060.706, 2397.820
1061.947, 2337.301
1063.187, 2216.550
1064.428, 2172.916
1065.669, 2126.470
1066.909, 2004.490
1068.149, 1944.285
1069.389, 1895.553
1070.628, 1864.682
1071.868, 1825.999
1073.107, 1820.870
1074.346, 1847.056
1075.585, 1724.427
1076.824, 1672.006
1078.063, 1756.803
1079.301, 1710.365
1080.539, 1668.556
1081.777, 1754.592
1083.015, 1564.571
1084.253, 1607.074
1085.490, 1588.389
1086.728, 1493.396
1087.965, 1548.965
1089.202, 1434.492
1090.439, 1413.094
1091.675, 1390.596
1092.912, 1422.125
1094.148, 1531.684
1095.384, 1388.268
1096.620, 1360.879
1097.855, 1470.517
1099.091, 1404.181
1100.326, 1451.162
1101.561, 1528.753
1102.796, 1415.630
1104.031, 1518.932
1105.265, 1348.927
1106.500, 1430.803
1107.734, 1500.818
1108.968, 1390.296
1110.202, 1586.794
1111.436, 1523.766
1112.669, 1506.093
1113.902, 1567.546
1115.135, 1516.548
1116.368, 1624.663
1117.601, 1634.297
1118.834, 1618.802
1120.066, 1756.827
1121.298, 1759.112
1122.530, 1725.754
1123.762, 1864.828
1124.994, 1773.333
1126.225, 1931.574
1127.456, 1970.750
1128.688, 1916.229
1129.918, 1980.374
1131.149, 1985.569
1132.380, 2006.913
1133.610, 2125.211
1134.840, 2046.828
1136.070, 1994.097
1137.300, 2058.383
1138.530, 1808.695
1139.759, 1909.303
1140.989, 1681.639
1142.218, 1535.295
1143.447, 1492.689
1144.675, 1292.950
1145.904, 1221.637
1147.132, 966.093
1148.360, 863.620
1149.588, 665.792
1150.816, 562.096
1152.044, 389.026
1153.271, 396.319
1154.499, 190.784
1155.726, 190.082
1156.953, 109.754
1158.180, 15.894
1159.406, 11.460
1160.632, 15.836
1161.859, 8.867
1163.085, 46.362
1164.311, 31.182
1165.536, 20.689
1166.762, 32.342
1167.987, 36.086
1169.212, 20.688
1170.437, 1.430
1171.662, 101.016
1172.886, 89.707
1174.111, 81.007
1175.335, 27.646
1176.559, 67.604
1177.783, 118.161
1179.007, 68.094
1180.230, 35.997
1181.453, 11.185
1182.676, 42.242
1183.899, 88.907
1185.122, 52.587
1186.345, 105.906
1187.567, 87.306
1188.789, 52.634
1190.011, 71.156
1191.233, 4.503
1192.455, 8.047
1193.677, 58.603
1194.898, 23.653
1196.119, 51.384
1197.340, 8.022
1198.561, 41.242
1199.781, 21.100
1201.002, 82.803
1202.222, 8.217
1203.442, 78.817
1204.662, 55.671
1205.882, 14.861
1207.101, 1.098
1208.321, 16.195
1209.540, 74.404
1210.759, 11.767
1211.978, 5.918
1213.196, 39.516
1214.415, 18.909
1215.633, 31.648
1216.851, 55.681
1218.069, 8.021
1219.287, 12.679
1220.504, 20.525
1221.722, 46.761
1222.939, 84.942
1224.156, 75.040
1225.373, 77.124
1226.590, 95.167
1227.806, 102.181
1229.022, 93.171
1230.239, 91.866
1231.454, 75.570
1232.670, 66.469
1233.886, 67.337
1235.101, 53.173
1236.317, 36.975
1237.532, 41.862
1238.746, 40.556
1239.961, 57.229
1241.176, 58.917
1242.390, 93.515
1243.604, 70.079
1244.818, 67.612
1246.032, 107.103
1247.246, 90.655
1248.459, 68.080
1249.672, 45.465
1250.886, 130.873
1252.098, 91.182
1253.311, 76.457
1254.524, 137.691
1255.736, 86.893
1256.948, 108.056
1258.160, 127.185
1259.372, 59.279
1260.584, 148.423
1261.795, 137.436
1263.007, 113.413
1264.218, 124.354
1265.429, 99.259
1266.640, 139.125
1267.850, 49.143
1269.061, 137.918
1270.271, 107.657
1271.481, 140.359
1272.691, 70.021
1273.901, 135.172
1275.110, 178.748
1276.320, 112.286
1277.529, 132.781
1278.738, 127.236
1279.947, 93.652
1281.155, 171.141
1282.364, 106.470
1283.572, 181.900
1284.780, 143.222
1285.988, 196.425
1287.196, 126.667
1288.404, 102.788
1289.611, 130.860
1290.818, 202.753
1292.025, 109.742
1293.232, 147.682
1294.439, 154.896
1295.646, 147.970
1296.852, 174.318
1298.058, 201.193
1299.264, 156.832
1300.470, 184.983
1301.676, 151.561
1302.881, 157.180
1304.086, 112.408
1305.292, 130.034
1306.496, 228.514
1307.701, 115.679
1308.906, 143.217
1310.110, 127.077
1311.315, 78.726
1312.519, 146.526
1313.722, 97.578
1314.926, 90.320
1316.130, 173.433
1317.333, 183.665
1318.536, 121.040
1319.739, 201.682
1320.942, 97.881
1322.145, 50.771
1323.347, 128.919
1324.550, 64.541
1325.752, 161.452
1326.954, 104.286
1328.156, 60.980
1329.357, 129.237
1330.559, 86.762
1331.760, 119.845
1332.961, 133.087
1334.162, 70.739
1335.363, 143.318
1336.563, 122.619
1337.764, 74.769
1338.964, 85.722
1340.164, 93.492
1341.364, 70.512
1342.563, 86.481
1343.763, 113.489
1344.962, 86.148
1346.161, 92.319
1347.360, 84.521
1348.559, 82.389
1349.758, 87.553
1350.956, 71.764
1352.155, 76.904
1353.353, 135.147
1354.551, 86.366
1355.748, 116.562
1356.946, 132.734
1358.143, 71.884
1359.341, 45.009
1360.538, 44.161
1361.734, 101.188
1362.931, 91.128
1364.128, 122.231
1365.324, 146.705
1366.520, 64.488
1367.716, 95.399
1368.912, 143.156
1370.108, 73.448
1371.303, 129.723
1372.499, 118.524
1373.694, 82.972
1374.889, 190.294
1376.084, 63.072
1377.278, 127.874
1378.473, 113.021
1379.667, 66.298
1380.861, 136.011
1382.055, 111.509
1383.249, 119.645
1384.442, 174.356
1385.636, 92.632
1386.829, 103.174
1388.022, 138.784
1389.215, 57.091
1390.408, 94.770
1391.600, 164.304
1392.792, 95.845
1393.985, 112.440
1395.177, 103.210
1396.368, 35.694
1397.560, 182.111
1398.752, 125.500
1399.943, 77.202
1401.134, 92.949
1402.325, 3.070
1403.516, 90.245
1404.707, 106.332
1405.897, 104.850
1407.087, 89.562
1408.277, 105.693
1409.467, 39.634
1410.657, 102.422
1411.847, 31.491
1413.036, 45.093
1414.225, 114.970
1415.414, 42.674
1416.603, 67.171
1417.792, 120.071
1418.981, 44.458
1420.169, 92.984
1421.357, 86.277
1422.545, 0.793
1423.733, 81.178
1424.921, 96.049
1426.108, 58.513
1427.296, 93.661
1428.483, 70.537
1429.670, 52.822
1430.857, 114.625
1432.043, 80.445
1433.230, 71.687
1434.416, 91.547
1435.602, 68.610
1436.788, 90.883
1437.974, 67.214
1439.160, 41.506
1440.345, 73.833
1441.530, 67.190
1442.716, 125.581
1443.900, 108.841
1445.085, 40.528
1446.270, 114.844
1447.454, 158.138
1448.638, 76.270
1449.823, 167.491
1451.006, 63.791
1452.190, 88.073
1453.374, 96.186
1454.557, 91.340
1455.740, 76.183
1456.923, 111.827
1458.106, 51.054
1459.289, 52.094
1460.472, 109.305
1461.654, 14.499
1462.836, 128.326
1464.018, 54.532
1465.200, 29.726
1466.382, 112.842
1467.563, 56.041
1468.744, 84.253
1469.926, 95.232
1471.107, 82.999
1472.287, 138.094
1473.468, 109.402
1474.649, 78.624
1475.829, 101.261
1477.009, 77.688
1478.189, 62.180
1479.369, 90.712
1480.548, 57.283
1481.728, 43.874
1482.907, 101.486
1484.086, 56.107
1485.265, 52.737
1486.444, 107.375
1487.623, 20.043
1488.801, 73.729
1489.979, 110.435
1491.157, 3.838
1492.335, 120.917
1493.513, 43.698
1494.691, 30.517
1495.868, 115.207
1497.045, 67.973
1498.222, 58.881
1499.399, 150.840
1500.576, 56.878
1501.753, 132.975
1502.929, 85.166
1504.105, 6.410
1505.281, 96.708
1506.457, 74.063
1507.633, 16.517
1508.808, 91.651
1509.984, 94.765
1511.159, 41.301
1512.334, 117.930
1513.509, 80.830
1514.683, 76.858
1515.858, 127.022
1517.032, 43.767
1518.206, 145.984
1519.380, 87.960
1520.554, 50.698
1521.728, 96.020
1522.902, 39.660
1524.075, 53.112
1525.248, 138.829
1526.421, 0.399
1527.594, 0.000
##END=



