##NAMES=Aenigmatite
##RRUFFID=R061088
##IDEAL CHEMISTRY=Na_4_(Fe^2+^_10_Ti^4+^_2_)O_4_[Si_12_O_36_]
##LOCALITY=Naujakasik, Greenland
##OWNER=RRUFF
##SOURCE=Michael Scott
##DESCRIPTION=Black prismatic crystals
##STATUS=The identification of this mineral has been confirmed by X-ray diffraction and chemical analysis
##URL=rruff.info/R061088
##MEASURED CHEMISTRY=(Na_1.72_Ca_0.28_)_Σ=2_(Fe^2+^_4.90_Mn_0.08_Mg_0.02_)_Σ=5_(Ti_0.85_Al_0.14_Fe^3+^_0.01_)_Σ=1_(Si_5.87_Al_0.13_)_Σ=6_O_20_
##PIN_ID=L01498
##ORIENTATION=Laser parallel to -c* (0 0 -1). Fiducial mark perpendicular to laser is parallel to a [1 0 0]
149.7320, 0.0000000E+00
150.9600, 26.20898
152.1880, 186.0293
153.4160, 28.91504
154.6440, 280.7549
155.8720, 197.6543
157.0990, 139.9014
158.3270, 196.7734
159.5540, 254.1113
160.7810, 333.1113
162.0080, 480.9434
163.2350, 546.7295
164.4610, 639.3467
165.6880, 568.1670
166.9140, 703.2354
168.1400, 518.4004
169.3660, 527.3525
170.5920, 441.9521
171.8180, 253.5908
173.0430, 83.92383
174.2690, 170.1602
175.4940, 67.35547
176.7190, 76.38281
177.9440, 44.25195
179.1680, 70.61719
180.3930, 16.14258
181.6170, 60.62305
182.8420, 136.7207
184.0660, 15.06543
185.2900, 263.6602
186.5140, 320.0918
187.7370, 401.9463
188.9610, 400.0518
190.1840, 500.4053
191.4070, 613.6455
192.6300, 609.9043
193.8530, 552.1729
195.0760, 791.4844
196.2980, 599.3887
197.5210, 694.1416
198.7430, 812.1367
199.9650, 966.2227
201.1870, 950.6309
202.4090, 848.0342
203.6310, 708.6270
204.8520, 483.3115
206.0730, 319.8564
207.2950, 128.6660
208.5160, 296.3877
209.7360, 191.4883
210.9570, 201.5635
212.1780, 407.5264
213.3980, 510.2852
214.6180, 414.4541
215.8380, 260.3779
217.0580, 328.0742
218.2780, 229.5537
219.4980, 153.8242
220.7170, 2.892578
221.9360, 97.76855
223.1560, 128.5303
224.3750, 26.60645
225.5930, 9.661133
226.8120, 93.34863
228.0310, 73.40137
229.2490, 0.5205080
230.4670, 196.5645
231.6850, 18.63574
232.9030, 45.32031
234.1210, 23.69531
235.3380, 87.65723
236.5560, 198.5518
237.7730, 125.3887
238.9900, 204.2969
240.2070, 134.6758
241.4240, 223.8008
242.6410, 161.7725
243.8570, 107.1787
245.0730, 276.9502
246.2900, 106.6211
247.5060, 175.4990
248.7210, 164.5176
249.9370, 135.3008
251.1530, 222.3984
252.3680, 269.6006
253.5830, 288.6865
254.7980, 191.3750
256.0130, 240.8506
257.2280, 231.3433
258.4430, 219.2705
259.6570, 290.1167
260.8720, 209.8203
262.0860, 280.2783
263.3000, 291.1934
264.5130, 327.6196
265.7270, 309.1133
266.9410, 306.8662
268.1540, 360.0444
269.3670, 380.3672
270.5800, 313.1401
271.7930, 391.6255
273.0060, 483.8638
274.2190, 424.6445
275.4310, 453.3999
276.6430, 414.5991
277.8550, 447.7671
279.0670, 623.8486
280.2790, 523.8774
281.4910, 662.8521
282.7020, 663.4463
283.9140, 661.6572
285.1250, 635.4961
286.3360, 645.1157
287.5470, 636.0522
288.7570, 685.7749
289.9680, 706.4604
291.1780, 810.1099
292.3880, 823.7241
293.5990, 860.3042
294.8080, 938.8496
296.0180, 981.1016
297.2280, 1000.228
298.4370, 1142.157
299.6470, 1000.857
300.8560, 1236.307
302.0650, 1242.502
303.2740, 1173.435
304.4820, 1270.063
305.6910, 1264.426
306.8990, 1400.548
308.1070, 1393.383
309.3150, 1308.923
310.5230, 1239.178
311.7310, 1356.880
312.9390, 1235.365
314.1460, 1285.717
315.3530, 1128.134
316.5600, 1079.510
317.7670, 1124.431
318.9740, 941.5498
320.1810, 1071.819
321.3870, 878.5332
322.5930, 848.1401
323.8000, 605.3984
325.0060, 701.9062
326.2110, 569.4751
327.4170, 403.1099
328.6230, 446.8389
329.8280, 429.7026
331.0330, 220.2896
332.2380, 176.9463
333.4430, 106.4502
334.6480, 74.96387
335.8530, 140.0229
337.0570, 71.52783
338.2610, 5.299805
339.4650, 110.6567
340.6690, 12.13477
341.8730, 100.6782
343.0770, 18.35400
344.2800, 105.1348
345.4840, 14.04736
346.6870, 87.05225
347.8900, 74.54395
349.0930, 61.36670
350.2950, 52.68457
351.4980, 1.520508
352.7000, 57.59229
353.9030, 77.54053
355.1050, 52.99023
356.3070, 25.42285
357.5080, 76.66553
358.7100, 139.1157
359.9110, 122.1128
361.1130, 248.7891
362.3140, 91.52686
363.5150, 201.9180
364.7160, 113.8086
365.9160, 164.8271
367.1170, 161.0640
368.3170, 53.56836
369.5170, 11.67578
370.7170, 50.82227
371.9170, 24.88086
373.1170, 14.12109
374.3170, 87.30371
375.5160, 11.91943
376.7150, 47.59326
377.9140, 51.35400
379.1130, 10.01416
380.3120, 33.25684
381.5110, 27.67920
382.7090, 28.35791
383.9070, 97.87939
385.1060, 165.9346
386.3040, 106.4639
387.5010, 92.66016
388.6990, 167.3535
389.8970, 87.82373
391.0940, 188.0200
392.2910, 181.5957
393.4880, 76.87891
394.6850, 111.6431
395.8820, 129.0439
397.0780, 280.6318
398.2750, 272.2622
399.4710, 221.3267
400.6670, 284.7080
401.8630, 288.0283
403.0590, 346.2759
404.2540, 252.7969
405.4500, 281.3760
406.6450, 354.3555
407.8400, 267.7837
409.0350, 297.3433
410.2300, 319.7651
411.4250, 320.1348
412.6190, 351.1787
413.8140, 373.6841
415.0080, 368.7266
416.2020, 432.4067
417.3960, 390.3540
418.5900, 415.1543
419.7830, 484.0723
420.9770, 423.8252
422.1700, 539.7139
423.3630, 513.1514
424.5560, 528.2373
425.7490, 547.3247
426.9410, 532.1724
428.1340, 556.2930
429.3260, 603.8354
430.5180, 563.6514
431.7100, 563.4570
432.9020, 524.2520
434.0940, 536.0376
435.2850, 556.5522
436.4770, 645.5786
437.6680, 641.3354
438.8590, 606.0820
440.0500, 678.7837
441.2410, 541.4395
442.4310, 604.0508
443.6220, 526.6182
444.8120, 475.1431
446.0020, 498.6270
447.1920, 345.0703
448.3820, 406.4741
449.5710, 190.8398
450.7610, 255.1685
451.9500, 213.4619
453.1390, 299.7207
454.3280, 248.9458
455.5170, 158.1401
456.7060, 164.3047
457.8940, 111.4399
459.0830, 89.54346
460.2710, 137.6172
461.4590, 78.66260
462.6470, 139.6826
463.8350, 62.67822
465.0220, 80.64941
466.2100, 27.59814
467.3970, 61.47607
468.5840, 57.40771
469.7710, 62.28076
470.9580, 2.156738
472.1440, 45.00732
473.3310, 80.84180
474.5170, 83.91846
475.7030, 29.20459
476.8890, 33.75781
478.0750, 131.3984
479.2610, 9.941895
480.4460, 103.1670
481.6320, 12.71338
482.8170, 182.0039
484.0020, 89.50928
485.1870, 215.5063
486.3710, 86.69141
487.5560, 272.4502
488.7400, 180.9609
489.9250, 50.91260
491.1090, 97.69189
492.2930, 145.3457
493.4760, 30.61426
494.6600, 95.31885
495.8440, 138.4531
497.0270, 45.76025
498.2100, 108.8760
499.3930, 199.6689
500.5760, 9.993164
501.7580, 114.7319
502.9410, 43.41650
504.1230, 70.67676
505.3060, 3.722168
506.4880, 50.62012
507.6690, 147.1147
508.8510, 40.46680
510.0330, 175.0625
511.2140, 63.46143
512.3950, 160.4746
513.5760, 293.9604
514.7570, 213.2432
515.9380, 162.4155
517.1190, 308.2510
518.2990, 304.2544
519.4800, 317.8975
520.6600, 398.6670
521.8400, 486.1445
523.0190, 514.2085
524.1990, 558.6626
525.3790, 598.3203
526.5580, 636.3989
527.7370, 587.7930
528.9160, 716.9458
530.0950, 701.0703
531.2740, 794.5181
532.4520, 763.6406
533.6310, 660.1982
534.8090, 756.7402
535.9870, 731.8594
537.1650, 696.1401
538.3430, 670.5083
539.5200, 616.4927
540.6980, 584.4790
541.8750, 679.2729
543.0520, 438.2676
544.2290, 577.2656
545.4060, 412.2676
546.5820, 579.2466
547.7590, 435.2554
548.9350, 542.2681
550.1110, 513.2837
551.2870, 476.3013
552.4630, 553.3232
553.6390, 477.3472
554.8140, 470.3745
555.9900, 489.4038
557.1650, 492.4365
558.3400, 493.4717
559.5150, 550.5073
560.6900, 438.5444
561.8640, 561.5820
563.0390, 538.6221
564.2130, 403.6636
565.3870, 391.7051
566.5610, 463.7490
567.7350, 475.7930
568.9080, 383.8389
570.0820, 377.8862
571.2550, 374.9346
572.4280, 416.9839
573.6010, 286.0352
574.7740, 180.0874
575.9470, 269.1411
577.1190, 364.1968
578.2920, 163.2539
579.4640, 157.3125
580.6360, 168.3726
581.8080, 262.4346
582.9790, 290.4976
584.1510, 166.5635
585.3220, 77.63135
586.4940, 130.7021
587.6650, 250.7754
588.8360, 207.8511
590.0060, 156.9302
591.1770, 164.0117
592.3470, 113.0967
593.5180, 254.1851
594.6880, 311.2773
595.8580, 241.3726
597.0280, 346.4629
598.1970, 260.5659
599.3670, 451.4873
600.5360, 450.3306
601.7050, 456.3896
602.8740, 527.2148
604.0430, 530.3086
605.2120, 536.0957
606.3800, 655.9707
607.5490, 637.6387
608.7170, 683.2441
609.8850, 715.0645
611.0530, 712.3848
612.2210, 637.0635
613.3880, 693.2290
614.5560, 725.5796
615.7230, 648.0156
616.8900, 723.6064
618.0570, 743.0635
619.2240, 766.1470
620.3900, 876.1338
621.5570, 839.4434
622.7230, 957.3291
623.8890, 1023.241
625.0550, 1125.643
626.2210, 1139.550
627.3870, 1193.047
628.5520, 1399.273
629.7180, 1566.826
630.8830, 1499.372
632.0480, 2006.838
633.2130, 2048.154
634.3770, 2011.479
635.5420, 2204.222
636.7060, 2423.961
637.8710, 2752.637
639.0350, 3069.619
640.1990, 3108.330
641.3620, 3197.031
642.5260, 3540.151
643.6890, 3693.095
644.8530, 3908.020
646.0160, 4042.399
647.1790, 3984.982
648.3410, 4165.703
649.5040, 4127.667
650.6670, 4173.789
651.8290, 4116.527
652.9910, 4251.336
654.1530, 4276.973
655.3150, 4324.779
656.4770, 4190.689
657.6380, 4228.039
658.7990, 4132.925
659.9610, 4229.060
661.1220, 4181.236
662.2830, 4143.050
663.4430, 4183.881
664.6040, 4078.729
665.7640, 4224.711
666.9240, 4219.449
668.0850, 4251.308
669.2440, 4135.819
670.4040, 4163.683
671.5640, 4121.547
672.7230, 4147.415
673.8830, 4274.284
675.0420, 4195.153
676.2010, 4146.025
677.3590, 4080.900
678.5180, 3983.775
679.6770, 4081.650
680.8350, 3982.524
681.9930, 3863.398
683.1510, 3755.271
684.3090, 3813.142
685.4670, 3623.013
686.6240, 3654.881
687.7810, 3452.748
688.9390, 3530.615
690.0960, 3247.480
691.2530, 3085.345
692.4090, 3088.208
693.5660, 3046.068
694.7220, 2804.928
695.8790, 2585.786
697.0350, 2284.643
698.1910, 2247.498
699.3460, 2156.352
700.5020, 1988.204
701.6570, 1927.054
702.8130, 1746.902
703.9680, 1714.750
705.1230, 1688.595
706.2780, 1621.438
707.4320, 1560.479
708.5870, 1541.121
709.7410, 1405.958
710.8950, 1346.796
712.0490, 1276.631
713.2030, 1212.464
714.3570, 1342.295
715.5100, 1229.853
716.6640, 1281.955
717.8170, 1073.781
718.9700, 1092.606
720.1230, 877.4297
721.2760, 871.2510
722.4280, 897.0703
723.5810, 831.8887
724.7330, 835.3828
725.8850, 799.5195
727.0370, 784.3330
728.1890, 738.1450
729.3400, 696.9551
730.4920, 597.7632
731.6430, 662.5708
732.7940, 659.3765
733.9450, 620.1807
735.0960, 683.9834
736.2460, 628.7842
737.3970, 526.5840
738.5470, 389.3828
739.6970, 454.1812
740.8470, 369.9775
741.9970, 336.7734
743.1470, 277.5684
744.2970, 258.3628
745.4460, 237.5186
746.5950, 194.9507
747.7440, 205.7544
748.8930, 178.5581
750.0420, 135.3608
751.1900, 116.1641
752.3390, 55.96631
753.4870, 46.90039
754.6350, 17.43213
755.7830, 19.35645
756.9310, 10.14844
758.0780, 1.936523
759.2260, 0.2807620
760.3730, 37.49316
761.5200, 42.73438
762.6670, 109.9927
763.8140, 5.682129
764.9610, 18.34912
766.1070, 35.98730
767.2530, 22.64648
768.4000, 55.72363
769.5460, 69.13379
770.6910, 145.5908
771.8370, 0.1362300
772.9830, 18.30713
774.1280, 21.74561
775.2730, 4.821777
776.4180, 26.40332
777.5630, 36.98877
778.7080, 24.62354
779.8520, 107.2603
780.9970, 151.9653
782.1410, 87.76318
783.2850, 16.62061
784.4290, 19.49854
785.5730, 53.60547
786.7160, 7.294922
787.8600, 58.21191
789.0030, 67.82764
790.1460, 31.86230
791.2890, 1.107422
792.4320, 35.90820
793.5750, 38.12939
794.7170, 29.10303
795.8590, 101.1533
797.0020, 57.27051
798.1440, 8.568359
799.2850, 75.39893
800.4270, 57.22363
801.5690, 84.04492
802.7100, 16.86035
803.8510, 66.32959
804.9920, 43.43164
806.1330, 62.81201
807.2740, 135.8984
808.4140, 86.60400
809.5550, 137.3052
810.6950, 66.00195
811.8350, 69.69385
812.9750, 201.3813
814.1150, 210.0635
815.2540, 277.7417
816.3940, 120.4150
817.5330, 118.0845
818.6720, 170.7500
819.8110, 175.4111
820.9500, 192.9941
822.0880, 230.7183
823.2270, 417.3662
824.3650, 333.0093
825.5030, 420.3389
826.6410, 437.2812
827.7790, 437.9111
828.9170, 420.5371
830.0540, 360.1582
831.1920, 332.7754
832.3290, 395.3877
833.4660, 356.9961
834.6030, 443.6001
835.7390, 471.3447
836.8760, 417.7974
838.0120, 546.4048
839.1480, 488.0088
840.2840, 468.6089
841.4200, 416.2041
842.5560, 500.7964
843.6920, 517.3862
844.8270, 620.9727
845.9620, 592.5659
847.0970, 630.1743
848.2320, 591.7847
849.3670, 792.3960
850.5020, 701.0039
851.6360, 769.6084
852.7700, 725.2095
853.9040, 751.8130
855.0380, 898.4146
856.1720, 978.0337
857.3060, 871.6494
858.4390, 994.2617
859.5730, 846.9028
860.7060, 971.5405
861.8390, 848.1909
862.9720, 868.8481
864.1040, 958.5200
865.2370, 1018.189
866.3690, 946.8696
867.5010, 1068.547
868.6330, 1009.247
869.7650, 1093.943
870.8970, 1152.636
872.0290, 1043.327
873.1600, 1017.014
874.2910, 1183.706
875.4220, 1128.071
876.5530, 1359.090
877.6840, 1220.778
878.8140, 1284.464
879.9450, 1361.146
881.0750, 1493.825
882.2050, 1589.509
883.3350, 1603.372
884.4650, 1533.870
885.5950, 1584.546
886.7240, 1679.218
887.8530, 1620.887
888.9820, 1763.553
890.1110, 1676.215
891.2400, 1781.417
892.3690, 1767.007
893.4970, 1545.573
894.6260, 1635.814
895.7540, 1548.915
896.8820, 1631.583
898.0100, 1503.137
899.1370, 1476.445
900.2650, 1381.800
901.3920, 1338.384
902.5200, 1307.284
903.6470, 1323.881
904.7730, 1295.503
905.9000, 1316.263
907.0270, 1457.221
908.1530, 1317.196
909.2790, 1269.788
910.4050, 1429.393
911.5310, 1271.069
912.6570, 1272.450
913.7830, 1143.113
914.9080, 1134.580
916.0330, 1102.850
917.1580, 1164.303
918.2830, 1194.779
919.4080, 1079.707
920.5330, 1104.462
921.6570, 1256.164
922.7820, 1047.631
923.9060, 1063.948
925.0300, 1121.654
926.1540, 1035.305
927.2770, 1041.135
928.4010, 993.8057
929.5240, 1012.358
930.6470, 977.5264
931.7700, 1061.151
932.8930, 1038.535
934.0160, 1039.885
935.1380, 1017.611
936.2610, 1038.340
937.3830, 883.0723
938.5050, 945.6768
939.6270, 981.5322
940.7490, 908.2734
941.8700, 977.3740
942.9910, 912.1221
944.1130, 1005.873
945.2340, 1013.364
946.3550, 1037.389
947.4750, 1081.151
948.5960, 1048.918
949.7160, 1097.689
950.8370, 1171.464
951.9570, 1104.377
953.0770, 1028.159
954.1970, 1237.944
955.3160, 1168.732
956.4360, 1153.525
957.5550, 1294.321
958.6740, 1399.121
959.7930, 1516.925
960.9120, 1631.733
962.0310, 1519.544
963.1490, 1670.360
964.2670, 1636.181
965.3860, 1752.004
966.5040, 1693.830
967.6210, 1516.660
968.7390, 1286.494
969.8570, 1305.332
970.9740, 1115.328
972.0910, 1197.561
973.2080, 1367.411
974.3250, 1310.277
975.4420, 1241.137
976.5580, 1247.114
977.6750, 1322.238
978.7910, 1385.109
979.9070, 1406.475
981.0230, 1450.543
982.1390, 1463.610
983.2540, 1599.438
984.3700, 1439.342
985.4850, 1541.419
986.6000, 1410.312
987.7150, 1414.494
988.8300, 1472.565
989.9450, 1424.527
991.0590, 1401.552
992.1730, 1429.430
993.2880, 1294.823
994.4010, 1248.878
995.5150, 1191.039
996.6290, 1266.587
997.7420, 1184.789
998.8560, 1184.857
999.9690, 1271.034
1001.082, 1069.141
1002.195, 1164.998
1003.307, 1113.924
1004.420, 1028.851
1005.532, 1084.954
1006.645, 1145.037
1007.757, 1035.626
1008.868, 1029.488
1009.980, 1092.682
1011.092, 1103.835
1012.203, 1098.775
1013.314, 1077.747
1014.425, 1091.485
1015.536, 1086.523
1016.647, 1133.715
1017.758, 1173.650
1018.868, 1261.727
1019.978, 1092.664
1021.088, 1088.602
1022.198, 1132.587
1023.308, 1009.524
1024.418, 1158.797
1025.527, 945.6621
1026.637, 1061.202
1027.746, 1118.191
1028.855, 1168.142
1029.963, 1033.097
1031.072, 1058.182
1032.181, 1073.150
1033.289, 1010.183
1034.397, 1105.321
1035.505, 1018.358
1036.613, 927.8369
1037.721, 921.8535
1038.828, 898.8906
1039.935, 914.0625
1041.043, 914.0000
1042.150, 800.2363
1043.257, 746.3398
1044.363, 713.4463
1045.470, 678.7988
1046.576, 631.7666
1047.682, 654.9297
1048.788, 605.0586
1049.894, 557.2178
1051.000, 473.4209
1052.106, 467.6494
1053.211, 473.3701
1054.316, 522.8711
1055.421, 506.3789
1056.526, 591.6299
1057.631, 537.8984
1058.736, 336.1670
1059.840, 370.4346
1060.944, 409.7061
1062.049, 434.9766
1063.153, 164.2598
1064.256, 224.5557
1065.360, 187.8799
1066.463, 247.2227
1067.567, 205.5654
1068.670, 179.9082
1069.773, 191.5596
1070.876, 110.5889
1071.978, 147.9277
1073.081, 145.2871
1074.183, 10.02539
1075.285, 77.87500
1076.387, 115.4082
1077.489, 124.3223
1078.591, 18.54590
1079.692, 60.77148
1080.794, 43.68066
1081.895, 24.15820
1082.996, 87.20703
1084.097, 1.906250
1085.198, 59.82617
1086.298, 61.34277
1087.399, 90.41406
1088.499, 59.80664
1089.599, 47.62988
1090.699, 95.14746
1091.799, 109.6084
1092.898, 72.12012
1093.998, 102.9307
1095.097, 81.62695
1096.196, 27.56641
1097.295, 63.17969
1098.394, 85.50879
1099.492, 87.98633
1100.591, 68.15625
1101.689, 90.47656
1102.787, 0.7939450
1103.885, 53.89453
1104.983, 69.38379
1106.081, 31.65918
1107.178, 103.6641
1108.275, 9.933594
1109.373, 1.711914
1110.470, 99.54590
1111.566, 37.19922
1112.663, 63.97070
1113.760, 15.78223
1114.856, 11.60840
1115.952, 38.55176
1117.048, 1.834961
1118.144, 73.98535
1119.240, 15.86914
1120.335, 4.260742
1121.431, 75.43750
1122.526, 101.6387
1123.621, 26.14551
1124.716, 113.2217
1125.810, 14.77734
1126.905, 51.22852
1127.999, 29.26953
1129.094, 61.33594
1130.188, 15.55566
1131.282, 44.55762
1132.375, 8.296875
1133.469, 86.85645
1134.562, 57.93652
1135.656, 68.72559
1136.749, 11.50879
1137.842, 17.28613
1138.935, 17.94141
1140.027, 6.188477
1141.120, 5.715820
1142.212, 8.283203
1143.304, 54.00781
1144.396, 47.72852
1145.488, 80.44434
1146.579, 20.84473
1147.671, 7.846680
1148.762, 105.5283
1149.853, 25.20508
1150.944, 58.87695
1152.035, 70.54395
1153.126, 48.21387
1154.216, 152.8906
1155.307, 26.41406
1156.397, 3.728516
1157.487, 78.05566
1158.577, 52.56445
1159.667, 150.1787
1160.756, 90.79004
1161.846, 32.39941
1162.935, 68.00488
1164.024, 36.39648
1165.113, 32.17188
1166.201, 56.74707
1167.290, 5.317383
1168.378, 99.88574
1169.467, 116.4482
1170.555, 36.99414
1171.643, 32.46973
1172.730, 35.02344
1173.818, 84.51172
1174.905, 43.99316
1175.993, 121.4697
1177.080, 151.9395
1178.167, 57.40527
1179.254, 160.8643
1180.340, 108.3174
1181.427, 156.3145
1182.513, 173.6816
1183.599, 219.6406
1184.685, 175.0693
1185.771, 123.4912
1186.856, 72.90820
1187.942, 75.31738
1189.027, 202.7207
1190.112, 235.1191
1191.197, 101.5098
1192.282, 176.8945
1193.367, 91.27246
1194.451, 122.6445
1195.536, 194.0098
1196.620, 87.36816
1197.704, 262.7197
1198.788, 150.0645
1199.872, 239.4033
1200.955, 205.7354
1202.039, 134.0615
1203.122, 210.3789
1204.205, 129.6914
1205.288, 143.9893
1206.370, 142.2871
1207.453, 58.57812
1208.535, 191.8633
1209.618, 225.1406
1210.700, 132.4121
1211.782, 137.6758
1212.863, 258.9336
1213.945, 221.1836
1215.026, 208.2930
1216.108, 293.5293
1217.189, 349.7588
1218.270, 228.9814
1219.351, 252.1963
1220.431, 291.4043
1221.512, 126.6055
1222.592, 296.7979
1223.672, 107.9844
1224.752, 332.1621
1225.832, 245.3330
1226.911, 253.4961
1227.991, 174.6523
1229.070, 275.7998
1230.149, 151.9414
1231.228, 287.0752
1232.307, 153.2031
1233.386, 263.1670
1234.464, 149.8916
1235.543, 246.9971
1236.621, 4.106445
1237.699, 169.2168
1238.777, 56.20703
1239.855, 157.0459
1240.932, 174.1348
1242.009, 142.7246
1243.087, 192.6084
1244.164, 149.4902
1245.241, 107.6094
1246.317, 40.64746
1247.394, 153.5078
1248.470, 84.54785
1249.546, 176.2988
1250.623, 28.15625
1251.698, 111.1191
1252.774, 179.1348
1253.850, 180.0557
1254.925, 192.5781
1256.000, 130.4355
1257.076, 200.8066
1258.150, 167.5361
1259.225, 124.2354
1260.300, 231.0615
1261.374, 99.77734
1262.449, 185.5596
1263.523, 242.5850
1264.597, 228.5410
1265.670, 242.6465
1266.744, 119.2607
1267.818, 197.0449
1268.891, 138.3203
1269.964, 136.3906
1271.037, 253.1094
1272.110, 328.8115
1273.183, 138.7139
1274.255, 155.6729
1275.327, 228.5732
1276.400, 256.5820
1277.472, 243.2197
1278.543, 361.1133
1279.615, 217.8623
1280.687, 353.7852
1281.758, 318.9971
1282.829, 398.8613
1283.900, 406.0420
1284.971, 321.4980
1286.042, 399.5195
1287.112, 414.8984
1288.183, 471.8516
1289.253, 473.4248
1290.323, 454.5498
1291.393, 448.2949
1292.463, 477.1572
1293.532, 437.9883
1294.602, 595.8447
1295.671, 517.7725
1296.740, 529.9990
1297.809, 662.8516
1298.878, 563.7412
1299.946, 594.4766
1301.015, 556.4912
1302.083, 519.4072
1303.151, 580.1807
1304.219, 507.9277
1305.287, 541.7725
1306.354, 632.6162
1307.422, 683.4121
1308.489, 703.2529
1309.556, 736.0947
1310.623, 698.9336
1311.690, 641.7734
1312.757, 640.6113
1313.823, 503.4502
1314.890, 559.2881
1315.956, 535.4219
1317.022, 512.4795
1318.088, 560.8008
1319.153, 550.6377
