##NAMES=Aenigmatite
##RRUFFID=R061088
##IDEAL CHEMISTRY=Na_4_(Fe^2+^_10_Ti^4+^_2_)O_4_[Si_12_O_36_]
##LOCALITY=Naujakasik, Greenland
##OWNER=RRUFF
##SOURCE=Michael Scott
##DESCRIPTION=Black prismatic crystals
##STATUS=The identification of this mineral has been confirmed by X-ray diffraction and chemical analysis
##URL=rruff.info/R061088
##MEASURED CHEMISTRY=(Na_1.72_Ca_0.28_)_Σ=2_(Fe^2+^_4.90_Mn_0.08_Mg_0.02_)_Σ=5_(Ti_0.85_Al_0.14_Fe^3+^_0.01_)_Σ=1_(Si_5.87_Al_0.13_)_Σ=6_O_20_
##PIN_ID=L00777
##ORIENTATION=Laser parallel to b* (0 1 0). Fiducial mark perpendicular to laser is parallel to c [0 0 1]
133.7500, 0.0000000E+00
134.9800, 35.48486
136.2100, 5.168945
137.4400, 69.81104
138.6700, 402.4897
139.9000, 497.3057
141.1290, 418.8394
142.3590, 307.8091
143.5880, 367.1924
144.8170, 426.3374
146.0460, 488.0811
147.2750, 664.5781
148.5030, 731.1782
149.7320, 858.9766
150.9600, 988.0811
152.1880, 1098.165
153.4160, 1315.462
154.6440, 1448.546
155.8720, 1631.832
157.0990, 1723.583
158.3270, 1746.315
159.5540, 1950.605
160.7810, 2060.149
162.0080, 2301.893
163.2350, 2333.071
164.4610, 2351.690
165.6880, 2352.859
166.9140, 2166.646
168.1400, 1935.150
169.3660, 1826.872
170.5920, 1614.427
171.8180, 1276.511
173.0430, 1062.268
174.2690, 802.5537
175.4940, 636.2637
176.7190, 468.1768
177.9440, 389.0903
179.1680, 235.6387
180.3930, 209.2075
181.6170, 224.7920
182.8420, 193.3896
184.0660, 248.2080
185.2900, 301.7866
186.5140, 394.6152
187.7370, 436.5625
188.9610, 454.3447
190.1840, 375.9551
191.4070, 298.3955
192.6300, 306.7334
193.8530, 296.2246
195.0760, 401.5469
196.2980, 380.4917
197.5210, 369.6025
198.7430, 456.7051
199.9650, 469.0396
201.1870, 536.1987
202.4090, 457.2729
203.6310, 259.2607
204.8520, 44.35449
206.0730, 63.42627
207.2950, 114.8940
208.5160, 85.69824
209.7360, 117.1318
210.9570, 30.83789
212.1780, 2.943848
213.3980, 10.42822
214.6180, 121.0479
215.8380, 13.33984
217.0580, 73.62646
218.2780, 9.096191
219.4980, 130.1685
220.7170, 175.4180
221.9360, 210.6499
223.1560, 239.8623
224.3750, 272.0537
225.5930, 287.2207
226.8120, 373.3501
228.0310, 318.4575
229.2490, 551.5244
230.4670, 319.5513
231.6850, 535.7598
232.9030, 463.6270
234.1210, 430.0503
235.3380, 345.6426
236.5560, 315.8496
237.7730, 380.4458
238.9900, 421.7051
240.2070, 487.6948
241.4240, 472.4512
242.6410, 433.7266
243.8570, 437.0029
245.0730, 403.0649
246.2900, 339.9951
247.5060, 329.8765
248.7210, 319.7227
249.9370, 260.7344
251.1530, 278.4209
252.3680, 283.0068
253.5830, 275.1895
254.7980, 217.8447
256.0130, 224.4326
257.2280, 205.3853
258.4430, 185.2759
259.6570, 200.8330
260.8720, 150.6240
262.0860, 165.5791
263.3000, 154.4985
264.5130, 155.3169
265.7270, 130.3257
266.9410, 119.4468
268.1540, 101.1558
269.3670, 104.7568
270.5800, 108.4351
271.7930, 84.18408
273.0060, 172.8091
274.2190, 214.6792
275.4310, 215.4878
276.6430, 175.1177
277.8550, 240.4790
279.0670, 227.5146
280.2790, 272.4663
281.4910, 216.5278
282.7020, 174.2979
283.9140, 214.7900
285.1250, 280.3389
286.3360, 463.9204
287.5470, 475.5156
288.7570, 461.1118
289.9680, 587.6968
291.1780, 607.2578
292.3880, 637.7861
293.5990, 873.2773
294.8080, 1015.730
296.0180, 1023.144
297.2280, 1200.518
298.4370, 1283.841
299.6470, 1350.088
300.8560, 1535.257
302.0650, 1537.358
303.2740, 1772.395
304.4820, 1836.372
305.6910, 1801.292
306.8990, 1995.157
308.1070, 1879.973
309.3150, 1886.739
310.5230, 1768.459
311.7310, 1631.135
312.9390, 1489.768
314.1460, 1384.737
315.3530, 1312.890
316.5600, 1141.111
317.7670, 1082.018
318.9740, 908.7896
320.1810, 765.7944
321.3870, 630.4629
322.5930, 654.0679
323.8000, 553.9795
325.0060, 342.5586
326.2110, 366.1230
327.4170, 216.6777
328.6230, 204.1641
329.8280, 74.69141
331.0330, 54.19727
332.2380, 90.67383
333.4430, 18.87598
334.6480, 24.52881
335.8530, 42.09912
337.0570, 64.77588
338.2610, 137.5078
339.4650, 128.3120
340.6690, 111.0420
341.8730, 101.1323
343.0770, 18.14404
344.2800, 78.79980
345.4840, 147.7158
346.6870, 178.6035
347.8900, 284.4639
349.0930, 348.2974
350.2950, 434.0010
351.4980, 601.3940
352.7000, 828.5400
353.9030, 879.4995
355.1050, 1090.472
356.3070, 1414.847
357.5080, 1374.960
358.7100, 1560.782
359.9110, 1697.126
361.1130, 1735.025
362.3140, 1759.979
363.5150, 1853.647
364.7160, 1781.982
365.9160, 1741.497
367.1170, 1631.114
368.3170, 1480.720
369.5170, 1424.313
370.7170, 1365.895
371.9170, 1238.464
373.1170, 1235.024
374.3170, 1162.572
375.5160, 1089.109
376.7150, 963.6353
377.9140, 886.1323
379.1130, 916.5815
380.3120, 764.9644
381.5110, 715.2153
382.7090, 845.3242
383.9070, 688.3384
385.1060, 707.3423
386.3040, 667.3418
387.5010, 577.3389
388.6990, 598.3320
389.8970, 509.3247
391.0940, 524.3154
392.2910, 376.3066
393.4880, 444.2964
394.6850, 367.2622
395.8820, 334.2524
397.0780, 278.2422
398.2750, 158.2324
399.4710, 102.0542
400.6670, 47.91260
401.8630, 0.1347660
403.0590, 49.40771
404.2540, 45.81104
405.4500, 16.73291
406.6450, 10.36816
407.8400, 80.03418
409.0350, 40.68311
410.2300, 127.0493
411.4250, 54.76074
412.6190, 61.63232
413.8140, 59.47998
415.0080, 33.34375
416.2020, 46.56592
417.3960, 31.84033
418.5900, 0.3637700
419.7830, 182.8462
420.9770, 309.1465
422.1700, 354.7329
423.3630, 463.2808
424.5560, 565.9121
425.7490, 551.3989
426.9410, 544.7070
428.1340, 685.1763
429.3260, 769.7773
430.5180, 807.3677
431.7100, 847.9492
432.9020, 910.5215
434.0940, 901.2798
435.2850, 870.6372
436.4770, 882.1816
437.6680, 822.7178
438.8590, 795.2446
440.0500, 748.7627
441.2410, 714.7832
442.4310, 667.7759
443.6220, 615.2710
444.8120, 535.9912
446.0020, 402.9604
447.1920, 339.3877
448.3820, 252.8564
449.5710, 412.3198
450.7610, 242.7778
451.9500, 196.2305
453.1390, 31.67871
454.3280, 55.12207
455.5170, 88.56152
456.7060, 28.99658
457.8940, 32.42773
459.0830, 47.85596
460.2710, 43.28223
461.4590, 35.70703
462.6470, 39.86670
463.8350, 39.54590
465.0220, 75.95996
466.2100, 13.62549
467.3970, 62.78662
468.5840, 154.2007
469.7710, 85.61523
470.9580, 66.98096
472.1440, 82.30127
473.3310, 153.5962
474.5170, 37.46729
475.7030, 172.0425
476.8890, 151.4048
478.0750, 215.3154
479.2610, 269.2803
480.4460, 259.8521
481.6320, 319.9043
482.8170, 274.5898
484.0020, 236.4131
485.1870, 245.9741
486.3710, 242.6870
487.5560, 220.4321
488.7400, 286.8071
489.9250, 269.3428
491.1090, 346.9985
492.2930, 208.6636
493.4760, 223.3726
494.6600, 194.1367
495.8440, 127.9746
497.0270, 267.8579
498.2100, 183.8208
499.3930, 276.8125
500.5760, 242.8481
501.7580, 233.9150
502.9410, 271.5703
504.1230, 385.1826
505.3060, 313.3633
506.4880, 449.5767
507.6690, 511.8101
508.8510, 511.7021
510.0330, 574.3130
511.2140, 569.6006
512.3950, 626.9014
513.5760, 677.2129
514.7570, 618.5410
515.9380, 744.8809
517.1190, 781.2314
518.2990, 770.5923
519.4800, 752.9648
520.6600, 898.3584
521.8400, 1003.764
523.0190, 948.8789
524.1990, 956.6104
525.3790, 963.0527
526.5580, 1002.509
527.7370, 1012.969
528.9160, 1149.463
530.0950, 1084.960
531.2740, 1141.472
532.4520, 1236.997
533.6310, 1106.537
534.8090, 1136.091
535.9870, 1030.659
537.1650, 1144.241
538.3430, 1145.837
539.5200, 1107.449
540.6980, 1165.074
541.8750, 1145.715
543.0520, 1119.261
544.2290, 1123.055
545.4060, 1072.658
546.5820, 1070.703
547.7590, 1023.187
548.9350, 1045.649
550.1110, 986.7256
551.2870, 904.3311
552.4630, 994.5786
553.6390, 986.4263
554.8140, 1054.908
555.9900, 999.5903
557.1650, 1107.979
558.3400, 1031.591
559.5150, 981.4785
560.6900, 935.0981
561.8640, 814.0420
563.0390, 800.0054
564.2130, 691.9878
565.3870, 649.9883
566.5610, 668.0068
567.7350, 638.0449
568.9080, 597.1025
570.0820, 485.1792
571.2550, 496.2754
572.4280, 494.3896
573.6010, 410.5229
574.7740, 406.6753
575.9470, 231.8467
577.1190, 157.0376
578.2920, 169.2476
579.4640, 140.4766
580.6360, 128.7251
581.8080, 29.99268
582.9790, 12.28076
584.1510, 40.58838
585.3220, 69.08447
586.4940, 37.75000
587.6650, 58.39990
588.8360, 11.95996
590.0060, 6.340820
591.1770, 146.7412
592.3470, 119.1616
593.5180, 230.6025
594.6880, 373.0635
595.8580, 297.5454
597.0280, 641.0474
598.1970, 606.5703
599.3670, 651.1133
600.5360, 854.6777
601.7050, 767.2627
602.8740, 911.8687
604.0430, 1065.211
605.2120, 1232.859
606.3800, 1288.528
607.5490, 1399.898
608.7170, 1520.609
609.8850, 1626.342
611.0530, 1665.097
612.2210, 1814.872
613.3880, 1966.669
614.5560, 1871.493
615.7230, 2164.346
616.8900, 2279.223
618.0570, 2532.189
619.2240, 2764.294
620.3900, 2836.149
621.5570, 3223.481
622.7230, 3534.875
623.8890, 3728.307
625.0550, 4185.639
626.2210, 4624.960
627.3870, 5130.010
628.5520, 5741.102
629.7180, 6451.848
630.8830, 7314.264
632.0480, 8152.729
633.2130, 9268.518
634.3770, 10330.01
635.5420, 11838.89
636.7060, 13159.01
637.8710, 14699.03
639.0350, 16164.60
640.1990, 17736.40
641.3620, 18825.08
642.5260, 20001.18
643.6890, 20768.07
644.8530, 21130.22
646.0160, 21520.74
647.1790, 21207.47
648.3410, 20703.27
649.5040, 20136.02
650.6670, 19515.17
651.8290, 18842.51
652.9910, 18023.28
654.1530, 17142.42
655.3150, 16301.21
656.4770, 15510.02
657.6380, 14759.34
658.7990, 14111.69
659.9610, 13340.71
661.1220, 12677.58
662.2830, 11956.46
663.4430, 11482.36
664.6040, 10889.28
665.7640, 10459.20
666.9240, 9961.142
668.0850, 9400.099
669.2440, 9268.068
670.4040, 9240.053
671.5640, 8943.050
672.7230, 9009.063
673.8830, 8934.092
675.0420, 9017.132
676.2010, 8978.187
677.3590, 8831.257
678.5180, 8860.339
679.6770, 8757.440
680.8350, 8786.554
681.9930, 8911.679
683.1510, 9207.819
684.3090, 9253.983
685.4670, 9423.160
686.6240, 9280.364
687.7810, 9214.587
688.9390, 8923.823
690.0960, 8608.102
691.2530, 8082.407
692.4090, 7647.765
693.5660, 7015.155
694.7220, 6424.578
695.8790, 5991.036
697.0350, 5424.518
698.1910, 4966.030
699.3460, 4538.554
700.5020, 4025.096
701.6570, 3613.652
702.8130, 3426.221
703.9680, 2918.803
705.1230, 2969.399
706.2780, 2544.008
707.4320, 2364.631
708.5870, 2104.267
709.7410, 2085.916
710.8950, 1749.578
712.0490, 1789.252
713.2030, 1514.939
714.3570, 1475.640
715.5100, 1375.354
716.6640, 1088.080
717.8170, 1248.820
718.9700, 1013.572
720.1230, 1024.337
721.2760, 1018.115
722.4280, 890.9053
723.5810, 815.7080
724.7330, 746.2915
725.8850, 665.6323
727.0370, 615.5215
728.1890, 556.3740
729.3400, 656.2402
730.4920, 678.1182
731.6430, 724.0093
732.7940, 673.9121
733.9450, 641.8281
735.0960, 498.7559
736.2460, 567.6958
737.3970, 446.6479
738.5470, 382.6133
739.6970, 476.5903
740.8470, 321.5806
741.9970, 312.5825
743.1470, 243.6035
744.2970, 184.0957
745.4460, 174.4321
746.5950, 127.7417
747.7440, 136.8135
748.8930, 160.8965
750.0420, 144.9922
751.1900, 141.0991
752.3390, 183.2183
753.4870, 128.3486
754.6350, 105.4907
755.7830, 11.35596
756.9310, 25.79785
758.0780, 61.96191
759.2260, 51.86230
760.3730, 86.70654
761.5200, 68.58691
762.6670, 82.49609
763.8140, 63.44043
764.9610, 57.41162
766.1070, 57.40723
767.2530, 50.42676
768.4000, 6.467285
769.5460, 61.49023
770.6910, 118.5435
771.8370, 61.63184
772.9830, 84.74805
774.1280, 2.097168
775.2730, 103.0571
776.4180, 25.74121
777.5630, 81.45264
778.7080, 43.68408
779.8520, 153.9351
780.9970, 28.25977
782.1410, 68.59766
783.2850, 20.96826
784.4290, 24.34814
785.5730, 16.26074
786.7160, 19.04590
787.8600, 69.50244
789.0030, 6.086426
790.1460, 32.67773
791.2890, 11.72217
792.4320, 65.87109
793.5750, 86.47314
794.7170, 73.08301
795.8590, 67.70068
797.0020, 26.67285
798.1440, 122.9399
799.2850, 40.56152
800.4270, 105.1909
801.5690, 134.8281
802.7100, 222.4736
803.8510, 287.1348
804.9920, 201.8037
806.1330, 44.48096
807.2740, 184.1655
808.4140, 256.8638
809.5550, 101.5703
810.6950, 254.2871
811.8350, 265.0151
812.9750, 291.7510
814.1150, 377.5000
815.2540, 332.2573
816.3940, 377.0220
817.5330, 328.7939
818.6720, 380.5732
819.8110, 367.3687
820.9500, 363.1870
822.0880, 407.0225
823.2270, 405.9907
824.3650, 449.7148
825.5030, 472.5718
826.6410, 424.4502
827.7790, 508.3384
828.9170, 617.2412
830.0540, 631.1685
831.1920, 611.1035
832.3290, 567.0439
833.4660, 722.9907
834.6030, 759.9434
835.7390, 711.9023
836.8760, 658.8672
838.0120, 870.8374
839.1480, 848.8135
840.2840, 804.7954
841.4200, 972.7832
842.5560, 1010.777
843.6920, 1079.776
844.8270, 999.7808
845.9620, 1199.791
847.0970, 1203.807
848.2320, 1231.828
849.3670, 1353.854
850.5020, 1368.896
851.6360, 1442.954
852.7700, 1500.019
853.9040, 1686.091
855.0380, 1712.183
856.1720, 1838.281
857.3060, 1892.384
858.4390, 2053.492
859.5730, 2149.612
860.7060, 2102.746
861.8390, 2173.895
862.9720, 2169.058
864.1040, 2185.237
865.2370, 2286.426
866.3690, 2408.621
867.5010, 2479.822
868.6330, 2668.031
869.7650, 2630.252
870.8970, 2808.484
872.0290, 2804.724
873.1600, 3080.008
874.2910, 3222.342
875.4220, 3422.941
876.5530, 3632.405
877.6840, 3894.404
878.8140, 4024.769
879.9450, 4255.157
881.0750, 4458.551
882.2050, 4635.950
883.3350, 4913.354
884.4650, 5138.942
885.5950, 5383.414
886.7240, 5585.593
887.8530, 5885.031
888.9820, 5954.475
890.1110, 6173.920
891.2400, 6114.378
892.3690, 6001.796
893.4970, 5614.261
894.6260, 5655.729
895.7540, 5145.928
896.8820, 4774.145
898.0100, 4375.399
899.1370, 3990.174
900.2650, 3678.021
901.3920, 3321.151
902.5200, 3082.960
903.6470, 2822.139
904.7730, 2562.675
905.9000, 2483.186
907.0270, 2296.398
908.1530, 2140.931
909.2790, 2014.782
910.4050, 1907.558
911.5310, 1792.325
912.6570, 1682.091
913.7830, 1528.067
914.9080, 1451.152
916.0330, 1353.130
917.1580, 1272.214
918.2830, 1235.655
919.4080, 1146.914
920.5330, 1134.085
921.6570, 1108.135
922.7820, 1105.037
923.9060, 1082.564
925.0300, 982.6147
926.1540, 909.2456
927.2770, 865.5234
928.4010, 789.1689
929.5240, 798.8232
930.6470, 864.4844
931.7700, 688.1528
932.8930, 671.6558
934.0160, 588.9648
935.1380, 664.0312
936.2610, 440.7305
937.3830, 493.4365
938.5050, 507.8511
939.6270, 458.5796
940.7490, 493.3076
941.8700, 457.8818
942.9910, 466.9136
944.1130, 446.6816
945.2340, 409.7148
946.3550, 444.6660
947.4750, 472.9507
948.5960, 489.3999
949.7160, 492.2041
950.8370, 445.4937
951.9570, 462.7349
953.0770, 454.3574
954.1970, 446.8101
955.3160, 476.5771
956.4360, 439.1675
957.5550, 464.8916
958.6740, 464.5894
959.7930, 476.1992
960.9120, 465.2383
962.0310, 459.5513
963.1490, 480.7988
964.2670, 479.5615
965.3860, 478.4258
966.5040, 398.2944
967.6210, 543.1675
968.7390, 559.0454
969.8570, 548.9277
970.9740, 421.8149
972.0910, 447.7070
973.2080, 461.6025
974.3250, 506.5034
975.4420, 497.4624
976.5580, 512.3721
977.6750, 582.2856
978.7910, 555.2031
979.9070, 662.1255
981.0230, 680.0811
982.1390, 713.0112
983.2540, 673.9458
984.3700, 751.8179
985.4850, 868.3950
986.6000, 859.4941
987.7150, 704.9072
988.8300, 611.2246
989.9450, 787.1904
991.0590, 564.2188
992.1730, 608.2300
993.2880, 418.4849
994.4010, 464.3862
995.5150, 349.3657
996.6290, 349.4292
997.7420, 225.9512
998.8560, 322.3662
999.9690, 207.1211
1001.082, 261.2012
1002.195, 235.7451
1003.307, 158.1909
1004.420, 158.7231
1005.532, 59.21289
1006.645, 78.70264
1007.757, 172.2861
1008.868, 142.6157
1009.980, 107.6118
1011.092, 235.0156
1012.203, 219.0117
1013.314, 109.6021
1014.425, 230.7388
1015.536, 200.1919
1016.647, 277.1880
1017.758, 287.2974
1018.868, 245.2930
1019.978, 256.8213
1021.088, 242.5869
1022.198, 259.6548
1023.308, 330.9297
1024.418, 233.1704
1025.527, 289.2476
1026.637, 361.2437
1027.746, 445.2388
1028.855, 443.3755
1029.963, 390.3169
1031.072, 425.4790
1032.181, 445.5269
1033.289, 405.5962
1034.397, 387.7007
1035.505, 305.8027
1036.613, 408.9194
1037.721, 436.0513
1038.828, 380.1865
1039.935, 343.3203
1041.043, 411.4844
1042.150, 349.6650
1043.257, 399.8677
1044.363, 391.0732
1045.470, 413.3052
1046.576, 360.5361
1047.682, 403.7876
1048.788, 343.0522
1049.894, 361.3564
1051.000, 424.6689
1052.106, 334.0005
1053.211, 289.3394
1054.316, 342.6860
1055.421, 223.0317
1056.526, 147.3760
1057.631, 197.7393
1058.736, 156.1030
1059.840, 186.4648
1060.944, 122.8311
1062.049, 186.1958
1063.153, 164.5581
1064.256, 204.9180
1065.360, 58.27539
1066.463, 123.6411
1067.567, 82.00391
1068.670, 117.3647
1069.773, 37.72363
1070.876, 28.85205
1071.978, 2.122070
1073.081, 19.99463
1074.183, 25.46973
1075.285, 18.57568
1076.387, 1.307617
1077.489, 4.438965
1078.591, 11.24316
1079.692, 17.61865
1080.794, 19.26221
1081.895, 9.014648
1082.996, 11.27344
1084.097, 25.43604
1085.198, 13.81201
1086.298, 27.71680
1087.399, 53.47217
1088.499, 30.26123
1089.599, 7.927734
1090.699, 35.11328
1091.799, 15.29590
1092.898, 47.52441
1093.998, 4.376465
1095.097, 22.23779
1096.196, 62.93652
1097.295, 39.96094
1098.394, 67.26318
1099.492, 81.46631
1100.591, 83.26807
1101.689, 35.55176
1102.787, 51.77441
1103.885, 42.36914
1104.983, 31.90869
1106.081, 57.12256
1107.178, 16.59375
1108.275, 41.23633
1109.373, 39.85547
1110.470, 50.38232
1111.566, 35.12402
1112.663, 27.82275
1113.760, 46.31055
1114.856, 50.51562
1115.952, 23.20850
1117.048, 34.21045
1118.144, 10.75928
1119.240, 0.7236330
1120.335, 45.32129
1121.431, 40.59961
1122.526, 27.51562
1123.621, 33.42773
1124.716, 11.66553
1125.810, 21.77490
1126.905, 6.907227
1127.999, 8.053223
1129.094, 15.21533
1130.188, 2.604004
1131.282, 2.662109
1132.375, 29.21045
1133.469, 1.001465
1134.562, 13.21826
1135.656, 14.45654
1136.749, 2.285645
1137.842, 137.9824
1138.935, 161.3354
1140.027, 26.78467
1141.120, 66.73975
1142.212, 4.258301
1143.304, 85.76758
1144.396, 62.72803
1145.488, 27.73047
1146.579, 3.183105
1147.671, 69.62451
1148.762, 36.06104
1149.853, 75.49170
1150.944, 1.917480
1152.035, 49.66846
1153.126, 47.70654
1154.216, 13.62207
1155.307, 9.561523
1156.397, 46.78320
1157.487, 134.1226
1158.577, 95.45557
1159.667, 142.7842
1160.756, 51.10791
1161.846, 38.42480
1162.935, 72.73535
1164.024, 76.04102
1165.113, 67.34131
1166.201, 77.63672
1167.290, 135.9268
1168.378, 197.2124
1169.467, 172.8159
1170.555, 189.7666
1171.643, 134.0356
1172.730, 112.3003
1173.818, 85.56885
1174.905, 112.3589
1175.993, 217.1362
1177.080, 173.4116
1178.167, 270.6807
1179.254, 254.9512
1180.340, 323.2183
1181.427, 374.4907
1182.513, 405.7676
1183.599, 331.0410
1184.685, 382.3125
1185.771, 334.5781
1186.856, 415.8394
1187.942, 320.0957
1189.027, 344.3472
1190.112, 397.6006
1191.197, 423.8486
1192.282, 416.0923
1193.367, 438.2275
1194.451, 479.6177
1195.536, 507.9199
1196.620, 523.8247
1197.704, 490.2285
1198.788, 520.5830
1199.872, 525.3066
1200.955, 528.9761
1202.039, 566.6289
1203.122, 540.2344
1204.205, 579.0293
1205.288, 591.8037
1206.370, 615.3521
1207.453, 614.2339
1208.535, 633.9834
1209.618, 627.5493
1210.700, 613.8315
1211.782, 554.8516
1212.863, 531.1255
1213.945, 502.3940
1215.026, 496.8398
1216.108, 486.9399
1217.189, 511.3462
1218.270, 547.1230
1219.351, 564.3379
1220.431, 581.6006
1221.512, 623.8755
1222.592, 505.1475
1223.672, 463.2119
1224.752, 499.9678
1225.832, 548.5840
1226.911, 418.6265
1227.991, 450.8770
1229.070, 433.1250
1230.149, 508.3662
1231.228, 432.6040
1232.307, 421.8354
1233.386, 459.0615
1234.464, 509.2847
1235.543, 591.5020
1236.621, 448.7168
1237.699, 450.8745
1238.777, 500.0781
1239.855, 408.2769
1240.932, 432.4692
1242.009, 392.6567
1243.087, 412.8086
1244.164, 585.9834
1245.241, 463.1504
1246.317, 419.3774
1247.394, 398.8955
1248.470, 641.8892
1249.546, 403.5635
1250.623, 491.3306
1251.698, 563.4434
1252.774, 445.4893
1253.850, 640.5474
1254.925, 515.3545
1256.000, 574.5088
1257.076, 653.5786
1258.150, 606.5581
1259.225, 627.0698
1260.300, 619.6816
1261.374, 646.9434
1262.449, 596.8706
1263.523, 775.3252
1264.597, 728.8687
1265.670, 844.3154
1266.744, 796.7964
1267.818, 757.4546
1268.891, 798.6323
1269.964, 805.2402
1271.037, 895.1699
1272.110, 908.6802
1273.183, 926.5854
1274.255, 922.8843
1275.327, 1020.624
1276.400, 1068.033
1277.472, 1103.275
1278.543, 1185.828
1279.615, 1185.653
1280.687, 1257.930
1281.758, 1298.017
1282.829, 1431.739
1283.900, 1409.583
1284.971, 1394.115
1286.042, 1481.930
1287.112, 1397.650
1288.183, 1523.659
1289.253, 1478.445
1290.323, 1590.148
1291.393, 1611.966
1292.463, 1693.861
1293.532, 1785.853
1294.602, 1764.847
1295.671, 1696.899
1296.740, 1798.931
1297.809, 1697.846
1298.878, 1837.808
1299.946, 1723.778
1301.015, 1852.819
1302.083, 1785.014
1303.151, 1926.700
1304.219, 1837.291
1305.287, 1920.435
