##NAMES=Aenigmatite
##RRUFFID=R061088
##IDEAL CHEMISTRY=Na_4_(Fe^2+^_10_Ti^4+^_2_)O_4_[Si_12_O_36_]
##LOCALITY=Naujakasik, Greenland
##OWNER=RRUFF
##SOURCE=Michael Scott
##DESCRIPTION=Black prismatic crystals
##STATUS=The identification of this mineral has been confirmed by X-ray diffraction and chemical analysis
##URL=rruff.info/R061088
##MEASURED CHEMISTRY=(Na_1.72_Ca_0.28_)_Σ=2_(Fe^2+^_4.90_Mn_0.08_Mg_0.02_)_Σ=5_(Ti_0.85_Al_0.14_Fe^3+^_0.01_)_Σ=1_(Si_5.87_Al_0.13_)_Σ=6_O_20_
##PIN_ID=L01545
##ORIENTATION=Laser parallel to (1 1 0). Fiducial mark perpendicular to laser is parallel to c [0 0 1]
132.8850, 0.0000000E+00
134.1200, 3.028320
135.3560, 3.200195
136.5910, 64.24707
137.8260, 184.2920
139.0610, 187.8857
140.2950, 451.0459
141.5290, 247.0322
142.7640, 307.8564
143.9980, 306.5771
145.2320, 499.5742
146.4650, 547.3047
147.6990, 629.2305
148.9320, 569.8652
150.1650, 621.2197
151.3980, 849.5469
152.6310, 1141.283
153.8640, 940.7588
155.0960, 1260.264
156.3280, 1075.853
157.5600, 1095.458
158.7920, 1173.938
160.0240, 1234.161
161.2560, 1401.151
162.4870, 1478.212
163.7180, 1632.318
164.9490, 1552.580
166.1800, 1571.087
167.4110, 1314.960
168.6410, 1280.307
169.8720, 1187.977
171.1020, 1017.572
172.3320, 944.3359
173.5620, 744.1973
174.7910, 602.3867
176.0210, 434.4658
177.2500, 296.7002
178.4790, 353.6719
179.7080, 193.5479
180.9370, 90.56152
182.1650, 15.23438
183.3940, 97.70605
184.6220, 12.12695
185.8500, 184.7832
187.0780, 200.5088
188.3050, 224.6611
189.5330, 196.8281
190.7600, 323.4512
191.9870, 225.9678
193.2140, 332.3760
194.4410, 325.6768
195.6680, 508.8711
196.8940, 436.9688
198.1200, 439.0459
199.3470, 527.3096
200.5720, 482.7041
201.7980, 566.4219
203.0240, 578.6016
204.2490, 283.7773
205.4740, 132.2578
206.6990, 127.1895
207.9240, 48.19141
209.1490, 7.759766
210.3740, 69.66992
211.5980, 6.545898
212.8220, 2.989258
214.0460, 129.1807
215.2700, 41.36816
216.4930, 51.56445
217.7170, 40.76660
218.9400, 24.96582
220.1630, 102.1523
221.3860, 74.67773
222.6090, 47.52832
223.8320, 19.59863
225.0540, 7.299805
226.2760, 148.7734
227.4980, 21.18945
228.7200, 89.89062
229.9420, 1.689453
231.1630, 239.9795
232.3850, 122.1230
233.6060, 109.9766
234.8270, 55.82812
236.0480, 107.3877
237.2690, 201.4048
238.4890, 54.57080
239.7090, 175.8154
240.9290, 153.6211
242.1490, 260.1470
243.3690, 321.4043
244.5890, 253.2607
245.8080, 276.7686
247.0270, 434.1904
248.2470, 468.5591
249.4650, 477.8667
250.6840, 428.0908
251.9030, 480.1792
253.1210, 422.1982
254.3390, 472.1465
255.5570, 511.0410
256.7750, 483.9062
257.9930, 674.6826
259.2100, 684.9902
260.4280, 603.9609
261.6450, 796.1641
262.8620, 439.8896
264.0790, 385.4707
265.2950, 418.0889
266.5120, 450.5156
267.7280, 258.6206
268.9440, 209.3652
270.1600, 184.2837
271.3760, 214.8521
272.5920, 218.5449
273.8070, 224.0435
275.0220, 197.2725
276.2370, 233.4165
277.4520, 249.4033
278.6670, 293.4258
279.8820, 86.99707
281.0960, 218.5054
282.3100, 184.0576
283.5240, 324.6733
284.7380, 273.2705
285.9520, 324.8286
287.1650, 360.3320
288.3780, 369.7715
289.5920, 319.1426
290.8050, 493.4390
292.0170, 209.6509
293.2300, 328.7607
294.4430, 442.7734
295.6550, 460.6909
296.8670, 379.5210
298.0790, 356.2676
299.2910, 415.9233
300.5020, 408.4854
301.7140, 411.4629
302.9250, 430.0762
304.1360, 435.4658
305.3470, 438.4116
306.5580, 508.2642
307.7680, 522.0322
308.9780, 461.7285
310.1890, 520.3618
311.3990, 520.9346
312.6090, 414.4502
313.8180, 381.9121
315.0280, 326.3213
316.2370, 377.6611
317.4460, 418.8706
318.6550, 251.8691
319.8640, 398.7739
321.0730, 341.6919
322.2810, 328.7168
323.4890, 348.4893
324.6980, 327.9556
325.9060, 196.6460
327.1130, 176.5127
328.3210, 215.9805
329.5280, 333.4014
330.7360, 201.5020
331.9430, 93.37402
333.1500, 100.0869
334.3560, 7.879395
335.5630, 29.52295
336.7690, 20.46729
337.9760, 50.18262
339.1820, 45.92383
340.3870, 89.07324
341.5930, 38.72266
342.7990, 79.50488
344.0040, 28.78223
345.2090, 41.90137
346.4140, 70.56250
347.6190, 22.80371
348.8240, 171.7900
350.0280, 130.3613
351.2330, 125.3184
352.4370, 207.2100
353.6410, 174.2246
354.8440, 371.2734
356.0480, 407.4326
357.2520, 542.5488
358.4550, 563.8828
359.6580, 634.7188
360.8610, 716.5703
362.0640, 686.5840
363.2660, 685.4092
364.4690, 737.8818
365.6710, 573.4365
366.8730, 487.2373
368.0750, 558.7383
369.2770, 466.0479
370.4780, 413.2051
371.6800, 501.8848
372.8810, 315.0283
374.0820, 449.4111
375.2830, 541.7676
376.4830, 209.9170
377.6840, 416.5381
378.8840, 241.0391
380.0840, 286.8906
381.2840, 205.2666
382.4840, 193.9639
383.6840, 237.2900
384.8830, 40.71191
386.0830, 49.96973
387.2820, 79.68457
388.4810, 23.50586
389.6800, 108.1826
390.8780, 73.04199
392.0770, 75.26660
393.2750, 15.52051
394.4730, 26.79004
395.6710, 55.07520
396.8690, 5.381836
398.0660, 102.3008
399.2640, 42.01953
400.4610, 24.64160
401.6580, 44.70117
402.8550, 52.06250
404.0520, 9.556641
405.2490, 8.169922
406.4450, 49.77539
407.6410, 32.47266
408.8370, 32.11133
410.0330, 33.38184
411.2290, 34.13281
412.4240, 69.27148
413.6200, 40.73438
414.8150, 131.4668
416.0100, 36.65039
417.2050, 15.16113
418.4000, 9.961914
419.5940, 1.308594
420.7880, 158.3740
421.9830, 101.6904
423.1770, 230.0684
424.3700, 265.4580
425.5640, 179.6211
426.7580, 269.6230
427.9510, 386.9316
429.1440, 364.2217
430.3370, 387.4961
431.5300, 319.7510
432.7220, 481.9902
433.9150, 446.2129
435.1070, 549.4189
436.2990, 493.3887
437.4910, 673.5645
438.6830, 613.7637
439.8750, 677.7334
441.0660, 533.0029
442.2570, 734.1221
443.4480, 651.2275
444.6390, 622.3193
445.8300, 632.1621
447.0210, 558.1836
448.2110, 468.5293
449.4010, 531.5781
450.5910, 336.6182
451.7810, 456.6484
452.9710, 386.6816
454.1610, 288.6846
455.3500, 347.6924
456.5390, 98.69141
457.7280, 77.68262
458.9170, 248.6680
460.1060, 146.1494
461.2940, 199.6201
462.4830, 173.5879
463.6710, 5.448242
464.8590, 97.49023
466.0470, 80.57422
467.2350, 95.30859
468.4220, 50.81152
469.6090, 23.17676
470.7970, 42.61328
471.9840, 4.853516
473.1700, 12.06445
474.3570, 12.16211
475.5440, 33.07324
476.7300, 98.39746
477.9160, 153.6504
479.1020, 40.93359
480.2880, 140.9229
481.4740, 217.8457
482.6590, 60.97461
483.8440, 163.4355
485.0300, 269.2207
486.2140, 311.3477
487.3990, 296.6924
488.5840, 240.6348
489.7680, 346.0088
490.9530, 417.8467
492.1370, 315.8301
493.3210, 441.6523
494.5040, 299.4795
495.6880, 432.6641
496.8720, 382.7334
498.0550, 447.9727
499.2380, 392.2500
500.4210, 477.5498
501.6040, 389.8691
502.7860, 429.1953
503.9690, 452.5352
505.1510, 336.8848
506.3330, 400.2588
507.5150, 424.6738
508.6970, 495.1025
509.8780, 452.5791
511.0600, 504.0879
512.2410, 525.6221
513.4220, 550.1875
514.6030, 617.7705
515.7840, 613.4004
516.9640, 721.0469
518.1440, 823.7207
519.3250, 787.4043
520.5050, 979.1055
521.6850, 952.8320
522.8640, 1017.592
524.0440, 1133.528
525.2230, 1099.144
526.4020, 1272.938
527.5820, 1287.405
528.7600, 1241.931
529.9390, 1244.598
531.1180, 1312.485
532.2960, 1357.849
533.4740, 1438.303
534.6520, 1497.667
535.8300, 1496.830
537.0080, 1508.564
538.1850, 1581.114
539.3630, 1454.063
540.5400, 1478.977
541.7170, 1447.729
542.8940, 1510.369
544.0700, 1644.056
545.2470, 1417.331
546.4230, 1460.968
547.5990, 1352.620
548.7750, 1425.466
549.9510, 1349.950
551.1270, 1383.049
552.3020, 1253.889
553.4780, 1321.661
554.6530, 1319.693
555.8280, 1211.629
557.0030, 1161.704
558.1770, 1149.669
559.3520, 1228.847
560.5260, 1076.308
561.7000, 1165.161
562.8740, 1090.303
564.0480, 1027.458
565.2220, 987.6270
566.3950, 867.8125
567.5680, 1010.012
568.7420, 842.2266
569.9150, 920.4541
571.0870, 757.6953
572.2600, 611.9502
573.4320, 595.2178
574.6050, 555.5000
575.7770, 367.7949
576.9490, 385.1719
578.1210, 323.4297
579.2920, 315.7695
580.4640, 322.1230
581.6350, 304.4912
582.8060, 262.3926
583.9770, 228.1465
585.1480, 185.6826
586.3190, 163.1094
587.4890, 187.5508
588.6590, 251.0068
589.8290, 281.5752
590.9990, 329.3848
592.1690, 385.4648
593.3390, 438.9824
594.5080, 449.5137
595.6770, 536.0605
596.8470, 616.8633
598.0160, 845.2021
599.1840, 788.7959
600.3530, 960.4062
601.5210, 977.0312
602.6900, 1007.672
603.8580, 1251.329
605.0260, 1426.909
606.1930, 1430.320
607.3610, 1553.851
608.5280, 1657.572
609.6960, 1577.312
610.8630, 1759.157
612.0300, 1891.524
613.1970, 1841.965
614.3630, 1943.055
615.5300, 2195.198
616.6960, 1992.330
617.8620, 2135.600
619.0280, 2181.900
620.1940, 2106.526
621.3590, 2358.564
622.5250, 2469.304
623.6900, 2607.839
624.8550, 2755.883
626.0200, 2837.946
627.1850, 2990.058
628.3490, 3232.612
629.5140, 3434.777
630.6780, 3675.410
631.8420, 3972.960
633.0060, 4315.857
634.1700, 4742.015
635.3330, 5184.338
636.4970, 5663.672
637.6600, 6290.957
638.8230, 6656.424
639.9860, 7424.439
641.1490, 8210.766
642.3110, 8770.102
643.4740, 9456.472
644.6360, 10100.84
645.7980, 10639.74
646.9600, 11153.29
648.1220, 11564.27
649.2840, 11699.05
650.4450, 12075.47
651.6060, 12464.29
652.7670, 12412.03
653.9280, 12648.30
655.0890, 12599.68
656.2500, 12454.75
657.4100, 12458.67
658.5700, 12216.59
659.7300, 11949.71
660.8900, 11748.59
662.0500, 11409.12
663.2100, 11125.66
664.3690, 10871.21
665.5280, 10461.01
666.6880, 9903.332
667.8460, 9636.907
669.0050, 9249.498
670.1640, 8773.095
671.3220, 8710.704
672.4810, 8172.324
673.6390, 8332.978
674.7970, 7710.662
675.9540, 7591.365
677.1120, 7150.090
678.2690, 7266.842
679.4270, 7133.608
680.5840, 7132.383
681.7410, 6953.182
682.8980, 6908.992
684.0540, 6745.826
685.2110, 6596.686
686.3670, 6725.557
687.5230, 6555.438
688.6790, 6543.328
689.8350, 6521.230
690.9900, 6464.152
692.1460, 6274.813
693.3010, 5968.035
694.4560, 5804.997
695.6110, 5503.967
696.7660, 5227.946
697.9210, 4865.936
699.0750, 4502.939
700.2290, 4267.956
701.3840, 3847.984
702.5370, 3559.021
703.6910, 3246.065
704.8450, 2884.121
705.9980, 2723.184
707.1520, 2338.255
708.3050, 2289.335
709.4580, 2081.424
710.6110, 1829.523
711.7630, 1582.631
712.9160, 1605.748
714.0680, 1519.872
715.2200, 1175.005
716.3720, 1038.147
717.5240, 1119.297
718.6760, 1061.456
719.8270, 792.6221
720.9780, 758.7988
722.1300, 730.9824
723.2810, 770.1748
724.4310, 629.3760
725.5820, 596.5840
726.7330, 594.8018
727.8830, 566.0273
729.0330, 518.4629
730.1830, 400.5029
731.3330, 429.7520
732.4830, 348.0088
733.6320, 338.2734
734.7810, 408.5469
735.9310, 347.8271
737.0800, 240.1152
738.2290, 238.4121
739.3770, 239.7158
740.5260, 264.0283
741.6740, 240.5596
742.8220, 205.7451
743.9700, 193.0088
745.1180, 102.3711
746.2660, 43.75684
747.4130, 5.852539
748.5610, 43.45215
749.7080, 46.06543
750.8550, 80.28125
752.0020, 37.35156
753.1490, 110.0283
754.2950, 71.75195
755.4420, 73.50684
756.5880, 73.29492
757.7340, 112.1162
758.8800, 133.9902
760.0250, 78.92773
761.1710, 21.77637
762.3160, 31.59961
763.4620, 60.71875
764.6070, 66.88379
765.7520, 18.67285
766.8960, 14.21289
768.0410, 0.3681640
769.1850, 16.89355
770.3300, 32.65820
771.4740, 39.56055
772.6180, 8.930664
773.7610, 9.234375
774.9050, 31.59570
776.0480, 6.203125
777.1920, 4.437500
778.3350, 32.69824
779.4780, 43.38574
780.6200, 12.50586
781.7630, 36.29102
782.9060, 37.58105
784.0480, 99.34766
785.1900, 1.371094
786.3320, 34.39648
787.4740, 39.56152
788.6150, 34.47559
789.7570, 32.86133
790.8980, 23.84277
792.0390, 77.68359
793.1800, 19.80566
794.3210, 16.93750
795.4620, 1.920898
796.6020, 20.22168
797.7420, 51.37402
798.8830, 54.44727
800.0230, 36.27344
801.1620, 127.1045
802.3020, 179.9404
803.4420, 56.78223
804.5810, 213.6299
805.7200, 135.4814
806.8590, 80.33887
807.9980, 201.2002
809.1370, 160.0674
810.2750, 234.9404
811.4140, 326.8320
812.5520, 185.7305
813.6900, 239.6328
814.8280, 329.5400
815.9650, 307.4512
817.1030, 296.3672
818.2400, 463.2979
819.3780, 430.2314
820.5150, 389.1797
821.6520, 371.1455
822.7880, 427.1270
823.9250, 418.3740
825.0610, 497.1211
826.1980, 491.1240
827.3340, 501.1318
828.4700, 574.1670
829.6050, 680.2070
830.7410, 694.0918
831.8760, 724.3242
833.0120, 728.4111
834.1470, 722.5039
835.2820, 639.6064
836.4160, 686.7139
837.5510, 771.8242
838.6860, 845.9385
839.8200, 935.0566
840.9540, 1013.188
842.0880, 912.3242
843.2220, 1003.465
844.3550, 890.6074
845.4890, 1085.754
846.6220, 1144.912
847.7550, 1077.073
848.8880, 1176.238
850.0210, 1223.413
851.1540, 1276.613
852.2860, 1291.817
853.4190, 1392.026
854.5510, 1356.238
855.6830, 1498.456
856.8150, 1658.678
857.9460, 1611.902
859.0780, 1631.141
860.2090, 1723.385
861.3410, 1548.630
862.4720, 1714.881
863.6020, 1786.134
864.7330, 1775.392
865.8640, 2026.652
866.9940, 2006.917
868.1240, 1899.184
869.2540, 1955.454
870.3840, 2128.729
871.5140, 2054.018
872.6440, 2192.309
873.7730, 2226.524
874.9020, 2282.678
876.0320, 2350.265
877.1600, 2497.595
878.2890, 2643.935
879.4180, 2758.111
880.5460, 2922.662
881.6750, 3006.055
882.8030, 3176.461
883.9310, 3250.334
885.0590, 3353.185
886.1860, 3434.779
887.3140, 3548.570
888.4410, 3526.707
889.5680, 3569.629
890.6950, 3546.779
891.8220, 3523.474
892.9490, 3481.846
894.0750, 3430.590
895.2020, 3359.947
896.3280, 3263.630
897.4540, 3187.561
898.5800, 3052.463
899.7050, 2854.551
900.8310, 2687.055
901.9560, 2530.155
903.0820, 2352.252
904.2070, 2150.742
905.3320, 2008.935
906.4560, 1933.467
907.5810, 1741.424
908.7050, 1610.904
909.8300, 1549.396
910.9540, 1555.954
912.0780, 1265.350
913.2010, 1351.216
914.3250, 1092.794
915.4480, 1066.377
916.5720, 1177.946
917.6950, 1055.542
918.8180, 901.6074
919.9410, 880.0547
921.0630, 901.0947
922.1860, 752.3408
923.3080, 838.9688
924.4300, 768.2188
925.5520, 826.5615
926.6740, 515.4014
927.7960, 640.1416
928.9170, 571.2139
930.0390, 521.4502
931.1600, 611.7119
932.2810, 536.7871
933.4020, 629.1104
934.5230, 536.8125
935.6430, 577.5234
936.7640, 523.2402
937.8840, 447.9668
939.0040, 554.7002
940.1240, 481.4414
941.2440, 422.1914
942.3630, 402.9473
943.4830, 521.7129
944.6020, 465.4854
945.7210, 570.8008
946.8400, 515.5889
947.9590, 650.3848
949.0770, 513.1875
950.1960, 603.9990
951.3140, 594.8164
952.4320, 674.6133
953.5500, 576.4463
954.6680, 544.1279
955.7860, 468.8301
956.9030, 398.5830
958.0210, 426.3076
959.1380, 517.9375
960.2550, 501.8125
961.3720, 538.6934
962.4890, 630.8418
963.6050, 524.7354
964.7220, 671.4180
965.8380, 656.8398
966.9540, 654.8857
968.0700, 740.5361
969.1860, 601.4854
970.3010, 552.4131
971.4170, 584.3467
972.5320, 570.2852
973.6470, 512.2285
974.7620, 581.2764
975.8770, 634.2314
976.9910, 827.1904
978.1060, 792.1553
979.2200, 547.1260
980.3340, 721.5107
981.4480, 673.4922
982.5620, 680.4775
983.6760, 733.5918
984.7890, 607.9033
985.9030, 706.9033
987.0160, 664.9092
988.1290, 629.9180
989.2420, 646.2510
990.3550, 603.2686
991.4670, 581.2900
992.5800, 559.6787
993.6920, 590.7100
994.8040, 622.7451
995.9160, 512.7930
997.0280, 455.8359
998.1390, 485.8838
999.2510, 401.9609
1000.362, 374.0176
1001.473, 467.0771
1002.584, 369.1406
1003.695, 325.2090
1004.805, 450.6113
1005.916, 386.6865
1007.026, 300.2705
1008.136, 345.5410
1009.246, 469.6279
1010.356, 347.7939
1011.466, 415.9238
1012.576, 436.9355
1013.685, 325.7842
1014.794, 402.0488
1015.903, 484.3691
1017.012, 379.4775
1018.121, 542.5898
1019.229, 457.7500
1020.338, 486.9229
1021.446, 488.2295
1022.554, 598.8672
1023.662, 542.2812
1024.770, 483.5137
1025.878, 610.7695
1026.985, 564.0029
1028.092, 669.3105
1029.200, 565.7705
1030.307, 548.1396
1031.413, 601.1123
1032.520, 601.4932
1033.627, 589.8750
1034.733, 602.8340
1035.839, 653.6504
1036.945, 611.0439
1038.051, 553.4424
1039.157, 598.8486
1040.262, 528.5137
1041.368, 547.6797
1042.473, 456.2393
1043.578, 517.6680
1044.683, 501.0967
1045.788, 508.5293
1046.893, 448.0244
1047.997, 294.4629
1049.101, 440.9043
1050.205, 331.3467
1051.309, 502.7910
1052.413, 380.2480
1053.517, 416.7334
1054.621, 277.2236
1055.724, 219.7266
1056.827, 221.2314
1057.930, 252.7471
1059.033, 208.2207
1060.136, 231.4346
1061.238, 184.3770
1062.341, 232.9473
1063.443, 259.5264
1064.545, 248.1094
1065.647, 195.7012
1066.749, 245.3105
1067.850, 127.9189
1068.952, 142.5303
1070.053, 180.1416
1071.154, 294.7539
1072.255, 152.3672
1073.356, 150.9814
1074.457, 92.59668
1075.557, 53.21289
1076.658, 137.8291
1077.758, 59.55371
1078.858, 155.0322
1079.958, 136.6191
1081.057, 5.206055
1082.157, 39.79395
1083.256, 47.38184
1084.356, 33.02930
1085.455, 17.54102
1086.554, 30.43066
1087.653, 46.33496
1088.751, 46.80664
1089.850, 26.30566
1090.948, 40.18164
1092.046, 74.66797
1093.144, 3.154297
1094.242, 83.35840
1095.340, 13.08008
1096.437, 43.48047
1097.534, 7.066406
1098.632, 64.65820
1099.729, 10.28613
1100.826, 14.83789
1101.922, 138.4297
1103.019, 7.783203
1104.115, 93.13477
1105.212, 106.4873
1106.308, 31.16016
1107.404, 65.17188
1108.499, 54.50391
1109.595, 19.83594
1110.691, 158.1660
1111.786, 19.50293
1112.881, 9.813477
1113.976, 11.12988
1115.071, 14.55469
1116.166, 81.25000
1117.260, 79.00684
1118.355, 122.2637
1119.449, 58.51953
1120.543, 1.225586
1121.637, 63.02637
1122.731, 129.2754
1123.824, 33.47656
1124.918, 13.75000
1126.011, 100.9746
1127.104, 9.200195
1128.197, 30.42285
1129.290, 159.6465
1130.382, 6.868164
1131.475, 56.08887
1132.567, 79.30664
1133.659, 185.5254
1134.751, 48.74316
1135.843, 32.04199
1136.935, 132.1514
1138.027, 34.65625
1139.118, 45.48828
1140.209, 29.64941
1141.300, 4.786133
1142.391, 11.08105
1143.482, 40.95898
1144.573, 38.28320
1145.663, 60.79785
1146.754, 29.76758
1147.844, 27.24023
1148.934, 42.24609
1150.024, 16.25000
1151.113, 17.25293
1152.203, 3.275391
1153.292, 17.75195
1154.381, 2.228516
1155.470, 29.20215
1156.559, 99.17480
1157.648, 9.853516
1158.737, 102.1074
1159.825, 5.066406
1160.913, 31.02051
1162.001, 36.02734
1163.089, 102.8984
1164.177, 89.82227
1165.265, 167.7451
1166.352, 118.6826
1167.440, 104.6172
1168.527, 59.55078
1169.614, 34.48340
1170.701, 202.4150
1171.788, 127.3438
1172.874, 5.272461
1173.961, 220.2031
1175.047, 90.15137
1176.133, 222.0977
1177.219, 21.04883
1178.305, 225.9980
1179.390, 329.9609
1180.476, 162.9365
1181.561, 208.9082
1182.646, 263.8789
1183.731, 296.8477
1184.816, 310.8145
1185.901, 256.7803
1186.985, 314.7432
1188.070, 423.7031
1189.154, 192.6641
1190.238, 217.6240
1191.322, 288.5811
1192.406, 218.5645
1193.489, 258.5605
1194.573, 407.5537
1195.656, 195.5459
1196.739, 278.5527
1197.822, 247.5693
1198.905, 477.5869
1199.988, 364.6104
1201.070, 495.6318
1202.153, 325.6494
1203.235, 412.6650
1204.317, 484.6748
1205.399, 432.6826
1206.481, 313.6846
1207.562, 440.6846
1208.644, 267.1475
1209.725, 370.1426
1210.806, 440.1367
1211.887, 500.1289
1212.968, 440.1191
1214.049, 477.1104
1215.129, 432.1270
1216.209, 551.1113
1217.290, 375.2588
1218.370, 503.3916
1219.450, 418.4766
1220.529, 388.8340
1221.609, 504.8184
1222.688, 477.7998
1223.768, 385.7793
1224.847, 377.4961
1225.926, 373.0459
1227.005, 415.6641
1228.083, 408.1221
1229.162, 460.9707
1230.240, 488.2227
1231.318, 438.1758
1232.396, 422.1553
1233.474, 431.1328
1234.552, 387.1104
1235.629, 382.0869
1236.707, 360.9648
1237.784, 451.9414
1238.861, 516.9150
1239.938, 361.8877
1241.015, 404.8584
1242.092, 346.4150
1243.168, 398.3770
1244.244, 385.3916
1245.321, 328.1689
1246.397, 358.8047
1247.473, 327.7529
1248.548, 273.6992
1249.624, 365.6396
1250.699, 351.2568
1251.775, 417.1895
1252.850, 344.1201
1253.925, 463.6816
1254.999, 527.6035
1256.074, 331.5225
1257.148, 264.4258
1258.223, 437.3369
1259.297, 320.2422
1260.371, 381.1152
1261.445, 407.0801
1262.519, 262.8994
1263.592, 431.7842
1264.666, 450.6641
1265.739, 457.2080
1266.812, 533.4082
1267.885, 511.4365
1268.958, 540.1045
1270.030, 611.9531
1271.103, 520.7197
1272.175, 667.5176
1273.247, 544.4336
1274.319, 548.5088
1275.391, 635.1865
1276.463, 617.7822
1277.535, 587.5879
1278.606, 767.3848
1279.677, 671.1436
1280.748, 691.8984
1281.819, 674.5332
1282.890, 684.1523
1283.961, 888.6094
1285.031, 810.5879
1286.102, 861.5215
1287.172, 1047.851
1288.242, 903.6729
1289.312, 905.5420
1290.381, 920.2510
1291.451, 1036.397
1292.520, 1058.349
1293.590, 966.7100
1294.659, 944.6201
1295.728, 1075.512
1296.797, 1237.895
1297.865, 1265.946
1298.934, 1126.951
1300.002, 1193.014
1301.070, 1215.347
1302.138, 1318.632
1303.206, 1426.283
1304.274, 1275.211
