##NAMES=Aenigmatite
##RRUFFID=R061088
##IDEAL CHEMISTRY=Na_4_(Fe^2+^_10_Ti^4+^_2_)O_4_[Si_12_O_36_]
##LOCALITY=Naujakasik, Greenland
##OWNER=RRUFF
##SOURCE=Michael Scott
##DESCRIPTION=Black prismatic crystals
##STATUS=The identification of this mineral has been confirmed by X-ray diffraction and chemical analysis
##URL=rruff.info/R061088
##MEASURED CHEMISTRY=(Na_1.72_Ca_0.28_)_Σ=2_(Fe^2+^_4.90_Mn_0.08_Mg_0.02_)_Σ=5_(Ti_0.85_Al_0.14_Fe^3+^_0.01_)_Σ=1_(Si_5.87_Al_0.13_)_Σ=6_O_20_
##PIN_ID=L01545
##ORIENTATION=Laser parallel to (1 1 0). Fiducial mark perpendicular to laser is parallel to c [0 0 1]
136.5910, 0.0000000E+00
137.8260, 12.19434
139.0610, 0.1220700
140.2950, 6.712891
141.5290, 83.05664
142.7640, 78.63184
143.9980, 293.6943
145.2320, 450.6924
146.4650, 722.1816
147.6990, 879.0107
148.9320, 1071.510
150.1650, 1190.000
151.3980, 1407.443
152.6310, 1461.584
153.8640, 1587.808
155.0960, 1860.744
156.3280, 1879.855
157.5600, 2090.718
158.7920, 2171.832
160.0240, 2479.766
161.2560, 2555.747
162.4870, 2810.770
163.7180, 2858.367
164.9490, 2823.575
166.1800, 2894.091
167.4110, 2614.177
168.6410, 2538.478
169.8720, 2356.351
171.1020, 2099.892
172.3320, 1981.179
173.5620, 1693.912
174.7910, 1352.027
176.0210, 1256.974
177.2500, 1098.068
178.4790, 993.4453
179.7080, 846.8896
180.9370, 720.0605
182.1650, 684.7607
183.3940, 514.1484
184.6220, 444.4023
185.8500, 546.7842
187.0780, 518.3438
188.3050, 537.3906
189.5330, 525.5830
190.7600, 553.8330
191.9870, 654.1201
193.2140, 579.4199
194.4410, 650.7090
195.6680, 580.9746
196.8940, 549.2148
198.1200, 565.4326
199.3470, 609.6260
200.5720, 609.8008
201.7980, 541.4346
203.0240, 497.8418
204.2490, 347.6494
205.4740, 119.9775
206.6990, 21.19727
207.9240, 64.36426
209.1490, 141.9268
210.3740, 44.63867
211.5980, 63.18457
212.8220, 23.39355
214.0460, 33.09473
215.2700, 119.0908
216.4930, 106.1719
217.7170, 179.1631
218.9400, 95.92578
220.1630, 165.0840
221.3860, 33.29492
222.6090, 98.54785
223.8320, 51.83105
225.0540, 267.1396
226.2760, 425.4639
227.4980, 272.7988
228.7200, 295.1768
229.9420, 324.6348
231.1630, 428.1240
232.3850, 531.6992
233.6060, 598.3643
234.8270, 683.9590
236.0480, 712.0977
237.2690, 1000.993
238.4890, 862.6084
239.7090, 910.9873
240.9290, 776.1211
242.1490, 715.1660
243.3690, 880.1680
244.5890, 815.9336
245.8080, 841.1924
247.0270, 842.1797
248.2470, 844.3047
249.4650, 831.3027
250.6840, 822.4756
251.9030, 783.2471
253.1210, 791.5918
254.3390, 763.8662
255.5570, 747.1309
256.7750, 751.3799
257.9930, 998.6270
259.2100, 889.6748
260.4280, 837.9922
261.6450, 850.3691
262.8620, 565.6143
264.0790, 552.8574
265.2950, 445.1006
266.5120, 370.3438
267.7280, 296.5869
268.9440, 302.5303
270.1600, 324.4678
271.3760, 427.8232
272.5920, 239.3291
273.8070, 427.5029
275.0220, 342.9629
276.2370, 275.0098
277.4520, 333.5215
278.6670, 373.0352
279.8820, 430.5508
281.0960, 240.0674
282.3100, 240.5879
283.5240, 403.2354
284.7380, 456.1367
285.9520, 537.1406
287.1650, 607.1221
288.3780, 670.1924
289.5920, 749.4199
290.8050, 716.2070
292.0170, 872.1074
293.2300, 992.9170
294.4430, 1003.613
295.6550, 1145.184
296.8670, 1280.605
298.0790, 1400.438
299.2910, 1542.132
300.5020, 1704.206
301.7140, 1782.508
302.9250, 1806.871
304.1360, 1946.414
305.3470, 2013.768
306.5580, 2080.942
307.7680, 2144.945
308.9780, 2133.803
310.1890, 2229.531
311.3990, 2181.147
312.6090, 2119.660
313.8180, 1989.077
315.0280, 1937.138
316.2370, 1845.656
317.4460, 1753.761
318.6550, 1578.064
319.8640, 1430.727
321.0730, 1212.806
322.2810, 1169.864
323.4890, 936.1230
324.6980, 980.3096
325.9060, 827.0020
327.1130, 521.9609
328.3210, 532.7588
329.5280, 492.1934
330.7360, 363.3682
331.9430, 342.0010
333.1500, 232.5430
334.3560, 284.1895
335.5630, 148.8105
336.7690, 171.5684
337.9760, 1.664063
339.1820, 125.0801
340.3870, 44.82031
341.5930, 157.5479
342.7990, 271.2754
344.0040, 343.0068
345.2090, 376.7412
346.4140, 438.4814
347.6190, 573.2266
348.8240, 665.9395
350.0280, 679.0449
351.2330, 1103.578
352.4370, 979.4492
353.6410, 1253.670
354.8440, 1619.084
356.0480, 1707.666
357.2520, 1708.149
358.4550, 1738.963
359.6580, 1903.280
360.8610, 1951.444
362.0640, 1769.480
363.2660, 1917.993
364.4690, 1926.519
365.6710, 1718.292
366.8730, 1647.956
368.0750, 1397.662
369.2770, 1585.142
370.4780, 1461.053
371.6800, 1338.745
372.8810, 1201.754
374.0820, 1248.930
375.2830, 1246.242
376.4830, 1103.001
377.6840, 1031.896
378.8840, 1151.533
380.0840, 808.3008
381.2840, 715.0684
382.4840, 765.8271
383.6840, 831.5400
384.8830, 728.2314
386.0830, 808.9268
387.2820, 512.6250
388.4810, 526.3311
389.6800, 435.0410
390.8780, 473.7578
392.0770, 353.4834
393.2750, 350.2188
394.4730, 185.9639
395.6710, 218.7217
396.8690, 246.4941
398.0660, 82.27930
399.2640, 162.9229
400.4610, 28.84277
401.6580, 153.3779
402.8550, 93.62695
404.0520, 52.89062
405.2490, 194.1562
406.4450, 80.46289
407.6410, 147.7773
408.8370, 146.1172
410.0330, 185.4834
411.2290, 9.885742
412.4240, 9.420898
413.6200, 11.00098
414.8150, 51.45117
416.0100, 47.95020
417.2050, 85.86328
418.4000, 130.2266
419.5940, 275.3857
420.7880, 249.2852
421.9830, 461.4697
423.1770, 653.8438
424.3700, 727.5176
425.5640, 782.1328
426.7580, 907.0889
427.9510, 970.5410
429.1440, 1091.817
430.3370, 1189.188
431.5300, 1263.642
432.7220, 1263.100
433.9150, 1346.681
435.1070, 1388.757
436.2990, 1423.819
437.4910, 1600.766
438.6830, 1485.148
439.8750, 1427.527
441.0660, 1438.903
442.2570, 1297.278
443.4480, 1259.651
444.6390, 1170.023
445.8300, 1040.396
447.0210, 897.7686
448.2110, 663.1445
449.4010, 766.5234
450.5910, 531.9053
451.7810, 464.2920
452.9710, 404.6855
454.1610, 220.0830
455.3500, 224.4893
456.5390, 176.9023
457.7280, 77.32324
458.9170, 98.75391
460.1060, 34.19238
461.2940, 79.35938
462.4830, 20.92578
463.6710, 93.48438
464.8590, 177.0586
466.0470, 46.68555
467.2350, 11.30566
468.4220, 202.9102
469.6090, 73.57520
470.7970, 225.2402
471.9840, 78.02637
473.1700, 95.31348
474.3570, 171.6289
475.5440, 101.9668
476.7300, 74.03320
477.9160, 278.3936
479.1020, 247.9287
480.2880, 408.7793
481.4740, 429.2432
482.6590, 419.6963
483.8440, 363.9004
485.0300, 497.9482
486.2140, 430.7734
487.3990, 526.6699
488.5840, 544.6436
489.7680, 576.6924
490.9530, 691.7881
492.1370, 547.9268
493.3210, 494.1191
494.5040, 562.3604
495.6880, 518.7031
496.8720, 560.1504
498.0550, 647.7100
499.2380, 661.4004
500.4210, 657.1777
501.6040, 708.0488
502.7860, 656.0010
503.9690, 833.0430
505.1510, 970.1719
506.3330, 856.4072
507.5150, 945.7178
508.6970, 1041.066
509.8780, 1088.482
511.0600, 1168.938
512.2410, 1218.317
513.4220, 1203.027
514.6030, 1316.616
515.7840, 1379.233
516.9640, 1443.881
518.1440, 1560.556
519.3250, 1690.259
520.5050, 1744.989
521.6850, 1883.937
522.8640, 1996.830
524.0440, 2079.341
525.2230, 2227.181
526.4020, 2246.048
527.5820, 2303.943
528.7600, 2517.867
529.9390, 2518.817
531.1180, 2439.797
532.2960, 2590.805
533.4740, 2622.840
534.6520, 2693.904
535.8300, 2693.997
537.0080, 2596.118
538.1850, 2689.267
539.3630, 2666.445
540.5400, 2618.651
541.7170, 2721.264
542.8940, 2755.527
544.0700, 2692.925
545.2470, 2680.416
546.4230, 2544.062
547.5990, 2506.187
548.7750, 2371.546
549.9510, 2238.778
551.1270, 2329.215
552.3020, 2170.283
553.4780, 2258.069
554.6530, 2328.932
555.8280, 2072.781
557.0030, 2267.418
558.1770, 2371.088
559.3520, 2304.793
560.5260, 2308.532
561.7000, 2297.307
562.8740, 2221.116
564.0480, 1967.959
565.2220, 2014.838
566.3950, 1867.750
567.5680, 1923.698
568.7420, 1809.683
569.9150, 1648.701
571.0870, 1693.753
572.2600, 1571.840
573.4320, 1368.961
574.6050, 1389.116
575.7770, 1079.305
576.9490, 836.5303
578.1210, 826.7891
579.2920, 592.0820
580.4640, 614.4102
581.6350, 318.7734
582.8060, 299.1719
583.9770, 259.6045
585.1480, 202.0723
586.3190, 241.5752
587.4890, 387.1143
588.6590, 319.6875
589.8290, 287.2959
590.9990, 406.9395
592.1690, 386.6191
593.3390, 565.3350
594.5080, 678.0850
595.6770, 756.8711
596.8470, 740.6924
598.0160, 896.5498
599.1840, 1003.442
600.3530, 1283.371
601.5210, 1399.334
602.6900, 1433.710
603.8580, 1617.267
605.0260, 1623.126
606.1930, 1777.701
607.3610, 2012.609
608.5280, 2144.555
609.6960, 2222.910
610.8630, 2457.970
612.0300, 2663.223
613.1970, 2767.552
614.3630, 2767.996
615.5300, 3161.402
616.6960, 3266.853
617.8620, 3584.177
619.0280, 3811.193
620.1940, 4299.389
621.3590, 4537.148
622.5250, 4914.125
623.6900, 5122.353
624.8550, 5775.873
626.0200, 6113.025
627.1850, 6778.214
628.3490, 7456.689
629.5140, 8156.059
630.6780, 8868.997
631.8420, 9612.835
633.0060, 10730.21
634.1700, 11785.99
635.3330, 13058.38
636.4970, 14312.44
637.6600, 15537.64
638.8230, 17076.87
639.9860, 18524.37
641.1490, 20101.95
642.3110, 21232.20
643.4740, 22586.42
644.6360, 23505.08
645.7980, 24510.14
646.9600, 25368.85
648.1220, 26119.23
649.2840, 26641.71
650.4450, 27087.08
651.6060, 27298.81
652.7670, 27399.47
653.9280, 27127.65
655.0890, 27121.10
656.2500, 26621.57
657.4100, 26089.06
658.5700, 25717.57
659.7300, 25056.11
660.8900, 24313.67
662.0500, 23692.24
663.2100, 22854.83
664.3690, 22084.45
665.5280, 21087.09
666.6880, 20450.74
667.8460, 19619.42
669.0050, 18936.12
670.1640, 18050.84
671.3220, 17321.57
672.4810, 16586.33
673.6390, 16069.95
674.7970, 15621.09
675.9540, 15264.72
677.1120, 15050.55
678.2690, 14825.41
679.4270, 14756.28
680.5840, 14345.17
681.7410, 14159.13
682.8980, 14171.11
684.0540, 14152.16
685.2110, 13932.25
686.3670, 13913.38
687.5230, 13723.57
688.6790, 13578.82
689.8350, 13458.12
690.9900, 13111.48
692.1460, 12711.92
693.3010, 12261.37
694.4560, 11783.85
695.6110, 11084.36
696.7660, 10414.88
697.9210, 9787.421
699.0750, 8899.978
700.2290, 8241.554
701.3840, 7582.146
702.5370, 7016.758
703.6910, 6372.386
704.8450, 5826.031
705.9980, 5334.375
707.1520, 4780.377
708.3050, 4467.074
709.4580, 4008.790
710.6110, 3698.523
711.7630, 3234.272
712.9160, 3021.037
714.0680, 2728.819
715.2200, 2532.137
716.3720, 2405.432
717.5240, 2236.262
718.6760, 2110.107
719.8270, 1929.970
720.9780, 1807.139
722.1300, 1634.741
723.2810, 1547.262
724.4310, 1395.574
725.5820, 1255.515
726.7330, 1178.469
727.8830, 997.4375
729.0330, 1110.422
730.1830, 1223.420
731.3330, 920.4316
732.4830, 745.4600
733.6320, 825.5020
734.7810, 680.5596
735.9310, 711.6289
737.0800, 606.7139
738.2290, 654.8115
739.3770, 638.9229
740.5260, 515.0459
741.6740, 434.1973
742.8220, 501.3652
743.9700, 310.5615
745.1180, 475.8047
746.2660, 217.0674
747.4130, 191.3447
748.5610, 155.6768
749.7080, 98.03125
750.8550, 83.61426
752.0020, 12.75977
753.1490, 31.30469
754.2950, 95.24902
755.4420, 142.8477
756.5880, 153.2930
757.7340, 3.748047
758.8800, 111.9893
760.0250, 79.78027
761.1710, 29.61035
762.3160, 137.4551
763.4620, 310.3672
764.6070, 43.43848
765.7520, 184.5312
766.8960, 181.7168
768.0410, 70.99316
769.1850, 51.30762
770.3300, 76.65039
771.4740, 12.03223
772.6180, 126.4238
773.7610, 97.88086
774.9050, 41.39062
776.0480, 221.9238
777.1920, 21.57129
778.3350, 143.2344
779.4780, 102.9727
780.6200, 77.23438
781.7630, 15.45215
782.9060, 24.66895
784.0480, 119.1074
785.1900, 29.05273
786.3320, 52.78223
787.4740, 83.35352
788.6150, 90.50098
789.7570, 125.5938
790.8980, 205.6982
792.0390, 97.81055
793.1800, 150.9326
794.3210, 191.0625
795.4620, 227.2012
796.6020, 174.3486
797.7420, 143.5059
798.8830, 183.6709
800.0230, 196.8447
801.1620, 418.0273
802.3020, 307.2168
803.4420, 342.4160
804.5810, 437.6230
805.7200, 366.8398
806.8590, 271.0635
807.9980, 500.2949
809.1370, 277.5430
810.2750, 534.7998
811.4140, 510.0684
812.5520, 636.3457
813.6900, 681.6650
814.8280, 632.0000
815.9650, 653.3789
817.1030, 800.7920
818.2400, 846.2129
819.3780, 736.6416
820.5150, 761.0820
821.6520, 929.5293
822.7880, 931.0010
823.9250, 1059.479
825.0610, 1125.965
826.1980, 1022.458
827.3340, 1114.964
828.4700, 1190.477
829.6050, 1179.996
830.7410, 1190.520
831.8760, 1377.049
833.0120, 1280.585
834.1470, 1361.132
835.2820, 1515.701
836.4160, 1473.276
837.5510, 1743.869
838.6860, 1806.497
839.8200, 1788.138
840.9540, 1765.782
842.0880, 1882.434
843.2220, 2032.099
844.3550, 2118.769
845.4890, 2244.446
846.6220, 2320.551
847.7550, 2423.931
848.8880, 2460.514
850.0210, 2589.211
851.1540, 2671.914
852.2860, 2699.623
853.4190, 2915.336
854.5510, 2817.055
855.6830, 3080.777
856.8150, 3007.508
857.9460, 3315.247
859.0780, 3420.005
860.2090, 3327.766
861.3410, 3527.551
862.4720, 3734.342
863.6020, 3808.137
864.7330, 3767.935
865.8640, 3964.738
866.9940, 4074.559
868.1240, 4201.384
869.2540, 4375.214
870.3840, 4527.047
871.5140, 4496.886
872.6440, 4867.728
873.7730, 5027.574
874.9020, 5374.424
876.0320, 5498.278
877.1600, 5595.136
878.2890, 5961.998
879.4180, 6225.870
880.5460, 6355.755
881.6750, 6619.665
882.8030, 6892.611
883.9310, 6947.607
885.0590, 6986.645
886.1860, 7184.684
887.3140, 7239.748
888.4410, 7221.738
889.5680, 7343.810
890.6950, 7420.880
891.8220, 7150.146
892.9490, 7146.770
894.0750, 6600.261
895.2020, 6496.230
896.3280, 6375.055
897.4540, 5989.671
898.5800, 5731.051
899.7050, 5052.843
900.8310, 4865.641
901.9560, 4550.187
903.0820, 4377.881
904.2070, 4177.041
905.3320, 3894.164
906.4560, 3670.148
907.5810, 3383.582
908.7050, 3184.450
909.8300, 2963.982
910.9540, 2851.807
912.0780, 2604.951
913.2010, 2484.855
914.3250, 2254.721
915.4480, 2023.950
916.5720, 1929.240
917.6950, 1820.194
918.8180, 1706.043
919.9410, 1752.583
921.0630, 1547.835
922.1860, 1576.049
923.3080, 1525.408
924.4300, 1455.434
925.5520, 1272.819
926.6740, 1234.218
927.7960, 1073.630
928.9170, 1205.055
930.0390, 1186.491
931.1600, 1001.941
932.2810, 989.4023
933.4020, 920.8770
934.5230, 971.3643
935.6430, 918.8633
936.7640, 821.3750
937.8840, 794.8984
939.0040, 753.6748
940.1240, 866.9834
941.2440, 732.5439
942.3630, 884.1162
943.4830, 942.1543
944.6020, 767.7520
945.7210, 812.1943
946.8400, 658.8154
947.9590, 709.2822
949.0770, 656.4258
950.1960, 685.3535
951.3140, 670.7529
952.4320, 637.4287
953.5500, 721.1162
954.6680, 794.3721
955.7860, 546.0791
956.9030, 546.5713
958.0210, 416.2979
959.1380, 284.0371
960.2550, 561.8262
961.3720, 456.6182
962.4890, 490.3838
963.6050, 497.1572
964.7220, 531.9414
965.8380, 550.7354
966.9540, 555.5391
968.0700, 584.4141
969.1860, 591.8457
970.3010, 564.7109
971.4170, 568.1064
972.5320, 621.8174
973.6470, 576.2109
974.7620, 573.6660
975.8770, 542.5381
976.9910, 504.3604
978.1060, 527.2490
979.2200, 580.6006
980.3340, 578.5039
981.4480, 576.4160
982.5620, 625.3350
983.6760, 628.2627
984.7890, 631.1963
985.9030, 583.1387
987.0160, 562.2979
988.1290, 489.1006
989.2420, 468.0654
990.3550, 474.4102
991.4670, 413.0557
992.5800, 517.0107
993.6920, 348.0049
994.8040, 353.2539
995.9160, 304.2617
997.0280, 189.3516
998.1390, 195.3730
999.2510, 352.4492
1000.362, 268.0137
1001.473, 232.2559
1002.584, 191.3018
1003.695, 158.3555
1004.805, 178.4150
1005.916, 267.4814
1007.026, 141.5547
1008.136, 271.6328
1009.246, 179.8223
1010.356, 160.9131
1011.466, 221.1738
1012.576, 94.68066
1013.685, 179.3799
1014.794, 157.3984
1015.903, 367.2969
1017.012, 151.5146
1018.121, 345.9404
1019.229, 144.0732
1020.338, 325.8936
1021.446, 324.2881
1022.554, 388.4346
1023.662, 353.1270
1024.770, 464.7441
1025.878, 434.7051
1026.985, 369.9746
1028.092, 521.2686
1029.200, 271.9697
1030.307, 435.3096
1031.413, 444.7510
1032.520, 463.1484
1033.627, 369.6328
1034.733, 539.1504
1035.839, 592.7080
1036.945, 503.3184
1038.051, 498.9541
1039.157, 588.6113
1040.262, 475.2969
1041.368, 589.9932
1042.473, 522.7305
1043.578, 481.4990
1044.683, 545.2871
1045.788, 634.1396
1046.893, 575.0059
1047.997, 648.3066
1049.101, 562.8613
1050.205, 681.6465
1051.309, 657.7588
1052.413, 634.9453
1053.517, 712.7100
1054.621, 513.7061
1055.724, 308.7256
1056.827, 379.7451
1057.930, 297.7969
1059.033, 277.8496
1060.136, 349.9043
1061.238, 372.9600
1062.341, 325.0156
1063.443, 357.0723
1064.545, 338.1309
1065.647, 199.1904
1066.749, 218.2529
1067.850, 75.31445
1068.952, 71.65723
1070.053, 142.4424
1071.154, 57.50684
1072.255, 106.5742
1073.356, 133.6406
1074.457, 35.70996
1075.557, 30.21973
1076.658, 76.83496
1077.758, 18.10840
1078.858, 70.93945
1079.958, 131.0117
1081.057, 29.03223
1082.157, 137.0654
1083.256, 96.17090
1084.356, 39.67285
1085.455, 21.51562
1086.554, 10.63867
1087.653, 33.81836
1088.751, 62.96191
1089.850, 26.84180
1090.948, 4.645508
1092.046, 2.449219
1093.144, 17.74902
1094.242, 5.041992
1095.340, 6.150391
1096.437, 51.61914
1097.534, 12.40625
1098.632, 26.19531
1099.729, 16.01660
1100.826, 56.24023
1101.922, 3.501953
1103.019, 38.75684
1104.115, 107.0410
1105.212, 15.38672
1106.308, 42.25586
1107.404, 60.89746
1108.499, 27.46191
1109.595, 24.69043
1110.691, 3.218750
1111.786, 48.39355
1112.881, 67.00684
1113.976, 114.6182
1115.071, 46.22949
1116.166, 59.83984
1117.260, 168.4492
1118.355, 75.05859
1119.449, 6.665039
1120.543, 95.26855
1121.637, 0.8701170
1122.731, 3.535156
1123.824, 39.94922
1124.918, 69.60742
1126.011, 59.83887
1127.104, 35.58691
1128.197, 14.17090
1129.290, 106.7002
1130.382, 23.20898
1131.475, 31.28418
1132.567, 6.197266
1133.659, 77.67188
1134.751, 94.14355
1135.843, 119.3535
1136.935, 112.4023
1138.027, 114.5479
1139.118, 83.01074
1140.209, 22.47266
1141.300, 48.92969
1142.391, 15.04395
1143.482, 10.95801
1144.573, 13.73535
1145.663, 66.32129
1146.754, 111.9541
1147.844, 148.6582
1148.934, 135.8545
1150.024, 60.66797
1151.113, 62.21387
1152.203, 12.85840
1153.292, 100.9248
1154.381, 12.01172
1155.470, 73.96875
1156.559, 30.97656
1157.648, 101.9873
1158.737, 63.94922
1159.825, 6.905273
1160.913, 129.8525
1162.001, 50.80176
1163.089, 182.7461
1164.177, 105.6904
1165.265, 70.63184
1166.352, 100.5684
1167.440, 184.5020
1168.527, 155.4297
1169.614, 446.3564
1170.701, 321.9590
1171.788, 419.1963
1172.874, 241.1123
1173.961, 350.0293
1175.047, 388.9639
1176.133, 419.8955
1177.219, 437.1045
1178.305, 439.7500
1179.390, 438.6836
1180.476, 333.6143
1181.561, 380.5684
1182.646, 348.5195
1183.731, 502.4883
1184.816, 491.4590
1185.901, 657.4307
1186.985, 509.3965
1188.070, 637.3574
1189.154, 458.3125
1190.238, 718.2637
1191.322, 544.2109
1192.406, 629.1582
1193.489, 618.1045
1194.573, 584.6533
1195.656, 558.0381
1196.739, 629.0312
1197.822, 775.0195
1198.905, 894.0156
1199.988, 841.0059
1201.070, 913.1504
1202.153, 626.0254
1203.235, 852.0645
1204.317, 833.0986
1205.399, 698.1719
1206.481, 804.7900
1207.562, 856.8564
1208.644, 966.0889
1209.725, 943.2695
1210.806, 942.3760
1211.887, 862.9346
1212.968, 875.7178
1214.049, 813.0361
1215.129, 836.0879
1216.209, 820.1367
1217.290, 922.6270
1218.370, 951.6807
1219.450, 835.9561
1220.529, 982.0020
1221.609, 966.0449
1222.688, 845.0547
1223.768, 809.0684
1224.847, 631.1113
1225.926, 839.1543
1227.005, 823.1924
1228.083, 902.2246
1229.162, 804.2529
1230.240, 831.2168
1231.318, 787.6299
1232.396, 838.6123
1233.474, 916.0684
1234.552, 933.2119
1235.629, 928.6934
1236.707, 752.0781
1237.784, 891.0693
1238.861, 773.1133
1239.938, 773.0938
1241.015, 876.6104
1242.092, 774.5752
1243.168, 775.5322
1244.244, 673.4941
1245.321, 734.6436
1246.397, 819.4062
1247.473, 870.3506
1248.548, 731.2871
1249.624, 794.1572
1250.699, 740.0752
1251.775, 782.6113
1252.850, 849.8438
1253.925, 831.7627
1254.999, 866.5771
1256.074, 847.2520
1257.148, 880.1045
1258.223, 878.8691
1259.297, 889.6963
1260.371, 915.0518
1261.445, 871.7344
1262.519, 951.3203
1263.592, 978.0947
1264.666, 987.8594
1265.739, 942.6064
1266.812, 983.8789
1267.885, 903.0566
1268.958, 1001.547
1270.030, 1061.336
1271.103, 1029.002
1272.175, 1108.487
1273.247, 1281.715
1274.319, 1218.736
1275.391, 1105.426
1276.463, 1337.220
1277.535, 1343.092
1278.606, 1396.532
1279.677, 1576.439
1280.748, 1536.252
1281.819, 1541.477
1282.890, 1601.934
1283.961, 1782.826
1285.031, 1772.857
1286.102, 1811.828
1287.172, 1839.886
1288.242, 1912.288
1289.312, 2018.491
1290.381, 1953.493
1291.451, 2091.113
1292.520, 2130.387
1293.590, 2144.629
1294.659, 2225.215
1295.728, 2296.204
1296.797, 2194.579
1297.865, 2177.102
1298.934, 2327.973
1300.002, 2415.779
1301.070, 2572.191
1302.138, 2444.108
1303.206, 2581.297
1304.274, 2470.811
1305.341, 2621.728
1306.409, 2615.386
1307.476, 2659.038
