##NAMES=Aenigmatite
##RRUFFID=R061088
##IDEAL CHEMISTRY=Na_4_(Fe^2+^_10_Ti^4+^_2_)O_4_[Si_12_O_36_]
##LOCALITY=Naujakasik, Greenland
##OWNER=RRUFF
##SOURCE=Michael Scott
##DESCRIPTION=Black prismatic crystals
##STATUS=The identification of this mineral has been confirmed by X-ray diffraction and chemical analysis
##URL=rruff.info/R061088
##MEASURED CHEMISTRY=(Na_1.72_Ca_0.28_)_Σ=2_(Fe^2+^_4.90_Mn_0.08_Mg_0.02_)_Σ=5_(Ti_0.85_Al_0.14_Fe^3+^_0.01_)_Σ=1_(Si_5.87_Al_0.13_)_Σ=6_O_20_
##PIN_ID=L00919
##ORIENTATION=Laser parallel to (0 -1 -1). Fiducial mark perpendicular to laser is parallel to a [1 0 0]
141.1290, 0.0000000E+00
142.3590, 1.818359
143.5880, 29.15039
144.8170, 112.8438
146.0460, 206.3525
147.2750, 362.1592
148.5030, 374.5146
149.7320, 563.1504
150.9600, 714.6895
152.1880, 802.9131
153.4160, 725.7534
154.6440, 849.4209
155.8720, 875.0103
157.0990, 821.1777
158.3270, 902.9321
159.5540, 901.7510
160.7810, 1110.118
162.0080, 1086.152
163.2350, 1196.396
164.4610, 997.2554
165.6880, 957.7876
166.9140, 738.0439
168.1400, 695.8115
169.3660, 577.8477
170.5920, 592.1055
171.8180, 351.0063
173.0430, 238.4385
174.2690, 70.99951
175.4940, 37.33496
176.7190, 49.29541
177.9440, 0.4702150
179.1680, 27.20361
180.3930, 20.11475
181.6170, 31.47949
182.8420, 76.17627
184.0660, 124.9336
185.2900, 207.4478
186.5140, 382.3945
187.7370, 360.2720
188.9610, 484.8218
190.1840, 637.2246
191.4070, 637.0122
192.6300, 710.2700
193.8530, 827.9482
195.0760, 832.3760
196.2980, 901.0088
197.5210, 972.9849
198.7430, 1010.971
199.9650, 1099.027
201.1870, 1116.160
202.4090, 1141.776
203.6310, 967.1968
204.8520, 930.2690
206.0730, 836.8423
207.2950, 773.3711
208.5160, 822.0459
209.7360, 754.2280
210.9570, 832.1021
212.1780, 1085.735
213.3980, 1135.191
214.6180, 1100.844
215.8380, 1011.670
217.0580, 1014.349
218.2780, 963.3428
219.4980, 926.5269
220.7170, 930.8779
221.9360, 849.0088
223.1560, 716.6299
224.3750, 694.5366
225.5930, 595.7080
226.8120, 548.6479
228.0310, 453.3970
229.2490, 385.1226
230.4670, 336.0029
231.6850, 261.9482
232.9030, 250.2651
234.1210, 208.8452
235.3380, 183.4629
236.5560, 169.0767
237.7730, 237.9600
238.9900, 135.5586
240.2070, 208.0396
241.4240, 184.0493
242.6410, 44.77051
243.8570, 118.8262
245.0730, 189.0557
246.2900, 139.2236
247.5060, 199.5933
248.7210, 100.3130
249.9370, 198.2119
251.1530, 84.88477
252.3680, 153.3564
253.5830, 144.1992
254.7980, 158.3682
256.0130, 393.3501
257.2280, 339.5752
258.4430, 421.6733
259.6570, 309.3911
260.8720, 468.4375
262.0860, 60.24414
263.3000, 19.01074
264.5130, 80.66260
265.7270, 6.822266
266.9410, 1.649902
268.1540, 17.10303
269.3670, 44.01270
270.5800, 24.88281
271.7930, 26.92188
273.0060, 64.60400
274.2190, 30.20068
275.4310, 64.63477
276.6430, 122.5503
277.8550, 37.34863
279.0670, 85.98926
280.2790, 25.60400
281.4910, 39.65527
282.7020, 25.91797
283.9140, 89.37451
285.1250, 3.688965
286.3360, 8.916504
287.5470, 173.7407
288.7570, 150.5239
289.9680, 133.2437
291.1780, 154.8179
292.3880, 133.2183
293.5990, 186.4180
294.8080, 147.4150
296.0180, 188.0952
297.2280, 218.7505
298.4370, 216.0430
299.6470, 292.1133
300.8560, 241.9751
302.0650, 288.6494
303.2740, 311.1392
304.4820, 280.3667
305.6910, 240.1597
306.8990, 165.6230
308.1070, 321.7705
309.3150, 306.7534
310.5230, 167.6108
311.7310, 198.5010
312.9390, 68.12695
314.1460, 134.5796
315.3530, 101.8940
316.5600, 156.2861
317.7670, 116.5879
318.9740, 21.44189
320.1810, 31.53613
321.3870, 36.77246
322.5930, 95.69336
323.8000, 51.51367
325.0060, 10.89893
326.2110, 54.74463
327.4170, 54.67285
328.6230, 59.77588
329.8280, 69.52588
331.0330, 46.63721
332.2380, 29.37598
333.4430, 34.28223
334.6480, 15.36865
335.8530, 30.62842
337.0570, 23.89600
338.2610, 8.302734
339.4650, 17.49072
340.6690, 29.55469
341.8730, 48.44971
343.0770, 44.20654
344.2800, 95.84766
345.4840, 121.0806
346.6870, 148.8389
347.8900, 162.1318
349.0930, 207.2671
350.2950, 242.5410
351.4980, 261.3257
352.7000, 329.5039
353.9030, 315.8726
355.1050, 348.0488
356.3070, 397.1025
357.5080, 387.0215
358.7100, 389.8447
359.9110, 496.5859
361.1130, 443.2607
362.3140, 487.8711
363.5150, 497.4199
364.7160, 409.9102
365.9160, 488.3457
367.1170, 471.7275
368.3170, 406.0576
369.5170, 447.3301
370.7170, 379.5532
371.9170, 407.7188
373.1170, 368.4297
374.3170, 406.7988
375.5160, 420.8936
376.7150, 333.6040
377.9140, 305.1475
379.1130, 323.2334
380.3120, 381.9771
381.5110, 386.1436
382.7090, 342.2378
383.9070, 426.9717
385.1060, 373.3633
386.3040, 331.4854
387.5010, 340.0620
388.6990, 321.8760
389.8970, 309.4717
391.0940, 323.0381
392.2910, 349.1802
393.4880, 314.2017
394.6850, 345.3149
395.8820, 327.0938
397.0780, 306.8218
398.2750, 282.4595
399.4710, 288.2202
400.6670, 327.2910
401.8630, 222.4893
403.0590, 261.8765
404.2540, 281.8584
405.4500, 284.5801
406.6450, 212.8599
407.8400, 232.1992
409.0350, 216.2656
410.2300, 195.6968
411.4250, 227.2515
412.6190, 162.6948
413.8140, 190.6606
415.0080, 182.2866
416.2020, 191.0381
417.3960, 160.2192
418.5900, 259.2979
419.7830, 169.7900
420.9770, 195.6973
422.1700, 206.9473
423.3630, 240.0508
424.5560, 311.2065
425.7490, 271.5425
426.9410, 236.6460
428.1340, 313.8848
429.3260, 249.1377
430.5180, 413.7432
431.7100, 390.0176
432.9020, 390.3110
434.0940, 442.8945
435.2850, 363.5273
436.4770, 413.9287
437.6680, 413.6592
438.8590, 435.0801
440.0500, 427.7173
441.2410, 440.4346
442.4310, 298.8994
443.6220, 168.4619
444.8120, 300.9165
446.0020, 310.6040
447.1920, 305.8364
448.3820, 294.5356
449.5710, 266.1836
450.7610, 134.3936
451.9500, 178.1689
453.1390, 142.8481
454.3280, 73.91260
455.5170, 102.0728
456.7060, 121.2612
457.8940, 107.9995
459.0830, 49.43994
460.2710, 36.30176
461.4590, 78.81396
462.6470, 15.22949
463.8350, 85.81934
465.0220, 175.4897
466.2100, 96.80908
467.3970, 108.2744
468.5840, 2.458008
469.7710, 129.8975
470.9580, 93.37402
472.1440, 227.4482
473.3310, 159.0674
474.5170, 81.17334
475.7030, 218.4097
476.8890, 291.3662
478.0750, 331.5303
479.2610, 385.6372
480.4460, 381.4458
481.6320, 395.0186
482.8170, 449.2012
484.0020, 396.1226
485.1870, 426.2568
486.3710, 441.3711
487.5560, 483.9312
488.7400, 538.6626
489.9250, 541.5142
491.1090, 549.4170
492.2930, 637.5063
493.4760, 630.7417
494.6600, 524.0591
495.8440, 638.6641
497.0270, 585.2397
498.2100, 564.9629
499.3930, 557.8950
500.5760, 561.7949
501.7580, 495.7144
502.9410, 575.7275
504.1230, 538.7358
505.3060, 502.7388
506.4880, 553.7407
507.6690, 568.7500
508.8510, 595.7705
510.0330, 558.7866
511.2140, 614.8066
512.3950, 643.8218
513.5760, 597.8130
514.7570, 683.8394
515.9380, 601.8247
517.1190, 577.8594
518.2990, 546.8979
519.4800, 717.7788
520.6600, 649.5557
521.8400, 724.4263
523.0190, 692.4839
524.1990, 721.5498
525.3790, 734.5625
526.5580, 846.6470
527.7370, 844.7397
528.9160, 918.6924
530.0950, 971.8994
531.2740, 1006.973
532.4520, 1042.018
533.6310, 1016.147
534.8090, 982.3164
535.9870, 1019.044
537.1650, 1067.939
538.3430, 1102.095
539.5200, 1121.980
540.6980, 1100.740
541.8750, 1120.446
543.0520, 1116.437
544.2290, 1106.068
545.4060, 1116.372
546.5820, 1074.018
547.7590, 1073.483
548.9350, 1048.626
550.1110, 1027.222
551.2870, 981.8843
552.4630, 936.9932
553.6390, 907.5879
554.8140, 878.6089
555.9900, 951.8223
557.1650, 900.0635
558.3400, 829.4062
559.5150, 718.7031
560.6900, 849.2935
561.8640, 841.7505
563.0390, 765.4277
564.2130, 608.1377
565.3870, 738.8623
566.5610, 641.6187
567.7350, 637.4111
568.9080, 564.2227
570.0820, 548.0488
571.2550, 333.8979
572.4280, 452.7690
573.6010, 253.6514
574.7740, 258.5464
575.9470, 145.4536
577.1190, 161.3740
578.2920, 145.3076
579.4640, 104.2544
580.6360, 49.21338
581.8080, 103.1855
582.9790, 82.83008
584.1510, 40.85010
585.3220, 109.8647
586.4940, 83.89258
587.6650, 26.92578
588.8360, 54.95068
590.0060, 7.973633
591.1770, 10.98438
592.3470, 80.01855
593.5180, 99.03320
594.6880, 138.0605
595.8580, 165.9399
597.0280, 210.9639
598.1970, 219.0400
599.3670, 275.1323
600.5360, 386.0273
601.7050, 371.8950
602.8740, 434.9707
604.0430, 536.8174
605.2120, 523.9961
606.3800, 580.9482
607.5490, 543.4312
608.7170, 651.6982
609.8850, 570.6475
611.0530, 657.8164
612.2210, 808.2207
613.3880, 777.7993
614.5560, 871.1802
615.7230, 882.8521
616.8900, 997.5693
618.0570, 953.3774
619.2240, 1118.935
620.3900, 1260.633
621.5570, 1472.065
622.7230, 1517.334
623.8890, 1672.843
625.0550, 1724.938
626.2210, 2035.062
627.3870, 2185.622
628.5520, 2485.586
629.7180, 2754.338
630.8830, 3111.098
632.0480, 3410.083
633.2130, 3988.867
634.3770, 4272.672
635.5420, 4847.691
636.7060, 5217.481
637.8710, 5614.425
639.0350, 6080.261
640.1990, 6431.169
641.3620, 7168.381
642.5260, 7493.310
643.6890, 7904.059
644.8530, 8209.229
646.0160, 8531.773
647.1790, 8591.331
648.3410, 8744.706
649.5040, 8959.612
650.6670, 8916.105
651.8290, 8684.029
652.9910, 8665.894
654.1530, 8575.611
655.3150, 8396.632
656.4770, 8258.584
657.6380, 7893.918
658.7990, 7715.884
659.9610, 7388.857
661.1220, 7170.838
662.2830, 6922.828
663.4430, 6615.824
664.6040, 6398.024
665.7640, 6164.834
666.9240, 5930.850
668.0850, 5842.873
669.2440, 5674.903
670.4040, 5457.938
671.5640, 5239.292
672.7230, 5282.071
673.8830, 5277.487
675.0420, 5228.199
676.2010, 5000.049
677.3590, 5002.923
678.5180, 4913.194
679.6770, 4819.672
680.8350, 4855.076
681.9930, 4653.025
683.1510, 4686.401
684.3090, 4625.804
685.4670, 4608.234
686.6240, 4435.220
687.7810, 4551.250
688.9390, 4363.390
690.0960, 4301.535
691.2530, 4257.686
692.4090, 3920.845
693.5660, 3681.010
694.7220, 3434.181
695.8790, 3185.359
697.0350, 2986.543
698.1910, 2812.732
699.3460, 2434.928
700.5020, 2283.127
701.6570, 1930.332
702.8130, 1900.541
703.9680, 1638.754
705.1230, 1520.972
706.2780, 1403.192
707.4320, 1267.417
708.5870, 1229.646
709.7410, 1082.878
710.8950, 951.1133
712.0490, 990.3525
713.2030, 799.5942
714.3570, 746.8398
715.5100, 786.0884
716.6640, 625.3403
717.8170, 588.5947
718.9700, 591.8530
720.1230, 504.1133
721.2760, 395.3774
722.4280, 459.8379
723.5810, 431.4771
724.7330, 281.9727
725.8850, 369.3906
727.0370, 378.3179
728.1890, 389.6113
729.3400, 314.8159
730.4920, 261.9888
731.6430, 203.2808
732.7940, 245.5762
733.9450, 226.8750
735.0960, 298.1772
736.2460, 156.4829
737.3970, 250.7915
738.5470, 221.1030
739.6970, 91.41846
740.8470, 99.73779
741.9970, 52.06055
743.1470, 64.38721
744.2970, 53.71631
745.4460, 58.04785
746.5950, 42.38232
747.7440, 20.94238
748.8930, 22.36426
750.0420, 25.61523
751.1900, 109.3076
752.3390, 121.0615
753.4870, 108.8823
754.6350, 27.76416
755.7830, 10.33398
756.9310, 51.42969
758.0780, 58.47363
759.2260, 85.41260
760.3730, 50.40234
761.5200, 101.4238
762.6670, 62.50439
763.8140, 46.62402
764.9610, 36.77295
766.1070, 7.948242
767.2530, 22.13477
768.4000, 36.65967
769.5460, 14.45459
770.6910, 61.24756
771.8370, 3.462891
772.9830, 14.82471
774.1280, 86.39453
775.2730, 23.66602
776.4180, 75.04346
777.5630, 4.247070
778.7080, 10.45215
779.8520, 17.14697
780.9970, 30.84033
782.1410, 20.53369
783.2850, 3.226074
784.4290, 33.08887
785.5730, 46.42822
786.7160, 68.20117
787.8600, 13.71338
789.0030, 36.44531
790.1460, 1.939941
791.2890, 35.33447
792.4320, 23.05859
793.5750, 69.80615
794.7170, 9.367188
795.8590, 40.92383
797.0020, 168.4810
798.1440, 166.0386
799.2850, 158.5962
800.4270, 216.1548
801.5690, 189.7129
802.7100, 136.2725
803.8510, 124.8311
804.9920, 223.3906
806.1330, 332.9502
807.2740, 139.5107
808.4140, 334.0737
809.5550, 239.6367
810.6950, 306.2007
811.8350, 335.7642
812.9750, 315.3286
814.1150, 277.8955
815.2540, 329.7427
816.3940, 471.0312
817.5330, 401.6001
818.6720, 353.1699
819.8110, 372.7407
820.9500, 551.3120
822.0880, 420.8843
823.2270, 525.4561
824.3650, 504.0288
825.5030, 529.6035
826.6410, 510.1909
827.7790, 591.7783
828.9170, 602.3760
830.0540, 643.9844
831.1920, 657.5977
832.3290, 681.2095
833.4660, 643.8228
834.6030, 678.5444
835.7390, 778.0630
836.8760, 722.6860
838.0120, 803.3096
839.1480, 852.9331
840.2840, 832.5601
841.4200, 1026.188
842.5560, 976.8154
843.6920, 1020.444
844.8270, 1157.073
845.9620, 1095.703
847.0970, 1216.333
848.2320, 1231.965
849.3670, 1229.599
850.5020, 1272.246
851.6360, 1369.902
852.7700, 1432.558
853.9040, 1315.215
855.0380, 1438.872
856.1720, 1408.537
857.3060, 1591.202
858.4390, 1551.869
859.5730, 1560.544
860.7060, 1589.223
861.8390, 1569.916
862.9720, 1617.618
864.1040, 1661.114
865.2370, 1657.069
866.3690, 1793.809
867.5010, 1822.566
868.6330, 1912.340
869.7650, 1890.116
870.8970, 1904.893
872.0290, 2038.672
873.1600, 2079.450
874.2910, 2103.230
875.4220, 2163.011
876.5530, 2419.792
877.6840, 2480.822
878.8140, 2595.521
879.9450, 2737.176
881.0750, 2698.015
882.2050, 2733.854
883.3350, 2614.699
884.4650, 2802.547
885.5950, 2830.347
886.7240, 2906.712
887.8530, 2937.338
888.9820, 2927.639
890.1110, 2825.479
891.2400, 2799.039
892.3690, 2715.863
893.4970, 2609.892
894.6260, 2529.637
895.7540, 2331.158
896.8820, 2241.853
898.0100, 2148.926
899.1370, 1989.436
900.2650, 1860.940
901.3920, 1751.031
902.5200, 1530.737
903.6470, 1440.672
904.7730, 1358.619
905.9000, 1300.357
907.0270, 1227.314
908.1530, 1131.270
909.2790, 1068.026
910.4050, 1010.027
911.5310, 898.8901
912.6570, 838.8750
913.7830, 767.8018
914.9080, 730.4404
916.0330, 641.2842
917.1580, 614.2910
918.2830, 705.2217
919.4080, 606.5801
920.5330, 598.9404
921.6570, 541.4951
922.7820, 484.5308
923.9060, 455.9951
925.0300, 446.0439
926.1540, 484.1646
927.2770, 462.4463
928.4010, 455.4375
929.5240, 414.5127
930.6470, 440.2168
931.7700, 453.3047
932.8930, 414.3994
934.0160, 359.5000
935.1380, 416.6089
936.2610, 364.7241
937.3830, 314.8457
938.5050, 364.9746
939.6270, 345.1094
940.7490, 276.2520
941.8700, 444.4004
942.9910, 419.9595
944.1130, 378.1226
945.2340, 375.2915
946.3550, 326.4673
947.4750, 301.6499
948.5960, 318.4297
949.7160, 299.3262
950.8370, 306.5420
951.9570, 365.0273
953.0770, 404.5938
954.1970, 426.3950
955.3160, 376.5044
956.4360, 419.0234
957.5550, 424.5103
958.6740, 428.4854
959.7930, 484.2280
960.9120, 447.5518
962.0310, 502.2749
963.1490, 521.3921
964.2670, 465.1968
965.3860, 417.0977
966.5040, 457.3926
967.6210, 552.6938
968.7390, 472.0161
969.8570, 550.8281
970.9740, 652.2056
972.0910, 592.5317
973.2080, 623.8633
974.3250, 646.7637
975.4420, 692.1074
976.5580, 695.4570
977.6750, 698.7646
978.7910, 750.2183
979.9070, 782.7534
981.0230, 797.3848
982.1390, 740.9771
983.2540, 776.4541
984.3700, 778.0220
985.4850, 776.4585
986.6000, 824.9565
987.7150, 719.4233
988.8300, 745.7964
989.9450, 754.8237
991.0590, 744.3901
992.1730, 662.4141
993.2880, 672.8154
994.4010, 646.2290
995.5150, 618.1138
996.6290, 641.7017
997.7420, 571.7744
998.8560, 599.0410
999.9690, 584.1021
1001.082, 590.1147
1002.195, 558.8389
1003.307, 535.3843
1004.420, 549.4917
1005.532, 542.6792
1006.645, 503.4272
1007.757, 506.8306
1008.868, 434.0796
1009.980, 428.1626
1011.092, 453.0010
1012.203, 415.6743
1013.314, 478.8477
1014.425, 457.8325
1015.536, 476.5249
1016.647, 557.6099
1017.758, 494.2148
1018.868, 516.7568
1019.978, 428.4258
1021.088, 530.0146
1022.198, 443.6133
1023.308, 533.2490
1024.418, 507.0884
1025.527, 561.7788
1026.637, 521.3154
1027.746, 540.4536
1028.855, 589.3516
1029.963, 609.8740
1031.072, 628.6357
1032.181, 577.4297
1033.289, 584.7427
1034.397, 541.5776
1035.505, 537.4277
1036.613, 479.2866
1037.721, 505.1582
1038.828, 528.0312
1039.935, 524.9082
1041.043, 444.1787
1042.150, 471.0664
1043.257, 460.9575
1044.363, 364.9775
1045.470, 453.9092
1046.576, 398.8433
1047.682, 394.7847
1048.788, 390.7310
1049.894, 326.6797
1051.000, 245.6309
1052.106, 234.2051
1053.211, 284.5454
1054.316, 200.5200
1055.421, 252.5127
1056.526, 303.5068
1057.631, 244.5112
1058.736, 191.5171
1059.840, 231.5308
1060.944, 275.5581
1062.049, 139.5967
1063.153, 171.6382
1064.256, 202.6831
1065.360, 134.7295
1066.463, 182.7778
1067.567, 212.8276
1068.670, 100.8794
1069.773, 108.9321
1070.876, 85.98633
1071.978, 134.0420
1073.081, 7.098633
1074.183, 151.1572
1075.285, 12.78320
1076.387, 37.27246
1077.489, 26.32959
1078.591, 24.38770
1079.692, 113.4463
1080.794, 9.493652
1081.895, 71.56348
1082.996, 7.378906
1084.097, 73.67725
1085.198, 26.73389
1086.298, 5.209473
1087.399, 73.84619
1088.499, 66.90283
1089.599, 22.95947
1090.699, 42.01709
1091.799, 5.924805
1092.898, 47.86963
1093.998, 42.16162
1095.097, 34.80762
1096.196, 40.79395
1097.295, 11.80176
1098.394, 21.18408
1099.492, 75.16992
1100.591, 17.84424
1101.689, 8.868164
1102.787, 0.8974610
1103.885, 81.07080
1104.983, 100.0396
1106.081, 8.991699
1107.178, 65.97070
1108.275, 9.932617
1109.373, 81.89502
1110.470, 20.85645
1111.566, 32.59375
1112.663, 47.77930
1113.760, 6.260254
1114.856, 40.69434
1115.952, 47.35205
1117.048, 21.42627
1118.144, 84.48535
1119.240, 57.39600
1120.335, 91.90234
1121.431, 21.78467
1122.526, 93.10938
1123.621, 39.00195
1124.716, 24.89453
1125.810, 43.22949
1126.905, 60.67529
1127.999, 2.564453
1129.094, 20.54980
1130.188, 68.68018
1131.282, 26.14795
1132.375, 54.02539
1133.469, 53.23242
1134.562, 56.52734
1135.656, 1.284668
1136.749, 79.03711
1137.842, 66.78809
1138.935, 92.53760
1140.027, 71.90186
1141.120, 83.28711
1142.212, 23.22217
1143.304, 55.50342
1144.396, 24.77197
1145.488, 127.0679
1146.579, 6.562500
1147.671, 0.8115230
1148.762, 8.927734
1149.853, 30.59668
1150.944, 10.02002
1152.035, 26.62354
1153.126, 76.22559
1154.216, 77.82666
1155.307, 8.424805
1156.397, 22.98145
1157.487, 4.408691
1158.577, 13.84717
1159.667, 8.699219
1160.756, 66.75879
1161.846, 92.73975
1162.935, 47.23584
1164.024, 1.741211
1165.113, 87.23926
1166.201, 48.74121
1167.290, 108.2402
1168.378, 52.73730
1169.467, 112.2314
1170.555, 113.7261
1171.643, 4.216797
1172.730, 94.70166
1173.818, 201.1831
1174.905, 19.66357
1175.993, 102.1421
1177.080, 114.6172
1178.167, 129.0933
1179.254, 210.5669
1180.340, 46.03760
1181.427, 196.5215
1182.513, 86.03125
1183.599, 245.5400
1184.685, 176.0459
1185.771, 149.5474
1186.856, 204.0464
1187.942, 117.5430
1189.027, 104.0371
1190.112, 118.5288
1191.197, 99.09863
1192.282, 108.7573
1193.367, 145.9907
1194.451, 134.4756
1195.536, 193.9565
1196.620, 241.4326
1197.704, 172.9043
1198.788, 179.3745
1199.872, 151.8394
1200.955, 215.3003
1202.039, 283.7563
1203.122, 229.2080
1204.205, 265.6553
1205.288, 197.0972
1206.370, 274.1313
1207.453, 199.5654
1208.535, 256.9966
1209.618, 227.4233
1210.700, 242.8467
1211.782, 176.9751
1212.863, 255.3916
1213.945, 297.6011
1215.026, 146.0117
1216.108, 167.4189
1217.189, 332.6948
1218.270, 168.1040
1219.351, 307.5093
1220.431, 266.9121
1221.512, 412.3140
1222.592, 265.4956
1223.672, 297.0791
1224.752, 216.5078
1225.832, 245.9033
1226.911, 288.8999
1227.991, 274.6655
1229.070, 259.0386
1230.149, 208.4072
1231.228, 215.7568
1232.307, 244.6182
1233.386, 209.9160
1234.464, 132.2681
1235.543, 221.6152
1236.621, 169.3960
1237.699, 233.7334
1238.777, 183.0669
1239.855, 273.3960
1240.932, 261.7183
1242.009, 161.0376
1243.087, 204.3501
1244.164, 278.1567
1245.241, 209.4580
1246.317, 222.6519
1247.394, 160.4512
1248.470, 276.7354
1249.546, 148.0137
1250.623, 210.2861
1251.698, 229.9790
1252.774, 227.2485
1253.850, 369.5146
1254.925, 243.7788
1256.000, 242.0366
1257.076, 250.2891
1258.150, 379.3848
1259.225, 279.0225
1260.300, 335.6206
1261.374, 314.8516
1262.449, 195.3330
1263.523, 295.8457
1264.597, 230.0581
1265.670, 308.9570
1266.744, 374.1572
1267.818, 330.3506
1268.891, 269.5376
1269.964, 365.7207
1271.037, 338.8945
1272.110, 391.1494
1273.183, 403.3101
1274.255, 330.4326
1275.327, 407.1172
1276.400, 399.0913
1277.472, 414.9116
1278.543, 503.9658
1279.615, 422.0801
1280.687, 438.5508
1281.758, 505.0376
1282.829, 451.1333
1283.900, 557.2207
1284.971, 641.3203
1286.042, 583.3862
1287.112, 576.6572
1288.183, 663.4526
1289.253, 536.5171
1290.323, 717.0469
1291.393, 779.4702
1292.463, 715.2529
1293.532, 699.3174
1294.602, 792.8433
1295.671, 788.3579
1296.740, 842.6064
1297.809, 832.9224
1298.878, 760.7715
1299.946, 770.9648
1301.015, 758.4043
1302.083, 889.3398
1303.151, 787.9380
1304.219, 848.7222
1305.287, 909.7061
1306.354, 844.9902
1307.422, 932.2573
1308.489, 819.6777
1309.556, 827.8267
1310.623, 882.0669
1311.690, 818.7402
