##NAMES=Aenigmatite
##RRUFFID=R061088
##IDEAL CHEMISTRY=Na_4_(Fe^2+^_10_Ti^4+^_2_)O_4_[Si_12_O_36_]
##LOCALITY=Naujakasik, Greenland
##OWNER=RRUFF
##SOURCE=Michael Scott
##DESCRIPTION=Black prismatic crystals
##STATUS=The identification of this mineral has been confirmed by X-ray diffraction and chemical analysis
##URL=rruff.info/R061088
##MEASURED CHEMISTRY=(Na_1.72_Ca_0.28_)_Σ=2_(Fe^2+^_4.90_Mn_0.08_Mg_0.02_)_Σ=5_(Ti_0.85_Al_0.14_Fe^3+^_0.01_)_Σ=1_(Si_5.87_Al_0.13_)_Σ=6_O_20_
##PIN_ID=L01392
##ORIENTATION=Laser parallel to (1 0 1). Fiducial mark perpendicular to laser is parallel to b [0 1 0]
151.2320, 0.0000000E+00
152.4690, 221.9434
153.7060, 277.1934
154.9420, 510.0859
156.1790, 335.3145
157.4150, 209.4902
158.6510, 1090.245
159.8870, 964.5400
161.1220, 1018.354
162.3570, 1417.418
163.5930, 827.8691
164.8280, 935.4238
166.0620, 785.7119
167.2970, 672.9453
168.5310, 554.0244
169.7650, 435.8135
170.9990, 304.9395
172.2330, 285.3174
173.4670, 149.7754
174.7000, 36.50195
175.9330, 94.10645
177.1660, 20.72363
178.3990, 31.56836
179.6310, 32.75879
180.8640, 72.35547
182.0960, 17.99609
183.3280, 394.8721
184.5600, 1422.666
185.7910, 1365.299
187.0220, 1272.657
188.2540, 1547.628
189.4840, 1226.728
190.7150, 1073.885
191.9460, 1237.635
193.1760, 1294.388
194.4060, 1510.106
195.6360, 1794.141
196.8660, 2147.942
198.0960, 2361.200
199.3250, 2403.414
200.5540, 2715.577
201.7830, 2982.956
203.0120, 3023.837
204.2400, 2793.511
205.4690, 2330.885
206.6970, 2091.845
207.9250, 1822.874
209.1530, 1820.279
210.3800, 2041.022
211.6080, 2130.575
212.8350, 2281.146
214.0620, 2199.450
215.2880, 2130.378
216.5150, 1928.226
217.7410, 1799.659
218.9680, 1632.919
220.1940, 1483.140
221.4190, 1289.576
222.6450, 1108.797
223.8700, 909.3687
225.0960, 737.9287
226.3210, 611.8403
227.5450, 552.0659
228.7700, 345.5679
229.9940, 296.3022
231.2190, 140.2314
232.4430, 74.31201
233.6660, 45.64062
234.8900, 18.26318
236.1140, 33.23779
237.3370, 125.3350
238.5600, 125.7817
239.7830, 108.6685
241.0050, 174.4443
242.2280, 76.02148
243.4500, 74.94434
244.6720, 80.92236
245.8940, 2.702148
247.1160, 45.88086
248.3370, 98.77051
249.5580, 254.5664
250.7790, 301.3735
252.0000, 477.0283
253.2210, 368.0825
254.4410, 647.5220
255.6620, 600.9038
256.8820, 615.2246
258.1020, 1080.482
259.3210, 1040.186
260.5410, 858.6328
261.7600, 718.8667
262.9790, 551.6328
264.1980, 358.3726
265.4170, 373.5063
266.6360, 332.6982
267.8540, 164.2900
269.0720, 113.8188
270.2900, 50.14502
271.5080, 49.16113
272.7260, 4.427734
273.9430, 110.5596
275.1600, 107.3818
276.3770, 160.8076
277.5940, 157.3223
278.8100, 214.5991
280.0270, 167.0845
281.2430, 235.5283
282.4590, 141.3643
283.6750, 330.3291
284.8910, 286.7256
286.1060, 352.3027
287.3210, 314.1431
288.5360, 487.0850
289.7510, 450.9722
290.9660, 551.8076
292.1800, 729.6113
293.3950, 813.3896
294.6090, 857.1816
295.8230, 854.0601
297.0360, 923.9971
298.2500, 974.9189
299.4630, 1072.748
300.6760, 974.2944
301.8890, 1186.470
303.1020, 1144.233
304.3150, 1034.560
305.5270, 1042.395
306.7390, 1133.750
307.9510, 1023.670
309.1630, 873.1338
310.3750, 957.0518
311.5860, 880.3198
312.7970, 676.9658
314.0080, 676.1455
315.2190, 624.1265
316.4300, 641.9126
317.6400, 593.0991
318.8510, 504.9438
320.0610, 584.9082
321.2710, 465.3931
322.4800, 460.0371
323.6900, 389.6855
324.8990, 386.7373
326.1080, 309.5830
327.3170, 196.4966
328.5260, 355.3960
329.7340, 233.9443
330.9430, 97.08936
332.1510, 197.0537
333.3590, 124.8496
334.5670, 11.52686
335.7740, 100.8950
336.9820, 78.08789
338.1890, 133.9849
339.3960, 50.54395
340.6030, 7.403320
341.8100, 88.89551
343.0160, 116.9360
344.2220, 49.57373
345.4280, 74.83887
346.6340, 59.94678
347.8400, 44.05322
349.0460, 34.84473
350.2510, 98.66650
351.4560, 176.4370
352.6610, 324.1553
353.8660, 495.7983
355.0700, 556.2383
356.2750, 588.8213
357.4790, 767.1494
358.6830, 684.3428
359.8870, 878.4443
361.0910, 876.4692
362.2940, 769.4229
363.4970, 782.3135
364.7000, 857.1528
365.9030, 863.9502
367.1060, 831.7158
368.3080, 828.4619
369.5110, 719.1714
370.7130, 680.1694
371.9150, 616.6431
373.1170, 667.8687
374.3180, 682.9487
375.5200, 540.6343
376.7210, 446.5444
377.9220, 478.1548
379.1230, 389.9478
380.3230, 354.6514
381.5240, 334.1084
382.7240, 228.2681
383.9240, 264.2598
385.1240, 166.3853
386.3240, 131.4448
387.5230, 190.7314
388.7230, 179.0923
389.9220, 85.12451
391.1210, 95.45020
392.3200, 204.4717
393.5180, 134.4204
394.7170, 198.1484
395.9150, 134.8423
397.1130, 195.1060
398.3110, 243.9121
399.5080, 135.8931
400.7060, 142.6836
401.9030, 191.5386
403.1000, 139.2280
404.2970, 219.9028
405.4940, 255.5659
406.6910, 260.9644
407.8870, 250.5054
409.0830, 250.3301
410.2790, 186.2275
411.4750, 190.6196
412.6710, 139.4834
413.8660, 174.3174
415.0610, 77.26611
416.2560, 97.26221
417.4510, 134.2271
418.6460, 216.2754
419.8410, 213.3364
421.0350, 332.9902
422.2290, 299.6528
423.4230, 337.8340
424.6170, 386.6606
425.8100, 503.1016
427.0040, 538.7954
428.1970, 584.7529
429.3900, 576.5483
430.5830, 674.6611
431.7760, 675.6201
432.9680, 857.3589
434.1610, 768.5967
435.3530, 801.4756
436.5450, 799.1709
437.7360, 739.9634
438.9280, 734.0352
440.1190, 715.2520
441.3110, 659.8076
442.5020, 693.8843
443.6930, 663.0298
444.8830, 583.4976
446.0740, 546.3325
447.2640, 515.8584
448.4540, 468.1396
449.6440, 481.9521
450.8340, 399.0562
452.0240, 409.1123
453.2130, 368.6821
454.4020, 365.0884
455.5910, 342.0137
456.7800, 302.9004
457.9690, 275.7510
459.1570, 341.4893
460.3460, 315.2690
461.5340, 364.4336
462.7220, 356.8335
463.9090, 436.4604
465.0970, 322.4258
466.2840, 311.3589
467.4720, 253.0249
468.6590, 300.6777
469.8460, 226.0420
471.0320, 256.9443
472.2190, 287.5371
473.4050, 325.6235
474.5910, 315.8892
475.7770, 346.4072
476.9630, 438.3354
478.1490, 364.1978
479.3340, 450.5459
480.5190, 445.7046
481.7040, 580.3359
482.8890, 580.2759
484.0740, 532.4224
485.2580, 574.7266
486.4430, 632.3379
487.6270, 707.3423
488.8110, 623.5859
489.9950, 728.7324
491.1780, 698.2236
492.3620, 681.2173
493.5450, 761.7739
494.7280, 681.7134
495.9110, 750.3276
497.0940, 565.6768
498.2760, 567.2002
499.4590, 405.7222
500.6410, 487.2437
501.8230, 537.7642
503.0050, 482.3032
504.1860, 454.8701
505.3680, 355.4707
506.5490, 311.0820
507.7300, 267.7271
508.9110, 334.3730
510.0920, 328.9160
511.2730, 315.0913
512.4530, 450.4834
513.6330, 298.2490
514.8130, 430.0518
515.9930, 457.8892
517.1730, 463.7441
518.3520, 544.6255
519.5320, 537.5078
520.7110, 620.4814
521.8900, 713.3022
523.0690, 593.0669
524.2470, 693.8550
525.4260, 751.3433
526.6040, 820.1230
527.7820, 858.6255
528.9600, 886.1475
530.1380, 969.0303
531.3150, 877.9775
532.4930, 1113.647
533.6700, 925.4336
534.8470, 934.7334
536.0240, 979.7905
537.2000, 1064.149
538.3770, 930.2783
539.5530, 975.6880
540.7290, 1051.332
541.9050, 901.8926
543.0810, 948.5303
544.2570, 963.4434
545.4320, 947.9473
546.6080, 811.9961
547.7830, 832.2070
548.9580, 789.9170
550.1320, 745.0947
551.3070, 787.2910
552.4810, 668.9404
553.6550, 639.0312
554.8300, 711.5596
556.0030, 643.2754
557.1770, 664.6323
558.3510, 630.3428
559.5240, 429.8296
560.6970, 494.8667
561.8700, 432.9253
563.0430, 259.0015
564.2160, 235.0967
565.3880, 213.2085
566.5600, 112.3374
567.7320, 69.48096
568.9040, 78.64355
570.0760, 40.81836
571.2480, 43.99316
572.4190, 6.196777
573.5900, 1.398926
574.7610, 88.39014
575.9320, 68.19434
577.1030, 180.0083
578.2740, 142.8794
579.4440, 24.79248
580.6140, 206.7051
581.7840, 116.6890
582.9540, 26.70361
584.1240, 62.71875
585.2930, 3.744141
586.4630, 23.76514
587.6320, 84.21484
588.8010, 127.2012
589.9700, 297.1948
591.1380, 304.1953
592.3070, 311.2041
593.4750, 459.2192
594.6430, 639.2427
595.8110, 774.2734
596.9790, 984.3130
598.1460, 1252.360
599.3140, 1409.416
600.4810, 1689.480
601.6480, 1820.090
602.8150, 1994.189
603.9820, 2083.730
605.1480, 2234.834
606.3150, 2351.189
607.4810, 2360.775
608.6470, 2585.916
609.8130, 2528.355
610.9790, 2526.848
612.1440, 2499.461
613.3100, 2582.442
614.4750, 2573.205
615.6400, 2488.351
616.8050, 2629.973
617.9690, 2679.861
619.1340, 2708.334
620.2980, 2886.018
621.4620, 2962.699
622.6260, 3198.036
623.7900, 3504.392
624.9540, 3670.771
626.1170, 4176.195
627.2810, 4747.668
628.4440, 5502.161
629.6070, 6117.671
630.7690, 6713.199
631.9320, 7588.758
633.0950, 8620.333
634.2570, 9839.928
635.4190, 11038.14
636.5810, 12099.76
637.7430, 13561.49
638.9040, 14790.12
640.0660, 15926.77
641.2270, 17055.41
642.3880, 17686.97
643.5490, 18369.60
644.7100, 18717.92
645.8700, 18560.39
647.0310, 18377.40
648.1910, 17785.09
649.3510, 17473.29
650.5110, 16588.31
651.6710, 15628.77
652.8300, 14515.24
653.9900, 13749.72
655.1490, 12316.46
656.3080, 11580.79
657.4670, 10483.04
658.6250, 9777.658
659.7840, 8970.646
660.9420, 8481.889
662.1010, 7779.180
663.2590, 7228.762
664.4170, 6878.643
665.5740, 6504.375
666.7320, 6309.108
667.8890, 6257.844
669.0460, 6172.584
670.2030, 6147.324
671.3600, 6171.064
672.5170, 6257.807
673.6740, 6276.553
674.8300, 6581.297
675.9860, 6712.041
677.1420, 6699.782
678.2980, 6951.525
679.4540, 6967.269
680.6090, 7018.008
681.7650, 7088.747
682.9200, 6797.484
684.0750, 6896.221
685.2300, 6745.956
686.3840, 6670.690
687.5390, 6624.420
688.6930, 6161.147
689.8470, 5918.870
691.0010, 5734.589
692.1550, 5214.308
693.3090, 4855.021
694.4620, 4287.736
695.6160, 3824.446
696.7690, 3298.154
697.9220, 2922.861
699.0750, 2662.566
700.2280, 2463.266
701.3800, 2084.961
702.5320, 1812.653
703.6850, 1610.340
704.8370, 1448.022
705.9880, 1268.234
707.1400, 1137.167
708.2920, 1007.042
709.4430, 940.7056
710.5940, 850.3447
711.7450, 848.9985
712.8960, 758.6191
714.0470, 669.6099
715.1970, 593.4028
716.3480, 643.8818
717.4980, 570.2637
718.6480, 553.3647
719.7980, 479.4482
720.9470, 550.9360
722.0970, 371.9678
723.2460, 355.8667
724.3960, 465.3813
725.5450, 476.4683
726.6940, 498.0332
727.8420, 490.6709
728.9910, 501.2676
730.1390, 485.8608
731.2870, 425.4512
732.4350, 674.0386
733.5830, 535.0386
734.7310, 616.2041
735.8790, 467.7812
737.0260, 368.3569
738.1730, 398.9287
739.3200, 344.4976
740.4670, 98.06348
741.6140, 117.6265
742.7610, 39.72559
743.9070, 23.43506
745.0530, 36.70703
746.1990, 78.80713
747.3450, 16.68213
748.4910, 17.19580
749.6370, 18.00879
750.7820, 24.79053
751.9270, 35.13818
753.0720, 18.44385
754.2170, 50.05176
755.3620, 21.70361
756.5070, 9.693359
757.6510, 82.91504
758.7950, 99.20996
759.9400, 136.5020
761.0840, 221.7910
762.2270, 192.0771
763.3710, 244.3604
764.5140, 223.6401
765.6580, 261.9160
766.8010, 154.1880
767.9440, 217.4570
769.0870, 146.7222
770.2290, 232.9834
771.3720, 168.1973
772.5140, 132.3730
773.6560, 144.6611
774.7990, 4.822754
775.9400, 151.9688
777.0820, 96.22217
778.2240, 76.24854
779.3650, 41.61768
780.5060, 74.52393
781.6470, 101.4868
782.7880, 7.521973
783.9290, 96.57861
785.0690, 49.29541
786.2100, 67.83447
787.3500, 97.01758
788.4900, 56.26953
789.6300, 88.56836
790.7700, 88.93066
791.9090, 77.35742
793.0490, 12.15820
794.1880, 22.33691
795.3270, 11.86133
796.4660, 98.40771
797.6050, 71.02197
798.7440, 56.20215
799.8820, 29.40283
801.0200, 25.85352
802.1590, 51.10449
803.2970, 106.3516
804.4340, 119.8008
805.5720, 98.83594
806.7100, 122.0728
807.8470, 101.3071
808.9840, 48.53857
810.1210, 80.76660
811.2580, 72.69873
812.3950, 91.82080
813.5310, 128.4336
814.6680, 119.6499
815.8040, 185.8638
816.9400, 130.0747
818.0760, 98.28369
819.2120, 177.4893
820.3470, 235.6938
821.4830, 250.8950
822.6180, 325.0938
823.7530, 305.2905
824.8880, 306.4849
826.0230, 349.6772
827.1580, 301.8677
828.2920, 237.0562
829.4270, 295.2432
830.5610, 382.4277
831.6950, 447.6108
832.8290, 545.7930
833.9620, 459.9771
835.0960, 613.1602
836.2290, 568.3413
837.3620, 513.5215
838.4950, 543.7007
839.6280, 726.8804
840.7610, 645.0591
841.8940, 586.1367
843.0260, 724.6289
844.1580, 831.1738
845.2910, 907.5503
846.4230, 863.0713
847.5540, 974.5234
848.6860, 1023.521
849.8170, 1165.570
850.9490, 1268.778
852.0800, 1292.996
853.2110, 1543.245
854.3420, 1632.518
855.4730, 1673.793
856.6030, 1786.107
857.7340, 1760.439
858.8640, 1849.775
859.9940, 1881.795
861.1240, 1892.098
862.2540, 1870.452
863.3830, 1818.629
864.5130, 1645.959
865.6420, 1653.904
866.7710, 1738.294
867.9000, 1759.686
869.0290, 1678.080
870.1570, 1831.501
871.2860, 1827.935
872.4140, 1828.399
873.5430, 1829.873
874.6710, 2081.359
875.7980, 2169.847
876.9260, 2373.336
878.0540, 2626.828
879.1810, 2614.320
880.3080, 3019.576
881.4360, 3211.628
882.5630, 3369.171
883.6890, 3835.434
884.8160, 3987.683
885.9420, 4482.851
887.0690, 4557.679
888.1950, 4776.287
889.3210, 5042.514
890.4470, 5256.806
891.5730, 5340.870
892.6980, 5330.639
893.8240, 5176.342
894.9490, 4988.072
896.0740, 4845.809
897.1990, 4461.551
898.3240, 4187.295
899.4480, 3769.045
900.5730, 3442.800
901.6970, 3172.563
902.8210, 2822.331
903.9450, 2584.103
905.0690, 2397.881
906.1930, 2100.684
907.3160, 1982.428
908.4400, 1659.649
909.5630, 1671.451
910.6860, 1615.158
911.8090, 1396.971
912.9320, 1302.790
914.0550, 1321.615
915.1770, 1211.542
916.2990, 1169.549
917.4210, 1151.600
918.5440, 1106.659
919.6650, 1086.187
920.7870, 1060.541
921.9090, 1082.421
923.0300, 1000.976
924.1510, 945.1118
925.2720, 912.2441
926.3930, 799.3799
927.5140, 744.2710
928.6350, 750.5879
929.7550, 776.9941
930.8760, 616.0513
931.9960, 596.7500
933.1160, 707.2036
934.2360, 568.6250
935.3550, 660.7686
936.4750, 621.6274
937.5940, 616.6514
938.7140, 659.6880
939.8330, 575.7383
940.9520, 527.8008
942.0710, 655.8760
943.1890, 685.9639
944.3080, 708.0645
945.4260, 708.1787
946.5440, 749.3062
947.6620, 883.4463
948.7800, 778.5996
949.8980, 1056.766
951.0160, 1074.945
952.1330, 1213.139
953.2500, 1166.345
954.3680, 1187.563
955.4850, 1275.798
956.6010, 1399.044
957.7180, 1253.305
958.8350, 1282.578
959.9510, 1419.865
961.0670, 1270.166
962.1830, 1157.481
963.2990, 1241.810
964.4150, 1093.151
965.5310, 1105.508
966.6460, 1134.877
967.7620, 1057.012
968.8770, 1053.410
969.9920, 991.8213
971.1070, 992.2466
972.2210, 1106.686
973.3360, 1112.388
974.4500, 1145.855
975.5650, 1238.336
976.6790, 1278.844
977.7930, 1401.670
978.9070, 1609.282
980.0200, 1709.818
981.1340, 1948.370
982.2470, 1963.936
983.3610, 2293.514
984.4740, 2336.108
985.5870, 2411.715
986.6990, 2388.336
987.8120, 2376.971
988.9250, 2220.270
990.0370, 2167.449
991.1490, 2082.692
992.2610, 1967.717
993.3730, 1731.962
994.4850, 1870.007
995.5960, 1540.928
996.7080, 1396.160
997.8190, 1437.516
998.9300, 1109.932
1000.041, 934.0005
1001.152, 724.7974
1002.263, 778.0610
1003.373, 684.2778
1004.484, 685.8906
1005.594, 496.3008
1006.704, 570.6885
1007.814, 575.0869
1008.924, 428.9707
1010.034, 474.8662
1011.143, 616.7739
1012.253, 561.6934
1013.362, 671.8188
1014.471, 607.4844
1015.580, 705.1538
1016.689, 665.3013
1017.797, 648.0913
1018.906, 687.0664
1020.014, 641.6367
1021.122, 737.4668
1022.230, 729.7417
1023.338, 870.8247
1024.446, 906.7290
1025.554, 1135.754
1026.661, 1058.424
1027.768, 1180.595
1028.875, 1334.103
1029.983, 1309.301
1031.089, 1446.509
1032.196, 1483.215
1033.303, 1516.952
1034.409, 1582.934
1035.515, 1593.177
1036.622, 1658.431
1037.728, 1642.692
1038.833, 1439.815
1039.939, 1507.096
1041.045, 1364.386
1042.150, 1386.727
1043.255, 1274.076
1044.360, 1102.441
1045.465, 1075.815
1046.570, 907.1978
1047.675, 873.5898
1048.779, 817.0093
1049.884, 684.4644
1050.988, 691.9619
1052.092, 660.4780
1053.196, 632.0356
1054.300, 612.6025
1055.404, 564.2031
1056.507, 545.1523
1057.610, 544.5181
1058.714, 494.2295
1059.817, 501.9810
1060.920, 484.7681
1062.022, 352.5684
1063.125, 403.3887
1064.228, 304.2285
1065.330, 294.1094
1066.432, 283.0234
1067.534, 334.9673
1068.636, 321.9331
1069.738, 243.9097
1070.840, 254.8945
1071.941, 151.8877
1073.042, 162.8901
1074.144, 188.9009
1075.245, 176.9204
1076.346, 224.9478
1077.446, 227.9839
1078.547, 198.0273
1079.647, 179.0801
1080.748, 113.1401
1081.848, 131.2090
1082.948, 169.2856
1084.048, 19.37012
1085.148, 140.4624
1086.247, 106.5630
1087.347, 109.6704
1088.446, 196.7861
1089.545, 143.9082
1090.644, 136.8657
1091.743, 87.17725
1092.842, 96.32275
1093.940, 19.47559
1095.039, 92.63574
1096.137, 41.80225
1097.235, 7.976563
1098.333, 80.15674
1099.431, 25.65527
1100.529, 57.53076
1101.627, 76.72412
1102.724, 7.923340
1103.822, 117.1294
1104.919, 10.65820
1106.016, 64.55713
1107.113, 27.77832
1108.209, 2.006348
1109.306, 33.76123
1110.402, 47.53564
1111.499, 27.67627
1112.595, 12.89404
1113.691, 24.11719
1114.787, 115.3457
1115.883, 81.57910
1116.978, 112.8188
1118.074, 151.0635
1119.169, 231.3135
1120.264, 317.5684
1121.359, 284.8286
1122.454, 292.6143
1123.549, 164.3623
1124.644, 225.6357
1125.738, 3.914063
1126.832, 1.196289
1127.927, 233.4814
1129.021, 87.77051
1130.115, 114.9360
1131.208, 24.69873
1132.302, 173.5298
1133.396, 8.238281
1134.489, 90.00830
1135.582, 47.82275
1136.675, 107.6597
1137.768, 26.55127
1138.861, 42.45508
1139.954, 59.62158
1141.046, 62.41357
1142.138, 128.7866
1143.231, 75.87305
1144.323, 3.8086001E-02
1145.415, 42.94824
1146.507, 105.8809
1147.598, 16.84473
1148.690, 74.63037
1149.781, 76.86133
1150.872, 37.97949
1151.964, 121.0767
1153.054, 1.762695
1154.145, 28.39697
1155.236, 70.57178
1156.327, 94.21582
1157.417, 2.993164
1158.507, 75.20703
1159.597, 0.5371090
1160.687, 77.27832
1161.777, 84.02734
1162.867, 69.77734
1163.956, 122.5308
1165.046, 5.713379
1166.135, 45.03516
1167.224, 33.78662
1168.313, 73.56201
1169.402, 6.654785
1170.491, 131.1328
1171.580, 103.9214
1172.668, 55.71240
1173.756, 111.5063
1174.845, 143.3022
1175.933, 93.10107
1177.020, 54.91309
1178.108, 144.7456
1179.196, 77.65039
1180.283, 162.4863
1181.371, 215.3848
1182.458, 238.0396
1183.545, 139.9351
1184.632, 197.8115
1185.719, 193.1890
1186.805, 185.9941
1187.892, 265.8389
1188.978, 185.3140
1190.065, 263.7861
1191.151, 278.7949
1192.237, 294.2422
1193.323, 328.1787
1194.408, 372.1143
1195.494, 356.0518
1196.579, 348.9897
1197.664, 315.9268
1198.750, 325.4370
1199.835, 345.1543
1200.919, 362.7905
1202.004, 387.7446
1203.089, 466.6958
1204.173, 439.6460
1205.258, 460.3394
1206.342, 402.5449
1207.426, 442.4927
1208.510, 437.4604
1209.594, 424.4238
1210.677, 314.3833
1211.761, 444.3394
1212.844, 380.9053
1213.927, 486.2441
1215.010, 377.1909
1216.093, 355.1348
1217.176, 348.0752
1218.259, 330.0156
1219.341, 353.9541
1220.424, 324.3921
1221.506, 271.8350
1222.588, 296.7705
1223.670, 264.7012
1224.752, 272.6299
1225.834, 272.5547
1226.915, 306.4746
1227.997, 240.3901
1229.078, 340.2993
1230.159, 186.4512
1231.240, 216.3501
1232.321, 262.2441
1233.402, 221.1343
1234.483, 276.0200
1235.563, 146.6514
1236.644, 251.5244
1237.724, 227.3896
1238.804, 221.2378
1239.884, 355.7749
1240.964, 262.5327
1242.044, 364.3711
1243.123, 304.2002
1244.203, 179.0225
1245.282, 217.8345
1246.361, 301.6382
1247.440, 241.4331
1248.519, 170.2178
1249.598, 279.9927
1250.676, 289.7578
1251.755, 391.5132
1252.833, 346.2578
1253.911, 427.9907
1254.989, 377.7134
1256.067, 338.4229
1257.145, 374.0859
1258.223, 382.3784
1259.300, 468.4468
1260.378, 495.2803
1261.455, 459.6445
1262.532, 573.2827
1263.609, 528.4531
1264.686, 585.6704
1265.763, 608.4922
1266.840, 713.5146
1267.916, 704.5591
1268.992, 707.7642
1270.069, 755.6411
1271.145, 795.1738
1272.221, 863.6924
1273.296, 915.1963
1274.372, 899.0649
1275.448, 1022.820
1276.523, 1004.584
1277.598, 1175.189
1278.673, 1094.524
1279.749, 1140.211
1280.823, 1213.321
1281.898, 1217.778
1282.973, 1169.681
1284.047, 1392.657
1285.122, 1370.173
1286.196, 1275.941
1287.270, 1490.090
1288.344, 1453.749
1289.418, 1536.325
1290.491, 1587.050
1291.565, 1546.538
1292.638, 1573.530
1293.712, 1669.332
1294.785, 1685.168
1295.858, 1658.044
1296.931, 1539.951
1298.003, 1639.977
1299.076, 1675.417
1300.149, 1605.213
1301.221, 1760.049
1302.293, 1566.966
1303.365, 1632.868
1304.437, 1541.009
1305.509, 1602.346
1306.581, 1642.465
1307.652, 1543.416
1308.724, 1552.823
1309.795, 1645.041
1310.866, 1687.129
1311.937, 1718.677
1313.008, 1637.734
1314.079, 1567.526
1315.150, 1544.298
1316.220, 1517.510
1317.291, 1509.123
1318.361, 1526.045
1319.431, 1555.010
1320.501, 1585.972
