##NAMES=Aenigmatite
##RRUFFID=R061088
##IDEAL CHEMISTRY=Na_4_(Fe^2+^_10_Ti^4+^_2_)O_4_[Si_12_O_36_]
##LOCALITY=Naujakasik, Greenland
##OWNER=RRUFF
##SOURCE=Michael Scott
##DESCRIPTION=Black prismatic crystals
##STATUS=The identification of this mineral has been confirmed by X-ray diffraction and chemical analysis
##URL=rruff.info/R061088
##MEASURED CHEMISTRY=(Na_1.72_Ca_0.28_)_Σ=2_(Fe^2+^_4.90_Mn_0.08_Mg_0.02_)_Σ=5_(Ti_0.85_Al_0.14_Fe^3+^_0.01_)_Σ=1_(Si_5.87_Al_0.13_)_Σ=6_O_20_
##PIN_ID=L00919
##ORIENTATION=Laser parallel to (0 -1 -1). Fiducial mark perpendicular to laser is parallel to a [1 0 0]
136.2100, 0.0000000E+00
137.4400, 1.373047
138.6700, 167.8604
139.9000, 289.6914
141.1290, 125.3320
142.3590, 77.45898
143.5880, 199.8770
144.8170, 328.8906
146.0460, 396.9502
147.2750, 489.0430
148.5030, 423.6377
149.7320, 442.6436
150.9600, 537.2568
152.1880, 598.6426
153.4160, 627.8086
154.6440, 599.4912
155.8720, 579.7051
157.0990, 419.4893
158.3270, 534.3994
159.5540, 398.6104
160.7810, 524.3096
162.0080, 535.9629
163.2350, 709.4131
164.4610, 722.2393
165.6880, 604.5986
166.9140, 481.3125
168.1400, 457.6738
169.3660, 421.0771
170.5920, 440.5010
171.8180, 268.6172
173.0430, 251.3359
174.2690, 169.1484
175.4940, 189.2207
176.7190, 31.59180
177.9440, 93.46680
179.1680, 48.55762
180.3930, 116.0459
181.6170, 19.69727
182.8420, 38.88184
184.0660, 34.60742
185.2900, 125.6650
186.5140, 204.7656
187.7370, 265.1816
188.9610, 451.4912
190.1840, 371.6338
191.4070, 598.7021
192.6300, 603.9561
193.8530, 734.6177
195.0760, 692.6782
196.2980, 701.1572
197.5210, 806.6006
198.7430, 827.6938
199.9650, 980.5664
201.1870, 998.3789
202.4090, 1064.812
203.6310, 719.9941
204.8520, 686.2246
206.0730, 507.4478
207.2950, 493.4360
208.5160, 516.0664
209.7360, 587.6851
210.9570, 663.6812
212.1780, 659.1836
213.3980, 706.0205
214.6180, 778.1743
215.8380, 510.3477
217.0580, 512.6553
218.2780, 569.0762
219.4980, 628.5908
220.7170, 544.1826
221.9360, 521.8271
223.1560, 388.5044
224.3750, 386.2056
225.5930, 336.9185
226.8120, 329.6362
228.0310, 263.3354
229.2490, 194.2202
230.4670, 317.1743
231.6850, 200.9287
232.9030, 291.0923
234.1210, 107.4897
235.3380, 9.839844
236.5560, 111.7568
237.7730, 65.34277
238.9900, 29.45801
240.2070, 49.27686
241.4240, 26.41846
242.6410, 118.2065
243.8570, 85.30176
245.0730, 3.438965
246.2900, 112.4580
247.5060, 91.11621
248.7210, 29.61279
249.9370, 33.71777
251.1530, 1.518555
252.3680, 28.20459
253.5830, 61.15332
254.7980, 28.89648
256.0130, 8.150391
257.2280, 1.451172
258.4430, 32.81689
259.6570, 10.86035
260.8720, 11.60059
262.0860, 13.09131
263.3000, 16.75830
264.5130, 11.35840
265.7270, 18.10498
266.9410, 24.61475
268.1540, 107.1099
269.3670, 70.97314
270.5800, 109.7798
271.7930, 75.36963
273.0060, 215.3369
274.2190, 191.2485
275.4310, 218.7090
276.6430, 347.1831
277.8550, 329.5459
279.0670, 366.4194
280.2790, 304.5405
281.4910, 377.1172
282.7020, 381.1768
283.9140, 401.2046
285.1250, 453.1265
286.3360, 436.8818
287.5470, 500.3545
288.7570, 595.7822
289.9680, 633.8926
291.1780, 568.7676
292.3880, 696.4009
293.5990, 732.8101
294.8080, 785.8789
296.0180, 895.7075
297.2280, 827.2827
298.4370, 875.6094
299.6470, 893.7002
300.8560, 901.5278
302.0650, 925.0801
303.2740, 967.6582
304.4820, 1012.584
305.6910, 1021.046
306.8990, 1066.479
308.1070, 1056.768
309.3150, 1098.296
310.5230, 992.0181
311.7310, 965.6641
312.9390, 837.8853
314.1460, 957.9897
315.3530, 899.2964
316.5600, 781.1294
317.7670, 786.1992
318.9740, 719.9595
320.1810, 560.1670
321.3870, 560.3140
322.5930, 533.8208
323.8000, 401.9048
325.0060, 342.4893
326.2110, 285.4604
327.4170, 155.9639
328.6230, 228.0400
329.8280, 166.2344
331.0330, 273.2432
332.2380, 176.4961
333.4430, 172.6421
334.6480, 141.2290
335.8530, 109.0400
337.0570, 143.3530
338.2610, 165.7593
339.4650, 177.0708
340.6690, 144.4053
341.8730, 167.9883
343.0770, 168.7461
344.2800, 168.3911
345.4840, 199.3770
346.6870, 234.8379
347.8900, 208.3965
349.0930, 193.7285
350.2950, 230.9258
351.4980, 213.6455
352.7000, 300.3530
353.9030, 255.6133
355.1050, 331.1367
356.3070, 423.9448
357.5080, 446.7046
358.7100, 550.6387
359.9110, 459.6274
361.1130, 520.6943
362.3140, 472.7461
363.5150, 480.0083
364.7160, 529.4932
365.9160, 563.5986
367.1170, 523.5825
368.3170, 422.9824
369.5170, 466.3428
370.7170, 457.4692
371.9170, 495.5371
373.1170, 547.0435
374.3170, 413.9521
375.5160, 426.8643
376.7150, 488.7720
377.9140, 425.3960
379.1130, 454.0840
380.3120, 445.7812
381.5110, 419.3384
382.7090, 414.4048
383.9070, 394.7910
385.1060, 375.3960
386.3040, 328.8833
387.5010, 338.8193
388.6990, 328.4780
389.8970, 312.7695
391.0940, 246.1011
392.2910, 237.2539
393.4880, 212.9399
394.6850, 184.1963
395.8820, 189.1904
397.0780, 134.3164
398.2750, 134.9341
399.4710, 114.6465
400.6670, 79.23828
401.8630, 33.96045
403.0590, 38.56104
404.2540, 80.57178
405.4500, 0.5688480
406.6450, 18.49609
407.8400, 8.163574
409.0350, 57.72217
410.2300, 50.05518
411.4250, 64.90039
412.6190, 15.37061
413.8140, 91.69727
415.0080, 11.27979
416.2020, 14.44238
417.3960, 76.96240
418.5900, 40.26562
419.7830, 71.77734
420.9770, 190.8848
422.1700, 196.6841
423.3630, 258.7383
424.5560, 322.0381
425.7490, 316.2822
426.9410, 396.4810
428.1340, 372.6997
429.3260, 417.0723
430.5180, 347.3145
431.7100, 248.7603
432.9020, 382.4976
434.0940, 397.1787
435.2850, 461.7305
436.4770, 408.3003
437.6680, 447.1929
438.8590, 327.2812
440.0500, 446.7783
441.2410, 350.1401
442.4310, 301.2080
443.6220, 259.4717
444.8120, 210.8652
446.0020, 84.15625
447.1920, 201.2788
448.3820, 236.1416
449.5710, 106.3325
450.7610, 155.8721
451.9500, 254.5610
453.1390, 133.1885
454.3280, 103.0645
455.5170, 221.9009
456.7060, 135.9814
457.8940, 41.30615
459.0830, 107.0308
460.2710, 155.7197
461.4590, 144.3765
462.6470, 174.2041
463.8350, 126.5259
465.0220, 155.0259
466.2100, 117.4043
467.3970, 65.21338
468.5840, 183.7593
469.7710, 75.05225
470.9580, 102.6792
472.1440, 279.7607
473.3310, 181.5376
474.5170, 136.8154
475.7030, 127.6753
476.8890, 100.5303
478.0750, 99.31689
479.2610, 105.3960
480.4460, 126.0020
481.6320, 115.7998
482.8170, 163.6641
484.0020, 93.32129
485.1870, 227.1641
486.3710, 201.0200
487.5560, 240.8730
488.7400, 327.8677
489.9250, 270.0186
491.1090, 223.1011
492.2930, 193.1304
493.4760, 361.3369
494.6600, 342.4844
495.8440, 332.0264
497.0270, 290.3906
498.2100, 272.0762
499.3930, 318.1567
500.5760, 252.3618
501.7580, 374.7749
502.9410, 316.0820
504.1230, 349.5396
505.3060, 362.9497
506.4880, 360.4126
507.6690, 407.9014
508.8510, 347.3848
510.0330, 422.8628
511.2140, 383.1426
512.3950, 421.6152
513.5760, 511.0605
514.7570, 425.5439
515.9380, 498.0283
517.1190, 433.3481
518.2990, 542.7339
519.4800, 583.2266
520.6600, 621.6392
521.8400, 474.1416
523.0190, 626.6704
524.1990, 534.1680
525.3790, 638.4321
526.5580, 672.8721
527.7370, 695.7026
528.9160, 707.4595
530.0950, 675.5601
531.2740, 700.1714
532.4520, 702.1338
533.6310, 703.0039
534.8090, 735.4258
535.9870, 709.7412
537.1650, 741.5474
538.3430, 750.4526
539.5200, 694.5664
540.6980, 669.7495
541.8750, 721.9111
543.0520, 681.9775
544.2290, 709.9014
545.4060, 720.9097
546.5820, 709.1470
547.7590, 699.0898
548.9350, 658.7534
550.1110, 694.8325
551.2870, 660.7275
552.4630, 672.8379
553.6390, 671.2373
554.8140, 660.4341
555.9900, 606.5767
557.1650, 608.8750
558.3400, 588.5879
559.5150, 567.6514
560.6900, 578.0811
561.8640, 530.6250
563.0390, 541.2163
564.2130, 528.8872
565.3870, 527.1714
566.5610, 416.5645
567.7350, 471.8521
568.9080, 490.1436
570.0820, 381.4370
571.2550, 474.7324
572.4280, 304.0312
573.6010, 172.3315
574.7740, 293.6323
575.9470, 153.9341
577.1190, 50.23682
578.2920, 116.5405
579.4640, 195.8467
580.6360, 42.84619
581.8080, 9.452637
582.9790, 33.24658
584.1510, 59.04883
585.3220, 10.65332
586.4940, 7.354980
587.6650, 18.59277
588.8360, 60.10498
590.0060, 68.81592
591.1770, 116.7832
592.3470, 35.58496
593.5180, 31.35205
594.6880, 56.75977
595.8580, 40.76074
597.0280, 15.00195
598.1970, 25.83594
599.3670, 199.9414
600.5360, 129.0093
601.7050, 205.2559
602.8740, 187.5063
604.0430, 143.7627
605.2120, 193.9775
606.3800, 284.2446
607.5490, 287.4556
608.7170, 358.4678
609.8850, 296.7593
611.0530, 439.8555
612.2210, 536.0918
613.3880, 406.4624
614.5560, 527.8018
615.7230, 559.6094
616.8900, 782.9766
618.0570, 742.4995
619.2240, 717.2573
620.3900, 787.6582
621.5570, 975.7256
622.7230, 957.4478
623.8890, 1145.938
625.0550, 1108.856
626.2210, 1250.071
627.3870, 1429.542
628.5520, 1631.736
629.7180, 1809.223
630.8830, 2024.860
632.0480, 2206.464
633.2130, 2424.056
634.3770, 2604.916
635.5420, 2772.249
636.7060, 2914.212
637.8710, 3440.766
639.0350, 3566.231
640.1990, 3968.063
641.3620, 4084.056
642.5260, 4408.161
643.6890, 4659.501
644.8530, 4828.825
646.0160, 5018.673
647.1790, 5170.330
648.3410, 5330.744
649.5040, 5360.329
650.6670, 5619.917
651.8290, 5601.507
652.9910, 5728.098
654.1530, 5603.041
655.3150, 5639.635
656.4770, 5655.231
657.6380, 5447.830
658.7990, 5312.457
659.9610, 5395.059
661.1220, 5413.662
662.2830, 5124.267
663.4430, 5131.872
664.6040, 5122.478
665.7640, 5063.086
666.9240, 4952.695
668.0850, 4803.309
669.2440, 4765.920
670.4040, 4662.535
671.5640, 4644.152
672.7230, 4706.769
673.8830, 4665.551
675.0420, 4665.153
676.2010, 4642.168
677.3590, 4597.834
678.5180, 4468.022
679.6770, 4448.536
680.8350, 4384.891
681.9930, 4319.428
683.1510, 4315.529
684.3090, 4198.203
685.4670, 4193.330
686.6240, 4124.379
687.7810, 4090.033
688.9390, 4031.211
690.0960, 3875.352
691.2530, 3858.024
692.4090, 3699.697
693.5660, 3468.383
694.7220, 3238.072
695.8790, 3137.762
697.0350, 2885.454
698.1910, 2718.147
699.3460, 2612.841
700.5020, 2328.538
701.6570, 2224.234
702.8130, 2072.930
703.9680, 1855.623
705.1230, 1767.315
706.2780, 1756.005
707.4320, 1504.693
708.5870, 1437.380
709.7410, 1346.064
710.8950, 1106.747
712.0490, 1251.428
713.2030, 1044.106
714.3570, 1030.783
715.5100, 803.4580
716.6640, 854.1309
717.8170, 814.8018
718.9700, 711.4712
720.1230, 719.0537
721.2760, 648.7197
722.4280, 522.6289
723.5810, 581.2920
724.7330, 428.7778
725.8850, 473.3179
727.0370, 438.9795
728.1890, 355.8550
729.3400, 458.3608
730.4920, 409.5840
731.6430, 398.3984
732.7940, 318.3442
733.9450, 438.0015
735.0960, 370.6602
736.2460, 343.0366
737.3970, 270.1328
738.5470, 235.7910
739.6970, 199.4507
740.8470, 156.1089
741.9970, 205.7671
743.1470, 187.4243
744.2970, 98.08203
745.4460, 154.7383
746.5950, 124.3950
747.7440, 53.05176
748.8930, 139.7085
750.0420, 33.36475
751.1900, 67.97852
752.3390, 38.63184
753.4870, 8.758301
754.6350, 26.83691
755.7830, 69.57031
756.9310, 41.02344
758.0780, 51.49170
759.2260, 6.004883
760.3730, 22.48926
761.5200, 67.00635
762.6670, 10.42969
763.8140, 30.13965
764.9610, 72.26367
766.1070, 29.33447
767.2530, 6.958496
768.4000, 140.5977
769.5460, 2.321777
770.6910, 51.05957
771.8370, 5.834961
772.9830, 78.62500
774.1280, 11.53320
775.2730, 50.68408
776.4180, 10.83350
777.5630, 78.02344
778.7080, 7.932617
779.8520, 106.8564
780.9970, 78.84814
782.1410, 13.89160
783.2850, 41.95312
784.4290, 79.04688
785.5730, 34.80713
786.7160, 53.65918
787.8600, 43.51074
789.0030, 171.3608
790.1460, 70.20996
791.2890, 25.94238
792.4320, 63.88184
793.5750, 67.70605
794.7170, 116.5283
795.8590, 22.35010
797.0020, 92.16943
798.1440, 91.98779
799.2850, 43.80566
800.4270, 75.62207
801.5690, 41.43799
802.7100, 89.25293
803.8510, 107.0669
804.9920, 68.87988
806.1330, 157.6919
807.2740, 186.5039
808.4140, 125.3145
809.5550, 171.1250
810.6950, 239.9346
811.8350, 254.7432
812.9750, 276.5513
814.1150, 207.3594
815.2540, 279.1660
816.3940, 217.9727
817.5330, 191.7788
818.6720, 278.5835
819.8110, 298.3887
820.9500, 368.1934
822.0880, 383.9971
823.2270, 344.8008
824.3650, 264.6040
825.5030, 287.4517
826.6410, 281.1860
827.7790, 314.0166
828.9170, 330.8232
830.0540, 414.6309
831.1920, 432.4429
832.3290, 438.2539
833.4660, 506.0723
834.6030, 464.8901
835.7390, 476.7188
836.8760, 512.5469
838.0120, 539.3813
839.1480, 649.2349
840.2840, 675.0991
841.4200, 623.9639
842.5560, 550.8281
843.6920, 653.6929
844.8270, 791.5688
845.9620, 765.4448
847.0970, 872.3213
848.2320, 791.1973
849.3670, 799.0732
850.5020, 877.9502
851.6360, 858.8369
852.7700, 914.7256
853.9040, 985.6348
855.0380, 947.5449
856.1720, 998.4849
857.3060, 920.4302
858.4390, 977.4106
859.5730, 1023.402
860.7060, 1089.405
861.8390, 1108.419
862.9720, 1236.444
864.1040, 1154.480
865.2370, 1198.525
866.3690, 1318.596
867.5010, 1279.688
868.6330, 1299.785
869.7650, 1342.892
870.8970, 1471.003
872.0290, 1468.380
873.1600, 1485.229
874.2910, 1561.352
875.4220, 1510.478
876.5530, 1617.607
877.6840, 1596.742
878.8140, 1652.194
879.9450, 1780.021
881.0750, 1792.079
882.2050, 1879.311
883.3350, 1945.392
884.4650, 1990.946
885.5950, 1983.191
886.7240, 2022.297
887.8530, 2024.165
888.9820, 2020.581
890.1110, 2037.472
891.2400, 1988.205
892.3690, 2000.997
893.4970, 1930.761
894.6260, 1841.926
895.7540, 1808.187
896.8820, 1696.312
898.0100, 1670.430
899.1370, 1613.136
900.2650, 1502.559
901.3920, 1425.738
902.5200, 1303.210
903.6470, 1505.995
904.7730, 1431.493
905.9000, 1411.558
907.0270, 1262.686
908.1530, 1335.557
909.2790, 1328.968
910.4050, 1214.762
911.5310, 1107.976
912.6570, 1184.761
913.7830, 1202.248
914.9080, 1059.054
916.0330, 980.7544
917.1580, 959.2275
918.2830, 947.7271
919.4080, 986.5503
920.5330, 1008.063
921.6570, 895.3276
922.7820, 993.5981
923.9060, 913.8755
925.0300, 926.1592
926.1540, 764.4507
927.2770, 805.3975
928.4010, 863.7017
929.5240, 706.0127
930.6470, 687.3311
931.7700, 818.6289
932.8930, 619.9604
934.0160, 732.2993
935.1380, 816.6455
936.2610, 775.9980
937.3830, 628.3584
938.5050, 642.7246
939.6270, 792.0986
940.7490, 652.4795
941.8700, 812.8672
942.9910, 741.2622
944.1130, 715.6636
945.2340, 841.0728
946.3550, 782.4883
947.4750, 839.9111
948.5960, 754.3413
949.7160, 680.7783
950.8370, 843.2222
951.9570, 666.6729
953.0770, 659.1309
954.1970, 690.5962
955.3160, 673.0684
956.4360, 763.5469
957.5550, 766.0332
958.6740, 774.5259
959.7930, 775.0264
960.9120, 728.5337
962.0310, 777.0698
963.1490, 931.5918
964.2670, 833.3418
965.3860, 883.6167
966.5040, 953.1587
967.6210, 863.2402
968.7390, 950.7964
969.8570, 937.7202
970.9740, 965.2896
972.0910, 968.1089
973.2080, 954.0796
974.3250, 1007.231
975.4420, 991.8276
976.5580, 978.4302
977.6750, 988.0264
978.7910, 1054.000
979.9070, 1101.936
981.0230, 1134.762
982.1390, 1131.988
983.2540, 1156.224
984.3700, 1158.063
985.4850, 1153.284
986.6000, 1157.769
987.7150, 1122.484
988.8300, 1110.084
989.9450, 1081.931
991.0590, 1045.296
992.1730, 1013.530
993.2880, 861.2944
994.4010, 921.1421
995.5150, 919.0771
996.6290, 878.8472
997.7420, 981.8306
998.8560, 792.5381
999.9690, 747.8906
1001.082, 820.6050
1002.195, 707.3623
1003.307, 755.5098
1004.420, 678.5942
1005.532, 702.3818
1006.645, 684.1611
1007.757, 691.9526
1008.868, 708.7627
1009.980, 642.3633
1011.092, 755.9019
1012.203, 697.7202
1013.314, 744.5366
1014.425, 725.4155
1015.536, 817.2759
1016.647, 762.0918
1017.758, 731.9419
1018.868, 778.8232
1019.978, 780.6348
1021.088, 772.4312
1022.198, 798.2871
1023.308, 807.6738
1024.418, 824.0752
1025.527, 843.6792
1026.637, 855.9941
1027.746, 860.1406
1028.855, 856.4219
1029.963, 824.4531
1031.072, 826.6914
1032.181, 813.8203
1033.289, 799.3901
1034.397, 803.7017
1035.505, 770.7134
1036.613, 772.7139
1037.721, 759.3760
1038.828, 751.6724
1039.935, 681.1416
1041.043, 711.1558
1042.150, 751.1787
1043.257, 617.2290
1044.363, 621.2837
1045.470, 595.3398
1046.576, 627.4004
1047.682, 530.4883
1048.788, 501.5854
1049.894, 533.7168
1051.000, 415.8755
1052.106, 494.0439
1053.211, 448.2305
1054.316, 482.4429
1055.421, 395.6572
1056.526, 383.8726
1057.631, 471.0903
1058.736, 335.3096
1059.840, 285.5298
1060.944, 315.7617
1062.049, 347.9956
1063.153, 338.2451
1064.256, 290.4814
1065.360, 181.7202
1066.463, 293.9600
1067.567, 206.2002
1068.670, 142.4419
1069.773, 188.6851
1070.876, 79.92871
1071.978, 182.1738
1073.081, 172.4199
1074.183, 64.66602
1075.285, 132.9141
1076.387, 150.1626
1077.489, 129.4121
1078.591, 165.6616
1079.692, 132.9121
1080.794, 162.1631
1081.895, 107.4150
1082.996, 86.66748
1084.097, 67.91992
1085.198, 38.17236
1086.298, 30.42578
1087.399, 107.6792
1088.499, 23.93311
1089.599, 91.18750
1090.699, 33.44189
1091.799, 48.69678
1092.898, 35.95068
1093.998, 20.79492
1095.097, 61.44922
1096.196, 6.307129
1097.295, 15.06641
1098.394, 25.16553
1099.492, 27.60205
1100.591, 79.61523
1101.689, 40.16846
1102.787, 13.02686
1103.885, 21.72559
1104.983, 71.54395
1106.081, 42.13086
1107.178, 72.98779
1108.275, 57.10645
1109.373, 99.22363
1110.470, 40.66016
1111.566, 17.43262
1112.663, 13.52441
1113.760, 34.61572
1114.856, 56.70508
1115.952, 50.79395
1117.048, 34.11865
1118.144, 1.947266
1119.240, 74.98926
1120.335, 62.03027
1121.431, 106.9507
1122.526, 11.00732
1123.621, 125.0366
1124.716, 22.14990
1125.810, 31.27930
1126.905, 32.43066
1127.999, 29.60352
1129.094, 32.79639
1130.188, 26.98828
1131.282, 54.22900
1132.375, 70.52051
1133.469, 12.26855
1134.562, 18.60156
1135.656, 1.350586
1136.749, 8.664063
1137.842, 11.83838
1138.935, 12.31787
1140.027, 1.200684
1141.120, 4.229492
1142.212, 7.847656
1143.304, 8.209473
1144.396, 12.01172
1145.488, 3.719727
1146.579, 5.088379
1147.671, 13.02490
1148.762, 6.729980
1149.853, 4.827637
1150.944, 17.15283
1152.035, 21.59473
1153.126, 13.64893
1154.216, 21.98486
1155.307, 1.224609
1156.397, 5.989258
1157.487, 21.76465
1158.577, 14.51807
1159.667, 23.09766
1160.756, 9.650879
1161.846, 34.66211
1162.935, 49.98242
1164.024, 56.13232
1165.113, 25.66602
1166.201, 42.47705
1167.290, 40.33984
1168.378, 37.41992
1169.467, 60.88135
1170.555, 35.72168
1171.643, 58.76172
1172.730, 62.55713
1173.818, 75.15527
1174.905, 68.68359
1175.993, 68.10010
1177.080, 86.59814
1178.167, 94.53174
1179.254, 85.86670
1180.340, 99.01660
1181.427, 73.17822
1182.513, 81.54541
1183.599, 104.6719
1184.685, 96.94434
1185.771, 110.4248
1186.856, 115.8267
1187.942, 84.51465
1189.027, 117.0410
1190.112, 121.9531
1191.197, 98.50879
1192.282, 71.15771
1193.367, 39.73779
1194.451, 112.3149
1195.536, 77.90234
1196.620, 182.4941
1197.704, 98.08105
1198.788, 112.6636
1199.872, 272.2417
1200.955, 116.8159
1202.039, 160.3857
1203.122, 67.95215
1204.205, 122.5137
1205.288, 99.07568
1206.370, 138.6353
1207.453, 132.8979
1208.535, 158.2437
1209.618, 142.2939
1210.700, 150.8428
1211.782, 203.3916
1212.863, 66.93555
1213.945, 171.4751
1215.026, 103.0151
1216.108, 165.5508
1217.189, 157.0815
1218.270, 118.6079
1219.351, 73.12891
1220.431, 76.72217
1221.512, 135.1587
1222.592, 82.66797
1223.672, 127.1729
1224.752, 161.6553
1225.832, 175.1538
1226.911, 148.4263
1227.991, 166.2041
1229.070, 154.1597
1230.149, 144.6104
1231.228, 126.0864
1232.307, 82.19629
1233.386, 38.66309
1234.464, 81.88232
1235.543, 0.9511720
1236.621, 161.8403
1237.699, 142.2871
1238.777, 103.7295
1239.855, 208.1675
1240.932, 81.06299
1242.009, 68.49170
1243.087, 76.91650
1244.164, 150.3374
1245.241, 155.7554
1246.317, 99.16943
1247.394, 149.3530
1248.470, 101.6992
1249.546, 106.2764
1250.623, 124.6724
1251.698, 134.2056
1252.774, 70.57129
1253.850, 114.9355
1254.925, 141.7422
1256.000, 79.96045
1257.076, 86.09326
1258.150, 136.3916
1259.225, 154.5518
1260.300, 171.7310
1261.374, 178.5469
1262.449, 182.6743
1263.523, 159.9424
1264.597, 171.6172
1265.670, 170.7207
1266.744, 170.0547
1267.818, 189.5957
1268.891, 172.3516
1269.964, 192.2666
1271.037, 198.1382
1272.110, 210.8555
1273.183, 210.5737
1274.255, 214.1890
1275.327, 233.4829
1276.400, 245.4321
1277.472, 245.5479
1278.543, 262.5479
1279.615, 250.8032
1280.687, 265.1665
1281.758, 291.0562
1282.829, 294.5640
1283.900, 314.3936
1284.971, 328.4712
1286.042, 315.8003
1287.112, 351.5278
1288.183, 366.8428
1289.253, 361.5044
1290.323, 396.9048
1291.393, 353.9932
1292.463, 452.2246
1293.532, 540.3472
1294.602, 498.5391
1295.671, 510.0791
1296.740, 556.3022
1297.809, 609.5259
1298.878, 577.0361
1299.946, 626.8086
1301.015, 527.0308
1302.083, 611.2568
1303.151, 588.1006
1304.219, 602.3945
1305.287, 617.1650
1306.354, 684.6157
1307.422, 679.3120
