##NAMES=Aenigmatite
##RRUFFID=R061088
##IDEAL CHEMISTRY=Na_4_(Fe^2+^_10_Ti^4+^_2_)O_4_[Si_12_O_36_]
##LOCALITY=Naujakasik, Greenland
##OWNER=RRUFF
##SOURCE=Michael Scott
##DESCRIPTION=Black prismatic crystals
##STATUS=The identification of this mineral has been confirmed by X-ray diffraction and chemical analysis
##URL=rruff.info/R061088
##MEASURED CHEMISTRY=(Na_1.72_Ca_0.28_)_Σ=2_(Fe^2+^_4.90_Mn_0.08_Mg_0.02_)_Σ=5_(Ti_0.85_Al_0.14_Fe^3+^_0.01_)_Σ=1_(Si_5.87_Al_0.13_)_Σ=6_O_20_
##PIN_ID=L00777
##ORIENTATION=Laser parallel to b* (0 1 0). Fiducial mark perpendicular to laser is parallel to c [0 0 1]
138.6700, 0.0000000E+00
139.9000, 0.6113280
141.1290, 188.6289
142.3590, 4.538086
143.5880, 1.453125
144.8170, 9.937500
146.0460, 106.3105
147.2750, 212.7207
148.5030, 239.9512
149.7320, 491.6162
150.9600, 756.4365
152.1880, 955.4053
153.4160, 1107.371
154.6440, 1429.906
155.8720, 1620.158
157.0990, 1659.375
158.3270, 1669.159
159.5540, 1751.987
160.7810, 1950.875
162.0080, 1825.201
163.2350, 1868.227
164.4610, 1861.078
165.6880, 1734.208
166.9140, 1647.179
168.1400, 1358.830
169.3660, 1287.741
170.5920, 1221.906
171.8180, 968.5708
173.0430, 907.0142
174.2690, 834.0825
175.4940, 786.9741
176.7190, 746.7603
177.9440, 738.9355
179.1680, 815.5015
180.3930, 860.8965
181.6170, 879.1382
182.8420, 787.0723
184.0660, 842.9185
185.2900, 840.1543
186.5140, 839.0332
187.7370, 918.8828
188.9610, 851.3789
190.1840, 930.6362
191.4070, 964.0171
192.6300, 1011.969
193.8530, 987.1470
195.0760, 977.4541
196.2980, 1165.657
197.5210, 1091.716
198.7430, 1146.206
199.9650, 1291.368
201.1870, 1364.256
202.4090, 1266.545
203.6310, 1123.773
204.8520, 982.6479
206.0730, 1092.733
207.2950, 1135.744
208.5160, 1212.445
209.7360, 1329.964
210.9570, 1405.832
212.1780, 1436.804
213.3980, 1484.065
214.6180, 1425.435
215.8380, 1280.926
217.0580, 1193.768
218.2780, 1161.688
219.4980, 928.2705
220.7170, 827.9810
221.9360, 669.8052
223.1560, 630.7285
224.3750, 537.7412
225.5930, 411.8296
226.8120, 401.3369
228.0310, 289.4238
229.2490, 366.0225
230.4670, 290.3579
231.6850, 288.4546
232.9030, 216.5786
234.1210, 183.6543
235.3380, 225.0513
236.5560, 146.8281
237.7730, 103.7676
238.9900, 167.1460
240.2070, 203.0132
241.4240, 84.76416
242.6410, 66.79004
243.8570, 16.15625
245.0730, 88.13330
246.2900, 83.61426
247.5060, 150.0205
248.7210, 284.3477
249.9370, 253.5952
251.1530, 214.7646
252.3680, 150.8564
253.5830, 208.1851
254.7980, 274.8574
256.0130, 303.9883
257.2280, 297.1816
258.4430, 169.5356
259.6570, 180.5688
260.8720, 125.3511
262.0860, 60.14893
263.3000, 68.96387
264.5130, 133.8071
265.7270, 25.95996
266.9410, 48.61084
268.1540, 41.82520
269.3670, 115.0786
270.5800, 149.6938
271.7930, 150.3853
273.0060, 171.3013
274.2190, 101.3159
275.4310, 141.2803
276.6430, 72.56152
277.8550, 14.95898
279.0670, 66.75195
280.2790, 21.90283
281.4910, 31.26318
282.7020, 112.7900
283.9140, 29.51855
285.1250, 72.04541
286.3360, 201.4854
287.5470, 163.8857
288.7570, 183.1938
289.9680, 251.3979
291.1780, 259.3481
292.3880, 251.4277
293.5990, 398.4053
294.8080, 457.2739
296.0180, 464.0283
297.2280, 529.6616
298.4370, 584.1704
299.6470, 710.5488
300.8560, 643.7949
302.0650, 746.9038
303.2740, 758.8711
304.4820, 656.6943
305.6910, 649.3730
306.8990, 714.9058
308.1070, 614.2910
309.3150, 606.5254
310.5230, 598.6050
311.7310, 556.5239
312.9390, 533.2837
314.1460, 463.8887
315.3530, 473.3398
316.5600, 276.6377
317.7670, 390.7715
318.9740, 276.7324
320.1810, 197.7207
321.3870, 200.4009
322.5930, 166.8374
323.8000, 149.0054
325.0060, 208.4727
326.2110, 202.5283
327.4170, 247.4536
328.6230, 154.0552
329.8280, 190.7505
331.0330, 169.5898
332.2380, 211.6807
333.4430, 101.6084
334.6480, 114.5894
335.8530, 147.0898
337.0570, 113.3364
338.2610, 184.3828
339.4650, 153.2910
340.6690, 154.0737
341.8730, 121.7231
343.0770, 196.2671
344.2800, 260.7007
345.4840, 286.0142
346.6870, 258.1777
347.8900, 374.0747
349.0930, 505.7837
350.2950, 384.1641
351.4980, 522.1968
352.7000, 633.9434
353.9030, 747.5010
355.1050, 764.8784
356.3070, 832.0571
357.5080, 1060.159
358.7100, 989.2178
359.9110, 1062.237
361.1130, 999.2217
362.3140, 1013.535
363.5150, 983.1206
364.7160, 994.0410
365.9160, 901.9424
367.1170, 822.6455
368.3170, 716.1816
369.5170, 732.3237
370.7170, 726.9341
371.9170, 672.4932
373.1170, 551.1831
374.3170, 515.5122
375.5160, 451.1992
376.7150, 362.8574
377.9140, 460.7515
379.1130, 445.1963
380.3120, 418.2021
381.5110, 356.0264
382.7090, 376.8633
383.9070, 433.0737
385.1060, 346.8042
386.3040, 504.1870
387.5010, 441.0405
388.6990, 442.3540
389.8970, 388.2344
391.0940, 419.7856
392.2910, 360.8843
393.4880, 362.4727
394.6850, 292.8174
395.8820, 317.8511
397.0780, 214.1074
398.2750, 319.1147
399.4710, 312.6963
400.6670, 278.5391
401.8630, 349.3408
403.0590, 261.9941
404.2540, 220.8174
405.4500, 204.9224
406.6450, 182.5400
407.8400, 188.8149
409.0350, 195.0410
410.2300, 192.4980
411.4250, 229.0024
412.6190, 200.5649
413.8140, 141.6147
415.0080, 255.5796
416.2020, 125.5898
417.3960, 167.3735
418.5900, 210.6382
419.7830, 278.4878
420.9770, 330.8174
422.1700, 391.7061
423.3630, 455.5581
424.5560, 516.3242
425.7490, 570.6240
426.9410, 642.9307
428.1340, 703.8682
429.3260, 727.2563
430.5180, 834.8569
431.7100, 885.1177
432.9020, 931.5127
434.0940, 1107.309
435.2850, 1172.109
436.4770, 1185.845
437.6680, 1150.167
438.8590, 1237.706
440.0500, 1300.244
441.2410, 1127.012
442.4310, 1088.840
443.6220, 1035.461
444.8120, 830.1440
446.0020, 694.8008
447.1920, 640.4307
448.3820, 508.0356
449.5710, 363.6152
450.7610, 281.1714
451.9500, 290.7036
453.1390, 181.2134
454.3280, 172.7012
455.5170, 101.1680
456.7060, 76.61377
457.8940, 67.82471
459.0830, 33.06055
460.2710, 14.76953
461.4590, 11.32568
462.6470, 19.29785
463.8350, 65.26465
465.0220, 57.24414
466.2100, 0.5507810
467.3970, 136.8027
468.5840, 66.82275
469.7710, 12.88770
470.9580, 61.76953
472.1440, 22.15527
473.3310, 42.29199
474.5170, 34.46045
475.7030, 0.5864260
476.8890, 26.37842
478.0750, 41.94678
479.2610, 125.5610
480.4460, 181.9150
481.6320, 245.7881
482.8170, 293.5146
484.0020, 345.2729
485.1870, 270.7822
486.3710, 310.7676
487.5560, 445.0508
488.7400, 387.4673
489.9250, 522.7959
491.1090, 499.6328
492.2930, 517.8574
493.4760, 571.7856
494.6600, 499.0532
495.8440, 542.3604
497.0270, 445.7036
498.2100, 389.0728
499.3930, 339.4731
500.5760, 293.8926
501.7580, 255.3257
502.9410, 244.7803
504.1230, 96.24707
505.3060, 155.7266
506.4880, 102.2178
507.6690, 164.7300
508.8510, 87.26660
510.0330, 148.8389
511.2140, 269.4380
512.3950, 148.0552
513.5760, 238.6909
514.7570, 267.3452
515.9380, 384.0215
517.1190, 425.7490
518.2990, 471.5122
519.4800, 678.3027
520.6600, 713.1812
521.8400, 863.1133
523.0190, 920.0967
524.1990, 1042.121
525.3790, 1157.180
526.5580, 1212.276
527.7370, 1472.400
528.9160, 1619.563
530.0950, 1576.788
531.2740, 1696.077
532.4520, 1568.992
533.6310, 1597.936
534.8090, 1596.982
535.9870, 1567.697
537.1650, 1348.107
538.3430, 1436.594
539.5200, 1291.857
540.6980, 1217.396
541.8750, 1227.960
543.0520, 1278.544
544.2290, 1246.151
545.4060, 1205.786
546.5820, 1161.327
547.7590, 1212.851
548.9350, 1159.602
550.1110, 1236.919
551.2870, 1116.673
552.4630, 1090.487
553.6390, 1062.407
554.8140, 1063.385
555.9900, 1093.289
557.1650, 1189.430
558.3400, 1056.577
559.5150, 1077.893
560.6900, 1005.279
561.8640, 882.7480
563.0390, 790.2793
564.2130, 685.8579
565.3870, 745.4976
566.5610, 755.1860
567.7350, 740.9243
568.9080, 725.5996
570.0820, 622.5786
571.2550, 593.4512
572.4280, 519.3467
573.6010, 477.4609
574.7740, 452.2090
575.9470, 422.1729
577.1190, 373.2451
578.2920, 378.1675
579.4640, 328.1948
580.6360, 290.2412
581.8080, 288.3057
582.9790, 253.3882
584.1510, 242.4878
585.3220, 279.6055
586.4940, 194.7407
587.6650, 280.8936
588.8360, 213.0645
590.0060, 302.2524
591.1770, 154.4590
592.3470, 267.6836
593.5180, 308.9272
594.6880, 566.1875
595.8580, 404.4668
597.0280, 481.7646
598.1970, 516.0801
599.3670, 599.4160
600.5360, 725.7705
601.7050, 837.1470
602.8740, 897.5454
604.0430, 935.7583
605.2120, 1044.125
606.3800, 1102.705
607.5490, 1171.178
608.7170, 1185.370
609.8850, 1112.816
611.0530, 1046.281
612.2210, 1053.382
613.3880, 1046.763
614.5560, 1026.329
615.7230, 991.2129
616.8900, 1061.210
618.0570, 1010.684
619.2240, 1161.070
620.3900, 1103.897
621.5570, 1245.827
622.7230, 1336.705
623.8890, 1490.312
625.0550, 1655.371
626.2210, 1981.850
627.3870, 1985.291
628.5520, 2350.454
629.7180, 2758.803
630.8830, 3181.312
632.0480, 3842.578
633.2130, 4405.984
634.3770, 4936.524
635.5420, 5636.386
636.7060, 6526.931
637.8710, 7073.408
639.0350, 8056.275
640.1990, 8845.955
641.3620, 9479.294
642.5260, 10095.73
643.6890, 10266.89
644.8530, 10282.13
646.0160, 10302.38
647.1790, 9718.291
648.3410, 9162.029
649.5040, 8687.352
650.6670, 7925.364
651.8290, 7139.142
652.9910, 6744.443
654.1530, 6171.763
655.3150, 5416.147
656.4770, 5166.501
657.6380, 4670.922
658.7990, 4184.935
659.9610, 3846.105
661.1220, 3588.600
662.2830, 3390.680
663.4430, 3089.522
664.6040, 2888.890
665.7640, 2802.161
666.9240, 2764.543
668.0850, 2773.695
669.2440, 2807.977
670.4040, 2936.838
671.5640, 2994.269
672.7230, 3147.687
673.8830, 3320.387
675.0420, 3426.815
676.2010, 3511.286
677.3590, 3562.812
678.5180, 3478.257
679.6770, 3416.706
680.8350, 3307.160
681.9930, 3349.618
683.1510, 3432.082
684.3090, 3441.548
685.4670, 3529.018
686.6240, 3363.494
687.7810, 3365.973
688.9390, 3314.456
690.0960, 2997.943
691.2530, 2745.434
692.4090, 2503.926
693.5660, 2145.422
694.7220, 1959.919
695.8790, 1681.924
697.0350, 1457.051
698.1910, 1285.420
699.3460, 1066.921
700.5020, 1061.423
701.6570, 931.9238
702.8130, 835.4238
703.9680, 786.9219
705.1230, 674.4194
706.2780, 596.9146
707.4320, 586.4077
708.5870, 515.8979
709.7410, 511.3857
710.8950, 443.8706
712.0490, 421.3525
713.2030, 366.8315
714.3570, 317.3066
715.5100, 387.7783
716.6640, 305.2466
717.8170, 364.7104
718.9700, 344.1709
720.1230, 324.3472
721.2760, 296.0791
722.4280, 278.5264
723.5810, 236.9692
724.7330, 165.4077
725.8850, 96.84131
727.0370, 118.8975
728.1890, 183.6934
729.3400, 137.1113
730.4920, 226.5244
731.6430, 172.9331
732.7940, 181.3350
733.9450, 172.7324
735.0960, 157.1958
736.2460, 162.5098
737.3970, 133.8896
738.5470, 141.2637
739.6970, 98.63184
740.8470, 71.99365
741.9970, 19.68652
743.1470, 44.53125
744.2970, 56.31836
745.4460, 55.76758
746.5950, 5.125488
747.7440, 19.76318
748.8930, 8.606445
750.0420, 3.362793
751.1900, 21.19678
752.3390, 20.83154
753.4870, 3.651367
754.6350, 1.931152
755.7830, 12.56689
756.9310, 2.759277
758.0780, 9.739258
759.2260, 9.742188
760.3730, 14.95752
761.5200, 2.396484
762.6670, 10.49805
763.8140, 48.09766
764.9610, 46.34863
766.1070, 40.84326
767.2530, 42.77490
768.4000, 11.74707
769.5460, 13.25635
770.6910, 24.75342
771.8370, 57.79590
772.9830, 93.88770
774.1280, 87.94482
775.2730, 38.27637
776.4180, 59.54541
777.5630, 7.866699
778.7080, 21.78662
779.8520, 18.57422
780.9970, 61.03320
782.1410, 34.63086
783.2850, 39.21631
784.4290, 7.209473
785.5730, 19.66357
786.7160, 60.15137
787.8600, 22.69531
789.0030, 17.72412
790.1460, 50.12646
791.2890, 49.51709
792.4320, 38.13770
793.5750, 88.73877
794.7170, 25.44531
795.8590, 82.19238
797.0020, 116.0093
798.1440, 72.91406
799.2850, 65.88379
800.4270, 13.91602
801.5690, 71.01709
802.7100, 4.062012
803.8510, 81.82910
804.9920, 17.70850
806.1330, 51.43213
807.2740, 27.62891
808.4140, 36.86816
809.5550, 101.8442
810.6950, 7.544434
811.8350, 98.22021
812.9750, 60.88330
814.1150, 49.53418
815.2540, 152.1719
816.3940, 115.7969
817.5330, 142.4097
818.6720, 126.0107
819.8110, 116.5996
820.9500, 154.1758
822.0880, 163.7397
823.2270, 151.2910
824.3650, 163.8301
825.5030, 241.3564
826.6410, 234.1704
827.7790, 269.8735
828.9170, 282.8623
830.0540, 306.3398
831.1920, 337.8042
832.3290, 346.2568
833.4660, 374.6963
834.6030, 372.9663
835.7390, 371.5386
836.8760, 368.9409
838.0120, 377.3311
839.1480, 381.7607
840.2840, 405.3672
841.4200, 459.4268
842.5560, 471.7676
843.6920, 500.6929
844.8270, 557.4121
845.9620, 540.7153
847.0970, 563.0068
848.2320, 606.2861
849.3670, 790.5527
850.5020, 718.8081
851.6360, 887.0522
852.7700, 858.2856
853.9040, 1084.506
855.0380, 1202.714
856.1720, 1219.911
857.3060, 1352.095
858.4390, 1446.270
859.5730, 1335.434
860.7060, 1394.585
861.8390, 1292.725
862.9720, 1360.854
864.1040, 1215.977
865.2370, 1192.107
866.3690, 1213.250
867.5010, 1295.381
868.6330, 1288.504
869.7650, 1262.638
870.8970, 1301.759
872.0290, 1339.868
873.1600, 1312.966
874.2910, 1400.062
875.4220, 1461.146
876.5530, 1634.225
877.6840, 1695.294
878.8140, 1790.356
879.9450, 1880.409
881.0750, 2023.465
882.2050, 2194.532
883.3350, 2402.579
884.4650, 2523.671
885.5950, 2665.733
886.7240, 2827.339
887.8530, 3113.411
888.9820, 3349.992
890.1110, 3470.826
891.2400, 3449.534
892.3690, 3540.524
893.4970, 3476.904
894.6260, 3519.866
895.7540, 3138.751
896.8820, 2905.705
898.0100, 2727.944
899.1370, 2476.746
900.2650, 2251.143
901.3920, 2050.591
902.5200, 1892.886
903.6470, 1810.898
904.7730, 1654.320
905.9000, 1564.006
907.0270, 1491.562
908.1530, 1322.995
909.2790, 1281.112
910.4050, 1204.557
911.5310, 1064.074
912.6570, 1114.214
913.7830, 935.1587
914.9080, 974.2256
916.0330, 732.8145
917.1580, 756.6948
918.2830, 815.4922
919.4080, 722.2979
920.5330, 748.4463
921.6570, 666.7764
922.7820, 662.5283
923.9060, 604.5981
925.0300, 630.9106
926.1540, 523.7056
927.2770, 624.4897
928.4010, 541.2168
929.5240, 539.9805
930.6470, 522.6875
931.7700, 495.8691
932.8930, 498.9561
934.0160, 493.1230
935.1380, 476.8379
936.2610, 415.1528
937.3830, 422.6895
938.5050, 403.9863
939.6270, 387.8223
940.7490, 408.8838
941.8700, 360.6689
942.9910, 381.9116
944.1130, 377.8208
945.2340, 391.5669
946.3550, 379.5327
947.4750, 378.5771
948.5960, 405.5200
949.7160, 419.5972
950.8370, 412.6597
951.9570, 533.4814
953.0770, 556.2710
954.1970, 560.0596
955.3160, 461.8486
956.4360, 490.0303
957.5550, 478.4277
958.6740, 475.2178
959.7930, 641.0078
960.9120, 671.7993
962.0310, 696.5908
963.1490, 745.0078
964.2670, 709.1763
965.3860, 737.9702
966.5040, 706.7651
967.6210, 670.5610
968.7390, 672.3579
969.8570, 712.1562
970.9740, 698.9556
972.0910, 593.7554
973.2080, 665.5576
974.3250, 723.3608
975.4420, 633.1665
976.5580, 854.9731
977.6750, 827.7817
978.7910, 845.5918
979.9070, 924.4033
981.0230, 913.2168
982.1390, 1021.033
983.2540, 1154.850
984.3700, 1176.669
985.4850, 1235.727
986.6000, 1342.581
987.7150, 1381.407
988.8300, 1439.235
989.9450, 1294.065
991.0590, 1311.897
992.1730, 1182.022
993.2880, 1069.947
994.4010, 1138.800
995.5150, 940.6416
996.6290, 919.7339
997.7420, 778.5303
998.8560, 700.7979
999.9690, 731.2354
1001.082, 598.0903
1002.195, 592.6836
1003.307, 674.3677
1004.420, 536.2295
1005.532, 518.0928
1006.645, 515.9585
1007.757, 525.7402
1008.868, 447.6108
1009.980, 535.6011
1011.092, 472.9824
1012.203, 420.3452
1013.314, 584.7485
1014.425, 475.8613
1015.536, 470.8394
1016.647, 594.1147
1017.758, 563.2988
1018.868, 601.1875
1019.978, 594.1001
1021.088, 566.9956
1022.198, 621.8921
1023.308, 573.8232
1024.418, 590.8325
1025.527, 678.1860
1026.637, 615.1733
1027.746, 702.6953
1028.855, 730.7754
1029.963, 866.5269
1031.072, 973.4663
1032.181, 853.4028
1033.289, 1003.343
1034.397, 911.3003
1035.505, 995.2764
1036.613, 937.2612
1037.721, 1031.270
1038.828, 1131.450
1039.935, 1012.538
1041.043, 1058.651
1042.150, 1027.709
1043.257, 882.7979
1044.363, 739.9165
1045.470, 724.0527
1046.576, 754.2119
1047.682, 653.3809
1048.788, 731.5537
1049.894, 472.7397
1051.000, 613.9277
1052.106, 494.1187
1053.211, 538.3110
1054.316, 515.5146
1055.421, 409.7334
1056.526, 492.9766
1057.631, 493.2344
1058.736, 422.4990
1059.840, 483.7656
1060.944, 411.0356
1062.049, 441.3081
1063.153, 395.6147
1064.256, 377.8135
1065.360, 312.2925
1066.463, 343.6890
1067.567, 350.1143
1068.670, 337.5679
1069.773, 330.0361
1070.876, 341.5063
1071.978, 286.9888
1073.081, 192.4736
1074.183, 178.9663
1075.285, 138.4824
1076.387, 145.1309
1077.489, 148.2344
1078.591, 195.1313
1079.692, 183.6987
1080.794, 200.2690
1081.895, 220.8423
1082.996, 197.4189
1084.097, 261.9985
1085.198, 144.5811
1086.298, 172.1665
1087.399, 244.7544
1088.499, 252.3457
1089.599, 176.9395
1090.699, 44.53662
1091.799, 211.1362
1092.898, 162.7383
1093.998, 249.3433
1095.097, 145.9507
1096.196, 150.5610
1097.295, 90.17432
1098.394, 84.96826
1099.492, 71.78662
1100.591, 102.0303
1101.689, 61.65430
1102.787, 79.28076
1103.885, 90.90967
1104.983, 97.54150
1106.081, 75.33887
1107.178, 19.97559
1108.275, 88.61426
1109.373, 87.25635
1110.470, 143.9009
1111.566, 35.54785
1112.663, 35.19678
1113.760, 25.84814
1114.856, 37.50244
1115.952, 14.86279
1117.048, 6.183105
1118.144, 1.474121
1119.240, 21.13330
1120.335, 72.79395
1121.431, 29.45752
1122.526, 95.12256
1123.621, 6.209961
1124.716, 0.5444340
1125.810, 8.121582
1126.905, 52.78906
1127.999, 4.541504
1129.094, 16.87354
1130.188, 72.21387
1131.282, 90.59082
1132.375, 19.98584
1133.469, 12.43604
1134.562, 77.86426
1135.656, 67.66699
1136.749, 38.19971
1137.842, 99.73486
1138.935, 30.72852
1140.027, 21.79248
1141.120, 17.68506
1142.212, 7.172363
1143.304, 6.663574
1144.396, 7.159180
1145.488, 50.65869
1146.579, 80.18652
1147.671, 84.75635
1148.762, 83.13721
1149.853, 31.96875
1150.944, 46.68896
1152.035, 24.62793
1153.126, 41.94727
1154.216, 19.26758
1155.307, 2.589355
1156.397, 4.663086
1157.487, 9.229980
1158.577, 23.45020
1159.667, 32.14453
1160.756, 10.85742
1161.846, 26.42285
1162.935, 51.70557
1164.024, 35.99072
1165.113, 35.27930
1166.201, 78.57129
1167.290, 13.12549
1168.378, 98.17578
1169.467, 47.51807
1170.555, 15.77393
1171.643, 13.08008
1172.730, 87.38672
1173.818, 58.69482
1174.905, 101.0059
1175.993, 103.3164
1177.080, 164.6284
1178.167, 99.94141
1179.254, 181.2539
1180.340, 76.57324
1181.427, 140.8994
1182.513, 214.2275
1183.599, 89.56250
1184.685, 160.9102
1185.771, 208.2798
1186.856, 196.6489
1187.942, 216.0195
1189.027, 101.3882
1190.112, 215.7563
1191.197, 224.1245
1192.282, 315.4922
1193.367, 205.8613
1194.451, 195.2314
1195.536, 159.6050
1196.620, 291.9800
1197.704, 372.3564
1198.788, 285.7373
1199.872, 192.1172
1200.955, 291.4956
1202.039, 316.8735
1203.122, 260.2520
1204.205, 365.6299
1205.288, 339.0059
1206.370, 343.3804
1207.453, 348.7515
1208.535, 348.1245
1209.618, 357.4956
1210.700, 345.2275
1211.782, 344.0703
1212.863, 312.6543
1213.945, 336.0513
1215.026, 304.4458
1216.108, 311.8384
1217.189, 259.2280
1218.270, 279.6162
1219.351, 294.0010
1220.431, 302.3828
1221.512, 221.7612
1222.592, 342.1377
1223.672, 292.5103
1224.752, 207.8809
1225.832, 235.2495
1226.911, 105.6157
1227.991, 162.9790
1229.070, 229.3389
1230.149, 102.6958
1231.228, 242.0503
1232.307, 133.4009
1233.386, 218.7480
1234.464, 156.0908
1235.543, 22.43066
1236.621, 179.7642
1237.699, 336.0947
1238.777, 87.42676
1239.855, 187.7583
1240.932, 263.0840
1242.009, 203.4043
1243.087, 186.7207
1244.164, 261.0312
1245.241, 165.3369
1246.317, 268.6357
1247.394, 200.6934
1248.470, 210.9512
1249.546, 243.2334
1250.623, 333.5098
1251.698, 207.7803
1252.774, 300.0454
1253.850, 276.0156
1254.925, 295.1836
1256.000, 446.4214
1257.076, 350.6655
1258.150, 332.6562
1259.225, 397.9380
1260.300, 469.7446
1261.374, 361.3755
1262.449, 406.9233
1263.523, 312.0513
1264.597, 359.4331
1265.670, 373.6333
1266.744, 356.8594
1267.818, 448.0449
1268.891, 486.4917
1269.964, 550.6626
1271.037, 513.8047
1272.110, 460.4521
1273.183, 573.1260
1274.255, 649.8647
1275.327, 596.7637
1276.400, 632.7910
1277.472, 600.5146
1278.543, 692.8555
1279.615, 687.9932
1280.687, 726.2129
1281.758, 845.5063
1282.829, 755.7231
1283.900, 847.0215
1284.971, 890.9766
1286.042, 936.1577
1287.112, 941.1440
1288.183, 990.7339
1289.253, 972.8672
1290.323, 985.3403
1291.393, 1029.710
1292.463, 985.2285
1293.532, 975.8975
1294.602, 978.6494
1295.671, 1068.177
1296.740, 1088.029
1297.809, 1078.010
1298.878, 1038.232
1299.946, 1027.568
1301.015, 1009.666
1302.083, 1005.093
1303.151, 1009.103
1304.219, 1106.799
1305.287, 1037.394
1306.354, 1043.598
1307.422, 1076.107
1308.489, 1024.075
1309.556, 1032.303
