##NAMES=Aenigmatite
##RRUFFID=R061088
##IDEAL CHEMISTRY=Na_4_(Fe^2+^_10_Ti^4+^_2_)O_4_[Si_12_O_36_]
##LOCALITY=Naujakasik, Greenland
##OWNER=RRUFF
##SOURCE=Michael Scott
##DESCRIPTION=Black prismatic crystals
##STATUS=The identification of this mineral has been confirmed by X-ray diffraction and chemical analysis
##URL=rruff.info/R061088
##MEASURED CHEMISTRY=(Na_1.72_Ca_0.28_)_Σ=2_(Fe^2+^_4.90_Mn_0.08_Mg_0.02_)_Σ=5_(Ti_0.85_Al_0.14_Fe^3+^_0.01_)_Σ=1_(Si_5.87_Al_0.13_)_Σ=6_O_20_
##PIN_ID=L00919
##ORIENTATION=Laser parallel to (0 -1 -1). Fiducial mark perpendicular to laser is parallel to a [1 0 0]
141.1290, 0.0000000E+00
142.3590, 6.968262
143.5880, 100.8403
144.8170, 2.029785
146.0460, 141.7725
147.2750, 139.3418
148.5030, 93.93652
149.7320, 23.45801
150.9600, 279.7139
152.1880, 357.7202
153.4160, 190.2842
154.6440, 155.4194
155.8720, 36.60596
157.0990, 22.21387
158.3270, 132.3579
159.5540, 82.89697
160.7810, 256.5996
162.0080, 327.9668
163.2350, 507.5508
164.4610, 610.2256
165.6880, 506.4600
166.9140, 397.5200
168.1400, 409.3926
169.3660, 402.7603
170.5920, 378.6533
171.8180, 285.6045
173.0430, 281.2695
174.2690, 241.2148
175.4940, 199.6191
176.7190, 207.4448
177.9440, 213.5854
179.1680, 116.7153
180.3930, 20.73047
181.6170, 99.63574
182.8420, 92.56396
184.0660, 52.21094
185.2900, 178.7661
186.5140, 349.1387
187.7370, 181.9102
188.9610, 375.7603
190.1840, 359.2524
191.4070, 378.0923
192.6300, 531.0469
193.8530, 496.0796
195.0760, 626.1855
196.2980, 510.9087
197.5210, 557.8672
198.7430, 586.6963
199.9650, 598.6807
201.1870, 542.2148
202.4090, 575.0791
203.6310, 572.5244
204.8520, 568.4507
206.0730, 668.0962
207.2950, 636.4438
208.5160, 633.6401
209.7360, 724.6855
210.9570, 762.7168
212.1780, 868.3242
213.3980, 874.9116
214.6180, 830.3955
215.8380, 740.8887
217.0580, 711.3569
218.2780, 604.8047
219.4980, 537.2139
220.7170, 563.5908
221.9360, 404.9238
223.1560, 351.9253
224.3750, 292.4233
225.5930, 163.5972
226.8120, 79.71826
228.0310, 12.78662
229.2490, 55.80127
230.4670, 6.236816
231.6850, 43.32861
232.9030, 30.52344
234.1210, 175.3037
235.3380, 45.95947
236.5560, 155.4976
237.7730, 177.3467
238.9900, 177.6987
240.2070, 138.9233
241.4240, 264.0039
242.6410, 334.8569
243.8570, 297.5957
245.0730, 357.2637
246.2900, 373.4756
247.5060, 346.6045
248.7210, 358.4663
249.9370, 314.6216
251.1530, 290.6704
252.3680, 339.6567
253.5830, 356.7515
254.7980, 322.7896
256.0130, 367.7759
257.2280, 402.1694
258.4430, 415.6323
259.6570, 359.1816
260.8720, 394.9507
262.0860, 401.5498
263.3000, 402.8784
264.5130, 444.4551
265.7270, 392.9385
266.9410, 429.8462
268.1540, 429.8350
269.3670, 417.7573
270.5800, 557.1982
271.7930, 474.7783
273.0060, 552.6304
274.2190, 594.7954
275.4310, 581.0229
276.6430, 633.1084
277.8550, 709.3223
279.0670, 814.3359
280.2790, 810.2021
281.4910, 896.6494
282.7020, 922.0806
283.9140, 1000.081
285.1250, 1076.140
286.3360, 1167.155
287.5470, 1228.892
288.7570, 1309.691
289.9680, 1353.264
291.1780, 1498.810
292.3880, 1403.986
293.5990, 1516.040
294.8080, 1546.811
296.0180, 1680.979
297.2280, 1577.599
298.4370, 1659.113
299.6470, 1720.532
300.8560, 1640.840
302.0650, 1728.415
303.2740, 1736.699
304.4820, 1740.628
305.6910, 1809.264
306.8990, 1854.182
308.1070, 1793.788
309.3150, 1854.320
310.5230, 1861.801
311.7310, 1905.242
312.9390, 1695.648
314.1460, 1679.018
315.3530, 1549.350
316.5600, 1499.647
317.7670, 1462.909
318.9740, 1341.136
320.1810, 1277.306
321.3870, 1032.265
322.5930, 1056.222
323.8000, 859.1699
325.0060, 744.6777
326.2110, 671.9629
327.4170, 550.2700
328.6230, 492.0498
329.8280, 472.8110
331.0330, 396.3252
332.2380, 389.0674
333.4430, 247.3101
334.6480, 268.8936
335.8530, 190.4414
337.0570, 187.9561
338.2610, 114.4438
339.4650, 130.9038
340.6690, 61.33643
341.8730, 77.73877
343.0770, 113.1123
344.2800, 184.4570
345.4840, 45.77295
346.6870, 95.05469
347.8900, 85.30322
349.0930, 53.51562
350.2950, 68.69141
351.4980, 63.83203
352.7000, 51.93848
353.9030, 117.0098
355.1050, 105.0488
356.3070, 161.0571
357.5080, 168.0347
358.7100, 107.9834
359.9110, 70.90234
361.1130, 70.62451
362.3140, 98.64746
363.5150, 68.47461
364.7160, 78.27100
365.9160, 102.0366
367.1170, 66.77344
368.3170, 16.51904
369.5170, 49.14697
370.7170, 81.70996
371.9170, 16.14600
373.1170, 9.729004
374.3170, 46.49365
375.5160, 12.16113
376.7150, 37.18750
377.9140, 70.45410
379.1130, 30.57617
380.3120, 68.67041
381.5110, 122.9648
382.7090, 71.23291
383.9070, 76.55176
385.1060, 31.09082
386.3040, 2.842285
387.5010, 13.19141
388.6990, 6.730957
389.8970, 13.55859
391.0940, 30.50244
392.2910, 37.26465
393.4880, 71.03809
394.6850, 108.7832
395.8820, 115.4966
397.0780, 30.17871
398.2750, 155.8271
399.4710, 35.55420
400.6670, 123.0044
401.8630, 174.4854
403.0590, 62.90479
404.2540, 205.2651
405.4500, 166.5552
406.6450, 173.7471
407.8400, 169.8579
409.0350, 182.9248
410.2300, 176.9570
411.4250, 161.9648
412.6190, 153.9507
413.8140, 227.9185
415.0080, 117.8677
416.2020, 138.7832
417.3960, 246.6816
418.5900, 226.5664
419.7830, 250.4390
420.9770, 260.2988
422.1700, 216.1460
423.3630, 268.9810
424.5560, 268.7354
425.7490, 337.6177
426.9410, 299.4214
428.1340, 371.2158
429.3260, 357.0005
430.5180, 342.7769
431.7100, 294.5205
432.9020, 252.2368
434.0940, 312.9253
435.2850, 252.5913
436.4770, 344.4619
437.6680, 377.5679
438.8590, 392.4614
440.0500, 390.1187
441.2410, 318.9907
442.4310, 336.6421
443.6220, 318.6777
444.8120, 299.2397
446.0020, 329.3252
447.1920, 268.1021
448.3820, 297.3633
449.5710, 290.4849
450.7610, 300.1138
451.9500, 273.9263
453.1390, 258.7793
454.3280, 279.7573
455.5170, 281.1289
456.7060, 251.2666
457.8940, 261.8501
459.0830, 199.1953
460.2710, 200.7769
461.4590, 230.0591
462.6470, 201.3945
463.8350, 203.6445
465.0220, 265.8164
466.2100, 237.9717
467.3970, 247.1113
468.5840, 223.2363
469.7710, 246.3521
470.9580, 110.4546
472.1440, 207.5747
473.3310, 169.6841
474.5170, 140.7783
475.7030, 266.8652
476.8890, 263.6982
478.0750, 275.6167
479.2610, 234.2021
480.4460, 346.7812
481.6320, 357.0537
482.8170, 336.4175
484.0020, 424.2759
485.1870, 414.2827
486.3710, 336.5762
487.5560, 366.1885
488.7400, 438.9023
489.9250, 415.0718
491.1090, 430.1626
492.2930, 457.9858
493.4760, 368.9556
494.6600, 415.8965
495.8440, 396.7388
497.0270, 393.0825
498.2100, 272.3716
499.3930, 443.8867
500.5760, 304.4224
501.7580, 482.6987
502.9410, 432.7031
504.1230, 392.7061
505.3060, 427.9424
506.4880, 499.9268
507.6690, 539.9893
508.8510, 564.7920
510.0330, 500.2344
511.2140, 578.8579
512.3950, 586.7114
513.5760, 541.2666
514.7570, 623.9648
515.9380, 677.0952
517.1190, 684.9624
518.2990, 739.0439
519.4800, 737.6938
520.6600, 744.2803
521.8400, 853.3853
523.0190, 868.1230
524.1990, 859.4717
525.3790, 962.0859
526.5580, 1061.388
527.7370, 1092.564
528.9160, 1067.891
530.0950, 1114.231
531.2740, 1169.780
532.4520, 1099.460
533.6310, 1132.347
534.8090, 982.2944
535.9870, 1041.520
537.1650, 960.9028
538.3430, 865.3145
539.5200, 865.2197
540.6980, 816.8579
541.8750, 809.9492
543.0520, 802.3940
544.2290, 820.0557
545.4060, 844.2534
546.5820, 765.0483
547.7590, 709.6846
548.9350, 717.3540
550.1110, 780.0112
551.2870, 671.7266
552.4630, 817.4224
553.6390, 716.0601
554.8140, 805.6685
555.9900, 819.5918
557.1650, 894.0586
558.3400, 873.5923
559.5150, 883.5454
560.6900, 822.4707
561.8640, 814.3950
563.0390, 797.3179
564.2130, 737.2266
565.3870, 761.1475
566.5610, 695.0674
567.7350, 681.9858
568.9080, 663.9033
570.0820, 547.8193
571.2550, 512.7354
572.4280, 533.6499
573.6010, 481.5640
574.7740, 487.4771
575.9470, 374.3896
577.1190, 306.3013
578.2920, 321.2124
579.4640, 345.1240
580.6360, 237.0342
581.8080, 194.9453
582.9790, 245.8560
584.1510, 147.7661
585.3220, 202.6768
586.4940, 134.5879
587.6650, 31.49854
588.8360, 77.40918
590.0060, 123.3203
591.1770, 9.232910
592.3470, 7.145020
593.5180, 47.05762
594.6880, 22.02881
595.8580, 32.11816
597.0280, 30.21240
598.1970, 17.68896
599.3670, 63.59082
600.5360, 93.49414
601.7050, 108.7124
602.8740, 33.30322
604.0430, 110.2100
605.2120, 71.11670
606.3800, 51.02539
607.5490, 68.93555
608.7170, 32.84668
609.8850, 50.07129
611.0530, 140.6733
612.2210, 96.38770
613.3880, 143.3062
614.5560, 227.2246
615.7230, 169.6304
616.8900, 205.9634
618.0570, 217.2471
619.2240, 226.5337
620.3900, 283.9180
621.5570, 316.4087
622.7230, 407.1074
623.8890, 470.9438
625.0550, 510.0117
626.2210, 422.0190
627.3870, 513.0498
628.5520, 574.3506
629.7180, 693.3760
630.8830, 719.9600
632.0480, 688.7134
633.2130, 809.2144
634.3770, 843.2686
635.5420, 919.6904
636.7060, 1162.666
637.8710, 1231.384
639.0350, 1309.412
640.1990, 1502.406
641.3620, 1510.402
642.5260, 1707.252
643.6890, 1807.447
644.8530, 1905.141
646.0160, 1919.186
647.1790, 1999.196
648.3410, 2203.205
649.5040, 2176.303
650.6670, 2311.465
651.8290, 2230.497
652.9910, 2419.688
654.1530, 2369.503
655.3150, 2447.582
656.4770, 2439.469
657.6380, 2450.581
658.7990, 2414.702
659.9610, 2442.086
661.1220, 2500.005
662.2830, 2525.186
663.4430, 2523.523
664.6040, 2653.769
665.7640, 2744.039
666.9240, 2779.157
668.0850, 2796.646
669.2440, 2882.964
670.4040, 2924.291
671.5640, 2973.624
672.7230, 3115.960
673.8830, 3064.298
675.0420, 3121.640
676.2010, 3241.981
677.3590, 3103.325
678.5180, 2924.668
679.6770, 2955.012
680.8350, 2828.358
681.9930, 2812.345
683.1510, 2886.079
684.3090, 2746.438
685.4670, 2798.799
686.6240, 2674.159
687.7810, 2579.519
688.9390, 2608.876
690.0960, 2516.234
691.2530, 2424.591
692.4090, 2250.946
693.5660, 2197.302
694.7220, 2120.655
695.8790, 1920.008
697.0350, 1786.361
698.1910, 1699.713
699.3460, 1474.063
700.5020, 1464.412
701.6570, 1365.758
702.8130, 1169.103
703.9680, 1097.445
705.1230, 1078.786
706.2780, 972.1255
707.4320, 929.6831
708.5870, 883.7983
709.7410, 811.1318
710.8950, 703.4634
712.0490, 644.7935
713.2030, 589.1216
714.3570, 533.4648
715.5100, 482.0605
716.6640, 469.0947
717.8170, 411.4150
718.9700, 401.7334
720.1230, 432.0503
721.2760, 372.3652
722.4280, 450.6782
723.5810, 404.9893
724.7330, 390.2983
725.8850, 423.6060
727.0370, 340.9121
728.1890, 270.2158
729.3400, 318.5176
730.4920, 460.8184
731.6430, 364.1167
732.7940, 344.4136
733.9450, 378.3823
735.0960, 346.1050
736.2460, 395.8760
737.3970, 380.1660
738.5470, 295.4546
739.6970, 244.7417
740.8470, 244.0278
741.9970, 234.3115
743.1470, 145.3696
744.2970, 168.7705
745.4460, 173.9971
746.5950, 162.0098
747.7440, 81.25537
748.8930, 89.29492
750.0420, 61.74951
751.1900, 32.75830
752.3390, 53.29346
753.4870, 17.45020
754.6350, 2.296875
755.7830, 14.09229
756.9310, 13.95947
758.0780, 47.27393
759.2260, 32.85693
760.3730, 115.6338
761.5200, 5.541504
762.6670, 57.45947
763.8140, 40.41602
764.9610, 104.4009
766.1070, 4.550781
767.2530, 16.49756
768.4000, 24.55811
769.5460, 44.63477
770.6910, 47.74219
771.8370, 56.50781
772.9830, 46.38281
774.1280, 39.27100
775.2730, 2.509766
776.4180, 20.24219
777.5630, 70.99268
778.7080, 35.98682
779.8520, 21.51074
780.9970, 10.78125
782.1410, 19.06543
783.2850, 16.63281
784.4290, 66.32959
785.5730, 87.97510
786.7160, 9.333008
787.8600, 58.70312
789.0030, 91.88867
790.1460, 7.479492
791.2890, 36.93359
792.4320, 67.62695
793.5750, 85.81445
794.7170, 20.69287
795.8590, 79.19824
797.0020, 78.70215
798.1440, 94.50830
799.2850, 140.8901
800.4270, 6.205566
801.5690, 125.7007
802.7100, 22.33789
803.8510, 69.10986
804.9920, 31.17480
806.1330, 121.6616
807.2740, 105.1475
808.4140, 68.63037
809.5550, 51.11182
810.6950, 67.59082
811.8350, 131.0684
812.9750, 189.5435
814.1150, 141.0171
815.2540, 139.4883
816.3940, 158.9590
817.5330, 78.42676
818.6720, 10.89355
819.8110, 123.3579
820.9500, 223.8213
822.0880, 109.2817
823.2270, 94.74170
824.3650, 112.1987
825.5030, 176.6548
826.6410, 110.1089
827.7790, 143.5615
828.9170, 151.0127
830.0540, 213.4629
831.1920, 230.9116
832.3290, 155.3760
833.4660, 100.8389
834.6030, 190.2998
835.7390, 205.7607
836.8760, 218.2192
838.0120, 270.6802
839.1480, 300.1440
840.2840, 212.6084
841.4200, 236.0771
842.5560, 259.5430
843.6920, 236.0093
844.8270, 263.0552
845.9620, 249.9380
847.0970, 314.4019
848.2320, 337.8643
849.3670, 431.3257
850.5020, 371.7881
851.6360, 414.2495
852.7700, 365.7109
853.9040, 419.1709
855.0380, 449.6309
856.1720, 478.0918
857.3060, 433.5566
858.4390, 491.0234
859.5730, 433.4893
860.7060, 524.9639
861.8390, 424.4375
862.9720, 526.9150
864.1040, 555.3950
865.2370, 454.8740
866.3690, 531.3770
867.5010, 494.8804
868.6330, 477.3833
869.7650, 586.8862
870.8970, 546.3916
872.0290, 584.8999
873.1600, 608.8447
874.2910, 555.9219
875.4220, 624.4336
876.5530, 598.9453
877.6840, 588.4658
878.8140, 615.9971
879.9450, 699.5283
881.0750, 715.0605
882.2050, 710.6074
883.3350, 708.1553
884.4650, 732.6895
885.5950, 735.9995
886.7240, 790.9155
887.8530, 756.5039
888.9820, 810.0947
890.1110, 803.1440
891.2400, 911.3389
892.3690, 986.5928
893.4970, 886.8535
894.6260, 823.0215
895.7540, 964.0879
896.8820, 976.9521
898.0100, 1043.684
899.1370, 955.2002
900.2650, 947.7842
901.3920, 1058.352
902.5200, 1021.654
903.6470, 1159.241
904.7730, 1196.824
905.9000, 1117.150
907.0270, 1149.284
908.1530, 1219.874
909.2790, 1161.104
910.4050, 1255.789
911.5310, 1163.738
912.6570, 1137.385
913.7830, 1073.071
914.9080, 1081.763
916.0330, 1077.606
917.1580, 977.1138
918.2830, 992.1313
919.4080, 933.8052
920.5330, 905.2578
921.6570, 953.2476
922.7820, 859.8926
923.9060, 842.4829
925.0300, 842.2222
926.1540, 720.8120
927.2770, 801.8140
928.4010, 843.5713
929.5240, 723.5381
930.6470, 869.3091
931.7700, 711.0859
932.8930, 841.8701
934.0160, 863.6602
935.1380, 808.4580
936.2610, 832.1289
937.3830, 825.9404
938.5050, 834.7578
939.6270, 846.5825
940.7490, 785.4146
941.8700, 849.2529
942.9910, 908.0986
944.1130, 806.9517
945.2340, 966.8120
946.3550, 884.6787
947.4750, 930.5532
948.5960, 998.4341
949.7160, 1128.322
950.8370, 1083.291
951.9570, 1099.193
953.0770, 1160.104
954.1970, 1143.020
955.3160, 1094.945
956.4360, 1083.876
957.5550, 995.8149
958.6740, 1134.760
959.7930, 1231.715
960.9120, 1184.676
962.0310, 1243.643
963.1490, 1211.684
964.2670, 1194.667
965.3860, 1264.657
966.5040, 1184.563
967.6210, 1186.577
968.7390, 1242.597
969.8570, 1226.625
970.9740, 1202.660
972.0910, 1193.345
973.2080, 1236.151
974.3250, 1259.540
975.4420, 1378.540
976.5580, 1342.611
977.6750, 1390.689
978.7910, 1389.783
979.9070, 1387.885
981.0230, 1426.542
982.1390, 1448.211
983.2540, 1475.233
984.3700, 1514.530
985.4850, 1528.680
986.6000, 1532.837
987.7150, 1403.002
988.8300, 1402.174
989.9450, 1361.648
991.0590, 1273.459
992.1730, 1278.175
993.2880, 1164.376
994.4010, 1149.597
995.5150, 1045.569
996.6290, 1088.495
997.7420, 1047.153
998.8560, 1019.390
999.9690, 967.1084
1001.082, 989.3628
1002.195, 911.6235
1003.307, 956.8955
1004.420, 1049.174
1005.532, 976.4585
1006.645, 961.7500
1007.757, 1005.048
1008.868, 990.3525
1009.980, 1006.664
1011.092, 1158.873
1012.203, 1025.363
1013.314, 1164.694
1014.425, 1012.031
1015.536, 1248.806
1016.647, 1145.167
1017.758, 1134.393
1018.868, 1156.122
1019.978, 1191.506
1021.088, 1119.896
1022.198, 1102.290
1023.308, 1094.730
1024.418, 1056.016
1025.527, 1029.959
1026.637, 1105.820
1027.746, 1041.265
1028.855, 1157.730
1029.963, 1159.213
1031.072, 1119.734
1032.181, 1133.842
1033.289, 1159.396
1034.397, 1112.970
1035.505, 1117.579
1036.613, 1134.194
1037.721, 1078.815
1038.828, 1103.451
1039.935, 977.1069
1041.043, 966.7832
1042.150, 967.4824
1043.257, 849.2017
1044.363, 866.9395
1045.470, 875.6855
1046.576, 666.4370
1047.682, 712.1929
1048.788, 528.9536
1049.894, 568.7280
1051.000, 561.5122
1052.106, 515.3091
1053.211, 498.1118
1054.316, 462.9175
1055.421, 421.7544
1056.526, 421.6011
1057.631, 297.4707
1058.736, 258.3442
1059.840, 271.2231
1060.944, 293.1191
1062.049, 270.0195
1063.153, 266.3438
1064.256, 285.8828
1065.360, 216.8208
1066.463, 180.7627
1067.567, 136.7080
1068.670, 110.6572
1069.773, 92.68945
1070.876, 58.86279
1071.978, 78.53320
1073.081, 28.49951
1074.183, 33.46924
1075.285, 66.44238
1076.387, 8.418945
1077.489, 33.39941
1078.591, 68.38281
1079.692, 64.36963
1080.794, 19.35986
1081.895, 131.3535
1082.996, 4.649414
1084.097, 78.34961
1085.198, 126.3521
1086.298, 68.35693
1087.399, 55.36572
1088.499, 33.37695
1089.599, 22.39160
1090.699, 75.40869
1091.799, 28.42920
1092.898, 55.45166
1093.998, 54.47705
1095.097, 3.456055
1096.196, 49.57373
1097.295, 29.60596
1098.394, 74.35938
1099.492, 68.41699
1100.591, 14.42236
1101.689, 25.42969
1102.787, 77.43896
1103.885, 17.52441
1104.983, 19.51709
1106.081, 10.47461
1107.178, 22.47510
1108.275, 48.51709
1109.373, 16.51123
1110.470, 36.35449
1111.566, 59.54639
1112.663, 44.64453
1113.760, 22.54541
1114.856, 53.54736
1115.952, 4.449219
1117.048, 19.40479
1118.144, 31.14893
1119.240, 45.44678
1120.335, 64.52051
1121.431, 5.473633
1122.526, 11.46875
1123.621, 9.432617
1124.716, 41.61572
1125.810, 29.39111
1126.905, 72.70117
1127.999, 11.32080
1129.094, 6.349121
1130.188, 54.61816
1131.282, 86.61963
1132.375, 4.333496
1133.469, 24.25439
1134.562, 65.09668
1135.656, 39.01758
1136.749, 28.98340
1137.842, 41.94580
1138.935, 25.82617
1140.027, 30.74756
1141.120, 12.66846
1142.212, 26.41064
1143.304, 30.50684
1144.396, 26.37744
1145.488, 58.26074
1146.579, 49.85596
1147.671, 49.74756
1148.762, 118.2930
1149.853, 14.48389
1150.944, 80.28662
1152.035, 39.05713
1153.126, 16.83154
1154.216, 10.60498
1155.307, 37.62012
1156.397, 15.87207
1157.487, 14.15479
1158.577, 26.58057
1159.667, 20.29883
1160.756, 65.01611
1161.846, 72.73193
1162.935, 15.55420
1164.024, 60.14404
1165.113, 52.85352
1166.201, 85.56201
1167.290, 133.2686
1168.378, 89.97314
1169.467, 47.67578
1170.555, 131.6021
1171.643, 181.3765
1172.730, 212.9570
1173.818, 227.3311
1174.905, 172.9292
1175.993, 207.3281
1177.080, 206.1309
1178.167, 203.4727
1179.254, 250.3530
1180.340, 205.9316
1181.427, 252.0215
1182.513, 122.9521
1183.599, 166.6274
1184.685, 172.2998
1185.771, 173.9683
1186.856, 237.6338
1187.942, 139.2959
1189.027, 262.9541
1190.112, 155.6089
1191.197, 104.2598
1192.282, 151.9072
1193.367, 150.5513
1194.451, 208.1929
1195.536, 228.8306
1196.620, 138.4644
1197.704, 251.0938
1198.788, 221.7266
1199.872, 177.3560
1200.955, 207.9805
1202.039, 153.6030
1203.122, 162.4058
1204.205, 181.8364
1205.288, 160.4463
1206.370, 160.0527
1207.453, 156.6548
1208.535, 188.2524
1209.618, 178.8457
1210.700, 174.4370
1211.782, 149.0273
1212.863, 152.6143
1213.945, 169.1230
1215.026, 200.7012
1216.108, 229.2739
1217.189, 102.8423
1218.270, 83.40771
1219.351, 127.9702
1220.431, 215.5288
1221.512, 167.0840
1222.592, 208.6348
1223.672, 153.1802
1224.752, 42.72168
1225.832, 152.1938
1226.911, 76.72510
1227.991, 164.2510
1229.070, 11.13525
1230.149, 158.3657
1231.228, 164.8623
1232.307, 146.3540
1233.386, 45.84131
1234.464, 61.67969
1235.543, 41.40039
1236.621, 113.5396
1237.699, 207.0708
1238.777, 157.5327
1239.855, 13.01025
1240.932, 21.42627
1242.009, 62.85547
1243.087, 154.2803
1244.164, 121.6997
1245.241, 143.1147
1246.317, 28.64160
1247.394, 119.7388
1248.470, 46.11426
1249.546, 38.48389
1250.623, 78.84814
1251.698, 54.91943
1252.774, 45.65625
1253.850, 41.48975
1254.925, 89.83936
1256.000, 27.41406
1257.076, 110.7529
1258.150, 128.3877
1259.225, 112.2915
1260.300, 2.620117
1261.374, 41.46436
1262.449, 77.77588
1263.523, 1.916992
1264.597, 79.37598
1265.670, 39.66553
1266.744, 94.94971
1267.818, 84.22900
1268.891, 111.5044
1269.964, 121.7754
1271.037, 116.1084
1272.110, 75.47803
1273.183, 87.56836
1274.255, 99.81934
1275.327, 76.06543
1276.400, 34.12646
1277.472, 7.914551
1278.543, 33.42920
1279.615, 182.2690
1280.687, 165.4551
1281.758, 125.8994
1282.829, 210.1533
1283.900, 181.8252
1284.971, 66.11719
1286.042, 114.8530
1287.112, 207.7310
1288.183, 99.88135
1289.253, 133.1670
1290.323, 157.3096
1291.393, 261.4468
1292.463, 186.0542
1293.532, 221.3994
1294.602, 186.6011
1295.671, 244.9155
1296.740, 175.0933
1297.809, 206.2090
1298.878, 188.5215
1299.946, 239.4883
1301.015, 273.1602
1302.083, 288.8003
1303.151, 235.5933
1304.219, 271.3359
1305.287, 271.4741
1306.354, 270.0254
1307.422, 318.1289
1308.489, 275.0786
1309.556, 322.3521
1310.623, 333.5913
1311.690, 361.7886
