##NAMES=Aenigmatite
##RRUFFID=R061088
##IDEAL CHEMISTRY=Na_4_(Fe^2+^_10_Ti^4+^_2_)O_4_[Si_12_O_36_]
##LOCALITY=Naujakasik, Greenland
##OWNER=RRUFF
##SOURCE=Michael Scott
##DESCRIPTION=Black prismatic crystals
##STATUS=The identification of this mineral has been confirmed by X-ray diffraction and chemical analysis
##URL=rruff.info/R061088
##MEASURED CHEMISTRY=(Na_1.72_Ca_0.28_)_Σ=2_(Fe^2+^_4.90_Mn_0.08_Mg_0.02_)_Σ=5_(Ti_0.85_Al_0.14_Fe^3+^_0.01_)_Σ=1_(Si_5.87_Al_0.13_)_Σ=6_O_20_
##PIN_ID=L01498
##ORIENTATION=Laser parallel to -c* (0 0 -1). Fiducial mark perpendicular to laser is parallel to a [1 0 0]
137.4400, 0.0000000E+00
138.6700, 46.25977
139.9000, 64.42578
141.1290, 177.8350
142.3590, 156.6885
143.5880, 179.9580
144.8170, 235.0684
146.0460, 410.4756
147.2750, 618.0537
148.5030, 530.7168
149.7320, 792.4658
150.9600, 1032.002
152.1880, 1063.884
153.4160, 1173.793
154.6440, 1098.512
155.8720, 1145.501
157.0990, 1113.511
158.3270, 1152.795
159.5540, 1249.086
160.7810, 1325.593
162.0080, 1439.715
163.2350, 1505.370
164.4610, 1394.521
165.6880, 1394.866
166.9140, 1215.229
168.1400, 931.7441
169.3660, 921.6465
170.5920, 687.3682
171.8180, 603.0459
173.0430, 414.2964
174.2690, 251.0234
175.4940, 215.8081
176.7190, 105.4458
177.9440, 106.9351
179.1680, 27.66064
180.3930, 20.30469
181.6170, 77.24268
182.8420, 122.1084
184.0660, 78.30420
185.2900, 13.97852
186.5140, 343.9087
187.7370, 363.0728
188.9610, 461.8140
190.1840, 536.1914
191.4070, 728.3486
192.6300, 724.7998
193.8530, 829.3574
195.0760, 901.6665
196.2980, 785.7134
197.5210, 835.2314
198.7430, 969.2114
199.9650, 1015.641
201.1870, 1092.436
202.4090, 1023.775
203.6310, 896.7041
204.8520, 642.4399
206.0730, 635.7422
207.2950, 572.4370
208.5160, 666.2119
209.7360, 717.3379
210.9570, 709.5415
212.1780, 808.8633
213.3980, 836.1899
214.6180, 826.1260
215.8380, 783.5996
217.0580, 788.6646
218.2780, 781.1431
219.4980, 783.9185
220.7170, 757.9795
221.9360, 698.4209
223.1560, 611.6973
224.3750, 525.9131
225.5930, 478.9316
226.8120, 460.3867
228.0310, 400.5547
229.2490, 386.8804
230.4670, 402.2930
231.6850, 327.3691
232.9030, 331.6738
234.1210, 247.2676
235.3380, 304.1489
236.5560, 269.7886
237.7730, 245.7969
238.9900, 242.4707
240.2070, 285.5557
241.4240, 233.3306
242.6410, 267.3613
243.8570, 254.8901
245.0730, 240.4492
246.2900, 250.2964
247.5060, 260.3799
248.7210, 274.0713
249.9370, 264.2271
251.1530, 253.1606
252.3680, 239.9312
253.5830, 195.3408
254.7980, 205.0469
256.0130, 196.6772
257.2280, 171.1909
258.4430, 77.82568
259.6570, 72.25195
260.8720, 31.18994
262.0860, 11.51465
263.3000, 5.217773
264.5130, 89.06494
265.7270, 46.68115
266.9410, 66.74512
268.1540, 3.973633
269.3670, 4.888184
270.5800, 35.96436
271.7930, 125.7637
273.0060, 129.6445
274.2190, 48.37549
275.4310, 5.580566
276.6430, 60.06689
277.8550, 108.1362
279.0670, 35.70752
280.2790, 71.26709
281.4910, 15.79346
282.7020, 65.35449
283.9140, 46.86523
285.1250, 93.53125
286.3360, 97.28906
287.5470, 170.0337
288.7570, 242.7148
289.9680, 288.2915
291.1780, 245.7378
292.3880, 243.0391
293.5990, 219.1890
294.8080, 342.1592
296.0180, 428.9199
297.2280, 346.4902
298.4370, 406.8770
299.6470, 393.0874
300.8560, 380.1304
302.0650, 331.0127
303.2740, 437.7227
304.4820, 515.1733
305.6910, 473.2231
306.8990, 435.8779
308.1070, 431.3750
309.3150, 375.9072
310.5230, 348.4619
311.7310, 321.4556
312.9390, 257.7524
314.1460, 299.8120
315.3530, 229.7456
316.5600, 254.5088
317.7670, 172.1069
318.9740, 84.46680
320.1810, 93.80615
321.3870, 132.9629
322.5930, 144.6812
323.8000, 123.4082
325.0060, 24.28076
326.2110, 26.37256
327.4170, 18.83350
328.6230, 101.4604
329.8280, 33.25244
331.0330, 96.84668
332.2380, 29.32275
333.4430, 37.02246
334.6480, 46.79932
335.8530, 93.80469
337.0570, 51.00146
338.2610, 71.75342
339.4650, 67.90918
340.6690, 24.61572
341.8730, 24.51855
343.0770, 30.50781
344.2800, 151.3252
345.4840, 61.92920
346.6870, 275.2617
347.8900, 179.3770
349.0930, 368.2993
350.2950, 413.9502
351.4980, 405.3315
352.7000, 394.5771
353.9030, 458.7139
355.1050, 520.7188
356.3070, 532.6221
357.5080, 647.4375
358.7100, 755.1816
359.9110, 627.8608
361.1130, 742.4731
362.3140, 775.0269
363.5150, 663.5239
364.7160, 614.9639
365.9160, 668.3452
367.1170, 606.6777
368.3170, 617.9556
369.5170, 552.1758
370.7170, 623.1489
371.9170, 542.9844
373.1170, 589.5049
374.3170, 467.8818
375.5160, 580.2515
376.7150, 388.2129
377.9140, 445.0557
379.1130, 406.2676
380.3120, 394.5488
381.5110, 399.5269
382.7090, 418.0293
383.9070, 413.0332
385.1060, 427.6997
386.3040, 417.6719
387.5010, 378.8906
388.6990, 367.2490
389.8970, 355.6660
391.0940, 367.9424
392.2910, 354.0269
393.4880, 381.2129
394.6850, 412.3047
395.8820, 399.2905
397.0780, 316.1553
398.2750, 282.6343
399.4710, 285.1831
400.6670, 321.6504
401.8630, 250.8926
403.0590, 215.6782
404.2540, 245.3403
405.4500, 205.6577
406.6450, 206.6475
407.8400, 157.0693
409.0350, 131.2666
410.2300, 136.3003
411.4250, 136.3809
412.6190, 109.1274
413.8140, 188.7627
415.0080, 141.4883
416.2020, 156.6167
417.3960, 212.5430
418.5900, 79.61377
419.7830, 196.1079
420.9770, 221.7671
422.1700, 154.2505
423.3630, 296.3003
424.5560, 302.2847
425.7490, 344.7524
426.9410, 397.7041
428.1340, 440.2051
429.3260, 388.4858
430.5180, 459.2998
431.7100, 443.9014
432.9020, 514.0522
434.0940, 464.5542
435.2850, 444.8184
436.4770, 483.0117
437.6680, 565.0464
438.8590, 507.5391
440.0500, 414.3169
441.2410, 470.9590
442.4310, 357.6133
443.6220, 359.9482
444.8120, 254.4146
446.0020, 272.3945
447.1920, 305.5010
448.3820, 263.2983
449.5710, 303.8750
450.7610, 206.2524
451.9500, 173.5776
453.1390, 127.6211
454.3280, 71.50781
455.5170, 61.23975
456.7060, 82.66357
457.8940, 76.22314
459.0830, 78.45068
460.2710, 77.78271
461.4590, 93.48682
462.6470, 56.33740
463.8350, 59.27686
465.0220, 33.05859
466.2100, 3.011230
467.3970, 33.17139
468.5840, 28.69873
469.7710, 71.37061
470.9580, 54.71631
472.1440, 73.13916
473.3310, 164.8657
474.5170, 111.6172
475.7030, 181.6392
476.8890, 128.9565
478.0750, 281.9189
479.2610, 247.9521
480.4460, 370.7061
481.6320, 302.1953
482.8170, 266.9619
484.0020, 333.4800
485.1870, 340.6606
486.3710, 447.9946
487.5560, 382.6382
488.7400, 402.4902
489.9250, 504.7910
491.1090, 464.7021
492.2930, 528.4297
493.4760, 537.3672
494.6600, 616.2705
495.8440, 646.1284
497.0270, 532.2544
498.2100, 495.4858
499.3930, 529.7075
500.5760, 610.9268
501.7580, 561.1431
502.9410, 618.3701
504.1230, 537.5918
505.3060, 458.8188
506.4880, 618.0444
507.6690, 619.2759
508.8510, 529.5000
510.0330, 661.7178
511.2140, 565.9502
512.3950, 543.1758
513.5760, 560.3965
514.7570, 610.6133
515.9380, 651.8262
517.1190, 608.0366
518.2990, 705.2446
519.4800, 693.2568
520.6600, 767.4644
521.8400, 671.5791
523.0190, 933.6597
524.1990, 838.7773
525.3790, 886.9917
526.5580, 1068.207
527.7370, 981.4409
528.9160, 948.6836
530.0950, 1031.819
531.2740, 1127.928
532.4520, 1081.011
533.6310, 1120.167
534.8090, 1179.287
535.9870, 1073.543
537.1650, 1171.839
538.3430, 1177.143
539.5200, 1119.192
540.6980, 1098.127
541.8750, 1161.097
543.0520, 1174.245
544.2290, 1094.124
545.4060, 1186.894
546.5820, 1155.824
547.7590, 1159.639
548.9350, 1049.525
550.1110, 1089.271
551.2870, 983.0127
552.4630, 1050.819
553.6390, 1078.722
554.8140, 946.5688
555.9900, 1045.811
557.1650, 993.9336
558.3400, 819.2422
559.5150, 760.9097
560.6900, 865.1045
561.8640, 669.8413
563.0390, 634.7236
564.2130, 662.3540
565.3870, 499.3213
566.5610, 564.3071
567.7350, 490.3252
568.9080, 430.3613
570.0820, 427.4170
571.2550, 319.4893
572.4280, 349.5786
573.6010, 139.6812
574.7740, 185.7954
575.9470, 154.9209
577.1190, 101.0586
578.2920, 87.20898
579.4640, 26.37256
580.6360, 59.45264
581.8080, 22.27734
582.9790, 5.093262
584.1510, 53.89893
585.3220, 97.70215
586.4940, 77.51270
587.6650, 58.32373
588.8360, 41.86670
590.0060, 99.06738
591.1770, 152.2798
592.3470, 3.503418
593.5180, 130.7397
594.6880, 137.9214
595.8580, 187.8960
597.0280, 289.8564
598.1970, 300.9355
599.3670, 454.0166
600.5360, 425.1372
601.7050, 501.2861
602.8740, 536.5332
604.0430, 575.6641
605.2120, 646.8462
606.3800, 630.9546
607.5490, 701.9019
608.7170, 729.0820
609.8850, 819.7646
611.0530, 931.2021
612.2210, 952.6367
613.3880, 1035.754
614.5560, 1050.008
615.7230, 1223.060
616.8900, 1201.682
618.0570, 1368.698
619.2240, 1379.777
620.3900, 1581.573
621.5570, 1606.828
622.7230, 1887.043
623.8890, 2040.446
625.0550, 2237.491
626.2210, 2510.751
627.3870, 2769.009
628.5520, 3097.544
629.7180, 3421.846
630.8830, 3839.176
632.0480, 4240.332
633.2130, 4686.542
634.3770, 5153.967
635.5420, 5560.342
636.7060, 6127.568
637.8710, 6694.802
639.0350, 7186.046
640.1990, 7793.615
641.3620, 8246.062
642.5260, 8617.362
643.6890, 9100.010
644.8530, 9579.099
646.0160, 9837.555
647.1790, 10063.64
648.3410, 10283.36
649.5040, 10353.29
650.6670, 10476.29
651.8290, 10466.63
652.9910, 10397.98
654.1530, 10238.34
655.3150, 10248.71
656.4770, 10089.08
657.6380, 9749.464
658.7990, 9428.854
659.9610, 9433.257
661.1220, 9082.665
662.2830, 8925.083
663.4430, 8422.510
664.6040, 8366.944
665.7640, 7987.390
666.9240, 7658.842
668.0850, 7427.303
669.2440, 7357.773
670.4040, 7133.251
671.5640, 6983.738
672.7230, 6805.235
673.8830, 6705.739
675.0420, 6484.253
676.2010, 6343.775
677.3590, 6252.306
678.5180, 6274.844
679.6770, 6209.393
680.8350, 6126.951
681.9930, 6049.518
683.1510, 5917.096
684.3090, 6004.682
685.4670, 5992.280
686.6240, 5857.887
687.7810, 5769.406
688.9390, 5621.014
690.0960, 5387.773
691.2530, 5252.422
692.4090, 5004.084
693.5660, 4768.756
694.7220, 4489.437
695.8790, 4256.128
697.0350, 3856.828
698.1910, 3661.537
699.3460, 3221.252
700.5020, 2932.978
701.6570, 2887.709
702.8130, 2530.447
703.9680, 2377.193
705.1230, 2169.945
706.2780, 1972.702
707.4320, 1935.466
708.5870, 1806.234
709.7410, 1701.009
710.8950, 1517.789
712.0490, 1416.575
713.2030, 1381.366
714.3570, 1343.162
715.5100, 1238.965
716.6640, 1097.772
717.8170, 1027.585
718.9700, 928.4038
720.1230, 892.2495
721.2760, 822.8359
722.4280, 795.6157
723.5810, 652.6094
724.7330, 615.3706
725.8850, 455.7490
727.0370, 595.6416
728.1890, 615.5049
729.3400, 608.3740
730.4920, 521.2490
731.6430, 523.4658
732.7940, 507.0073
733.9450, 422.8989
735.0960, 385.7979
736.2460, 270.7036
737.3970, 300.6157
738.5470, 255.5342
739.6970, 263.4590
740.8470, 237.1055
741.9970, 104.3257
743.1470, 155.2686
744.2970, 130.2163
745.4460, 40.17041
746.5950, 45.13232
747.7440, 114.8994
748.8930, 38.00732
750.0420, 49.91992
751.1900, 66.16309
752.3390, 14.28223
753.4870, 94.41455
754.6350, 70.60010
755.7830, 16.17480
756.9310, 25.05127
758.0780, 70.29492
759.2260, 76.58057
760.3730, 58.91113
761.5200, 44.27783
762.6670, 54.29688
763.8140, 57.10400
764.9610, 72.57031
766.1070, 103.0811
767.2530, 124.8936
768.4000, 56.29541
769.5460, 100.9756
770.6910, 69.71533
771.8370, 14.50146
772.9830, 40.71484
774.1280, 63.98584
775.2730, 49.14844
776.4180, 90.36719
777.5630, 5.411133
778.7080, 4.797852
779.8520, 59.99951
780.9970, 15.16406
782.1410, 32.67578
783.2850, 2.539551
784.4290, 32.41406
785.5730, 67.68604
786.7160, 74.78906
787.8600, 64.10645
789.0030, 76.95752
790.1460, 70.02295
791.2890, 193.0903
792.4320, 142.1592
793.5750, 234.2300
794.7170, 163.3027
795.8590, 94.37646
797.0020, 187.4531
798.1440, 108.5308
799.2850, 123.6104
800.4270, 304.6919
801.5690, 198.7749
802.7100, 148.8604
803.8510, 190.9473
804.9920, 282.0352
806.1330, 378.1255
807.2740, 312.2178
808.4140, 360.3115
809.5550, 267.4287
810.6950, 349.5479
811.8350, 444.6802
812.9750, 332.8145
814.1150, 471.9707
815.2540, 439.1289
816.3940, 441.2886
817.5330, 525.4531
818.6720, 459.6187
819.8110, 583.7861
820.9500, 517.9624
822.0880, 681.1479
823.2270, 586.3521
824.3650, 638.5586
825.5030, 723.7886
826.6410, 777.0366
827.7790, 782.2881
828.9170, 716.5400
830.0540, 779.7944
831.1920, 834.0498
832.3290, 903.3071
833.4660, 938.0396
834.6030, 962.8350
835.7390, 991.1064
836.8760, 1005.392
838.0120, 1036.273
839.1480, 1052.592
840.2840, 1098.307
841.4200, 1160.615
842.5560, 1210.934
843.6920, 1284.254
844.8270, 1282.581
845.9620, 1411.909
847.0970, 1550.239
848.2320, 1515.570
849.3670, 1569.903
850.5020, 1505.244
851.6360, 1617.594
852.7700, 1674.958
853.9040, 1782.332
855.0380, 1700.719
856.1720, 1842.121
857.3060, 1995.542
858.4390, 1938.985
859.5730, 2068.449
860.7060, 1976.916
861.8390, 1981.404
862.9720, 2039.900
864.1040, 2037.401
865.2370, 2225.905
866.3690, 2213.409
867.5010, 2273.913
868.6330, 2399.419
869.7650, 2418.927
870.8970, 2518.435
872.0290, 2563.949
873.1600, 2670.466
874.2910, 2798.983
875.4220, 2879.312
876.5530, 2934.020
877.6840, 3022.539
878.8140, 3113.684
879.9450, 3157.581
881.0750, 3296.103
882.2050, 3393.630
883.3350, 3448.157
884.4650, 3510.215
885.5950, 3571.746
886.7240, 3612.279
887.8530, 3593.319
888.9820, 3488.290
890.1110, 3402.531
891.2400, 3360.253
892.3690, 3297.607
893.4970, 3114.945
894.6260, 3040.624
895.7540, 2913.890
896.8820, 2632.249
898.0100, 2722.470
899.1370, 2430.091
900.2650, 2265.523
901.3920, 2156.976
902.5200, 2009.505
903.6470, 1800.671
904.7730, 1706.140
905.9000, 1488.802
907.0270, 1427.733
908.1530, 1339.696
909.2790, 1331.351
910.4050, 1351.012
911.5310, 1358.679
912.6570, 1239.799
913.7830, 1145.203
914.9080, 986.6172
916.0330, 905.8818
917.1580, 810.2129
918.2830, 866.1187
919.4080, 957.6709
920.5330, 746.6064
921.6570, 749.3311
922.7820, 665.0625
923.9060, 690.1284
925.0300, 771.8740
926.1540, 638.6274
927.2770, 625.3872
928.4010, 522.1543
929.5240, 547.9292
930.6470, 543.7104
931.7700, 520.4990
932.8930, 670.2944
934.0160, 482.0977
935.1380, 521.9072
936.2610, 640.7241
937.3830, 454.5483
938.5050, 492.3794
939.6270, 604.2173
940.7490, 544.0620
941.8700, 559.0698
942.9910, 586.7729
944.1130, 492.6841
945.2340, 461.5562
946.3550, 430.9458
947.4750, 450.8311
948.5960, 456.3442
949.7160, 456.2417
950.8370, 471.9829
951.9570, 468.5986
953.0770, 488.4414
954.1970, 481.3638
955.3160, 476.7202
956.4360, 506.1372
957.5550, 488.1382
958.6740, 412.0835
959.7930, 527.0747
960.9120, 408.8115
962.0310, 515.8633
963.1490, 508.8281
964.2670, 560.7983
965.3860, 538.7734
966.5040, 444.7534
967.6210, 617.7368
968.7390, 689.9844
969.8570, 506.9780
970.9740, 717.9233
972.0910, 565.8022
973.2080, 691.7769
974.3250, 744.6738
975.4420, 780.9048
976.5580, 798.1885
977.6750, 755.6860
978.7910, 784.4614
979.9070, 779.5908
981.0230, 770.4062
982.1390, 798.9502
983.2540, 749.2422
984.3700, 772.2080
985.4850, 762.8950
986.6000, 764.7388
987.7150, 761.6426
988.8300, 754.2085
989.9450, 781.6235
991.0590, 740.4443
992.1730, 742.9321
993.2880, 736.9331
994.4010, 664.0166
995.5150, 618.1055
996.6290, 600.1777
997.7420, 698.2515
998.8560, 557.3276
999.9690, 625.4043
1001.082, 633.4824
1002.195, 589.5625
1003.307, 577.6440
1004.420, 631.7261
1005.532, 580.9727
1006.645, 559.2275
1007.757, 547.2134
1008.868, 463.3013
1009.980, 446.3896
1011.092, 403.4805
1012.203, 528.6357
1013.314, 484.7280
1014.425, 638.8213
1015.536, 571.4951
1016.647, 576.6665
1017.758, 544.0283
1018.868, 586.2158
1019.978, 571.5078
1021.088, 541.1582
1022.198, 609.3418
1023.308, 577.6152
1024.418, 654.6953
1025.527, 727.3486
1026.637, 693.3081
1027.746, 661.5073
1028.855, 601.5952
1029.963, 601.4868
1031.072, 641.3013
1032.181, 611.6084
1033.289, 616.0317
1034.397, 668.3770
1035.505, 530.8457
1036.613, 608.9131
1037.721, 494.3506
1038.828, 675.8066
1039.935, 568.3271
1041.043, 606.8359
1042.150, 437.3477
1043.257, 475.8594
1044.363, 414.3706
1045.470, 530.8818
1046.576, 349.3931
1047.682, 385.9102
1048.788, 447.4321
1049.894, 341.9731
1051.000, 418.5166
1052.106, 329.0713
1053.211, 353.6333
1054.316, 387.2070
1055.421, 352.7803
1056.526, 350.3521
1057.631, 238.9443
1058.736, 217.5356
1059.840, 241.1260
1060.944, 285.7148
1062.049, 284.3032
1063.153, 306.8896
1064.256, 284.4556
1065.360, 197.0586
1066.463, 215.6411
1067.567, 175.2217
1068.670, 127.8013
1069.773, 179.3789
1070.876, 164.9551
1071.978, 153.5293
1073.081, 102.1016
1074.183, 58.67236
1075.285, 48.24072
1076.387, 81.19238
1077.489, 54.32764
1078.591, 40.15479
1079.692, 132.3374
1080.794, 73.17285
1081.895, 15.27441
1082.996, 89.71924
1084.097, 5.838379
1085.198, 68.59521
1086.298, 15.02686
1087.399, 20.54443
1088.499, 21.13232
1089.599, 61.94092
1090.699, 23.61768
1091.799, 77.02930
1092.898, 56.72363
1093.998, 3.545410
1095.097, 86.80908
1096.196, 128.0708
1097.295, 82.32910
1098.394, 82.58398
1099.492, 90.83594
1100.591, 30.91455
1101.689, 76.31055
1102.787, 41.46777
1103.885, 8.275391
1104.983, 35.09619
1106.081, 3.056152
1107.178, 19.79834
1108.275, 68.32861
1109.373, 154.4521
1110.470, 12.42773
1111.566, 48.67725
1112.663, 78.77881
1113.760, 34.87744
1114.856, 10.97217
1115.952, 12.93750
1117.048, 22.32471
1118.144, 32.22510
1119.240, 23.78369
1120.335, 36.78027
1121.431, 37.80518
1122.526, 37.85986
1123.621, 61.94531
1124.716, 54.07275
1125.810, 37.76123
1126.905, 23.40918
1127.999, 61.39844
1129.094, 66.20264
1130.188, 64.00293
1131.282, 96.91748
1132.375, 126.5918
1133.469, 99.38037
1134.562, 73.16553
1135.656, 45.94629
1136.749, 9.276855
1137.842, 65.48486
1138.935, 30.24219
1140.027, 92.99463
1141.120, 105.7437
1142.212, 101.8755
1143.304, 33.22900
1144.396, 84.96582
1145.488, 55.69775
1146.579, 0.4257810
1147.671, 32.14307
1148.762, 7.856445
1149.853, 37.56201
1150.944, 6.264160
1152.035, 2.041016
1153.126, 48.35693
1154.216, 23.70801
1155.307, 19.58936
1156.397, 50.52344
1157.487, 51.12500
1158.577, 51.72168
1159.667, 133.3306
1160.756, 37.93506
1161.846, 38.53467
1162.935, 86.12939
1164.024, 32.73926
1165.113, 70.35449
1166.201, 32.98438
1167.290, 32.39160
1168.378, 116.2051
1169.467, 67.79639
1170.555, 50.39307
1171.643, 140.9966
1172.730, 156.6021
1173.818, 201.2168
1174.905, 150.8267
1175.993, 170.4316
1177.080, 153.0312
1178.167, 140.6245
1179.254, 113.2119
1180.340, 207.7935
1181.427, 241.3691
1182.513, 182.9375
1183.599, 178.5010
1184.685, 147.0571
1185.771, 203.6069
1186.856, 205.7559
1187.942, 229.6851
1189.027, 264.2139
1190.112, 263.7358
1191.197, 287.2505
1192.282, 341.7578
1193.367, 246.2588
1194.451, 388.7529
1195.536, 254.2407
1196.620, 152.7202
1197.704, 297.1938
1198.788, 157.6602
1199.872, 369.1201
1200.955, 230.5737
1202.039, 334.0205
1203.122, 332.4614
1204.205, 281.7817
1205.288, 335.2056
1206.370, 373.6123
1207.453, 392.7983
1208.535, 360.3237
1209.618, 398.5449
1210.700, 409.9199
1211.782, 415.4653
1212.863, 466.4478
1213.945, 442.1909
1215.026, 492.0479
1216.108, 368.6597
1217.189, 348.0308
1218.270, 405.9688
1219.351, 415.8467
1220.431, 321.1411
1221.512, 324.4932
1222.592, 381.7983
1223.672, 257.3604
1224.752, 352.6118
1225.832, 408.9531
1226.911, 336.2891
1227.991, 351.6221
1229.070, 287.9497
1230.149, 337.2734
1231.228, 342.3345
1232.307, 244.6519
1233.386, 178.0186
1234.464, 260.4536
1235.543, 239.2026
1236.621, 299.3345
1237.699, 272.0186
1238.777, 316.3335
1239.855, 243.6689
1240.932, 280.7949
1242.009, 189.1226
1243.087, 142.4463
1244.164, 147.3726
1245.241, 120.6836
1246.317, 141.9961
1247.394, 154.4121
1248.470, 184.1934
1249.546, 238.4907
1250.623, 183.9609
1251.698, 264.3545
1252.774, 327.7339
1253.850, 176.5928
1254.925, 276.9375
1256.000, 291.1997
1257.076, 412.4556
1258.150, 316.7266
1259.225, 348.9937
1260.300, 400.2568
1261.374, 313.5161
1262.449, 251.7725
1263.523, 260.0249
1264.597, 262.2773
1265.670, 279.1211
1266.744, 286.5527
1267.818, 380.8511
1268.891, 333.0171
1269.964, 430.2495
1271.037, 505.4761
1272.110, 416.6973
1273.183, 648.8491
1274.255, 604.5312
1275.327, 440.2666
1276.400, 623.8872
1277.472, 607.2324
1278.543, 547.1987
1279.615, 523.4639
1280.687, 526.6523
1281.758, 701.4355
1282.829, 643.3628
1283.900, 702.7031
1284.971, 653.2686
1286.042, 809.6953
1287.112, 748.9536
1288.183, 753.1304
1289.253, 827.4150
1290.323, 682.7480
1291.393, 865.9263
1292.463, 964.8711
1293.532, 887.7358
1294.602, 951.3984
1295.671, 943.8359
1296.740, 992.6919
1297.809, 932.2100
1298.878, 996.8359
1299.946, 936.8638
1301.015, 1067.926
1302.083, 930.6709
1303.151, 1022.069
1304.219, 1065.684
1305.287, 1030.982
1306.354, 1196.087
1307.422, 1107.343
1308.489, 1172.556
