##NAMES=Afmite
##RRUFFID=R130082
##IDEAL CHEMISTRY=Al_3_(OH)_4_(H_2_O)_3_(PO_4_)(PO_3_OH)&#183;H_2_O
##LOCALITY=Fumade (hamlet), Castelnau-de-Brassac (village), Tarn, France
##OWNER=Anthony R. Kampf
##SOURCE=Anthony R. Kampf and George R. Rossman
##DESCRIPTION=Dull white to cream to yellowish surface. Data from Kampf et al (2011)
##STATUS=The identification of this mineral has been confirmed by X-ray diffraction and chemical analysis
##URL=rruff.info/R130082
99.49100, 0.0000000E+00
101.2590, 1.472656
103.0260, 21.76758
104.7930, 447.2559
106.5590, 188.1328
108.3250, 8.693359
110.0910, 67.40625
111.8570, 248.8477
113.6220, 610.0996
115.3870, 878.1895
117.1510, 1198.045
118.9150, 842.6211
120.6790, 1000.141
122.4430, 1253.287
124.2060, 1352.975
125.9690, 1150.570
127.7310, 1679.016
129.4930, 2050.570
131.2550, 2839.525
133.0160, 3613.725
134.7770, 4059.318
136.5380, 4376.014
138.2980, 4643.025
140.0580, 4439.973
141.8180, 4218.080
143.5770, 3586.578
145.3360, 3204.809
147.0950, 3196.521
148.8530, 3288.766
150.6110, 3308.098
152.3690, 3486.271
154.1260, 2972.436
155.8830, 2422.314
157.6390, 1578.059
159.3960, 781.1309
161.1520, 334.8926
162.9070, 3.232422
164.6620, 268.1816
166.4170, 197.0840
168.1720, 406.0918
169.9260, 433.0625
171.6800, 229.5625
173.4330, 643.8926
175.1870, 1279.941
176.9390, 1735.701
178.6920, 1445.857
180.4440, 1535.902
182.1960, 1620.928
183.9470, 2100.428
185.6980, 2848.986
187.4490, 2957.092
189.2000, 2744.244
190.9500, 2504.537
192.7000, 2251.057
194.4490, 2459.396
196.1980, 2449.650
197.9470, 2261.510
199.6950, 2338.270
201.4430, 2080.717
203.1910, 1594.555
204.9380, 1290.305
206.6850, 1031.709
208.4320, 1249.924
210.1790, 1741.770
211.9250, 2357.174
213.6700, 2695.055
215.4160, 2927.320
217.1610, 2684.088
218.9050, 1922.168
220.6500, 1077.074
222.3940, 694.8984
224.1370, 251.3633
225.8810, 152.4023
227.6240, 112.0078
229.3660, 123.4570
231.1090, 298.8535
232.8500, 622.2930
234.5920, 1208.980
236.3330, 1768.814
238.0740, 2475.426
239.8150, 3367.652
241.5550, 2891.135
243.2950, 2785.473
245.0350, 2235.961
246.7740, 2021.396
248.5130, 1877.480
250.2520, 1909.209
251.9900, 1683.682
253.7280, 1616.594
255.4650, 1323.742
257.2030, 1701.828
258.9390, 2199.742
260.6760, 2450.389
262.4120, 2692.760
264.1480, 2473.053
265.8840, 1929.273
267.6190, 1374.004
269.3540, 583.8574
271.0880, 536.0215
272.8230, 179.7969
274.5570, 511.4785
276.2900, 912.7656
278.0230, 1040.357
279.7560, 1266.250
281.4890, 1797.043
283.2210, 2175.127
284.9530, 2500.209
286.6840, 2236.381
288.4150, 2059.242
290.1460, 2214.588
291.8770, 1795.018
293.6070, 1722.328
295.3370, 1704.816
297.0660, 1872.377
298.7960, 1813.314
300.5240, 1671.824
302.2530, 1796.713
303.9810, 2128.682
305.7090, 2588.434
307.4370, 3387.387
309.1640, 3682.459
310.8910, 4272.514
312.6170, 4210.230
314.3430, 4659.758
316.0690, 4956.342
317.7950, 4615.727
319.5200, 4077.000
321.2450, 3642.859
322.9690, 3010.195
324.6930, 2367.625
326.4170, 1807.742
328.1410, 1480.010
329.8640, 1364.299
331.5870, 1121.238
333.3090, 978.5645
335.0320, 1001.633
336.7530, 759.1875
338.4750, 816.3086
340.1960, 725.5352
341.9170, 601.2227
343.6370, 424.4531
345.3580, 181.1484
347.0780, 0.9492190
348.7970, 40.22070
350.5160, 181.0762
352.2350, 149.5547
353.9540, 269.6719
355.6720, 702.9082
357.3900, 721.7441
359.1070, 413.0742
360.8240, 302.6113
362.5410, 291.3262
364.2580, 175.3223
365.9740, 210.9902
367.6900, 124.3281
369.4060, 431.4297
371.1210, 636.5723
372.8360, 1023.809
374.5500, 928.6934
376.2640, 1395.363
377.9780, 1967.729
379.6920, 2345.041
381.4050, 2627.693
383.1180, 3152.977
384.8310, 3315.000
386.5430, 4058.455
388.2550, 4428.438
389.9660, 5017.752
391.6780, 4868.090
393.3890, 4993.250
395.0990, 4554.334
396.8090, 4020.334
398.5190, 3619.350
400.2290, 3614.578
401.9380, 3670.020
403.6470, 3549.869
405.3560, 3767.924
407.0640, 3684.688
408.7720, 3819.551
410.4800, 3689.617
412.1870, 3266.682
413.8940, 3088.445
415.6010, 2907.209
417.3070, 2519.467
419.0130, 2342.725
420.7190, 1994.379
422.4240, 1679.824
424.1290, 1533.865
425.8340, 1571.197
427.5380, 1294.820
429.2420, 1432.133
430.9460, 1490.334
432.6490, 1494.318
434.3520, 1734.891
436.0550, 1761.047
437.7570, 2435.191
439.4600, 2232.518
441.1610, 2172.426
442.8630, 2169.715
444.5640, 2149.488
446.2650, 1754.346
447.9650, 1441.480
449.6650, 1212.498
451.3650, 1031.996
453.0640, 533.6719
454.7630, 871.1406
456.4620, 793.6816
458.1610, 863.5059
459.8590, 814.1953
461.5570, 1130.168
463.2540, 1193.008
464.9510, 1278.014
466.6480, 1305.590
468.3450, 925.0273
470.0410, 1194.424
471.7370, 704.6855
473.4320, 654.3047
475.1280, 929.8828
476.8220, 1066.924
478.5170, 1230.713
480.2110, 1460.961
481.9050, 1833.160
483.5990, 2181.809
485.2920, 2527.709
486.9850, 2854.658
488.6780, 3104.855
490.3700, 3508.902
492.0620, 4177.697
493.7540, 4654.633
495.4450, 5016.414
497.1360, 5440.285
498.8270, 5474.150
500.5170, 5575.352
502.2070, 5491.670
503.8970, 5544.949
505.5860, 5215.666
507.2750, 4875.762
508.9640, 4586.629
510.6520, 4492.852
512.3400, 3822.178
514.0280, 3698.738
515.7160, 3205.119
517.4030, 2973.572
519.0890, 2670.699
520.7760, 2936.742
522.4620, 3213.887
524.1480, 3246.756
525.8330, 3532.039
527.5190, 3793.072
529.2030, 4568.234
530.8880, 5224.330
532.5720, 5762.262
534.2560, 6372.604
535.9400, 6482.109
537.6230, 6620.293
539.3060, 6270.539
540.9880, 6406.340
542.6710, 5929.797
544.3530, 5601.445
546.0340, 5544.350
547.7160, 5736.930
549.3970, 5663.371
551.0770, 5555.338
552.7580, 5787.035
554.4380, 5724.188
556.1170, 6442.721
557.7970, 6073.689
559.4760, 6431.844
561.1550, 6683.152
562.8330, 6667.080
564.5110, 6784.949
566.1890, 6942.746
567.8660, 7130.363
569.5440, 7207.422
571.2200, 7330.459
572.8970, 7726.418
574.5730, 8112.297
576.2490, 8400.664
577.9240, 8421.492
579.6000, 8768.500
581.2750, 8697.348
582.9490, 8514.840
584.6230, 8242.760
586.2970, 8077.795
587.9710, 7581.367
589.6440, 7071.043
591.3170, 6629.912
592.9900, 6384.170
594.6620, 6128.850
596.3340, 5832.059
598.0060, 5401.473
599.6780, 4988.773
601.3490, 4538.316
603.0190, 4440.816
604.6900, 4195.086
606.3600, 3676.709
608.0300, 3601.395
609.6990, 3445.141
611.3680, 3095.443
613.0370, 2735.102
614.7060, 2918.670
616.3740, 2809.840
618.0420, 2906.363
619.7090, 2923.342
621.3770, 2797.873
623.0440, 2862.756
624.7100, 2858.688
626.3770, 2878.471
628.0430, 2980.891
629.7080, 3383.371
631.3740, 3392.699
633.0390, 4074.672
634.7030, 4315.342
636.3680, 4839.906
638.0320, 5535.127
639.6960, 5489.691
641.3590, 5297.818
643.0220, 5074.430
644.6850, 4941.826
646.3480, 4504.109
648.0100, 3979.527
649.6720, 3563.973
651.3330, 3376.898
652.9940, 3040.447
654.6550, 2797.584
656.3160, 2822.135
657.9760, 2386.727
659.6360, 2124.691
661.2960, 2177.879
662.9550, 2095.121
664.6140, 1750.951
666.2730, 1610.811
667.9310, 1685.469
669.5890, 1542.629
671.2470, 1406.479
672.9050, 1630.455
674.5620, 1133.227
676.2190, 1115.660
677.8750, 1070.096
679.5310, 948.5020
681.1870, 841.3379
682.8430, 568.9082
684.4980, 543.3145
686.1530, 692.3457
687.8080, 582.2383
689.4620, 425.2012
691.1160, 470.1973
692.7700, 550.8574
694.4230, 436.3301
696.0760, 112.8730
697.7290, 396.0566
699.3810, 215.5234
701.0330, 252.9727
702.6850, 86.02344
704.3370, 7.009766
705.9880, 118.2207
707.6390, 163.9785
709.2890, 192.1270
710.9390, 83.74023
712.5890, 24.79883
714.2390, 119.2715
715.8880, 43.74805
717.5370, 72.50586
719.1860, 196.4551
720.8340, 180.5684
722.4820, 158.9316
724.1300, 207.2285
725.7770, 312.0918
727.4250, 201.6738
729.0710, 94.52148
730.7180, 309.4785
732.3640, 442.8594
734.0100, 171.0352
735.6550, 388.6621
737.3010, 187.2598
738.9460, 489.2207
740.5900, 299.1094
742.2340, 199.0195
743.8780, 281.6055
745.5220, 396.5059
747.1660, 183.1875
748.8090, 298.7344
750.4510, 96.50781
752.0940, 162.5059
753.7360, 20.05664
755.3780, 49.10742
757.0190, 127.3262
758.6600, 112.5176
760.3010, 48.78320
761.9420, 170.9023
763.5820, 195.3008
765.2220, 205.8867
766.8620, 236.1523
768.5010, 286.2109
770.1400, 304.0586
771.7790, 607.1992
773.4170, 402.1426
775.0550, 534.2773
776.6930, 361.0137
778.3300, 442.5391
779.9680, 618.7617
781.6050, 585.5840
783.2410, 734.2090
784.8770, 586.2344
786.5130, 814.1602
788.1490, 480.9863
789.7840, 549.7090
791.4190, 676.5273
793.0540, 524.8496
794.6880, 795.3672
796.3220, 632.6875
797.9560, 861.8066
799.5890, 812.2305
801.2230, 978.4551
802.8550, 798.4805
804.4880, 874.2090
806.1200, 864.0391
807.7520, 797.0703
809.3840, 992.1035
811.0150, 661.3379
812.6460, 857.6758
814.2770, 698.3145
815.9070, 784.1543
817.5370, 909.7969
819.1670, 882.0391
820.7960, 832.5859
822.4250, 901.2344
824.0540, 659.7852
825.6830, 854.1367
827.3110, 741.3906
828.9390, 809.6484
830.5670, 647.5059
832.1940, 737.0645
833.8210, 513.1270
835.4480, 490.3867
837.0740, 628.9395
838.7000, 572.1973
840.3260, 416.8535
841.9510, 335.2070
843.5760, 550.3574
845.2010, 314.7051
846.8260, 328.0449
848.4500, 379.8789
850.0740, 65.11523
851.6970, 372.3184
853.3210, 219.0156
854.9440, 407.5176
856.5670, 142.9180
858.1890, 357.5645
859.8110, 485.8125
861.4330, 342.6738
863.0540, 469.4160
864.6750, 571.3809
866.2960, 364.7598
867.9170, 437.2891
869.5370, 420.3184
871.1570, 435.6094
872.7770, 608.4688
874.3960, 358.1387
876.0150, 476.7070
877.6340, 616.8770
879.2520, 398.7109
880.8700, 565.0703
882.4880, 340.3770
884.1060, 352.1211
885.7230, 445.7695
887.3400, 553.2695
888.9570, 244.7090
890.5730, 249.9453
892.1890, 558.7422
893.8050, 142.8887
895.4200, 309.6387
897.0350, 312.2949
898.6500, 307.9805
900.2640, 648.2676
901.8780, 939.6562
903.4920, 445.9141
905.1060, 1099.555
906.7190, 1235.719
908.3320, 1344.867
909.9450, 1847.885
911.5570, 2563.504
913.1690, 3204.639
914.7810, 3961.932
916.3920, 4541.795
918.0040, 5343.492
919.6140, 5502.650
921.2250, 5430.016
922.8350, 4792.621
924.4450, 4062.158
926.0550, 3325.416
927.6640, 2914.025
929.2730, 2230.332
930.8820, 1956.816
932.4900, 2020.688
934.0980, 1835.404
935.7060, 1419.314
937.3140, 1611.092
938.9210, 1357.469
940.5280, 1563.223
942.1340, 1214.293
943.7410, 1116.328
945.3470, 1262.977
946.9530, 1308.904
948.5580, 1183.010
950.1630, 1473.830
951.7680, 1251.412
953.3720, 1176.584
954.9770, 1202.383
956.5800, 1413.777
958.1840, 1346.281
959.7870, 1328.719
961.3900, 1454.842
962.9930, 1688.924
964.5960, 1551.729
966.1980, 1495.416
967.7990, 1700.398
969.4010, 1912.182
971.0020, 1782.891
972.6030, 1969.287
974.2040, 2281.471
975.8040, 2520.168
977.4040, 2440.273
979.0040, 2738.369
980.6030, 2852.391
982.2020, 2627.846
983.8010, 2936.838
985.3990, 3474.635
986.9980, 3387.930
988.5960, 3517.541
990.1930, 3509.291
991.7910, 3977.123
993.3880, 4130.354
994.9840, 4056.549
996.5810, 4700.105
998.1770, 5063.324
999.7730, 5505.100
1001.370, 6178.936
1002.960, 7211.832
1004.560, 8627.643
1006.150, 9816.660
1007.750, 11762.04
1009.340, 13744.18
1010.930, 15273.48
1012.530, 16440.95
1014.120, 17170.87
1015.710, 16954.46
1017.310, 15696.93
1018.900, 14350.95
1020.490, 12561.52
1022.080, 11101.26
1023.670, 10316.02
1025.270, 9491.191
1026.860, 8953.012
1028.450, 8699.102
1030.040, 8900.125
1031.630, 9071.512
1033.220, 9396.953
1034.810, 9895.035
1036.390, 11061.09
1037.980, 12295.33
1039.570, 13820.82
1041.160, 15338.28
1042.750, 17918.38
1044.330, 19224.95
1045.920, 20127.85
1047.510, 20635.22
1049.100, 20780.14
1050.680, 20429.07
1052.270, 19535.96
1053.850, 19156.18
1055.440, 18490.17
1057.020, 17440.96
1058.610, 16596.67
1060.190, 15226.34
1061.780, 14555.84
1063.360, 13473.24
1064.950, 12160.49
1066.530, 11624.87
1068.110, 11419.55
1069.690, 11355.85
1071.280, 11183.49
1072.860, 11764.02
1074.440, 12165.24
1076.020, 12584.14
1077.600, 12823.63
1079.180, 13233.39
1080.770, 13250.00
1082.350, 12380.85
1083.930, 11863.84
1085.510, 11359.73
1087.090, 10696.88
1088.660, 10429.92
1090.240, 9895.975
1091.820, 9626.986
1093.400, 9764.020
1094.980, 9499.100
1096.560, 9987.402
1098.130, 10001.26
1099.710, 10103.30
1101.290, 10214.12
1102.860, 10828.14
1104.440, 10972.32
1106.020, 10967.59
1107.590, 11106.95
1109.170, 10903.30
1110.740, 10436.85
1112.320, 10263.29
1113.890, 9548.754
1115.470, 8574.922
1117.040, 8492.137
1118.610, 7947.953
1120.190, 7516.576
1121.760, 7252.084
1123.330, 6943.328
1124.910, 6733.166
1126.480, 6560.535
1128.050, 6348.152
1129.620, 6475.152
1131.190, 6296.041
1132.760, 6085.352
1134.330, 5973.057
1135.900, 5841.969
1137.470, 5888.914
1139.040, 5730.586
1140.610, 5548.025
1142.180, 5304.111
1143.750, 5251.703
1145.320, 5314.918
1146.890, 5217.494
1148.460, 4892.684
1150.030, 4836.211
1151.590, 4875.844
1153.160, 4692.127
1154.730, 4683.654
1156.290, 4859.936
1157.860, 4724.303
1159.430, 4743.188
1160.990, 4479.096
1162.560, 4157.727
1164.120, 4112.564
1165.690, 3831.822
1167.250, 3803.436
1168.820, 3762.643
1170.380, 3651.381
1171.940, 3483.775
1173.510, 3690.818
1175.070, 3347.133
1176.630, 2937.645
1178.200, 2830.637
1179.760, 2744.129
1181.320, 2592.793
1182.880, 2368.840
1184.440, 2156.244
1186.000, 1872.553
1187.570, 2173.227
1189.130, 1743.457
1190.690, 1597.047
1192.250, 1673.602
1193.810, 1459.703
1195.370, 1659.361
1196.920, 1618.576
1198.480, 1510.709
1200.040, 1302.977
1201.600, 1294.434
1203.160, 1226.074
1204.720, 1099.871
1206.270, 935.0234
1207.830, 1126.633
1209.390, 989.5039
1210.940, 638.1289
1212.500, 622.5762
1214.060, 606.7109
1215.610, 412.5000
1217.170, 333.8496
1218.720, 255.1699
1220.280, 102.4297
1221.830, 171.5742
1223.390, 216.6816
1224.940, 449.9023
1226.490, 92.48242
1228.050, 3.816406
1229.600, 66.29102
1231.150, 193.4395
1232.700, 38.76367
1234.260, 118.7559
1235.810, 216.8711
1237.360, 22.63477
1238.910, 44.11328
1240.460, 273.7188
1242.010, 53.75586
1243.560, 27.38672
1245.110, 144.5996
1246.660, 89.65039
1248.210, 205.2539
1249.760, 230.9277
1251.310, 124.1113
1252.860, 82.09570
1254.410, 111.1289
1255.960, 163.5859
1257.510, 57.26367
1259.050, 133.6348
1260.600, 108.2480
1262.150, 43.01562
1263.690, 138.7754
1265.240, 97.50781
1266.790, 71.33594
1268.330, 46.03125
1269.880, 69.27344
1271.420, 131.3594
1272.970, 274.2949
1274.510, 151.0586
1276.060, 218.2227
1277.600, 99.03711
1279.150, 279.9746
1280.690, 45.03906
1282.230, 272.5566
1283.780, 110.8711
1285.320, 47.48047
1286.860, 178.3691
1288.400, 18.39648
1289.950, 206.4531
1291.490, 168.5488
1293.030, 262.6699
1294.570, 320.3633
1296.110, 141.1055
1297.650, 42.89453
1299.190, 188.1211
1300.730, 239.0879
1302.270, 197.6055
1303.810, 55.26562
1305.350, 327.0605
1306.890, 329.2090
1308.430, 99.29688
1309.960, 243.6406
1311.500, 76.44336
1313.040, 66.87891
1314.580, 273.6543
1316.110, 33.72852
1317.650, 13.48242
1319.190, 98.00977
1320.720, 58.87109
1322.260, 19.57031
1323.800, 72.98633
1325.330, 97.13867
1326.870, 282.2148
1328.400, 177.5430
1329.940, 377.5137
1331.470, 262.9297
1333.000, 97.79492
1334.540, 338.5000
1336.070, 222.0469
1337.600, 224.6367
1339.140, 196.9297
1340.670, 53.47070
1342.200, 124.2402
1343.730, 155.8535
1345.270, 259.2031
1346.800, 146.9980
1348.330, 157.2383
1349.860, 309.5234
1351.390, 535.3574
1352.920, 200.7383
1354.450, 228.7656
1355.980, 312.3340
1357.510, 157.1523
1359.040, 482.7207
1360.570, 283.3320
1362.100, 227.6934
1363.620, 291.5000
1365.150, 104.5430
1366.680, 178.3711
1368.210, 127.3301
1369.730, 233.4355
1371.260, 439.4863
1372.790, 340.8887
1374.310, 391.2402
1375.840, 218.8398
1377.370, 465.7910
1378.890, 266.8906
1380.420, 425.3398
1381.940, 172.2422
1383.470, 245.3906
1384.990, 164.2930
1386.520, 266.8418
1388.040, 438.4395
1389.560, 335.7930
1391.090, 323.4980
1392.610, 94.35547
1394.130, 535.1562
1395.650, 192.6113
1397.180, 327.8203
1398.700, 430.2812
1400.220, 470.2949
1401.740, 219.2656
1403.260, 345.8535
1404.780, 208.7539
1406.300, 203.3926
1407.820, 500.8730
1409.340, 382.7070
1410.860, 339.1680
1412.380, 505.3926
1413.900, 148.8379
1415.420, 235.4746
1416.940, 257.9805
1418.460, 453.0059
1419.980, 269.7988
1421.490, 423.0078
1423.010, 154.7188
1424.530, 245.9219
1426.050, 440.0273
1427.560, 414.7852
1429.080, 419.9844
1430.590, 375.7539
1432.110, 258.2578
1433.630, 277.5586
1435.140, 434.6641
1436.660, 241.7266
1438.170, 327.9043
1439.680, 456.7832
1441.200, 420.6504
1442.710, 544.8457
1444.230, 366.5566
1445.740, 432.3613
1447.250, 552.7090
1448.770, 340.1816
1450.280, 478.8379
1451.790, 480.1465
1453.300, 587.5254
1454.810, 493.3672
1456.320, 280.8145
1457.840, 334.0332
1459.350, 329.5664
1460.860, 377.6406
1462.370, 207.8887
1463.880, 445.7402
1465.390, 237.7695
1466.900, 198.9004
1468.410, 365.6621
1469.910, 186.9648
1471.420, 72.65039
1472.930, 313.4375
1474.440, 147.2500
1475.950, 418.7676
1477.450, 306.8145
1478.960, 308.4961
1480.470, 194.8477
1481.980, 188.4980
1483.480, 266.9512
1484.990, 468.1172
1486.490, 419.3789
1488.000, 325.4629
1489.500, 309.7422
1491.010, 59.78125
1492.510, 337.7012
1494.020, 107.9199
1495.520, 265.3711
1497.030, 398.9980
1498.530, 390.7227
1500.030, 480.1660
1501.540, 353.5801
1503.040, 170.0020
1504.540, 416.2207
1506.040, 146.2070
1507.550, 65.40234
1509.050, 135.0020
1510.550, 478.2695
1512.050, 309.2832
1513.550, 247.9355
1515.050, 117.7988
1516.550, 218.6152
1518.050, 307.4824
1519.550, 137.9629
1521.050, 14.24805
1522.550, 165.2383
1524.050, 358.9219
1525.550, 312.4414
1527.050, 124.6426
1528.550, 176.6738
1530.040, 280.2852
1531.540, 389.8047
1533.040, 130.3184
1534.540, 618.5957
1536.030, 275.2949
1537.530, 57.40039
1539.020, 496.3945
1540.520, 340.2910
1542.020, 465.0469
1543.510, 459.1777
1545.010, 155.9688
1546.500, 163.2402
1548.000, 607.2891
1549.490, 674.7344
1550.980, 530.0352
1552.480, 481.0254
1553.970, 765.1191
1555.470, 819.9102
1556.960, 690.3691
1558.450, 477.1641
1559.940, 609.0605
1561.440, 697.4629
1562.930, 554.2051
1564.420, 917.6152
1565.910, 454.1523
1567.400, 383.3672
1568.890, 574.0879
1570.380, 530.1133
1571.870, 467.6406
1573.360, 495.2715
1574.850, 968.2109
1576.340, 418.8848
1577.830, 745.9375
1579.320, 728.8945
1580.810, 656.4746
1582.300, 914.9512
1583.790, 892.9492
1585.270, 953.2227
1586.760, 1077.590
1588.250, 2044.225
1589.740, 1896.363
1591.220, 1637.516
1592.710, 1805.789
1594.190, 1760.367
1595.680, 2150.867
1597.170, 1939.094
1598.650, 1272.734
1600.140, 1288.152
1601.620, 1508.992
1603.110, 1519.066
1604.590, 1378.031
1606.070, 1508.133
1607.560, 1544.062
1609.040, 1497.453
1610.520, 1684.938
1612.010, 1743.023
1613.490, 1619.000
1614.970, 1825.715
1616.460, 1524.676
1617.940, 1739.852
1619.420, 1541.797
1620.900, 2052.582
1622.380, 1489.934
1623.860, 1609.340
1625.340, 1309.969
1626.820, 1566.352
1628.300, 1417.402
1629.780, 1494.770
1631.260, 1119.262
1632.740, 1250.895
1634.220, 1240.453
1635.700, 990.1094
1637.180, 868.2383
1638.660, 1272.391
1640.130, 1065.992
1641.610, 785.1172
1643.090, 1055.965
1644.570, 1093.422
1646.040, 975.3438
1647.520, 680.7461
1648.990, 972.3047
1650.470, 913.3984
1651.950, 1022.219
1653.420, 835.6758
1654.900, 1049.629
1656.370, 841.6055
1657.850, 833.5000
1659.320, 469.4180
1660.800, 692.0625
1662.270, 1004.723
1663.740, 742.3086
1665.220, 763.3164
1666.690, 548.3438
1668.160, 621.8906
1669.630, 344.5391
1671.110, 606.7891
1672.580, 580.2383
1674.050, 363.6602
1675.520, 429.0000
1676.990, 395.8867
1678.460, 309.7578
1679.930, 528.3125
1681.400, 369.4883
1682.870, 671.5039
1684.340, 572.2383
1685.810, 206.1133
1687.280, 525.4961
1688.750, 463.6992
1690.220, 62.87109
1691.690, 127.2617
1693.160, 429.4219
1694.630, 205.8047
1696.090, 460.9062
1697.560, 280.0977
1699.030, 639.2578
1700.500, 262.3086
1701.960, 340.4805
1703.430, 119.0859
1704.890, 234.8086
1706.360, 57.05078
1707.830, 345.3984
1709.290, 200.2695
1710.760, 401.5625
1712.220, 321.2734
1713.690, 381.0078
1715.150, 33.92969
1716.610, 135.1406
1718.080, 256.5391
1719.540, 63.55078
1721.000, 248.0898
1722.470, 51.74609
1723.930, 260.4766
1725.390, 117.1250
1726.860, 467.8984
1728.320, 422.0938
1729.780, 121.3164
1731.240, 171.3594
1732.700, 4.574219
1734.160, 310.7148
1735.620, 280.4258
1737.080, 145.7070
1738.540, 115.3594
1740.000, 9.167969
1741.460, 85.62891
1742.920, 96.96094
1744.380, 315.2148
1745.840, 350.1914
1747.300, 460.5898
