##NAMES=Akermanite
##RRUFFID=R061100
##IDEAL CHEMISTRY=Ca_2_MgSi_2_O_7_
##LOCALITY=Lago de Vico, Viterbo, Italy
##OWNER=Michael Scott
##SOURCE=Michael Scott
##DESCRIPTION=Colorless to white short prismatic crystals
##STATUS=The identification of this mineral has been confirmed by X-ray diffraction and chemical analysis
##URL=rruff.info/R061100
##MEASURED CHEMISTRY=(Ca_1.80_Na_0.20_)_Σ=2_(Mg_0.58_Al_0.38_Fe_0.04_)_Σ=1_(Si_1.82_Al_0.18_)_Σ=2_O_7_
##PIN_ID=M00347
##ORIENTATION=Laser parallel to c* (0 0 1). Fiducial mark perpendicular to laser is parallel to a [1 0 0]
206.6970, 0.0000000E+00
207.9250, 5.826172
209.1530, 53.91211
210.3800, 1.476563
211.6080, 227.7041
212.8350, 158.4121
214.0620, 306.4648
215.2880, 444.8242
216.5150, 360.9814
217.7410, 686.7822
218.9680, 857.4834
220.1940, 1086.604
221.4190, 1423.723
222.6450, 1677.404
223.8700, 1910.221
225.0960, 2051.796
226.3210, 2118.819
227.5450, 2277.086
228.7700, 2302.619
229.9940, 2440.536
231.2190, 2190.858
232.4430, 2316.556
233.6660, 2115.491
234.8900, 2169.435
236.1140, 1911.143
237.3370, 1791.393
238.5600, 1672.010
239.7830, 1721.855
241.0050, 1548.817
242.2280, 1494.811
243.4500, 1100.802
244.6720, 1056.779
245.8940, 1021.751
247.1160, 944.8564
248.3370, 867.7529
249.5580, 957.9521
250.7790, 739.3770
252.0000, 587.4443
253.2210, 680.7578
254.4410, 598.9141
255.6620, 743.9697
256.8820, 779.9404
258.1020, 910.1367
259.3210, 845.8525
260.5410, 775.1816
261.7600, 703.0254
262.9790, 529.7773
264.1980, 483.7324
265.4170, 430.8779
266.6360, 453.2383
267.8540, 404.8525
269.0720, 413.7598
270.2900, 306.9902
271.5080, 368.5762
272.7260, 243.5449
273.9430, 385.9248
275.1600, 446.7383
276.3770, 342.0088
277.5940, 423.0283
278.8100, 410.4707
280.0270, 412.9209
281.2430, 409.3486
282.4590, 317.7598
283.6750, 392.2900
284.8910, 455.2148
286.1060, 470.3857
287.3210, 622.4277
288.5360, 689.6904
289.7510, 678.8857
290.9660, 936.6973
292.1800, 927.1436
293.3950, 987.5215
294.6090, 1298.500
295.8230, 1273.296
297.0360, 1521.383
298.2500, 1692.808
299.4630, 1780.364
300.6760, 1959.664
301.8890, 2039.681
303.1020, 2449.073
304.3150, 2558.508
305.5270, 2776.893
306.7390, 2827.721
307.9510, 3081.190
309.1630, 3002.035
310.3750, 3181.111
311.5860, 3228.776
312.7970, 3177.125
314.0080, 3168.501
315.2190, 3059.661
316.4300, 2968.917
317.6400, 2803.531
318.8510, 2874.256
320.0610, 2416.038
321.2710, 2390.498
322.4800, 2045.068
323.6900, 1893.227
324.8990, 1646.319
326.1080, 1488.061
327.3170, 1429.281
328.5260, 1198.139
329.7340, 1238.905
330.9430, 1042.578
332.1510, 1144.152
333.3590, 1075.629
334.5670, 953.0059
335.7740, 736.2832
336.9820, 806.4639
338.1890, 768.5469
339.3960, 524.5352
340.6030, 478.4287
341.8100, 530.2324
343.0160, 701.9434
344.2220, 666.5654
345.4280, 602.0986
346.6340, 466.5439
347.8400, 425.9033
349.0460, 450.1777
350.2510, 440.3691
351.4560, 316.4775
352.6610, 399.0449
353.8660, 360.3906
355.0700, 444.7354
356.2750, 420.0059
357.4790, 363.5254
358.6830, 477.2344
359.8870, 278.0898
361.0910, 360.0527
362.2940, 191.0957
363.4970, 292.1943
364.7000, 205.3301
365.9030, 170.4873
367.1060, 31.64746
368.3080, 39.20605
369.5110, 62.89844
370.7130, 28.02930
371.9150, 39.01172
373.1170, 135.0596
374.3180, 15.20410
375.5200, 9.579102
376.7210, 39.70996
377.9220, 80.90820
379.1230, 133.5498
380.3230, 74.13770
381.5240, 169.8418
382.7240, 32.69043
383.9240, 178.6514
385.1240, 125.7627
386.3240, 86.01270
387.5230, 47.39160
388.7230, 104.8916
389.9220, 175.5234
391.1210, 45.31055
392.3200, 66.21875
393.5180, 15.25684
394.7170, 4.419922
395.9150, 151.7090
397.1130, 94.17090
398.3110, 8.794922
399.5080, 219.5674
400.7060, 114.5430
401.9030, 38.70117
403.1000, 78.02246
404.2970, 114.5195
405.4940, 145.1992
406.6910, 11.06934
407.8870, 99.90918
409.0830, 106.2412
410.2790, 23.56348
411.4750, 109.0303
412.6710, 64.66016
413.8660, 110.5596
415.0610, 124.6641
416.2560, 3.655273
417.4510, 37.52441
418.6460, 11.39844
419.8410, 73.91602
421.0350, 19.44629
422.2290, 161.8652
423.4230, 203.1865
424.6170, 48.40723
425.8100, 264.5225
427.0040, 406.5430
428.1970, 346.4707
429.3900, 287.2998
430.5830, 445.0264
431.7760, 533.6367
432.9680, 477.0947
434.1610, 550.3711
435.3530, 558.4307
436.5450, 669.3320
437.7360, 842.0488
438.9280, 789.5166
440.1190, 663.7529
441.3110, 888.7607
442.5020, 871.5693
443.6930, 1014.153
444.8830, 940.5703
446.0740, 1046.795
447.2640, 1069.848
448.4540, 1237.643
449.6440, 1239.268
450.8340, 1412.671
452.0240, 1427.149
453.2130, 1451.102
454.4020, 1456.051
455.5910, 1519.927
456.7800, 1495.702
457.9690, 1405.387
459.1570, 1415.990
460.3460, 1620.520
461.5340, 1536.998
462.7220, 1358.426
463.9090, 1596.809
465.0970, 1637.148
466.2840, 1861.451
467.4720, 1774.717
468.6590, 2000.946
469.8460, 2108.142
471.0320, 2006.304
472.2190, 2231.430
473.4050, 2438.523
474.5910, 2437.583
475.7770, 2492.609
476.9630, 2755.601
478.1490, 3038.560
479.3340, 3048.488
480.5190, 3254.384
481.7040, 3126.247
482.8890, 3411.088
484.0740, 3447.896
485.2580, 3485.674
486.4430, 3211.422
487.6270, 3264.138
488.8110, 3140.824
489.9950, 3196.493
491.1780, 2877.001
492.3620, 2879.582
493.5450, 2848.107
494.7280, 2565.085
495.9110, 2535.369
497.0940, 2466.490
498.2760, 2330.932
499.4590, 2171.258
500.6410, 2285.313
501.8230, 2100.797
503.0050, 2063.459
504.1860, 1833.433
505.3680, 1971.715
506.5490, 1795.395
507.7300, 1912.681
508.9110, 1817.718
510.0920, 1631.240
511.2730, 1735.977
512.4530, 1788.822
513.6330, 1651.071
514.8130, 1626.566
515.9930, 1665.912
517.1730, 1743.705
518.3520, 1729.920
519.5320, 1715.974
520.7110, 1730.670
521.8900, 2018.676
523.0690, 1686.302
524.2470, 1776.846
525.4260, 1655.897
526.6040, 1383.690
527.7820, 1302.702
528.9600, 1315.104
530.1380, 1268.826
531.3150, 1170.229
532.4930, 1130.319
533.6700, 948.8760
534.8470, 1008.026
536.0240, 893.2812
537.2000, 889.1260
538.3770, 889.6387
539.5530, 843.6738
540.7290, 644.9863
541.9050, 876.9902
543.0810, 831.5078
544.2570, 530.7139
545.4320, 642.3818
546.6080, 505.6934
547.7830, 347.0166
548.9580, 609.7002
550.1320, 462.9121
551.3070, 517.5098
552.4810, 466.2451
553.6550, 395.5654
554.8300, 521.6240
556.0030, 463.7383
557.1770, 358.9863
558.3510, 389.2070
559.5240, 510.9033
560.6970, 500.5107
561.8700, 529.3047
563.0430, 703.8418
564.2160, 473.2217
565.3880, 493.9131
566.5600, 354.6738
567.7320, 560.7598
568.9040, 557.4082
570.0760, 351.7715
571.2480, 506.8584
572.4190, 414.5732
573.5900, 566.6289
574.7610, 548.4189
575.9320, 587.4893
577.1030, 726.5664
578.2740, 851.8984
579.4440, 915.2070
580.6140, 976.4932
581.7840, 1029.157
582.9540, 1100.199
584.1240, 1090.224
585.2930, 1226.429
586.4630, 1268.616
587.6320, 1306.786
588.8010, 1438.357
589.9700, 1549.074
591.1380, 1680.195
592.3070, 2059.303
593.4750, 2249.396
594.6430, 2511.477
595.8110, 2806.674
596.9790, 2974.730
598.1460, 3298.776
599.3140, 3732.809
600.4810, 4192.831
601.6480, 4567.844
602.8150, 5052.131
603.9820, 5264.121
605.1480, 6046.123
606.3150, 6445.094
607.4810, 6916.359
608.6470, 7657.422
609.8130, 8299.785
610.9790, 8692.291
612.1440, 9292.646
613.3100, 9643.918
614.4750, 10172.26
615.6400, 10964.54
616.8050, 11499.69
617.9690, 11917.96
619.1340, 12607.29
620.2980, 13096.47
621.4620, 13544.32
622.6260, 14045.98
623.7900, 14521.00
624.9540, 14583.91
626.1170, 14676.12
627.2810, 14532.04
628.4440, 14232.91
629.6070, 13720.12
630.7690, 13308.22
631.9320, 12950.23
633.0950, 12293.92
634.2570, 11910.16
635.4190, 11150.17
636.5810, 10637.19
637.7430, 10182.63
638.9040, 9816.170
640.0660, 9392.082
641.2270, 9038.582
642.3880, 8895.865
643.5490, 8645.727
644.7100, 8691.656
645.8700, 9066.273
647.0310, 9496.176
648.1910, 10216.35
649.3510, 11084.22
650.5110, 12385.64
651.6710, 14257.52
652.8300, 15694.33
653.9900, 17497.85
655.1490, 19936.81
656.3080, 21872.20
657.4670, 23652.12
658.6250, 25521.36
659.7840, 27223.91
660.9420, 28285.66
662.1010, 29319.78
663.2590, 29591.49
664.4170, 29660.54
665.5740, 29088.70
666.7320, 28175.70
667.8890, 27004.79
669.0460, 25617.94
670.2030, 24081.09
671.3600, 22175.15
672.5170, 20300.28
673.6740, 18503.43
674.8300, 16675.61
675.9860, 15222.80
677.1420, 13640.00
678.2980, 12126.26
679.4540, 10918.55
680.6090, 9748.848
681.7650, 9068.223
682.9200, 7960.670
684.0750, 7209.105
685.2300, 6216.578
686.3840, 5612.285
687.5390, 5135.850
688.6930, 4659.432
689.8470, 4110.012
691.0010, 3823.633
692.1550, 3452.277
693.3090, 3083.961
694.4620, 2878.678
695.6160, 2488.393
696.7690, 2452.109
697.9220, 2168.836
699.0750, 2095.572
700.2280, 2172.320
701.3800, 2016.066
702.5320, 1942.918
703.6850, 1544.586
704.8370, 1642.340
705.9880, 1408.104
707.1400, 1154.859
708.2920, 1193.609
709.4430, 1062.354
710.5940, 1262.092
711.7450, 1006.822
712.8960, 990.5449
714.0470, 968.2559
715.1970, 796.9609
716.3480, 879.6582
717.4980, 619.3418
718.6480, 616.0176
719.7980, 669.6816
720.9470, 716.3379
722.0970, 700.9805
723.2460, 539.6172
724.3960, 573.2422
725.5450, 452.8555
726.6940, 478.4590
727.8420, 293.0566
728.9910, 326.0508
730.1390, 486.2168
731.2870, 283.7812
732.4350, 259.3398
733.5830, 125.8867
734.7310, 358.4219
735.8790, 189.9512
737.0260, 487.4688
738.1730, 161.9766
739.3200, 190.4766
740.4670, 86.96680
741.6140, 286.4453
742.7610, 148.9160
743.9070, 293.3750
745.0530, 80.82812
746.1990, 127.2695
747.3450, 52.70117
748.4910, 15.11914
749.6370, 49.52539
750.7820, 66.91602
751.9270, 47.29492
753.0720, 58.66211
754.2170, 90.01953
755.3620, 57.36719
756.5070, 39.70312
757.6510, 73.02539
758.7950, 189.3398
759.9400, 13.35547
761.0840, 105.9219
762.2270, 129.1895
763.3710, 54.44922
764.5140, 123.6973
765.6580, 130.9375
766.8010, 21.82812
767.9440, 72.36914
769.0870, 91.56055
770.2290, 12.25977
771.3720, 32.89062
772.5140, 33.58789
773.6560, 176.8711
774.7990, 87.88672
775.9400, 168.9707
777.0820, 111.1680
778.2240, 152.4434
779.3650, 180.8242
780.5060, 142.3242
781.6470, 302.9180
782.7880, 154.6953
783.9290, 143.5762
785.0690, 68.55273
786.2100, 143.5898
787.3500, 120.7246
788.4900, 83.05469
789.6300, 159.1699
790.7700, 186.5020
791.9090, 69.04688
793.0490, 136.4141
794.1880, 85.03320
795.3270, 118.5254
796.4660, 267.1680
797.6050, 130.0293
798.7440, 2.781250
799.8820, 123.6113
801.0200, 22.52930
802.1590, 21.47461
803.2970, 0.5468750
804.4340, 87.55078
805.5720, 79.54492
806.7100, 83.52930
807.8470, 194.5078
808.9840, 227.9609
810.1210, 163.9863
811.2580, 199.7148
812.3950, 183.7383
813.5310, 139.3027
814.6680, 169.2402
815.8040, 125.1719
816.9400, 107.0957
818.0760, 104.0137
819.2120, 80.92383
820.3470, 171.8242
821.4830, 95.71875
822.6180, 35.60742
823.7530, 215.4844
824.8880, 111.3555
826.0230, 176.2168
827.1580, 105.0703
828.2920, 266.9180
829.4270, 365.7559
830.5610, 365.5859
831.6950, 366.4102
832.8290, 532.2246
833.9620, 302.0312
835.0960, 515.8340
836.2290, 499.6348
837.3620, 551.3438
838.4950, 649.9434
839.6280, 713.0742
840.7610, 814.8809
841.8940, 839.6777
843.0260, 1008.469
844.1580, 1042.252
845.2910, 1138.027
846.4230, 1283.801
847.5540, 1246.568
848.6860, 1662.326
849.8170, 1984.078
850.9490, 1668.824
852.0800, 1622.562
853.2110, 2004.295
854.3420, 1986.020
855.4730, 2135.738
856.6030, 2574.451
857.7340, 2727.158
858.8640, 2926.861
859.9940, 2914.557
861.1240, 2922.293
862.2540, 3288.025
863.3830, 3245.754
864.5130, 3590.477
865.6420, 3494.191
866.7710, 3534.904
867.9000, 3461.633
869.0290, 3235.357
870.1570, 3251.947
871.2860, 3012.660
872.4140, 3057.371
873.5430, 2862.078
874.6710, 2900.832
875.7980, 2782.602
876.9260, 2845.057
878.0540, 2862.850
879.1810, 3149.594
880.3080, 3321.355
881.4360, 3765.832
882.5630, 4104.494
883.6890, 4270.846
884.8160, 4832.039
885.9420, 5433.418
887.0690, 5974.881
888.1950, 6375.330
889.3210, 6882.855
890.4470, 7518.520
891.5730, 7717.062
892.6980, 8207.531
893.8240, 8298.137
894.9490, 8558.066
896.0740, 8996.172
897.1990, 8958.918
898.3240, 9662.770
899.4480, 10331.32
900.5730, 11111.18
901.6970, 12027.07
902.8210, 13559.63
903.9450, 14670.29
905.0690, 16411.04
906.1930, 18043.09
907.3160, 20227.61
908.4400, 22282.34
909.5630, 24393.06
910.6860, 26053.35
911.8090, 27578.54
912.9320, 29293.36
914.0550, 29802.58
915.1770, 30501.05
916.2990, 30376.93
917.4210, 30135.74
918.5440, 30067.87
919.6650, 29686.71
920.7870, 29206.27
921.9090, 28645.15
923.0300, 28184.48
924.1510, 27274.37
925.2720, 26008.37
926.3930, 24924.68
927.5140, 23271.58
928.6350, 21510.10
929.7550, 20039.11
930.8760, 18321.84
931.9960, 16876.28
933.1160, 15401.52
934.2360, 13989.46
935.3550, 12743.04
936.4750, 11733.96
937.5940, 10712.98
938.7140, 9914.242
939.8330, 9352.469
940.9520, 8360.699
942.0710, 7713.969
943.1890, 7197.361
944.3080, 6973.789
945.4260, 6228.229
946.5440, 5958.686
947.6620, 5910.156
948.7800, 5435.645
949.8980, 5382.145
951.0160, 4992.660
952.1330, 4815.555
953.2500, 4604.742
954.3680, 4541.271
955.4850, 4578.848
956.6010, 4629.439
957.7180, 4324.848
958.8350, 4079.469
959.9510, 4303.105
961.0670, 3991.754
962.1830, 3698.420
963.2990, 3430.100
964.4150, 3576.797
965.5310, 3187.510
966.6460, 3090.234
967.7620, 3146.977
968.8770, 2712.906
969.9920, 2482.676
971.1070, 2454.699
972.2210, 2249.381
973.3360, 2396.211
974.4500, 2201.053
975.5650, 2080.912
976.6790, 2049.783
977.7930, 1966.672
978.9070, 1846.572
980.0200, 1803.285
981.1340, 2016.217
982.2470, 1527.162
983.3610, 1938.125
984.4740, 1636.104
985.5870, 1662.098
986.6990, 1570.107
987.8120, 1644.131
988.9250, 1482.168
990.0370, 1691.223
991.1490, 1394.293
992.2610, 1369.393
993.3730, 1439.508
994.4850, 1315.773
995.5960, 1422.922
996.7080, 1293.139
997.8190, 1470.312
998.9300, 1308.521
1000.041, 1169.746
1001.152, 1411.430
1002.263, 1138.797
1003.373, 1334.086
1004.484, 1021.389
1005.594, 1152.707
1006.704, 1311.281
1007.814, 1034.898
1008.924, 1145.477
1010.034, 1240.883
1011.143, 961.5430
1012.253, 1158.023
1013.362, 853.4688
1014.471, 837.9160
1015.580, 842.4434
1016.689, 887.9297
1017.797, 952.6836
1018.906, 753.0371
1020.014, 794.7812
1021.122, 833.0859
1022.230, 917.1719
1023.338, 939.9961
1024.446, 940.4102
1025.554, 1005.428
1026.661, 873.2227
1027.768, 826.8359
1028.875, 711.4941
1029.983, 720.9629
1031.089, 699.5605
1032.196, 901.6953
1033.303, 703.3613
1034.409, 753.1758
1035.515, 698.6953
1036.622, 447.3984
1037.728, 573.1074
1038.833, 594.0742
1039.939, 687.7188
1041.045, 499.9297
1042.150, 720.6992
1043.255, 411.6016
1044.360, 416.9160
1045.465, 483.1445
1046.570, 593.9609
1047.675, 440.5801
1048.779, 317.0293
1049.884, 461.5547
1050.988, 239.8789
1052.092, 467.1797
1053.196, 446.5332
1054.300, 361.0430
1055.404, 351.4766
1056.507, 403.0371
1057.610, 247.9023
1058.714, 294.4395
1059.817, 425.0371
1060.920, 290.6406
1062.022, 238.3789
1063.125, 267.5820
1064.228, 27.40820
1065.330, 350.1836
1066.432, 320.0508
1067.534, 305.0059
1068.636, 120.1016
1069.738, 293.1133
1070.840, 285.4199
1071.941, 298.2891
1073.042, 313.5762
1074.144, 318.3398
1075.245, 330.7773
1076.346, 329.9551
1077.446, 358.8320
1078.547, 336.7070
1079.647, 354.5840
1080.748, 366.5000
1081.848, 515.7637
1082.948, 446.6406
1084.048, 368.7363
1085.148, 514.6113
1086.247, 511.4844
1087.347, 235.3574
1088.446, 319.2285
1089.545, 400.0977
1090.644, 282.9668
1091.743, 379.8320
1092.842, 296.6992
1093.940, 377.5918
1095.039, 174.8398
1096.137, 297.6953
1097.235, 363.6348
1098.333, 216.4844
1099.431, 18.33203
1100.529, 10.92188
1101.627, 61.22656
1102.724, 64.69336
1103.822, 109.8906
1104.919, 193.1484
1106.016, 22.89844
1107.113, 226.6426
1108.209, 70.38281
1109.306, 187.1191
1110.402, 193.8477
1111.499, 27.42773
1112.595, 53.28125
1113.691, 149.2051
1114.787, 109.3145
1115.883, 196.2910
1116.978, 178.1074
1118.074, 82.05078
1119.169, 395.7715
1120.264, 106.5742
1121.359, 53.45898
1122.454, 193.1094
1123.549, 333.5352
1124.644, 227.1699
1125.738, 188.2051
1126.832, 233.1172
1127.927, 33.63281
1129.021, 210.1348
1130.115, 146.6660
1131.208, 223.1504
1132.302, 74.10156
1133.396, 35.53711
1134.489, 160.9980
1135.582, 179.4004
1136.675, 254.7949
1137.768, 17.22656
1138.861, 191.4023
1139.954, 61.54688
1141.046, 285.6328
1142.138, 33.82227
1143.231, 6.000000
1144.323, 100.4648
1145.415, 51.39648
1146.507, 87.68164
1147.598, 189.7578
1148.690, 43.82617
1149.781, 141.0996
1150.872, 34.72461
1151.964, 233.8125
1153.054, 101.9512
1154.145, 1.261719
1155.236, 32.59961
1156.327, 182.3008
1157.417, 72.08594
1158.507, 119.6738
1159.597, 113.2500
1160.687, 6.191406
1161.777, 302.3320
1162.867, 62.15625
1163.956, 208.2910
1165.046, 40.27734
1166.135, 18.89258
1167.224, 194.6465
1168.313, 180.9746
1169.402, 78.28906
1170.491, 17.41797
1171.580, 33.13086
1172.668, 170.3613
1173.756, 126.5762
1174.845, 38.96484
1175.933, 12.13672
1177.020, 3.205078
1178.108, 40.02148
1179.196, 65.87500
1180.283, 15.04492
1181.371, 138.0391
1182.458, 367.0117
1183.545, 209.9648
1184.632, 23.89844
1185.719, 168.7988
1186.805, 143.6797
1187.892, 46.46094
1188.978, 225.3281
1190.065, 245.0957
1191.151, 229.8438
1192.237, 148.5703
1193.323, 14.72852
1194.408, 140.9199
1195.494, 362.5449
1196.579, 154.1445
1197.664, 135.7227
1198.750, 114.5547
1199.835, 139.0840
1200.919, 72.58594
1202.004, 243.2148
1203.089, 24.33594
1204.173, 149.0527
1205.258, 235.4141
1206.342, 26.24609
1207.426, 235.0254
1208.510, 357.2773
1209.594, 464.5020
1210.677, 86.70312
1211.761, 214.8750
1212.844, 216.0840
1213.927, 139.3359
1215.010, 212.4785
1216.093, 204.4023
1217.176, 232.7637
1218.259, 264.7871
1219.341, 273.7871
1220.424, 302.9336
1221.506, 202.8848
1222.588, 217.8086
1223.670, 193.0879
1224.752, 108.5820
1225.834, 203.4297
1226.915, 182.2480
1227.997, 276.0410
1229.078, 217.8125
1230.159, 202.5586
1231.240, 206.1055
1232.321, 15.80078
1233.402, 270.6758
1234.483, 134.7578
1235.563, 267.3633
1236.644, 222.9473
1237.724, 316.5059
1238.804, 471.0410
1239.884, 423.5508
1240.964, 208.0352
1242.044, 419.6973
1243.123, 154.1328
1244.203, 109.5410
1245.282, 139.9199
1246.361, 177.2773
1247.440, 145.9629
1248.519, 198.0566
1249.598, 177.6738
1250.676, 156.9258
1251.755, 289.1504
1252.833, 5.650391
1253.911, 214.4922
1254.989, 273.6191
1256.067, 61.79102
1257.145, 362.8613
1258.223, 335.8516
1259.300, 30.12500
1260.378, 206.8281
1261.455, 140.7539
1262.532, 150.2090
1263.609, 32.02539
1264.686, 247.7832
1265.763, 258.5645
1266.840, 191.3262
1267.916, 247.0664
1268.992, 1.523438
1270.069, 54.00781
1271.145, 282.6016
1272.221, 271.9512
1273.296, 114.4688
1274.372, 261.0098
1275.448, 35.54297
1276.523, 360.9844
1277.598, 273.1699
1278.673, 180.3652
1279.749, 76.95117
1280.823, 177.3027
1281.898, 139.8184
1282.973, 201.6426
1284.047, 243.0039
1285.122, 85.04883
1286.196, 108.3438
1287.270, 164.4219
1288.344, 249.6719
1289.418, 222.0801
1290.491, 270.4277
1291.565, 188.6230
1292.638, 199.3672
1293.712, 188.5273
1294.785, 161.2090
1295.858, 94.41211
1296.931, 159.5078
1298.003, 146.5859
1299.076, 178.3984
1300.149, 67.53125
1301.221, 138.1758
1302.293, 161.1777
1303.365, 92.08984
1304.437, 204.6074
1305.509, 69.25000
1306.581, 99.33008
1307.652, 199.6426
1308.724, 36.83008
1309.795, 287.6387
1310.866, 371.3828
1311.937, 266.1875
1313.008, 523.9785
1314.079, 459.5195
1315.150, 297.3730
1316.220, 428.0234
1317.291, 324.3633
1318.361, 175.0684
1319.431, 258.7578
1320.501, 197.4336
1321.571, 335.0020
1322.641, 170.0957
1323.710, 308.5898
1324.780, 135.2051
1325.849, 349.7168
1326.918, 52.13086
1327.987, 259.4375
1329.056, 305.8262
1330.125, 81.91602
1331.194, 244.4434
1332.263, 253.5371
1333.331, 256.8906
1334.399, 344.3750
1335.467, 150.2324
1336.535, 371.6875
1337.603, 352.1309
1338.671, 192.5410
1339.739, 143.5098
1340.806, 93.89648
1341.874, 77.27734
1342.941, 58.75586
1344.008, 133.7539
1345.075, 106.0879
1346.142, 148.4062
1347.209, 287.7129
1348.275, 64.00781
1349.342, 253.2891
1350.408, 303.5625
1351.475, 242.8203
1352.541, 243.0391
1353.607, 404.8887
1354.673, 289.1152
1355.738, 306.2461
1356.804, 343.4531
1357.869, 153.6484
1358.935, 151.8262
1360.000, 264.9980
1361.065, 56.29492
1362.130, 20.00586
1363.195, 116.9707
1364.259, 219.4883
1365.324, 256.6660
1366.388, 289.7949
1367.453, 202.9160
1368.517, 303.0176
1369.581, 213.1074
1370.645, 169.2988
