##NAMES=Albite
##RRUFFID=R040129
##IDEAL CHEMISTRY=NaAlSi_3_O_8_
##LOCALITY=LaChance Quarry, Brunswick, Cumberland County, Maine, USA
##OWNER=RRUFF
##SOURCE=Bob Downs
##DESCRIPTION=Colorless fragment of a tabular single crystal
##STATUS=The identification of this mineral has been confirmed by X-ray diffraction and chemical analysis
##URL=rruff.info/R040129
##MEASURED CHEMISTRY=(Na_0.99_K_0.01_)Al_1.00_Si_3.00_O_8_
##PIN_ID=L00347
##ORIENTATION=Laser parallel to (-1 -1 0). Fiducial mark perpendicular to laser is parallel to -c [0 0 -1]
107.817, 0.000
109.210, 592.672
110.603, 1409.397
111.996, 2193.604
113.388, 3373.181
114.780, 2978.266
116.172, 1344.675
117.564, 436.618
118.956, 336.997
120.347, 125.838
121.738, 76.377
123.129, 58.713
124.519, 59.936
125.910, 1.861
127.300, 146.639
128.690, 6.092
130.080, 113.369
131.469, 154.758
132.858, 22.147
134.248, 212.464
135.636, 68.430
137.025, 195.611
138.413, 333.917
139.801, 393.358
141.189, 674.028
142.577, 655.752
143.964, 808.316
145.352, 1091.662
146.739, 1155.710
148.125, 1600.389
149.512, 1635.658
150.898, 1881.460
152.284, 1717.733
153.670, 1724.436
155.056, 2001.523
156.441, 2808.968
157.827, 3176.741
159.212, 3964.820
160.596, 4483.186
161.981, 4381.815
163.365, 3870.696
164.749, 3209.814
166.133, 2939.152
167.517, 2798.887
168.900, 3279.224
170.283, 3370.854
171.666, 3242.418
173.049, 2898.805
174.431, 2680.017
175.813, 2785.657
177.195, 3007.762
178.577, 3500.414
179.959, 3843.440
181.340, 4236.470
182.721, 4719.498
184.102, 4982.529
185.483, 4655.561
186.863, 4398.594
188.244, 3811.738
189.624, 3145.150
191.003, 2618.555
192.383, 2291.850
193.762, 1875.072
195.141, 1740.785
196.520, 1721.391
197.899, 1684.500
199.277, 1887.575
200.656, 2090.646
202.034, 2733.721
203.411, 3446.804
204.789, 4579.900
206.166, 5613.018
207.543, 6626.158
208.920, 6519.324
210.297, 5492.518
211.673, 4265.738
213.049, 3048.986
214.425, 1982.265
215.801, 1375.572
217.176, 1168.908
218.552, 842.273
219.927, 595.668
221.302, 359.090
222.676, 352.539
224.051, 276.014
225.425, 193.556
226.799, 43.610
228.173, 100.845
229.546, 5.754
230.919, 27.671
232.292, 27.149
233.665, 23.700
235.038, 71.010
236.410, 65.447
237.782, 31.454
239.154, 2.309
240.526, 77.250
241.898, 56.775
243.269, 13.787
244.640, 267.199
246.011, 64.842
247.381, 361.207
248.752, 370.930
250.122, 523.051
251.492, 525.689
252.861, 598.357
254.231, 371.151
255.600, 383.845
256.969, 256.555
258.338, 249.267
259.707, 251.994
261.075, 434.735
262.443, 327.487
263.811, 630.250
265.179, 793.024
266.546, 908.022
267.914, 1147.778
269.281, 1091.800
270.647, 1116.147
272.014, 999.839
273.380, 739.262
274.747, 658.167
276.113, 771.084
277.478, 841.296
278.844, 1021.945
280.209, 1284.504
281.574, 1835.749
282.939, 2647.276
284.304, 3749.047
285.668, 5261.020
287.032, 7113.195
288.396, 8594.438
289.760, 9626.945
291.123, 8919.596
292.487, 7152.379
293.850, 5315.221
295.212, 3708.233
296.575, 2541.344
297.937, 1764.293
299.300, 1307.578
300.662, 1090.938
302.023, 884.369
303.385, 617.865
304.746, 541.421
306.107, 535.031
307.468, 368.689
308.829, 472.393
310.189, 466.138
311.549, 469.920
312.909, 253.737
314.269, 227.585
315.629, 211.463
316.988, 245.368
318.347, 169.300
319.706, 413.254
321.065, 417.229
322.423, 511.224
323.781, 945.236
325.139, 1239.265
326.497, 1693.310
327.855, 2017.367
329.212, 1681.438
330.569, 1235.521
331.926, 809.611
333.283, 403.709
334.639, 257.805
335.995, 271.902
337.351, 115.975
338.707, 80.050
340.063, 44.105
341.418, 31.841
342.773, 42.199
344.128, 63.770
345.483, 190.235
346.837, 25.753
348.192, 98.240
349.546, 72.228
350.899, 196.205
352.253, 70.188
353.606, 64.161
354.960, 8.128
356.313, 62.101
357.665, 126.066
359.018, 20.079
360.370, 74.188
361.722, 58.081
363.074, 72.079
364.426, 43.933
365.777, 29.965
367.128, 56.023
368.479, 12.109
369.830, 78.214
371.181, 4.352
372.531, 120.454
373.881, 33.401
375.231, 67.249
376.581, 58.910
377.930, 114.894
379.280, 101.283
380.629, 42.490
381.977, 3.735
383.326, 19.982
384.674, 76.261
386.023, 122.524
387.370, 18.847
388.718, 85.173
390.066, 158.426
391.413, 101.992
392.760, 135.519
394.107, 159.122
395.454, 143.662
396.800, 96.850
398.146, 190.456
399.492, 202.457
400.838, 395.316
402.184, 432.710
403.529, 342.187
404.874, 563.926
406.219, 837.221
407.564, 860.460
408.908, 893.662
410.252, 686.815
411.596, 742.661
412.940, 422.935
414.284, 665.975
415.627, 769.000
416.970, 692.014
418.313, 375.014
419.656, 358.000
420.999, 40.973
422.341, 173.924
423.683, 216.861
425.025, 40.213
426.367, 122.672
427.708, 104.461
429.049, 168.334
430.390, 61.084
431.731, 83.861
433.072, 156.510
434.412, 59.139
435.752, 145.031
437.092, 27.654
438.432, 200.246
439.772, 212.836
441.111, 75.420
442.450, 399.846
443.789, 242.398
445.127, 414.939
446.466, 517.467
447.804, 320.676
449.142, 543.525
450.480, 686.016
451.817, 788.490
453.155, 1270.949
454.492, 1263.391
455.829, 1476.414
457.166, 1148.818
458.502, 1351.246
459.838, 1323.609
461.175, 1215.955
462.510, 1348.416
463.846, 1540.719
465.181, 1653.000
466.517, 2075.258
467.852, 2347.492
469.186, 3209.705
470.521, 4121.895
471.855, 5854.059
473.190, 8206.199
474.523, 11818.312
475.857, 15770.406
477.191, 19682.473
478.524, 20184.982
479.857, 17627.000
481.190, 13188.992
482.523, 9320.957
483.855, 6892.895
485.187, 5034.809
486.519, 3616.693
487.851, 3468.553
489.183, 2700.385
490.514, 2512.189
491.845, 2613.965
493.176, 2505.719
494.507, 2827.439
495.837, 3089.137
497.168, 3550.803
498.498, 4812.441
499.828, 6534.055
501.157, 9205.637
502.487, 12825.078
503.816, 18416.584
505.145, 23603.492
506.474, 26268.430
507.802, 24677.283
509.131, 19528.787
510.459, 14710.172
511.787, 10473.961
513.115, 7465.285
514.442, 5757.686
515.770, 4512.398
517.097, 3764.004
518.424, 3018.361
519.750, 2668.582
521.077, 2142.605
522.403, 1864.543
523.729, 1645.660
525.055, 1414.062
526.381, 1301.311
527.706, 1308.611
529.031, 1057.641
530.356, 1162.988
531.681, 795.117
533.006, 1048.461
534.330, 810.270
535.654, 792.047
536.978, 657.039
538.302, 684.785
539.625, 567.137
540.949, 641.062
542.272, 539.584
543.595, 726.217
544.917, 353.465
546.240, 653.680
547.562, 461.289
548.884, 314.467
550.206, 924.932
551.527, 1060.199
552.849, 520.939
554.170, 134.602
555.491, 395.227
556.812, 455.994
558.132, 326.258
559.453, 356.992
560.773, 342.371
562.093, 318.375
563.412, 330.061
564.732, 370.191
566.051, 360.760
567.370, 300.840
568.689, 596.199
570.008, 456.188
571.326, 675.633
572.644, 545.557
573.963, 595.447
575.280, 995.314
576.598, 1135.148
577.915, 1114.953
579.233, 1024.992
580.550, 1132.688
581.866, 872.557
583.183, 762.951
584.499, 685.789
585.815, 635.236
587.131, 313.871
588.447, 473.426
589.763, 231.244
591.078, 289.666
592.393, 359.121
593.708, 56.680
595.022, 376.000
596.337, 302.068
597.651, 281.373
598.965, 380.646
600.279, 98.346
601.593, 347.539
602.906, 386.703
604.219, 335.836
605.532, 154.934
606.845, 183.996
608.158, 463.025
609.470, 302.023
610.782, 390.990
612.094, 259.930
613.406, 158.838
614.718, 437.709
616.029, 236.553
617.340, 435.361
618.651, 344.160
619.962, 212.930
621.272, 731.666
622.582, 320.371
623.892, 839.045
625.202, 687.691
626.512, 506.307
627.821, 744.889
629.131, 283.445
630.440, 531.969
631.749, 480.475
633.057, 308.947
634.366, 497.391
635.674, 155.805
636.982, 634.186
638.290, 402.537
639.597, 360.859
640.905, 759.148
642.212, 757.412
643.519, 785.645
644.825, 973.848
646.132, 952.025
647.438, 970.170
648.744, 738.285
650.050, 966.375
651.356, 714.436
652.662, 482.465
653.967, 760.465
655.272, 308.439
656.577, 516.385
657.882, 254.301
659.186, 112.191
660.490, 260.061
661.794, 187.898
663.098, 15.738
664.402, 173.520
665.705, 201.283
667.009, 239.020
668.312, 36.729
669.614, 294.389
670.917, 82.021
672.219, 10.383
673.522, 137.150
674.824, 145.344
676.125, 332.021
677.427, 19.363
678.728, 86.654
680.030, 243.912
681.331, 41.143
682.631, 248.354
683.932, 45.557
685.232, 72.740
686.532, 59.904
687.832, 162.936
689.132, 34.090
690.432, 31.115
691.731, 58.105
693.030, 145.061
694.329, 57.982
695.628, 128.889
696.926, 14.229
698.224, 62.598
699.522, 179.406
700.820, 173.793
702.118, 302.900
703.415, 130.385
704.713, 56.229
706.010, 302.850
707.307, 190.553
708.603, 95.896
709.900, 167.680
711.196, 97.189
712.492, 63.453
713.788, 239.691
715.083, 65.908
716.379, 32.100
717.674, 298.260
718.969, 14.398
720.264, 150.506
721.558, 56.590
722.853, 142.652
724.147, 51.307
725.441, 404.668
726.735, 119.379
728.028, 256.477
729.322, 172.312
730.615, 179.996
731.908, 255.795
733.201, 252.324
734.493, 68.086
735.785, 106.188
737.078, 90.617
738.370, 16.334
739.661, 232.023
740.953, 227.730
742.244, 133.418
743.535, 349.391
744.826, 405.096
746.117, 290.693
747.407, 436.383
748.698, 362.053
749.988, 274.451
751.278, 640.105
752.567, 245.760
753.857, 881.400
755.146, 867.027
756.435, 800.779
757.724, 1396.389
759.013, 1841.984
760.301, 2397.596
761.590, 2932.475
762.878, 2897.686
764.165, 2833.232
765.453, 2258.771
766.741, 1685.289
768.028, 1530.805
769.315, 1045.707
770.602, 1061.201
771.888, 1016.643
773.175, 1176.869
774.461, 922.334
775.747, 787.650
777.033, 773.096
778.319, 578.531
779.604, 553.959
780.889, 499.379
782.174, 244.787
783.459, 390.475
784.744, 265.871
786.028, 403.328
787.312, 478.711
788.596, 154.084
789.880, 579.680
791.164, 104.566
792.447, 359.922
793.730, 535.271
795.013, 190.613
796.296, 186.119
797.579, 191.451
798.861, 376.779
800.143, 542.100
801.425, 47.416
802.707, 792.732
803.989, 408.041
805.270, 893.348
806.551, 1068.650
807.832, 893.947
809.113, 1489.242
810.394, 1764.535
811.674, 2309.824
812.954, 3155.113
814.234, 3119.619
815.514, 3594.902
816.794, 2711.512
818.073, 2213.322
819.352, 1968.396
820.631, 1313.590
821.910, 798.865
823.189, 721.711
824.467, 596.986
825.745, 751.160
827.023, 371.686
828.301, 506.596
829.578, 568.730
830.856, 404.012
832.133, 576.424
833.410, 230.842
834.687, 396.131
835.963, 369.531
837.240, 244.828
838.516, 478.457
839.792, 302.789
841.068, 146.887
842.343, 618.391
843.618, 191.822
844.894, 445.191
846.169, 329.400
847.443, 294.535
848.718, 342.883
849.992, 167.979
851.266, 219.182
852.540, 123.676
853.814, 359.025
855.088, 620.379
856.361, 345.771
857.634, 489.965
858.907, 374.541
860.180, 379.961
861.453, 870.559
862.725, 405.662
863.997, 67.828
865.269, 433.004
866.541, 197.928
867.812, 303.428
869.084, 158.445
870.355, 242.973
871.626, 338.516
872.897, 122.527
874.167, 88.084
875.438, 293.186
876.708, 138.758
877.978, 479.033
879.248, 34.668
880.517, 100.828
881.787, 376.527
883.056, 87.760
884.325, 427.955
885.594, 46.260
886.862, 259.535
888.130, 165.084
889.399, 59.180
890.667, 236.506
891.934, 121.652
893.202, 177.535
894.469, 503.434
895.737, 20.646
897.004, 255.289
898.270, 271.244
899.537, 57.223
900.803, 403.221
902.070, 179.293
903.336, 585.400
904.601, 81.531
905.867, 237.680
907.132, 433.852
908.398, 10.043
909.663, 326.268
910.928, 402.512
912.192, 1.219
913.457, 335.072
914.721, 191.393
915.985, 277.736
917.249, 464.104
918.512, 59.504
919.776, 46.902
921.039, 133.332
922.302, 79.791
923.565, 476.271
924.827, 177.223
926.090, 449.275
927.352, 55.797
928.614, 42.342
929.876, 248.912
931.138, 235.506
932.399, 132.168
933.660, 348.855
934.922, 24.434
936.182, 632.301
937.443, 100.941
938.704, 165.824
939.964, 432.613
941.224, 20.572
942.484, 516.264
943.744, 243.125
945.003, 60.014
946.262, 506.930
947.521, 16.131
948.780, 610.828
950.039, 337.809
951.298, 234.812
952.556, 501.836
953.814, 178.883
955.072, 475.947
956.330, 473.037
957.587, 100.146
958.845, 567.271
960.102, 144.422
961.359, 341.596
962.615, 388.795
963.872, 246.012
965.128, 413.252
966.384, 260.523
967.640, 82.180
968.896, 585.139
970.152, 222.498
971.407, 59.883
972.662, 557.301
973.917, 164.742
975.172, 572.221
976.427, 419.730
977.681, 507.270
978.935, 724.861
980.189, 142.482
981.443, 670.189
982.697, 267.926
983.950, 375.705
985.203, 243.516
986.456, 461.357
987.709, 109.242
988.962, 387.152
990.214, 125.104
991.467, 233.088
992.719, 161.111
993.971, 309.225
995.222, 307.377
996.474, 105.572
997.725, 493.803
998.976, 552.066
1000.227, 510.391
1001.478, 988.750
1002.728, 867.160
1003.978, 825.605
1005.229, 574.084
1006.479, 559.535
1007.728, 661.260
1008.978, 549.943
1010.227, 818.666
1011.476, 1087.428
1012.725, 696.279
1013.974, 1145.164
1015.223, 1444.139
1016.471, 443.150
1017.719, 1212.195
1018.967, 441.277
1020.215, 820.393
1021.462, 749.547
1022.710, 458.736
1023.957, 937.969
1025.204, 527.230
1026.451, 896.533
1027.697, 895.871
1028.944, 525.957
1030.190, 1085.387
1031.436, 701.234
1032.682, 760.781
1033.928, 1188.490
1035.173, 590.475
1036.418, 459.381
1037.663, 699.070
1038.908, 338.844
1040.153, 927.559
1041.398, 307.367
1042.642, 797.219
1043.886, 927.109
1045.130, 267.039
1046.374, 956.764
1047.617, 596.773
1048.860, 717.105
1050.104, 1217.197
1051.347, 409.498
1052.589, 829.674
1053.832, 1069.895
1055.074, 340.186
1056.316, 810.492
1057.558, 520.842
1058.800, 691.232
1060.042, 621.668
1061.283, 422.150
1062.524, 752.648
1063.765, 693.221
1065.006, 314.105
1066.247, 894.775
1067.487, 715.492
1068.728, 255.252
1069.968, 845.947
1071.208, 336.688
1072.447, 1077.254
1073.687, 757.861
1074.926, 355.736
1076.165, 1126.422
1077.404, 667.148
1078.643, 1067.910
1079.881, 1238.434
1081.120, 889.281
1082.358, 1329.852
1083.596, 1260.445
1084.834, 1291.266
1086.071, 1761.891
1087.309, 1360.449
1088.546, 2061.082
1089.783, 2481.719
1091.020, 2142.148
1092.256, 3082.734
1093.493, 3063.320
1094.729, 4094.754
1095.965, 4724.832
1097.201, 4834.668
1098.436, 5444.598
1099.672, 5444.441
1100.907, 4514.191
1102.142, 4443.711
1103.377, 3803.121
1104.612, 3223.676
1105.846, 3552.871
1107.081, 2650.699
1108.315, 3161.258
1109.549, 2561.875
1110.782, 2672.547
1112.016, 2971.746
1113.249, 2322.523
1114.483, 2743.359
1115.716, 2834.254
1116.948, 2235.211
1118.181, 2286.227
1119.413, 1967.301
1120.646, 1998.438
1121.878, 1739.637
1123.110, 1200.895
1124.341, 1312.211
1125.573, 1153.590
1126.804, 555.027
1128.035, 816.527
1129.266, 758.082
1130.497, 599.699
1131.727, 761.379
1132.957, 619.285
1134.188, 474.906
1135.418, 566.758
1136.647, 458.664
1137.877, 550.625
1139.106, 432.645
1140.335, 334.719
1141.564, 806.852
1142.793, 289.031
1144.022, 521.191
1145.250, 713.355
1146.479, 95.512
1147.707, 1087.723
1148.934, 409.996
1150.162, 72.316
1151.390, 844.695
1152.617, 97.113
1153.844, 819.438
1155.071, 511.801
1156.298, 94.207
1157.524, 916.660
1158.751, 79.152
1159.977, 671.691
1161.203, 484.266
1162.428, 156.895
1163.654, 609.566
1164.879, 242.312
1166.105, 205.121
1167.330, 797.977
1168.555, 160.742
1169.779, 243.559
1171.004, 676.441
1172.228, 299.395
1173.452, 622.418
1174.676, 535.488
1175.900, 8.633
1177.123, 611.871
1178.346, 84.797
1179.570, 388.645
1180.793, 592.199
1182.015, 174.125
1183.238, 749.652
1184.460, 323.543
1185.683, 187.527
1186.905, 811.613
1188.126, 225.789
1189.348, 500.062
1190.569, 394.430
1191.791, 448.902
1193.012, 283.465
1194.233, 398.129
1195.453, 182.895
1196.674, 697.754
1197.894, 137.277
1199.114, 787.793
1200.334, 402.973
1201.554, 278.270
1202.774, 643.684
1203.993, 779.223
1205.212, 314.895
1206.431, 790.680
1207.650, 396.633
1208.869, 412.738
1210.087, 888.996
1211.305, 285.422
1212.524, 1042.031
1213.741, 618.816
1214.959, 653.176
1216.177, 1105.438
1217.394, 381.898
1218.611, 1016.641
1219.828, 571.336
1221.045, 86.199
1222.261, 1261.055
1223.478, 685.879
1224.694, 799.230
1225.910, 1149.246
1227.126, 89.262
1228.342, 1171.609
1229.557, 942.082
1230.772, 221.883
1231.987, 1090.852
1233.202, 576.871
1234.417, 873.500
1235.631, 1080.457
1236.846, 509.840
1238.060, 659.227
1239.274, 1114.648
1240.488, 47.363
1241.701, 1064.520
1242.915, 801.480
1244.128, 320.668
1245.341, 663.805
1246.554, 190.914
1247.767, 555.953
1248.979, 695.152
1250.191, 1.488
1251.403, 659.699
1252.615, 0.000
##END=



