##NAMES=Albite
##RRUFFID=R040129
##IDEAL CHEMISTRY=NaAlSi_3_O_8_
##LOCALITY=LaChance Quarry, Brunswick, Cumberland County, Maine, USA
##OWNER=RRUFF
##SOURCE=Bob Downs
##DESCRIPTION=Colorless fragment of a tabular single crystal
##STATUS=The identification of this mineral has been confirmed by X-ray diffraction and chemical analysis
##URL=rruff.info/R040129
##MEASURED CHEMISTRY=(Na_0.99_K_0.01_)Al_1.00_Si_3.00_O_8_
##PIN_ID=L00143
##ORIENTATION=Laser parallel to -a* (-1 0 0). Fiducial mark perpendicular to laser is parallel to -b [0 -1 0]
102.242, 0.000
103.636, 7.486
105.030, 238.334
106.423, 597.877
107.817, 1487.291
109.210, 2482.886
110.603, 3705.492
111.996, 4437.835
113.388, 4854.718
114.780, 4187.507
116.172, 3003.955
117.564, 2082.109
118.956, 1326.240
120.347, 891.973
121.738, 652.918
123.129, 397.611
124.519, 377.670
125.910, 279.779
127.300, 299.673
128.690, 196.135
130.080, 192.984
131.469, 108.067
132.858, 74.258
134.248, 195.461
135.636, 98.917
137.025, 146.314
138.413, 154.305
139.801, 158.929
141.189, 156.127
142.577, 280.838
143.964, 363.010
145.352, 562.583
146.739, 766.511
148.125, 923.759
149.512, 1043.301
150.898, 958.114
152.284, 681.181
153.670, 580.486
155.056, 488.016
156.441, 653.758
157.827, 838.701
159.212, 1256.833
160.596, 1581.146
161.981, 1713.642
163.365, 1682.318
164.749, 1380.187
166.133, 1341.500
167.517, 1284.709
168.900, 1504.065
170.283, 1602.320
171.666, 1647.726
173.049, 1680.888
174.431, 1831.122
175.813, 1989.509
177.195, 2275.966
178.577, 2835.413
179.959, 3300.840
181.340, 3835.249
182.721, 4343.643
184.102, 4633.025
185.483, 4590.347
186.863, 4376.507
188.244, 4035.574
189.624, 3428.585
191.003, 2964.567
192.383, 2637.539
193.762, 2200.515
195.141, 2167.505
196.520, 1956.517
197.899, 1962.557
199.277, 2073.629
200.656, 2208.736
202.034, 2786.881
203.411, 3545.065
204.789, 4737.290
206.166, 5759.555
207.543, 6921.861
208.920, 7004.205
210.297, 6256.590
211.673, 4999.016
213.049, 3505.478
214.425, 2516.978
215.801, 1694.515
217.176, 1135.088
218.552, 837.697
219.927, 521.336
221.302, 447.435
222.676, 278.123
224.051, 175.187
225.425, 144.100
226.799, 35.552
228.173, 27.798
229.546, 4.350
230.919, 51.099
232.292, 13.447
233.665, 75.250
235.038, 62.687
236.410, 155.696
237.782, 36.830
239.154, 140.715
240.526, 62.526
241.898, 96.308
243.269, 87.622
244.640, 12.405
246.011, 27.552
247.381, 149.313
248.752, 165.544
250.122, 249.713
251.492, 304.871
252.861, 243.529
254.231, 212.153
255.600, 169.744
256.969, 172.341
258.338, 252.955
259.707, 253.613
261.075, 347.500
262.443, 414.887
263.811, 617.560
265.179, 867.247
266.546, 1199.947
267.914, 1404.781
269.281, 1576.265
270.647, 1448.907
272.014, 1386.203
273.380, 1224.017
274.747, 1108.258
276.113, 1231.858
277.478, 1264.766
278.844, 1726.942
280.209, 2035.353
281.574, 2826.971
282.939, 3982.774
284.304, 5703.744
285.668, 8255.862
287.032, 11138.113
288.396, 13980.486
289.760, 15712.967
291.123, 15005.551
292.487, 12958.222
293.850, 9750.979
295.212, 6983.809
296.575, 4976.713
297.937, 3562.683
299.300, 2543.713
300.662, 1970.799
302.023, 1537.930
303.385, 1115.099
304.746, 878.304
306.107, 816.540
307.468, 610.807
308.829, 538.102
310.189, 425.423
311.549, 426.767
312.909, 417.135
314.269, 240.523
315.629, 271.931
316.988, 291.358
318.347, 311.802
319.706, 212.262
321.065, 193.738
322.423, 229.228
323.781, 264.730
325.139, 344.245
326.497, 433.772
327.855, 525.309
329.212, 512.855
330.569, 433.408
331.926, 308.953
333.283, 186.468
334.639, 115.922
335.995, 59.555
337.351, 24.637
338.707, 23.960
340.063, 41.281
341.418, 71.598
342.773, 26.911
344.128, 35.221
345.483, 81.527
346.837, 33.830
348.192, 91.129
349.546, 3.425
350.899, 91.712
352.253, 5.999
353.606, 2.721
354.960, 45.454
356.313, 25.203
357.665, 24.969
359.018, 115.727
360.370, 14.522
361.722, 57.318
363.074, 2.862
364.426, 6.968
365.777, 92.812
367.128, 5.309
368.479, 109.564
369.830, 121.476
371.181, 95.431
372.531, 1.595
373.881, 25.611
375.231, 20.377
376.581, 44.387
377.930, 22.580
379.280, 96.429
380.629, 6.476
381.977, 63.523
383.326, 13.400
384.674, 56.688
386.023, 20.229
387.370, 67.127
388.718, 11.028
390.066, 67.905
391.413, 39.760
392.760, 27.465
394.107, 85.474
395.454, 80.050
396.800, 110.142
398.146, 71.479
399.492, 154.195
400.838, 144.935
402.184, 143.853
403.529, 173.680
404.874, 166.101
406.219, 243.715
407.564, 285.966
408.908, 270.205
410.252, 363.428
411.596, 313.620
412.940, 628.808
414.284, 766.992
415.627, 1162.177
416.970, 944.360
418.313, 704.543
419.656, 527.726
420.999, 287.908
422.341, 276.089
423.683, 203.269
425.025, 167.447
426.367, 234.625
427.708, 165.801
429.049, 317.976
430.390, 193.173
431.731, 235.389
433.072, 247.618
434.412, 248.857
435.752, 258.104
437.092, 263.356
438.432, 368.612
439.772, 406.871
441.111, 365.130
442.450, 549.390
443.789, 471.647
445.127, 618.904
446.466, 516.158
447.804, 544.408
449.142, 729.653
450.480, 839.894
451.817, 906.129
453.155, 1074.358
454.492, 1151.581
455.829, 1291.842
457.166, 1469.006
458.502, 1628.207
459.838, 1796.400
461.175, 2100.586
462.510, 2319.762
463.846, 2769.930
465.181, 3283.088
466.517, 4009.237
467.852, 4981.378
469.186, 6433.508
470.521, 8715.632
471.855, 11967.741
473.190, 16979.838
474.523, 24491.934
475.857, 32624.012
477.191, 41396.082
478.524, 43518.145
479.857, 40090.199
481.190, 31512.234
482.523, 22294.258
483.855, 16176.274
485.187, 11568.280
486.519, 8680.276
487.851, 7292.259
489.183, 5924.232
490.514, 5436.192
491.845, 5088.142
493.176, 5140.080
494.507, 5462.007
495.837, 6173.921
497.168, 7395.827
498.498, 9277.586
499.828, 12579.290
501.157, 17171.162
502.487, 24533.023
503.816, 34794.684
505.145, 44046.457
506.474, 51148.289
507.802, 48829.961
509.131, 40591.777
510.459, 30882.293
511.787, 21714.666
513.115, 16034.536
514.442, 11854.523
515.770, 9252.561
517.097, 7531.201
518.424, 6035.270
519.750, 5168.581
521.077, 4230.804
522.403, 3727.603
523.729, 3407.664
525.055, 2840.938
526.381, 2537.228
527.706, 2424.968
529.031, 2100.589
530.356, 1934.021
531.681, 1827.066
533.006, 1787.506
534.330, 1439.039
535.654, 1513.108
536.978, 1280.336
538.302, 1234.011
539.625, 1200.664
540.949, 1155.678
542.272, 986.765
543.595, 932.786
544.917, 826.865
546.240, 960.673
547.562, 797.414
548.884, 761.885
550.206, 756.993
551.527, 602.562
552.849, 732.228
554.170, 542.489
555.491, 561.733
556.812, 581.650
558.132, 565.750
559.453, 532.279
560.773, 570.915
562.093, 513.465
563.412, 549.017
564.732, 473.585
566.051, 507.188
567.370, 448.757
568.689, 574.417
570.008, 481.986
571.326, 571.568
572.644, 576.170
573.963, 744.991
575.280, 847.588
576.598, 985.179
577.915, 1149.764
579.233, 1112.340
580.550, 1022.910
581.866, 966.474
583.183, 595.030
584.499, 476.581
585.815, 467.124
587.131, 397.660
588.447, 421.195
589.763, 280.722
591.078, 295.250
592.393, 232.771
593.708, 186.284
595.022, 310.790
596.337, 255.289
597.651, 195.780
598.965, 108.264
600.279, 215.740
601.593, 294.218
602.906, 216.689
604.219, 194.151
605.532, 130.607
606.845, 149.054
608.158, 241.494
609.470, 135.926
610.782, 335.351
612.094, 163.771
613.406, 239.184
614.718, 218.589
616.029, 175.986
617.340, 262.377
618.651, 105.760
619.962, 104.135
621.272, 250.508
622.582, 117.872
623.892, 321.229
625.202, 136.579
626.512, 163.921
627.821, 240.256
629.131, 244.584
630.440, 287.905
631.749, 245.219
633.057, 189.525
634.366, 239.825
635.674, 153.118
636.982, 370.403
638.290, 279.682
639.597, 324.953
640.905, 395.263
642.212, 385.520
643.519, 460.769
644.825, 552.012
646.132, 546.248
647.438, 600.477
648.744, 482.699
650.050, 562.915
651.356, 394.123
652.662, 256.325
653.967, 372.520
655.272, 143.708
656.577, 213.891
657.882, 142.068
659.186, 201.240
660.490, 104.405
661.794, 98.565
663.098, 111.719
664.402, 148.866
665.705, 111.009
667.009, 102.145
668.312, 35.282
669.614, 127.406
670.917, 129.535
672.219, 42.666
673.522, 108.805
674.824, 61.047
676.125, 124.061
677.427, 24.800
678.728, 57.316
680.030, 58.447
681.331, 116.580
682.631, 94.718
683.932, 37.117
685.232, 38.016
686.532, 77.175
687.832, 41.630
689.132, 11.555
690.432, 9.735
691.731, 105.905
693.030, 26.086
694.329, 110.723
695.628, 51.397
696.926, 45.454
698.224, 15.664
699.522, 2.361
700.820, 111.518
702.118, 118.552
703.415, 16.375
704.713, 52.670
706.010, 105.720
707.307, 27.234
708.603, 4.216
709.900, 84.797
711.196, 96.818
712.492, 38.767
713.788, 130.531
715.083, 109.468
716.379, 67.009
717.674, 223.807
718.969, 120.726
720.264, 209.161
721.558, 79.271
722.853, 124.173
724.147, 71.971
725.441, 176.860
726.735, 126.456
728.028, 120.373
729.322, 64.244
730.615, 162.912
731.908, 121.768
733.201, 174.618
734.493, 98.462
735.785, 110.419
737.078, 218.131
738.370, 103.956
739.661, 196.776
740.953, 229.642
742.244, 189.449
743.535, 222.241
744.826, 318.038
746.117, 249.508
747.407, 494.293
748.698, 429.072
749.988, 489.845
751.278, 627.613
752.567, 605.375
753.857, 988.132
755.146, 1089.883
756.435, 1409.646
757.724, 1870.386
759.013, 2541.121
760.301, 3481.851
761.590, 4182.576
762.878, 4673.295
764.165, 4534.010
765.453, 3554.719
766.741, 2866.128
768.028, 2276.828
769.315, 1747.521
770.602, 1698.211
771.888, 1698.896
773.175, 1839.656
774.461, 1700.331
775.747, 1701.784
777.033, 1429.450
778.319, 1042.113
779.604, 819.771
780.889, 695.425
782.174, 541.073
783.459, 494.747
784.744, 442.389
786.028, 449.175
787.312, 365.809
788.596, 204.437
789.880, 360.062
791.164, 164.684
792.447, 264.302
793.730, 307.915
795.013, 56.526
796.296, 214.133
797.579, 101.735
798.861, 243.335
800.143, 182.932
801.425, 128.525
802.707, 292.115
803.989, 213.702
805.270, 396.287
806.551, 353.868
807.832, 362.446
809.113, 492.022
810.394, 547.596
811.674, 943.166
812.954, 1167.733
814.234, 1119.299
815.514, 1370.861
816.794, 951.422
818.073, 802.981
819.352, 743.537
820.631, 585.091
821.910, 325.644
823.189, 305.610
824.467, 228.158
825.745, 378.704
827.023, 225.811
828.301, 281.353
829.578, 232.416
830.856, 181.956
832.133, 287.309
833.410, 148.631
834.687, 278.970
835.963, 211.505
837.240, 118.037
838.516, 176.649
839.792, 145.730
841.068, 61.232
842.343, 263.581
843.618, 114.078
844.894, 138.519
846.169, 156.045
847.443, 118.939
848.718, 146.976
849.992, 41.273
851.266, 68.419
852.540, 22.911
853.814, 102.184
855.088, 120.138
856.361, 38.650
857.634, 62.593
858.907, 44.914
860.180, 127.432
861.453, 78.723
862.725, 45.531
863.997, 52.938
865.269, 34.542
866.541, 39.382
867.812, 14.086
869.084, 36.441
870.355, 22.085
871.626, 98.368
872.897, 53.176
874.167, 4.739
875.438, 44.670
876.708, 60.890
877.978, 24.442
879.248, 91.138
880.517, 112.755
881.787, 64.591
883.056, 44.285
884.325, 37.052
885.594, 27.393
886.862, 157.737
888.130, 22.086
889.399, 49.447
890.667, 53.813
891.934, 4.184
893.202, 0.441
894.469, 187.937
895.737, 29.681
897.004, 168.698
898.270, 45.917
899.537, 69.456
900.803, 23.835
902.070, 82.230
903.336, 206.631
904.601, 34.038
905.867, 129.451
907.132, 223.871
908.398, 55.703
909.663, 145.708
910.928, 140.126
912.192, 60.550
913.457, 193.980
914.721, 48.416
915.985, 149.859
917.249, 153.309
918.512, 26.234
919.776, 109.220
921.039, 122.681
922.302, 78.150
923.565, 127.624
924.827, 3.894
926.090, 170.603
927.352, 29.895
928.614, 116.608
929.876, 118.118
931.138, 83.634
932.399, 129.159
933.660, 94.692
934.922, 0.769
936.182, 214.778
937.443, 8.666
938.704, 111.895
939.964, 196.465
941.224, 86.042
942.484, 174.628
943.744, 158.223
945.003, 40.826
946.262, 249.439
947.521, 50.015
948.780, 260.645
950.039, 141.283
951.298, 181.930
952.556, 172.585
953.814, 193.251
955.072, 253.924
956.330, 184.607
957.587, 145.300
958.845, 206.001
960.102, 136.711
961.359, 247.431
962.615, 218.162
963.872, 208.901
965.128, 279.651
966.384, 250.410
967.640, 111.179
968.896, 381.956
970.152, 372.744
971.407, 393.541
972.662, 684.348
973.917, 585.164
975.172, 795.992
976.427, 766.833
977.681, 807.683
978.935, 908.546
980.189, 689.418
981.443, 710.324
982.697, 471.239
983.950, 432.180
985.203, 273.131
986.456, 324.098
987.709, 255.074
988.962, 306.062
990.214, 187.103
991.467, 298.156
992.719, 219.222
993.971, 220.323
995.222, 351.441
996.474, 302.606
997.725, 473.797
998.976, 455.001
1000.227, 466.277
1001.478, 617.564
1002.728, 688.901
1003.978, 798.727
1005.229, 910.134
1006.479, 721.609
1007.728, 823.102
1008.978, 614.618
1010.227, 786.165
1011.476, 727.725
1012.725, 659.309
1013.974, 658.535
1015.223, 687.541
1016.471, 509.222
1017.719, 699.093
1018.967, 340.800
1020.215, 570.911
1021.462, 681.770
1022.710, 443.514
1023.957, 782.747
1025.204, 694.310
1026.451, 876.087
1027.697, 964.972
1028.944, 946.771
1030.190, 1343.868
1031.436, 1252.236
1032.682, 1304.070
1033.928, 1244.113
1035.173, 846.021
1036.418, 887.896
1037.663, 759.783
1038.908, 543.342
1040.153, 775.255
1041.398, 577.232
1042.642, 809.172
1043.886, 881.110
1045.130, 643.113
1046.374, 914.137
1047.617, 746.276
1048.860, 786.648
1050.104, 818.715
1051.347, 563.360
1052.589, 545.454
1053.832, 607.558
1055.074, 359.862
1056.316, 501.986
1057.558, 414.121
1058.800, 384.250
1060.042, 386.406
1061.283, 398.576
1062.524, 430.756
1063.765, 512.947
1065.006, 475.260
1066.247, 557.475
1067.487, 449.700
1068.728, 471.232
1069.968, 623.479
1071.208, 595.776
1072.447, 768.044
1073.687, 610.320
1074.926, 684.345
1076.165, 896.641
1077.404, 938.175
1078.643, 1130.498
1079.881, 1252.831
1081.120, 1195.502
1082.358, 1537.898
1083.596, 1580.312
1084.834, 1782.814
1086.071, 2265.291
1087.309, 2247.628
1088.546, 3060.139
1089.783, 3462.658
1091.020, 4145.326
1092.256, 5367.885
1093.493, 6360.453
1094.729, 8243.348
1095.965, 9525.934
1097.201, 10548.526
1098.436, 11040.638
1099.672, 11523.736
1100.907, 10616.354
1102.142, 9808.983
1103.377, 8201.613
1104.612, 7434.295
1105.846, 6866.945
1107.081, 5929.604
1108.315, 6092.423
1109.549, 5295.098
1110.782, 5338.235
1112.016, 5500.925
1113.249, 5373.621
1114.483, 5756.338
1115.716, 5419.049
1116.948, 5171.766
1118.181, 4674.489
1119.413, 4087.221
1120.646, 3679.957
1121.878, 3202.699
1123.110, 2704.676
1124.341, 2258.838
1125.573, 1821.597
1126.804, 1594.358
1128.035, 1317.124
1129.266, 1319.896
1130.497, 892.672
1131.727, 1025.455
1132.957, 768.242
1134.188, 772.030
1135.418, 754.836
1136.647, 517.636
1137.877, 656.816
1139.106, 559.623
1140.335, 452.833
1141.564, 557.068
1142.793, 390.358
1144.022, 540.489
1145.250, 446.760
1146.479, 349.784
1147.707, 698.464
1148.934, 551.287
1150.162, 438.615
1151.390, 600.291
1152.617, 353.121
1153.844, 600.952
1155.071, 325.308
1156.298, 258.134
1157.524, 505.846
1158.751, 178.780
1159.977, 391.601
1161.203, 190.469
1162.428, 153.295
1163.654, 306.405
1164.879, 269.759
1166.105, 153.117
1167.330, 286.223
1168.555, 19.247
1169.779, 142.188
1171.004, 265.121
1172.228, 78.000
1173.452, 200.847
1174.676, 133.696
1175.900, 16.526
1177.123, 249.398
1178.346, 67.691
1179.570, 185.383
1180.793, 58.750
1182.015, 2.122
1183.238, 265.229
1184.460, 38.506
1185.683, 48.442
1186.905, 204.587
1188.126, 8.642
1189.348, 71.409
1190.569, 93.477
1191.791, 76.795
1193.012, 89.537
1194.233, 16.015
1195.453, 68.831
1196.674, 122.231
1197.894, 53.666
1199.114, 229.015
1200.334, 141.826
1201.554, 4.485
1202.774, 177.133
1203.993, 89.769
1205.212, 102.394
1206.431, 265.336
1207.650, 98.582
1208.869, 101.183
1210.087, 184.430
1211.305, 37.502
1212.524, 170.081
1213.741, 133.323
1214.959, 145.876
1216.177, 298.419
1217.394, 61.299
1218.611, 383.817
1219.828, 176.323
1221.045, 30.958
1222.261, 331.506
1223.478, 86.006
1224.694, 178.518
1225.910, 300.944
1227.126, 21.710
1228.342, 326.378
1229.557, 271.092
1230.772, 93.946
1231.987, 286.348
1233.202, 178.821
1234.417, 304.978
1235.631, 337.282
1236.846, 94.194
1238.060, 207.285
1239.274, 249.562
1240.488, 52.401
1241.701, 344.664
1242.915, 226.920
1244.128, 149.170
1245.341, 321.413
1246.554, 183.648
1247.767, 176.286
1248.979, 268.506
1250.191, 130.957
1251.403, 183.161
1252.615, 225.356
1253.827, 108.386
1255.039, 330.561
1256.250, 52.729
1257.461, 265.008
1258.672, 297.150
1259.883, 149.284
1261.094, 281.677
1262.304, 373.750
1263.514, 175.797
1264.724, 297.788
1265.934, 309.737
1267.144, 171.695
1268.354, 333.522
1269.563, 45.326
1270.772, 297.201
1271.981, 278.915
1273.190, 210.613
1274.398, 812.425
1275.607, 504.087
1276.815, 506.550
1278.023, 958.243
1279.231, 29.859
1280.439, 171.828
1281.646, 363.405
1282.853, 64.869
1284.060, 216.641
1285.267, 88.126
1286.474, 19.533
1287.681, 81.075
1288.887, 77.589
1290.093, 15.546
1291.299, 135.694
1292.505, 53.082
1293.711, 318.100
1294.916, 30.743
1296.121, 99.628
1297.327, 201.438
1298.531, 37.529
1299.736, 23.462
1300.941, 204.429
1302.145, 34.627
1303.349, 166.263
1304.553, 197.065
1305.757, 52.190
1306.961, 258.419
1308.164, 128.975
1309.367, 89.465
1310.570, 89.922
1311.773, 130.346
1312.976, 150.744
1314.178, 171.113
1315.381, 172.203
1316.583, 186.972
1317.785, 193.984
1318.987, 192.277
1320.188, 203.128
1321.390, 187.896
1322.591, 182.812
1323.792, 140.343
1324.993, 90.429
1326.193, 90.481
1327.394, 130.457
1328.594, 100.448
1329.794, 140.397
1330.994, 138.651
1332.194, 38.530
1333.394, 278.322
1334.593, 101.867
1335.792, 87.861
1336.991, 207.557
1338.190, 12.779
1339.389, 176.736
1340.587, 76.316
1341.786, 35.862
1342.984, 272.805
1344.182, 162.280
1345.379, 241.727
1346.577, 250.958
1347.774, 200.352
1348.972, 349.720
1350.169, 119.062
1351.365, 78.378
1352.562, 267.665
1353.759, 80.116
1354.955, 99.353
1356.151, 358.457
1357.347, 77.646
1358.543, 286.811
1359.738, 245.955
1360.934, 115.081
1362.129, 224.148
1363.324, 293.242
1364.519, 142.321
1365.713, 379.574
1366.908, 18.632
1368.102, 177.518
1369.296, 356.384
1370.490, 84.771
1371.684, 13.724
1372.877, 12.485
1374.071, 118.803
1375.264, 179.798
1376.457, 158.462
1377.650, 12.860
1378.843, 365.848
1380.035, 25.346
1381.227, 65.550
1382.419, 336.214
1383.611, 87.168
1384.803, 398.099
1385.995, 219.001
1387.186, 209.836
1388.377, 360.681
1389.568, 251.328
1390.759, 111.618
1391.950, 312.352
1393.140, 143.068
1394.331, 203.758
1395.521, 364.419
1396.711, 74.330
1397.900, 324.932
1399.090, 395.510
1400.279, 176.059
1401.469, 415.406
1402.658, 235.873
1403.847, 128.667
1405.035, 346.807
1406.224, 187.560
1407.412, 353.208
1408.600, 365.979
1409.788, 149.085
1410.976, 252.483
1412.164, 250.200
1413.351, 133.312
1414.538, 294.861
1415.725, 213.911
1416.912, 121.883
1418.099, 430.586
1419.285, 39.597
1420.472, 138.785
1421.658, 407.999
1422.844, 77.055
1424.030, 325.159
1425.215, 113.144
1426.401, 181.252
1427.586, 438.103
1428.771, 153.027
1429.956, 101.046
1431.141, 433.921
1432.325, 29.413
1433.510, 217.914
1434.694, 356.617
1435.878, 175.298
1437.062, 412.361
1438.245, 429.858
1439.429, 127.559
1440.612, 394.872
1441.795, 372.710
1442.978, 391.131
1444.161, 589.129
1445.343, 233.597
1446.526, 406.190
1447.708, 425.435
1448.890, 222.831
1450.072, 482.490
1451.253, 330.537
1452.435, 415.949
1453.616, 401.655
1454.797, 418.377
1455.978, 384.945
1457.159, 550.461
1458.340, 106.157
1459.520, 320.289
1460.700, 496.129
1461.880, 181.499
1463.060, 546.315
1464.240, 351.810
1465.420, 277.443
1466.599, 473.170
1467.778, 358.854
1468.957, 314.929
1470.136, 540.523
1471.315, 233.855
1472.493, 298.357
1473.671, 643.268
1474.849, 98.534
1476.027, 403.516
1477.205, 386.570
1478.383, 51.872
1479.560, 586.995
1480.737, 221.944
1481.914, 166.765
1483.091, 531.369
1484.268, 176.115
1485.444, 221.542
1486.621, 457.605
1487.797, 73.837
1488.973, 370.046
1490.149, 286.274
1491.324, 82.600
1492.500, 348.995
1493.675, 365.469
1494.850, 58.000
1496.025, 318.583
1497.200, 135.391
1498.374, 102.382
1499.548, 269.620
1500.723, 137.135
1501.897, 154.939
1503.071, 263.126
1504.244, 191.413
1505.418, 320.514
1506.591, 199.737
1507.764, 199.400
1508.937, 183.320
1510.110, 70.335
1511.282, 87.191
1512.455, 203.656
1513.627, 0.698
1514.799, 273.389
1515.971, 283.154
1517.143, 34.122
1518.314, 188.320
1519.486, 188.510
1520.657, 0.000
##END=



