##NAMES=Albite
##RRUFFID=R050402
##IDEAL CHEMISTRY=NaAlSi_3_O_8_
##LOCALITY=Urbano mine, Golconda District, Brazil
##OWNER=RRUFF
##SOURCE=Bob Downs
##DESCRIPTION=Colorless tabular single crystals associated with fluorapatite R050401
##STATUS=The identification of this mineral has been confirmed by X-ray diffraction and chemical analysis
##URL=rruff.info/R050402
##MEASURED CHEMISTRY=Na_1.00_Al_1.00_Si_3.00_O_8_
##PIN_ID=M00163
##ORIENTATION=Laser parallel to (1 0 1). Fiducial mark perpendicular to laser is parallel to b [0 1 0]
126.7490, 0.0000000E+00
127.9790, 202.1191
129.2090, 1.259766
130.4390, 5.123047
131.6680, 114.5996
132.8980, 27.80664
134.1270, 36.34766
135.3560, 320.7930
136.5850, 472.0312
137.8140, 1734.691
139.0430, 2869.953
140.2710, 2985.717
141.5000, 4574.188
142.7280, 5217.225
143.9560, 5736.600
145.1840, 5974.316
146.4120, 6462.441
147.6390, 6972.861
148.8670, 7430.998
150.0940, 8138.215
151.3210, 8960.902
152.5490, 9611.928
153.7750, 9632.008
155.0020, 8917.916
156.2290, 7909.547
157.4550, 6670.443
158.6810, 5898.922
159.9080, 5719.104
161.1340, 5844.205
162.3590, 6197.625
163.5850, 6347.217
164.8110, 6445.875
166.0360, 6319.430
167.2610, 5743.623
168.4860, 5374.117
169.7110, 5353.473
170.9360, 5457.152
172.1610, 5822.863
173.3850, 6366.566
174.6100, 6979.328
175.8340, 7678.158
177.0580, 8727.047
178.2820, 9782.246
179.5050, 10806.62
180.7290, 11404.09
181.9520, 11678.70
183.1760, 12007.84
184.3990, 12403.81
185.6220, 12321.71
186.8450, 12107.62
188.0670, 11453.34
189.2900, 10789.23
190.5120, 9756.555
191.7340, 8749.502
192.9560, 7644.553
194.1780, 7136.449
195.4000, 6498.301
196.6220, 6006.379
197.8430, 6069.807
199.0640, 5931.865
200.2860, 6160.895
201.5070, 6883.773
202.7270, 7236.430
203.9480, 7507.865
205.1690, 7144.098
206.3890, 6829.248
207.6090, 6716.283
208.8290, 6968.232
210.0490, 7098.902
211.2690, 6554.115
212.4890, 6111.775
213.7080, 4839.777
214.9280, 4106.006
216.1470, 2979.900
217.3660, 1968.395
218.5850, 1497.854
219.8030, 963.4824
221.0220, 679.4668
222.2400, 140.2188
223.4590, 73.35742
224.6770, 146.7344
225.8950, 252.2246
227.1120, 252.9609
228.3300, 319.9414
229.5480, 252.2070
230.7650, 387.1270
231.9820, 322.7188
233.1990, 414.4414
234.4160, 450.8125
235.6330, 456.8574
236.8490, 216.1328
238.0660, 254.6660
239.2820, 215.4492
240.4980, 180.4766
241.7140, 253.2539
242.9300, 409.7461
244.1460, 748.0059
245.3610, 1064.006
246.5770, 1044.609
247.7920, 877.5938
249.0070, 996.8477
250.2220, 1211.521
251.4370, 1502.248
252.6510, 1741.547
253.8660, 1550.750
255.0800, 1811.613
256.2940, 1583.178
257.5080, 1530.357
258.7220, 1807.766
259.9360, 2334.500
261.1490, 2291.723
262.3630, 2599.090
263.5760, 2462.291
264.7890, 2664.330
266.0020, 2605.262
267.2150, 3060.129
268.4270, 2933.963
269.6400, 3150.770
270.8520, 3464.562
272.0640, 3061.344
273.2760, 3074.793
274.4880, 2835.857
275.7000, 2748.527
276.9120, 2923.102
278.1230, 3158.170
279.3340, 3888.631
280.5450, 4675.199
281.7560, 5750.961
282.9670, 7266.477
284.1780, 8192.648
285.3880, 9078.082
286.5980, 9642.346
287.8090, 10273.78
289.0190, 11132.09
290.2290, 11562.56
291.4380, 12026.12
292.6480, 11925.40
293.8570, 11342.64
295.0670, 10340.71
296.2760, 8802.699
297.4850, 7034.246
298.6930, 5686.148
299.9020, 4387.047
301.1110, 3464.055
302.3190, 2943.506
303.5270, 2402.883
304.7350, 2324.309
305.9430, 2615.043
307.1510, 2163.133
308.3580, 2278.611
309.5660, 2188.516
310.7730, 1797.883
311.9800, 1696.123
313.1870, 1408.084
314.3940, 1196.967
315.6010, 1171.389
316.8070, 1086.373
318.0130, 1217.859
319.2200, 1341.666
320.4260, 1859.475
321.6310, 2013.131
322.8370, 2289.170
324.0430, 2724.637
325.2480, 2717.047
326.4540, 2927.475
327.6590, 2833.652
328.8640, 2938.324
330.0680, 3010.176
331.2730, 2734.617
332.4780, 2710.791
333.6820, 2329.689
334.8860, 2063.389
336.0900, 1691.924
337.2940, 1611.658
338.4980, 1689.520
339.7010, 1583.635
340.9050, 1696.674
342.1080, 1882.641
343.3110, 2101.549
344.5140, 2365.400
345.7170, 2497.197
346.9200, 2775.939
348.1220, 2906.621
349.3240, 2935.242
350.5270, 3310.797
351.7290, 3331.277
352.9310, 3463.688
354.1320, 3276.016
355.3340, 3385.264
356.5350, 3049.428
357.7370, 3100.504
358.9380, 3168.492
360.1390, 2998.393
361.3400, 2890.428
362.5400, 2597.176
363.7410, 2609.783
364.9410, 2439.172
366.1410, 2339.527
367.3410, 2164.840
368.5410, 1990.168
369.7410, 1815.094
370.9400, 1637.830
372.1400, 1460.631
373.3390, 1283.693
374.5380, 1117.117
375.7370, 977.2988
376.9360, 798.6113
378.1350, 711.5977
379.3330, 548.3828
380.5310, 422.0039
381.7300, 381.9688
382.9280, 189.7480
384.1260, 233.2266
385.3230, 92.13281
386.5210, 254.3789
387.7180, 401.4434
388.9160, 345.8457
390.1130, 580.6465
391.3100, 614.3223
392.5060, 856.5859
393.7030, 974.9551
394.9000, 901.1719
396.0960, 828.6250
397.2920, 1250.080
398.4880, 1162.779
399.6840, 1461.584
400.8800, 1666.455
402.0750, 1892.148
403.2710, 1699.039
404.4660, 1639.225
405.6610, 1722.330
406.8560, 2167.838
408.0510, 2437.871
409.2450, 2984.848
410.4400, 2909.754
411.6340, 2763.822
412.8280, 2259.992
414.0220, 2228.227
415.2160, 1901.541
416.4100, 2004.951
417.6030, 2333.289
418.7970, 1874.510
419.9900, 1718.678
421.1830, 1146.750
422.3760, 547.7461
423.5690, 246.5879
424.7610, 82.28320
425.9540, 28.81055
427.1460, 189.8105
428.3380, 371.5879
429.5300, 159.6035
430.7220, 277.7930
431.9140, 412.1387
433.1050, 197.6953
434.2970, 222.3945
435.4880, 291.2578
436.6790, 33.71484
437.8700, 16.39258
439.0610, 51.59570
440.2510, 14.12305
441.4420, 228.6914
442.6320, 519.1602
443.8220, 923.5000
445.0120, 1151.730
446.2020, 1820.852
447.3910, 2371.943
448.5810, 3188.609
449.7700, 3834.396
450.9600, 4525.203
452.1490, 4808.406
453.3370, 5481.152
454.5260, 5714.182
455.7150, 5977.707
456.9030, 6274.953
458.0910, 6492.246
459.2800, 6503.365
460.4670, 6141.988
461.6550, 5698.168
462.8430, 5493.805
464.0300, 5392.555
465.2180, 5943.898
466.4050, 6824.363
467.5920, 7998.840
468.7790, 10185.26
469.9650, 12474.63
471.1520, 15652.96
472.3380, 18634.26
473.5250, 20871.52
474.7110, 22189.74
475.8970, 23506.93
477.0820, 24629.63
478.2680, 26128.24
479.4540, 26883.33
480.6390, 26551.10
481.8240, 24528.22
483.0090, 21697.92
484.1940, 18195.12
485.3780, 14705.12
486.5630, 12324.07
487.7470, 10646.96
488.9320, 9564.836
490.1160, 8920.676
491.3000, 8733.488
492.4830, 8997.273
493.6670, 9532.029
494.8500, 10887.76
496.0340, 12224.46
497.2170, 14495.12
498.4000, 17673.77
499.5820, 21630.38
500.7650, 25092.97
501.9480, 28337.53
503.1300, 29961.05
504.3120, 32027.56
505.4940, 33288.06
506.6760, 34980.56
507.8580, 35867.11
509.0390, 35321.67
510.2210, 33048.36
511.4020, 29182.99
512.5830, 24655.12
513.7640, 19539.91
514.9450, 15473.38
516.1250, 11992.55
517.3060, 9563.434
518.4860, 7408.203
519.6660, 6171.662
520.8460, 5200.238
522.0260, 4246.633
523.2060, 3515.885
524.3850, 2977.803
525.5650, 2496.721
526.7440, 2261.430
527.9230, 1922.479
529.1020, 2031.223
530.2810, 1570.172
531.4590, 1434.705
532.6380, 1410.689
533.8160, 1115.314
534.9940, 1038.521
536.1720, 881.5195
537.3500, 802.3203
538.5270, 698.9238
539.7050, 790.4648
540.8820, 773.6855
542.0590, 887.3477
543.2360, 663.7305
544.4130, 830.0234
545.5900, 822.3223
546.7660, 559.4297
547.9430, 1224.760
549.1190, 835.6680
550.2950, 1427.889
551.4710, 581.8398
552.6470, 514.8672
553.8220, 452.3125
554.9980, 666.5195
556.1730, 583.4355
557.3480, 669.1133
558.5230, 663.3672
559.6980, 625.0918
560.8730, 729.2285
562.0470, 590.3555
563.2220, 801.6172
564.3960, 825.7871
565.5700, 693.3301
566.7440, 785.0449
567.9170, 740.0918
569.0910, 979.0684
570.2640, 1345.631
571.4380, 1239.008
572.6110, 1644.807
573.7840, 1588.936
574.9570, 1696.605
576.1290, 1708.891
577.3020, 1841.760
578.4740, 1865.879
579.6460, 2316.812
580.8180, 2181.498
581.9900, 2467.617
583.1620, 2316.355
584.3330, 2522.570
585.5040, 2724.801
586.6760, 2852.854
587.8470, 2747.633
589.0180, 3011.346
590.1880, 3019.742
591.3590, 3176.096
592.5290, 3335.414
593.7000, 3689.695
594.8700, 3865.945
596.0400, 3802.164
597.2090, 3843.357
598.3790, 3701.527
599.5490, 3762.680
600.7180, 3608.816
601.8870, 3741.934
603.0560, 3439.037
604.2250, 3423.117
605.3940, 3230.168
606.5620, 2928.188
607.7300, 2973.166
608.8990, 2637.105
610.0670, 2317.002
611.2350, 2337.854
612.4020, 2314.666
613.5700, 2163.432
614.7370, 3303.158
615.9050, 2394.838
617.0720, 2264.479
618.2390, 3768.076
619.4060, 2742.635
620.5720, 2733.164
621.7390, 2989.660
622.9050, 2914.125
624.0710, 3295.559
625.2370, 3323.961
626.4030, 3459.324
627.5690, 3655.648
628.7340, 3236.928
629.9000, 3199.160
631.0650, 2805.346
632.2300, 2671.486
633.3950, 2563.580
634.5600, 2396.629
635.7240, 2388.633
636.8890, 2201.588
638.0530, 2215.494
639.2170, 2306.355
640.3810, 2376.170
641.5450, 2678.934
642.7080, 2630.654
643.8720, 2751.324
645.0350, 2937.945
646.1980, 2876.520
647.3610, 3048.045
648.5240, 3032.543
649.6870, 3039.031
650.8490, 3061.469
652.0120, 2863.879
653.1740, 2513.242
654.3360, 2594.564
655.4980, 2124.852
656.6600, 1999.094
657.8210, 1686.320
658.9830, 1723.527
660.1440, 1517.695
661.3050, 1252.818
662.4660, 1131.896
663.6270, 991.9336
664.7870, 814.9434
665.9480, 786.9141
667.1080, 545.8359
668.2680, 569.3086
669.4280, 468.5312
670.5880, 535.2910
671.7480, 440.9961
672.9070, 339.6348
674.0670, 224.2031
675.2260, 170.6953
676.3850, 92.10156
677.5440, 212.4238
678.7030, 59.33398
679.8610, 113.7578
681.0200, 50.75977
682.1780, 12.66211
683.3360, 106.4473
684.4940, 93.85938
685.6520, 57.34375
686.8090, 138.9824
687.9670, 19.82227
689.1240, 197.8027
690.2810, 129.0215
691.4380, 33.43750
692.5950, 294.0039
693.7520, 129.8594
694.9080, 219.9160
696.0650, 247.2207
697.2210, 239.7930
698.3770, 23.62500
699.5330, 262.6094
700.6880, 98.86719
701.8440, 158.3164
702.9990, 65.01172
704.1550, 12.23828
705.3100, 81.34570
706.4650, 8.632813
707.6190, 120.7422
708.7740, 30.01562
709.9290, 16.38086
711.0830, 193.8633
712.2370, 158.5430
713.3910, 131.3711
714.5450, 72.37500
715.6980, 134.5176
716.8520, 178.8281
718.0050, 150.3555
719.1580, 202.0918
720.3110, 171.9473
721.4640, 31.08789
722.6170, 172.7285
723.7700, 237.4629
724.9220, 266.1133
726.0740, 556.6816
727.2260, 560.1777
728.3780, 822.5996
729.5300, 803.9531
730.6810, 647.2363
731.8330, 629.4492
732.9840, 631.5977
734.1350, 757.6758
735.2860, 643.6836
736.4370, 604.6250
737.5880, 894.4961
738.7380, 868.2988
739.8880, 610.0352
741.0390, 726.7012
742.1890, 816.2988
743.3380, 976.8281
744.4880, 1026.291
745.6380, 1024.686
746.7870, 1286.012
747.9360, 1505.270
749.0850, 1371.461
750.2340, 1852.586
751.3830, 2312.645
752.5310, 2837.635
753.6800, 3613.561
754.8280, 4127.418
755.9760, 5183.209
757.1240, 6189.934
758.2720, 7341.598
759.4190, 8177.188
760.5670, 8832.719
761.7140, 9015.184
762.8610, 9691.582
764.0080, 9690.918
765.1550, 9272.188
766.3020, 8510.396
767.4480, 7566.537
768.5950, 6576.615
769.7410, 5440.631
770.8870, 4848.584
772.0330, 4390.473
773.1780, 3811.297
774.3240, 3409.059
775.4690, 3513.760
776.6140, 3116.398
777.7590, 2925.973
778.9040, 2920.488
780.0490, 2618.943
781.1940, 2389.336
782.3380, 2131.670
783.4820, 2173.941
784.6260, 2171.152
785.7700, 2204.445
786.9140, 2066.387
788.0580, 2172.449
789.2010, 2107.586
790.3450, 2299.574
791.4880, 2324.400
792.6310, 2383.736
793.7730, 2586.584
794.9160, 2759.709
796.0590, 2908.590
797.2010, 3157.320
798.3430, 3409.029
799.4850, 3894.697
800.6270, 4423.309
801.7690, 5906.746
802.9100, 6019.244
804.0520, 7142.686
805.1930, 8821.512
806.3340, 11352.38
807.4750, 12006.76
808.6160, 12746.37
809.7560, 13411.52
810.8970, 13848.20
812.0370, 13555.33
813.1770, 13479.18
814.3170, 13214.66
815.4570, 12672.57
816.5960, 11837.75
817.7360, 10946.15
818.8750, 9306.105
820.0140, 7917.281
821.1530, 6737.502
822.2920, 5524.654
823.4310, 4528.938
824.5690, 4138.932
825.7070, 3596.248
826.8460, 3114.244
827.9840, 3136.404
829.1220, 2741.424
830.2590, 2777.953
831.3970, 2351.648
832.5340, 2487.564
833.6710, 2361.648
834.8080, 2262.086
835.9450, 2239.982
837.0820, 2288.781
838.2190, 2358.758
839.3550, 2398.160
840.4910, 2464.266
841.6270, 2550.957
842.7630, 2880.758
843.8990, 2950.980
845.0350, 3106.086
846.1700, 3467.816
847.3060, 3977.330
848.4410, 3933.635
849.5760, 4755.092
850.7100, 4900.195
851.8450, 5328.941
852.9800, 5748.740
854.1140, 6174.703
855.2480, 6362.379
856.3820, 6466.832
857.5160, 6562.633
858.6500, 6335.727
859.7830, 6129.543
860.9170, 5803.641
862.0500, 5495.865
863.1830, 5206.314
864.3160, 4791.787
865.4480, 4019.535
866.5810, 3389.281
867.7130, 2875.025
868.8460, 2668.766
869.9780, 2378.504
871.1100, 1946.244
872.2410, 1924.982
873.3730, 1720.719
874.5050, 1587.457
875.6360, 1299.197
876.7670, 1388.939
877.8980, 1187.682
879.0290, 1093.428
880.1590, 831.1758
881.2900, 893.9277
882.4200, 756.6836
883.5500, 701.4434
884.6800, 606.2090
885.8100, 538.9785
886.9400, 566.7539
888.0690, 506.0898
889.1990, 489.4258
890.3280, 488.1230
891.4570, 455.9277
892.5860, 472.7422
893.7140, 487.5625
894.8430, 530.6250
895.9710, 604.2363
897.1000, 625.0879
898.2280, 637.9512
899.3560, 617.8242
900.4830, 753.7090
901.6110, 668.6074
902.7380, 426.5195
903.8660, 803.4414
904.9930, 755.3828
906.1200, 951.3359
907.2460, 783.3027
908.3730, 975.2852
909.5000, 593.2812
910.6260, 1140.297
911.7520, 955.3281
912.8780, 564.3789
914.0040, 655.4434
915.1290, 632.5293
916.2550, 420.6309
917.3800, 286.7559
918.5050, 127.8945
919.6300, 45.05859
920.7550, 138.7617
921.8800, 193.6055
923.0040, 20.50000
924.1290, 129.1875
925.2530, 87.09375
926.3770, 34.74219
927.5010, 71.96484
928.6250, 63.18359
929.7480, 154.6641
930.8720, 127.1152
931.9950, 13.41211
933.1180, 126.0195
934.2410, 177.6797
935.3640, 56.89648
936.4860, 94.80859
937.6090, 108.5078
938.7310, 19.84961
939.8530, 49.23633
940.9750, 195.6543
942.0970, 202.1035
943.2180, 266.6113
944.3400, 98.17773
945.4610, 166.8164
946.5820, 68.54688
947.7030, 236.3535
948.8240, 401.2207
949.9450, 527.1445
951.0650, 619.1543
952.1860, 863.2500
953.3060, 998.3906
954.4260, 1117.678
955.5460, 1081.818
956.6650, 1287.104
957.7850, 1348.473
958.9040, 1303.918
960.0230, 1476.459
961.1420, 1658.072
962.2610, 1548.799
963.3800, 1758.623
964.4990, 1864.521
965.6170, 1946.564
966.7350, 1739.707
967.8530, 1914.975
968.9710, 1759.375
970.0890, 1991.908
971.2070, 2138.516
972.3240, 2334.264
973.4410, 2296.107
974.5580, 2517.066
975.6750, 2495.080
976.7920, 2624.162
977.9090, 2674.070
979.0250, 2665.934
980.1410, 2683.834
981.2580, 2660.232
982.3740, 2535.715
983.4890, 2529.320
984.6050, 2459.045
985.7200, 2312.879
986.8360, 2454.811
987.9510, 2302.854
989.0660, 2363.018
990.1810, 2249.301
991.2950, 2484.715
992.4100, 2326.180
993.5240, 2613.732
994.6390, 2273.334
995.7530, 2515.984
996.8660, 2989.686
997.9800, 2874.428
999.0940, 3434.217
1000.207, 3830.049
1001.320, 3914.924
1002.433, 4505.840
1003.546, 4471.801
1004.659, 4639.803
1005.772, 4157.854
1006.884, 3810.945
1007.996, 2947.080
1009.108, 2614.262
1010.220, 2579.484
1011.332, 2276.754
1012.444, 2215.064
1013.555, 2466.422
1014.666, 3075.824
1015.777, 2630.951
1016.888, 2627.943
1017.999, 2065.299
1019.110, 2153.881
1020.220, 1960.508
1021.331, 2226.178
1022.441, 1988.895
1023.551, 1926.658
1024.661, 1822.467
1025.770, 1574.322
1026.880, 1817.223
1027.989, 1605.166
1029.098, 1466.158
1030.207, 1439.195
1031.316, 1269.281
1032.425, 1353.412
1033.533, 1373.588
1034.642, 1190.809
1035.750, 1210.078
1036.858, 1119.393
1037.966, 1077.756
1039.073, 954.1621
1040.181, 987.0996
1041.288, 1033.119
1042.396, 997.6680
1043.503, 920.2656
1044.610, 817.5938
1045.716, 756.5938
1046.823, 684.3301
1047.929, 715.1133
1049.036, 637.9453
1050.142, 552.8203
1051.248, 333.7441
1052.353, 593.7129
1053.459, 146.7305
1054.564, 289.6582
1055.670, 213.9199
1056.775, 137.3105
1057.880, 217.9336
1058.985, 5.175781
1060.089, 128.5625
1061.194, 53.84961
1062.298, 102.3281
1063.402, 167.7793
1064.506, 130.4844
1065.610, 188.1680
1066.713, 87.47852
1067.817, 88.66992
1068.920, 171.2461
1070.023, 549.1465
1071.126, 280.4883
1072.229, 147.5430
1073.332, 575.9785
1074.435, 593.9688
1075.537, 571.7402
1076.639, 377.5566
1077.741, 946.8496
1078.843, 1191.572
1079.945, 1374.977
1081.046, 1832.188
1082.148, 1916.412
1083.249, 1993.135
1084.350, 2575.117
1085.451, 2650.770
1086.551, 3032.758
1087.652, 3456.791
1088.752, 3836.865
1089.853, 4420.984
1090.953, 5070.141
1092.053, 5650.344
1093.152, 6389.586
1094.252, 7518.871
1095.351, 8204.195
1096.451, 8825.562
1097.550, 9379.973
1098.649, 9681.418
1099.748, 9749.928
1100.846, 9678.518
1101.945, 9314.143
1103.043, 8841.809
1104.141, 8488.516
1105.239, 8027.258
1106.337, 7766.062
1107.434, 7422.926
1108.532, 7538.828
1109.629, 7435.770
1110.726, 7167.744
1111.823, 6956.754
1112.920, 6923.799
1114.017, 6714.883
1115.113, 6416.000
1116.210, 5914.148
1117.306, 5551.332
1118.402, 5148.551
1119.498, 4635.805
1120.593, 4366.088
1121.689, 4018.154
1122.784, 3541.752
1123.879, 3453.133
1124.974, 2758.543
1126.069, 2403.109
1127.164, 2737.463
1128.259, 2101.969
1129.353, 1803.506
1130.447, 1596.072
1131.541, 1439.672
1132.635, 1147.299
1133.729, 1183.959
1134.822, 896.6484
1135.916, 1060.367
1137.009, 982.1172
1138.102, 691.8965
1139.195, 893.7090
1140.288, 832.5508
1141.380, 950.4219
1142.473, 778.3242
1143.565, 787.2539
1144.657, 810.2129
1145.749, 797.4336
1146.841, 1161.223
1147.932, 965.2695
1149.024, 1110.348
1150.115, 1347.457
1151.206, 1140.594
1152.297, 1518.758
1153.388, 1493.953
1154.479, 1200.172
1155.569, 1651.426
1156.659, 1204.707
1157.750, 1340.016
1158.839, 1260.352
1159.929, 1368.719
1161.019, 1274.109
1162.108, 1305.531
1163.198, 1445.977
1164.287, 1157.453
1165.376, 954.9570
1166.465, 943.4883
1167.553, 836.2852
1168.642, 882.6328
1169.730, 896.2461
1170.818, 822.8867
1171.906, 956.5547
1172.994, 864.2500
1174.082, 855.9688
1175.170, 885.7148
1176.257, 846.4883
1177.344, 881.3203
1178.431, 775.1133
1179.518, 879.9648
1180.605, 812.8398
1181.691, 704.7422
1182.778, 815.6719
1183.864, 793.6250
1184.950, 487.6016
1186.036, 716.6328
1187.122, 343.7188
1188.207, 588.6445
1189.292, 220.6250
1190.378, 293.7695
1191.463, 220.3438
1192.548, 290.5781
1193.632, 139.8633
1194.717, 50.77344
1195.801, 79.27344
1196.886, 1.613281
1197.970, 45.50781
1199.054, 199.1484
1200.137, 109.8789
1201.221, 298.3711
1202.305, 57.35156
1203.388, 110.9102
1204.471, 26.19141
1205.554, 85.50391
1206.637, 85.23438
1207.719, 129.6406
1208.802, 224.9141
1209.884, 128.8203
1210.966, 50.78125
1212.048, 31.75781
1213.130, 168.7461
1214.212, 25.67969
1215.293, 21.60547
1216.374, 147.0898
1217.456, 243.0586
1218.536, 352.0586
1219.617, 412.0820
1220.698, 195.1289
1221.778, 225.1992
1222.859, 323.2891
1223.939, 411.4062
1225.019, 574.6836
1226.099, 598.1289
1227.178, 544.0312
1228.258, 587.2461
1229.337, 833.7930
1230.417, 661.7500
1231.496, 801.0234
1232.574, 908.3203
1233.653, 860.8086
1234.732, 1233.148
1235.810, 1574.781
1236.888, 1185.938
1237.966, 1196.340
1239.044, 1107.766
1240.122, 1419.211
1241.199, 1264.676
1242.277, 1321.160
1243.354, 1410.668
1244.431, 1241.195
1245.508, 1410.746
1246.585, 1298.316
1247.661, 1480.906
1248.738, 1162.512
1249.814, 1469.145
1250.890, 1479.824
1251.966, 1607.531
1253.042, 1397.258
1254.117, 1503.008
1255.193, 1431.777
1256.268, 1502.566
1257.343, 1446.898
1258.418, 1463.211
1259.493, 1378.066
1260.567, 1569.977
1261.642, 1666.902
1262.716, 1720.863
1263.790, 1659.844
1264.864, 1775.852
1265.938, 1916.879
1267.011, 1958.918
1268.085, 2269.984
1269.158, 2127.066
1270.231, 2121.172
1271.304, 2349.297
1272.377, 1853.434
1273.450, 2417.598
1274.522, 2171.789
1275.594, 2219.996
1276.666, 2274.227
1277.738, 2129.496
1278.810, 1959.785
1279.882, 1579.098
1280.953, 1477.430
1282.025, 1579.777
1283.096, 1657.145
1284.167, 1620.746
1285.238, 1650.871
1286.308, 1579.367
1287.379, 1623.812
1288.449, 1497.281
1289.519, 1529.766
1290.589, 1500.266
1291.659, 2006.789
1292.729, 1702.328
1293.798, 1851.887
1294.868, 2226.461
1295.937, 1921.055
1297.006, 1802.664
1298.075, 1784.293
1299.143, 1635.938
1300.212, 1778.602
1301.280, 1745.277
1302.348, 1637.973
1303.416, 1625.688
