##NAMES=Albite
##RRUFFID=R050402
##IDEAL CHEMISTRY=NaAlSi_3_O_8_
##LOCALITY=Urbano mine, Golconda District, Brazil
##OWNER=RRUFF
##SOURCE=Bob Downs
##DESCRIPTION=Colorless tabular single crystals associated with fluorapatite R050401
##STATUS=The identification of this mineral has been confirmed by X-ray diffraction and chemical analysis
##URL=rruff.info/R050402
##MEASURED CHEMISTRY=Na_1.00_Al_1.00_Si_3.00_O_8_
##PIN_ID=M00139
##ORIENTATION=Laser parallel to c* (0 0 1). Fiducial mark perpendicular to laser is parallel to a [1 0 0]
81.13100, 0.0000000E+00
82.36700, 5.335938
83.60200, 344.9194
84.83700, 751.4658
86.07200, 1155.889
87.30800, 1872.095
88.54200, 2785.514
89.77700, 2941.053
91.01200, 2476.124
92.24600, 1617.069
93.48000, 900.7798
94.71400, 516.0771
95.94800, 319.0288
97.18200, 52.88086
98.41600, 64.01758
99.64900, 59.93701
100.8830, 16.76123
102.1160, 86.59912
103.3490, 80.72412
104.5820, 332.3501
105.8150, 570.2393
107.0470, 928.1855
108.2800, 1313.008
109.5120, 1921.543
110.7440, 2382.650
111.9760, 2897.203
113.2080, 3922.087
114.4400, 5166.205
115.6710, 5685.462
116.9030, 5423.806
118.1340, 4546.232
119.3650, 3266.708
120.5960, 2306.161
121.8270, 1451.650
123.0580, 1041.015
124.2880, 858.1626
125.5190, 547.0293
126.7490, 297.5610
127.9790, 433.7100
129.2090, 384.4351
130.4390, 350.6987
131.6680, 453.4673
132.8980, 465.8276
134.1270, 653.4004
135.3560, 672.5117
136.5850, 820.0225
137.8140, 1055.910
139.0430, 1406.156
140.2710, 1831.741
141.5000, 2100.647
142.7280, 2430.859
143.9560, 3204.362
145.1840, 4161.144
146.4120, 5285.187
147.6390, 6520.481
148.8670, 7779.013
150.0940, 9231.785
151.3210, 10961.02
152.5490, 12167.02
153.7750, 11431.87
155.0020, 9595.386
156.2290, 6887.177
157.4550, 4597.153
158.6810, 3183.320
159.9080, 2181.751
161.1340, 1805.747
162.3590, 1739.287
163.5850, 2037.066
164.8110, 2029.021
166.0360, 2222.991
167.2610, 2476.967
168.4860, 2831.958
169.7110, 3694.969
170.9360, 4746.007
172.1610, 5682.079
173.3850, 6161.187
174.6100, 5932.335
175.8340, 5762.524
177.0580, 5501.757
178.2820, 5519.035
179.5050, 6067.357
180.7290, 6454.729
181.9520, 7198.147
183.1760, 8051.612
184.3990, 8880.124
185.6220, 9504.684
186.8450, 10213.29
188.0670, 10473.94
189.2900, 10068.63
190.5120, 9045.381
191.7340, 8141.164
192.9560, 7200.991
194.1780, 6302.859
195.4000, 5602.767
196.6220, 5199.711
197.8430, 4773.693
199.0640, 4550.709
200.2860, 4700.758
201.5070, 4697.839
202.7270, 5287.954
203.9480, 5622.098
205.1690, 6242.269
206.3890, 7409.470
207.6090, 9213.695
208.8290, 11068.95
210.0490, 12645.22
211.2690, 13479.52
212.4890, 12814.84
213.7080, 10846.19
214.9280, 8360.550
216.1470, 6134.930
217.3660, 4479.328
218.5850, 3211.286
219.8030, 2196.583
221.0220, 1659.013
222.2400, 1271.673
223.4590, 1001.146
224.6770, 662.9531
225.8950, 554.3350
227.1120, 418.4849
228.3300, 394.0425
229.5480, 333.9980
230.7650, 254.2920
231.9820, 154.6943
233.1990, 79.39307
234.4160, 61.30322
235.6330, 121.1860
236.8490, 29.42969
238.0660, 102.1138
239.2820, 5.763184
240.4980, 73.01611
241.7140, 61.41357
242.9300, 64.13330
244.1460, 232.8574
245.3610, 251.3828
246.5770, 314.2969
247.7920, 524.8374
249.0070, 842.1211
250.2220, 1298.736
251.4370, 1740.511
252.6510, 2367.433
253.8660, 2634.493
255.0800, 2542.684
256.2940, 1981.994
257.5080, 1462.420
258.7220, 1149.953
259.9360, 843.9331
261.1490, 823.3159
262.3630, 562.1348
263.5760, 686.0386
264.7890, 776.0220
266.0020, 940.0801
267.2150, 1277.208
268.4270, 1533.401
269.6400, 1918.655
270.8520, 2055.966
272.0640, 2270.332
273.2760, 2011.747
274.4880, 1835.211
275.7000, 1563.720
276.9120, 1344.271
278.1230, 1256.862
279.3340, 1197.491
280.5450, 1330.156
281.7560, 1511.854
282.9670, 1785.585
284.1780, 2197.345
285.3880, 2815.133
286.5980, 3884.947
287.8090, 4983.787
289.0190, 6608.649
290.2290, 8357.536
291.4380, 10002.44
292.6480, 10891.37
293.8570, 10498.31
295.0670, 9101.270
296.2760, 7398.245
297.4850, 5620.234
298.6930, 4099.232
299.9020, 2991.236
301.1110, 2307.242
302.3190, 1723.250
303.5270, 1308.258
304.7350, 1101.265
305.9430, 801.2705
307.1510, 698.2603
308.3580, 547.2373
309.5660, 510.2109
310.7730, 394.1792
311.9800, 356.1431
313.1870, 217.1011
314.3940, 319.0537
315.6010, 231.0000
316.8070, 331.9414
318.0130, 292.8765
319.2200, 330.8052
320.4260, 397.7271
321.6310, 581.6416
322.8370, 685.5498
324.0430, 1023.450
325.2480, 1427.342
326.4540, 1924.226
327.6590, 3018.102
328.8640, 3917.970
330.0680, 4911.829
331.2730, 5133.678
332.4780, 4468.517
333.6820, 3346.345
334.8860, 2480.163
336.0900, 1558.969
337.2940, 1128.765
338.4980, 838.5488
339.7010, 617.3203
340.9050, 441.0791
342.1080, 392.8247
343.3110, 101.5576
344.5140, 259.2769
345.7170, 83.98193
346.9200, 73.67334
348.1220, 197.3506
349.3240, 159.0127
350.5270, 163.6606
351.7290, 174.2935
352.9310, 54.91016
354.1320, 56.50977
355.3340, 40.09180
356.5350, 21.34912
357.7370, 92.82422
358.9380, 43.35156
360.1390, 44.92236
361.3400, 41.53467
362.5400, 128.1899
363.7410, 166.9150
364.9410, 135.7397
366.1410, 63.69678
367.3410, 59.75635
368.5410, 96.97217
369.7410, 173.3296
370.9400, 62.83887
372.1400, 153.4922
373.3390, 214.2266
374.5380, 150.0830
375.7370, 101.0332
376.9360, 41.05859
378.1350, 101.1328
379.3330, 73.29004
380.5310, 121.5176
381.7300, 86.84473
382.9280, 61.78613
384.1260, 47.74414
385.3230, 20.42090
386.5210, 7.821289
387.7180, 54.18750
388.9160, 19.54199
390.1130, 86.14551
391.3100, 123.0732
392.5060, 100.2832
393.7030, 213.4746
394.9000, 372.6592
396.0960, 302.8350
397.2920, 554.0049
398.4880, 673.1660
399.6840, 882.3262
400.8800, 925.4834
402.0750, 873.6436
403.2710, 1019.824
404.4660, 1159.995
405.6610, 1285.153
406.8560, 1656.295
408.0510, 2222.422
409.2450, 2692.547
410.4400, 2736.654
411.6340, 2606.760
412.8280, 2356.863
414.0220, 2509.956
415.2160, 3139.060
416.4100, 3839.143
417.6030, 4542.230
418.7970, 4586.299
419.9900, 3918.346
421.1830, 2734.394
422.3760, 1916.424
423.5690, 1338.457
424.7610, 968.4707
425.9540, 635.4990
427.1460, 573.5078
428.3380, 335.4951
429.5300, 417.4619
430.7220, 311.4141
431.9140, 231.3564
433.1050, 431.2783
434.2970, 380.2012
435.4880, 337.1084
436.6790, 369.9941
437.8700, 288.8555
439.0610, 353.6924
440.2510, 446.5068
441.4420, 490.2959
442.6320, 671.0605
443.8220, 729.8008
445.0120, 763.5176
446.2020, 1050.209
447.3910, 1199.876
448.5810, 1447.518
449.7700, 1675.137
450.9600, 2160.729
452.1490, 2646.299
453.3370, 3344.842
454.5260, 4345.363
455.7150, 5435.857
456.9030, 6165.326
458.0910, 6662.772
459.2800, 6525.193
460.4670, 5683.621
461.6550, 4693.992
462.8430, 4029.339
464.0300, 3723.659
465.2180, 3322.155
466.4050, 3290.429
467.5920, 3525.674
468.7790, 4103.973
469.9650, 4687.170
471.1520, 5638.931
472.3380, 7085.077
473.5250, 8852.198
474.7110, 10964.29
475.8970, 14329.37
477.0820, 18542.41
478.2680, 23315.43
479.4540, 27538.65
480.6390, 29182.62
481.8240, 27381.57
483.0090, 23086.49
484.1940, 18112.38
485.3780, 13544.26
486.5630, 10443.10
487.7470, 8003.923
488.9320, 6664.718
490.1160, 5739.489
491.3000, 5156.235
492.4830, 4988.955
493.6670, 4781.652
494.8500, 5081.324
496.0340, 5398.727
497.2170, 6217.080
498.4000, 7408.896
499.5820, 8646.620
500.7650, 10891.06
501.9480, 13617.25
503.1300, 17197.21
504.3120, 22341.23
505.4940, 28727.05
506.6760, 36166.46
507.8580, 42214.57
509.0390, 44913.77
510.2210, 42550.08
511.4020, 36515.11
512.5830, 28869.52
513.7640, 21882.31
514.9450, 16669.70
516.1250, 12784.17
517.3060, 9834.562
518.4860, 7906.732
519.6660, 6596.328
520.8460, 5462.318
522.0260, 4673.855
523.2060, 3996.519
524.3850, 3601.103
525.5650, 3194.080
526.7440, 2873.809
527.9230, 2584.377
529.1020, 2307.526
530.2810, 2121.868
531.4590, 1858.311
532.6380, 1679.082
533.8160, 1561.842
534.9940, 1405.093
536.1720, 1391.850
537.3500, 1319.622
538.5270, 1222.732
539.7050, 1173.602
540.8820, 1183.558
542.0590, 1004.617
543.2360, 957.8750
544.4130, 806.9707
545.5900, 799.2949
546.7660, 926.8047
547.9430, 811.7793
549.1190, 780.4922
550.2950, 618.6807
551.4710, 697.6377
552.6470, 699.6074
553.8220, 686.0898
554.9980, 766.5195
556.1730, 527.4893
557.3480, 609.3711
558.5230, 516.5654
559.6980, 679.6494
560.8730, 526.5410
562.0470, 589.9287
563.2220, 363.5557
564.3960, 469.3154
565.5700, 584.1113
566.7440, 592.7559
567.9170, 664.6885
569.0910, 768.8057
570.2640, 774.1953
571.4380, 887.7744
572.6110, 944.0605
573.7840, 1082.195
574.9570, 1151.135
576.1290, 1280.851
577.3020, 1533.515
578.4740, 2046.166
579.6460, 2086.804
580.8180, 1998.427
581.9900, 1940.037
583.1620, 1748.635
584.3330, 1410.220
585.5040, 1158.791
586.6760, 983.3496
587.8470, 794.8965
589.0180, 622.4297
590.1880, 496.9492
591.3590, 315.4570
592.5290, 406.9531
593.7000, 255.4590
594.8700, 284.9512
596.0400, 197.4375
597.2090, 134.9121
598.3790, 193.3760
599.5490, 242.8281
600.7180, 97.26855
601.8870, 125.6963
603.0560, 151.1133
604.2250, 137.5166
605.3940, 69.91016
606.5620, 203.2891
607.7300, 229.6562
608.8990, 83.01270
610.0670, 148.3574
611.2350, 38.69043
612.4020, 118.0068
613.5700, 160.3105
614.7370, 104.6045
615.9050, 133.8877
617.0720, 145.1729
618.2390, 117.4473
619.4060, 58.71289
620.5720, 196.9639
621.7390, 172.2061
622.9050, 266.4375
624.0710, 296.6709
625.2370, 416.8926
626.4030, 305.1055
627.5690, 351.3252
628.7340, 449.5342
629.9000, 237.7344
631.0650, 288.9238
632.2300, 274.1025
633.3950, 301.2725
634.5600, 246.4336
635.7240, 366.5850
636.8890, 354.7334
638.0530, 499.8760
639.2170, 289.0146
640.3810, 344.1621
641.5450, 532.3379
642.7080, 588.5312
643.8720, 772.7402
645.0350, 813.9658
646.1980, 1000.233
647.3610, 1092.550
648.5240, 1048.918
649.6870, 1034.310
650.8490, 981.7617
652.0120, 858.2490
653.1740, 614.7891
654.3360, 383.3545
655.4980, 529.9912
656.6600, 403.6943
657.8210, 501.4463
658.9830, 202.2344
660.1440, 188.0537
661.3050, 318.9092
662.4660, 70.79590
663.6270, 160.7266
664.7870, 131.6895
665.9480, 186.6924
667.1080, 83.71875
668.2680, 54.75488
669.4280, 36.19922
670.5880, 119.8193
671.7480, 25.84766
672.9070, 1.907227
674.0670, 158.9502
675.2260, 16.98926
676.3850, 16.01465
677.5440, 2.024414
678.7030, 11.01562
679.8610, 28.37012
681.0200, 14.06836
682.1780, 49.15527
683.3360, 110.2881
684.4940, 2.500977
685.6520, 28.26562
686.8090, 104.0195
687.9670, 15.76465
689.1240, 32.50488
690.2810, 79.18848
691.4380, 45.12695
692.5950, 37.48535
693.7520, 4.885742
694.9080, 93.30957
696.0650, 139.1992
697.2210, 65.30176
698.3770, 52.14258
699.5330, 72.57812
700.6880, 52.99609
701.8440, 13.38281
702.9990, 75.25488
704.1550, 116.0488
705.3100, 121.6553
706.4650, 58.55664
707.6190, 40.75781
708.7740, 20.95020
709.9290, 0.8720700
711.0830, 27.71387
712.2370, 21.40918
713.3910, 64.47949
714.5450, 13.42285
715.6980, 160.6084
716.8520, 96.63086
718.0050, 161.6475
719.1580, 95.65723
720.3110, 264.6602
721.4640, 184.6553
722.6170, 222.6436
723.7700, 88.62598
724.9220, 83.60059
726.0740, 176.5693
727.2260, 78.53223
728.3780, 195.4863
729.5300, 134.4355
730.6810, 226.3779
731.8330, 299.4570
732.9840, 235.3867
734.1350, 209.1602
735.2860, 172.0771
736.4370, 247.4512
737.5880, 240.3535
738.7380, 332.2510
739.8880, 322.1084
741.0390, 350.9922
742.1890, 381.8691
743.3380, 394.7412
744.4880, 583.4053
745.6380, 575.2646
746.7870, 619.1182
747.9360, 826.8877
749.0850, 723.7285
750.2340, 828.9727
751.3830, 1005.802
752.5310, 1350.625
753.6800, 1547.456
754.8280, 2010.064
755.9760, 2294.908
757.1240, 2846.707
758.2720, 3840.275
759.4190, 4656.064
760.5670, 6144.847
761.7140, 7536.222
762.8610, 9220.995
764.0080, 10292.76
765.1550, 10837.24
766.3020, 10099.00
767.4480, 8591.746
768.5950, 6606.489
769.7410, 5066.227
770.8870, 3988.959
772.0330, 3087.687
773.1780, 2530.408
774.3240, 2043.105
775.4690, 1630.816
776.6140, 1280.521
777.7590, 1222.223
778.9040, 1129.917
780.0490, 994.6064
781.1940, 974.2910
782.3380, 997.9688
783.4820, 770.2832
784.6260, 754.9502
785.7700, 727.6660
786.9140, 580.3203
788.0580, 749.7021
789.2010, 676.3438
790.3450, 557.9775
791.4880, 719.6045
792.6310, 616.5439
793.7730, 764.1553
794.9160, 762.7598
796.0590, 741.3555
797.2010, 829.7197
798.3430, 795.2988
799.4850, 893.4795
800.6270, 1079.399
801.7690, 1103.951
802.9100, 1359.160
804.0520, 1539.693
805.1930, 1861.217
806.3340, 2230.612
807.4750, 2593.802
808.6160, 3247.298
809.7560, 4022.272
810.8970, 5155.723
812.0370, 6543.189
813.1770, 8227.973
814.3170, 10003.72
815.4570, 11500.11
816.5960, 12163.72
817.7360, 11758.23
818.8750, 10396.61
820.0140, 8325.775
821.1530, 6299.086
822.2920, 4807.149
823.4310, 3602.006
824.5690, 2955.381
825.7070, 2180.000
826.8460, 1861.124
827.9840, 1573.462
829.1220, 1379.770
830.2590, 1131.546
831.3970, 931.3564
832.5340, 959.6084
833.6710, 894.9316
834.8080, 819.9268
835.9450, 711.0137
837.0820, 812.2744
838.2190, 720.0225
839.3550, 584.5137
840.4910, 659.8564
841.6270, 475.1465
842.7630, 362.5703
843.8990, 493.6904
845.0350, 454.6094
846.1700, 468.2373
847.3060, 277.2422
848.4410, 359.5645
849.5760, 230.2031
850.7100, 244.2188
851.8450, 303.4404
852.9800, 306.7021
854.1140, 341.9609
855.2480, 367.2178
856.3820, 248.4727
857.5160, 243.7266
858.6500, 240.9785
859.7830, 98.22949
860.9170, 234.4785
862.0500, 40.72559
863.1830, 345.9717
864.3160, 216.2158
865.4480, 142.4609
866.5810, 104.7031
867.7130, 86.05664
868.8460, 136.1377
869.9780, 17.66895
871.1100, 76.51562
872.2410, 10.30176
873.3730, 77.87598
874.5050, 197.0527
875.6360, 7.232422
876.7670, 26.41113
877.8980, 58.58984
879.0290, 57.76855
880.1590, 149.9463
881.2900, 109.1250
882.4200, 157.3027
883.5500, 130.8105
884.6800, 69.65820
885.8100, 67.83594
886.9400, 32.01758
888.0690, 20.19824
889.1990, 2.889648
890.3280, 52.44043
891.4570, 1.713867
892.5860, 3.867188
893.7140, 77.02148
894.8430, 131.1777
895.9710, 158.6729
897.1000, 50.51172
898.2280, 148.6211
899.3560, 126.7539
900.4830, 69.09766
901.6110, 206.0195
902.7380, 70.13574
903.8660, 30.25391
904.9930, 75.38379
906.1200, 266.5137
907.2460, 26.64746
908.3730, 130.7803
909.5000, 24.08594
910.6260, 75.04102
911.7520, 82.16797
912.8780, 133.2979
914.0040, 123.4277
915.1290, 83.56055
916.2550, 172.7148
917.3800, 9.880859
918.5050, 16.95312
919.6300, 121.2178
920.7550, 45.60938
921.8800, 57.54492
923.0040, 153.2969
924.1290, 36.80078
925.2530, 199.9014
926.3770, 146.0039
927.5010, 99.89062
928.6250, 101.1865
929.7480, 13.26562
930.8720, 90.34766
931.9950, 42.56641
933.1180, 148.5049
934.2410, 114.5879
935.3640, 98.67383
936.4860, 61.76367
937.6090, 41.14258
938.7310, 174.9375
939.8530, 21.02148
940.9750, 166.1084
942.0970, 154.1992
943.2180, 269.3105
944.3400, 178.4229
945.4610, 112.5439
946.5820, 83.67285
947.7030, 275.8066
948.8240, 24.94727
949.9450, 159.0957
951.0650, 203.2539
952.1860, 159.4199
953.3060, 238.6035
954.4260, 165.8027
955.5460, 170.0244
956.6650, 193.2861
957.7850, 198.8057
958.9040, 153.8711
960.0230, 314.1719
961.1420, 257.4814
962.2610, 389.8105
963.3800, 362.1455
964.4990, 296.5166
965.6170, 350.9082
966.7350, 351.9922
967.8530, 547.7549
968.9710, 473.2021
970.0890, 611.6777
971.2070, 763.1602
972.3240, 802.6494
973.4410, 1131.165
974.5580, 1182.689
975.6750, 1418.247
976.7920, 1653.811
977.9090, 1887.418
979.0250, 2156.033
980.1410, 2191.670
981.2580, 2025.315
982.3740, 1735.975
983.4890, 1567.653
984.6050, 1268.342
985.7200, 1058.061
986.8360, 750.7949
987.9510, 622.5352
989.0660, 605.2832
990.1810, 425.0361
991.2950, 428.7969
992.4100, 313.5635
993.5240, 289.3369
994.6390, 196.1182
995.7530, 381.9062
996.8660, 349.7002
997.9800, 411.5010
999.0940, 365.3086
1000.207, 508.1240
1001.320, 604.9453
1002.433, 771.6318
1003.546, 590.4688
1004.659, 605.4600
1005.772, 523.3115
1006.884, 544.7070
1007.996, 446.5742
1009.108, 581.2822
1010.220, 408.1641
1011.332, 597.0547
1012.444, 517.9521
1013.555, 409.8564
1014.666, 479.7695
1015.777, 356.6904
1016.888, 560.6182
1017.999, 474.5547
1019.110, 441.5000
1020.220, 256.4512
1021.331, 335.4121
1022.441, 349.3789
1023.551, 413.3408
1024.661, 336.5283
1025.770, 436.4814
1026.880, 371.4814
1027.989, 273.4902
1029.098, 322.5068
1030.207, 251.5312
1031.316, 290.9658
1032.425, 321.0088
1033.533, 413.1592
1034.642, 382.4951
1035.750, 470.5635
1036.858, 366.6396
1037.966, 323.2090
1039.073, 390.3037
1040.181, 394.4062
1041.288, 409.5176
1042.396, 463.6387
1043.503, 299.7861
1044.610, 541.9248
1045.716, 350.0723
1046.823, 535.2266
1047.929, 575.3916
1049.036, 687.1943
1050.142, 493.4033
1051.248, 593.5938
1052.353, 344.9668
1053.459, 400.1748
1054.564, 421.3350
1055.670, 406.5605
1056.775, 378.1729
1057.880, 261.4150
1058.985, 200.6670
1060.089, 139.9277
1061.194, 213.4531
1062.298, 183.7314
1063.402, 408.0195
1064.506, 164.3164
1065.610, 294.8447
1066.713, 114.3369
1067.817, 255.6611
1068.920, 132.9951
1070.023, 241.3379
1071.126, 260.0234
1072.229, 234.8359
1073.332, 258.7549
1074.435, 264.1338
1075.537, 255.5225
1076.639, 321.9277
1077.741, 245.3408
1078.843, 307.7637
1079.945, 460.1963
1081.046, 303.6533
1082.148, 526.1201
1083.249, 460.5957
1084.350, 463.0801
1085.451, 637.5723
1086.551, 671.0811
1087.652, 606.5977
1088.752, 759.1230
1089.853, 962.0078
1090.953, 964.5508
1092.053, 1339.102
1093.152, 1378.662
1094.252, 1834.231
1095.351, 1897.990
1096.451, 1964.175
1097.550, 2489.768
1098.649, 2838.368
1099.748, 2710.977
1100.846, 2770.607
1101.945, 2823.259
1103.043, 2443.917
1104.141, 2063.607
1105.239, 1993.307
1106.337, 1637.013
1107.434, 1335.727
1108.532, 1278.446
1109.629, 1231.175
1110.726, 1040.908
1111.823, 911.8359
1112.920, 895.5850
1114.017, 782.3584
1115.113, 717.1016
1116.210, 663.8691
1117.306, 613.6436
1118.402, 592.2363
1119.498, 590.8037
1120.593, 597.0078
1121.689, 593.8096
1122.784, 564.7061
1123.879, 601.4297
1124.974, 502.2480
1126.069, 433.0732
1127.164, 412.9043
1128.259, 415.7402
1129.353, 239.5850
1130.447, 370.4336
1131.541, 372.2891
1132.635, 95.15039
1133.729, 225.0186
1134.822, 154.9141
1135.916, 111.8164
1137.009, 66.72852
1138.102, 108.7744
1139.195, 5.701172
1140.288, 23.36621
1141.380, 32.56348
1142.473, 123.4990
1143.565, 116.4395
1144.657, 184.3867
1145.749, 238.3398
1146.841, 270.2988
1147.932, 95.26270
1149.024, 123.2324
1150.115, 107.2080
1151.206, 120.1895
1152.297, 126.1777
1153.388, 210.1729
1154.479, 119.1719
1155.569, 320.1758
1156.659, 56.19824
1157.750, 208.2275
1158.839, 40.28418
1159.929, 187.3457
1161.019, 109.4150
1162.108, 36.49023
1163.198, 52.58398
1164.287, 63.29590
1165.376, 29.80273
1166.465, 143.9209
1167.553, 3.043945
1168.642, 51.82812
1169.730, 13.28320
1170.818, 84.39746
1171.906, 157.5176
1172.994, 107.6406
1174.082, 79.76953
1175.170, 257.9082
1176.257, 181.0508
1177.344, 80.19727
1178.431, 110.3486
1179.518, 84.49512
1180.605, 41.37402
1181.691, 40.73145
1182.778, 37.15918
1183.864, 75.94141
1184.950, 95.04492
1186.036, 55.16309
1187.122, 58.71484
1188.207, 166.4209
1189.292, 5.559570
1190.378, 116.7031
1191.463, 65.15039
1192.548, 172.9912
1193.632, 91.13672
1194.717, 127.2871
1195.801, 13.43945
1196.886, 41.39551
1197.970, 58.75293
1199.054, 205.9033
1200.137, 47.05859
1201.221, 9.216797
1202.305, 148.3857
1203.388, 24.55859
1204.471, 192.7334
1205.554, 167.9111
1206.637, 66.59082
1207.719, 104.7744
1208.802, 57.96191
1209.884, 170.1514
1210.966, 209.0068
1212.048, 176.2715
1213.130, 105.3984
1214.212, 119.5977
1215.293, 94.79980
1216.374, 60.20605
1217.456, 123.4121
1218.536, 29.61914
1219.617, 53.17188
1220.698, 146.1855
1221.778, 219.3691
1222.859, 73.55469
1223.939, 197.7402
1225.019, 1.928711
1226.099, 39.88379
1227.178, 232.2822
1228.258, 219.4492
1229.337, 219.6172
1230.417, 174.0303
1231.496, 323.2324
1232.574, 156.4053
1233.653, 48.43164
1234.732, 183.6064
1235.810, 131.7822
1236.888, 207.9590
1237.966, 194.1357
1239.044, 347.3135
1240.122, 298.6006
1241.199, 41.33105
1242.277, 258.8203
1243.354, 128.9717
1244.431, 106.1230
1245.508, 188.4023
1246.585, 269.6289
1247.661, 144.7832
1248.738, 136.9375
1249.814, 339.0918
1250.890, 268.2480
1251.966, 189.4023
1253.042, 353.5586
1254.117, 259.7148
1255.193, 298.8770
1256.268, 188.0371
1257.343, 48.19922
1258.418, 179.3594
1259.493, 195.5215
1260.567, 270.6816
1261.642, 145.8398
1262.716, 155.0000
1263.790, 277.1582
