##NAMES=Albite
##RRUFFID=R050253
##IDEAL CHEMISTRY=NaAlSi_3_O_8_
##LOCALITY=Madawaska/Faraday mine, Bancroft, Ontario, Canada
##OWNER=RRUFF
##SOURCE=Marcus Origlieri
##DESCRIPTION=Colorless to brown prismatic single crystals
##STATUS=The identification of this mineral has been confirmed by X-ray diffraction and chemical analysis
##URL=rruff.info/R050253
##MEASURED CHEMISTRY=(Na_0.99_Ca_0.01_)Al_1.00_(Si_0.99_Al_0.01_)_3_O_8_
##PIN_ID=L01416
##ORIENTATION=Laser parallel to b* (0 1 0). Fiducial mark perpendicular to laser is parallel to c [0 0 1]
77.42300, 0.0000000E+00
78.65900, 101.0479
79.89500, 346.8101
81.13100, 698.8521
82.36700, 858.7100
83.60200, 1514.831
84.83700, 2116.325
86.07200, 2273.792
87.30800, 2673.693
88.54200, 3145.898
89.77700, 3282.139
91.01200, 2856.592
92.24600, 2179.550
93.48000, 1213.599
94.71400, 611.3901
95.94800, 429.6348
97.18200, 63.10547
98.41600, 75.38232
99.64900, 66.99658
100.8830, 54.89648
102.1160, 124.2266
103.3490, 9.880371
104.5820, 160.3066
105.8150, 380.9458
107.0470, 650.7031
108.2800, 953.4927
109.5120, 1317.239
110.7440, 1322.873
111.9760, 781.3320
113.2080, 580.5703
114.4400, 611.6079
115.6710, 714.4438
116.9030, 798.0474
118.1340, 573.3965
119.3650, 524.4468
120.5960, 272.1338
121.8270, 430.3950
123.0580, 433.1841
124.2880, 611.4609
125.5190, 456.1904
126.7490, 521.3413
127.9790, 779.8857
129.2090, 964.7988
130.4390, 1273.059
131.6680, 1701.646
132.8980, 2012.540
134.1270, 2461.726
135.3560, 3151.186
136.5850, 3708.908
137.8140, 4485.879
139.0430, 5185.083
140.2710, 6125.514
141.5000, 6935.158
142.7280, 7721.002
143.9560, 8571.042
145.1840, 9069.268
146.4120, 9560.670
147.6390, 10361.30
148.8670, 11391.45
150.0940, 12379.48
151.3210, 13606.29
152.5490, 14180.34
153.7750, 14769.70
155.0020, 13914.45
156.2290, 12597.59
157.4550, 11066.06
158.6810, 10358.78
159.9080, 10057.58
161.1340, 10184.34
162.3590, 10561.99
163.5850, 10763.52
164.8110, 10888.00
166.0360, 10448.47
167.2610, 9757.933
168.4860, 9025.394
169.7110, 8444.863
170.9360, 8102.337
172.1610, 8338.829
173.3850, 8533.329
174.6100, 9006.850
175.8340, 9726.388
177.0580, 10216.95
178.2820, 10858.53
179.5050, 11582.13
180.7290, 12213.76
181.9520, 13094.40
183.1760, 13727.08
184.3990, 14524.78
185.6220, 14825.51
186.8450, 15030.26
188.0670, 14851.04
189.2900, 14373.85
190.5120, 13120.68
191.7340, 11984.53
192.9560, 10724.41
194.1780, 9427.305
195.4000, 8390.228
196.6220, 7670.170
197.8430, 7326.135
199.0640, 7424.120
200.2860, 7537.123
201.5070, 7889.147
202.7270, 7939.900
203.9480, 8330.250
205.1690, 8291.327
206.3890, 8839.425
207.6090, 9218.536
208.8290, 9782.665
210.0490, 10349.81
211.2690, 10372.96
212.4890, 9676.140
213.7080, 8362.328
214.9280, 6796.529
216.1470, 5026.743
217.3660, 3882.955
218.5850, 2747.528
219.8030, 2069.451
221.0220, 1505.981
222.2400, 1235.270
223.4590, 939.9092
224.6770, 802.4575
225.8950, 600.1216
227.1120, 536.1548
228.3300, 390.7246
229.5480, 224.1274
230.7650, 201.5952
231.9820, 248.4253
233.1990, 216.3403
234.4160, 253.3833
235.6330, 290.6001
236.8490, 333.1045
238.0660, 364.5825
239.2820, 451.4922
240.4980, 458.2383
241.7140, 737.1821
242.9300, 931.3872
244.1460, 1276.742
245.3610, 1303.136
246.5770, 1526.247
247.7920, 1627.138
249.0070, 1861.521
250.2220, 2149.498
251.4370, 2408.577
252.6510, 2639.755
253.8660, 2847.024
255.0800, 2831.380
256.2940, 2703.819
257.5080, 2423.337
258.7220, 2450.929
259.9360, 2792.593
261.1490, 2988.323
262.3630, 3091.117
263.5760, 3129.970
264.7890, 3503.879
266.0020, 3692.841
267.2150, 4191.854
268.4270, 4656.913
269.6400, 5024.019
270.8520, 5278.165
272.0640, 5309.354
273.2760, 5116.581
274.4880, 4783.845
275.7000, 4523.143
276.9120, 4339.475
278.1230, 4405.838
279.3340, 4930.232
280.5450, 5627.655
281.7560, 6642.106
282.9670, 7928.582
284.1780, 9012.087
285.3880, 10066.61
286.5980, 11003.16
287.8090, 12192.73
289.0190, 13586.32
290.2290, 14780.94
291.4380, 15675.57
292.6480, 15638.22
293.8570, 14696.88
295.0670, 12952.56
296.2760, 10891.26
297.4850, 8407.955
298.6930, 6486.658
299.9020, 5042.365
301.1110, 3868.075
302.3190, 3092.785
303.5270, 2508.495
304.7350, 2073.202
305.9430, 1870.906
307.1510, 1713.607
308.3580, 1479.308
309.5660, 1329.006
310.7730, 1242.703
311.9800, 1191.397
313.1870, 1143.091
314.3940, 1079.783
315.6010, 981.4731
316.8070, 993.1616
318.0130, 1032.848
319.2200, 1201.533
320.4260, 1388.215
321.6310, 1631.897
322.8370, 1825.576
324.0430, 1919.252
325.2480, 2125.926
326.4540, 2431.596
327.6590, 2883.263
328.8640, 3225.926
330.0680, 3410.587
331.2730, 3371.243
332.4780, 2947.895
333.6820, 2351.542
334.8860, 1881.186
336.0900, 1333.825
337.2940, 953.4590
338.4980, 738.0884
339.7010, 622.7129
340.9050, 475.3320
342.1080, 399.9458
343.3110, 365.5537
344.5140, 301.1562
345.7170, 305.7524
346.9200, 317.3428
348.1220, 348.9268
349.3240, 375.5044
350.5270, 274.0757
351.7290, 226.6401
352.9310, 117.1978
354.1320, 74.74805
355.3340, 60.70850
356.5350, 3.799316
357.7370, 64.71191
358.9380, 29.25928
360.1390, 99.83496
361.3400, 86.45752
362.5400, 162.1533
363.7410, 184.9565
364.9410, 187.8892
366.1410, 137.9868
367.3410, 133.2666
368.5410, 118.7012
369.7410, 119.8057
370.9400, 99.78955
372.1400, 133.4429
373.3390, 173.1855
374.5380, 155.0405
375.7370, 173.7046
376.9360, 171.8594
378.1350, 159.2617
379.3330, 156.5596
380.5310, 132.9648
381.7300, 114.3579
382.9280, 86.04883
384.1260, 16.70459
385.3230, 45.60205
386.5210, 110.9023
387.7180, 282.2036
388.9160, 345.5068
390.1130, 490.8555
391.3100, 640.2153
392.5060, 758.5947
393.7030, 878.9927
394.9000, 1039.389
396.0960, 1276.783
397.2920, 1674.178
398.4880, 1875.590
399.6840, 2218.007
400.8800, 2454.431
402.0750, 2541.860
403.2710, 2532.299
404.4660, 2712.732
405.6610, 2940.163
406.8560, 3360.613
408.0510, 3841.061
409.2450, 4200.520
410.4400, 4452.006
411.6340, 4140.515
412.8280, 3679.048
414.0220, 3579.603
415.2160, 3518.172
416.4100, 3655.748
417.6030, 3795.319
418.7970, 3806.883
419.9900, 3130.440
421.1830, 2449.006
422.3760, 1705.603
423.5690, 1166.191
424.7610, 845.7715
425.9540, 590.3696
427.1460, 457.9600
428.3380, 491.5444
429.5300, 363.1289
430.7220, 366.7139
431.9140, 340.3066
433.1050, 393.8896
434.2970, 396.4634
435.4880, 418.0273
436.6790, 420.5815
437.8700, 492.1255
439.0610, 634.6587
440.2510, 803.1821
441.4420, 891.6953
442.6320, 1108.198
443.8220, 1313.689
445.0120, 1674.172
446.2020, 2181.644
447.3910, 2783.105
448.5810, 3425.557
449.7700, 4085.997
450.9600, 4793.427
452.1490, 5500.807
453.3370, 6248.256
454.5260, 6966.655
455.7150, 7759.045
456.9030, 8480.426
458.0910, 8699.793
459.2800, 8635.150
460.4670, 7919.499
461.6550, 7116.836
462.8430, 6433.219
464.0300, 6027.623
465.2180, 6146.932
466.4050, 6484.228
467.5920, 7658.516
468.7790, 9288.791
469.9650, 11490.06
471.1520, 14223.31
472.3380, 17115.56
473.5250, 19334.80
474.7110, 21765.02
475.8970, 24431.24
477.0820, 27360.45
478.2680, 30034.64
479.4540, 32114.83
480.6390, 32142.01
481.8240, 30253.18
483.0090, 26430.34
484.1940, 21742.49
485.3780, 17067.63
486.5630, 13494.76
487.7470, 10777.88
488.9320, 9234.984
490.1160, 7981.084
491.3000, 7570.175
492.4830, 7298.256
493.6670, 7889.326
494.8500, 8804.391
496.0340, 10615.44
497.2170, 12678.48
498.4000, 15986.78
499.5820, 20079.82
500.7650, 23854.71
501.9480, 27740.69
503.1300, 31119.23
504.3120, 34741.55
505.4940, 39066.04
506.6760, 42568.04
507.8580, 45504.79
509.0390, 46012.62
510.2210, 43031.70
511.4020, 37791.66
512.5830, 30860.50
513.7640, 24360.55
514.9450, 18851.46
516.1250, 14477.85
517.3060, 11390.34
518.4860, 9263.645
519.6660, 7345.041
520.8460, 6455.212
522.0260, 5259.541
523.2060, 4586.343
524.3850, 4012.307
525.5650, 3456.044
526.7440, 3049.136
527.9230, 2664.767
529.1020, 2547.298
530.2810, 2148.278
531.4590, 2032.160
532.6380, 1984.150
533.8160, 1778.153
534.9940, 1552.151
536.1720, 1452.153
537.3500, 1425.159
538.5270, 1198.525
539.7050, 1176.055
540.8820, 1222.428
542.0590, 1176.848
543.2360, 1099.811
544.4130, 944.5117
545.5900, 954.5400
546.7660, 909.0562
547.9430, 858.4102
549.1190, 854.8403
550.2950, 829.9150
551.4710, 781.5562
552.6470, 768.9971
553.8220, 610.1846
554.9980, 590.7852
556.1730, 631.4570
557.3480, 516.6851
558.5230, 514.1948
559.6980, 675.2705
560.8730, 584.7241
562.0470, 572.0869
563.2220, 555.1660
564.3960, 621.3086
565.5700, 723.4185
566.7440, 743.5703
567.9170, 779.7690
569.0910, 806.3784
570.2640, 1012.296
571.4380, 945.1006
572.6110, 1098.115
573.7840, 1370.139
574.9570, 1515.159
576.1290, 1533.177
577.3020, 1587.192
578.4740, 1701.205
579.6460, 1558.216
580.8180, 1652.223
581.9900, 1563.230
583.1620, 1503.250
584.3330, 1187.270
585.5040, 731.2886
586.6760, 699.3052
587.8470, 446.3418
589.0180, 430.3750
590.1880, 468.4092
591.3590, 189.4434
592.5290, 326.4756
593.7000, 224.5049
594.8700, 158.5415
596.0400, 157.5869
597.2090, 149.6514
598.3790, 62.71289
599.5490, 47.78174
600.7180, 83.84863
601.8870, 131.9277
603.0560, 0.9848630
604.2250, 3.884277
605.3940, 20.21240
606.5620, 25.30615
607.7300, 67.39893
608.8990, 157.5015
610.0670, 93.61084
611.2350, 250.7397
612.4020, 113.8823
613.5700, 33.02295
614.7370, 66.17676
615.9050, 142.3276
617.0720, 155.4790
618.2390, 167.6372
619.4060, 203.9946
620.5720, 199.9883
621.7390, 264.1729
622.9050, 271.3545
624.0710, 352.5327
625.2370, 336.7085
626.4030, 576.8979
627.5690, 509.0840
628.7340, 746.2739
629.9000, 646.4614
631.0650, 694.6455
632.2300, 737.8281
633.3950, 921.0083
634.5600, 894.1846
635.7240, 920.3584
636.8890, 865.5283
638.0530, 909.6958
639.2170, 825.8872
640.3810, 880.0869
641.5450, 790.3125
642.7080, 915.5542
643.8720, 914.8311
645.0350, 958.1406
646.1980, 1002.502
647.3610, 887.9214
648.5240, 878.4004
649.6870, 771.9258
650.8490, 794.4961
652.0120, 721.1084
653.1740, 535.7617
654.3360, 453.4512
655.4980, 412.1870
656.6600, 208.9780
657.8210, 299.8208
658.9830, 300.7197
660.1440, 169.6738
661.3050, 237.6802
662.4660, 208.7378
663.6270, 145.8408
664.7870, 52.98340
665.9480, 142.1592
667.1080, 10.35010
668.2680, 110.5381
669.4280, 80.72070
670.5880, 107.1021
671.7480, 114.0073
672.9070, 27.89014
674.0670, 118.1865
675.2260, 124.2568
676.3850, 55.32031
677.5440, 3.376465
678.7030, 64.57861
679.8610, 13.58203
681.0200, 29.60693
682.1780, 21.66309
683.3360, 32.74561
684.4940, 61.13867
685.6520, 4.015137
686.8090, 73.12207
687.9670, 9.684570
689.1240, 51.52100
690.2810, 107.7715
691.4380, 88.09668
692.5950, 99.48682
693.7520, 89.64746
694.9080, 58.47559
696.0650, 35.05322
697.2210, 12.33057
698.3770, 62.70117
699.5330, 17.06250
700.6880, 35.58838
701.8440, 126.2788
702.9990, 49.94287
704.1550, 58.15479
705.3100, 78.64307
706.4650, 43.49658
707.6190, 12.62500
708.7740, 10.26221
709.9290, 8.176758
711.0830, 43.11865
712.2370, 83.89453
713.3910, 160.8979
714.5450, 127.8926
715.6980, 206.8774
716.8520, 229.8535
718.0050, 160.8198
719.1580, 278.7773
720.3110, 904.0166
721.4640, 225.4365
722.6170, 246.7290
723.7700, 969.0522
724.9220, 451.9609
726.0740, 230.9023
727.2260, 169.7900
728.3780, 227.1694
729.5300, 212.5244
730.6810, 366.4521
731.8330, 222.2983
732.9840, 280.3379
734.1350, 368.5439
735.2860, 319.3037
736.4370, 421.1064
737.5880, 444.9443
738.7380, 379.9873
739.8880, 473.0488
741.0390, 594.2803
742.1890, 503.7622
743.3380, 649.5044
744.4880, 832.4121
745.6380, 960.3423
746.7870, 1068.957
747.9360, 1202.685
749.0850, 1307.292
750.2340, 1734.907
751.3830, 1987.718
752.5310, 2476.931
753.6800, 3150.697
754.8280, 3683.613
755.9760, 4778.627
757.1240, 5806.202
758.2720, 6888.229
759.4190, 7935.987
760.5670, 9173.518
761.7140, 10287.14
762.8610, 11068.75
764.0080, 11779.97
765.1550, 11673.48
766.3020, 11048.52
767.4480, 9665.066
768.5950, 8046.518
769.7410, 6495.307
770.8870, 5325.751
772.0330, 4368.181
773.1780, 3708.677
774.3240, 3233.028
775.4690, 2816.461
776.6140, 2635.854
777.7590, 2226.160
778.9040, 2037.450
780.0490, 1873.725
781.1940, 1502.983
782.3380, 1516.227
783.4820, 1305.454
784.6260, 1145.664
785.7700, 989.8569
786.9140, 962.0337
788.0580, 961.2241
789.2010, 934.3652
790.3450, 899.4897
791.4880, 764.5957
792.6310, 847.6836
793.7730, 994.7539
794.9160, 848.8042
796.0590, 1017.837
797.2010, 1102.850
798.3430, 1123.843
799.4850, 1299.817
800.6270, 1414.772
801.7690, 1624.707
802.9100, 1846.621
804.0520, 2259.515
805.1930, 2637.274
806.3340, 3157.128
807.4750, 4014.960
808.6160, 4932.876
809.7560, 5953.670
810.8970, 7035.435
812.0370, 8165.188
813.1770, 9102.923
814.3170, 9964.636
815.4570, 10695.98
816.5960, 10768.13
817.7360, 10199.43
818.8750, 9101.674
820.0140, 7579.353
821.1530, 5855.280
822.2920, 4589.863
823.4310, 3586.942
824.5690, 2724.169
825.7070, 2255.302
826.8460, 1759.777
827.9840, 1496.669
829.1220, 1211.746
830.2590, 1198.061
831.3970, 1088.947
832.5340, 928.7471
833.6710, 793.9746
834.8080, 768.9058
835.9450, 651.2549
837.0820, 557.2109
838.2190, 577.2427
839.3550, 583.5430
840.4910, 492.7646
841.6270, 448.0029
842.7630, 361.1846
843.8990, 294.6851
845.0350, 268.0000
846.1700, 180.3711
847.3060, 138.8403
848.4410, 128.9600
849.5760, 141.3052
850.7100, 188.5142
851.8450, 161.7104
852.9800, 178.8945
854.1140, 176.0659
855.2480, 191.2261
856.3820, 21.37305
857.5160, 37.49414
858.6500, 15.59521
859.7830, 13.66846
860.9170, 152.7261
862.0500, 63.22852
863.1830, 90.76074
864.3160, 9.738281
865.4480, 9.698730
866.5810, 56.64209
867.7130, 99.57373
868.8460, 19.50684
869.9780, 22.61816
871.1100, 63.76318
872.2410, 73.03760
873.3730, 18.17285
874.5050, 14.58691
875.6360, 38.66748
876.7670, 25.96191
877.8980, 47.29004
879.0290, 42.33838
880.1590, 19.95605
881.2900, 14.56152
882.4200, 34.84521
883.5500, 21.28906
884.6800, 67.76172
885.8100, 52.58105
886.9400, 19.14062
888.0690, 47.44287
889.1990, 42.93213
890.3280, 2.296875
891.4570, 30.35303
892.5860, 24.03467
893.7140, 79.74512
894.8430, 4.487793
895.9710, 110.7080
897.1000, 25.91943
898.2280, 23.12061
899.3560, 54.68750
900.4830, 37.46191
901.6110, 21.39697
902.7380, 18.71973
903.8660, 36.82715
904.9930, 3.073242
906.1200, 29.01318
907.2460, 28.09082
908.3730, 7.045898
909.5000, 124.2192
910.6260, 12.27246
911.7520, 17.31934
912.8780, 101.3574
914.0040, 151.3877
915.1290, 75.41211
916.2550, 128.4287
917.3800, 215.4395
918.5050, 130.4424
919.6300, 46.43848
920.7550, 93.42969
921.8800, 34.41309
923.0040, 14.38965
924.1290, 143.3604
925.2530, 159.3242
926.3770, 20.28320
927.5010, 179.2363
928.6250, 135.1836
929.7480, 17.12500
930.8720, 110.0654
931.9950, 92.99902
933.1180, 94.93262
934.2410, 184.8838
935.3640, 150.8330
936.4860, 99.79785
937.6090, 208.7588
938.7310, 231.7139
939.8530, 144.6650
940.9750, 222.6133
942.0970, 252.5586
943.2180, 336.4990
944.3400, 360.5059
945.4610, 351.5107
946.5820, 352.5205
947.7030, 445.5391
948.8240, 400.5537
949.9450, 538.5664
951.0650, 523.5801
952.1860, 631.6133
953.3060, 731.6709
954.4260, 704.7393
955.5460, 803.8281
956.6650, 798.9287
957.7850, 777.0264
958.9040, 778.1260
960.0230, 782.2471
961.1420, 818.3691
962.2610, 827.5107
963.3800, 684.6846
964.4990, 682.8857
965.6170, 851.1162
966.7350, 998.3770
967.8530, 868.6582
968.9710, 1183.961
970.0890, 1188.265
971.2070, 1424.570
972.3240, 1533.875
973.4410, 1768.194
974.5580, 2020.555
975.6750, 2131.916
976.7920, 2363.289
977.9090, 2453.694
979.0250, 2331.104
980.1410, 2252.518
981.2580, 2284.941
982.3740, 2034.374
983.4890, 1766.826
984.6050, 1539.277
985.7200, 1305.730
986.8360, 1264.185
987.9510, 1025.650
989.0660, 1056.116
990.1810, 930.5840
991.2950, 875.7734
992.4100, 940.7744
993.5240, 1032.895
994.6390, 913.9766
995.7530, 1050.477
996.8660, 1018.938
997.9800, 1272.448
999.0940, 1429.460
1000.207, 1454.488
1001.320, 1689.937
1002.433, 1762.458
1003.546, 2069.781
1004.659, 2233.929
1005.772, 2342.514
1006.884, 2366.050
1007.996, 2410.543
1009.108, 2447.822
1010.220, 2300.077
1011.332, 2355.154
1012.444, 2317.920
1013.555, 2447.386
1014.666, 2376.766
1015.777, 2156.116
1016.888, 2136.773
1017.999, 1865.313
1019.110, 1613.967
1020.220, 1546.604
1021.331, 1394.052
1022.441, 1294.092
1023.551, 1066.660
1024.661, 1132.893
1025.770, 997.1113
1026.880, 1069.763
1027.989, 1091.955
1029.098, 1003.407
1030.207, 1245.082
1031.316, 964.6650
1032.425, 1135.249
1033.533, 1200.211
1034.642, 1185.881
1035.750, 1067.016
1036.858, 1031.636
1037.966, 931.3447
1039.073, 932.7119
1040.181, 843.4170
1041.288, 936.1309
1042.396, 843.7715
1043.503, 883.5508
1044.610, 924.6309
1045.716, 957.3574
1046.823, 951.1641
1047.929, 946.9785
1049.036, 951.8740
1050.142, 863.6377
1051.248, 919.4824
1052.353, 794.3340
1053.459, 724.1973
1054.564, 711.0684
1055.670, 533.9502
1056.775, 555.8096
1057.880, 457.7109
1058.985, 481.6230
1060.089, 385.5439
1061.194, 507.4746
1062.298, 489.4150
1063.402, 458.8945
1064.506, 442.8555
1065.610, 477.7197
1066.713, 442.6924
1067.817, 416.4648
1068.920, 577.9551
1070.023, 656.9629
1071.126, 605.9795
1072.229, 613.0059
1073.332, 614.0410
1074.435, 675.0859
1075.537, 696.1396
1076.639, 790.3818
1077.741, 879.4551
1078.843, 917.5361
1079.945, 1071.065
1081.046, 1238.191
1082.148, 1363.304
1083.249, 1546.832
1084.350, 1639.958
1085.451, 1844.904
1086.551, 1961.045
1087.652, 2457.329
1088.752, 2802.501
1089.853, 3240.666
1090.953, 3799.839
1092.053, 4337.045
1093.152, 5186.233
1094.252, 5892.710
1095.351, 6749.947
1096.451, 7604.229
1097.550, 8291.458
1098.649, 8978.935
1099.748, 8978.277
1100.846, 9055.018
1101.945, 8654.278
1103.043, 8013.543
1104.141, 7176.820
1105.239, 6541.101
1106.337, 5996.399
1107.434, 5287.691
1108.532, 5007.082
1109.629, 4637.998
1110.726, 4189.172
1111.823, 3982.489
1112.920, 3717.812
1114.017, 3661.257
1115.113, 3592.591
1116.210, 3513.932
1117.306, 3317.277
1118.402, 3252.631
1119.498, 3096.454
1120.593, 2825.818
1121.689, 2755.188
1122.784, 2411.527
1123.879, 2150.923
1124.974, 1940.341
1126.069, 1686.128
1127.164, 1415.180
1128.259, 1253.642
1129.353, 1159.123
1130.447, 901.6172
1131.541, 753.2480
1132.635, 639.7852
1133.729, 698.4688
1134.822, 496.1953
1135.916, 396.7314
1137.009, 604.2891
1138.102, 446.8799
1139.195, 566.4688
1140.288, 467.0742
1141.380, 421.6826
1142.473, 332.3457
1143.565, 339.0098
1144.657, 355.2451
1145.749, 466.6582
1146.841, 492.3682
1147.932, 652.0820
1149.024, 808.0225
1150.115, 652.7695
1151.206, 712.5439
1152.297, 649.2988
1153.388, 779.1016
1154.479, 743.9258
1155.569, 553.9375
1156.659, 510.7705
1157.750, 455.6221
1158.839, 398.4873
1159.929, 353.5117
1161.019, 333.2803
1162.108, 242.3379
1163.198, 236.2510
1164.287, 153.1709
1165.376, 124.0273
1166.465, 171.0498
1167.553, 78.26270
1168.642, 88.21777
1169.730, 108.3154
1170.818, 156.2793
1171.906, 142.2461
1172.994, 41.21582
1174.082, 185.1885
1175.170, 16.83691
1176.257, 70.13965
1177.344, 133.1172
1178.431, 137.0967
1179.518, 81.18164
1180.605, 80.16406
1181.691, 40.14844
1182.778, 57.26367
1183.864, 8.122070
1184.950, 93.11230
1186.036, 162.1035
1187.122, 160.7861
1188.207, 154.3184
1189.292, 118.4688
1190.378, 137.4639
1191.463, 60.45898
1192.548, 49.45410
1193.632, 15.46680
1194.717, 21.52344
1195.801, 22.48535
1196.886, 90.50195
1197.970, 19.56250
1199.054, 81.62988
1200.137, 217.2686
1201.221, 118.1611
1202.305, 134.0527
1203.388, 26.94434
1204.471, 94.83594
1205.554, 180.7275
1206.637, 153.3086
1207.719, 86.63184
1208.802, 88.44336
1209.884, 44.72656
1210.966, 8.064453
1212.048, 14.85645
1213.130, 7.350586
1214.212, 49.58789
1215.293, 80.62598
1216.374, 95.11816
1217.456, 53.13867
1218.536, 18.60938
1219.617, 64.32227
1220.698, 44.03809
1221.778, 18.74902
1222.859, 44.46094
1223.939, 1.828125
1225.019, 19.58594
1226.099, 12.42871
1227.178, 46.00586
1228.258, 0.7060550
1229.337, 10.39941
1230.417, 21.79395
1231.496, 94.88672
1232.574, 73.65918
1233.653, 36.34375
1234.732, 75.04492
1235.810, 36.72852
1236.888, 146.4082
1237.966, 44.91602
1239.044, 4.271484
1240.122, 8.635742
1241.199, 78.00000
1242.277, 65.63281
1243.354, 19.26074
1244.431, 123.9707
1245.508, 206.5889
1246.585, 62.20312
1247.661, 94.81348
1248.738, 31.56641
1249.814, 81.02637
1250.890, 186.8955
1251.966, 38.52148
1253.042, 150.1475
1254.117, 96.92285
1255.193, 70.64746
1256.268, 33.81641
1257.343, 68.91406
1258.418, 2.221680
1259.493, 153.2646
