##NAMES=Albite
##RRUFFID=R040068
##IDEAL CHEMISTRY=NaAlSi_3_O_8_
##LOCALITY=Harding Pegmatite, Dixon, New Mexico, USA
##OWNER=RRUFF
##SOURCE=University of Arizona Mineral Museum
##DESCRIPTION=Tan colored crystal fragment
##STATUS=The identification of this mineral has been confirmed by X-ray diffraction and chemical analysis
##URL=rruff.info/R040068
##MEASURED CHEMISTRY=(Na_0.99_Ca_0.01_)Al_1.00_(Si_0.99_Al_0.01_)_3_O_8_
##PIN_ID=L00467
##ORIENTATION=Laser parallel to a* (1 0 0). Fiducial mark perpendicular to laser is parallel to -b [0 -1 0]
123.129, 0.000
124.519, 14.273
125.910, 164.673
127.300, 14.252
128.690, 36.180
130.080, 25.978
131.469, 6.728
132.858, 226.584
134.248, 74.579
135.636, 326.221
137.025, 551.096
138.413, 1009.533
139.801, 1620.672
141.189, 2073.801
142.577, 2838.438
143.964, 3484.236
145.352, 3750.949
146.739, 4218.385
148.125, 4346.400
149.512, 4245.932
150.898, 4059.602
152.284, 3896.977
153.670, 3373.611
155.056, 3349.641
156.441, 3295.223
157.827, 3600.477
159.212, 4035.432
160.596, 4330.104
161.981, 4494.519
163.365, 4968.721
164.749, 5142.732
166.133, 5416.562
167.517, 5800.223
168.900, 5873.721
170.283, 5717.076
171.666, 5450.299
173.049, 5143.405
174.431, 4921.859
175.813, 5059.416
177.195, 5430.348
178.577, 6009.529
179.959, 6628.213
181.340, 7377.866
182.721, 7987.157
184.102, 8186.439
185.483, 8276.523
186.863, 7706.922
188.244, 7027.695
189.624, 6039.129
191.003, 5150.842
192.383, 4292.463
193.762, 3753.969
195.141, 3265.361
196.520, 2896.647
197.899, 2647.834
199.277, 2778.931
200.656, 3270.239
202.034, 3581.691
203.411, 4243.174
204.789, 5254.592
206.166, 5945.918
207.543, 6097.182
208.920, 5958.367
210.297, 5599.521
211.673, 4690.658
213.049, 3501.786
214.425, 2552.912
215.801, 1834.037
217.176, 1355.165
218.552, 846.297
219.927, 537.431
221.302, 378.566
222.676, 169.702
224.051, 140.838
225.425, 28.030
226.799, 33.097
228.173, 125.781
229.546, 54.666
230.919, 203.559
232.292, 112.461
233.665, 41.066
235.038, 210.019
236.410, 169.001
237.782, 1.988
239.154, 84.013
240.526, 37.045
241.898, 285.981
243.269, 682.759
244.640, 835.664
246.011, 1628.307
247.381, 2185.921
248.752, 2805.896
250.122, 3075.899
251.492, 2983.502
252.861, 2543.545
254.231, 2166.926
255.600, 1553.706
256.969, 1230.656
258.338, 991.203
259.707, 850.385
261.075, 899.240
262.443, 1177.895
263.811, 1396.496
265.179, 1825.098
266.546, 2143.703
267.914, 2452.307
269.281, 2520.906
270.647, 2399.499
272.014, 2128.083
273.380, 1956.656
274.747, 1956.012
276.113, 1801.613
277.478, 2047.607
278.844, 2349.012
280.209, 3030.696
281.574, 4041.754
282.939, 5285.471
284.304, 7273.631
285.668, 9911.778
287.032, 11959.910
288.396, 13770.265
289.760, 14289.814
291.123, 13609.507
292.487, 11917.906
293.850, 9418.129
295.212, 7288.550
296.575, 5439.070
297.937, 3919.781
299.300, 2840.600
300.662, 2161.506
302.023, 1582.482
303.385, 1153.514
304.746, 1074.582
306.107, 755.681
307.468, 626.802
308.829, 557.935
310.189, 519.080
311.549, 420.231
312.909, 401.386
314.269, 362.535
315.629, 433.660
316.988, 314.745
318.347, 675.791
319.706, 626.802
321.065, 1027.776
322.423, 1718.719
323.781, 2349.629
325.139, 3150.507
326.497, 3771.355
327.855, 4142.173
329.212, 3782.962
330.569, 3213.722
331.926, 2484.454
333.283, 1715.158
334.639, 1425.835
335.995, 966.483
337.351, 717.105
338.707, 517.671
340.063, 468.100
341.418, 448.288
342.773, 228.330
344.128, 338.057
345.483, 367.770
346.837, 457.473
348.192, 367.166
349.546, 346.847
350.899, 306.512
352.253, 228.539
353.606, 165.783
354.960, 125.383
356.313, 114.958
357.665, 144.528
359.018, 25.926
360.370, 23.618
361.722, 33.149
363.074, 47.349
364.426, 22.104
365.777, 28.468
367.128, 119.083
368.479, 0.252
369.830, 39.560
371.181, 61.149
372.531, 488.096
373.881, 767.321
375.231, 506.528
376.581, 155.720
377.930, 25.109
379.280, 145.969
380.629, 13.111
381.977, 77.814
383.326, 31.198
384.674, 69.798
386.023, 30.854
387.370, 21.957
388.718, 105.181
390.066, 153.872
391.413, 194.813
392.760, 270.208
394.107, 666.242
395.454, 778.199
396.800, 944.367
398.146, 1100.043
399.492, 1118.522
400.838, 956.847
402.184, 915.556
403.529, 1174.032
404.874, 1062.684
406.219, 1231.226
407.564, 1209.744
408.908, 1118.090
410.252, 936.379
411.596, 1124.604
412.940, 1182.811
414.284, 1260.961
415.627, 1319.006
416.970, 976.970
418.313, 794.840
419.656, 532.674
420.999, 380.484
422.341, 228.277
423.683, 146.057
425.025, 43.817
426.367, 48.441
427.708, 29.263
429.049, 203.055
430.390, 54.548
431.731, 12.130
433.072, 89.688
434.412, 2.479
435.752, 4.943
437.092, 242.537
438.432, 30.002
439.772, 50.180
441.111, 317.628
442.450, 623.720
443.789, 1592.508
445.127, 1249.696
446.466, 1146.871
447.804, 514.031
449.142, 791.416
450.480, 1098.839
451.817, 1496.013
453.155, 1773.096
454.492, 2120.652
455.829, 2088.205
457.166, 2075.463
458.502, 1882.551
459.838, 1599.838
461.175, 1467.164
462.510, 1334.082
463.846, 1320.973
465.181, 1397.836
466.517, 1504.670
467.852, 1971.473
469.186, 2398.250
470.521, 3234.998
471.855, 4341.717
473.190, 5988.406
474.523, 8105.064
475.857, 10571.695
477.191, 12168.295
478.524, 12844.863
479.857, 11791.406
481.190, 10067.918
482.523, 8034.402
483.855, 6350.857
485.187, 4717.281
486.519, 4233.676
487.851, 3220.043
489.183, 2736.379
490.514, 2722.688
491.845, 2588.967
493.176, 2615.215
494.507, 3241.438
495.837, 3527.629
497.168, 4523.791
498.498, 5909.926
499.828, 8156.031
501.157, 10952.109
502.487, 15538.539
503.816, 20154.352
505.145, 23650.979
506.474, 25316.949
507.802, 23553.328
509.131, 20329.961
510.459, 16275.867
511.787, 12401.861
513.115, 9397.488
514.442, 7163.215
515.770, 5488.492
517.097, 4338.240
518.424, 3413.611
519.750, 2784.074
521.077, 2462.127
522.403, 2226.010
523.729, 1625.541
525.055, 1501.498
526.381, 1492.199
527.706, 1272.119
529.031, 1076.137
530.356, 1083.525
531.681, 923.809
533.006, 809.637
534.330, 825.768
535.654, 642.863
536.978, 748.469
538.302, 422.268
539.625, 718.859
540.949, 448.277
542.272, 584.904
543.595, 523.854
544.917, 480.914
546.240, 440.869
547.562, 411.037
548.884, 545.451
550.206, 371.098
551.527, 361.137
552.849, 320.033
554.170, 175.305
555.491, 260.941
556.812, 196.162
558.132, 150.338
559.453, 415.664
560.773, 230.947
562.093, 326.207
563.412, 221.441
564.732, 236.648
566.051, 221.834
567.370, 357.285
568.689, 322.418
570.008, 497.529
571.326, 402.617
572.644, 647.684
573.963, 672.850
575.280, 978.104
576.598, 1133.102
577.915, 1141.604
579.233, 1306.555
580.550, 951.480
581.866, 956.549
583.183, 730.930
584.499, 484.564
585.815, 434.469
587.131, 387.850
588.447, 377.670
589.763, 471.367
591.078, 284.357
592.393, 138.309
593.708, 200.631
595.022, 332.775
596.337, 197.354
597.651, 22.113
598.965, 161.328
600.279, 104.941
601.593, 310.566
602.906, 235.154
604.219, 268.963
605.532, 244.271
606.845, 138.801
608.158, 123.305
609.470, 177.787
610.782, 222.250
612.094, 76.695
613.406, 71.115
614.718, 135.510
616.029, 169.881
617.340, 114.232
618.651, 98.566
619.962, 262.873
621.272, 277.162
622.582, 201.432
623.892, 375.680
625.202, 459.930
626.512, 634.162
627.821, 708.613
629.131, 702.566
630.440, 796.740
631.749, 860.896
633.057, 765.033
634.366, 719.152
635.674, 773.250
636.982, 637.332
638.290, 771.396
639.597, 875.441
640.905, 689.467
642.212, 833.477
643.519, 907.469
644.825, 941.441
646.132, 915.396
647.438, 899.338
648.744, 923.256
650.050, 597.162
651.356, 501.049
652.662, 574.920
653.967, 298.770
655.272, 342.605
656.577, 176.422
657.882, 190.223
659.186, 74.010
660.490, 287.773
661.794, 21.523
663.098, 205.250
664.402, 58.961
665.705, 12.652
667.009, 156.320
668.312, 129.973
669.614, 153.607
670.917, 57.227
672.219, 110.830
673.522, 55.582
674.824, 97.953
676.125, 138.527
677.427, 55.090
678.728, 88.309
680.030, 31.693
681.331, 24.908
682.631, 18.457
683.932, 68.170
685.232, 14.812
686.532, 41.471
687.832, 18.174
689.132, 55.121
690.432, 8.398
691.731, 8.344
693.030, 4.881
694.329, 41.912
695.628, 48.732
696.926, 95.549
698.224, 221.457
699.522, 75.395
700.820, 167.697
702.118, 20.812
703.415, 33.936
704.713, 147.633
706.010, 0.754
707.307, 66.148
708.603, 43.107
709.900, 127.975
711.196, 40.717
712.492, 333.678
713.788, 115.256
715.083, 137.234
716.379, 470.078
717.674, 242.885
718.969, 425.701
720.264, 198.441
721.558, 451.230
722.853, 63.959
724.147, 266.717
725.441, 269.467
726.735, 182.416
728.028, 265.137
729.322, 97.846
730.615, 70.541
731.908, 323.227
733.201, 34.104
734.493, 328.525
735.785, 221.139
737.078, 52.061
738.370, 174.648
739.661, 227.230
740.953, 39.805
742.244, 302.389
743.535, 339.467
744.826, 422.098
746.117, 264.725
747.407, 417.348
748.698, 469.674
749.988, 562.264
751.278, 691.527
752.567, 777.658
753.857, 967.416
755.146, 1268.020
756.435, 1322.080
757.724, 2074.672
759.013, 2577.256
760.301, 3209.830
761.590, 3582.395
762.878, 3994.709
764.165, 3636.953
765.453, 2909.420
766.741, 2661.947
768.028, 1913.977
769.315, 1445.977
770.602, 1418.242
771.888, 1060.645
773.175, 922.809
774.461, 854.902
775.747, 547.367
777.033, 679.826
778.319, 512.275
779.604, 568.941
780.889, 391.375
782.174, 393.805
783.459, 526.223
784.744, 388.633
786.028, 391.037
787.312, 303.434
788.596, 302.455
789.880, 301.484
791.164, 330.582
792.447, 332.951
793.730, 355.314
795.013, 387.672
796.296, 250.021
797.579, 367.174
798.861, 404.703
800.143, 477.037
801.425, 719.363
802.707, 731.684
803.989, 954.000
805.270, 1066.311
806.551, 1468.617
807.832, 1882.018
809.113, 2303.215
810.394, 3005.504
811.674, 3657.789
812.954, 4400.070
814.234, 4931.965
815.514, 4364.238
816.794, 3985.879
818.073, 3408.145
819.352, 2699.975
820.631, 1701.525
821.910, 1563.766
823.189, 1095.895
824.467, 918.123
825.745, 669.949
827.023, 682.004
828.301, 519.461
829.578, 671.461
830.856, 483.725
832.133, 371.230
833.410, 353.201
834.687, 264.934
835.963, 434.361
837.240, 56.037
838.516, 372.764
839.792, 192.852
841.068, 401.275
842.343, 171.172
843.618, 163.037
844.894, 284.576
846.169, 185.125
847.443, 106.516
848.718, 44.982
849.992, 143.035
851.266, 81.836
852.540, 190.379
853.814, 186.629
855.088, 298.848
856.361, 40.586
857.634, 17.617
858.907, 14.605
860.180, 85.686
861.453, 142.582
862.725, 159.057
863.997, 153.066
865.269, 284.854
866.541, 162.951
867.812, 20.293
869.084, 72.410
870.355, 104.557
871.626, 196.709
872.897, 88.867
874.167, 161.035
875.438, 3.260
876.708, 295.197
877.978, 137.439
879.248, 10.314
880.517, 321.941
881.787, 104.205
883.056, 6.350
884.325, 128.398
885.594, 80.691
886.862, 29.463
888.130, 91.773
889.399, 175.902
890.667, 256.037
891.934, 158.305
893.202, 330.580
894.469, 122.510
895.737, 115.191
897.004, 357.072
898.270, 169.346
899.537, 71.625
900.803, 263.914
902.070, 66.205
903.336, 11.492
904.601, 98.758
905.867, 43.119
907.132, 175.447
908.398, 147.785
909.663, 70.127
910.928, 192.477
912.192, 24.834
913.457, 247.199
914.721, 159.572
915.985, 291.949
917.249, 214.340
918.512, 206.363
919.776, 289.096
921.039, 131.488
922.302, 233.893
923.565, 176.303
924.827, 198.725
926.090, 201.156
927.352, 253.598
928.614, 96.051
929.876, 418.512
931.138, 119.020
932.399, 213.439
933.660, 355.910
934.922, 248.391
936.182, 50.879
937.443, 203.377
938.704, 105.889
939.964, 358.412
941.224, 330.945
942.484, 263.488
943.744, 176.045
945.003, 138.613
946.262, 191.191
947.521, 283.783
948.780, 456.385
950.039, 559.002
951.298, 141.633
952.556, 474.273
953.814, 376.930
955.072, 589.596
956.330, 422.279
957.587, 484.973
958.845, 617.684
960.102, 470.410
961.359, 603.148
962.615, 925.904
963.872, 498.674
965.128, 771.459
966.384, 604.264
967.640, 1047.080
968.896, 1249.916
970.152, 1378.707
971.407, 1665.637
972.662, 1838.525
973.917, 2281.432
975.172, 2644.355
976.427, 2827.293
977.681, 3010.252
978.935, 2783.227
980.189, 2286.246
981.443, 1899.279
982.697, 1852.377
983.950, 1015.514
985.203, 1428.672
986.456, 771.852
987.709, 825.066
988.962, 818.303
990.214, 441.586
991.467, 704.900
992.719, 658.256
993.971, 541.643
995.222, 615.057
996.474, 258.498
997.725, 761.973
998.976, 525.475
1000.227, 589.021
1001.478, 942.609
1002.728, 772.373
1003.978, 816.049
1005.229, 669.775
1006.479, 763.531
1007.728, 877.316
1008.978, 740.566
1010.227, 844.414
1011.476, 988.297
1012.725, 682.236
1013.974, 1028.139
1015.223, 845.682
1016.471, 959.742
1017.719, 685.578
1018.967, 619.748
1020.215, 933.957
1021.462, 798.203
1022.710, 852.574
1023.957, 1116.906
1025.204, 1283.070
1026.451, 1367.480
1027.697, 1571.895
1028.944, 1674.975
1030.190, 1850.801
1031.436, 1905.410
1032.682, 2000.074
1033.928, 2064.795
1035.173, 1489.441
1036.418, 1424.145
1037.663, 1138.912
1038.908, 963.730
1040.153, 879.715
1041.398, 974.016
1042.642, 648.297
1043.886, 1002.537
1045.130, 817.914
1046.374, 857.516
1047.617, 811.590
1048.860, 885.639
1050.104, 839.426
1051.347, 703.049
1052.589, 726.564
1053.832, 590.195
1055.074, 544.043
1056.316, 777.920
1057.558, 631.822
1058.800, 695.133
1060.042, 739.713
1061.283, 633.697
1062.524, 657.715
1063.765, 521.760
1065.006, 305.834
1066.247, 669.939
1067.487, 309.379
1068.728, 343.504
1069.968, 557.660
1071.208, 651.846
1072.447, 626.064
1073.687, 680.316
1074.926, 244.602
1076.165, 728.920
1077.404, 443.270
1078.643, 727.658
1079.881, 712.078
1081.120, 446.533
1082.358, 781.025
1083.596, 735.553
1084.834, 720.117
1086.071, 1124.717
1087.309, 1009.354
1088.546, 1324.029
1089.783, 1507.709
1091.020, 1343.488
1092.256, 1878.273
1093.493, 2133.102
1094.729, 2227.961
1095.965, 2702.857
1097.201, 2587.791
1098.436, 2922.760
1099.672, 2777.762
1100.907, 2562.801
1102.142, 2407.895
1103.377, 2221.164
1104.612, 2059.303
1105.846, 1893.473
1107.081, 1728.734
1108.315, 1654.117
1109.549, 1449.561
1110.782, 1379.188
1112.016, 1450.662
1113.249, 1256.174
1114.483, 1211.621
1115.716, 1267.096
1116.948, 1042.590
1118.181, 1098.100
1119.413, 783.627
1120.646, 619.238
1121.878, 664.951
1123.110, 520.689
1124.341, 606.539
1125.573, 532.439
1126.804, 278.402
1128.035, 624.438
1129.266, 130.545
1130.497, 506.721
1131.727, 402.971
1132.957, 149.297
1134.188, 345.746
1135.418, 342.324
1136.647, 188.986
1137.877, 375.734
1139.106, 142.576
1140.335, 659.512
1141.564, 446.539
1142.793, 83.662
1144.022, 800.887
1145.250, 188.213
1146.479, 485.645
1147.707, 683.188
1148.934, 350.846
1150.162, 598.621
1151.390, 756.521
1152.617, 444.545
1153.844, 762.699
1155.071, 500.988
1156.298, 499.412
1157.524, 487.979
1158.751, 136.713
1159.977, 415.621
1161.203, 664.713
1162.428, 36.004
1163.654, 603.482
1164.879, 143.176
1166.105, 343.096
1167.330, 313.252
1168.555, 203.648
1169.779, 134.303
1171.004, 505.227
1172.228, 143.564
1173.452, 527.953
1174.676, 239.797
1175.900, 231.992
1177.123, 524.562
1178.346, 307.541
1179.570, 350.959
1180.793, 464.852
1182.015, 230.262
1183.238, 463.084
1184.460, 446.180
1185.683, 378.654
1186.905, 197.879
1188.126, 347.264
1189.348, 413.234
1190.569, 474.158
1191.791, 2.254
1193.012, 360.754
1194.233, 114.885
1195.453, 157.230
1196.674, 276.062
1197.894, 28.234
1199.114, 0.000
##END=



