##NAMES=Albite
##RRUFFID=R050402
##IDEAL CHEMISTRY=NaAlSi_3_O_8_
##LOCALITY=Urbano mine, Golconda District, Brazil
##OWNER=RRUFF
##SOURCE=Bob Downs
##DESCRIPTION=Colorless tabular single crystals associated with fluorapatite R050401
##STATUS=The identification of this mineral has been confirmed by X-ray diffraction and chemical analysis
##URL=rruff.info/R050402
##MEASURED CHEMISTRY=Na_1.00_Al_1.00_Si_3.00_O_8_
##PIN_ID=M00145
##ORIENTATION=Laser parallel to (0 1 1). Fiducial mark perpendicular to laser is parallel to -a [-1 0 0]
93.48000, 0.0000000E+00
94.71400, 17.10547
95.94800, 99.20020
97.18200, 18.81152
98.41600, 110.4707
99.64900, 225.0723
100.8830, 316.1162
102.1160, 610.5527
103.3490, 832.6270
104.5820, 1316.565
105.8150, 2054.750
107.0470, 3157.660
108.2800, 4826.852
109.5120, 5562.687
110.7440, 5937.667
111.9760, 6235.855
113.2080, 5916.459
114.4400, 5120.088
115.6710, 3931.556
116.9030, 2965.694
118.1340, 2001.353
119.3650, 1231.401
120.5960, 697.7236
121.8270, 358.2148
123.0580, 321.7822
124.2880, 117.3418
125.5190, 11.18164
126.7490, 58.85742
127.9790, 39.33594
129.2090, 13.18945
130.4390, 191.0000
131.6680, 266.6299
132.8980, 473.2109
134.1270, 848.0625
135.3560, 1110.720
136.5850, 1461.928
137.8140, 2084.641
139.0430, 2703.816
140.2710, 3677.420
141.5000, 4621.424
142.7280, 5741.818
143.9560, 6719.580
145.1840, 6936.690
146.4120, 6764.125
147.6390, 6732.863
148.8670, 6880.888
150.0940, 7329.181
151.3210, 7984.727
152.5490, 8803.508
153.7750, 9897.517
155.0020, 11557.74
156.2290, 13775.16
157.4550, 16005.77
158.6810, 18780.55
159.9080, 21111.51
161.1340, 22019.69
162.3590, 21256.21
163.5850, 19902.59
164.8110, 18623.21
166.0360, 17445.63
167.2610, 16856.61
168.4860, 16710.63
169.7110, 16441.77
170.9360, 16106.77
172.1610, 15373.66
173.3850, 15106.46
174.6100, 15284.20
175.8340, 15505.89
177.0580, 16441.53
178.2820, 17718.14
179.5050, 19197.73
180.7290, 20140.31
181.9520, 21258.88
183.1760, 22148.44
184.3990, 21831.99
185.6220, 21076.54
186.8450, 19334.10
188.0670, 17478.74
189.2900, 15144.55
190.5120, 13015.46
191.7340, 11103.50
192.9560, 9598.615
194.1780, 8592.743
195.4000, 7871.877
196.6220, 7390.983
197.8430, 7289.173
199.0640, 7509.335
200.2860, 8097.504
201.5070, 9082.685
202.7270, 10093.87
203.9480, 11546.07
205.1690, 13216.28
206.3890, 14677.49
207.6090, 15229.71
208.8290, 14538.93
210.0490, 12482.16
211.2690, 10398.40
212.4890, 8073.633
213.7080, 6186.877
214.9280, 4515.120
216.1470, 3388.367
217.3660, 2485.615
218.5850, 1851.864
219.8030, 1383.114
221.0220, 995.3643
222.2400, 718.6123
223.4590, 564.8584
224.6770, 433.1035
225.8950, 357.3789
227.1120, 172.6289
228.3300, 99.89746
229.5480, 38.04102
230.7650, 14.49805
231.9820, 8.199219
233.1990, 68.88672
234.4160, 152.4707
235.6330, 71.31641
236.8490, 239.3623
238.0660, 158.1270
239.2820, 326.3721
240.4980, 465.4082
241.7140, 595.7051
242.9300, 951.8115
244.1460, 999.2725
245.3610, 1424.338
246.5770, 1930.580
247.7920, 2717.153
249.0070, 3127.017
250.2220, 3663.139
251.4370, 3764.494
252.6510, 3406.065
253.8660, 2780.832
255.0800, 2302.781
256.2940, 1797.894
257.5080, 1686.119
258.7220, 1480.187
259.9360, 1668.989
261.1490, 1486.620
262.3630, 1629.369
263.5760, 1796.228
264.7890, 2154.188
266.0020, 2378.245
267.2150, 2683.391
268.4270, 2916.312
269.6400, 3346.931
270.8520, 3286.315
272.0640, 3421.687
273.2760, 3451.560
274.4880, 3897.776
275.7000, 4330.320
276.9120, 5143.015
278.1230, 6336.758
279.3340, 7626.552
280.5450, 9571.685
281.7560, 12214.52
282.9670, 15456.42
284.1780, 19488.07
285.3880, 24367.73
286.5980, 29350.44
287.8090, 34386.57
289.0190, 36803.32
290.2290, 36081.53
291.4380, 32891.36
292.6480, 27909.60
293.8570, 22541.75
295.0670, 17694.91
296.2760, 13484.09
297.4850, 10159.29
298.6930, 7906.495
299.9020, 6100.715
301.1110, 4918.943
302.3190, 3900.184
303.5270, 3242.430
304.7350, 2738.686
305.9430, 2555.948
307.1510, 2265.214
308.3580, 2045.483
309.5660, 1934.752
310.7730, 1814.014
311.9800, 1757.267
313.1870, 1583.506
314.3940, 1477.731
315.6010, 1552.944
316.8070, 1683.143
318.0130, 1803.330
319.2200, 2040.504
320.4260, 2405.664
321.6310, 3173.813
322.8370, 4159.951
324.0430, 5618.074
325.2480, 7111.187
326.4540, 8603.285
327.6590, 9285.372
328.8640, 8711.448
330.0680, 7309.510
331.2730, 6049.557
332.4780, 4570.592
333.6820, 3339.613
334.8860, 2503.619
336.0900, 1866.613
337.2940, 1448.589
338.4980, 1222.547
339.7010, 1026.490
340.9050, 719.4160
342.1080, 868.3252
343.3110, 761.2168
344.5140, 739.0908
345.7170, 698.9473
346.9200, 612.0156
348.1220, 650.6055
349.3240, 474.4072
350.5270, 408.1904
351.7290, 359.9551
352.9310, 331.7021
354.1320, 259.4287
355.3340, 63.13770
356.5350, 43.82617
357.7370, 2.504883
358.9380, 101.1348
360.1390, 68.75293
361.3400, 55.28223
362.5400, 8.930664
363.7410, 3.480469
364.9410, 29.00293
366.1410, 43.52637
367.3410, 124.0938
368.5410, 65.72754
369.7410, 244.4150
370.9400, 189.2002
372.1400, 193.0840
373.3390, 274.0527
374.5380, 118.1514
375.7370, 156.3643
376.9360, 144.7354
378.1350, 88.32812
379.3330, 184.1348
380.5310, 31.12793
381.7300, 86.25586
382.9280, 123.5303
384.1260, 139.9551
385.3230, 5.517578
386.5210, 62.03320
387.7180, 176.6445
388.9160, 91.62402
390.1130, 174.8936
391.3100, 242.1592
392.5060, 428.4209
393.7030, 517.6797
394.9000, 826.9326
396.0960, 1113.179
397.2920, 1217.443
398.4880, 1578.720
399.6840, 1701.984
400.8800, 1804.259
402.0750, 2164.526
403.2710, 2579.783
404.4660, 3337.047
405.6610, 3953.300
406.8560, 4106.536
408.0510, 3399.765
409.2450, 2702.980
410.4400, 1805.229
411.6340, 1704.522
412.8280, 1280.854
414.0220, 1354.176
415.2160, 1244.533
416.4100, 989.8809
417.6030, 721.2461
418.7970, 638.6455
419.9900, 461.0244
421.1830, 262.4072
422.3760, 221.8057
423.5690, 15.18555
424.7610, 45.53125
425.9540, 27.14355
427.1460, 69.89258
428.3380, 56.25879
429.5300, 98.38184
430.7220, 22.49219
431.9140, 83.44922
433.1050, 184.5039
434.2970, 102.4365
435.4880, 190.3359
436.6790, 227.2109
437.8700, 262.0586
439.0610, 226.8809
440.2510, 289.4580
441.4420, 329.5293
442.6320, 390.1943
443.8220, 486.9150
445.0120, 588.6094
446.2020, 740.2764
447.3910, 956.8584
448.5810, 1143.532
449.7700, 1519.121
450.9600, 1847.685
452.1490, 2263.221
453.3370, 2654.729
454.5260, 2957.211
455.7150, 3113.668
456.9030, 3009.097
458.0910, 3025.501
459.2800, 2725.877
460.4670, 2537.228
461.6550, 2795.549
462.8430, 2632.845
464.0300, 3290.112
465.2180, 3381.354
466.4050, 4325.566
467.5920, 5121.752
468.7790, 6417.911
469.9650, 7820.039
471.1520, 10215.15
472.3380, 12875.22
473.5250, 16457.27
474.7110, 20985.29
475.8970, 24159.28
477.0820, 24846.99
478.2680, 26082.19
479.4540, 23565.10
480.6390, 20084.98
481.8240, 16335.83
483.0090, 12997.67
484.1940, 10569.47
485.3780, 8531.241
486.5630, 7476.987
487.7470, 6649.705
488.9320, 5696.396
490.1160, 5508.061
491.3000, 5703.698
492.4830, 6202.307
493.6670, 6806.891
494.8500, 8031.443
496.0340, 9617.972
497.2170, 11887.47
498.4000, 14777.94
499.5820, 18729.36
500.7650, 23665.93
501.9480, 29884.33
503.1300, 37029.68
504.3120, 44022.98
505.4940, 48873.80
506.6760, 49748.20
507.8580, 46331.43
509.0390, 40086.64
510.2210, 32392.68
511.4020, 25697.28
512.5830, 20055.56
513.7640, 15524.21
514.9450, 12112.51
516.1250, 9825.631
517.3060, 7970.445
518.4860, 6783.771
519.6660, 5832.746
520.8460, 4769.182
522.0260, 4322.534
523.2060, 3687.428
524.3850, 3508.802
525.5650, 2976.885
526.7440, 2787.781
527.9230, 2633.175
529.1020, 2253.184
530.2810, 1972.638
531.4590, 1698.990
532.6380, 1550.248
533.8160, 1375.121
534.9940, 1354.171
536.1720, 1220.309
537.3500, 1131.543
538.5270, 1240.869
539.7050, 885.1084
540.8820, 960.0742
542.0590, 1052.729
543.2360, 953.6768
544.4130, 847.8750
545.5900, 784.6943
546.7660, 790.7324
547.9430, 614.7949
549.1190, 617.6104
550.2950, 728.4639
551.4710, 606.7627
552.6470, 606.9336
553.8220, 739.7139
554.9980, 618.8994
556.1730, 665.1045
557.3480, 621.8906
558.5230, 583.8262
559.6980, 684.3486
560.8730, 688.4697
562.0470, 772.0449
563.2220, 560.2744
564.3960, 590.2803
565.5700, 700.1035
566.7440, 675.4766
567.9170, 871.9912
569.0910, 920.8408
570.2640, 1108.053
571.4380, 1186.958
572.6110, 1372.685
573.7840, 1391.517
574.9570, 1702.554
576.1290, 1791.019
577.3020, 2059.066
578.4740, 2017.209
579.6460, 2023.334
580.8180, 1705.437
581.9900, 1517.521
583.1620, 1283.585
584.3330, 1067.447
585.5040, 801.7422
586.6760, 734.7480
587.8470, 588.7344
589.0180, 542.7021
590.1880, 683.9873
591.3590, 595.9160
592.5290, 653.8262
593.7000, 488.7158
594.8700, 606.8389
596.0400, 439.6914
597.2090, 365.6465
598.3790, 318.9268
599.5490, 254.5225
600.7180, 268.2197
601.8870, 294.2578
603.0560, 280.9961
604.2250, 303.4863
605.3940, 427.4375
606.5620, 380.1299
607.7300, 450.8096
608.8990, 608.4717
610.0670, 326.1152
611.2350, 332.7402
612.4020, 457.3477
613.5700, 533.9355
614.7370, 558.5049
615.9050, 576.0557
617.0720, 670.4434
618.2390, 714.1914
619.4060, 841.7432
620.5720, 1054.299
621.7390, 1160.977
622.9050, 1223.357
624.0710, 1373.859
625.2370, 1345.345
626.4030, 1502.811
627.5690, 1757.260
628.7340, 1768.691
629.9000, 2043.106
631.0650, 2048.503
632.2300, 1938.882
633.3950, 1892.244
634.5600, 1821.999
635.7240, 1759.918
636.8890, 1720.234
638.0530, 1654.544
639.2170, 1730.836
640.3810, 1975.111
641.5450, 2030.406
642.7080, 2095.684
643.8720, 2262.944
645.0350, 2306.187
646.1980, 2282.023
647.3610, 2246.375
648.5240, 2073.890
649.6870, 1941.135
650.8490, 1643.416
652.0120, 1494.685
653.1740, 1440.094
654.3360, 1077.086
655.4980, 965.9854
656.6600, 720.5254
657.8210, 537.0957
658.9830, 462.7041
660.1440, 386.3516
661.3050, 373.0225
662.4660, 248.7568
663.6270, 281.6182
664.7870, 164.0830
665.9480, 329.0908
667.1080, 90.93457
668.2680, 114.7744
669.4280, 340.6348
670.5880, 52.54199
671.7480, 282.4277
672.9070, 100.2969
674.0670, 117.1465
675.2260, 112.9775
676.3850, 86.78809
677.5440, 76.40527
678.7030, 42.98340
679.8610, 141.9990
681.0200, 49.34570
682.1780, 18.24707
683.3360, 81.81152
684.4940, 51.64355
685.6520, 108.8369
686.8090, 99.29785
687.9670, 10.73828
689.1240, 38.14844
690.2810, 154.4668
691.4380, 200.2002
692.5950, 178.0762
693.7520, 6.916992
694.9080, 169.1230
696.0650, 3.290039
697.2210, 85.49707
698.3770, 158.7842
699.5330, 64.80566
700.6880, 48.62598
701.8440, 107.1201
702.9990, 70.29199
704.1550, 42.31836
705.3100, 45.97070
706.4650, 25.32422
707.6190, 136.6211
708.7740, 8.060547
709.9290, 35.77637
711.0830, 71.45703
712.2370, 19.68555
713.3910, 36.92871
714.5450, 237.1475
715.6980, 195.3555
716.8520, 311.5479
718.0050, 272.7246
719.1580, 219.8877
720.3110, 396.0342
721.4640, 311.1660
722.6170, 169.2832
723.7700, 203.3838
724.9220, 317.4678
726.0740, 223.5391
727.2260, 343.5947
728.3780, 106.6357
729.5300, 315.6582
730.6810, 245.6660
731.8330, 247.6602
732.9840, 124.6387
734.1350, 195.5996
735.2860, 154.5469
736.4370, 77.47852
737.5880, 238.3926
738.7380, 219.3086
739.8880, 277.1758
741.0390, 313.0449
742.1890, 399.8125
743.3380, 373.6562
744.4880, 385.4824
745.6380, 401.6152
746.7870, 455.4551
747.9360, 592.1992
749.0850, 560.9727
750.2340, 733.7305
751.3830, 708.4727
752.5310, 852.2012
753.6800, 1144.918
754.8280, 1361.480
755.9760, 1778.168
757.1240, 2298.221
758.2720, 2730.795
759.4190, 3419.441
760.5670, 3964.070
761.7140, 4237.688
762.8610, 4317.291
764.0080, 4039.879
765.1550, 3566.451
766.3020, 3020.012
767.4480, 2520.557
768.5950, 2025.090
769.7410, 2035.609
770.8870, 1637.113
772.0330, 1957.607
773.1780, 1706.227
774.3240, 1544.727
775.4690, 1591.268
776.6140, 1416.705
777.7590, 1288.799
778.9040, 927.9922
780.0490, 975.3906
781.1940, 799.7734
782.3380, 649.1445
783.4820, 686.5000
784.6260, 552.8438
785.7700, 510.1758
786.9140, 623.0078
788.0580, 506.8047
789.2010, 488.9277
790.3450, 381.2090
791.4880, 467.9688
792.6310, 718.2148
793.7730, 580.4473
794.9160, 784.6641
796.0590, 729.8672
797.2010, 855.0527
798.3430, 838.2246
799.4850, 751.0117
800.6270, 894.1211
801.7690, 1137.332
802.9100, 1316.334
804.0520, 1335.426
805.1930, 1690.084
806.3340, 2152.189
807.4750, 2348.234
808.6160, 3106.559
809.7560, 3929.568
810.8970, 4900.172
812.0370, 5764.828
813.1770, 6271.449
814.3170, 6658.516
815.4570, 6145.887
816.5960, 5597.312
817.7360, 4409.980
818.8750, 3690.928
820.0140, 2808.557
821.1530, 2320.904
822.2920, 1738.598
823.4310, 1363.045
824.5690, 1168.438
825.7070, 976.7656
826.8460, 1012.592
827.9840, 840.6562
829.1220, 849.8223
830.2590, 730.3477
831.3970, 549.4414
832.5340, 543.4844
833.6710, 618.9180
834.8080, 485.1758
835.9450, 555.8164
837.0820, 524.8301
838.2190, 547.3613
839.3550, 447.2090
840.4910, 482.2520
841.6270, 460.1504
842.7630, 360.8145
843.8990, 281.2773
845.0350, 275.6621
846.1700, 242.6836
847.3060, 340.9629
848.4410, 311.4531
849.5760, 341.3223
850.7100, 336.9668
851.8450, 234.5664
852.9800, 246.1621
854.1140, 173.7520
855.2480, 210.3359
856.3820, 414.9160
857.5160, 308.4883
858.6500, 440.0566
859.7830, 406.5332
860.9170, 346.0938
862.0500, 485.6484
863.1830, 171.1973
864.3160, 343.7422
865.4480, 196.9473
866.5810, 223.4844
867.7130, 203.0156
868.8460, 119.5449
869.9780, 369.8184
871.1100, 304.3379
872.2410, 65.73242
873.3730, 212.7793
874.5050, 123.2871
875.6360, 145.7949
876.7670, 149.2988
877.8980, 32.20312
879.0290, 8.273438
880.1590, 109.7461
881.2900, 22.77930
882.4200, 71.36523
883.5500, 171.1270
884.6800, 94.57617
885.8100, 70.02344
886.9400, 11.46875
888.0690, 23.91016
889.1990, 109.3496
890.3280, 161.2109
891.4570, 88.13867
892.5860, 42.51172
893.7140, 83.18750
894.8430, 113.0898
895.9710, 241.3672
897.1000, 187.6426
898.2280, 12.91797
899.3560, 105.2344
900.4830, 148.5508
901.6110, 105.8633
902.7380, 69.17578
903.8660, 100.4902
904.9930, 164.8027
906.1200, 102.1133
907.2460, 152.4258
908.3730, 1.263672
909.5000, 21.95703
910.6260, 41.66016
911.7520, 54.61523
912.8780, 181.8906
914.0040, 96.83008
915.1290, 125.3965
916.2550, 49.63672
917.3800, 85.87891
918.5050, 46.12500
919.6300, 25.37109
920.7550, 62.62305
921.8800, 12.12695
923.0040, 32.86914
924.1290, 57.62891
925.2530, 3.589844
926.3770, 12.18164
927.5010, 20.27148
928.6250, 66.26758
929.7480, 83.49609
930.8720, 129.7363
931.9950, 173.9863
933.1180, 5.234375
934.2410, 73.51367
935.3640, 44.29297
936.4860, 1.087891
937.6090, 44.12109
938.7310, 232.3477
939.8530, 26.58203
940.9750, 33.18164
942.0970, 143.0469
943.2180, 120.2754
944.3400, 86.50977
945.4610, 76.75000
946.5820, 213.9941
947.7030, 158.2461
948.8240, 76.50000
949.9450, 227.7285
951.0650, 125.9902
952.1860, 156.2793
953.3060, 246.5703
954.4260, 126.8945
955.5460, 181.2266
956.6650, 138.5684
957.7850, 182.9434
958.9040, 137.3242
960.0230, 330.7109
961.1420, 230.1094
962.2610, 395.5273
963.3800, 483.0000
964.4990, 597.5586
965.6170, 482.1797
966.7350, 639.8398
967.8530, 493.5625
968.9710, 743.3047
970.0890, 804.0879
971.2070, 877.9297
972.3240, 1177.781
973.4410, 1323.662
974.5580, 1498.305
975.6750, 1657.520
976.7920, 1813.484
977.9090, 1874.480
979.0250, 1938.488
980.1410, 1760.506
981.2580, 1405.539
982.3740, 1338.598
983.4890, 962.6699
984.6050, 863.7539
985.7200, 717.8496
986.8360, 633.9512
987.9510, 417.0625
989.0660, 508.1777
990.1810, 566.3008
991.2950, 308.4316
992.4100, 583.5703
993.5240, 450.7148
994.6390, 593.8672
995.7530, 598.0273
996.8660, 778.1953
997.9800, 676.3711
999.0940, 791.5547
1000.207, 1117.746
1001.320, 1109.949
1002.433, 1109.156
1003.546, 1099.371
1004.659, 1136.596
1005.772, 1091.828
1006.884, 1097.070
1007.996, 864.3242
1009.108, 1131.584
1010.220, 999.8535
1011.332, 765.1289
1012.444, 944.5020
1013.555, 1031.797
1014.666, 1020.098
1015.777, 1021.092
1016.888, 806.4102
1017.999, 827.7383
1019.110, 946.0762
1020.220, 1227.422
1021.331, 1206.779
1022.441, 1356.145
1023.551, 1416.518
1024.661, 1698.039
1025.770, 1761.432
1026.880, 2036.453
1027.989, 2315.953
1029.098, 2703.375
1030.207, 2970.807
1031.316, 2940.248
1032.425, 3105.992
1033.533, 2866.457
1034.642, 2402.928
1035.750, 2104.412
1036.858, 1899.906
1037.966, 1715.410
1039.073, 1487.926
1040.181, 1279.451
1041.288, 987.9824
1042.396, 964.3828
1043.503, 691.9023
1044.610, 777.3828
1045.716, 845.9570
1046.823, 618.5430
1047.929, 465.6875
1049.036, 414.9277
1050.142, 387.8613
1051.248, 316.3926
1052.353, 461.0449
1053.459, 293.1035
1054.564, 464.7676
1055.670, 558.4902
1056.775, 285.6836
1057.880, 259.2891
1058.985, 292.7070
1060.089, 371.9277
1061.194, 247.6543
1062.298, 331.3965
1063.402, 372.0742
1064.506, 324.7734
1065.610, 410.5469
1066.713, 373.3320
1067.817, 522.4961
1068.920, 365.5098
1070.023, 263.2422
1071.126, 592.4688
1072.229, 704.3105
1073.332, 582.1641
1074.435, 571.6641
1075.537, 605.5371
1076.639, 743.4258
1077.741, 783.3242
1078.843, 858.2344
1079.945, 999.1621
1081.046, 928.1094
1082.148, 1088.510
1083.249, 1293.496
1084.350, 1199.496
1085.451, 1609.504
1086.551, 1724.990
1087.652, 1859.021
1088.752, 2149.066
1089.853, 2558.264
1090.953, 3150.330
1092.053, 3777.406
1093.152, 4347.494
1094.252, 4991.424
1095.351, 5650.533
1096.451, 5886.105
1097.550, 6486.238
1098.649, 6506.666
1099.748, 6541.816
1100.846, 6274.977
1101.945, 5600.123
1103.043, 5363.301
1104.141, 4817.488
1105.239, 4293.688
1106.337, 3929.893
1107.434, 3781.105
1108.532, 3603.996
1109.629, 3452.227
1110.726, 3401.467
1111.823, 3201.715
1112.920, 3239.969
1114.017, 3057.246
1115.113, 3036.529
1116.210, 2870.822
1117.306, 2481.125
1118.402, 2338.434
1119.498, 2169.750
1120.593, 1991.076
1121.689, 1752.498
1122.784, 1535.750
1123.879, 1210.100
1124.974, 991.4551
1126.069, 674.8184
1127.164, 633.1016
1128.259, 799.5723
1129.353, 598.9609
1130.447, 654.3574
1131.541, 655.7617
1132.635, 579.1719
1133.729, 516.9414
1134.822, 405.0176
1135.916, 332.4531
1137.009, 263.8965
1138.102, 282.3477
1139.195, 359.8047
1140.288, 228.2695
1141.380, 258.7441
1142.473, 242.2246
1143.565, 53.71875
1144.657, 186.2305
1145.749, 430.7480
1146.841, 288.2754
1147.932, 403.8164
1149.024, 434.3652
1150.115, 378.9277
1151.206, 470.4980
1152.297, 393.0781
1153.388, 381.6641
1154.479, 215.2598
1155.569, 118.8613
1156.659, 434.5137
1157.750, 66.17188
1158.839, 70.84961
1159.929, 213.5586
1161.019, 54.27344
1162.108, 8.996094
1163.198, 181.2754
1164.287, 67.37109
1165.376, 164.0293
1166.465, 181.6934
1167.553, 180.3711
1168.642, 266.0566
1169.730, 299.7480
1170.818, 96.44531
1171.906, 70.15234
1172.994, 71.86719
1174.082, 57.58789
1175.170, 38.32422
1176.257, 104.0762
1177.344, 47.83789
1178.431, 26.60156
1179.518, 50.60156
1180.605, 4.820313
1181.691, 157.9648
1182.778, 17.24609
1183.864, 6.457031
1184.950, 80.33398
1186.036, 29.87891
1187.122, 222.9238
1188.207, 13.26953
1189.292, 32.44922
1190.378, 164.3594
1191.463, 52.17773
1192.548, 126.0059
1193.632, 54.16016
1194.717, 16.34766
1195.801, 9.462891
1196.886, 94.27930
1197.970, 55.10156
1199.054, 5.0781000E-02
1200.137, 170.8086
1201.221, 79.32617
1202.305, 51.50781
1203.388, 45.34766
1204.471, 91.19336
1205.554, 40.05078
1206.637, 78.91602
1207.719, 48.78906
1208.802, 62.66602
1209.884, 69.78320
1210.966, 144.0059
1212.048, 162.1523
1213.130, 20.06836
1214.212, 144.9883
1215.293, 102.9141
1216.374, 2.156250
1217.456, 17.77539
1218.536, 232.7129
1219.617, 15.34180
1220.698, 182.5938
1221.778, 24.53711
1222.859, 190.4844
1223.939, 27.56445
1225.019, 125.3750
1226.099, 56.67969
1227.178, 52.24023
1228.258, 102.8340
1229.337, 171.0410
1230.417, 37.91992
1231.496, 11.14844
1232.574, 403.7285
1233.653, 204.6152
1234.732, 327.5020
1235.810, 257.3965
1236.888, 219.3242
1237.966, 4.798828
1239.044, 178.1016
1240.122, 219.0059
1241.199, 211.9180
1242.277, 321.8320
1243.354, 61.88281
1244.431, 172.8086
1245.508, 428.7402
1246.585, 187.6758
1247.661, 265.6172
1248.738, 122.5625
1249.814, 152.5098
1250.890, 42.46680
1251.966, 148.4277
1253.042, 357.3926
1254.117, 282.3613
1255.193, 112.3359
1256.268, 423.3145
1257.343, 186.2969
1258.418, 37.28516
1259.493, 128.2793
1260.567, 95.27539
1261.642, 147.2754
1262.716, 430.2793
1263.790, 247.2871
1264.864, 433.3008
1265.938, 477.3184
1267.011, 307.3457
1268.085, 309.3770
1269.158, 199.4277
1270.231, 192.1621
1271.304, 147.2012
1272.377, 260.6406
1273.450, 100.7148
