##NAMES=Albite
##RRUFFID=R040129
##IDEAL CHEMISTRY=NaAlSi_3_O_8_
##LOCALITY=LaChance Quarry, Brunswick, Cumberland County, Maine, USA
##OWNER=RRUFF
##SOURCE=Bob Downs
##DESCRIPTION=Colorless fragment of a tabular single crystal
##STATUS=The identification of this mineral has been confirmed by X-ray diffraction and chemical analysis
##URL=rruff.info/R040129
##MEASURED CHEMISTRY=(Na_0.99_K_0.01_)Al_1.00_Si_3.00_O_8_
##PIN_ID=L00382
##ORIENTATION=Laser parallel to b* (0 1 0). Fiducial mark perpendicular to laser is parallel to c [0 0 1]
130.080, 0.000
131.469, 9.495
132.858, 111.365
134.248, 13.272
135.636, 20.558
137.025, 318.172
138.413, 365.320
139.801, 1028.980
141.189, 1527.068
142.577, 2949.010
143.964, 4263.520
145.352, 4773.899
146.739, 4798.187
148.125, 2865.165
149.512, 2154.023
150.898, 1276.214
152.284, 1152.360
153.670, 1147.063
155.056, 1375.219
156.441, 2187.872
157.827, 2728.159
159.212, 4016.498
160.596, 4602.906
161.981, 5217.780
163.365, 4951.426
164.749, 4204.003
166.133, 3995.610
167.517, 3706.345
168.900, 4516.320
170.283, 4995.640
171.666, 5284.360
173.049, 5512.531
174.431, 5520.200
175.813, 6337.417
177.195, 6599.714
178.577, 8210.169
179.959, 9201.476
181.340, 10818.183
182.721, 12533.528
184.102, 12967.611
185.483, 13001.750
186.863, 12422.680
188.244, 11409.192
189.624, 9186.271
191.003, 7464.134
192.383, 6232.895
193.762, 4982.523
195.141, 4562.752
196.520, 3783.022
197.899, 3653.193
199.277, 3373.235
200.656, 3303.152
202.034, 3902.950
203.411, 3972.638
204.789, 5512.346
206.166, 6562.405
207.543, 8372.645
208.920, 8602.991
210.297, 7423.336
211.673, 5943.551
213.049, 3693.658
214.425, 2643.687
215.801, 1534.706
217.176, 1063.746
218.552, 704.822
219.927, 314.942
221.302, 338.109
222.676, 43.676
224.051, 31.417
225.425, 191.116
226.799, 120.777
228.173, 165.411
229.546, 318.021
230.919, 78.613
232.292, 261.191
233.665, 62.760
235.038, 187.323
236.410, 167.884
237.782, 31.543
239.154, 46.066
240.526, 203.280
241.898, 180.771
243.269, 725.309
244.640, 898.905
246.011, 1579.371
247.381, 2632.198
248.752, 4019.004
250.122, 6442.165
251.492, 7243.314
252.861, 6871.586
254.231, 5122.545
255.600, 3088.162
256.969, 2185.872
258.338, 1437.949
259.707, 1260.663
261.075, 943.099
262.443, 995.562
263.811, 1223.796
265.179, 1514.809
266.546, 2055.629
267.914, 2302.406
269.281, 2490.652
270.647, 2815.984
272.014, 2592.780
273.380, 2629.578
274.747, 2386.372
276.113, 2643.159
277.478, 2691.541
278.844, 3347.806
280.209, 4077.182
281.574, 5266.021
282.939, 7391.439
284.304, 9540.073
285.668, 14514.062
287.032, 19208.646
288.396, 26888.105
289.760, 32144.350
291.123, 31310.768
292.487, 28497.414
293.850, 19583.496
295.212, 14652.614
296.575, 9959.708
297.937, 6929.105
299.300, 5319.061
300.662, 3639.426
302.023, 3030.105
303.385, 2111.023
304.746, 1872.119
306.107, 1478.354
307.468, 1088.691
308.829, 1109.096
310.189, 848.538
311.549, 929.998
312.909, 725.464
314.269, 615.923
315.629, 781.369
316.988, 564.798
318.347, 959.199
319.706, 885.535
321.065, 1355.771
322.423, 1809.898
323.781, 2670.927
325.139, 4831.859
326.497, 7022.709
327.855, 10513.477
329.212, 10104.167
330.569, 8264.787
331.926, 5835.336
333.283, 3515.819
334.639, 2766.238
335.995, 1596.596
337.351, 1397.894
338.707, 1070.134
340.063, 813.319
341.418, 815.321
342.773, 498.940
344.128, 709.051
345.483, 658.794
346.837, 869.263
348.192, 823.556
349.546, 714.779
350.899, 773.995
352.253, 366.201
353.606, 441.395
354.960, 352.592
356.313, 240.767
357.665, 329.929
359.018, 55.062
360.370, 250.152
361.722, 119.251
363.074, 114.314
364.426, 130.353
365.777, 76.643
367.128, 136.288
368.479, 39.804
369.830, 134.038
371.181, 19.145
372.531, 91.389
373.881, 78.285
375.231, 126.074
376.581, 71.478
377.930, 34.006
379.280, 18.446
380.629, 18.845
381.977, 64.733
383.326, 77.613
384.674, 84.057
386.023, 137.125
387.370, 159.046
388.718, 77.961
390.066, 267.250
391.413, 107.716
392.760, 369.568
394.107, 452.411
395.454, 884.819
396.800, 1296.635
398.146, 1280.669
399.492, 1775.824
400.838, 1092.461
402.184, 875.182
403.529, 792.121
404.874, 479.098
406.219, 975.972
407.564, 702.809
408.908, 1019.606
410.252, 501.352
411.596, 440.994
412.940, 582.547
414.284, 578.019
415.627, 1012.418
416.970, 798.693
418.313, 654.867
419.656, 407.935
420.999, 136.898
422.341, 188.830
423.683, 67.280
425.025, 35.550
426.367, 42.648
427.708, 58.891
429.049, 59.836
430.390, 116.464
431.731, 185.429
433.072, 81.954
434.412, 91.682
435.752, 106.222
437.092, 64.263
438.432, 183.548
439.772, 76.014
441.111, 190.216
442.450, 113.479
443.789, 11.663
445.127, 359.780
446.466, 304.870
447.804, 403.352
449.142, 268.332
450.480, 210.278
451.817, 468.545
453.155, 363.453
454.492, 798.992
455.829, 573.861
457.166, 838.703
458.502, 973.525
459.838, 698.317
461.175, 1023.076
462.510, 757.800
463.846, 1082.485
465.181, 1117.133
466.517, 1221.740
467.852, 1916.308
469.186, 1890.834
470.521, 2925.317
471.855, 3589.761
473.190, 4934.162
474.523, 7348.520
475.857, 9752.837
477.191, 14317.107
478.524, 15591.338
479.857, 15055.525
481.190, 12439.670
482.523, 8633.773
483.855, 7027.834
485.187, 4841.854
486.519, 4575.834
487.851, 3679.771
489.183, 3043.668
490.514, 3327.525
491.845, 2751.342
493.176, 3395.119
494.507, 3708.856
495.837, 4042.553
497.168, 5396.211
498.498, 6119.830
499.828, 9003.409
501.157, 11317.126
502.487, 16540.631
503.816, 24144.094
505.145, 31517.637
506.474, 41951.035
507.802, 39924.953
509.131, 35238.285
510.459, 27372.172
511.787, 18065.447
513.115, 14238.560
514.442, 9666.500
515.770, 7599.484
517.097, 6285.321
518.424, 4548.139
519.750, 4328.111
521.077, 3219.357
522.403, 3080.717
523.729, 2504.406
525.055, 2035.824
526.381, 2208.099
527.706, 1581.812
529.031, 1756.323
530.356, 1250.440
531.681, 1356.179
533.006, 1287.346
534.330, 979.579
535.654, 1198.502
536.978, 849.756
538.302, 834.712
539.625, 1022.544
540.949, 527.814
542.272, 910.426
543.595, 456.410
544.917, 697.741
546.240, 648.719
547.562, 331.494
548.884, 801.741
550.206, 365.784
551.527, 547.742
552.849, 460.363
554.170, 275.453
555.491, 698.162
556.812, 263.808
558.132, 487.100
559.453, 569.858
560.773, 293.128
562.093, 595.854
563.412, 258.550
564.732, 571.279
566.051, 353.929
567.370, 370.323
568.689, 632.938
570.008, 445.840
571.326, 678.682
572.644, 711.229
573.963, 772.840
575.280, 1115.354
576.598, 1047.840
577.915, 1441.090
579.233, 1333.524
580.550, 1247.188
581.866, 1248.955
583.183, 634.441
584.499, 795.004
585.815, 431.988
587.131, 541.168
588.447, 591.982
589.763, 194.264
591.078, 495.844
592.393, 30.255
593.708, 271.262
595.022, 372.365
596.337, 157.811
597.651, 499.244
598.965, 33.905
600.279, 395.312
601.593, 366.372
602.906, 296.131
604.219, 598.112
605.532, 30.068
606.845, 401.836
608.158, 273.420
609.470, 144.739
610.782, 496.578
612.094, 68.396
613.406, 370.187
614.718, 361.956
616.029, 263.703
617.340, 485.430
618.651, 237.135
619.962, 568.819
621.272, 520.482
622.582, 372.124
623.892, 793.746
625.202, 495.347
626.512, 1076.929
627.821, 978.488
629.131, 1320.028
630.440, 1891.549
631.749, 1553.053
633.057, 2134.538
634.366, 1666.004
635.674, 1587.450
636.982, 1608.876
638.290, 1100.302
639.597, 1561.708
640.905, 1263.096
642.212, 1324.465
643.519, 1945.815
644.825, 1477.148
646.132, 2148.463
647.438, 1639.759
648.744, 1591.037
650.050, 1582.297
651.356, 803.540
652.662, 1164.765
653.967, 595.974
655.272, 587.164
656.577, 718.339
657.882, 149.496
659.186, 520.635
660.490, 321.758
661.794, 162.864
663.098, 513.955
664.402, 55.028
665.705, 326.081
667.009, 47.118
668.312, 298.135
669.614, 359.136
670.917, 49.878
672.219, 361.050
673.522, 28.037
674.824, 302.832
676.125, 263.688
677.427, 115.455
678.728, 455.311
680.030, 13.929
681.331, 196.799
682.631, 257.521
683.932, 11.726
685.232, 418.999
686.532, 19.730
687.832, 230.984
689.132, 171.723
690.432, 7.500
691.731, 263.254
693.030, 4.118
694.329, 84.905
695.628, 285.713
696.926, 253.133
698.224, 437.544
699.522, 71.748
700.820, 208.904
702.118, 249.595
703.415, 159.721
704.713, 340.856
706.010, 8.566
707.307, 11.979
708.603, 242.509
709.900, 170.815
711.196, 329.573
712.492, 20.044
713.788, 30.290
715.083, 210.614
716.379, 31.696
717.674, 271.987
718.969, 172.266
720.264, 134.953
721.558, 415.205
722.853, 29.506
724.147, 430.687
725.441, 70.864
726.735, 84.627
728.028, 474.774
729.322, 110.455
730.615, 389.589
731.908, 209.619
733.201, 29.816
734.493, 569.814
735.785, 0.200
737.078, 319.758
738.370, 139.706
739.661, 209.673
740.953, 409.637
742.244, 20.386
743.535, 599.579
744.826, 249.540
746.117, 291.532
747.407, 631.518
748.698, 150.457
749.988, 700.462
751.278, 330.462
752.567, 530.139
753.857, 870.151
755.146, 409.302
756.435, 984.245
757.724, 1094.271
759.013, 1194.297
760.301, 2224.314
761.590, 1880.878
762.878, 2761.219
764.165, 2441.213
765.453, 1730.859
766.741, 2130.838
768.028, 1060.156
769.315, 1100.119
770.602, 1150.073
771.888, 550.020
773.175, 1099.958
774.461, 449.890
775.747, 829.813
777.033, 809.730
778.319, 239.640
779.604, 789.542
780.889, 199.438
782.174, 389.327
783.459, 579.210
784.744, 179.086
786.028, 689.795
787.312, 279.659
788.596, 409.516
789.880, 539.367
791.164, 129.213
792.447, 642.940
793.730, 352.774
795.013, 332.604
796.296, 642.427
797.579, 282.246
798.861, 542.060
800.143, 281.868
801.425, 421.672
802.707, 721.470
803.989, 421.265
805.270, 991.055
806.551, 810.840
807.832, 790.621
809.113, 1410.399
810.394, 1330.173
811.674, 2349.942
812.954, 2629.533
814.234, 2769.297
815.514, 3299.057
816.794, 2478.707
818.073, 2378.461
819.352, 1897.661
820.631, 857.411
821.910, 1366.583
823.189, 506.328
824.467, 676.070
825.745, 861.082
827.023, 310.821
828.301, 767.205
829.578, 376.942
830.856, 436.679
832.133, 767.580
833.410, 107.316
834.687, 714.601
835.963, 394.336
837.240, 224.073
838.516, 631.511
839.792, 11.248
841.068, 528.172
842.343, 259.450
843.618, 179.186
844.894, 646.891
846.169, 26.628
847.443, 365.076
848.718, 244.503
849.992, 14.251
851.266, 486.551
852.540, 116.299
853.814, 349.997
855.088, 309.751
856.361, 39.508
857.634, 537.712
858.907, 137.476
860.180, 295.190
861.453, 384.033
862.725, 116.186
863.997, 521.118
865.269, 290.856
866.541, 7.658
867.812, 496.848
869.084, 13.396
870.355, 475.823
871.626, 225.590
872.897, 54.636
874.167, 515.075
875.438, 105.156
876.708, 570.827
877.978, 260.571
879.248, 79.990
880.517, 779.473
881.787, 100.786
883.056, 229.853
884.325, 339.572
885.594, 0.696
886.862, 558.253
888.130, 118.006
889.399, 185.686
890.667, 625.463
891.934, 75.255
893.202, 635.058
894.469, 154.874
895.737, 81.470
897.004, 701.317
898.270, 58.817
899.537, 451.044
900.803, 450.920
902.070, 190.820
903.336, 670.732
904.601, 130.662
905.867, 360.621
907.132, 380.568
908.398, 119.494
909.663, 510.428
910.928, 30.357
912.192, 240.295
913.457, 510.240
914.721, 9.793
915.985, 640.182
917.249, 140.166
918.512, 90.160
919.776, 610.162
921.039, 30.176
922.302, 670.201
923.565, 170.230
924.827, 40.268
926.090, 740.295
927.352, 40.332
928.614, 320.381
929.876, 660.439
931.138, 30.508
932.399, 740.586
933.660, 150.676
934.922, 380.779
936.182, 590.893
937.443, 28.984
938.704, 701.146
939.964, 291.291
941.224, 331.447
942.484, 601.615
943.744, 108.203
945.003, 521.973
946.262, 402.162
947.521, 292.365
948.780, 762.580
950.039, 252.811
951.298, 433.045
952.556, 703.293
953.814, 223.557
955.072, 823.832
956.330, 304.125
957.587, 454.430
958.845, 754.754
960.102, 85.090
961.359, 795.439
962.615, 615.809
963.872, 96.193
965.128, 946.594
966.384, 177.012
967.640, 697.447
968.896, 787.900
970.152, 38.371
971.407, 1308.863
972.662, 639.371
973.917, 919.902
975.172, 1270.451
976.427, 801.020
977.681, 1561.625
978.935, 1242.254
980.189, 952.916
981.443, 1253.656
982.697, 534.355
983.950, 725.113
985.203, 915.891
986.456, 206.701
987.709, 837.535
988.962, 158.389
990.214, 319.275
991.467, 779.660
992.719, 59.393
993.971, 751.568
995.222, 252.553
996.474, 133.574
997.725, 866.629
998.976, 7.707
1000.227, 708.812
1001.478, 819.672
1002.728, 330.906
1003.978, 1172.166
1005.229, 543.482
1006.479, 694.828
1007.728, 1076.246
1008.978, 367.703
1010.227, 1179.188
1011.476, 921.443
1012.725, 653.010
1013.974, 1298.451
1015.223, 620.137
1016.471, 1401.859
1017.719, 1133.580
1018.967, 815.393
1020.215, 1516.469
1021.462, 859.635
1022.710, 1231.568
1023.957, 1851.047
1025.204, 1123.285
1026.451, 2300.295
1027.697, 2073.016
1028.944, 2405.137
1030.190, 3503.707
1031.436, 2786.508
1032.682, 3794.141
1033.928, 3336.498
1035.173, 2158.887
1036.418, 2711.152
1037.663, 1634.191
1038.908, 1486.754
1040.153, 1789.340
1041.398, 982.494
1042.642, 1425.162
1043.886, 1157.895
1045.130, 631.625
1046.374, 1244.473
1047.617, 498.961
1048.860, 929.660
1050.104, 1022.645
1051.347, 327.312
1052.589, 1110.096
1053.832, 483.377
1055.074, 399.471
1056.316, 996.518
1057.558, 313.254
1058.800, 504.938
1060.042, 716.648
1061.283, 288.035
1062.524, 1079.807
1063.765, 321.605
1065.006, 553.436
1066.247, 1195.299
1067.487, 167.197
1068.728, 999.127
1069.968, 641.092
1071.208, 553.090
1072.447, 1234.180
1073.687, 386.242
1074.926, 813.895
1076.165, 1055.984
1077.404, 278.109
1078.643, 1080.273
1079.881, 722.475
1081.120, 574.713
1082.358, 1406.990
1083.596, 399.307
1084.834, 1121.664
1086.071, 1194.062
1087.309, 666.500
1088.546, 1728.977
1089.783, 1021.498
1091.020, 1474.061
1092.256, 2096.664
1093.493, 1659.311
1094.729, 2841.998
1095.965, 2574.729
1097.201, 2487.500
1098.436, 3780.318
1099.672, 2651.000
1100.907, 2983.881
1102.142, 3056.779
1103.377, 1839.721
1104.612, 2822.709
1105.846, 1915.734
1107.081, 1908.795
1108.315, 2341.891
1109.549, 1155.059
1110.782, 1668.305
1112.016, 1651.588
1113.249, 1174.910
1114.483, 1888.277
1115.716, 1291.730
1116.948, 1245.242
1118.181, 2038.842
1119.413, 1022.539
1120.646, 1636.270
1121.878, 1290.023
1123.110, 693.805
1124.341, 1597.604
1125.573, 531.414
1126.804, 535.232
1128.035, 1199.076
1129.266, 7.078
1130.497, 946.779
1131.727, 620.832
1132.957, 104.963
1134.188, 1109.178
1135.418, 223.475
1136.647, 387.852
1137.877, 992.311
1139.106, 56.875
1140.335, 1201.625
1141.564, 526.465
1142.793, 21.406
1144.022, 1206.449
1145.250, 78.408
1146.479, 816.844
1147.707, 952.203
1148.934, 17.678
1150.162, 1053.268
1151.390, 668.977
1152.617, 484.867
1153.844, 1260.891
1155.071, 47.055
1156.298, 803.361
1157.524, 909.822
1158.751, 23.564
1159.977, 963.211
1161.203, 580.156
1162.428, 237.271
1163.654, 944.570
1164.879, 122.070
1166.105, 739.781
1167.330, 687.488
1168.555, 34.328
1169.779, 1024.113
1171.004, 502.826
1172.228, 91.826
1173.452, 1111.125
1174.676, 0.205
1175.900, 679.689
1177.123, 659.131
1178.346, 39.256
1179.570, 949.482
1180.793, 370.326
1182.015, 306.613
1183.238, 1117.988
1184.460, 99.785
1185.683, 732.045
1186.905, 573.486
1188.126, 133.680
1189.348, 879.934
1190.569, 363.248
1191.791, 69.656
1193.012, 933.287
1194.233, 8.975
1195.453, 502.936
1196.674, 917.637
1197.894, 57.492
1199.114, 992.865
1200.334, 319.674
1201.554, 1.562
1202.774, 0.000
##END=



