##NAMES=Albite
##RRUFFID=R040129
##IDEAL CHEMISTRY=NaAlSi_3_O_8_
##LOCALITY=LaChance Quarry, Brunswick, Cumberland County, Maine, USA
##OWNER=RRUFF
##SOURCE=Bob Downs
##DESCRIPTION=Colorless fragment of a tabular single crystal
##STATUS=The identification of this mineral has been confirmed by X-ray diffraction and chemical analysis
##URL=rruff.info/R040129
##MEASURED CHEMISTRY=(Na_0.99_K_0.01_)Al_1.00_Si_3.00_O_8_
##PIN_ID=L00089
##ORIENTATION=Laser parallel to c* (0 0 1). Fiducial mark perpendicular to laser is parallel to -a [-1 0 0]
130.080, 0.000
131.469, 5.351
132.858, 98.770
134.248, 134.883
135.636, 87.619
137.025, 383.557
138.413, 557.730
139.801, 950.286
141.189, 1213.518
142.577, 1857.402
143.964, 2875.785
145.352, 3648.726
146.739, 4940.721
148.125, 5807.737
149.512, 7625.131
150.898, 7362.498
152.284, 5719.585
153.670, 3462.485
155.056, 1416.268
156.441, 588.004
157.827, 47.105
159.212, 110.704
160.596, 219.727
161.981, 255.402
163.365, 375.073
164.749, 325.932
166.133, 499.159
167.517, 666.913
168.900, 1153.331
170.283, 1716.534
171.666, 1863.629
173.049, 1991.720
174.431, 1745.911
175.813, 2151.377
177.195, 2230.069
178.577, 2944.313
179.959, 3429.598
181.340, 4246.263
182.721, 5401.973
184.102, 5669.455
185.483, 6596.499
186.863, 6014.384
188.244, 5622.542
189.624, 4720.511
191.003, 3568.851
192.383, 3080.563
193.762, 2368.410
195.141, 2147.152
196.520, 1754.014
197.899, 1727.739
199.277, 1612.312
200.656, 1695.729
202.034, 1988.996
203.411, 2184.120
204.789, 3184.109
206.166, 4045.979
207.543, 5552.739
208.920, 6443.383
210.297, 5823.915
211.673, 4953.343
213.049, 3108.712
214.425, 2215.142
215.801, 1468.652
217.176, 983.249
218.552, 752.946
219.927, 440.112
221.302, 420.755
222.676, 179.819
224.051, 172.938
225.425, 108.636
226.799, 30.448
228.173, 25.580
229.546, 89.771
230.919, 72.936
232.292, 115.083
233.665, 100.536
235.038, 146.776
236.410, 129.054
237.782, 109.767
239.154, 152.161
240.526, 106.787
241.898, 5.852
243.269, 14.914
244.640, 77.515
246.011, 235.285
247.381, 435.491
248.752, 672.914
250.122, 1232.531
251.492, 1430.385
252.861, 1533.621
254.231, 1230.679
255.600, 695.287
256.969, 624.859
258.338, 338.684
259.707, 487.858
261.075, 470.806
262.443, 620.587
263.811, 945.136
265.179, 1308.420
266.546, 1940.434
267.914, 2343.185
269.281, 2847.808
270.647, 2763.379
272.014, 2203.947
273.380, 1756.511
274.747, 1240.069
276.113, 989.621
277.478, 791.161
278.844, 724.692
280.209, 746.438
281.574, 856.426
282.939, 1077.219
284.304, 1442.852
285.668, 2291.328
287.032, 3087.797
288.396, 4728.258
289.760, 6151.710
291.123, 6499.155
292.487, 6326.593
293.850, 4427.023
295.212, 3339.098
296.575, 2394.009
297.937, 1545.981
299.300, 1256.131
300.662, 820.391
302.023, 716.714
303.385, 438.066
304.746, 459.419
306.107, 369.756
307.468, 267.062
308.829, 296.320
310.189, 189.512
311.549, 186.626
312.909, 199.657
314.269, 67.603
315.629, 149.458
316.988, 36.228
318.347, 89.905
319.706, 100.481
321.065, 113.929
322.423, 249.227
323.781, 232.373
325.139, 636.379
326.497, 1034.258
327.855, 1718.017
329.212, 1921.665
330.569, 1606.208
331.926, 1273.651
333.283, 639.001
334.639, 524.263
335.995, 287.440
337.351, 265.536
338.707, 225.554
340.063, 173.496
341.418, 162.329
342.773, 99.962
344.128, 181.286
345.483, 164.263
346.837, 159.860
348.192, 242.117
349.546, 120.025
350.899, 195.789
352.253, 108.498
353.606, 41.181
354.960, 99.833
356.313, 32.457
357.665, 77.049
359.018, 27.387
360.370, 15.868
361.722, 33.638
363.074, 4.112
364.426, 4.444
365.777, 11.037
367.128, 16.667
368.479, 15.690
369.830, 25.984
371.181, 27.697
372.531, 53.428
373.881, 63.803
375.231, 37.987
376.581, 30.195
377.930, 91.352
379.280, 11.509
380.629, 49.636
381.977, 28.753
383.326, 45.834
384.674, 6.883
386.023, 61.800
387.370, 110.622
388.718, 25.793
390.066, 195.874
391.413, 417.286
392.760, 339.725
394.107, 319.255
395.454, 342.176
396.800, 600.033
398.146, 649.007
399.492, 781.131
400.838, 606.474
402.184, 455.169
403.529, 517.724
404.874, 567.352
406.219, 1172.684
407.564, 1311.316
408.908, 1429.125
410.252, 1056.579
411.596, 1047.978
412.940, 1386.325
414.284, 1917.605
415.627, 3204.829
416.970, 3207.999
418.313, 2445.135
419.656, 1600.241
420.999, 827.981
422.341, 560.025
423.683, 386.043
425.025, 286.050
426.367, 243.044
427.708, 164.028
429.049, 156.002
430.390, 160.966
431.731, 198.921
433.072, 152.870
434.412, 235.809
435.752, 172.740
437.092, 217.664
438.432, 268.797
439.772, 292.763
441.111, 441.664
442.450, 476.618
443.789, 515.500
445.127, 739.489
446.466, 776.371
447.804, 1069.273
449.142, 1438.244
450.480, 1854.161
451.817, 2726.289
453.155, 3658.115
454.492, 5646.933
455.829, 6563.743
457.166, 6870.523
458.502, 6267.414
459.838, 4249.138
461.175, 3436.978
462.510, 2537.637
463.846, 2198.264
465.181, 2200.858
466.517, 1977.420
467.852, 2356.941
469.186, 2622.992
470.521, 3337.129
471.855, 4248.781
473.190, 5617.383
474.523, 8363.001
475.857, 11427.695
477.191, 17053.037
478.524, 19907.244
479.857, 19292.027
481.190, 16446.857
482.523, 10741.766
483.855, 8187.346
485.187, 5382.827
486.519, 4275.921
487.851, 3452.989
489.183, 2749.030
490.514, 2719.043
491.845, 2334.031
493.176, 2415.992
494.507, 2585.930
495.837, 2666.841
497.168, 3331.297
498.498, 3784.637
499.828, 5088.785
501.157, 6611.689
502.487, 9956.522
503.816, 14070.880
505.145, 18696.188
506.474, 26560.969
507.802, 26348.766
509.131, 23364.061
510.459, 18748.787
511.787, 12163.842
513.115, 9618.255
514.442, 6671.966
515.770, 5086.323
517.097, 4183.538
518.424, 3137.980
519.750, 2836.223
521.077, 2228.658
522.403, 2088.468
523.729, 1708.217
525.055, 1421.135
526.381, 1453.414
527.706, 1179.866
529.031, 1127.239
530.356, 1031.875
531.681, 874.084
533.006, 954.312
534.330, 766.448
535.654, 731.079
536.978, 608.932
538.302, 565.221
539.625, 667.742
540.949, 499.307
542.272, 642.975
543.595, 534.016
544.917, 491.708
546.240, 441.073
547.562, 362.186
548.884, 440.881
550.206, 329.731
551.527, 301.784
552.849, 375.134
554.170, 292.184
555.491, 342.726
556.812, 282.256
558.132, 242.726
559.453, 331.298
560.773, 285.970
562.093, 322.755
563.412, 264.448
564.732, 270.147
566.051, 291.858
567.370, 291.691
568.689, 407.402
570.008, 322.120
571.326, 375.855
572.644, 520.533
573.963, 526.201
575.280, 755.857
576.598, 837.504
577.915, 1038.324
579.233, 1111.951
580.550, 955.569
581.866, 934.177
583.183, 630.776
584.499, 577.365
585.815, 371.944
587.131, 362.309
588.447, 325.643
589.763, 156.993
591.078, 134.497
592.393, 170.804
593.708, 110.333
595.022, 212.719
596.337, 55.233
597.651, 92.737
598.965, 145.230
600.279, 90.713
601.593, 182.198
602.906, 76.673
604.219, 100.138
605.532, 92.593
606.845, 74.038
608.158, 84.473
609.470, 31.897
610.782, 106.310
612.094, 109.713
613.406, 139.107
614.718, 110.492
616.029, 66.866
617.340, 121.231
618.651, 63.591
619.962, 133.941
621.272, 204.292
622.582, 130.634
623.892, 223.968
625.202, 173.295
626.512, 239.615
627.821, 230.929
629.131, 236.236
630.440, 311.538
631.749, 223.835
633.057, 270.128
634.366, 290.420
635.674, 229.709
636.982, 323.999
638.290, 259.295
639.597, 370.589
640.905, 364.881
642.212, 318.169
643.519, 579.454
644.825, 540.731
646.132, 753.001
647.438, 679.265
648.744, 679.522
650.050, 662.773
651.356, 426.018
652.662, 452.257
653.967, 267.489
655.272, 254.717
656.577, 243.942
657.882, 116.164
659.186, 107.384
660.490, 142.602
661.794, 0.179
663.098, 141.033
664.402, 46.756
665.705, 32.425
667.009, 21.602
668.312, 36.777
669.614, 70.948
670.917, 80.119
672.219, 64.293
673.522, 2.532
674.824, 16.361
676.125, 56.799
677.427, 100.028
678.728, 34.101
680.030, 1.769
681.331, 19.361
682.631, 96.499
683.932, 82.354
685.232, 84.756
686.532, 20.871
687.832, 72.002
689.132, 16.904
690.432, 10.800
691.731, 39.706
693.030, 13.380
694.329, 90.534
695.628, 31.500
696.926, 52.462
698.224, 52.544
699.522, 14.445
700.820, 21.447
702.118, 2.460
703.415, 100.481
704.713, 40.441
706.010, 36.365
707.307, 82.714
708.603, 4.847
709.900, 16.992
711.196, 43.842
712.492, 54.670
713.788, 85.267
715.083, 99.501
716.379, 51.263
717.674, 35.020
718.969, 158.771
720.264, 74.516
721.558, 85.255
722.853, 38.875
724.147, 79.603
725.441, 60.325
726.735, 53.041
728.028, 169.750
729.322, 96.455
730.615, 171.155
731.908, 275.849
733.201, 18.538
734.493, 319.220
735.785, 157.896
737.078, 245.569
738.370, 263.236
739.661, 234.897
740.953, 294.555
742.244, 313.208
743.535, 392.444
744.826, 454.089
746.117, 480.730
747.407, 614.367
748.698, 608.000
749.988, 846.657
751.278, 936.282
752.567, 1078.686
753.857, 1482.243
755.146, 1584.856
756.435, 2247.918
757.724, 2973.522
759.013, 4002.006
760.301, 6046.586
761.590, 7481.131
762.878, 9335.595
764.165, 9500.104
765.453, 7274.393
766.741, 6098.969
768.028, 3894.542
769.315, 2923.111
770.602, 2310.677
771.888, 1648.103
773.175, 1514.540
774.461, 1239.949
775.747, 912.833
777.033, 931.382
778.319, 635.927
779.604, 754.069
780.889, 664.608
782.174, 546.144
783.459, 567.676
784.744, 426.206
786.028, 520.732
787.312, 433.255
788.596, 457.776
789.880, 495.309
791.164, 416.824
792.447, 531.695
793.730, 560.204
795.013, 419.710
796.296, 478.233
797.579, 546.734
798.861, 702.231
800.143, 676.726
801.425, 756.217
802.707, 936.707
803.989, 1133.193
805.270, 1411.678
806.551, 1696.171
807.832, 2104.650
809.113, 3172.127
810.394, 3967.602
811.674, 5552.074
812.954, 7226.544
814.234, 8351.012
815.514, 9355.478
816.794, 7749.501
818.073, 6353.963
819.352, 4755.375
820.631, 2948.619
821.910, 2546.819
823.189, 1784.082
824.467, 1584.487
825.745, 1556.931
827.023, 1126.308
828.301, 1127.139
829.578, 770.231
830.856, 600.579
832.133, 657.476
833.410, 514.728
834.687, 543.537
835.963, 511.729
837.240, 335.168
838.516, 442.099
839.792, 240.536
841.068, 284.737
842.343, 348.277
843.618, 207.201
844.894, 314.451
846.169, 240.985
847.443, 121.167
848.718, 276.487
849.992, 118.748
851.266, 162.438
852.540, 189.792
853.814, 94.781
855.088, 248.358
856.361, 93.985
857.634, 135.621
858.907, 134.938
860.180, 205.242
861.453, 186.978
862.725, 92.451
863.997, 94.251
865.269, 165.603
866.541, 26.996
867.812, 107.507
869.084, 98.958
870.355, 92.350
871.626, 148.677
872.897, 28.136
874.167, 118.597
875.438, 61.930
876.708, 67.408
877.978, 36.861
879.248, 14.300
880.517, 113.713
881.787, 38.181
883.056, 3.651
884.325, 107.125
885.594, 8.613
886.862, 46.921
888.130, 46.423
889.399, 30.933
890.667, 77.446
891.934, 15.963
893.202, 93.484
894.469, 43.008
895.737, 38.458
897.004, 97.065
898.270, 18.592
899.537, 56.124
900.803, 110.659
902.070, 26.792
903.336, 122.753
904.601, 85.302
905.867, 35.867
907.132, 136.438
908.398, 57.988
909.663, 96.569
910.928, 34.130
912.192, 41.707
913.457, 148.288
914.721, 23.874
915.985, 94.470
917.249, 89.070
918.512, 26.677
919.776, 127.289
921.039, 20.906
922.302, 122.528
923.565, 12.155
924.827, 25.213
926.090, 96.417
927.352, 55.948
928.614, 60.671
929.876, 148.296
931.138, 19.074
932.399, 57.557
933.660, 70.192
934.922, 23.833
936.182, 37.482
937.443, 41.136
938.704, 78.795
939.964, 133.460
941.224, 0.131
942.484, 173.808
943.744, 37.511
945.003, 26.165
946.262, 139.848
947.521, 0.464
948.780, 79.229
950.039, 136.928
951.298, 31.633
952.556, 181.344
953.814, 60.061
955.072, 76.784
956.330, 70.513
957.587, 0.249
958.845, 120.989
960.102, 92.737
961.359, 68.490
962.615, 211.248
963.872, 38.013
965.128, 290.784
966.384, 164.562
967.640, 126.347
968.896, 301.139
970.152, 73.938
971.407, 365.756
972.662, 292.583
973.917, 317.417
975.172, 515.257
976.427, 518.104
977.681, 496.958
978.935, 549.818
980.189, 413.688
981.443, 527.570
982.697, 376.460
983.950, 139.384
985.203, 291.315
986.456, 120.257
987.709, 281.206
988.962, 209.162
990.214, 121.148
991.467, 196.141
992.719, 138.142
993.971, 121.171
995.222, 233.360
996.474, 129.416
997.725, 355.490
998.976, 250.573
1000.227, 521.688
1001.478, 686.811
1002.728, 626.956
1003.978, 897.110
1005.229, 922.276
1006.479, 711.458
1007.728, 817.650
1008.978, 627.878
1010.227, 643.114
1011.476, 664.356
1012.725, 542.629
1013.974, 663.917
1015.223, 667.220
1016.471, 511.528
1017.719, 567.625
1018.967, 402.263
1020.215, 427.635
1021.462, 465.027
1022.710, 321.414
1023.957, 340.807
1025.204, 235.292
1026.451, 320.811
1027.697, 289.222
1028.944, 223.639
1030.190, 310.064
1031.436, 273.629
1032.682, 293.086
1033.928, 344.539
1035.173, 237.514
1036.418, 288.977
1037.663, 178.318
1038.908, 218.525
1040.153, 347.010
1041.398, 293.555
1042.642, 401.062
1043.886, 539.591
1045.130, 488.460
1046.374, 486.412
1047.617, 491.961
1048.860, 446.587
1050.104, 551.160
1051.347, 389.209
1052.589, 428.787
1053.832, 336.379
1055.074, 185.760
1056.316, 312.365
1057.558, 209.006
1058.800, 157.168
1060.042, 272.812
1061.283, 182.751
1062.524, 262.435
1063.765, 276.121
1065.006, 206.766
1066.247, 336.462
1067.487, 135.165
1068.728, 336.894
1069.968, 320.613
1071.208, 311.456
1072.447, 284.191
1073.687, 265.930
1074.926, 219.841
1076.165, 394.601
1077.404, 249.032
1078.643, 397.798
1079.881, 484.567
1081.120, 387.002
1082.358, 575.779
1083.596, 361.559
1084.834, 661.797
1086.071, 716.605
1087.309, 585.424
1088.546, 895.243
1089.783, 931.065
1091.020, 1009.044
1092.256, 1385.871
1093.493, 1542.340
1094.729, 1930.525
1095.965, 2235.359
1097.201, 2328.174
1098.436, 2789.021
1099.672, 2522.870
1100.907, 2253.723
1102.142, 2256.576
1103.377, 1595.432
1104.612, 1452.491
1105.846, 1330.351
1107.081, 986.200
1108.315, 920.128
1109.549, 597.994
1110.782, 485.861
1112.016, 535.729
1113.249, 399.599
1114.483, 289.646
1115.716, 307.520
1116.948, 220.394
1118.181, 273.338
1119.413, 332.214
1120.646, 324.092
1121.878, 378.102
1123.110, 431.937
1124.341, 388.927
1125.573, 279.812
1126.804, 165.695
1128.035, 284.607
1129.266, 72.493
1130.497, 92.477
1131.727, 147.363
1132.957, 55.249
1134.188, 154.312
1135.418, 183.198
1136.647, 64.083
1137.877, 180.168
1139.106, 98.051
1140.335, 207.078
1141.564, 237.147
1142.793, 25.973
1144.022, 310.030
1145.250, 154.963
1146.479, 204.826
1147.707, 320.849
1148.934, 151.709
1150.162, 277.652
1151.390, 387.802
1152.617, 217.653
1153.844, 325.501
1155.071, 227.439
1156.298, 163.280
1157.524, 238.396
1158.751, 63.229
1159.977, 81.057
1161.203, 181.889
1162.428, 70.708
1163.654, 129.552
1164.879, 35.028
1166.105, 21.163
1167.330, 170.629
1168.555, 18.664
1169.779, 126.444
1171.004, 59.651
1172.228, 32.582
1173.452, 97.162
1174.676, 150.003
1175.900, 70.952
1177.123, 233.151
1178.346, 15.826
1179.570, 25.886
1180.793, 61.513
1182.015, 36.650
1183.238, 147.019
1184.460, 25.706
1185.683, 7.153
1186.905, 59.469
1188.126, 30.631
1189.348, 126.308
1190.569, 59.001
1191.791, 13.410
1193.012, 91.159
1194.233, 104.057
1195.453, 32.768
1196.674, 67.586
1197.894, 28.738
1199.114, 51.771
1200.334, 158.528
1201.554, 32.831
1202.774, 188.628
1203.993, 64.556
1205.212, 56.997
1206.431, 257.450
1207.650, 17.716
1208.869, 78.685
1210.087, 162.076
1211.305, 4.120
1212.524, 235.481
1213.741, 107.330
1214.959, 78.181
1216.177, 204.509
1217.394, 58.046
1218.611, 188.352
1219.828, 135.647
1221.045, 81.603
1222.261, 191.879
1223.478, 179.146
1224.694, 140.507
1225.910, 289.771
1227.126, 39.357
1228.342, 176.599
1229.557, 262.113
1230.772, 34.826
1231.987, 265.045
1233.202, 101.394
1234.417, 125.724
1235.631, 263.921
1236.846, 63.111
1238.060, 261.294
1239.274, 249.469
1240.488, 43.776
1241.701, 255.941
1242.915, 136.099
1244.128, 113.253
1245.341, 237.396
1246.554, 143.746
1247.767, 169.872
1248.979, 212.990
1250.191, 64.099
1251.403, 167.200
1252.615, 301.292
1253.827, 98.614
1255.039, 214.688
1256.250, 170.754
1257.461, 239.809
1258.672, 185.853
1259.883, 74.962
1261.094, 255.108
1262.304, 264.123
1263.514, 102.128
1264.724, 255.124
1265.934, 149.108
1267.144, 100.601
1268.354, 256.561
1269.563, 95.482
1270.772, 173.008
1271.981, 289.655
1273.190, 116.542
1274.398, 312.645
1275.607, 100.506
1276.815, 146.498
1278.023, 171.326
1279.231, 83.133
1280.439, 239.927
1281.646, 268.667
1282.853, 78.397
1284.060, 228.104
1285.267, 92.770
1286.474, 82.565
1287.681, 223.196
1288.887, 94.622
1290.093, 111.125
1291.299, 205.618
1292.505, 89.092
1293.711, 222.389
1294.916, 108.795
1296.121, 69.188
1297.327, 262.536
1298.531, 137.870
1299.736, 107.187
1300.941, 141.486
1302.145, 71.723
1303.349, 186.932
1304.553, 156.125
1305.757, 31.301
1306.961, 179.455
1308.164, 122.573
1309.367, 36.329
1310.570, 263.730
1311.773, 145.501
1312.976, 74.521
1314.178, 185.508
1315.381, 57.488
1316.583, 170.444
1317.785, 242.294
1318.987, 104.209
1320.188, 181.096
1321.390, 41.956
1322.591, 66.791
1323.792, 181.468
1324.993, 5.232
1326.193, 90.984
1327.394, 154.195
1328.594, 40.900
1329.794, 26.710
1330.994, 169.637
1332.194, 7.729
1333.394, 100.814
1334.593, 32.620
1335.792, 134.908
1336.991, 155.082
1338.190, 12.574
1339.389, 78.040
1340.587, 20.585
1341.786, 16.831
1342.984, 154.758
1344.182, 58.115
1345.379, 14.473
1346.577, 191.028
1347.774, 74.651
1348.972, 125.622
1350.169, 102.847
1351.365, 89.902
1352.562, 134.046
1353.759, 118.364
1354.955, 24.554
1356.151, 145.782
1357.347, 30.957
1358.543, 13.874
1359.738, 249.271
1360.934, 9.568
1362.129, 118.478
1363.324, 140.634
1364.519, 33.194
1365.713, 128.949
1366.908, 103.156
1368.102, 72.408
1369.296, 92.735
1370.490, 37.189
1371.684, 148.341
1372.877, 42.274
1374.071, 62.403
1375.264, 218.897
1376.457, 8.004
1377.650, 64.896
1378.843, 215.140
1380.035, 151.346
1381.227, 99.532
1382.419, 205.480
1383.611, 63.627
1384.803, 151.683
1385.995, 239.787
1387.186, 6.325
1388.377, 323.739
1389.568, 50.703
1390.759, 135.627
1391.950, 166.496
1393.140, 128.468
1394.331, 142.387
1395.521, 159.196
1396.711, 47.885
1397.900, 146.771
1399.090, 104.383
1400.279, 130.804
1401.469, 255.456
1402.658, 77.183
1403.847, 65.763
1405.035, 355.032
1406.224, 118.783
1407.412, 141.393
1408.600, 223.733
1409.788, 27.046
1410.976, 237.681
1412.164, 125.745
1413.351, 30.983
1414.538, 321.936
1415.725, 119.510
1416.912, 41.951
1418.099, 301.076
1419.285, 47.709
1420.472, 171.028
1421.658, 160.190
1422.844, 73.701
1424.030, 100.505
1425.215, 237.906
1426.401, 88.868
1427.586, 262.878
1428.771, 31.750
1429.956, 99.096
1431.141, 238.104
1432.325, 177.118
1433.510, 157.092
1434.694, 288.854
1435.878, 9.768
1437.062, 235.914
1438.245, 198.896
1439.429, 191.330
1440.612, 303.777
1441.795, 211.684
1442.978, 262.654
1444.161, 299.728
1445.343, 345.270
1446.526, 271.361
1447.708, 327.377
1448.890, 172.017
1450.072, 308.301
1451.253, 282.474
1452.435, 187.044
1453.616, 381.517
1454.797, 247.301
1455.978, 193.559
1457.159, 371.718
1458.340, 188.253
1459.520, 237.176
1460.700, 450.975
1461.880, 6.200
1463.060, 365.835
1464.240, 286.369
1465.420, 86.090
1466.599, 261.927
1467.778, 160.132
1468.957, 149.447
1470.136, 305.766
1471.315, 103.563
1472.493, 128.234
1473.671, 195.980
1474.849, 255.598
1476.027, 190.430
1477.205, 158.277
1478.383, 65.240
1479.560, 140.419
1480.737, 156.537
1481.914, 37.801
1483.091, 240.046
1484.268, 21.306
1485.444, 71.583
1486.621, 294.903
1487.797, 21.383
1488.973, 233.002
1490.149, 238.808
1491.324, 2.784
1492.500, 252.979
1493.675, 151.468
1494.850, 9.702
1496.025, 282.390
1497.200, 31.773
1498.374, 5.509
1499.548, 293.686
1500.723, 39.399
1501.897, 18.753
1503.071, 169.877
1504.244, 37.716
1505.418, 209.548
1506.591, 148.773
1507.764, 23.816
1508.937, 235.376
1510.110, 171.292
1511.282, 0.000
##END=



