##NAMES=Albite
##RRUFFID=R040068
##IDEAL CHEMISTRY=NaAlSi_3_O_8_
##LOCALITY=Harding Pegmatite, Dixon, New Mexico, USA
##OWNER=RRUFF
##SOURCE=University of Arizona Mineral Museum
##DESCRIPTION=Tan colored crystal fragment
##STATUS=The identification of this mineral has been confirmed by X-ray diffraction and chemical analysis
##URL=rruff.info/R040068
##MEASURED CHEMISTRY=(Na_0.99_Ca_0.01_)Al_1.00_(Si_0.99_Al_0.01_)_3_O_8_
##PIN_ID=L00433
##ORIENTATION=Laser parallel to -b* (0 -1 0). Fiducial mark perpendicular to laser is parallel to -c [0 0 -1]
121.738, 0.000
123.129, 123.988
124.519, 0.371
125.910, 66.261
127.300, 79.363
128.690, 40.178
130.080, 184.484
131.469, 28.344
132.858, 211.127
134.248, 102.450
135.636, 155.386
137.025, 330.021
138.413, 575.994
139.801, 833.014
141.189, 1220.874
142.577, 1459.432
143.964, 1588.575
145.352, 1568.215
146.739, 1588.281
148.125, 1398.733
149.512, 1321.367
150.898, 1325.269
152.284, 1309.048
153.670, 1232.748
155.056, 1496.422
156.441, 1660.109
157.827, 1933.815
159.212, 2387.534
160.596, 2541.271
161.981, 2505.054
163.365, 2588.886
164.749, 2462.760
166.133, 2416.667
167.517, 2630.604
168.900, 2674.567
170.283, 2568.555
171.666, 2462.568
173.049, 2456.606
174.431, 2497.282
175.813, 2546.832
177.195, 2849.124
178.577, 3113.481
179.959, 3486.208
181.340, 3809.040
182.721, 4171.975
184.102, 4355.164
185.483, 4178.473
186.863, 3862.072
188.244, 3516.124
189.624, 2870.223
191.003, 2464.324
192.383, 1918.422
193.762, 1952.516
195.141, 1636.609
196.520, 1560.701
197.899, 1444.797
199.277, 1409.097
200.656, 1733.725
202.034, 1828.410
203.411, 2173.073
204.789, 2797.713
206.166, 3122.319
207.543, 3256.897
208.920, 3131.459
210.297, 2585.990
211.673, 2220.516
213.049, 1435.043
214.425, 989.570
215.801, 764.105
217.176, 598.646
218.552, 273.193
219.927, 167.750
221.302, 102.314
222.676, 56.889
224.051, 21.470
225.425, 3.941
226.799, 50.656
228.173, 84.738
229.546, 0.125
230.919, 55.503
232.292, 250.877
233.665, 13.753
235.038, 21.619
236.410, 83.012
237.782, 17.646
239.154, 2.283
240.526, 87.071
241.898, 121.758
243.269, 469.173
244.640, 428.914
246.011, 1125.428
247.381, 1380.037
248.752, 1957.530
250.122, 2031.427
251.492, 1915.883
252.861, 1638.055
254.231, 1166.027
255.600, 960.246
256.969, 634.482
258.338, 408.686
259.707, 592.803
261.075, 466.854
262.443, 450.926
263.811, 735.010
265.179, 959.105
266.546, 963.213
267.914, 1207.330
269.281, 1081.455
270.647, 1095.588
272.014, 939.727
273.380, 1004.330
274.747, 992.504
276.113, 989.377
277.478, 1354.303
278.844, 1420.941
280.209, 1867.785
281.574, 2612.002
282.939, 3475.898
284.304, 4939.938
285.668, 6814.160
287.032, 8258.156
288.396, 9992.027
289.760, 9825.777
291.123, 9119.846
292.487, 7533.887
293.850, 5738.049
295.212, 4282.312
296.575, 3055.590
297.937, 2280.016
299.300, 1664.506
300.662, 1219.055
302.023, 863.654
303.385, 788.297
304.746, 772.979
306.107, 547.691
307.468, 312.436
308.829, 397.205
310.189, 441.998
311.549, 266.814
312.909, 511.646
314.269, 296.494
315.629, 431.342
316.988, 376.193
318.347, 591.049
319.706, 615.910
321.065, 730.773
322.423, 1305.643
323.781, 1740.512
325.139, 2435.385
326.497, 2960.262
327.855, 3135.141
329.212, 2770.021
330.569, 2254.902
331.926, 1639.785
333.283, 1194.670
334.639, 849.555
335.995, 734.441
337.351, 369.332
338.707, 414.223
340.063, 259.061
341.418, 353.689
342.773, 328.316
344.128, 332.947
345.483, 157.609
346.837, 332.279
348.192, 246.979
349.546, 181.678
350.899, 226.383
352.253, 121.088
353.606, 225.791
354.960, 130.504
356.313, 245.219
357.665, 39.932
359.018, 84.643
360.370, 59.355
361.722, 11.617
363.074, 11.203
364.426, 23.504
365.777, 41.793
367.128, 7.111
368.479, 97.580
369.830, 62.268
371.181, 76.977
372.531, 18.320
373.881, 66.373
375.231, 98.938
376.581, 75.742
377.930, 80.418
379.280, 75.092
380.629, 200.238
381.977, 14.369
383.326, 21.031
384.674, 13.578
386.023, 118.178
387.370, 123.848
388.718, 146.344
390.066, 232.523
391.413, 143.244
392.760, 197.939
394.107, 210.533
395.454, 430.951
396.800, 505.547
398.146, 569.559
399.492, 695.260
400.838, 439.865
402.184, 394.529
403.529, 689.125
404.874, 713.760
406.219, 948.463
407.564, 663.020
408.908, 697.672
410.252, 492.227
411.596, 506.766
412.940, 511.297
414.284, 645.820
415.627, 580.264
416.970, 314.688
418.313, 439.107
419.656, 93.561
420.999, 38.010
422.341, 42.457
423.683, 33.100
425.025, 1.324
426.367, 173.990
427.708, 50.635
429.049, 135.010
430.390, 0.619
431.731, 33.682
433.072, 22.023
434.412, 27.746
435.752, 66.562
437.092, 70.795
438.432, 54.971
439.772, 101.869
441.111, 253.914
442.450, 158.330
443.789, 72.408
445.127, 147.125
446.466, 31.330
447.804, 156.088
449.142, 240.305
450.480, 164.357
451.817, 228.406
453.155, 258.262
454.492, 526.488
455.829, 370.520
457.166, 484.545
458.502, 608.572
459.838, 502.633
461.175, 607.098
462.510, 561.098
463.846, 655.316
465.181, 699.311
466.517, 846.697
467.852, 1007.488
469.186, 1311.328
470.521, 1585.275
471.855, 2039.211
473.190, 2743.141
474.523, 3927.057
475.857, 5120.965
477.191, 5974.859
478.524, 6158.748
479.857, 5422.625
481.190, 4366.488
482.523, 3240.342
483.855, 2544.186
485.187, 1798.016
486.519, 1901.836
487.851, 1365.645
489.183, 1219.443
490.514, 1343.229
491.845, 1257.004
493.176, 1430.766
494.507, 1784.545
495.837, 1908.283
497.168, 2503.004
498.498, 3076.719
499.828, 4500.631
501.157, 6014.773
502.487, 8798.475
503.816, 11632.141
505.145, 13821.852
506.474, 14625.492
507.802, 12985.586
509.131, 10669.203
510.459, 8132.834
511.787, 5726.613
513.115, 4450.246
514.442, 3166.617
515.770, 2470.211
517.097, 2104.203
518.424, 1617.617
519.750, 1531.234
521.077, 1147.645
522.403, 1240.949
523.729, 752.975
525.055, 666.689
526.381, 886.486
527.706, 472.801
529.031, 506.693
530.356, 585.477
531.681, 519.035
533.006, 401.037
534.330, 524.348
535.654, 336.711
536.978, 600.025
538.302, 203.930
539.625, 437.197
540.949, 297.129
542.272, 369.969
543.595, 166.457
544.917, 359.289
546.240, 273.057
547.562, 26.289
548.884, 439.500
550.206, 235.543
551.527, 132.775
552.849, 136.803
554.170, 130.354
555.491, 303.611
556.812, 226.820
558.132, 15.523
559.453, 348.709
560.773, 151.879
562.093, 255.678
563.412, 158.812
564.732, 145.902
566.051, 219.012
567.370, 156.381
568.689, 339.490
570.008, 283.166
571.326, 224.740
572.644, 417.797
573.963, 441.260
575.280, 545.135
576.598, 768.141
577.915, 540.047
579.233, 803.020
580.550, 516.199
581.866, 619.465
583.183, 389.443
584.499, 131.553
585.815, 122.719
587.131, 295.582
588.447, 159.078
589.763, 361.061
591.078, 573.648
592.393, 194.154
593.708, 164.426
595.022, 267.090
596.337, 289.750
597.651, 252.320
598.965, 35.076
600.279, 97.809
601.593, 270.518
602.906, 43.082
604.219, 145.752
605.532, 38.096
606.845, 140.723
608.158, 263.332
609.470, 295.926
610.782, 268.498
612.094, 323.275
613.406, 307.975
614.718, 296.115
616.029, 268.617
617.340, 171.104
618.651, 73.568
619.962, 286.014
621.272, 128.439
622.582, 180.846
623.892, 203.762
625.202, 156.131
626.512, 478.670
627.821, 401.000
629.131, 523.316
630.440, 615.611
631.749, 637.889
633.057, 610.662
634.366, 542.904
635.674, 615.125
636.982, 507.504
638.290, 459.689
639.597, 671.855
640.905, 594.133
642.212, 456.262
643.519, 728.371
644.825, 720.467
646.132, 592.871
647.438, 534.928
648.744, 616.963
650.050, 608.980
651.356, 180.977
652.662, 532.957
653.967, 24.920
655.272, 356.854
656.577, 138.766
657.882, 80.658
659.186, 182.531
660.490, 254.385
661.794, 63.781
663.098, 387.980
664.402, 70.273
665.705, 221.404
667.009, 183.064
668.312, 144.705
669.614, 176.326
670.917, 12.070
672.219, 179.486
673.522, 81.023
674.824, 212.543
676.125, 164.041
677.427, 14.482
678.728, 146.951
680.030, 128.422
681.331, 79.826
682.631, 321.207
683.932, 37.314
685.232, 74.018
686.532, 54.443
687.832, 146.799
689.132, 28.021
690.432, 239.553
691.731, 69.260
693.030, 201.889
694.329, 53.016
695.628, 214.125
696.926, 95.547
698.224, 280.881
699.522, 58.008
700.820, 173.092
702.118, 64.131
703.415, 206.719
704.713, 267.062
706.010, 11.822
707.307, 30.889
708.603, 29.875
709.900, 102.180
711.196, 182.881
712.492, 413.695
713.788, 52.646
715.083, 336.992
716.379, 307.904
717.674, 48.525
718.969, 319.195
720.264, 28.047
721.558, 312.436
722.853, 28.969
724.147, 281.467
725.441, 61.969
726.735, 97.369
728.028, 413.020
729.322, 93.578
730.615, 33.928
731.908, 274.250
733.201, 104.891
734.493, 385.320
735.785, 85.594
737.078, 68.498
738.370, 218.646
739.661, 298.975
740.953, 168.834
742.244, 148.732
743.535, 256.900
744.826, 176.986
746.117, 307.199
747.407, 327.398
748.698, 157.525
749.988, 287.600
751.278, 327.703
752.567, 567.789
753.857, 559.406
755.146, 508.738
756.435, 578.439
757.724, 728.457
759.013, 967.814
760.301, 1087.658
761.590, 1216.928
762.878, 1516.715
764.165, 1266.645
765.453, 806.559
766.741, 976.457
768.028, 666.340
769.315, 446.203
770.602, 876.051
771.888, 415.881
773.175, 375.650
774.461, 284.990
775.747, 384.771
777.033, 434.307
778.319, 54.043
779.604, 393.771
780.889, 133.365
782.174, 193.059
783.459, 402.738
784.744, 182.400
786.028, 302.047
787.312, 51.678
788.596, 311.291
789.880, 200.885
791.164, 130.465
792.447, 430.029
793.730, 299.578
795.013, 139.111
796.296, 208.629
797.579, 338.131
798.861, 237.619
800.143, 87.092
801.425, 306.547
802.707, 325.986
803.989, 435.416
805.270, 434.826
806.551, 684.195
807.832, 613.580
809.113, 821.955
810.394, 1071.312
811.674, 1310.447
812.954, 1353.941
814.234, 1432.389
815.514, 1417.914
816.794, 1301.143
818.073, 1340.422
819.352, 1085.518
820.631, 474.768
821.910, 613.982
823.189, 513.023
824.467, 412.186
825.745, 438.582
827.023, 307.734
828.301, 186.465
829.578, 335.639
830.856, 254.697
832.133, 150.896
833.410, 120.146
834.687, 159.023
835.963, 317.688
837.240, 106.799
838.516, 341.533
839.792, 70.145
841.068, 453.787
842.343, 182.686
843.618, 40.879
844.894, 429.932
846.169, 182.627
847.443, 201.672
848.718, 230.627
849.992, 29.654
851.266, 61.709
852.540, 217.266
853.814, 90.508
855.088, 139.398
856.361, 22.172
857.634, 166.762
858.907, 65.691
860.180, 181.773
861.453, 246.658
862.725, 25.270
863.997, 223.260
865.269, 222.125
866.541, 48.986
867.812, 164.383
869.084, 33.244
870.355, 82.100
871.626, 270.312
872.897, 40.834
874.167, 384.035
875.438, 137.113
876.708, 437.428
877.978, 156.215
879.248, 24.418
880.517, 544.699
881.787, 13.479
883.056, 251.824
884.325, 99.734
885.594, 10.488
886.862, 228.312
888.130, 27.045
889.399, 64.668
890.667, 233.488
891.934, 2.160
893.202, 230.826
894.469, 279.400
895.737, 152.117
897.004, 136.500
898.270, 25.035
899.537, 23.648
900.803, 252.260
902.070, 80.713
903.336, 149.318
904.601, 387.920
905.867, 43.480
907.132, 145.109
908.398, 63.705
909.663, 332.297
910.928, 220.887
912.192, 39.479
913.457, 328.070
914.721, 216.664
915.985, 365.258
917.249, 133.852
918.512, 42.443
919.776, 401.035
921.039, 59.629
922.302, 368.219
923.565, 86.812
924.827, 245.404
926.090, 304.000
927.352, 252.580
928.614, 161.164
929.876, 529.748
931.138, 127.809
932.399, 386.396
933.660, 254.797
934.922, 353.385
936.182, 121.977
937.443, 180.570
938.704, 179.166
939.964, 397.250
941.224, 315.852
942.484, 414.449
943.744, 22.877
945.003, 121.482
946.262, 120.094
947.521, 338.578
948.780, 477.195
950.039, 449.207
951.298, 244.443
952.556, 442.740
953.814, 291.377
955.072, 330.016
956.330, 138.660
957.587, 417.311
958.845, 435.965
960.102, 144.627
961.359, 513.299
962.615, 521.979
963.872, 100.666
965.128, 519.361
966.384, 48.070
967.640, 316.785
968.896, 545.535
970.152, 75.707
971.407, 663.082
972.662, 281.881
973.917, 400.689
975.172, 489.510
976.427, 238.340
977.681, 657.195
978.935, 536.191
980.189, 345.074
981.443, 513.969
982.697, 352.879
983.950, 18.182
985.203, 670.719
986.456, 49.689
987.709, 468.678
988.962, 137.586
990.214, 136.629
991.467, 525.625
992.719, 204.730
993.971, 303.859
995.222, 412.736
996.474, 91.910
997.725, 362.568
998.976, 28.182
1000.227, 331.092
1001.478, 430.375
1002.728, 35.498
1003.978, 594.855
1005.229, 114.219
1006.479, 293.658
1007.728, 381.562
1008.978, 271.070
1010.227, 570.482
1011.476, 540.082
1012.725, 309.730
1013.974, 797.875
1015.223, 557.777
1016.471, 597.508
1017.719, 454.414
1018.967, 414.250
1020.215, 553.598
1021.462, 674.105
1022.710, 704.102
1023.957, 902.012
1025.204, 657.012
1026.451, 769.203
1027.697, 709.852
1028.944, 860.230
1030.190, 1089.543
1031.436, 918.949
1032.682, 1106.496
1033.928, 1205.719
1035.173, 594.430
1036.418, 1000.863
1037.663, 429.988
1038.908, 639.316
1040.153, 520.207
1041.398, 689.359
1042.642, 508.648
1043.886, 527.957
1045.130, 705.590
1046.374, 571.867
1047.617, 618.133
1048.860, 503.590
1050.104, 632.953
1051.347, 582.336
1052.589, 761.727
1053.832, 431.141
1055.074, 350.566
1056.316, 740.016
1057.558, 529.484
1058.800, 158.969
1060.042, 628.480
1061.283, 258.012
1062.524, 457.562
1063.765, 437.141
1065.006, 276.738
1066.247, 726.359
1067.487, 206.004
1068.728, 555.676
1069.968, 285.367
1071.208, 655.078
1072.447, 534.816
1073.687, 454.578
1074.926, 464.367
1076.165, 820.934
1077.404, 430.734
1078.643, 880.555
1079.881, 650.402
1081.120, 380.270
1082.358, 910.160
1083.596, 449.641
1084.834, 579.578
1086.071, 789.535
1087.309, 669.520
1088.546, 1159.523
1089.783, 699.539
1091.020, 828.719
1092.256, 1048.781
1093.493, 1228.898
1094.729, 1339.039
1095.965, 1449.215
1097.201, 1269.402
1098.436, 1719.625
1099.672, 1379.887
1100.907, 1250.184
1102.142, 1620.477
1103.377, 830.777
1104.612, 1141.160
1105.846, 1131.543
1107.081, 1061.969
1108.315, 1152.449
1109.549, 773.027
1110.782, 1043.734
1112.016, 1054.566
1113.249, 1415.473
1114.483, 1227.008
1115.716, 1287.484
1116.948, 768.586
1118.181, 959.746
1119.413, 510.977
1120.646, 532.270
1121.878, 463.637
1123.110, 585.078
1124.341, 776.586
1125.573, 708.176
1126.804, 19.840
1128.035, 721.594
1129.266, 113.520
1130.497, 545.539
1131.727, 97.656
1132.957, 169.898
1134.188, 472.254
1135.418, 304.727
1136.647, 257.352
1137.877, 810.113
1139.106, 43.023
1140.335, 796.082
1141.564, 399.301
1142.793, 82.699
1144.022, 996.285
1145.250, 39.930
1146.479, 604.062
1147.707, 798.262
1148.934, 42.691
1150.162, 607.359
1151.390, 702.285
1152.617, 567.492
1153.844, 752.301
1155.071, 268.102
1156.298, 594.246
1157.524, 550.762
1158.751, 227.688
1159.977, 453.867
1161.203, 691.637
1162.428, 159.520
1163.654, 835.621
1164.879, 211.012
1166.105, 599.691
1167.330, 568.895
1168.555, 188.652
1169.779, 508.918
1171.004, 639.801
1172.228, 20.707
1173.452, 743.812
1174.676, 233.910
1175.900, 650.562
1177.123, 406.953
1178.346, 26.160
1179.570, 0.000
##END=



