##NAMES=Albite
##RRUFFID=R050253
##IDEAL CHEMISTRY=NaAlSi_3_O_8_
##LOCALITY=Madawaska/Faraday mine, Bancroft, Ontario, Canada
##OWNER=RRUFF
##SOURCE=Marcus Origlieri
##DESCRIPTION=Colorless to brown prismatic single crystals
##STATUS=The identification of this mineral has been confirmed by X-ray diffraction and chemical analysis
##URL=rruff.info/R050253
##MEASURED CHEMISTRY=(Na_0.99_Ca_0.01_)Al_1.00_(Si_0.99_Al_0.01_)_3_O_8_
##PIN_ID=L00649
##ORIENTATION=Laser parallel to c* (0 0 1). Fiducial mark perpendicular to laser is parallel to a [1 0 0]
87.30800, 0.0000000E+00
88.54200, 0.1225590
89.77700, 42.37891
91.01200, 145.6553
92.24600, 150.0977
93.48000, 162.3091
94.71400, 69.91309
95.94800, 48.94141
97.18200, 2.998047
98.41600, 94.66016
99.64900, 60.90381
100.8830, 203.2485
102.1160, 408.0762
103.3490, 896.1230
104.5820, 1175.161
105.8150, 1770.015
107.0470, 2160.562
108.2800, 2738.685
109.5120, 3439.255
110.7440, 3745.153
111.9760, 3598.266
113.2080, 3700.493
114.4400, 3350.738
115.6710, 3257.921
116.9030, 2843.966
118.1340, 2145.804
119.3650, 1649.377
120.5960, 1212.628
121.8270, 758.5210
123.0580, 680.1206
124.2880, 769.4829
125.5190, 439.5889
126.7490, 347.3857
127.9790, 519.7915
129.2090, 474.7412
130.4390, 563.1792
131.6680, 849.0615
132.8980, 876.3481
134.1270, 1164.005
135.3560, 1534.005
136.5850, 2016.319
137.8140, 2892.927
139.0430, 3616.805
140.2710, 4862.938
141.5000, 6235.309
142.7280, 7518.902
143.9560, 8612.705
145.1840, 9497.702
146.4120, 10348.89
147.6390, 11762.24
148.8670, 13332.76
150.0940, 14346.44
151.3210, 14596.26
152.5490, 14401.22
153.7750, 13088.31
155.0020, 11948.53
156.2290, 10621.39
157.4550, 9582.159
158.6810, 9122.785
159.9080, 9352.292
161.1340, 9503.608
162.3590, 9781.248
163.5850, 9637.096
164.8110, 9396.987
166.0360, 9055.715
167.2610, 8603.219
168.4860, 8200.615
169.7110, 8064.922
170.9360, 8017.151
172.1610, 8189.311
173.3850, 8741.415
174.6100, 9293.472
175.8340, 10094.48
177.0580, 10987.46
178.2820, 12023.40
179.5050, 12935.32
180.7290, 14056.22
181.9520, 15026.10
183.1760, 15744.96
184.3990, 16406.81
185.6220, 16390.65
186.8450, 16368.48
188.0670, 15536.30
189.2900, 14377.11
190.5120, 13040.92
191.7340, 11265.73
192.9560, 9772.532
194.1780, 8416.335
195.4000, 7283.135
196.6220, 6549.932
197.8430, 6070.730
199.0640, 5923.527
200.2860, 5822.321
201.5070, 5998.114
202.7270, 6307.901
203.9480, 6330.688
205.1690, 6382.471
206.3890, 6472.251
207.6090, 6821.028
208.8290, 6698.799
210.0490, 6564.569
211.2690, 5714.334
212.4890, 5025.095
213.7080, 4189.850
214.9280, 3269.602
216.1470, 2496.348
217.3660, 1816.090
218.5850, 1151.826
219.8030, 736.5576
221.0220, 615.4429
222.2400, 269.4912
223.4590, 209.2319
224.6770, 84.17627
225.8950, 54.97314
227.1120, 158.8735
228.3300, 41.26172
229.5480, 55.66211
230.7650, 111.5200
231.9820, 41.81494
233.1990, 188.0933
234.4160, 249.6396
235.6330, 202.5156
236.8490, 284.1240
238.0660, 531.1328
239.2820, 641.8589
240.4980, 1124.606
241.7140, 1682.032
242.9300, 2218.681
244.1460, 2632.689
245.3610, 3051.214
246.5770, 3455.623
247.7920, 4029.193
249.0070, 4480.916
250.2220, 5119.777
251.4370, 5263.768
252.6510, 5273.879
253.8660, 5045.105
255.0800, 4713.436
256.2940, 4098.863
257.5080, 3878.383
258.7220, 3647.988
259.9360, 4023.675
261.1490, 4330.436
262.3630, 4530.268
263.5760, 5024.167
264.7890, 5526.130
266.0020, 6138.151
267.2150, 6849.229
268.4270, 7266.358
269.6400, 7329.539
270.8520, 7301.764
272.0640, 6841.031
273.2760, 6278.340
274.4880, 5770.683
275.7000, 5397.060
276.9120, 5058.468
278.1230, 5200.905
279.3340, 5588.371
280.5450, 6726.863
281.7560, 8142.378
282.9670, 9614.916
284.1780, 11075.48
285.3880, 12720.05
286.5980, 14209.65
287.8090, 16048.27
289.0190, 17421.90
290.2290, 18175.55
291.4380, 18190.21
292.6480, 17293.88
293.8570, 15578.57
295.0670, 13274.26
296.2760, 11032.97
297.4850, 8610.689
298.6930, 6755.415
299.9020, 5359.150
301.1110, 4120.891
302.3190, 3440.639
303.5270, 2946.385
304.7350, 2626.120
305.9430, 2204.849
307.1510, 2049.565
308.3580, 1834.268
309.5660, 1834.958
310.7730, 1702.632
311.9800, 1672.293
313.1870, 1460.941
314.3940, 1362.577
315.6010, 1395.201
316.8070, 1601.812
318.0130, 1589.413
319.2200, 1894.001
320.4260, 2333.579
321.6310, 2631.145
322.8370, 3000.700
324.0430, 3373.243
325.2480, 3839.776
326.4540, 3989.299
327.6590, 4427.810
328.8640, 4479.311
330.0680, 4041.801
331.2730, 3670.277
332.4780, 2905.744
333.6820, 2178.199
334.8860, 1806.644
336.0900, 1206.077
337.2940, 950.4980
338.4980, 697.9072
339.7010, 559.3047
340.9050, 545.6914
342.1080, 361.0664
343.3110, 373.4287
344.5140, 406.7803
345.7170, 412.1191
346.9200, 417.4443
348.1220, 368.7588
349.3240, 302.0615
350.5270, 373.3506
351.7290, 125.6289
352.9310, 87.89355
354.1320, 138.1445
355.3340, 54.38379
356.5350, 122.3926
357.7370, 37.22461
358.9380, 183.0918
360.1390, 85.03320
361.3400, 33.02148
362.5400, 190.0449
363.7410, 139.1455
364.9410, 194.3076
366.1410, 164.5488
367.3410, 110.8633
368.5410, 185.3037
369.7410, 78.92285
370.9400, 192.6768
372.1400, 58.62695
373.3390, 249.1855
374.5380, 140.4688
375.7370, 182.9092
376.9360, 213.5527
378.1350, 96.40527
379.3330, 165.3428
380.5310, 238.3936
381.7300, 87.59961
382.9280, 68.87891
384.1260, 93.22266
385.3230, 87.35938
386.5210, 140.9424
387.7180, 232.5273
388.9160, 473.1182
390.1130, 622.7324
391.3100, 941.3457
392.5060, 1238.957
393.7030, 1427.564
394.9000, 1694.171
396.0960, 1838.777
397.2920, 2220.389
398.4880, 2532.028
399.6840, 2726.664
400.8800, 2891.305
402.0750, 2873.956
403.2710, 2685.640
404.4660, 2726.316
405.6610, 2838.033
406.8560, 3216.759
408.0510, 3602.481
409.2450, 3717.201
410.4400, 3800.946
411.6340, 3731.731
412.8280, 3867.539
414.0220, 4178.359
415.2160, 4147.168
416.4100, 4166.982
417.6030, 3832.811
418.7970, 3732.665
419.9900, 2675.540
421.1830, 2185.441
422.3760, 1309.369
423.5690, 1082.306
424.7610, 595.2598
425.9540, 444.2021
427.1460, 426.1465
428.3380, 470.0840
429.5300, 548.0293
430.7220, 411.9600
431.9140, 505.8799
433.1050, 488.7861
434.2970, 501.6787
435.4880, 541.5596
436.6790, 628.1104
437.8700, 801.2803
439.0610, 909.1211
440.2510, 1033.947
441.4420, 1280.760
442.6320, 1612.560
443.8220, 1887.344
445.0120, 2461.115
446.2020, 3055.873
447.3910, 3849.615
448.5810, 4630.344
449.7700, 5571.210
450.9600, 6619.760
452.1490, 7633.447
453.3370, 8645.119
454.5260, 9718.779
455.7150, 10234.42
456.9030, 10250.06
458.0910, 10070.67
459.2800, 9468.275
460.4670, 8547.862
461.6550, 7760.440
462.8430, 7256.004
464.0300, 7129.551
465.2180, 7499.152
466.4050, 8473.673
467.5920, 9948.180
468.7790, 12430.75
469.9650, 15822.23
471.1520, 19641.70
472.3380, 23821.14
473.5250, 27470.59
474.7110, 31840.02
475.8970, 35502.43
477.0820, 38881.84
478.2680, 40463.22
479.4540, 39667.59
480.6390, 37325.95
481.8240, 32891.31
483.0090, 27765.64
484.1940, 22337.96
485.3780, 17562.28
486.5630, 14099.57
487.7470, 11502.85
488.9320, 9800.129
490.1160, 8982.388
491.3000, 8493.635
492.4830, 8636.870
493.6670, 9384.091
494.8500, 10497.30
496.0340, 12795.35
497.2170, 15809.53
498.4000, 20156.40
499.5820, 25090.90
500.7650, 30406.67
501.9480, 35230.23
503.1300, 40188.88
504.3120, 45296.71
505.4940, 49199.63
506.6760, 51211.68
507.8580, 50794.21
509.0390, 47696.55
510.2210, 42153.20
511.4020, 35851.14
512.5830, 28598.70
513.7640, 22577.08
514.9450, 17404.84
516.1250, 13636.64
517.3060, 10976.23
518.4860, 8886.144
519.6660, 7250.119
520.8460, 6063.441
522.0260, 5379.434
523.2060, 4447.840
524.3850, 3969.718
525.5650, 3560.775
526.7440, 3316.314
527.9230, 2955.078
529.1020, 2603.072
530.2810, 2308.133
531.4590, 2296.197
532.6380, 1948.265
533.8160, 2048.336
534.9940, 1606.559
536.1720, 1592.776
537.3500, 1415.719
538.5270, 1381.721
539.7050, 1307.053
540.8820, 1198.549
542.0590, 1209.979
543.2360, 1120.725
544.4130, 1046.682
545.5900, 900.0420
546.7660, 958.0762
547.9430, 792.1494
549.1190, 750.9580
550.2950, 770.2891
551.4710, 703.0312
552.6470, 701.6152
553.8220, 703.9473
554.9980, 645.9766
556.1730, 598.2363
557.3480, 606.6025
558.5230, 602.7061
559.6980, 602.5273
560.8730, 629.1211
562.0470, 590.1836
563.2220, 594.1572
564.3960, 612.9004
565.5700, 657.3740
566.7440, 663.5391
567.9170, 673.6416
569.0910, 721.6309
570.2640, 956.8223
571.4380, 999.0879
572.6110, 1058.136
573.7840, 1188.225
574.9570, 1250.262
576.1290, 1225.294
577.3020, 1370.381
578.4740, 1281.401
579.6460, 1386.417
580.8180, 1187.427
581.9900, 1004.432
583.1620, 900.4297
584.3330, 833.4238
585.5040, 584.4131
586.6760, 539.3955
587.8470, 428.3740
589.0180, 330.3467
590.1880, 360.3125
591.3590, 273.3213
592.5290, 249.2285
593.7000, 221.1797
594.8700, 205.1240
596.0400, 214.0645
597.2090, 197.3320
598.3790, 133.9307
599.5490, 183.8711
600.7180, 147.8076
601.8870, 124.7393
603.0560, 189.6641
604.2250, 195.6035
605.3940, 37.53906
606.5620, 116.4697
607.7300, 81.41797
608.8990, 36.35938
610.0670, 164.3076
611.2350, 77.25000
612.4020, 110.1982
613.5700, 142.1455
614.7370, 193.0869
615.9050, 119.0615
617.0720, 255.0322
618.2390, 197.0088
619.4060, 275.0049
620.5720, 286.9971
621.7390, 179.9824
622.9050, 453.9629
624.0710, 431.9609
625.2370, 396.9570
626.4030, 554.9473
627.5690, 491.9316
628.7340, 676.9102
629.9000, 661.9014
631.0650, 799.8857
632.2300, 720.8643
633.3950, 767.8369
634.5600, 888.8057
635.7240, 783.7686
636.8890, 790.7246
638.0530, 855.6768
639.2170, 725.6445
640.3810, 836.6523
641.5450, 935.6738
642.7080, 919.7510
643.8720, 983.8564
645.0350, 1031.979
646.1980, 884.1572
647.3610, 891.3896
648.5240, 954.6797
649.6870, 646.0273
650.8490, 731.4111
652.0120, 670.8516
653.1740, 432.3213
654.3360, 423.8506
655.4980, 268.4072
656.6600, 167.0381
657.8210, 192.7129
658.9830, 144.4453
660.1440, 128.2422
661.3050, 191.0703
662.4660, 167.9502
663.6270, 153.9014
664.7870, 128.8828
665.9480, 139.1553
667.1080, 129.9580
668.2680, 143.0059
669.4280, 150.0459
670.5880, 107.0781
671.7480, 109.8232
672.9070, 90.63770
674.0670, 57.12598
675.2260, 60.12305
676.3850, 1.110352
677.5440, 14.92188
678.7030, 98.98242
679.8610, 19.88184
681.0200, 19.26660
682.1780, 39.44824
683.3360, 121.6738
684.4940, 42.01367
685.6520, 153.3115
686.8090, 41.74023
687.9670, 12.78223
689.1240, 3.287109
690.2810, 98.23145
691.4380, 158.8301
692.5950, 90.53711
693.7520, 53.31836
694.9080, 74.84473
696.0650, 22.00391
697.2210, 56.89160
698.3770, 111.8389
699.5330, 91.87207
700.6880, 98.98145
701.8440, 113.1738
702.9990, 45.45312
704.1550, 72.78613
705.3100, 95.81250
706.4650, 18.59961
707.6190, 17.94922
708.7740, 35.52344
709.9290, 67.95508
711.0830, 172.4209
712.2370, 107.8760
713.3910, 316.3213
714.5450, 261.7559
715.6980, 105.1797
716.8520, 378.5908
718.0050, 449.9932
719.1580, 319.3848
720.3110, 552.7646
721.4640, 385.1348
722.6170, 358.4941
723.7700, 455.8418
724.9220, 532.1807
726.0740, 355.5078
727.2260, 343.8242
728.3780, 305.1309
729.5300, 422.4268
730.6810, 297.7109
731.8330, 321.9854
732.9840, 284.2480
734.1350, 306.5020
735.2860, 348.1230
736.4370, 464.6836
737.5880, 483.9053
738.7380, 634.1455
739.8880, 763.3447
741.0390, 759.5312
742.1890, 612.8984
743.3380, 804.4502
744.4880, 913.5381
745.6380, 1045.003
746.7870, 1302.133
747.9360, 1403.622
749.0850, 1661.729
750.2340, 2054.149
751.3830, 2379.048
752.5310, 3156.119
753.6800, 3688.423
754.8280, 4740.470
755.9760, 5894.858
757.1240, 7541.012
758.2720, 9036.019
759.4190, 10959.01
760.5670, 12289.00
761.7140, 13472.51
762.8610, 14023.82
764.0080, 14190.76
765.1550, 13243.69
766.3020, 11791.61
767.4480, 9931.424
768.5950, 8188.312
769.7410, 6653.188
770.8870, 5536.048
772.0330, 4860.895
773.1780, 4120.727
774.3240, 3757.547
775.4690, 3397.470
776.6140, 3006.731
777.7590, 2633.512
778.9040, 2222.276
780.0490, 2118.026
781.1940, 1593.762
782.3380, 1526.484
783.4820, 1340.191
784.6260, 1053.849
785.7700, 1045.525
786.9140, 953.3535
788.0580, 1016.000
789.2010, 982.6279
790.3450, 868.2422
791.4880, 826.0967
792.6310, 872.3379
793.7730, 959.9014
794.9160, 916.4482
796.0590, 843.9775
797.2010, 985.4883
798.3430, 1076.982
799.4850, 1102.458
800.6270, 1302.916
801.7690, 1473.355
802.9100, 1553.039
804.0520, 1956.441
805.1930, 2489.824
806.3340, 3062.189
807.4750, 3888.535
808.6160, 4963.861
809.7560, 5719.170
810.8970, 6931.462
812.0370, 7804.588
813.1770, 8841.703
814.3170, 9118.084
815.4570, 9338.384
816.5960, 8802.342
817.7360, 7852.121
818.8750, 6725.954
820.0140, 5433.455
821.1530, 4189.732
822.2920, 3224.590
823.4310, 2797.762
824.5690, 1972.879
825.7070, 1853.246
826.8460, 1338.080
827.9840, 1257.488
829.1220, 1114.041
830.2590, 997.8311
831.3970, 902.9121
832.5340, 702.7490
833.6710, 804.7051
834.8080, 806.4307
835.9450, 595.6650
837.0820, 569.1143
838.2190, 443.0820
839.3550, 407.1240
840.4910, 259.3848
841.6270, 311.9004
842.7630, 209.7139
843.8990, 336.5762
845.0350, 209.5381
846.1700, 265.2871
847.3060, 193.9492
848.4410, 116.8145
849.5760, 51.62793
850.7100, 53.48047
851.8450, 71.32715
852.9800, 119.1064
854.1140, 86.93945
855.2480, 125.7656
856.3820, 114.5869
857.5160, 169.4014
858.6500, 16.20996
859.7830, 157.0127
860.9170, 114.8086
862.0500, 173.5977
863.1830, 190.9014
864.3160, 31.16113
865.4480, 211.9355
866.5810, 28.70215
867.7130, 63.46582
868.8460, 204.2227
869.9780, 34.97559
871.1100, 60.72266
872.2410, 3.534180
873.3730, 40.80469
874.5050, 9.891602
875.6360, 36.58203
876.7670, 28.53711
877.8980, 61.05078
879.0290, 0.5878910
880.1590, 14.21582
881.2900, 80.15918
882.4200, 31.41406
883.5500, 35.01562
884.6800, 16.52637
885.8100, 33.93359
886.9400, 9.420898
888.0690, 37.08008
889.1990, 145.4238
890.3280, 94.99023
891.4570, 36.59961
892.5860, 97.21484
893.7140, 12.11230
894.8430, 78.43555
895.9710, 101.7578
897.1000, 89.92285
898.2280, 3.655273
899.3560, 51.60449
900.4830, 179.8633
901.6110, 36.11914
902.7380, 66.62793
903.8660, 73.58887
904.9930, 144.8027
906.1200, 202.0166
907.2460, 124.2285
908.3730, 245.4385
909.5000, 99.64746
910.6260, 1.144531
911.7520, 79.93945
912.8780, 221.2236
914.0040, 67.38770
915.1290, 144.5488
916.2550, 101.7109
917.3800, 193.8730
918.5050, 178.0342
919.6300, 42.80469
920.7550, 19.33789
921.8800, 28.51855
923.0040, 148.6143
924.1290, 53.74512
925.2530, 110.8779
926.3770, 8.988281
927.5010, 19.85742
928.6250, 63.26758
929.7480, 52.39355
930.8720, 39.52051
931.9950, 19.65039
933.1180, 210.7803
934.2410, 159.9219
935.3640, 51.10059
936.4860, 174.2793
937.6090, 74.53906
938.7310, 247.6201
939.8530, 254.7900
940.9750, 258.9785
942.0970, 400.1875
943.2180, 399.4141
944.3400, 322.6582
945.4610, 545.9121
946.5820, 538.1855
947.7030, 605.4688
948.8240, 496.7676
949.9450, 754.0762
951.0650, 895.4072
952.1860, 947.7930
953.3060, 797.1875
954.4260, 707.5977
955.5460, 938.0293
956.6650, 1005.506
957.7850, 938.9902
958.9040, 807.5264
960.0230, 988.1006
961.1420, 856.7070
962.2610, 1028.345
963.3800, 1131.021
964.4990, 1297.755
965.6170, 1256.525
966.7350, 1223.326
967.8530, 1590.133
968.9710, 1678.969
970.0890, 2205.835
971.2070, 2611.744
972.3240, 2845.697
973.4410, 3522.690
974.5580, 3637.729
975.6750, 4157.797
976.7920, 4497.901
977.9090, 4712.012
979.0250, 4670.144
980.1410, 4386.287
981.2580, 3831.459
982.3740, 3299.648
983.4890, 2898.859
984.6050, 2384.078
985.7200, 2018.305
986.8360, 1611.539
987.9510, 1363.815
989.0660, 1290.100
990.1810, 1061.393
991.2950, 1140.694
992.4100, 1019.003
993.5240, 1143.325
994.6390, 1126.656
995.7530, 1225.995
996.8660, 1267.343
997.9800, 1390.697
999.0940, 1564.062
1000.207, 1852.435
1001.320, 2216.816
1002.433, 2309.206
1003.546, 2589.605
1004.659, 2752.013
1005.772, 3021.429
1006.884, 2883.146
1007.996, 2930.578
1009.108, 2727.991
1010.220, 2581.444
1011.332, 2352.908
1012.444, 2207.190
1013.555, 2173.286
1014.666, 2029.778
1015.777, 2074.957
1016.888, 1781.470
1017.999, 1705.550
1019.110, 1614.084
1020.220, 1390.304
1021.331, 1238.044
1022.441, 1035.612
1023.551, 1024.945
1024.661, 1157.536
1025.770, 1133.781
1026.880, 1244.265
1027.989, 1286.892
1029.098, 1297.530
1030.207, 1415.182
1031.316, 1420.300
1032.425, 1440.074
1033.533, 1489.314
1034.642, 1440.020
1035.750, 1416.276
1036.858, 1313.551
1037.966, 1248.296
1039.073, 1121.054
1040.181, 1151.246
1041.288, 1190.612
1042.396, 1221.411
1043.503, 1290.225
1044.610, 1347.937
1045.716, 1175.308
1046.823, 1193.163
1047.929, 1299.033
1049.036, 1075.917
1050.142, 1153.816
1051.248, 913.7285
1052.353, 947.6572
1053.459, 769.6338
1054.564, 650.5918
1055.670, 534.3975
1056.775, 556.3838
1057.880, 596.3838
1058.985, 499.3994
1060.089, 621.1729
1061.194, 546.5586
1062.298, 376.6191
1063.402, 535.6953
1064.506, 383.7852
1065.610, 550.8906
1066.713, 606.8447
1067.817, 605.6953
1068.920, 717.8457
1070.023, 715.0098
1071.126, 825.6836
1072.229, 727.5439
1073.332, 850.4160
1074.435, 1043.104
1075.537, 1016.868
1076.639, 1181.987
1077.741, 1311.705
1078.843, 1305.246
1079.945, 1492.509
1081.046, 1573.092
1082.148, 1957.409
1083.249, 2081.536
1084.350, 2466.010
1085.451, 2918.366
1086.551, 3182.733
1087.652, 3695.114
1088.752, 4375.508
1089.853, 5064.914
1090.953, 6031.332
1092.053, 7175.839
1093.152, 8454.500
1094.252, 10077.75
1095.351, 11550.21
1096.451, 12929.68
1097.550, 14015.17
1098.649, 14370.67
1099.748, 14481.17
1100.846, 13935.24
1101.945, 13041.77
1103.043, 12043.30
1104.141, 10569.85
1105.239, 9396.402
1106.337, 8641.969
1107.434, 7464.543
1108.532, 7092.126
1109.629, 6444.719
1110.726, 6204.322
1111.823, 5957.932
1112.920, 5639.551
1114.017, 5387.193
1115.113, 5307.986
1116.210, 5028.634
1117.306, 4856.286
1118.402, 4466.950
1119.498, 4051.721
1120.593, 3644.399
1121.689, 3187.087
1122.784, 2795.781
1123.879, 2591.483
1124.974, 2420.210
1126.069, 2097.928
1127.164, 1873.654
1128.259, 1520.388
1129.353, 1344.129
1130.447, 1122.878
1131.541, 1007.634
1132.635, 831.3984
1133.729, 854.1689
1134.822, 763.9482
1135.916, 627.7363
1137.009, 734.5322
1138.102, 656.3350
1139.195, 568.1494
1140.288, 776.0029
1141.380, 654.8643
1142.473, 662.7344
1143.565, 512.6123
1144.657, 586.5146
1145.749, 877.4277
1146.841, 839.3486
1147.932, 1008.300
1149.024, 1042.258
1150.115, 1049.234
1151.206, 1237.218
1152.297, 1200.219
1153.388, 1169.433
1154.479, 1147.253
1155.569, 996.3193
1156.659, 853.3945
1157.750, 739.4873
1158.839, 614.6143
1159.929, 544.7695
1161.019, 333.9316
1162.108, 410.1016
1163.198, 455.3193
1164.287, 460.5469
1165.376, 261.7803
1166.465, 335.0205
1167.553, 126.2666
1168.642, 256.5361
1169.730, 229.8115
1170.818, 116.0947
1171.906, 77.38379
1172.994, 125.6777
1174.082, 141.9795
1175.170, 211.2842
1176.257, 210.5977
1177.344, 97.93555
1178.431, 121.2783
1179.518, 237.6270
1180.605, 61.97949
1181.691, 116.3379
1182.778, 162.7012
1183.864, 23.06934
1184.950, 37.45215
1186.036, 170.8389
1187.122, 154.2373
1188.207, 42.63867
1189.292, 85.04492
1190.378, 128.4551
1191.463, 71.87207
1192.548, 70.29590
1193.632, 64.31348
1194.717, 28.15625
1195.801, 9.590820
1196.886, 35.96973
1197.970, 129.5449
1199.054, 61.81543
1200.137, 40.17969
1201.221, 14.45215
1202.305, 31.07324
1203.388, 62.70898
1204.471, 59.09473
1205.554, 59.69922
1206.637, 48.79297
1207.719, 25.53906
1208.802, 54.29785
1209.884, 16.08398
1210.966, 37.87695
1212.048, 72.31055
1213.130, 29.49902
1214.212, 66.32324
1215.293, 40.81738
1216.374, 23.96191
1217.456, 62.10840
1218.536, 59.82812
1219.617, 19.80957
1220.698, 13.56152
1221.778, 47.28320
1222.859, 81.15527
1223.939, 58.06934
1225.019, 180.9834
1226.099, 105.0400
1227.178, 170.0977
1228.258, 65.15723
1229.337, 114.2197
1230.417, 20.71680
1231.496, 25.33398
1232.574, 27.38574
1233.653, 52.44043
1234.732, 47.94727
1235.810, 45.60352
1236.888, 53.61133
1237.966, 51.41602
1239.044, 79.74219
1240.122, 50.80957
1241.199, 74.90723
1242.277, 65.00488
1243.354, 24.89648
1244.431, 42.81641
1245.508, 68.23730
1246.585, 142.2910
1247.661, 75.34766
1248.738, 120.5957
1249.814, 88.39258
1250.890, 41.37988
1251.966, 139.3682
1253.042, 262.3574
1254.117, 6.654297
1255.193, 170.3320
1256.268, 154.3271
1257.343, 72.32129
1258.418, 229.3174
1259.493, 192.3125
1260.567, 113.3086
1261.642, 161.3047
1262.716, 228.3008
1263.790, 148.3008
1264.864, 185.7051
1265.938, 203.7041
1267.011, 285.7021
1268.085, 271.7139
