##NAMES=Albite
##RRUFFID=R040068
##IDEAL CHEMISTRY=NaAlSi_3_O_8_
##LOCALITY=Harding Pegmatite, Dixon, New Mexico, USA
##OWNER=RRUFF
##SOURCE=University of Arizona Mineral Museum
##DESCRIPTION=Tan colored crystal fragment
##STATUS=The identification of this mineral has been confirmed by X-ray diffraction and chemical analysis
##URL=rruff.info/R040068
##MEASURED CHEMISTRY=(Na_0.99_Ca_0.01_)Al_1.00_(Si_0.99_Al_0.01_)_3_O_8_
##PIN_ID=M00277
##ORIENTATION=Laser parallel to (-1 0 -1). Fiducial mark perpendicular to laser is parallel to b [0 1 0]
124.675, 0.000
126.063, 171.951
127.452, 8.188
128.840, 269.241
130.228, 49.380
131.615, 238.868
133.003, 145.521
134.390, 97.828
135.777, 234.665
137.164, 245.190
138.550, 498.809
139.937, 385.198
141.323, 513.916
142.709, 704.603
144.094, 656.975
145.480, 930.809
146.865, 1035.914
148.250, 1222.131
149.635, 1379.324
151.019, 1667.409
152.403, 1917.044
153.788, 2327.855
155.171, 2579.218
156.555, 3181.055
157.939, 4113.377
159.322, 4736.158
160.705, 5289.352
162.088, 5702.918
163.470, 5336.822
164.853, 4481.046
166.235, 3845.562
167.617, 3280.334
168.998, 3095.331
170.380, 2660.537
171.761, 2635.930
173.142, 2261.498
174.523, 2377.231
175.904, 2553.119
177.284, 2579.876
178.664, 2803.118
180.044, 3183.392
181.424, 3622.161
182.803, 3830.979
184.183, 4087.291
185.562, 4094.006
186.940, 3770.979
188.319, 3378.391
189.698, 2816.248
191.076, 2344.307
192.454, 2102.468
193.831, 1750.657
195.209, 1518.868
196.586, 1267.093
197.963, 1275.327
199.340, 1403.575
200.717, 1411.875
202.093, 1640.304
203.470, 2028.797
204.846, 2497.328
206.221, 2885.862
207.597, 3434.381
208.972, 3502.812
210.347, 3421.189
211.722, 2579.533
213.097, 1977.865
214.472, 1436.195
215.846, 1044.531
217.220, 732.882
218.594, 551.248
219.967, 439.637
221.341, 248.049
222.714, 226.486
224.087, 94.952
225.460, 83.445
226.832, 81.968
228.204, 19.482
229.577, 59.097
230.948, 82.297
232.320, 33.003
233.692, 124.348
235.063, 65.667
236.434, 36.962
237.805, 28.232
239.175, 25.300
240.545, 36.572
241.916, 37.380
243.286, 106.430
244.655, 85.191
246.025, 127.081
247.394, 149.896
248.763, 120.254
250.132, 210.728
251.501, 205.208
252.869, 96.169
254.237, 89.143
255.605, 160.298
256.973, 203.714
258.340, 243.039
259.708, 211.620
261.075, 149.938
262.442, 229.127
263.808, 327.422
265.175, 375.730
266.541, 474.058
267.907, 422.406
269.273, 530.775
270.639, 539.160
272.004, 457.562
273.369, 525.979
274.734, 444.679
276.099, 646.270
277.463, 738.590
278.828, 868.203
280.192, 1207.149
281.556, 1708.832
282.919, 2237.401
284.283, 3285.840
285.646, 4234.287
287.009, 5632.742
288.372, 6851.207
289.734, 7527.605
291.097, 7443.746
292.459, 6179.625
293.821, 5006.564
295.183, 3783.791
296.544, 2721.271
297.905, 1988.958
299.266, 1496.826
300.627, 1144.852
301.988, 863.017
303.348, 711.305
304.709, 599.712
306.069, 538.227
307.428, 486.840
308.788, 545.536
310.147, 544.306
311.507, 493.141
312.865, 352.037
314.224, 280.994
315.583, 210.005
316.941, 349.061
318.299, 268.154
319.657, 257.283
321.015, 296.444
322.372, 255.639
323.729, 454.860
325.086, 554.108
326.443, 723.382
327.800, 762.678
329.156, 731.994
330.512, 561.331
331.868, 300.687
333.224, 240.060
334.579, 209.449
335.935, 128.855
337.290, 208.274
338.645, 2.292
339.999, 117.151
341.354, 36.605
342.708, 156.037
344.062, 155.577
345.416, 124.866
346.769, 154.188
348.123, 123.590
349.476, 43.002
350.829, 152.420
352.182, 48.155
353.534, 31.259
354.887, 120.686
356.239, 20.115
357.591, 60.454
358.942, 8.979
360.294, 68.419
361.645, 52.138
362.996, 62.708
364.347, 33.295
365.698, 76.111
367.048, 95.535
368.398, 45.041
369.748, 14.368
371.098, 6.225
372.448, 46.821
373.797, 87.434
375.146, 68.043
376.495, 81.333
377.844, 149.290
379.192, 50.047
380.540, 10.614
381.889, 21.282
383.236, 38.038
384.584, 22.644
385.932, 46.683
387.279, 53.991
388.626, 5.314
389.973, 44.614
391.319, 133.681
392.666, 22.979
394.012, 70.423
395.358, 229.218
396.704, 5.059
398.049, 112.985
399.394, 221.676
400.740, 180.543
402.084, 419.433
403.429, 478.072
404.774, 717.290
406.118, 1006.501
407.462, 1115.664
408.806, 854.810
410.150, 563.936
411.493, 533.050
412.836, 382.105
414.179, 321.134
415.522, 210.108
416.865, 209.060
418.207, 148.000
419.549, 76.913
420.891, 35.822
422.233, 24.749
423.575, 43.671
424.916, 27.412
426.257, 38.510
427.598, 40.374
428.939, 2.924
430.279, 128.127
431.619, 26.996
432.959, 25.888
434.299, 34.750
435.639, 26.392
436.978, 124.417
438.318, 33.239
439.657, 223.688
440.996, 112.624
442.334, 241.405
443.673, 200.170
445.011, 98.927
446.349, 197.680
447.687, 446.430
449.024, 355.175
450.361, 625.046
451.699, 545.595
453.036, 814.492
454.372, 694.752
455.709, 803.812
457.045, 1005.033
458.381, 963.914
459.717, 893.482
461.053, 952.430
462.388, 881.615
463.724, 1120.500
465.059, 1031.467
466.394, 1282.603
467.728, 1713.280
469.063, 2243.076
470.397, 2841.800
471.731, 3870.518
473.065, 5389.227
474.398, 7449.039
475.732, 9797.992
477.065, 12276.960
478.398, 12925.671
479.731, 11854.337
481.063, 9822.992
482.396, 7311.633
483.728, 5240.270
485.060, 4408.895
486.391, 3287.512
487.723, 2506.117
489.054, 2314.717
490.385, 1763.314
491.716, 1751.900
493.047, 1880.473
494.377, 1809.037
495.708, 2257.729
497.038, 2816.266
498.368, 3454.793
499.697, 4592.875
501.027, 6411.752
502.356, 8810.240
503.685, 11699.234
505.014, 14897.697
506.342, 16389.670
507.671, 15698.430
508.999, 13316.982
510.327, 10045.414
511.655, 7693.934
512.982, 5779.443
514.310, 4370.098
515.637, 3228.834
516.964, 2547.320
518.291, 2116.115
519.617, 2115.465
520.944, 1654.465
522.270, 1269.676
523.596, 1094.373
524.921, 1231.285
526.247, 953.686
527.572, 892.242
528.897, 747.537
530.222, 735.562
531.547, 613.303
532.871, 748.170
534.196, 437.287
535.520, 562.109
536.844, 510.781
538.167, 699.693
539.491, 348.631
540.814, 525.248
542.137, 401.242
543.460, 329.355
544.783, 339.662
546.105, 227.816
547.427, 481.980
548.749, 359.459
550.071, 447.529
551.393, 335.641
552.714, 353.467
554.035, 311.523
555.356, 359.564
556.677, 276.857
557.998, 404.896
559.318, 212.924
560.638, 240.939
561.958, 338.939
563.278, 246.926
564.597, 204.896
565.917, 282.902
567.236, 270.859
568.555, 269.184
569.874, 107.137
571.192, 335.072
572.511, 243.070
573.829, 381.861
575.147, 499.752
576.464, 448.492
577.782, 696.354
579.099, 574.668
580.416, 587.320
581.733, 385.111
583.050, 373.057
584.366, 268.381
585.683, 152.520
586.999, 190.277
588.315, 133.309
589.630, 234.607
590.946, 112.543
592.261, 210.357
593.576, 147.945
594.891, 7.416
596.206, 170.229
597.520, 2.293
598.834, 85.311
600.148, 163.424
601.462, 260.463
602.776, 358.016
604.089, 165.555
605.402, 273.074
606.715, 200.578
608.028, 8.064
609.341, 4.475
610.653, 92.979
611.965, 0.416
613.277, 57.822
614.589, 14.793
615.901, 102.557
617.212, 19.887
618.523, 87.193
619.834, 44.482
621.145, 101.752
622.456, 10.998
623.766, 13.785
625.076, 6.609
626.386, 10.531
627.696, 207.643
629.006, 224.738
630.315, 171.818
631.624, 8.879
632.933, 75.914
634.242, 70.998
635.551, 130.072
636.859, 197.051
638.167, 204.010
639.475, 260.955
640.783, 257.791
642.090, 295.422
643.398, 312.496
644.705, 240.248
646.012, 407.111
647.318, 326.621
648.625, 303.449
649.931, 170.260
651.237, 167.670
652.543, 113.826
653.849, 150.580
655.155, 167.316
656.460, 214.035
657.765, 60.736
659.070, 277.418
660.375, 44.080
661.679, 210.719
662.984, 32.660
664.288, 73.914
665.592, 120.467
666.895, 146.998
668.199, 123.514
669.502, 141.107
670.805, 13.502
672.108, 62.949
673.411, 119.459
674.713, 44.133
676.016, 2.240
677.318, 28.906
678.620, 85.238
679.921, 64.186
681.223, 10.496
682.524, 43.211
683.825, 83.701
685.126, 110.020
686.427, 156.230
687.727, 33.082
689.028, 179.256
690.328, 84.541
691.628, 1.582
692.927, 48.396
694.227, 44.484
695.526, 21.146
696.825, 204.146
698.124, 370.656
699.423, 217.258
700.721, 46.699
702.020, 149.945
703.318, 133.031
704.616, 119.008
705.913, 194.969
707.211, 160.910
708.508, 427.219
709.805, 277.793
711.102, 573.695
712.399, 410.279
713.695, 696.721
714.992, 612.551
716.288, 328.438
717.584, 574.229
718.879, 269.998
720.175, 235.752
721.470, 175.916
722.765, 291.629
724.060, 102.551
725.355, 188.311
726.649, 233.990
727.944, 169.637
729.238, 35.250
730.532, 231.068
731.825, 36.635
733.119, 252.463
734.412, 78.172
735.705, 46.199
736.998, 139.607
738.291, 155.023
739.584, 80.676
740.876, 216.475
742.168, 232.082
743.460, 287.447
744.752, 212.994
746.043, 78.818
747.334, 94.100
748.626, 259.389
749.916, 367.793
751.207, 581.092
752.498, 396.693
753.788, 390.572
755.078, 475.711
756.368, 500.613
757.658, 776.076
758.947, 821.229
760.237, 1186.361
761.526, 1531.477
762.815, 1516.576
764.104, 1450.789
765.392, 1309.664
766.680, 1182.502
767.969, 898.262
769.257, 892.969
770.544, 585.939
771.832, 590.791
773.119, 964.936
774.406, 709.684
775.693, 854.508
776.980, 749.275
778.267, 702.119
779.553, 474.590
780.839, 357.496
782.125, 341.258
783.411, 426.064
784.697, 250.857
785.982, 225.729
787.267, 229.373
788.552, 143.852
789.837, 278.342
791.122, 353.385
792.406, 338.307
793.690, 358.488
794.974, 47.633
796.258, 254.377
797.542, 138.994
798.825, 23.592
800.108, 428.162
801.391, 17.279
802.674, 477.236
803.957, 301.736
805.239, 366.223
806.522, 480.688
807.804, 384.996
809.085, 819.428
810.367, 673.846
811.649, 1128.246
812.930, 1492.258
814.211, 1366.627
815.492, 1650.461
816.772, 1484.799
818.053, 1195.598
819.333, 709.582
820.613, 583.742
821.893, 417.996
823.173, 422.135
824.452, 206.332
825.732, 248.277
827.011, 152.113
828.290, 306.170
829.568, 236.168
830.847, 89.057
832.125, 162.514
833.403, 23.639
834.681, 180.074
835.959, 213.113
837.236, 23.043
838.514, 136.789
839.791, 220.627
841.068, 24.643
842.345, 207.986
843.621, 151.977
844.898, 239.256
846.174, 11.930
847.450, 185.533
848.726, 28.910
850.001, 97.990
851.277, 45.852
852.552, 29.678
853.827, 163.484
855.102, 12.814
856.376, 103.480
857.651, 190.055
858.925, 283.516
860.199, 277.193
861.473, 50.805
862.746, 65.545
864.020, 138.051
865.293, 1.637
866.566, 15.203
867.839, 228.754
869.112, 122.295
870.384, 175.824
871.656, 169.369
872.928, 222.900
874.200, 63.543
875.472, 249.934
876.744, 76.570
878.015, 116.521
879.286, 129.955
880.557, 133.379
881.828, 146.717
883.098, 79.232
884.369, 212.625
885.639, 65.150
886.909, 88.527
888.178, 101.430
889.448, 39.949
890.717, 163.090
891.987, 66.287
893.256, 29.160
894.524, 72.471
895.793, 185.770
897.061, 79.062
898.330, 12.354
899.598, 205.174
900.865, 128.051
902.133, 48.686
903.401, 274.541
904.668, 37.777
905.935, 50.998
907.202, 104.217
908.468, 287.439
909.735, 190.650
911.001, 133.854
912.267, 267.051
913.533, 210.236
914.799, 203.416
916.064, 56.586
917.330, 90.250
918.595, 392.871
919.860, 75.982
921.124, 329.092
922.389, 12.193
923.653, 235.289
924.918, 128.383
926.182, 241.467
927.445, 34.541
928.709, 367.607
929.972, 70.660
931.236, 273.717
932.499, 256.770
933.761, 369.824
935.024, 122.869
936.286, 355.906
937.549, 88.932
938.811, 191.945
940.073, 314.951
941.334, 97.797
942.596, 20.785
943.857, 53.760
945.118, 256.727
946.379, 429.674
947.640, 38.006
948.900, 404.918
950.161, 227.666
951.421, 229.709
952.681, 272.617
953.940, 362.857
955.200, 215.754
956.459, 258.643
957.719, 251.527
958.978, 444.410
960.236, 307.283
961.495, 590.156
962.753, 913.020
964.012, 1315.881
965.270, 1168.738
966.527, 1011.592
967.785, 544.439
969.043, 297.285
970.300, 480.143
971.557, 242.994
972.814, 365.844
974.071, 228.689
975.327, 611.531
976.583, 294.369
977.840, 587.217
979.095, 439.984
980.351, 402.826
981.607, 465.684
982.862, 198.227
984.117, 471.074
985.372, 221.496
986.627, 174.357
987.882, 417.219
989.136, 239.426
990.390, 242.205
991.644, 435.082
992.898, 197.305
994.152, 390.180
995.405, 213.023
996.659, 335.926
997.912, 48.133
999.165, 181.037
1000.417, 303.395
1001.670, 429.389
1002.922, 421.861
1004.174, 454.230
1005.426, 467.141
1006.678, 249.424
1007.930, 575.238
1009.181, 338.166
1010.432, 451.094
1011.683, 484.021
1012.934, 556.562
1014.185, 594.932
1015.435, 607.844
1016.685, 420.059
1017.935, 462.533
1019.185, 346.016
1020.435, 388.930
1021.684, 358.242
1022.934, 321.189
1024.183, 502.611
1025.432, 241.135
1026.680, 264.094
1027.929, 473.406
1029.177, 286.297
1030.425, 579.238
1031.673, 452.441
1032.921, 745.424
1034.169, 558.180
1035.416, 423.367
1036.663, 296.086
1037.911, 539.182
1039.157, 262.068
1040.404, 654.742
1041.650, 447.795
1042.897, 560.596
1044.143, 663.252
1045.389, 346.178
1046.634, 799.262
1047.880, 554.680
1049.125, 527.541
1050.371, 800.650
1051.615, 614.004
1052.860, 613.998
1054.105, 538.354
1055.349, 651.145
1056.593, 813.994
1057.837, 529.387
1059.081, 622.283
1060.325, 495.180
1061.568, 358.309
1062.812, 491.168
1064.055, 324.027
1065.298, 576.830
1066.540, 409.357
1067.783, 437.803
1069.025, 540.576
1070.267, 663.164
1071.509, 365.857
1072.751, 548.057
1073.993, 530.629
1075.234, 523.164
1076.475, 565.582
1077.716, 568.570
1078.957, 619.963
1080.198, 652.086
1081.438, 734.279
1082.679, 846.416
1083.919, 738.500
1085.159, 830.535
1086.398, 1282.520
1087.638, 1244.361
1088.877, 1326.270
1090.116, 1398.156
1091.355, 1520.000
1092.594, 2541.570
1093.833, 2544.305
1095.071, 3035.133
1096.309, 3568.090
1097.547, 3991.057
1098.785, 4124.051
1100.023, 3857.047
1101.260, 3620.043
1102.498, 3343.043
1103.735, 2806.043
1104.972, 2669.043
1106.208, 2652.051
1107.445, 2095.059
1108.681, 2258.070
1109.918, 2031.086
1111.154, 2074.102
1112.389, 2327.125
1113.625, 1900.162
1114.860, 2153.217
1116.096, 2146.281
1117.331, 1849.352
1118.566, 1882.428
1119.800, 1425.295
1121.035, 1798.387
1122.269, 1751.562
1123.503, 1114.746
1124.737, 1197.979
1125.971, 631.262
1127.205, 764.553
1128.438, 547.902
1129.671, 531.271
1130.904, 284.650
1132.137, 357.959
1133.370, 41.201
1134.602, 524.502
1135.834, 167.828
1137.066, 551.160
1138.298, 314.482
1139.530, 447.801
1140.762, 251.127
1141.993, 224.461
1143.224, 347.809
1144.455, 101.146
1145.686, 444.477
1146.917, 227.824
1148.147, 321.180
1149.377, 434.533
1150.607, 547.877
1151.837, 441.225
1153.067, 354.584
1154.296, 357.992
1155.526, 331.449
1156.755, 234.930
1157.984, 338.434
1159.213, 196.859
1160.441, 191.033
1161.670, 79.154
1162.898, 112.811
1164.126, 226.516
1165.354, 220.275
1166.581, 4.094
1167.809, 97.975
1169.036, 88.094
1170.263, 185.865
1171.490, 120.146
1172.717, 113.875
1173.943, 307.930
1175.170, 7.980
1176.396, 116.143
1177.622, 410.307
1178.848, 64.506
1180.073, 198.746
1181.299, 253.031
1182.524, 12.639
1183.749, 251.727
1184.974, 66.131
1186.199, 150.572
1187.423, 244.520
1188.648, 179.041
1189.872, 173.615
1191.096, 198.240
1192.320, 122.920
1193.543, 497.662
1194.767, 7.535
1195.990, 87.340
1197.213, 572.289
1198.436, 97.314
1199.659, 382.416
1200.881, 27.199
1202.104, 292.457
1203.326, 505.068
1204.548, 6.512
1205.770, 361.107
1206.991, 224.139
1208.213, 49.643
1209.434, 340.986
1210.655, 133.277
1211.876, 123.723
1213.096, 453.486
1214.317, 5.617
1215.537, 394.871
1216.757, 534.361
1217.977, 74.777
1219.197, 390.598
1220.417, 417.590
1221.636, 182.125
1222.855, 337.100
1224.074, 179.908
1225.293, 204.133
1226.512, 498.035
1227.731, 174.381
1228.949, 213.865
1230.167, 43.645
1231.385, 223.994
1232.603, 152.832
1233.820, 6.174
1235.038, 160.246
1236.255, 96.834
1237.472, 108.438
1238.689, 0.000
##END=



