##NAMES=Albite
##RRUFFID=R050253
##IDEAL CHEMISTRY=NaAlSi_3_O_8_
##LOCALITY=Madawaska/Faraday mine, Bancroft, Ontario, Canada
##OWNER=RRUFF
##SOURCE=Marcus Origlieri
##DESCRIPTION=Colorless to brown prismatic single crystals
##STATUS=The identification of this mineral has been confirmed by X-ray diffraction and chemical analysis
##URL=rruff.info/R050253
##MEASURED CHEMISTRY=(Na_0.99_Ca_0.01_)Al_1.00_(Si_0.99_Al_0.01_)_3_O_8_
##PIN_ID=L01266
##ORIENTATION=Laser parallel to (-1 -1 0). Fiducial mark perpendicular to laser is parallel to c [0 0 1]
109.5120, 0.0000000E+00
110.7440, 344.1646
111.9760, 254.8882
113.2080, 3.610352
114.4400, 24.06738
115.6710, 356.5293
116.9030, 389.6440
118.1340, 362.0859
119.3650, 76.85059
120.5960, 32.84277
121.8270, 24.14111
123.0580, 31.69971
124.2880, 85.18262
125.5190, 10.85547
126.7490, 61.52930
127.9790, 57.07373
129.2090, 54.85938
130.4390, 240.7266
131.6680, 438.5791
132.8980, 532.3286
134.1270, 866.8965
135.3560, 1074.215
136.5850, 1606.221
137.8140, 2059.859
139.0430, 2662.080
140.2710, 3076.840
141.5000, 3595.104
142.7280, 4126.996
143.9560, 4790.479
145.1840, 5373.516
146.4120, 6055.062
147.6390, 7012.059
148.8670, 7981.461
150.0940, 9299.214
151.3210, 10927.28
152.5490, 12880.64
153.7750, 14736.25
155.0020, 16317.11
156.2290, 17241.21
157.4550, 18289.54
158.6810, 19507.06
159.9080, 20930.79
161.1340, 22914.68
162.3590, 24538.76
163.5850, 25310.99
164.8110, 25004.38
166.0360, 23553.89
167.2610, 21388.55
168.4860, 18963.33
169.7110, 16574.24
170.9360, 15257.25
172.1610, 14613.42
173.3850, 14523.86
174.6100, 14514.82
175.8340, 14691.60
177.0580, 15147.62
178.2820, 15714.35
179.5050, 16072.42
180.7290, 16756.64
181.9520, 17170.80
183.1760, 17867.91
184.3990, 18180.98
185.6220, 18570.94
186.8450, 18321.82
188.0670, 17988.61
189.2900, 17142.32
190.5120, 15657.95
191.7340, 13955.51
192.9560, 12597.02
194.1780, 11071.50
195.4000, 9744.975
196.6220, 9174.437
197.8430, 8927.945
199.0640, 8897.589
200.2860, 9361.256
201.5070, 10004.05
202.7270, 10489.83
203.9480, 10643.62
205.1690, 10861.41
206.3890, 10904.19
207.6090, 11802.99
208.8290, 12484.78
210.0490, 12807.58
211.2690, 12713.38
212.4890, 11888.19
213.7080, 11109.01
214.9280, 8425.835
216.1470, 6416.668
217.3660, 4819.506
218.5850, 3729.353
219.8030, 2683.204
221.0220, 2071.062
222.2400, 1587.927
223.4590, 1269.797
224.6770, 926.6729
225.8950, 816.5537
227.1120, 694.4404
228.3300, 494.3311
229.5480, 317.2275
230.7650, 237.1299
231.9820, 118.0352
233.1990, 190.9453
234.4160, 148.6074
235.6330, 105.6250
236.8490, 47.13965
238.0660, 18.70898
239.2820, 24.74316
240.4980, 55.39453
241.7140, 1.543945
242.9300, 40.49902
244.1460, 99.50195
245.3610, 140.4463
246.5770, 205.1133
247.7920, 326.1064
249.0070, 365.2227
250.2220, 578.3232
251.4370, 589.9297
252.6510, 772.5352
253.8660, 820.1406
255.0800, 736.7461
256.2940, 658.7891
257.5080, 928.0127
258.7220, 761.3965
259.9360, 1021.278
261.1490, 1243.604
262.3630, 1233.544
263.5760, 1224.584
264.7890, 1440.501
266.0020, 1615.213
267.2150, 1950.903
268.4270, 2151.605
269.6400, 2446.802
270.8520, 2755.357
272.0640, 2995.490
273.2760, 3250.500
274.4880, 3637.341
275.7000, 3897.267
276.9120, 4714.270
278.1230, 5822.346
279.3340, 7361.489
280.5450, 9374.701
281.7560, 11604.97
282.9670, 14058.49
284.1780, 16192.11
285.3880, 17973.01
286.5980, 19819.85
287.8090, 21670.36
289.0190, 24370.93
290.2290, 26252.88
291.4380, 27348.09
292.6480, 27320.99
293.8570, 25542.75
295.0670, 22513.50
296.2760, 18348.26
297.4850, 14546.05
298.6930, 11108.88
299.9020, 8559.717
301.1110, 6454.580
302.3190, 5177.466
303.5270, 4378.369
304.7350, 4310.295
305.9430, 3876.236
307.1510, 2945.195
308.3580, 2707.169
309.5660, 2596.158
310.7730, 2365.163
311.9800, 2436.181
313.1870, 2186.211
314.3940, 2029.254
315.6010, 1905.308
316.8070, 1726.372
318.0130, 1553.447
319.2200, 1597.530
320.4260, 1532.614
321.6310, 1809.688
322.8370, 1889.764
324.0430, 1873.835
325.2480, 1957.905
326.4540, 2085.969
327.6590, 2258.030
328.8640, 2470.087
330.0680, 2520.139
331.2730, 2549.188
332.4780, 2239.232
333.6820, 1946.275
334.8860, 1534.315
336.0900, 1114.353
337.2940, 882.3887
338.4980, 652.1758
339.7010, 549.4541
340.9050, 454.4834
342.1080, 370.5117
343.3110, 449.5371
344.5140, 215.5615
345.7170, 435.5820
346.9200, 417.5986
348.1220, 351.6123
349.3240, 389.6211
350.5270, 389.6270
351.7290, 423.6299
352.9310, 369.3203
354.1320, 186.6221
355.3340, 211.6113
356.5350, 116.5977
357.7370, 40.42090
358.9380, 66.54004
360.1390, 37.49609
361.3400, 136.5518
362.5400, 0.3525390
363.7410, 70.75488
364.9410, 11.11035
366.1410, 39.03320
367.3410, 55.19824
368.5410, 84.38965
369.7410, 130.6162
370.9400, 156.8877
372.1400, 134.2139
373.3390, 40.58691
374.5380, 8.016602
375.7370, 147.3906
376.9360, 32.85059
378.1350, 143.3311
379.3330, 201.8809
380.5310, 37.50098
381.7300, 123.1777
382.9280, 74.13184
384.1260, 24.24805
385.3230, 82.16113
386.5210, 52.24316
387.7180, 21.35059
388.9160, 7.540039
390.1130, 136.1484
391.3100, 127.7920
392.5060, 191.3955
393.7030, 349.9443
394.9000, 541.4707
396.0960, 609.9971
397.2920, 937.5254
398.4880, 1108.058
399.6840, 1435.603
400.8800, 1895.160
402.0750, 2072.717
403.2710, 2206.281
404.4660, 2236.871
405.6610, 2363.468
406.8560, 2970.070
408.0510, 3224.681
409.2450, 3386.306
410.4400, 3238.957
411.6340, 2552.648
412.8280, 2050.389
414.0220, 1505.144
415.2160, 1183.912
416.4100, 920.6846
417.6030, 851.4736
418.7970, 831.2881
419.9900, 579.1094
421.1830, 342.9453
422.3760, 278.7803
423.5690, 114.6357
424.7610, 133.5000
425.9540, 49.39453
427.1460, 39.31152
428.3380, 81.75781
429.5300, 47.87012
430.7220, 26.02246
431.9140, 134.7930
433.1050, 22.61914
434.2970, 114.5547
435.4880, 45.19336
436.6790, 87.96680
437.8700, 246.7324
439.0610, 220.4951
440.2510, 284.2520
441.4420, 287.0020
442.6320, 488.7432
443.8220, 440.4795
445.0120, 617.2080
446.2020, 849.9287
447.3910, 864.6445
448.5810, 1402.356
449.7700, 1409.059
450.9600, 1796.754
452.1490, 1944.449
453.3370, 2330.137
454.5260, 2609.813
455.7150, 2998.483
456.9030, 3344.146
458.0910, 3644.802
459.2800, 3716.448
460.4670, 3859.086
461.6550, 3968.716
462.8430, 4155.336
464.0300, 4522.948
465.2180, 5175.553
466.4050, 6476.187
467.5920, 7908.824
468.7790, 10159.40
469.9650, 13027.97
471.1520, 16443.53
472.3380, 19585.08
473.5250, 22304.56
474.7110, 24968.15
475.8970, 27540.68
477.0820, 30468.19
478.2680, 32700.70
479.4540, 34276.20
480.6390, 34224.69
481.8240, 31929.16
483.0090, 27717.63
484.1940, 22723.09
485.3780, 17912.55
486.5630, 14123.00
487.7470, 11457.43
488.9320, 9499.854
490.1160, 8536.273
491.3000, 8107.681
492.4830, 7992.078
493.6670, 8459.470
494.8500, 9666.847
496.0340, 11443.22
497.2170, 14307.58
498.4000, 18043.93
499.5820, 22482.27
500.7650, 27105.39
501.9480, 31120.71
503.1300, 34592.92
504.3120, 38703.86
505.4940, 42242.34
506.6760, 46273.33
507.8580, 48515.27
509.0390, 48492.18
510.2210, 45353.02
511.4020, 40077.99
512.5830, 33244.02
513.7640, 26382.36
514.9450, 20180.09
516.1250, 15596.67
517.3060, 12378.25
518.4860, 9794.054
519.6660, 8211.013
520.8460, 6739.008
522.0260, 5614.301
523.2060, 4909.282
524.3850, 4390.463
525.5650, 3830.711
526.7440, 3304.088
527.9230, 2946.944
529.1020, 2748.787
530.2810, 2555.589
531.4590, 2326.596
532.6380, 2158.881
533.8160, 2541.890
534.9940, 2148.179
536.1720, 2032.337
537.3500, 1768.518
538.5270, 1489.085
539.7050, 1331.186
540.8820, 1118.806
542.0590, 1104.654
543.2360, 1164.113
544.4130, 852.1748
545.5900, 1032.868
546.7660, 1018.110
547.9430, 927.7695
549.1190, 867.6973
550.2950, 799.1016
551.4710, 795.9688
552.6470, 765.1367
553.8220, 804.3037
554.9980, 954.1396
556.1730, 664.0410
557.3480, 809.5410
558.5230, 580.6240
559.6980, 637.3066
560.8730, 581.9834
562.0470, 565.9922
563.2220, 712.2051
564.3960, 766.4346
565.5700, 783.9219
566.7440, 883.8223
567.9170, 803.9805
569.0910, 926.9854
570.2640, 967.2207
571.4380, 1186.972
572.6110, 1233.721
573.7840, 1306.133
574.9570, 1426.608
576.1290, 1591.906
577.3020, 1765.326
578.4740, 1712.199
579.6460, 1661.692
580.8180, 1645.616
581.9900, 1623.529
583.1620, 1328.434
584.3330, 1082.328
585.5040, 932.2168
586.6760, 819.2861
587.8470, 665.3633
589.0180, 515.7822
590.1880, 400.6855
591.3590, 188.6514
592.5290, 303.8047
593.7000, 311.6787
594.8700, 313.5391
596.0400, 159.5508
597.2090, 205.4131
598.3790, 277.2656
599.5490, 102.2246
600.7180, 311.0537
601.8870, 221.9033
603.0560, 323.7178
604.2250, 214.5303
605.3940, 112.3311
606.5620, 82.13086
607.7300, 79.92480
608.8990, 214.7070
610.0670, 243.4834
611.2350, 217.2568
612.4020, 247.0430
613.5700, 249.8174
614.7370, 208.6025
615.9050, 275.3926
617.0720, 306.1719
618.2390, 222.9521
619.4060, 262.7207
620.5720, 375.4893
621.7390, 428.2471
622.9050, 472.0049
624.0710, 460.7500
625.2370, 511.4844
626.4030, 574.2061
627.5690, 666.9150
628.7340, 714.6221
629.9000, 773.3154
631.0650, 840.9971
632.2300, 976.6738
633.3950, 898.3379
634.5600, 1053.989
635.7240, 1045.629
636.8890, 1052.256
638.0530, 995.8701
639.2170, 1121.473
640.3810, 929.0625
641.5450, 1225.655
642.7080, 972.2354
643.8720, 1107.804
645.0350, 1208.401
646.1980, 1211.998
647.3610, 1205.605
648.5240, 1130.202
649.6870, 1094.804
650.8490, 970.4141
652.0120, 866.0381
653.1740, 797.6924
654.3360, 611.3809
655.4980, 563.0986
656.6600, 369.8203
657.8210, 435.5342
658.9830, 455.2803
660.1440, 268.0293
661.3050, 197.8096
662.4660, 270.6377
663.6270, 255.4531
664.7870, 346.2949
665.9480, 243.1494
667.1080, 97.00586
668.2680, 69.87598
669.4280, 62.75098
670.5880, 17.63477
671.7480, 87.48828
672.9070, 3.335938
674.0670, 123.1592
675.2260, 96.96777
676.3850, 101.7627
677.5440, 36.54199
678.7030, 3.302734
679.8610, 20.96289
681.0200, 40.10645
682.1780, 51.38086
683.3360, 7.009766
684.4940, 36.38477
685.6520, 99.17090
686.8090, 31.71191
687.9670, 15.23145
689.1240, 14.27148
690.2810, 53.15234
691.4380, 105.4111
692.5950, 105.0947
693.7520, 19.86523
694.9080, 20.67578
696.0650, 47.47070
697.2210, 11.59863
698.3770, 64.29980
699.5330, 0.2646480
700.6880, 37.25977
701.8440, 92.69238
702.9990, 56.37305
704.1550, 12.49902
705.3100, 98.66602
706.4650, 73.91699
707.6190, 40.23730
708.7740, 47.61133
709.9290, 11.98535
711.0830, 26.57715
712.2370, 26.83984
713.3910, 1.304688
714.5450, 20.19824
715.6980, 94.28418
716.8520, 146.1504
718.0050, 43.49512
719.1580, 187.8936
720.3110, 232.2744
721.4640, 137.6406
722.6170, 335.9902
723.7700, 221.2295
724.9220, 89.54785
726.0740, 96.48828
727.2260, 57.75098
728.3780, 189.9941
729.5300, 129.2363
730.6810, 23.46191
731.8330, 200.6592
732.9840, 170.8379
734.1350, 108.9658
735.2860, 279.7217
736.4370, 177.8486
737.5880, 119.9590
738.7380, 169.0508
739.8880, 140.0156
741.0390, 204.2812
742.1890, 222.4111
743.3380, 339.4346
744.4880, 434.3535
745.6380, 436.5771
746.7870, 444.4971
747.9360, 412.1367
749.0850, 605.2236
750.2340, 709.4668
751.3830, 672.3691
752.5310, 913.1309
753.6800, 1085.714
754.8280, 1525.562
755.9760, 1637.213
757.1240, 2142.023
758.2720, 2422.301
759.4190, 2927.076
760.5670, 3133.508
761.7140, 3538.245
762.8610, 3910.966
764.0080, 4156.666
765.1550, 4226.350
766.3020, 4115.893
767.4480, 3758.538
768.5950, 3513.166
769.7410, 3028.028
770.8870, 2892.620
772.0330, 2618.191
773.1780, 2565.746
774.3240, 2604.283
775.4690, 2550.803
776.6140, 2200.303
777.7590, 2262.784
778.9040, 2149.249
780.0490, 1705.696
781.1940, 1478.124
782.3380, 1210.536
783.4820, 1035.017
784.6260, 781.3906
785.7700, 695.7480
786.9140, 576.0869
788.0580, 626.4092
789.2010, 603.7109
790.3450, 547.9961
791.4880, 594.2627
792.6310, 467.5107
793.7730, 520.7402
794.9160, 452.9521
796.0590, 531.1455
797.2010, 558.3203
798.3430, 641.4766
799.4850, 549.6152
800.6270, 741.7959
801.7690, 887.9062
802.9100, 887.9893
804.0520, 1149.053
805.1930, 1271.020
806.3340, 1540.852
807.4750, 1916.631
808.6160, 2259.046
809.7560, 2870.886
810.8970, 3408.980
812.0370, 3777.914
813.1770, 4273.729
814.3170, 4699.542
815.4570, 4850.998
816.5960, 4810.848
817.7360, 4774.262
818.8750, 4168.377
820.0140, 3557.859
821.1530, 2797.723
822.2920, 2118.932
823.4310, 1642.575
824.5690, 1438.778
825.7070, 1059.695
826.8460, 927.1172
827.9840, 690.0547
829.1220, 754.6719
830.2590, 621.2705
831.3970, 491.1816
832.5340, 599.0078
833.6710, 522.2148
834.8080, 444.8203
835.9450, 495.8047
837.0820, 305.7773
838.2190, 244.3965
839.3550, 361.7939
840.4910, 263.1543
841.6270, 344.2393
842.7630, 262.8906
843.8990, 172.0693
845.0350, 86.34082
846.1700, 62.12695
847.3060, 272.4971
848.4410, 288.2148
849.5760, 133.2422
850.7100, 120.8525
851.8450, 70.39062
852.9800, 118.1260
854.1140, 50.43262
855.2480, 98.40625
856.3820, 154.7969
857.5160, 62.17969
858.6500, 59.55664
859.7830, 4.075195
860.9170, 57.27637
862.0500, 80.57031
863.1830, 70.46582
864.3160, 23.18066
865.4480, 163.4727
866.5810, 100.6064
867.7130, 60.53613
868.8460, 123.7295
869.9780, 8.082031
871.1100, 52.06445
872.2410, 87.06934
873.3730, 123.1992
874.5050, 53.20508
875.6360, 56.32227
876.7670, 12.59375
877.8980, 30.49609
879.0290, 44.57715
880.1590, 28.35449
881.2900, 17.30664
882.4200, 12.72266
883.5500, 7.250977
884.6800, 34.23535
885.8100, 86.24512
886.9400, 34.69434
888.0690, 80.36816
889.1990, 62.47852
890.3280, 51.37500
891.4570, 48.77441
892.5860, 65.04883
893.7140, 44.13184
894.8430, 47.66309
895.9710, 48.54492
897.1000, 122.2217
898.2280, 144.9863
899.3560, 115.7480
900.4830, 152.5098
901.6110, 36.73047
902.7380, 126.0107
903.8660, 73.75195
904.9930, 26.50879
906.1200, 158.2188
907.2460, 69.94531
908.3730, 33.67285
909.5000, 242.4004
910.6260, 175.1279
911.7520, 180.8564
912.8780, 204.5879
914.0040, 38.32324
915.1290, 183.0625
916.2550, 15.80469
917.3800, 7.548828
918.5050, 28.70801
919.6300, 147.0273
920.7550, 173.7646
921.8800, 133.5049
923.0040, 55.24609
924.1290, 65.12012
925.2530, 105.7363
926.3770, 37.48633
927.5010, 116.2393
928.6250, 138.0293
929.7480, 159.8223
930.8720, 104.6191
931.9950, 10.43945
933.1180, 29.26367
934.2410, 147.0928
935.3640, 3.074219
936.4860, 1.762695
937.6090, 218.6211
938.7310, 159.4834
939.8530, 265.3613
940.9750, 213.2432
942.0970, 257.9131
943.2180, 259.0283
944.3400, 324.9336
945.4610, 242.8438
946.5820, 266.7676
947.7030, 315.7031
948.8240, 380.6465
949.9450, 431.5566
951.0650, 450.5566
952.1860, 569.5469
953.3060, 596.5713
954.4260, 677.6572
955.5460, 787.7520
956.6650, 717.8584
957.7850, 666.9902
958.9040, 661.1328
960.0230, 686.2871
961.1420, 741.4531
962.2610, 703.2998
963.3800, 611.8555
964.4990, 653.1162
965.6170, 558.4229
966.7350, 525.7510
967.8530, 618.0576
968.9710, 861.4766
970.0890, 793.8594
971.2070, 957.2900
972.3240, 1026.738
973.4410, 1066.216
974.5580, 1164.706
975.6750, 1234.230
976.7920, 1429.777
977.9090, 1558.370
979.0250, 1504.002
980.1410, 1313.665
981.2580, 1567.360
982.3740, 1319.072
983.4890, 1006.801
984.6050, 909.5566
985.7200, 991.3340
986.8360, 902.1270
987.9510, 844.9678
989.0660, 876.8955
990.1810, 800.7637
991.2950, 728.6455
992.4100, 790.5391
993.5240, 605.4473
994.6390, 492.4639
995.7530, 737.3984
996.8660, 749.7061
997.9800, 721.6895
999.0940, 931.6865
1000.207, 952.9746
1001.320, 1079.696
1002.433, 1102.729
1003.546, 1195.398
1004.659, 1318.879
1005.772, 1364.349
1006.884, 1418.445
1007.996, 1509.559
1009.108, 1607.689
1010.220, 1676.836
1011.332, 1739.900
1012.444, 1673.990
1013.555, 1815.188
1014.666, 1675.487
1015.777, 1643.445
1016.888, 1712.694
1017.999, 1536.274
1019.110, 1421.408
1020.220, 1280.389
1021.331, 1219.708
1022.441, 1075.169
1023.551, 1131.811
1024.661, 887.1885
1025.770, 1062.763
1026.880, 1011.180
1027.989, 1190.131
1029.098, 1099.587
1030.207, 1206.388
1031.316, 1324.885
1032.425, 1412.403
1033.533, 1308.942
1034.642, 1294.501
1035.750, 1388.202
1036.858, 1062.805
1037.966, 1084.427
1039.073, 936.8154
1040.181, 884.4824
1041.288, 688.1680
1042.396, 885.8760
1043.503, 703.6055
1044.610, 616.3574
1045.716, 677.8516
1046.823, 605.8770
1047.929, 572.5771
1049.036, 628.4160
1050.142, 482.2754
1051.248, 454.1582
1052.353, 459.9766
1053.459, 466.9023
1054.564, 444.1709
1055.670, 373.8223
1056.775, 390.8154
1057.880, 394.8311
1058.985, 318.8701
1060.089, 403.9307
1061.194, 467.6182
1062.298, 618.7285
1063.402, 576.8623
1064.506, 454.4316
1065.610, 389.6094
1066.713, 529.8506
1067.817, 617.0723
1068.920, 767.2539
1070.023, 739.2314
1071.126, 757.5381
1072.229, 913.6836
1073.332, 808.0352
1074.435, 770.4082
1075.537, 1007.802
1076.639, 1086.219
1077.741, 1249.656
1078.843, 1331.118
1079.945, 1372.955
1081.046, 1602.461
1082.148, 1746.987
1083.249, 2037.538
1084.350, 2127.335
1085.451, 2602.940
1086.551, 2870.978
1087.652, 3139.613
1088.752, 3689.270
1089.853, 4446.947
1090.953, 4984.814
1092.053, 5737.534
1093.152, 6744.273
1094.252, 8046.035
1095.351, 8888.818
1096.451, 10090.64
1097.550, 10731.49
1098.649, 11853.35
1099.748, 12010.32
1100.846, 12225.25
1101.945, 11557.20
1103.043, 10725.49
1104.141, 10151.48
1105.239, 9270.496
1106.337, 8618.676
1107.434, 7975.729
1108.532, 7559.801
1109.629, 7154.893
1110.726, 6955.004
1111.823, 6947.133
1112.920, 6729.283
1114.017, 6604.453
1115.113, 6459.441
1116.210, 6405.848
1117.306, 6079.074
1118.402, 5849.318
1119.498, 5573.586
1120.593, 5014.867
1121.689, 4537.189
1122.784, 3965.529
1123.879, 3698.887
1124.974, 3241.076
1126.069, 2688.662
1127.164, 2528.082
1128.259, 2095.520
1129.353, 1756.002
1130.447, 1656.531
1131.541, 1183.115
1132.635, 1060.717
1133.729, 1086.338
1134.822, 865.9766
1135.916, 1077.633
1137.009, 764.3184
1138.102, 741.0391
1139.195, 768.7949
1140.288, 809.5684
1141.380, 590.3594
1142.473, 517.1680
1143.565, 452.9980
1144.657, 584.8594
1145.749, 411.7363
1146.841, 576.6387
1147.932, 469.5645
1149.024, 420.5098
1150.115, 417.4727
1151.206, 352.9355
1152.297, 596.4980
1153.388, 274.5645
1154.479, 578.6680
1155.569, 528.8066
1156.659, 356.9688
1157.750, 454.1562
1158.839, 200.3613
1159.929, 306.5957
1161.019, 231.8887
1162.108, 262.2109
1163.198, 262.5469
1164.287, 349.9023
1165.376, 245.2715
1166.465, 319.6562
1167.553, 252.0664
1168.642, 289.4922
1169.730, 281.9316
1170.818, 342.3945
1171.906, 298.1523
1172.994, 221.3691
1174.082, 193.8770
1175.170, 86.40039
1176.257, 29.06250
1177.344, 12.28320
1178.431, 33.08203
1179.518, 25.61328
1180.605, 51.19531
1181.691, 140.7871
1182.778, 207.3965
1183.864, 209.2520
1184.950, 137.6777
1186.036, 191.3398
1187.122, 128.0137
1188.207, 59.70117
1189.292, 143.4023
1190.378, 19.11719
1191.463, 161.0977
1192.548, 137.6406
1193.632, 98.32617
1194.717, 101.9746
1195.801, 47.69727
1196.886, 0.6171880
1197.970, 154.0820
1199.054, 28.79297
1200.137, 85.22070
1201.221, 87.48438
1202.305, 46.80469
1203.388, 160.9043
1204.471, 57.62109
1205.554, 137.3516
1206.637, 37.09180
1207.719, 122.8438
1208.802, 107.7520
1209.884, 34.47461
1210.966, 81.29688
1212.048, 128.0781
1213.130, 156.8691
1214.212, 89.32812
1215.293, 66.55469
1216.374, 161.7969
1217.456, 213.8965
1218.536, 13.59961
1219.617, 293.3145
1220.698, 2.960938
1221.778, 69.76953
1222.859, 132.5117
1223.939, 251.2656
1225.019, 64.42578
1226.099, 130.3496
1227.178, 7.132813
1228.258, 221.9258
1229.337, 20.06836
1230.417, 156.7305
1231.496, 132.8145
1232.574, 44.37305
1233.653, 66.42773
1234.732, 185.2363
1235.810, 2.050781
1236.888, 66.86914
1237.966, 156.6953
1239.044, 74.52734
1240.122, 37.36914
1241.199, 107.2148
1242.277, 32.17383
1243.354, 22.04883
1244.431, 27.92969
1245.508, 194.8164
1246.585, 227.7090
1247.661, 308.1250
1248.738, 87.10352
1249.814, 40.01367
1250.890, 51.92969
1251.966, 213.8496
1253.042, 204.3086
1254.117, 119.2383
1255.193, 167.1719
1256.268, 70.10938
1257.343, 150.0527
1258.418, 86.99609
1259.493, 39.42773
1260.567, 204.7500
1261.642, 129.7090
1262.716, 57.92188
1263.790, 155.8945
1264.864, 182.8652
1265.938, 331.2109
1267.011, 240.1855
1268.085, 165.2754
1269.158, 56.25586
1270.231, 69.91992
1271.304, 177.2266
1272.377, 102.2129
1273.450, 287.2754
1274.522, 308.2656
1275.594, 225.2578
1276.666, 299.2520
1277.738, 32.24805
1278.810, 121.2461
1279.882, 57.24609
1280.953, 172.5410
1282.025, 206.1719
1283.096, 71.17188
1284.167, 217.1699
1285.238, 112.3516
1286.308, 97.34766
1287.379, 353.3438
