##NAMES=Albite
##RRUFFID=R050253
##IDEAL CHEMISTRY=NaAlSi_3_O_8_
##LOCALITY=Madawaska/Faraday mine, Bancroft, Ontario, Canada
##OWNER=RRUFF
##SOURCE=Marcus Origlieri
##DESCRIPTION=Colorless to brown prismatic single crystals
##STATUS=The identification of this mineral has been confirmed by X-ray diffraction and chemical analysis
##URL=rruff.info/R050253
##MEASURED CHEMISTRY=(Na_0.99_Ca_0.01_)Al_1.00_(Si_0.99_Al_0.01_)_3_O_8_
##PIN_ID=L01944
##ORIENTATION=Laser parallel to (0 -1 -1). Fiducial mark perpendicular to laser is parallel to a [1 0 0]
94.71400, 0.0000000E+00
95.94800, 115.7959
97.18200, 3.979492
98.41600, 3.336914
99.64900, 88.30469
100.8830, 256.4805
102.1160, 176.3340
103.3490, 464.8516
104.5820, 773.0029
105.8150, 1293.015
107.0470, 2089.837
108.2800, 2790.363
109.5120, 3336.314
110.7440, 4005.391
111.9760, 4571.999
113.2080, 5082.033
114.4400, 5810.479
115.6710, 6121.199
116.9030, 5772.078
118.1340, 4470.002
119.3650, 3198.875
120.5960, 1970.615
121.8270, 1130.146
123.0580, 799.4102
124.2880, 516.3438
125.5190, 64.89551
126.7490, 19.02051
127.9790, 126.3232
129.2090, 34.17383
130.4390, 124.6367
131.6680, 148.0078
132.8980, 14.85254
134.1270, 59.13672
135.3560, 35.81641
136.5850, 205.8555
137.8140, 627.2217
139.0430, 735.8896
140.2710, 1073.835
141.5000, 1372.035
142.7280, 1575.478
143.9560, 2047.154
145.1840, 2559.057
146.4120, 3240.178
147.6390, 3761.504
148.8670, 3808.021
150.0940, 3795.717
151.3210, 3722.585
152.5490, 3878.611
153.7750, 4262.791
155.0020, 4638.111
156.2290, 5110.568
157.4550, 5763.154
158.6810, 6763.861
159.9080, 7812.684
161.1340, 9224.614
162.3590, 10377.68
163.5850, 11288.89
164.8110, 11851.79
166.0360, 11600.62
167.2610, 10780.87
168.4860, 10442.76
169.7110, 10160.80
170.9360, 10969.91
172.1610, 11584.04
173.3850, 11863.13
174.6100, 11484.19
175.8340, 10983.23
177.0580, 10494.24
178.2820, 10363.24
179.5050, 10709.23
180.7290, 11038.22
181.9520, 12080.21
183.1760, 12952.20
184.3990, 13679.20
185.6220, 14653.16
186.8450, 14972.13
188.0670, 15092.12
189.2900, 14568.17
190.5120, 13286.37
191.7340, 12029.60
192.9560, 10762.92
194.1780, 9456.360
195.4000, 8462.872
196.6220, 7828.402
197.8430, 7187.946
199.0640, 7002.501
200.2860, 7210.064
201.5070, 7328.639
202.7270, 7825.224
203.9480, 8163.818
205.1690, 8789.425
206.3890, 9525.041
207.6090, 10785.66
208.8290, 12420.29
210.0490, 13766.94
211.2690, 14287.58
212.4890, 13697.24
213.7080, 11643.90
214.9280, 9028.568
216.1470, 6620.246
217.3660, 4642.930
218.5850, 3393.618
219.8030, 2436.312
221.0220, 1936.012
222.2400, 1344.716
223.4590, 1124.425
224.6770, 757.1367
225.8950, 720.8525
227.1120, 408.5723
228.3300, 308.9463
229.5480, 300.1729
230.7650, 201.1455
231.9820, 107.5645
233.1990, 68.82617
234.4160, 51.72754
235.6330, 41.05469
236.8490, 51.10742
238.0660, 14.82617
239.2820, 33.12598
240.4980, 165.8711
241.7140, 245.8633
242.9300, 414.1494
244.1460, 569.8008
245.3610, 823.2627
246.5770, 1038.180
247.7920, 1295.658
249.0070, 1540.329
250.2220, 1929.652
251.4370, 2429.625
252.6510, 2809.727
253.8660, 2968.949
255.0800, 2638.286
256.2940, 3173.727
257.5080, 3351.266
258.7220, 2244.750
259.9360, 1720.329
261.1490, 1544.996
262.3630, 1090.746
263.5760, 984.5723
264.7890, 922.4688
266.0020, 1108.434
267.2150, 1146.460
268.4270, 1289.545
269.6400, 1526.685
270.8520, 1738.877
272.0640, 1872.119
273.2760, 2145.405
274.4880, 2076.353
275.7000, 2336.212
276.9120, 2625.623
278.1230, 3060.069
279.3340, 3713.549
280.5450, 4602.494
281.7560, 5891.494
282.9670, 7298.836
284.1780, 9129.184
285.3880, 11323.37
286.5980, 14138.01
287.8090, 17598.41
289.0190, 21320.53
290.2290, 25172.60
291.4380, 28376.19
292.6480, 29511.34
293.8570, 27894.61
295.0670, 23907.49
296.2760, 18870.55
297.4850, 14120.34
298.6930, 10378.15
299.9020, 7610.965
301.1110, 5741.784
302.3190, 4506.611
303.5270, 3376.450
304.7350, 2738.296
305.9430, 2436.149
307.1510, 1954.011
308.3580, 1690.877
309.5660, 1454.750
310.7730, 1339.615
311.9800, 1409.463
313.1870, 1175.312
314.3940, 1370.158
315.6010, 1229.001
316.8070, 1108.842
318.0130, 1209.679
319.2200, 1329.512
320.4260, 1523.342
321.6310, 2065.168
322.8370, 2521.993
324.0430, 3153.814
325.2480, 3911.634
326.4540, 5185.449
327.6590, 6371.262
328.8640, 7883.072
330.0680, 8997.877
331.2730, 8944.681
332.4780, 7674.482
333.6820, 5745.279
334.8860, 4181.070
336.0900, 2925.860
337.2940, 2190.645
338.4980, 1526.422
339.7010, 1198.196
340.9050, 934.9629
342.1080, 742.7236
343.3110, 617.4775
344.5140, 563.2246
345.7170, 508.9668
346.9200, 407.7012
348.1220, 547.4287
349.3240, 539.1494
350.5270, 484.8643
351.7290, 442.5693
352.9310, 320.2686
354.1320, 325.9600
355.3340, 317.6445
356.5350, 372.3213
357.7370, 45.99121
358.9380, 229.6523
360.1390, 11.30664
361.3400, 141.9482
362.5400, 15.58105
363.7410, 94.20410
364.9410, 23.81836
366.1410, 34.57617
367.3410, 71.00293
368.5410, 116.4258
369.7410, 28.90137
370.9400, 24.40137
372.1400, 17.92383
373.3390, 25.47266
374.5380, 16.04883
375.7370, 15.64844
376.9360, 17.46680
378.1350, 45.00391
379.3330, 54.86914
380.5310, 46.50586
381.7300, 138.5176
382.9280, 230.5049
384.1260, 76.63574
385.3230, 176.9004
386.5210, 81.26758
387.7180, 13.68750
388.9160, 12.12500
390.1130, 126.5820
391.3100, 79.87988
392.5060, 101.3428
393.7030, 24.80762
394.9000, 257.2656
396.0960, 253.7246
397.2920, 468.1816
398.4880, 481.6377
399.6840, 621.0928
400.8800, 728.5469
402.0750, 813.9980
403.2710, 948.4463
404.4660, 903.8906
405.6610, 1228.332
406.8560, 1240.770
408.0510, 1420.201
409.2450, 1603.629
410.4400, 1560.052
411.6340, 1317.471
412.8280, 1173.892
414.0220, 882.3125
415.2160, 887.5381
416.4100, 801.8574
417.6030, 847.5410
418.7970, 741.9541
419.9900, 617.3887
421.1830, 444.8184
422.3760, 179.2617
423.5690, 33.71875
424.7610, 33.16211
425.9540, 61.40723
427.1460, 61.03125
428.3380, 30.28516
429.5300, 104.5859
430.7220, 24.89062
431.9140, 23.81738
433.1050, 22.56152
434.2970, 30.76562
435.4880, 55.17285
436.6790, 6.959961
437.8700, 52.08203
439.0610, 43.19336
440.2510, 161.2910
441.4420, 60.40918
442.6320, 159.1562
443.8220, 158.6162
445.0120, 290.7061
446.2020, 291.8047
447.3910, 387.8955
448.5810, 461.9883
449.7700, 554.1279
450.9600, 649.2383
452.1490, 728.8887
453.3370, 836.8789
454.5260, 965.5391
455.7150, 1034.620
456.9030, 1174.697
458.0910, 1250.768
459.2800, 1380.828
460.4670, 1312.879
461.6550, 1355.920
462.8430, 1323.951
464.0300, 1421.973
465.2180, 1455.003
466.4050, 1735.022
467.5920, 2298.031
468.7790, 2679.031
469.9650, 3594.021
471.1520, 4463.002
472.3380, 5651.973
473.5250, 6842.934
474.7110, 8614.888
475.8970, 11053.83
477.0820, 13428.76
478.2680, 16167.68
479.4540, 18295.60
480.6390, 19432.50
481.8240, 18570.40
483.0090, 15670.28
484.1940, 12293.16
485.3780, 9388.026
486.5630, 7257.883
487.7470, 5880.730
488.9320, 4975.570
490.1160, 4244.400
491.3000, 3982.221
492.4830, 4141.032
493.6670, 4266.834
494.8500, 4694.627
496.0340, 5346.414
497.2170, 6507.188
498.4000, 7691.955
499.5820, 9832.710
500.7650, 12079.46
501.9480, 15282.20
503.1300, 19117.34
504.3120, 24048.05
505.4940, 29527.30
506.6760, 35601.99
507.8580, 40144.46
509.0390, 41759.65
510.2210, 38655.34
511.4020, 32513.31
512.5830, 26112.72
513.7640, 19630.38
514.9450, 14594.39
516.1250, 11421.90
517.3060, 8778.946
518.4860, 6987.983
519.6660, 5749.863
520.8460, 5023.978
522.0260, 4204.498
523.2060, 3489.553
524.3850, 3087.860
525.5650, 2781.367
526.7440, 2323.506
527.9230, 2253.333
529.1020, 2015.147
530.2810, 1744.188
531.4590, 1785.315
532.6380, 1557.246
533.8160, 1543.831
534.9940, 1250.414
536.1720, 1267.506
537.3500, 1140.157
538.5270, 981.7354
539.7050, 1137.312
540.8820, 1011.887
542.0590, 1009.882
543.2360, 747.4893
544.4130, 902.0586
545.5900, 781.6270
546.7660, 793.1914
547.9430, 676.7559
549.1190, 802.3174
550.2950, 661.8770
551.4710, 632.5254
552.6470, 538.3613
553.8220, 658.6855
554.9980, 519.3545
556.1730, 619.9033
557.3480, 501.8164
558.5230, 395.4893
559.6980, 645.3125
560.8730, 746.7998
562.0470, 618.7930
563.2220, 613.2910
564.3960, 463.4521
565.5700, 592.7393
566.7440, 698.8857
567.9170, 600.8887
569.0910, 666.7432
570.2640, 619.6885
571.4380, 955.9170
572.6110, 1052.436
573.7840, 1090.437
574.9570, 1442.745
576.1290, 1618.087
577.3020, 1878.145
578.4740, 2086.079
579.6460, 2214.807
580.8180, 2092.152
581.9900, 2037.063
583.1620, 1871.963
584.3330, 1518.587
585.5040, 1240.069
586.6760, 863.1709
587.8470, 449.6514
589.0180, 562.6328
590.1880, 363.0127
591.3590, 505.8057
592.5290, 322.2305
593.7000, 207.7480
594.8700, 215.3691
596.0400, 251.8760
597.2090, 263.6064
598.3790, 175.5459
599.5490, 138.3779
600.7180, 94.92871
601.8870, 177.4141
603.0560, 289.0020
604.2250, 286.6416
605.3940, 203.9590
606.5620, 339.4863
607.7300, 298.9834
608.8990, 251.4785
610.0670, 276.1064
611.2350, 162.6094
612.4020, 189.3066
613.5700, 176.6709
614.7370, 192.2021
615.9050, 269.7295
617.0720, 284.2725
618.2390, 340.8467
619.4060, 330.4229
620.5720, 223.0205
621.7390, 193.6133
622.9050, 455.2031
624.0710, 295.7871
625.2370, 700.3662
626.4030, 634.9541
627.5690, 736.5400
628.7340, 744.1406
629.9000, 859.7383
631.0650, 1011.330
632.2300, 1011.919
633.3950, 1210.502
634.5600, 1231.084
635.7240, 1215.659
636.8890, 1220.239
638.0530, 1152.816
639.2170, 1191.386
640.3810, 1076.952
641.5450, 1274.513
642.7080, 1286.067
643.8720, 1583.622
645.0350, 1573.170
646.1980, 1823.718
647.3610, 1951.294
648.5240, 1934.868
649.6870, 1837.480
650.8490, 1679.088
652.0120, 1345.729
653.1740, 1179.381
654.3360, 1017.052
655.4980, 733.7295
656.6600, 668.4180
657.8210, 467.1123
658.9830, 471.8135
660.1440, 377.5234
661.3050, 449.2471
662.4660, 320.9873
663.6270, 312.7432
664.7870, 81.53809
665.9480, 208.3965
667.1080, 136.2773
668.2680, 128.2080
669.4280, 172.1611
670.5880, 109.1211
671.7480, 172.0869
672.9070, 247.0889
674.0670, 125.0811
675.2260, 90.06934
676.3850, 46.05371
677.5440, 191.0293
678.7030, 114.9980
679.8610, 123.9590
681.0200, 5.086914
682.1780, 59.85547
683.3360, 104.7891
684.4940, 101.7148
685.6520, 87.63379
686.8090, 127.5439
687.9670, 150.4473
689.1240, 98.34180
690.2810, 54.22852
691.4380, 10.10742
692.5950, 27.02637
693.7520, 16.24512
694.9080, 83.63770
696.0650, 2.450195
697.2210, 51.25000
698.3770, 16.04199
699.5330, 91.17871
700.6880, 0.4609380
701.8440, 74.75586
702.9990, 69.10547
704.1550, 41.49512
705.3100, 69.08789
706.4650, 14.32617
707.6190, 68.26465
708.7740, 126.8701
709.9290, 36.53027
711.0830, 4.964844
712.2370, 7.414063
713.3910, 55.13281
714.5450, 3.315430
715.6980, 54.76367
716.8520, 38.23242
718.0050, 17.26953
719.1580, 64.90332
720.3110, 92.38867
721.4640, 11.20508
722.6170, 69.95215
723.7700, 270.3418
724.9220, 62.27637
726.0740, 125.0518
727.2260, 107.6309
728.3780, 50.03320
729.5300, 41.57812
730.6810, 16.07910
731.8330, 113.5762
732.9840, 89.25195
734.1350, 116.7842
735.2860, 2.773438
736.4370, 24.52930
737.5880, 38.83496
738.7380, 105.8965
739.8880, 239.2334
741.0390, 98.10547
742.1890, 137.0391
743.3380, 44.37695
744.4880, 122.1807
745.6380, 192.1328
746.7870, 198.9375
747.9360, 98.17383
749.0850, 206.4971
750.2340, 341.1514
751.3830, 212.3594
752.5310, 372.6182
753.6800, 659.6279
754.8280, 584.0635
755.9760, 577.1523
757.1240, 882.3545
758.2720, 967.0938
759.4190, 1291.180
760.5670, 1592.951
761.7140, 1947.707
762.8610, 2089.592
764.0080, 2436.050
765.1550, 2339.319
766.3020, 2423.435
767.4480, 2009.443
768.5950, 1809.105
769.7410, 1450.161
770.8870, 1078.791
772.0330, 979.9189
773.1780, 874.5176
774.3240, 747.1768
775.4690, 794.8330
776.6140, 812.3809
777.7590, 797.9141
778.9040, 725.4297
780.0490, 513.9336
781.1940, 493.4160
782.3380, 453.9277
783.4820, 506.3779
784.6260, 430.9609
785.7700, 343.5977
786.9140, 350.2598
788.0580, 221.7314
789.2010, 269.1924
790.3450, 296.8418
791.4880, 328.2998
792.6310, 289.6074
793.7730, 282.9180
794.9160, 348.1885
796.0590, 392.4414
797.2010, 356.6738
798.3430, 483.8887
799.4850, 522.0830
800.6270, 511.2598
801.7690, 600.4160
802.9100, 637.5537
804.0520, 692.6719
805.1930, 959.7695
806.3340, 1126.848
807.4750, 1427.905
808.6160, 1771.893
809.7560, 2235.250
810.8970, 2767.967
812.0370, 3323.942
813.1770, 4330.896
814.3170, 4913.761
815.4570, 5637.674
816.5960, 5884.566
817.7360, 5635.439
818.8750, 4940.869
820.0140, 4233.662
821.1530, 3066.475
822.2920, 2329.265
823.4310, 1845.041
824.5690, 1484.791
825.7070, 1107.520
826.8460, 839.2256
827.9840, 935.8232
829.1220, 550.2109
830.2590, 615.0869
831.3970, 557.5918
832.5340, 415.1982
833.6710, 426.4160
834.8080, 362.8496
835.9450, 493.1113
837.0820, 379.6875
838.2190, 437.7344
839.3550, 304.2559
840.4910, 274.0898
841.6270, 294.3398
842.7630, 279.6797
843.8990, 241.8301
845.0350, 252.1230
846.1700, 231.4727
847.3060, 218.1523
848.4410, 226.6934
849.5760, 205.0684
850.7100, 237.1934
851.8450, 248.7441
852.9800, 272.0234
854.1140, 226.2910
855.2480, 146.1582
856.3820, 126.2070
857.5160, 131.9609
858.6500, 91.68945
859.7830, 185.6875
860.9170, 30.80273
862.0500, 186.2754
863.1830, 300.3457
864.3160, 77.89844
865.4480, 54.97266
866.5810, 120.6992
867.7130, 25.28320
868.8460, 42.72461
869.9780, 60.36719
871.1100, 79.22266
872.2410, 105.8301
873.3730, 100.5195
874.5050, 161.6738
875.6360, 86.46875
876.7670, 22.16602
877.8980, 1.191406
879.0290, 35.51758
880.1590, 29.77148
881.2900, 152.8516
882.4200, 17.48438
883.5500, 75.09375
884.6800, 27.45117
885.8100, 80.90820
886.9400, 10.43945
888.0690, 54.99414
889.1990, 110.4082
890.3280, 47.19531
891.4570, 105.8535
892.5860, 3.402344
893.7140, 69.37109
894.8430, 71.78711
895.9710, 249.9297
897.1000, 147.0566
898.2280, 107.1660
899.3560, 19.73828
900.4830, 18.31641
901.6110, 45.64844
902.7380, 59.33203
903.8660, 161.2949
904.9930, 39.24414
906.1200, 207.1758
907.2460, 23.09570
908.3730, 196.9922
909.5000, 12.12500
910.6260, 110.7266
911.7520, 350.5625
912.8780, 132.3848
914.0040, 233.1953
915.1290, 127.9922
916.2550, 194.7773
917.3800, 116.5469
918.5050, 166.3047
919.6300, 111.9492
920.7550, 71.71289
921.8800, 82.64453
923.0040, 100.9336
924.1290, 234.4961
925.2530, 24.04883
926.3770, 18.41602
927.5010, 267.0859
928.6250, 112.5762
929.7480, 150.0547
930.8720, 165.5195
931.9950, 184.9727
933.1180, 212.4199
934.2410, 226.7852
935.3640, 236.8496
936.4860, 226.6895
937.6090, 242.0898
938.7310, 164.4785
939.8530, 146.8574
940.9750, 126.0723
942.0970, 116.4785
943.2180, 100.9219
944.3400, 136.2520
945.4610, 170.5781
946.5820, 180.8906
947.7030, 207.2168
948.8240, 280.5332
949.9450, 126.8398
951.0650, 105.1484
952.1860, 377.4453
953.3060, 158.7324
954.4260, 223.0117
955.5460, 341.2812
956.6650, 157.5430
957.7850, 87.79297
958.9040, 209.0352
960.0230, 154.2695
961.1420, 238.4902
962.2610, 309.7031
963.3800, 219.9082
964.4990, 234.1074
965.6170, 255.3125
966.7350, 261.5137
967.8530, 277.7090
968.9710, 320.8965
970.0890, 356.0762
971.2070, 434.2480
972.3240, 533.4473
973.4410, 433.6426
974.5580, 537.8496
975.6750, 544.0762
976.7920, 524.5469
977.9090, 471.5117
979.0250, 585.7227
980.1410, 686.9297
981.2580, 872.1387
982.3740, 762.9941
983.4890, 472.5645
984.6050, 555.7754
985.7200, 418.9785
986.8360, 336.1797
987.9510, 366.3906
989.0660, 449.6172
990.1810, 416.6973
991.2950, 551.6934
992.4100, 572.7598
993.5240, 367.6543
994.6390, 433.8887
995.7530, 456.1133
996.8660, 405.3594
997.9800, 415.6152
999.0940, 444.7012
1000.207, 451.4199
1001.320, 546.5586
1002.433, 583.3633
1003.546, 706.1289
1004.659, 671.0254
1005.772, 742.9922
1006.884, 908.0820
1007.996, 817.1465
1009.108, 985.4395
1010.220, 973.4453
1011.332, 1047.789
1012.444, 1158.273
1013.555, 1187.727
1014.666, 1221.490
1015.777, 1235.787
1016.888, 1212.217
1017.999, 958.2012
1019.110, 1076.117
1020.220, 1119.652
1021.331, 805.6211
1022.441, 878.5234
1023.551, 746.6602
1024.661, 809.3594
1025.770, 644.3906
1026.880, 917.2949
1027.989, 945.6543
1029.098, 1140.648
1030.207, 1554.949
1031.316, 1552.248
1032.425, 1872.404
1033.533, 1816.973
1034.642, 1649.615
1035.750, 1814.604
1036.858, 1454.580
1037.966, 1134.889
1039.073, 1065.793
1040.181, 918.1094
1041.288, 748.9121
1042.396, 555.2324
1043.503, 739.4766
1044.610, 645.7109
1045.716, 527.0410
1046.823, 318.9297
1047.929, 525.4160
1049.036, 345.7520
1050.142, 329.3242
1051.248, 456.6250
1052.353, 311.9746
1053.459, 385.1797
1054.564, 222.3145
1055.670, 215.4141
1056.775, 120.6895
1057.880, 413.0625
1058.985, 364.0352
1060.089, 324.2852
1061.194, 254.8984
1062.298, 368.2676
1063.402, 195.6641
1064.506, 257.0664
1065.610, 138.9082
1066.713, 340.3242
1067.817, 196.7422
1068.920, 352.1699
1070.023, 290.5996
1071.126, 325.0371
1072.229, 167.4805
1073.332, 320.9277
1074.435, 410.3809
1075.537, 554.8418
1076.639, 398.2969
1077.741, 266.1660
1078.843, 374.6445
1079.945, 543.0508
1081.046, 574.5391
1082.148, 637.0371
1083.249, 636.1250
1084.350, 682.6367
1085.451, 968.1484
1086.551, 972.6699
1087.652, 987.1973
1088.752, 1179.732
1089.853, 1214.270
1090.953, 1288.809
1092.053, 1454.424
1093.152, 1674.982
1094.252, 1980.547
1095.351, 2391.256
1096.451, 2532.832
1097.550, 2992.055
1098.649, 3145.646
1099.748, 3296.242
1100.846, 3434.846
1101.945, 3505.455
1103.043, 3300.070
1104.141, 3033.189
1105.239, 2722.818
1106.337, 2521.453
1107.434, 2212.752
1108.532, 2387.400
1109.629, 2034.053
1110.726, 2118.713
1111.823, 1866.379
1112.920, 1841.041
1114.017, 2042.723
1115.113, 1764.410
1116.210, 2063.111
1117.306, 1984.818
1118.402, 2030.529
1119.498, 2112.248
1120.593, 2067.518
1121.689, 1860.250
1122.784, 1974.031
1123.879, 1619.787
1124.974, 1418.574
1126.069, 1290.350
1127.164, 1043.135
1128.259, 1066.934
1129.353, 706.9395
1130.447, 577.7520
1131.541, 538.5684
1132.635, 534.7480
1133.729, 330.6230
1134.822, 305.5234
1135.916, 220.4316
1137.009, 161.3535
1138.102, 152.2793
1139.195, 73.23633
1140.288, 105.1992
1141.380, 23.20312
1142.473, 221.2129
1143.565, 182.2559
1144.657, 30.68359
1145.749, 38.62305
1146.841, 319.4512
1147.932, 3.529297
1149.024, 177.6230
1150.115, 2.277344
1151.206, 515.8418
1152.297, 159.0000
1153.388, 370.1719
1154.479, 399.4199
1155.569, 228.8789
1156.659, 382.4316
1157.750, 272.0234
1158.839, 223.8203
1159.929, 184.1797
1161.019, 81.48438
1162.108, 251.7949
1163.198, 178.1152
1164.287, 306.4395
1165.376, 106.7988
1166.465, 2.166016
1167.553, 164.5625
1168.642, 30.96484
1169.730, 196.3711
1170.818, 169.7812
1171.906, 282.1973
1172.994, 224.2793
1174.082, 369.0469
1175.170, 49.49023
1176.257, 109.9473
1177.344, 21.59180
1178.431, 8.132813
1179.518, 24.32812
1180.605, 11.20703
1181.691, 16.25977
1182.778, 79.24414
1183.864, 74.71680
1184.950, 51.22656
1186.036, 157.7383
1187.122, 96.28125
1188.207, 135.8301
1189.292, 25.38086
1190.378, 3.935547
1191.463, 9.498047
1192.548, 72.07617
1193.632, 26.66016
1194.717, 39.25195
1195.801, 38.15430
1196.886, 35.42969
1197.970, 29.22656
1199.054, 154.8164
1200.137, 23.41016
1201.221, 77.02539
1202.305, 127.6406
1203.388, 83.25977
1204.471, 42.87891
1205.554, 66.49805
1206.637, 18.99023
1207.719, 11.23828
1208.802, 56.40430
1209.884, 111.9473
1210.966, 74.65430
1212.048, 38.25586
1213.130, 56.14258
1214.212, 95.44141
1215.293, 146.0234
1216.374, 50.60547
1217.456, 132.1895
1218.536, 273.7734
1219.617, 169.3594
1220.698, 245.7031
1221.778, 5.527344
1222.859, 187.1113
1223.939, 145.6973
1225.019, 0.2812500
1226.099, 150.8652
1227.178, 34.55078
1228.258, 232.0156
1229.337, 252.5820
1230.417, 67.14844
1231.496, 60.71289
1232.574, 141.2754
1233.653, 30.14258
1234.732, 127.4062
1235.810, 132.9531
1236.888, 32.50586
1237.966, 102.0215
1239.044, 283.5449
1240.122, 136.0703
1241.199, 83.96680
1242.277, 37.33203
1243.354, 180.8555
1244.431, 69.58789
1245.508, 117.1094
1246.585, 92.66992
1247.661, 209.1562
1248.738, 222.9766
1249.814, 27.12305
1250.890, 92.34180
1251.966, 16.25391
1253.042, 154.1914
1254.117, 48.30469
1255.193, 209.7969
1256.268, 187.1309
1257.343, 238.2207
1258.418, 52.31055
1259.493, 148.5781
1260.567, 168.9648
1261.642, 35.04492
1262.716, 189.3242
1263.790, 211.6289
1264.864, 260.2012
1265.938, 292.7520
1267.011, 297.2500
1268.085, 207.0977
1269.158, 285.0078
1270.231, 167.0664
1271.304, 101.4121
1272.377, 281.9355
1273.450, 213.6133
1274.522, 229.5938
