##NAMES=Albite
##RRUFFID=R040068
##IDEAL CHEMISTRY=NaAlSi_3_O_8_
##LOCALITY=Harding Pegmatite, Dixon, New Mexico, USA
##OWNER=RRUFF
##SOURCE=University of Arizona Mineral Museum
##DESCRIPTION=Tan colored crystal fragment
##STATUS=The identification of this mineral has been confirmed by X-ray diffraction and chemical analysis
##URL=rruff.info/R040068
##MEASURED CHEMISTRY=(Na_0.99_Ca_0.01_)Al_1.00_(Si_0.99_Al_0.01_)_3_O_8_
##PIN_ID=L00307
##ORIENTATION=Laser parallel to c* (0 0 1). Fiducial mark perpendicular to laser is parallel to -a [-1 0 0]
116.172, 0.000
117.564, 36.808
118.956, 6.237
120.347, 8.850
121.738, 2.188
123.129, 117.109
124.519, 14.384
125.910, 138.003
127.300, 26.806
128.690, 189.920
130.080, 216.669
131.469, 336.518
132.858, 319.046
134.248, 303.934
135.636, 400.916
137.025, 579.763
138.413, 840.272
139.801, 1022.267
141.189, 1345.587
142.577, 1630.101
143.964, 1855.690
145.352, 2242.255
146.739, 2489.707
148.125, 2658.018
149.512, 2707.154
150.898, 2737.104
152.284, 2627.794
153.670, 2579.152
155.056, 2691.119
156.441, 2803.644
157.827, 3086.697
159.212, 3450.224
160.596, 3464.172
161.981, 3528.502
163.365, 3283.182
164.749, 3278.185
166.133, 2973.489
167.517, 2999.078
168.900, 3084.931
170.283, 3011.035
171.666, 2807.376
173.049, 2823.941
174.431, 2862.354
175.813, 2887.719
177.195, 3124.930
178.577, 3392.840
179.959, 3641.129
181.340, 4099.734
182.721, 4258.955
184.102, 4548.633
185.483, 4298.437
186.863, 4128.284
188.244, 3668.178
189.624, 3098.121
191.003, 2778.112
192.383, 2288.150
193.762, 2058.236
195.141, 1768.414
196.520, 1608.826
197.899, 1639.387
199.277, 1659.955
200.656, 1960.413
202.034, 2090.797
203.411, 2531.138
204.789, 2871.458
206.166, 3351.771
207.543, 3262.092
208.920, 3232.428
210.297, 2822.786
211.673, 2483.174
213.049, 1813.594
214.425, 1234.052
215.801, 1034.548
217.176, 825.087
218.552, 635.668
219.927, 546.293
221.302, 486.964
222.676, 357.678
224.051, 278.438
225.425, 289.243
226.799, 110.095
228.173, 180.989
229.546, 291.929
230.919, 162.913
232.292, 203.940
233.665, 185.209
235.038, 106.317
236.410, 268.126
237.782, 169.311
239.154, 236.115
240.526, 260.410
241.898, 283.940
243.269, 436.553
244.640, 460.792
246.011, 870.448
247.381, 981.636
248.752, 1199.558
250.122, 1328.076
251.492, 1181.466
252.861, 1094.141
254.231, 884.930
255.600, 675.760
256.969, 486.629
258.338, 457.539
259.707, 438.486
261.075, 499.469
262.443, 530.483
263.811, 791.527
265.179, 912.601
266.546, 1033.699
267.914, 1144.821
269.281, 1165.967
270.647, 1147.133
272.014, 1079.682
273.380, 842.727
274.747, 900.832
276.113, 827.443
277.478, 1061.967
278.844, 1203.191
280.209, 1505.080
281.574, 2022.719
282.939, 2660.059
284.304, 3657.719
285.668, 4736.234
287.032, 5625.115
288.396, 6354.309
289.760, 6423.764
291.123, 5963.465
292.487, 5033.422
293.850, 4063.570
295.212, 3063.893
296.575, 2274.367
297.937, 1734.984
299.300, 1265.730
300.662, 1016.607
302.023, 777.596
303.385, 618.689
304.746, 539.885
306.107, 471.170
307.468, 402.537
308.829, 373.982
310.189, 365.500
311.549, 287.088
312.909, 458.740
314.269, 260.453
315.629, 162.225
316.988, 224.045
318.347, 395.918
319.706, 327.836
321.065, 389.801
322.423, 721.805
323.781, 933.848
325.139, 1275.930
326.497, 1398.045
327.855, 1680.195
329.212, 1382.379
330.569, 1174.590
331.926, 816.832
333.283, 639.100
334.639, 551.395
335.995, 363.715
337.351, 236.057
338.707, 148.424
340.063, 210.811
341.418, 203.221
342.773, 235.646
344.128, 108.088
345.483, 40.555
346.837, 183.037
348.192, 4.473
349.546, 158.023
350.899, 50.539
352.253, 173.076
353.606, 14.371
354.960, 48.207
356.313, 50.793
357.665, 193.383
359.018, 113.996
360.370, 131.395
361.722, 8.801
363.074, 186.203
364.426, 43.627
365.777, 38.947
367.128, 51.521
368.479, 25.896
369.830, 66.682
371.181, 50.713
372.531, 58.100
373.881, 75.494
375.231, 42.906
376.581, 110.324
377.930, 94.980
379.280, 155.199
380.629, 52.662
381.977, 60.125
383.326, 82.398
384.674, 35.078
386.023, 22.564
387.370, 49.943
388.718, 72.449
390.066, 24.957
391.413, 67.463
392.760, 119.969
394.107, 292.475
395.454, 454.977
396.800, 427.619
398.146, 420.121
399.492, 462.615
400.838, 435.105
402.184, 377.525
403.529, 579.885
404.874, 482.229
406.219, 684.564
407.564, 616.879
408.908, 569.156
410.252, 471.385
411.596, 483.533
412.940, 635.650
414.284, 667.750
415.627, 429.838
416.970, 601.924
418.313, 354.010
419.656, 136.092
420.999, 58.170
422.341, 100.260
423.683, 62.344
425.025, 4.428
426.367, 3.504
427.708, 121.383
429.049, 86.562
430.390, 55.457
431.731, 61.477
433.072, 202.607
434.412, 36.287
435.752, 18.705
437.092, 203.203
438.432, 95.307
439.772, 34.676
441.111, 109.129
442.450, 200.965
443.789, 365.969
445.127, 288.922
446.466, 128.352
447.804, 265.289
449.142, 427.197
450.480, 699.111
451.817, 893.643
453.155, 1116.293
454.492, 1059.598
455.829, 1062.326
457.166, 1034.197
458.502, 1016.062
459.838, 927.922
461.175, 852.039
462.510, 744.322
463.846, 696.289
465.181, 739.609
466.517, 951.430
467.852, 973.240
469.186, 1305.041
470.521, 1946.828
471.855, 2648.607
473.190, 3470.373
474.523, 4662.127
475.857, 5943.869
477.191, 6865.598
478.524, 6847.312
479.857, 6179.014
481.190, 5150.705
482.523, 3962.379
483.855, 2974.037
485.187, 2215.684
486.519, 1977.312
487.851, 1488.926
489.183, 1430.525
490.514, 1352.107
491.845, 1323.674
493.176, 1365.225
494.507, 1656.760
495.837, 1878.275
497.168, 2359.775
498.498, 3161.260
499.828, 4292.969
501.157, 5874.420
502.487, 8085.852
503.816, 10317.266
505.145, 12041.588
506.474, 12353.418
507.802, 11154.777
509.131, 9385.973
510.459, 7359.205
511.787, 5514.361
513.115, 4006.695
514.442, 3133.342
515.770, 2294.586
517.097, 1725.812
518.424, 1622.459
519.750, 1498.312
521.077, 1307.469
522.403, 1068.205
523.729, 764.213
525.055, 753.451
526.381, 644.533
527.706, 725.613
529.031, 445.514
530.356, 372.021
531.681, 464.193
533.006, 372.236
534.330, 469.305
535.654, 267.979
536.978, 453.898
538.302, 343.740
539.625, 268.680
540.949, 309.037
542.272, 346.557
543.595, 387.387
544.917, 206.041
546.240, 255.264
547.562, 226.051
548.884, 286.822
550.206, 267.568
551.527, 168.309
552.849, 179.027
554.170, 169.725
555.491, 110.525
556.812, 381.188
558.132, 141.832
559.453, 182.490
560.773, 303.102
562.093, 143.691
563.412, 414.258
564.732, 264.807
566.051, 265.330
567.370, 426.109
568.689, 156.594
570.008, 337.059
571.326, 217.498
572.644, 377.922
573.963, 418.322
575.280, 428.701
576.598, 599.062
577.915, 439.400
579.233, 519.719
580.550, 402.373
581.866, 502.646
583.183, 262.900
584.499, 341.844
585.815, 20.301
587.131, 230.467
588.447, 203.967
589.763, 64.092
591.078, 28.920
592.393, 38.975
593.708, 8.691
595.022, 135.719
596.337, 95.670
597.651, 64.402
598.965, 14.871
600.279, 204.674
601.593, 4.451
602.906, 54.182
604.219, 66.119
605.532, 26.504
606.845, 113.047
608.158, 112.578
609.470, 12.086
610.782, 118.449
612.094, 40.904
613.406, 60.221
614.718, 139.514
616.029, 128.783
617.340, 132.264
618.651, 17.264
619.962, 76.451
621.272, 95.617
622.582, 34.758
623.892, 173.869
625.202, 242.957
626.512, 112.025
627.821, 201.076
629.131, 380.105
630.440, 399.113
631.749, 308.105
633.057, 287.074
634.366, 176.025
635.674, 254.957
636.982, 423.869
638.290, 382.760
639.597, 301.633
640.905, 300.486
642.212, 229.322
643.519, 418.137
644.825, 416.934
646.132, 485.709
647.438, 284.469
648.744, 513.209
650.050, 301.930
651.356, 210.633
652.662, 239.316
653.967, 147.982
655.272, 196.631
656.577, 65.258
657.882, 113.869
659.186, 172.459
660.490, 211.031
661.794, 10.414
663.098, 48.096
664.402, 86.588
665.705, 285.059
667.009, 3.514
668.312, 28.064
669.614, 20.305
670.917, 61.354
672.219, 166.922
673.522, 95.182
674.824, 56.574
676.125, 211.604
677.427, 40.209
678.728, 197.953
680.030, 43.900
681.331, 54.232
682.631, 122.357
683.932, 60.469
685.232, 48.564
686.532, 63.350
687.832, 35.330
689.132, 172.654
690.432, 100.641
691.731, 58.627
693.030, 6.609
694.329, 42.625
695.628, 21.338
696.926, 16.475
698.224, 43.230
699.522, 61.164
700.820, 114.834
702.118, 162.752
703.415, 180.664
704.713, 163.850
706.010, 66.445
707.307, 107.736
708.603, 75.594
709.900, 73.439
711.196, 31.270
712.492, 43.408
713.788, 179.727
715.083, 37.518
716.379, 297.656
717.674, 255.422
718.969, 323.178
720.264, 270.918
721.558, 228.648
722.853, 16.367
724.147, 154.072
725.441, 171.766
726.735, 169.445
728.028, 357.117
729.322, 214.777
730.615, 152.426
731.908, 200.066
733.201, 37.699
734.493, 275.320
735.785, 27.070
737.078, 250.510
738.370, 418.080
739.661, 95.641
740.953, 213.201
742.244, 147.934
743.535, 105.486
744.826, 213.059
746.117, 289.574
747.407, 195.061
748.698, 290.930
749.988, 325.449
751.278, 393.025
752.567, 390.369
753.857, 510.422
755.146, 555.381
756.435, 912.938
757.724, 1147.332
759.013, 1573.787
760.301, 1813.768
761.590, 1876.248
762.878, 2003.754
764.165, 1921.256
765.453, 1466.137
766.741, 1352.895
768.028, 1049.000
769.315, 825.672
770.602, 573.195
771.888, 430.717
773.175, 538.242
774.461, 443.502
775.747, 560.590
777.033, 567.982
778.319, 374.016
779.604, 361.539
780.889, 229.062
782.174, 226.586
783.459, 184.111
784.744, 221.639
786.028, 339.168
787.312, 306.697
788.596, 134.229
789.880, 241.764
791.164, 39.299
792.447, 236.838
793.730, 214.379
795.013, 211.920
796.296, 319.467
797.579, 267.016
798.861, 264.570
800.143, 272.127
801.425, 309.688
802.707, 364.762
803.989, 554.818
805.270, 482.391
806.551, 679.969
807.832, 677.549
809.113, 1085.137
810.394, 1532.730
811.674, 2070.084
812.954, 2357.684
814.234, 2525.293
815.514, 2122.906
816.794, 1667.602
818.073, 1684.777
819.352, 1152.406
820.631, 830.047
821.910, 785.789
823.189, 499.590
824.467, 436.199
825.745, 528.004
827.023, 165.684
828.301, 393.367
829.578, 305.625
830.856, 213.332
832.133, 336.715
833.410, 94.441
834.687, 217.699
835.963, 215.359
837.240, 73.117
838.516, 170.863
839.792, 188.539
841.068, 240.840
842.343, 84.953
843.618, 352.770
844.894, 150.594
846.169, 168.434
847.443, 104.617
848.718, 99.176
849.992, 85.645
851.266, 219.785
852.540, 137.598
853.814, 174.527
855.088, 333.312
856.361, 71.168
857.634, 19.035
858.907, 76.918
860.180, 125.184
861.453, 92.695
862.725, 50.590
863.997, 28.500
865.269, 146.301
866.541, 115.766
867.812, 162.164
869.084, 99.926
870.355, 228.016
871.626, 65.984
872.897, 223.969
874.167, 161.973
875.438, 167.352
876.708, 207.895
877.978, 176.016
879.248, 104.160
880.517, 72.316
881.787, 60.492
883.056, 108.691
884.325, 46.902
885.594, 185.145
886.862, 223.398
888.130, 121.699
889.399, 127.668
890.667, 96.012
891.934, 154.375
893.202, 162.754
894.469, 311.156
895.737, 139.594
897.004, 328.051
898.270, 216.527
899.537, 245.031
900.803, 203.566
902.070, 198.258
903.336, 170.727
904.601, 239.352
905.867, 227.992
907.132, 286.688
908.398, 95.414
909.663, 154.164
910.928, 252.949
912.192, 151.754
913.457, 450.617
914.721, 349.520
915.985, 368.445
917.249, 287.387
918.512, 256.363
919.776, 225.402
921.039, 304.469
922.302, 273.562
923.565, 304.020
924.827, 271.816
926.090, 300.973
927.352, 250.160
928.614, 283.008
929.876, 327.996
931.138, 337.848
932.399, 337.121
933.660, 376.414
934.922, 135.727
936.182, 445.059
937.443, 304.410
938.704, 103.781
939.964, 413.176
941.224, 462.586
942.484, 502.020
943.744, 121.477
945.003, 390.953
946.262, 200.449
947.521, 339.969
948.780, 359.508
950.039, 439.070
951.298, 457.855
952.556, 368.266
953.814, 387.895
955.072, 487.547
956.330, 307.223
957.587, 136.922
958.845, 406.645
960.102, 366.387
961.359, 466.156
962.615, 495.949
963.872, 315.770
965.128, 485.613
966.384, 265.477
967.640, 435.367
968.896, 595.297
970.152, 685.254
971.407, 1035.242
972.662, 925.246
973.917, 1015.293
975.172, 1455.375
976.427, 1255.496
977.681, 1405.664
978.935, 1425.863
980.189, 896.090
981.443, 1126.367
982.697, 796.672
983.950, 717.020
985.203, 827.391
986.456, 437.816
987.709, 498.266
988.962, 508.762
990.214, 209.266
991.467, 589.793
992.719, 410.375
993.971, 660.996
995.222, 521.648
996.474, 432.332
997.725, 623.672
998.976, 351.633
1000.227, 752.418
1001.478, 701.238
1002.728, 632.102
1003.978, 962.996
1005.229, 498.172
1006.479, 509.121
1007.728, 660.109
1008.978, 551.121
1010.227, 862.164
1011.476, 729.820
1012.725, 860.922
1013.974, 812.059
1015.223, 813.227
1016.471, 794.426
1017.719, 772.680
1018.967, 433.945
1020.215, 742.887
1021.462, 506.891
1022.710, 878.254
1023.957, 739.652
1025.204, 686.977
1026.451, 918.441
1027.697, 1009.941
1028.944, 961.570
1030.190, 983.145
1031.436, 1104.754
1032.682, 1052.902
1033.928, 1058.082
1035.173, 1000.992
1036.418, 972.750
1037.663, 839.801
1038.908, 772.547
1040.153, 754.418
1041.398, 846.328
1042.642, 868.270
1043.886, 837.020
1045.130, 832.285
1046.374, 774.352
1047.617, 776.465
1048.860, 768.617
1050.104, 820.855
1051.347, 723.250
1052.589, 805.473
1053.832, 727.383
1055.074, 459.320
1056.316, 501.281
1057.558, 413.266
1058.800, 545.230
1060.042, 547.043
1061.283, 628.859
1062.524, 610.672
1063.765, 532.484
1065.006, 494.281
1066.247, 656.059
1067.487, 387.836
1068.728, 599.566
1069.968, 491.285
1071.208, 464.016
1072.447, 465.719
1073.687, 457.426
1074.926, 619.133
1076.165, 660.852
1077.404, 532.438
1078.643, 853.996
1079.881, 605.520
1081.120, 497.062
1082.358, 748.797
1083.596, 800.578
1084.834, 672.398
1086.071, 714.262
1087.309, 666.168
1088.546, 998.117
1089.783, 990.109
1091.020, 1032.145
1092.256, 1294.227
1093.493, 1266.348
1094.729, 1478.516
1095.965, 1660.723
1097.201, 1762.980
1098.436, 2095.281
1099.672, 1567.625
1100.907, 1620.012
1102.142, 1622.449
1103.377, 1064.926
1104.612, 1377.453
1105.846, 1260.023
1107.081, 852.629
1108.315, 895.289
1109.549, 947.984
1110.782, 900.730
1112.016, 1013.512
1113.249, 806.340
1114.483, 859.219
1115.716, 922.168
1116.948, 645.176
1118.181, 888.289
1119.413, 681.441
1120.646, 1064.672
1121.878, 827.961
1123.110, 471.293
1124.341, 724.711
1125.573, 468.191
1126.804, 111.695
1128.035, 435.047
1129.266, 158.441
1130.497, 231.875
1131.727, 275.344
1132.957, 198.840
1134.188, 372.289
1135.418, 365.770
1136.647, 0.715
1137.877, 202.832
1139.106, 156.406
1140.335, 370.016
1141.564, 403.652
1142.793, 37.328
1144.022, 631.047
1145.250, 25.184
1146.479, 408.633
1147.707, 322.500
1148.934, 446.414
1150.162, 420.383
1151.390, 304.398
1152.617, 278.484
1153.844, 632.633
1155.071, 86.859
1156.298, 201.160
1157.524, 395.535
1158.751, 79.988
1159.977, 404.523
1161.203, 159.141
1162.428, 243.840
1163.654, 568.613
1164.879, 53.473
1166.105, 218.418
1167.330, 263.434
1168.555, 31.461
1169.779, 313.734
1171.004, 339.016
1172.228, 235.617
1173.452, 429.836
1174.676, 235.383
1175.900, 41.012
1177.123, 406.727
1178.346, 132.527
1179.570, 478.430
1180.793, 134.434
1182.015, 20.551
1183.238, 466.711
1184.460, 56.934
1185.683, 359.547
1186.905, 353.887
1188.126, 170.570
1189.348, 317.395
1190.569, 244.367
1191.791, 191.500
1193.012, 468.789
1194.233, 186.238
1195.453, 313.863
1196.674, 151.660
1197.894, 139.645
1199.114, 264.234
1200.334, 277.617
1201.554, 215.984
1202.774, 514.828
1203.993, 138.277
1205.212, 273.684
1206.431, 263.727
1207.650, 102.852
1208.869, 390.977
1210.087, 267.762
1211.305, 362.863
1212.524, 335.395
1213.741, 34.605
1214.959, 240.785
1216.177, 405.250
1217.394, 8.969
1218.611, 148.418
1219.828, 115.734
1221.045, 153.703
1222.261, 314.039
1223.478, 161.328
1224.694, 332.133
1225.910, 100.219
1227.126, 0.000
##END=



