##NAMES=Albite
##RRUFFID=R050253
##IDEAL CHEMISTRY=NaAlSi_3_O_8_
##LOCALITY=Madawaska/Faraday mine, Bancroft, Ontario, Canada
##OWNER=RRUFF
##SOURCE=Marcus Origlieri
##DESCRIPTION=Colorless to brown prismatic single crystals
##STATUS=The identification of this mineral has been confirmed by X-ray diffraction and chemical analysis
##URL=rruff.info/R050253
##MEASURED CHEMISTRY=(Na_0.99_Ca_0.01_)Al_1.00_(Si_0.99_Al_0.01_)_3_O_8_
##PIN_ID=L01462
##ORIENTATION=Laser parallel to (1 0 1). Fiducial mark perpendicular to laser is parallel to b [0 1 0]
94.71400, 0.0000000E+00
95.94800, 331.8828
97.18200, 17.13086
98.41600, 47.66504
99.64900, 240.0537
100.8830, 244.4678
102.1160, 383.0195
103.3490, 828.3613
104.5820, 1084.108
105.8150, 1593.510
107.0470, 1901.229
108.2800, 2566.205
109.5120, 3251.588
110.7440, 3691.687
111.9760, 3429.934
113.2080, 3138.889
114.4400, 2559.195
115.6710, 2449.522
116.9030, 1765.578
118.1340, 1264.097
119.3650, 832.8516
120.5960, 660.6367
121.8270, 386.2754
123.0580, 381.6143
124.2880, 335.5137
125.5190, 468.8525
126.7490, 324.5225
127.9790, 420.4473
129.2090, 567.6025
130.4390, 704.9746
131.6680, 965.5518
132.8980, 1038.241
134.1270, 1158.931
135.3560, 1663.520
136.5850, 2075.930
137.8140, 2547.092
139.0430, 3149.949
140.2710, 3920.451
141.5000, 4762.560
142.7280, 5633.230
143.9560, 6263.434
145.1840, 7137.141
146.4120, 8028.316
147.6390, 8829.946
148.8670, 9248.003
150.0940, 9274.464
151.3210, 8914.311
152.5490, 7890.527
153.7750, 6675.092
155.0020, 5707.994
156.2290, 4599.219
157.4550, 3970.750
158.6810, 4000.581
159.9080, 3740.926
161.1340, 4021.843
162.3590, 4100.488
163.5850, 4227.990
164.8110, 4348.117
166.0360, 4370.113
167.2610, 4713.940
168.4860, 4715.084
169.7110, 4817.064
170.9360, 5250.018
172.1610, 5297.859
173.3850, 5510.615
174.6100, 5845.314
175.8340, 5948.985
177.0580, 6450.646
178.2820, 6867.314
179.5050, 7452.002
180.7290, 8261.724
181.9520, 9057.484
183.1760, 9467.290
184.3990, 9499.150
185.6220, 9543.071
186.8450, 9082.055
188.0670, 8370.104
189.2900, 7742.221
190.5120, 7011.408
191.7340, 6004.666
192.9560, 5447.998
194.1780, 4855.401
195.4000, 4654.878
196.6220, 4370.430
197.8430, 4546.052
199.0640, 4696.749
200.2860, 5126.518
201.5070, 5814.359
202.7270, 6247.271
203.9480, 7051.254
205.1690, 7542.305
206.3890, 8244.423
207.6090, 8371.604
208.8290, 8283.854
210.0490, 7968.165
211.2690, 6721.541
212.4890, 5569.977
213.7080, 4597.473
214.9280, 3355.029
216.1470, 2571.643
217.3660, 2048.314
218.5850, 1318.043
219.8030, 1153.824
221.0220, 1049.658
222.2400, 766.6553
223.4590, 523.1357
224.6770, 417.2158
225.8950, 348.3594
227.1120, 201.4941
228.3300, 214.2402
229.5480, 162.6660
230.7650, 125.3418
231.9820, 56.59375
233.1990, 130.9922
234.4160, 267.6875
235.6330, 293.7988
236.8490, 328.0117
238.0660, 178.5840
239.2820, 285.3828
240.4980, 239.1152
241.7140, 447.0195
242.9300, 495.9961
244.1460, 613.9141
245.3610, 1058.168
246.5770, 882.4023
247.7920, 1347.645
249.0070, 1383.420
250.2220, 1724.666
251.4370, 1784.336
252.6510, 1716.387
253.8660, 1725.785
255.0800, 1620.500
256.2940, 1414.506
257.5080, 1689.779
258.7220, 1674.303
259.9360, 2035.059
261.1490, 2569.027
262.3630, 2583.199
263.5760, 2926.557
264.7890, 3386.094
266.0020, 3839.795
267.2150, 4400.652
268.4270, 4527.658
269.6400, 4547.803
270.8520, 4103.080
272.0640, 3832.482
273.2760, 3383.004
274.4880, 3174.639
275.7000, 2695.381
276.9120, 2872.225
278.1230, 2937.164
279.3340, 3386.193
280.5450, 3801.311
281.7560, 4699.508
282.9670, 5501.783
284.1780, 6592.133
285.3880, 7773.555
286.5980, 9115.047
287.8090, 10357.60
289.0190, 11182.22
290.2290, 11592.90
291.4380, 11062.63
292.6480, 9723.422
293.8570, 8545.266
295.0670, 7036.160
296.2760, 5594.105
297.4850, 4253.098
298.6930, 3120.135
299.9020, 2652.219
301.1110, 2213.342
302.3190, 1726.508
303.5270, 1314.711
304.7350, 1049.953
305.9430, 842.6797
307.1510, 956.5391
308.3580, 692.8789
309.5660, 773.2422
310.7730, 829.6289
311.9800, 560.0312
313.1870, 577.4492
314.3940, 645.8809
315.6010, 562.3242
316.8070, 706.7832
318.0130, 749.2812
319.2200, 1034.805
320.4260, 1449.344
321.6310, 1531.900
322.8370, 1706.473
324.0430, 2085.070
325.2480, 2838.691
326.4540, 3205.324
327.6590, 3546.973
328.8640, 3786.633
330.0680, 3679.311
331.2730, 2530.010
332.4780, 1969.723
333.6820, 1438.449
334.8860, 1008.186
336.0900, 806.9355
337.2940, 519.6953
338.4980, 339.4668
339.7010, 148.2480
340.9050, 80.36914
342.1080, 360.8379
343.3110, 24.64648
344.5140, 139.4648
345.7170, 98.29102
346.9200, 6.126953
348.1220, 54.96680
349.3240, 23.16797
350.5270, 45.34180
351.7290, 51.50391
352.9310, 124.6777
354.1320, 25.87500
355.3340, 26.07812
356.5350, 61.28711
357.7370, 73.50977
358.9380, 78.75195
360.1390, 179.0117
361.3400, 42.31641
362.5400, 36.63281
363.7410, 84.96484
364.9410, 196.3203
366.1410, 131.7266
367.3410, 240.1699
368.5410, 37.69922
369.7410, 29.30078
370.9400, 128.9375
372.1400, 10.34375
373.3390, 206.4590
374.5380, 158.3496
375.7370, 150.3711
376.9360, 166.5430
378.1350, 135.7988
379.3330, 187.1406
380.5310, 253.6445
381.7300, 54.68359
382.9280, 45.91602
384.1260, 146.9219
385.3230, 78.14844
386.5210, 9.261719
387.7180, 62.59961
388.9160, 51.47266
390.1130, 19.12109
391.3100, 141.7656
392.5060, 229.9219
393.7030, 352.4824
394.9000, 518.3066
396.0960, 640.5332
397.2920, 808.2930
398.4880, 1028.072
399.6840, 1064.367
400.8800, 1324.682
402.0750, 1376.025
403.2710, 1590.412
404.4660, 1908.812
405.6610, 2044.252
406.8560, 2564.711
408.0510, 2798.201
409.2450, 2661.725
410.4400, 2611.254
411.6340, 2628.816
412.8280, 2815.385
414.0220, 3093.959
415.2160, 3239.553
416.4100, 3187.152
417.6030, 2680.805
418.7970, 2287.477
419.9900, 1700.154
421.1830, 1277.834
422.3760, 1032.529
423.5690, 637.2812
424.7610, 451.0332
425.9540, 308.8066
427.1460, 470.5781
428.3380, 511.3750
429.5300, 204.1680
430.7220, 421.9688
431.9140, 304.7676
433.1050, 180.5898
434.2970, 438.4082
435.4880, 565.2246
436.6790, 532.0391
437.8700, 410.8457
439.0610, 797.6504
440.2510, 860.4512
441.4420, 1193.248
442.6320, 1245.039
443.8220, 1585.828
445.0120, 1965.613
446.2020, 2358.393
447.3910, 2825.168
448.5810, 3629.934
449.7700, 4619.703
450.9600, 5230.469
452.1490, 6317.225
453.3370, 7223.975
454.5260, 7809.746
455.7150, 8100.484
456.9030, 8149.215
458.0910, 7564.938
459.2800, 6526.652
460.4670, 6064.105
461.6550, 5496.043
462.8430, 5016.734
464.0300, 5212.273
465.2180, 5439.945
466.4050, 6085.893
467.5920, 7285.836
468.7790, 9203.480
469.9650, 11495.12
471.1520, 14458.74
472.3380, 17556.35
473.5250, 20511.51
474.7110, 24090.11
475.8970, 27702.72
477.0820, 30047.30
478.2680, 31061.87
479.4540, 29404.42
480.6390, 25833.96
481.8240, 21652.49
483.0090, 17367.01
484.1940, 13963.53
485.3780, 10971.02
486.5630, 8616.514
487.7470, 7348.992
488.9320, 6621.459
490.1160, 5997.816
491.3000, 5611.260
492.4830, 5809.270
493.6670, 6323.105
494.8500, 7252.531
496.0340, 8596.988
497.2170, 10632.51
498.4000, 13239.92
499.5820, 16484.47
500.7650, 20621.25
501.9480, 24551.64
503.1300, 28511.46
504.3120, 32841.59
505.4940, 35987.93
506.6760, 37150.54
507.8580, 35389.86
509.0390, 32134.72
510.2210, 27231.23
511.4020, 21921.01
512.5830, 16982.15
513.7640, 13400.78
514.9450, 10485.81
516.1250, 8574.738
517.3060, 6930.379
518.4860, 5792.398
519.6660, 4784.375
520.8460, 3973.066
522.0260, 3539.672
523.2060, 3274.301
524.3850, 2838.338
525.5650, 2486.139
526.7440, 2192.818
527.9230, 1953.031
529.1020, 1740.047
530.2810, 1611.014
531.4590, 1485.939
532.6380, 1419.549
533.8160, 1486.762
534.9940, 1370.168
536.1720, 1131.379
537.3500, 960.5879
538.5270, 1122.471
539.7050, 1012.049
540.8820, 1034.416
542.0590, 724.0898
543.2360, 882.6055
544.4130, 560.9707
545.5900, 699.2109
546.7660, 585.4961
547.9430, 736.2695
549.1190, 569.1055
550.2950, 685.5918
551.4710, 477.8906
552.6470, 546.7598
553.8220, 720.2148
554.9980, 524.7520
556.1730, 584.5371
557.3480, 332.2969
558.5230, 516.7559
559.6980, 403.1094
560.8730, 625.6094
562.0470, 452.7930
563.2220, 416.2266
564.3960, 446.6895
565.5700, 515.7930
566.7440, 558.7129
567.9170, 712.7207
569.0910, 763.7773
570.2640, 877.8496
571.4380, 1072.590
572.6110, 1205.297
573.7840, 1146.242
574.9570, 1465.287
576.1290, 1575.324
577.3020, 1439.447
578.4740, 1442.471
579.6460, 1533.486
580.8180, 1416.564
581.9900, 1056.588
583.1620, 905.3926
584.3330, 798.3984
585.5040, 801.2871
586.6760, 692.0527
587.8470, 400.2500
589.0180, 520.3281
590.1880, 347.2656
591.3590, 115.2188
592.5290, 101.1680
593.7000, 156.1074
594.8700, 71.00195
596.0400, 238.4863
597.2090, 81.49414
598.3790, 209.3906
599.5490, 228.2773
600.7180, 65.84766
601.8870, 10.03711
603.0560, 250.7383
604.2250, 16.50391
605.3940, 224.2520
606.5620, 11.01367
607.7300, 4.687500
608.8990, 170.3652
610.0670, 150.0332
611.2350, 95.72070
612.4020, 205.3984
613.5700, 15.93750
614.7370, 351.7285
615.9050, 72.38867
617.0720, 155.0449
618.2390, 294.6875
619.4060, 204.3223
620.5720, 414.9453
621.7390, 203.5586
622.9050, 420.1602
624.0710, 294.7520
625.2370, 312.3281
626.4030, 409.9023
627.5690, 257.4590
628.7340, 337.0098
629.9000, 453.5508
631.0650, 319.0820
632.2300, 402.6172
633.3950, 691.1465
634.5600, 623.6875
635.7240, 580.2305
636.8890, 321.8184
638.0530, 716.4062
639.2170, 538.0000
640.3810, 799.6055
641.5450, 781.2168
642.7080, 684.8398
643.8720, 807.4980
645.0350, 836.1621
646.1980, 988.8281
647.3610, 828.5059
648.5240, 621.2266
649.6870, 790.9863
650.8490, 602.7969
652.0120, 484.6152
653.1740, 481.4629
654.3360, 303.9414
655.4980, 332.2344
656.6600, 119.1641
657.8210, 223.1406
658.9830, 264.1523
660.1440, 333.2383
661.3050, 259.3555
662.4660, 179.5293
663.6270, 198.7598
664.7870, 121.9805
665.9480, 94.18945
667.1080, 241.4336
668.2680, 51.66211
669.4280, 219.8809
670.5880, 105.1152
671.7480, 321.3574
672.9070, 410.5938
674.0670, 77.81641
675.2260, 254.0234
676.3850, 107.2129
677.5440, 12.61133
678.7030, 68.52344
679.8610, 89.63867
681.0200, 62.73633
682.1780, 21.18555
683.3360, 82.15625
684.4940, 110.7969
685.6520, 80.26953
686.8090, 9.585938
687.9670, 56.58984
689.1240, 50.83398
690.2810, 106.8613
691.4380, 56.46094
692.5950, 89.14648
693.7520, 81.73633
694.9080, 22.69531
696.0650, 64.82227
697.2210, 144.6816
698.3770, 31.29883
699.5330, 86.02734
700.6880, 130.3320
701.8440, 16.38086
702.9990, 176.1387
704.1550, 169.9688
705.3100, 44.93945
706.4650, 154.0879
707.6190, 51.90234
708.7740, 152.0430
709.9290, 13.96875
711.0830, 93.85938
712.2370, 59.89648
713.3910, 166.9023
714.5450, 198.9160
715.6980, 142.2246
716.8520, 214.9707
718.0050, 213.6973
719.1580, 159.6699
720.3110, 278.5566
721.4640, 68.78320
722.6170, 249.9551
723.7700, 61.74219
724.9220, 206.3418
726.0740, 355.1289
727.2260, 150.7285
728.3780, 12.41211
729.5300, 241.6660
730.6810, 368.0996
731.8330, 312.8359
732.9840, 197.3125
734.1350, 93.27344
735.2860, 160.4414
736.4370, 282.5664
737.5880, 352.9336
738.7380, 494.3691
739.8880, 682.9492
741.0390, 635.0527
742.1890, 588.3438
743.3380, 596.3164
744.4880, 936.6504
745.6380, 947.8750
746.7870, 1054.541
747.9360, 1044.949
749.0850, 1262.691
750.2340, 1498.852
751.3830, 2045.994
752.5310, 2553.738
753.6800, 3232.789
754.8280, 4098.041
755.9760, 4870.953
757.1240, 6148.996
758.2720, 7161.604
759.4190, 8478.098
760.5670, 9907.109
761.7140, 10965.35
762.8610, 11301.30
764.0080, 11066.36
765.1550, 9696.266
766.3020, 8163.150
767.4480, 6749.559
768.5950, 5633.404
769.7410, 4367.154
770.8870, 3649.158
772.0330, 3183.496
773.1780, 2984.990
774.3240, 2455.189
775.4690, 2061.916
776.6140, 2069.082
777.7590, 1699.977
778.9040, 1487.641
780.0490, 1375.686
781.1940, 1373.307
782.3380, 1216.906
783.4820, 1000.744
784.6260, 963.3008
785.7700, 781.8359
786.9140, 854.9141
788.0580, 768.4062
789.2010, 747.2266
790.3450, 806.7344
791.4880, 793.1055
792.6310, 843.5059
793.7730, 913.8789
794.9160, 820.1797
796.0590, 911.7832
797.2010, 772.5566
798.3430, 947.8340
799.4850, 1151.664
800.6270, 1210.891
801.7690, 1699.092
802.9100, 1725.266
804.0520, 2053.465
805.1930, 2729.586
806.3340, 3256.236
807.4750, 4260.305
808.6160, 5393.352
809.7560, 6503.750
810.8970, 7687.742
812.0370, 8990.512
813.1770, 10054.45
814.3170, 10715.36
815.4570, 10505.57
816.5960, 9406.055
817.7360, 8166.729
818.8750, 6806.062
820.0140, 5201.529
821.1530, 4289.121
822.2920, 3129.807
823.4310, 2582.422
824.5690, 1953.523
825.7070, 1545.533
826.8460, 1597.861
827.9840, 1184.355
829.1220, 988.2480
830.2590, 1004.529
831.3970, 804.6953
832.5340, 754.5898
833.6710, 842.4805
834.8080, 651.6426
835.9450, 564.8867
837.0820, 526.9492
838.2190, 473.3066
839.3550, 307.3848
840.4910, 205.4004
841.6270, 286.7500
842.7630, 445.9473
843.8990, 368.2598
845.0350, 455.9648
846.1700, 387.2324
847.3060, 243.8086
848.4410, 25.32617
849.5760, 390.6797
850.7100, 110.8477
851.8450, 0.9941410
852.9800, 318.0234
854.1140, 316.1191
855.2480, 74.80469
856.3820, 117.1523
857.5160, 48.13477
858.6500, 51.30469
859.7830, 124.2461
860.9170, 203.2734
862.0500, 112.1758
863.1830, 152.0605
864.3160, 126.8125
865.4480, 5.320313
866.5810, 8.492188
867.7130, 93.27930
868.8460, 150.0469
869.9780, 38.79883
871.1100, 158.9883
872.2410, 44.59570
873.3730, 163.2891
874.5050, 132.9629
875.6360, 177.6211
876.7670, 144.8418
877.8980, 154.6621
879.0290, 33.59766
880.1590, 131.2285
881.2900, 85.84180
882.4200, 12.44922
883.5500, 98.03906
884.6800, 102.3867
885.8100, 194.1055
886.9400, 181.5820
888.0690, 128.9551
889.1990, 88.42188
890.3280, 27.21680
891.4570, 324.1055
892.5860, 218.4121
893.7140, 20.70117
894.8430, 30.97266
895.9710, 134.2227
897.1000, 73.45898
898.2280, 197.6797
899.3560, 4.091797
900.4830, 175.1113
901.6110, 285.3105
902.7380, 11.50781
903.8660, 157.6445
904.9930, 34.20312
906.1200, 86.90820
907.2460, 12.99805
908.3730, 1.066406
909.5000, 75.88867
910.6260, 170.0918
911.7520, 28.92773
912.8780, 78.01367
914.0040, 191.9414
915.1290, 29.87695
916.2550, 219.7988
917.3800, 266.7051
918.5050, 61.59766
919.6300, 277.4746
920.7550, 159.3418
921.8800, 49.80469
923.0040, 140.0039
924.1290, 34.80273
925.2530, 89.41602
926.3770, 58.69922
927.5010, 146.9727
928.6250, 157.6348
929.7480, 42.71875
930.8720, 46.89648
931.9950, 147.5078
933.1180, 270.0000
934.2410, 54.50781
935.3640, 156.9453
936.4860, 157.3887
937.6090, 130.8223
938.7310, 92.24414
939.8530, 105.6562
940.9750, 271.0605
942.0970, 107.4648
943.2180, 238.8594
944.3400, 7.242188
945.4610, 207.6133
946.5820, 181.9785
947.7030, 364.3320
948.8240, 352.6738
949.9450, 465.0078
951.0650, 485.9766
952.1860, 602.6914
953.3060, 516.0293
954.4260, 488.3672
955.5460, 537.7090
956.6650, 457.1328
957.7850, 565.5469
958.9040, 398.0332
960.0230, 556.5195
961.1420, 249.0234
962.2610, 353.5566
963.3800, 490.0879
964.4990, 244.6348
965.6170, 446.1738
966.7350, 404.7109
967.8530, 512.2559
968.9710, 363.8164
970.0890, 660.4160
971.2070, 510.0273
972.3240, 614.6348
973.4410, 713.2363
974.5580, 702.8457
975.6750, 720.5059
976.7920, 936.1602
977.9090, 726.8320
979.0250, 819.4980
980.1410, 945.1855
981.2580, 630.8633
982.3740, 703.5449
983.4890, 603.8535
984.6050, 514.5527
985.7200, 595.0137
986.8360, 490.1582
987.9510, 503.5820
989.0660, 505.0723
990.1810, 476.9336
991.2950, 525.4082
992.4100, 503.5176
993.5240, 586.6602
994.6390, 525.1641
995.7530, 674.8398
996.8660, 802.3086
997.9800, 496.9414
999.0940, 1081.469
1000.207, 1216.395
1001.320, 998.1230
1002.433, 1205.525
1003.546, 1562.166
1004.659, 1772.268
1005.772, 1655.930
1006.884, 1819.092
1007.996, 1763.750
1009.108, 1794.318
1010.220, 1667.973
1011.332, 1949.594
1012.444, 1828.246
1013.555, 1721.332
1014.666, 1795.898
1015.777, 1573.270
1016.888, 1374.172
1017.999, 1404.598
1019.110, 755.6758
1020.220, 1051.312
1021.331, 810.9453
1022.441, 525.4023
1023.551, 865.8008
1024.661, 662.6836
1025.770, 698.3164
1026.880, 323.9570
1027.989, 659.0078
1029.098, 681.1562
1030.207, 756.7656
1031.316, 716.2930
1032.425, 834.1914
1033.533, 560.7070
1034.642, 608.1875
1035.750, 608.8242
1036.858, 765.9258
1037.966, 723.1406
1039.073, 546.1562
1040.181, 666.6016
1041.288, 624.6953
1042.396, 514.6094
1043.503, 803.7969
1044.610, 935.7422
1045.716, 814.9258
1046.823, 959.3633
1047.929, 678.8320
1049.036, 1026.273
1050.142, 680.0000
1051.248, 629.6562
1052.353, 702.0547
1053.459, 533.7188
1054.564, 564.3828
1055.670, 515.4805
1056.775, 355.1523
1057.880, 382.4727
1058.985, 408.1602
1060.089, 492.6211
1061.194, 461.9805
1062.298, 315.1055
1063.402, 393.2852
1064.506, 440.7031
1065.610, 331.9297
1066.713, 507.7109
1067.817, 329.8398
1068.920, 263.1992
1070.023, 318.9727
1071.126, 495.6914
1072.229, 489.9141
1073.332, 429.5234
1074.435, 592.0977
1075.537, 610.8359
1076.639, 560.6250
1077.741, 855.9883
1078.843, 903.8086
1079.945, 921.5703
1081.046, 1240.375
1082.148, 1112.145
1083.249, 1093.922
1084.350, 1337.824
1085.451, 1980.609
1086.551, 2074.422
1087.652, 2368.219
1088.752, 2885.129
1089.853, 3122.934
1090.953, 3813.297
1092.053, 4377.113
1093.152, 5375.930
1094.252, 6199.418
1095.351, 7080.242
1096.451, 7944.066
1097.550, 8431.895
1098.649, 8694.656
1099.748, 8921.773
1100.846, 8476.113
1101.945, 8189.984
1103.043, 7395.824
1104.141, 6426.672
1105.239, 5794.555
1106.337, 5214.453
1107.434, 4439.477
1108.532, 4033.332
1109.629, 3904.184
1110.726, 3507.047
1111.823, 3646.910
1112.920, 3541.078
1114.017, 3317.012
1115.113, 3210.883
1116.210, 3104.766
1117.306, 3099.648
1118.402, 2879.547
1119.498, 2391.445
1120.593, 2358.355
1121.689, 1980.262
1122.784, 1781.398
1123.879, 1647.344
1124.974, 1376.285
1126.069, 1403.664
1127.164, 1363.371
1128.259, 1071.320
1129.353, 785.2734
1130.447, 760.5742
1131.541, 674.5430
1132.635, 383.0000
1133.729, 343.9922
1134.822, 377.0039
1135.916, 186.0156
1137.009, 501.0469
1138.102, 350.0781
1139.195, 532.1172
1140.288, 457.1602
1141.380, 414.2578
1142.473, 313.3086
1143.565, 368.3594
1144.657, 406.4102
1145.749, 342.4648
1146.841, 594.5234
1147.932, 443.5820
1149.024, 605.6523
1150.115, 444.7188
1151.206, 646.9297
1152.297, 628.0352
1153.388, 525.1484
1154.479, 724.2969
1155.569, 329.7383
1156.659, 539.8984
1157.750, 170.4219
1158.839, 386.5898
1159.929, 106.7617
1161.019, 58.93359
1162.108, 3.160156
1163.198, 99.60938
1164.287, 40.57812
1165.376, 39.35156
1166.465, 267.9492
1167.553, 48.12500
1168.642, 58.67969
1169.730, 175.4922
1170.818, 240.6758
1171.906, 225.8633
1172.994, 64.06250
1174.082, 408.2656
1175.170, 46.50781
1176.257, 66.72266
1177.344, 290.9766
1178.431, 88.76953
1179.518, 8.472656
1180.605, 37.67969
1181.691, 126.8828
1182.778, 126.7188
1183.864, 64.93750
1184.950, 428.2227
1186.036, 129.4531
1187.122, 227.7383
1188.207, 297.0195
1189.292, 162.3320
1190.378, 12.32422
1191.463, 108.0234
1192.548, 36.37109
1193.632, 2.292969
1194.717, 71.05469
1195.801, 146.4062
1196.886, 48.79688
1197.970, 286.1875
1199.054, 6.414063
1200.137, 57.97656
1201.221, 275.3633
1202.305, 196.7773
1203.388, 0.1914060
1204.471, 30.40234
1205.554, 252.9805
1206.637, 68.36719
1207.719, 189.7500
1208.802, 65.13281
1209.884, 204.5078
1210.966, 72.89062
1212.048, 186.5625
1213.130, 236.4570
1214.212, 50.17188
1215.293, 123.1875
1216.374, 10.46484
1217.456, 208.8750
1218.536, 207.7930
1219.617, 170.4258
1220.698, 182.3555
1221.778, 163.7930
1222.859, 174.0000
1223.939, 55.89453
1225.019, 197.1680
1226.099, 200.2305
1227.178, 208.2852
1228.258, 331.3359
1229.337, 50.39062
1230.417, 51.56641
1231.496, 96.44141
1232.574, 271.4414
1233.653, 200.4414
1234.732, 98.57031
1235.810, 95.94531
1236.888, 68.13281
1237.966, 162.1133
1239.044, 240.0820
1240.122, 301.0430
1241.199, 129.0039
1242.277, 39.95312
1243.354, 98.89844
1244.431, 236.1680
1245.508, 203.1406
1246.585, 241.7148
1247.661, 268.1055
1248.738, 235.5273
1249.814, 257.4375
1250.890, 296.6055
1251.966, 75.45312
1253.042, 276.3359
1254.117, 289.2070
1255.193, 22.07812
1256.268, 33.07422
1257.343, 290.7461
1258.418, 143.5547
1259.493, 46.35547
1260.567, 494.0078
1261.642, 19.78516
1262.716, 293.1953
1263.790, 202.8828
1264.864, 278.6836
1265.938, 149.9297
1267.011, 291.4062
1268.085, 203.1133
1269.158, 252.4180
1270.231, 136.1016
1271.304, 164.7773
1272.377, 358.6016
1273.450, 261.4883
1274.522, 241.1250
