##NAMES=Albite
##RRUFFID=R050402
##IDEAL CHEMISTRY=NaAlSi_3_O_8_
##LOCALITY=Urbano mine, Golconda District, Brazil
##OWNER=RRUFF
##SOURCE=Bob Downs
##DESCRIPTION=Colorless tabular single crystals associated with fluorapatite R050401
##STATUS=The identification of this mineral has been confirmed by X-ray diffraction and chemical analysis
##URL=rruff.info/R050402
##MEASURED CHEMISTRY=Na_1.00_Al_1.00_Si_3.00_O_8_
##PIN_ID=M00163
##ORIENTATION=Laser parallel to (1 0 1). Fiducial mark perpendicular to laser is parallel to b [0 1 0]
126.7490, 0.0000000E+00
127.9790, 138.0244
129.2090, 123.6602
130.4390, 166.7041
131.6680, 308.0332
132.8980, 242.0625
134.1270, 32.35645
135.3560, 40.48438
136.5850, 7.633789
137.8140, 94.40723
139.0430, 114.6377
140.2710, 216.4248
141.5000, 539.8555
142.7280, 473.8848
143.9560, 815.9521
145.1840, 979.0879
146.4120, 1676.210
147.6390, 2029.578
148.8670, 2978.719
150.0940, 3844.330
151.3210, 4952.259
152.5490, 6331.010
153.7750, 7769.498
155.0020, 9273.716
156.2290, 10492.93
157.4550, 11930.96
158.6810, 12908.47
159.9080, 14698.77
161.1340, 15876.05
162.3590, 16889.72
163.5850, 17480.41
164.8110, 17204.17
166.0360, 16136.32
167.2610, 14560.15
168.4860, 12737.90
169.7110, 11207.77
170.9360, 10188.95
172.1610, 9905.566
173.3850, 9783.752
174.6100, 9818.617
175.8340, 10095.98
177.0580, 10628.80
178.2820, 10814.44
179.5050, 11372.20
180.7290, 11698.39
181.9520, 11952.06
183.1760, 12276.76
184.3990, 12292.48
185.6220, 12267.91
186.8450, 12219.45
188.0670, 11578.57
189.2900, 11035.18
190.5120, 9971.995
191.7340, 8739.312
192.9560, 7740.161
194.1780, 6988.840
195.4000, 6278.668
196.6220, 6089.226
197.8430, 5944.109
199.0640, 6352.396
200.2860, 6934.555
201.5070, 7344.121
202.7270, 7844.252
203.9480, 8527.604
205.1690, 8871.353
206.3890, 9249.487
207.6090, 9874.987
208.8290, 10284.84
210.0490, 10520.99
211.2690, 10362.33
212.4890, 9703.801
213.7080, 8276.390
214.9280, 6769.067
216.1470, 5303.805
217.3660, 4177.585
218.5850, 3069.397
219.8030, 2282.230
221.0220, 1741.073
222.2400, 1538.916
223.4590, 1172.754
224.6770, 919.6729
225.8950, 857.6670
227.1120, 641.7305
228.3300, 504.8408
229.5480, 580.9248
230.7650, 362.4141
231.9820, 402.9004
233.1990, 253.1318
234.4160, 186.3809
235.6330, 170.5088
236.8490, 75.52539
238.0660, 169.4336
239.2820, 102.2676
240.4980, 19.93066
241.7140, 53.52637
242.9300, 72.97852
244.1460, 124.5820
245.3610, 248.2803
246.5770, 75.07324
247.7920, 118.9600
249.0070, 197.6797
250.2220, 273.2119
251.4370, 253.1543
252.6510, 66.85156
253.8660, 123.9854
255.0800, 87.66406
256.2940, 76.59277
257.5080, 113.6865
258.7220, 7.559570
259.9360, 30.09082
261.1490, 93.11914
262.3630, 192.2666
263.5760, 207.7051
264.7890, 321.8086
266.0020, 321.6152
267.2150, 410.2510
268.4270, 601.7832
269.6400, 710.2422
270.8520, 649.6504
272.0640, 1079.126
273.2760, 1382.771
274.4880, 1761.699
275.7000, 2357.637
276.9120, 3093.304
278.1230, 3918.008
279.3340, 5053.531
280.5450, 6659.072
281.7560, 8285.896
282.9670, 10225.04
284.1780, 12084.56
285.3880, 13896.86
286.5980, 15798.10
287.8090, 17674.05
289.0190, 19292.58
290.2290, 20593.37
291.4380, 21277.30
292.6480, 21135.92
293.8570, 20352.04
295.0670, 18074.74
296.2760, 14925.44
297.4850, 12179.92
298.6930, 9381.758
299.9020, 7395.365
301.1110, 5702.666
302.3190, 4904.152
303.5270, 3943.420
304.7350, 3379.457
305.9430, 2957.259
307.1510, 2527.828
308.3580, 2278.177
309.5660, 2261.315
310.7730, 2213.260
311.9800, 2124.017
313.1870, 1812.599
314.3940, 1816.014
315.6010, 1598.269
316.8070, 1344.371
318.0130, 1285.327
319.2200, 1211.144
320.4260, 1191.824
321.6310, 950.3682
322.8370, 1043.757
324.0430, 931.9717
325.2480, 913.9932
326.4540, 976.7832
327.6590, 1075.307
328.8640, 893.5879
330.0680, 1056.563
331.2730, 884.0811
332.4780, 920.0791
333.6820, 825.5850
334.8860, 898.4912
336.0900, 815.0254
337.2940, 761.2148
338.4980, 784.1094
339.7010, 933.8359
340.9050, 923.8096
342.1080, 971.0986
343.3110, 1041.506
344.5140, 1049.966
345.7170, 1106.408
346.9200, 1242.828
348.1220, 1365.225
349.3240, 1334.596
350.5270, 1408.941
351.7290, 1331.258
352.9310, 1278.544
354.1320, 1407.799
355.3340, 1456.021
356.5350, 1390.208
357.7370, 1260.360
358.9380, 1148.479
360.1390, 1220.561
361.3400, 1285.607
362.5400, 1145.617
363.7410, 1224.590
364.9410, 985.5273
366.1410, 1037.426
367.3410, 884.2891
368.5410, 883.1133
369.7410, 780.3193
370.9400, 810.2402
372.1400, 730.1309
373.3390, 777.4502
374.5380, 598.1299
375.7370, 573.1279
376.9360, 492.4463
378.1350, 615.1641
379.3330, 473.8672
380.5310, 566.3115
381.7300, 558.3643
382.9280, 525.8213
384.1260, 571.7822
385.3230, 548.6895
386.5210, 486.0312
387.7180, 520.1934
388.9160, 515.1719
390.1130, 437.4463
391.3100, 505.6504
392.5060, 492.1611
393.7030, 528.7930
394.9000, 445.7441
396.0960, 433.0322
397.2920, 651.0664
398.4880, 624.5732
399.6840, 773.4199
400.8800, 931.0283
402.0750, 840.3730
403.2710, 753.4053
404.4660, 964.7344
405.6610, 1184.235
406.8560, 1336.524
408.0510, 1453.078
409.2450, 1470.832
410.4400, 1249.645
411.6340, 1093.271
412.8280, 663.7910
414.0220, 449.8037
415.2160, 210.5957
416.4100, 17.53516
417.6030, 68.42969
418.7970, 133.7061
419.9900, 126.9287
421.1830, 110.2139
422.3760, 107.5957
423.5690, 72.06836
424.7610, 57.60938
425.9540, 123.2158
427.1460, 47.88184
428.3380, 215.6250
429.5300, 69.46387
430.7220, 65.36523
431.9140, 162.3174
433.1050, 93.36133
434.2970, 77.43262
435.4880, 119.5430
436.6790, 38.25977
437.8700, 96.04590
439.0610, 58.78711
440.2510, 70.47754
441.4420, 185.1445
442.6320, 199.7900
443.8220, 231.4062
445.0120, 379.9883
446.2020, 532.5283
447.3910, 696.0225
448.5810, 850.3926
449.7700, 884.8809
450.9600, 1190.246
452.1490, 1341.213
453.3370, 1553.010
454.5260, 1891.104
455.7150, 1934.311
456.9030, 2285.477
458.0910, 2535.605
459.2800, 2782.697
460.4670, 3229.750
461.6550, 3389.766
462.8430, 3999.746
464.0300, 4556.689
465.2180, 5478.535
466.4050, 6694.412
467.5920, 8686.120
468.7790, 11059.73
469.9650, 14003.50
471.1520, 17435.25
472.3380, 20974.70
473.5250, 24209.38
474.7110, 27314.75
475.8970, 30254.25
477.0820, 32895.35
478.2680, 35187.75
479.4540, 36505.79
480.6390, 35833.59
481.8240, 32955.51
483.0090, 28826.03
484.1940, 23753.53
485.3780, 18690.01
486.5630, 15219.49
487.7470, 12321.94
488.9320, 10545.38
490.1160, 9471.808
491.3000, 8847.216
492.4830, 8510.610
493.6670, 8960.990
494.8500, 9896.354
496.0340, 11287.70
497.2170, 13603.03
498.4000, 16723.35
499.5820, 20454.65
500.7650, 24101.94
501.9480, 28552.21
503.1300, 31735.47
504.3120, 35662.71
505.4940, 39382.94
506.6760, 42323.15
507.8580, 43945.35
509.0390, 44159.53
510.2210, 42678.71
511.4020, 37184.84
512.5830, 30982.77
513.7640, 24894.82
514.9450, 19652.55
516.1250, 15572.48
517.3060, 12204.68
518.4860, 9973.784
519.6660, 8347.572
520.8460, 6750.902
522.0260, 5762.678
523.2060, 5145.875
524.3850, 4631.096
525.5650, 3868.217
526.7440, 3502.577
527.9230, 2971.916
529.1020, 2796.053
530.2810, 2506.604
531.4590, 2534.128
532.6380, 2121.533
533.8160, 2105.962
534.9940, 1767.072
536.1720, 1783.301
537.3500, 1767.109
538.5270, 1669.357
539.7050, 1485.566
540.8820, 1469.928
542.0590, 1340.864
543.2360, 1339.518
544.4130, 1271.923
545.5900, 1226.004
546.7660, 1167.325
547.9430, 1188.257
549.1190, 1124.187
550.2950, 961.6162
551.4710, 1035.009
552.6470, 1075.844
553.8220, 1021.990
554.9980, 832.5283
556.1730, 924.3398
557.3480, 874.2959
558.5230, 796.9619
559.6980, 833.9863
560.8730, 798.7637
562.0470, 734.9346
563.2220, 811.0391
564.3960, 969.4883
565.5700, 732.4102
566.7440, 953.9805
567.9170, 957.5410
569.0910, 1024.707
570.2640, 1244.906
571.4380, 1120.379
572.6110, 1230.457
573.7840, 1306.686
574.9570, 1421.592
576.1290, 1631.915
577.3020, 1663.481
578.4740, 1695.788
579.6460, 1988.135
580.8180, 1985.654
581.9900, 1903.430
583.1620, 1911.948
584.3330, 1829.288
585.5040, 1826.775
586.6760, 1828.743
587.8470, 1814.324
589.0180, 1876.037
590.1880, 1867.038
591.3590, 1935.639
592.5290, 1954.968
593.7000, 1966.598
594.8700, 1981.208
596.0400, 1978.799
597.2090, 2075.369
598.3790, 2068.920
599.5490, 2015.449
600.7180, 1912.959
601.8870, 1787.449
603.0560, 1840.919
604.2250, 1689.368
605.3940, 1696.798
606.5620, 1568.209
607.7300, 1444.599
608.8990, 1551.969
610.0670, 1390.320
611.2350, 1269.651
612.4020, 1452.963
613.5700, 1425.255
614.7370, 1472.527
615.9050, 1415.781
617.0720, 1439.016
618.2390, 1621.232
619.4060, 1910.430
620.5720, 2015.609
621.7390, 2078.771
622.9050, 2118.914
624.0710, 2314.038
625.2370, 2495.143
626.4030, 2404.225
627.5690, 2330.287
628.7340, 2198.329
629.9000, 2195.350
631.0650, 2006.350
632.2300, 1897.329
633.3950, 1650.287
634.5600, 1635.225
635.7240, 1624.143
636.8890, 1515.037
638.0530, 1675.912
639.2170, 1777.765
640.3810, 1747.597
641.5450, 1822.407
642.7080, 2034.196
643.8720, 2138.964
645.0350, 2219.711
646.1980, 2443.436
647.3610, 2356.140
648.5240, 2453.820
649.6870, 2324.481
650.8490, 2175.121
652.0120, 2073.768
653.1740, 2123.397
654.3360, 1840.027
655.4980, 1537.654
656.6600, 1493.260
657.8210, 1176.848
658.9830, 1142.416
660.1440, 1073.970
661.3050, 830.5146
662.4660, 734.0430
663.6270, 558.5527
664.7870, 522.0586
665.9480, 451.5459
667.1080, 464.0146
668.2680, 392.4707
669.4280, 256.9092
670.5880, 364.3379
671.7480, 331.7510
672.9070, 145.1592
674.0670, 241.5527
675.2260, 292.9219
676.3850, 38.73438
677.5440, 297.5400
678.7030, 231.7939
679.8610, 211.0176
681.0200, 87.20898
682.1780, 167.3652
683.3360, 33.48730
684.4940, 12.56836
685.6520, 47.59961
686.8090, 95.40918
687.9670, 35.52344
689.1240, 65.43457
690.2810, 37.00000
691.4380, 75.36133
692.5950, 0.8212890
693.7520, 21.34180
694.9080, 10.93164
696.0650, 44.58887
697.2210, 68.32422
698.3770, 102.1465
699.5330, 75.07812
700.6880, 154.0752
701.8440, 24.81641
702.9990, 1.686523
704.1550, 23.52246
705.3100, 12.67090
706.4650, 121.9160
707.6190, 48.74121
708.7740, 171.6270
709.9290, 48.09570
711.0830, 70.63281
712.2370, 84.25293
713.3910, 196.9404
714.5450, 128.7715
715.6980, 2.713867
716.8520, 120.6934
718.0050, 10.20801
719.1580, 24.05762
720.3110, 78.13770
721.4640, 66.43066
722.6170, 30.81738
723.7700, 0.7197270
724.9220, 55.19922
726.0740, 326.6377
727.2260, 268.0469
728.3780, 179.4277
729.5300, 408.7773
730.6810, 104.0967
731.8330, 286.3828
732.9840, 297.6406
734.1350, 354.8682
735.2860, 249.0684
736.4370, 320.2393
737.5880, 282.3828
738.7380, 315.4980
739.8880, 384.5850
741.0390, 329.6445
742.1890, 350.6758
743.3380, 508.6797
744.4880, 483.6562
745.6380, 526.6045
746.7870, 425.5244
747.9360, 559.4180
749.0850, 601.2842
750.2340, 685.1230
751.3830, 876.9346
752.5310, 958.2305
753.6800, 1042.479
754.8280, 1241.211
755.9760, 1412.915
757.1240, 1585.595
758.2720, 1939.247
759.4190, 2216.874
760.5670, 2453.474
761.7140, 2746.049
762.8610, 2927.598
764.0080, 3192.119
765.1550, 3009.615
766.3020, 2894.087
767.4480, 2939.534
768.5950, 2743.954
769.7410, 2575.350
770.8870, 2484.721
772.0330, 2512.065
773.1780, 2516.387
774.3240, 2648.683
775.4690, 2614.955
776.6140, 2357.202
777.7590, 2368.426
778.9040, 2146.624
780.0490, 1659.800
781.1940, 1518.951
782.3380, 1392.079
783.4820, 1341.183
784.6260, 1151.265
785.7700, 1182.332
786.9140, 1113.467
788.0580, 1065.488
789.2010, 1170.044
790.3450, 1134.623
791.4880, 1268.445
792.6310, 963.1484
793.7730, 1219.057
794.9160, 1196.949
796.0590, 1258.820
797.2010, 1372.670
798.3430, 1476.013
799.4850, 1640.827
800.6270, 1839.610
801.7690, 2096.689
802.9100, 2410.430
804.0520, 2827.437
805.1930, 3652.676
806.3340, 3941.352
807.4750, 4472.615
808.6160, 4879.051
809.7560, 4610.383
810.8970, 4829.054
812.0370, 4569.410
813.1770, 4570.961
814.3170, 4454.779
815.4570, 4157.780
816.5960, 3924.018
817.7360, 3651.148
818.8750, 3208.744
820.0140, 2837.655
821.1530, 2660.860
822.2920, 2205.402
823.4310, 1876.708
824.5690, 1714.401
825.7070, 1521.794
826.8460, 1399.254
827.9840, 1348.443
829.1220, 1358.173
830.2590, 1245.532
831.3970, 1174.554
832.5340, 1069.180
833.6710, 1224.649
834.8080, 1278.585
835.9450, 1247.355
837.0820, 1203.786
838.2190, 1359.222
839.3550, 1349.579
840.4910, 1246.723
841.6270, 1378.973
842.7630, 1466.148
843.8990, 1547.435
845.0350, 1601.384
846.1700, 1778.491
847.3060, 1771.326
848.4410, 1956.721
849.5760, 2233.236
850.7100, 2342.658
851.8450, 2449.342
852.9800, 2623.923
854.1140, 2614.087
855.2480, 2858.445
856.3820, 3084.469
857.5160, 2878.275
858.6500, 2911.813
859.7830, 3030.583
860.9170, 2774.330
862.0500, 2694.365
863.1830, 2538.484
864.3160, 2330.608
865.4480, 1927.424
866.5810, 1701.552
867.7130, 1516.073
868.8460, 1347.209
869.9780, 1368.347
871.1100, 1175.489
872.2410, 990.6348
873.3730, 897.7852
874.5050, 1032.939
875.6360, 868.0996
876.7670, 821.2646
877.8980, 805.4336
879.0290, 598.6094
880.1590, 629.7900
881.2900, 543.9775
882.4200, 567.1709
883.5500, 444.3701
884.6800, 490.5781
885.8100, 456.7920
886.9400, 458.0127
888.0690, 489.2402
889.1990, 398.4766
890.3280, 485.7207
891.4570, 369.9727
892.5860, 426.2334
893.7140, 547.5029
894.8430, 412.7812
895.9710, 528.0684
897.1000, 533.3652
898.2280, 535.6709
899.3560, 624.9873
900.4830, 490.3135
901.6110, 514.6504
902.7380, 595.9971
903.8660, 477.3545
904.9930, 547.7246
906.1200, 623.1035
907.2460, 522.4941
908.3730, 662.8975
909.5000, 524.3115
910.6260, 501.7393
911.7520, 454.1797
912.8780, 362.6309
914.0040, 337.0957
915.1290, 341.5742
916.2550, 366.0654
917.3800, 174.5713
918.5050, 94.08984
919.6300, 15.62305
920.7550, 89.15723
921.8800, 1.281250
923.0040, 64.29297
924.1290, 148.1191
925.2530, 19.57422
926.3770, 114.9180
927.5010, 93.39258
928.6250, 163.1133
929.7480, 99.22461
930.8720, 25.95020
931.9950, 41.52539
933.1180, 66.84668
934.2410, 9.809570
935.3640, 83.49902
936.4860, 84.77539
937.6090, 79.95117
938.7310, 10.29980
939.8530, 45.50586
940.9750, 73.32715
942.0970, 73.82031
943.2180, 26.94141
944.3400, 95.00684
945.4610, 73.07812
946.5820, 45.84473
947.7030, 13.78906
948.8240, 39.75391
949.9450, 18.24023
951.0650, 126.7793
952.1860, 258.8193
953.3060, 257.8818
954.4260, 402.9688
955.5460, 284.0781
956.6650, 433.2148
957.7850, 508.3828
958.9040, 467.5781
960.0230, 536.9844
961.1420, 481.1367
962.2610, 535.4971
963.3800, 503.9023
964.4990, 492.3652
965.6170, 443.8652
966.7350, 351.4072
967.8530, 343.9883
968.9710, 339.7500
970.0890, 346.3086
971.2070, 379.0625
972.3240, 378.4639
973.4410, 384.4766
974.5580, 392.6914
975.6750, 380.6553
976.7920, 365.6523
977.9090, 358.6943
979.0250, 304.8076
980.1410, 572.9512
981.2580, 489.1816
982.3740, 553.4648
983.4890, 725.8076
984.6050, 641.2139
985.7200, 484.7148
986.8360, 747.2891
987.9510, 797.9072
989.0660, 618.5986
990.1810, 684.3301
991.2950, 675.0967
992.4100, 815.9268
993.5240, 771.8154
994.6390, 762.7549
995.7530, 982.7383
996.8660, 1017.751
997.9800, 1121.792
999.0940, 1361.857
1000.207, 1629.951
1001.320, 1778.071
1002.433, 1695.220
1003.546, 2040.395
1004.659, 1827.598
1005.772, 1378.826
1006.884, 1083.080
1007.996, 1100.361
1009.108, 928.6699
1010.220, 728.0059
1011.332, 1008.367
1012.444, 815.7549
1013.555, 964.1719
1014.666, 1032.614
1015.777, 1060.083
1016.888, 1156.580
1017.999, 1057.104
1019.110, 892.6543
1020.220, 1090.231
1021.331, 890.8369
1022.441, 850.4688
1023.551, 735.1279
1024.661, 761.8145
1025.770, 665.7598
1026.880, 625.7910
1027.989, 573.0410
1029.098, 529.8369
1030.207, 495.9209
1031.316, 434.0713
1032.425, 436.3906
1033.533, 345.2959
1034.642, 321.2305
1035.750, 336.1914
1036.858, 248.1807
1037.966, 165.1982
1039.073, 237.2432
1040.181, 145.3154
1041.288, 177.4150
1042.396, 278.5430
1043.503, 168.6982
1044.610, 203.8809
1045.716, 182.0918
1046.823, 155.3301
1047.929, 270.5957
1049.036, 204.8896
1050.142, 270.2109
1051.248, 86.55957
1052.353, 10.93750
1053.459, 57.65820
1054.564, 98.75391
1055.670, 21.10547
1056.775, 115.5732
1057.880, 35.51172
1058.985, 4.565430
1060.089, 92.11719
1061.194, 32.16016
1062.298, 54.23145
1063.402, 10.37598
1064.506, 2.950195
1065.610, 113.2471
1066.713, 53.74609
1067.817, 144.0547
1068.920, 350.0615
1070.023, 274.8701
1071.126, 449.1279
1072.229, 507.0469
1073.332, 571.9355
1074.435, 642.0928
1075.537, 855.4609
1076.639, 816.4160
1077.741, 1215.305
1078.843, 1222.630
1079.945, 1340.647
1081.046, 1606.690
1082.148, 1815.759
1083.249, 2145.371
1084.350, 2409.494
1085.451, 2615.643
1086.551, 3033.816
1087.652, 3503.015
1088.752, 4015.007
1089.853, 4558.676
1090.953, 5368.949
1092.053, 6133.697
1093.152, 7095.061
1094.252, 8202.312
1095.351, 9333.719
1096.451, 10184.16
1097.550, 11163.63
1098.649, 11738.13
1099.748, 12065.64
1100.846, 11966.18
1101.945, 11582.75
1103.043, 11037.36
1104.141, 10516.01
1105.239, 9870.689
1106.337, 9389.396
1107.434, 8991.122
1108.532, 8810.872
1109.629, 8712.640
1110.726, 8304.434
1111.823, 8231.247
1112.920, 8429.078
1114.017, 8188.932
1115.113, 7925.807
1116.210, 7628.701
1117.306, 7224.616
1118.402, 6628.551
1119.498, 5886.505
1120.593, 5423.479
1121.689, 4894.469
1122.784, 4153.480
1123.879, 3552.510
1124.974, 3304.557
1126.069, 2819.621
1127.164, 2356.703
1128.259, 2234.805
1129.353, 1955.923
1130.447, 1575.059
1131.541, 1441.214
1132.635, 1320.385
1133.729, 1141.572
1134.822, 999.7783
1135.916, 835.0020
1137.009, 777.2441
1138.102, 623.5020
1139.195, 740.7764
1140.288, 559.0684
1141.380, 603.3770
1142.473, 527.7021
1143.565, 578.0449
1144.657, 476.4043
1145.749, 399.7793
1146.841, 464.1719
1147.932, 483.5801
1149.024, 486.0039
1150.115, 505.7354
1151.206, 610.9023
1152.297, 526.3740
1153.388, 495.8623
1154.479, 554.3662
1155.569, 434.8867
1156.659, 325.4219
1157.750, 510.9727
1158.839, 490.5391
1159.929, 557.1211
1161.019, 565.9473
1162.108, 401.3281
1163.198, 462.9551
1164.287, 489.5977
1165.376, 324.2539
1166.465, 522.9258
1167.553, 472.6094
1168.642, 415.3115
1169.730, 504.0264
1170.818, 460.7559
1171.906, 326.4990
1172.994, 405.2559
1174.082, 152.0273
1175.170, 305.8115
1176.257, 293.6104
1177.344, 421.4219
1178.431, 331.2480
1179.518, 258.0869
1180.605, 190.9395
1181.691, 204.0742
1182.778, 232.6836
1183.864, 296.5762
1184.950, 272.4932
1186.036, 375.4102
1187.122, 181.3418
1188.207, 169.2861
1189.292, 79.27246
1190.378, 265.1719
1191.463, 15.20996
1192.548, 137.2734
1193.632, 14.76074
1194.717, 15.33984
1195.801, 173.2695
1196.886, 133.5898
1197.970, 49.31836
1199.054, 61.38770
1200.137, 44.48340
1201.221, 10.41895
1202.305, 115.6738
1203.388, 135.8184
1204.471, 16.98145
1205.554, 112.2109
1206.637, 173.4414
1207.719, 11.75000
1208.802, 30.95215
1209.884, 69.32715
1210.966, 104.4131
1212.048, 159.1592
1213.130, 139.9277
1214.212, 143.6973
1215.293, 75.47656
1216.374, 134.2666
1217.456, 160.0664
1218.536, 301.8750
1219.617, 23.69336
1220.698, 250.7891
1221.778, 18.25781
1222.859, 282.7930
1223.939, 8.640625
1225.019, 208.4873
1226.099, 297.1152
1227.178, 95.92285
1228.258, 166.7969
1229.337, 432.6787
1230.417, 215.5693
1231.496, 434.5664
1232.574, 495.1318
1233.653, 554.4248
1234.732, 648.8857
1235.810, 626.8154
1236.888, 621.7754
1237.966, 597.7207
1239.044, 623.6729
1240.122, 625.3223
1241.199, 721.5977
1242.277, 659.5723
1243.354, 637.5527
1244.431, 651.5410
1245.508, 519.5361
1246.585, 655.6064
1247.661, 724.6162
1248.738, 729.6309
1249.814, 599.6533
1250.890, 660.6826
1251.966, 648.7197
1253.042, 665.5127
1254.117, 738.8125
1255.193, 761.8682
1256.268, 744.9326
1257.343, 789.0479
1258.418, 880.1826
1259.493, 745.3252
1260.567, 922.4775
1261.642, 708.6357
1262.716, 837.8174
1263.790, 828.0049
1264.864, 970.1982
1265.938, 1099.399
1267.011, 1112.606
1268.085, 1106.818
1269.158, 1158.038
1270.231, 1109.263
1271.304, 1214.494
1272.377, 1242.730
1273.450, 1189.973
1274.522, 1150.221
1275.594, 1229.477
1276.666, 1196.737
1277.738, 1101.005
1278.810, 921.2764
1279.882, 912.5537
1280.953, 852.8389
1282.025, 855.1279
1283.096, 846.4229
1284.167, 779.7236
1285.238, 839.0293
1286.308, 751.3408
1287.379, 538.6592
1288.449, 677.9824
1289.519, 617.7734
1290.589, 918.6455
1291.659, 760.9844
1292.729, 895.3271
1293.798, 1076.674
1294.868, 1108.023
1295.937, 1147.378
1297.006, 991.7373
1298.075, 1013.101
1299.143, 944.4668
1300.212, 1082.836
1301.280, 1078.210
1302.348, 781.5879
1303.416, 1066.970
