##NAMES=Albite
##RRUFFID=R050253
##IDEAL CHEMISTRY=NaAlSi_3_O_8_
##LOCALITY=Madawaska/Faraday mine, Bancroft, Ontario, Canada
##OWNER=RRUFF
##SOURCE=Marcus Origlieri
##DESCRIPTION=Colorless to brown prismatic single crystals
##STATUS=The identification of this mineral has been confirmed by X-ray diffraction and chemical analysis
##URL=rruff.info/R050253
##MEASURED CHEMISTRY=(Na_0.99_Ca_0.01_)Al_1.00_(Si_0.99_Al_0.01_)_3_O_8_
##PIN_ID=L00649
##ORIENTATION=Laser parallel to c* (0 0 1). Fiducial mark perpendicular to laser is parallel to a [1 0 0]
87.30800, 0.0000000E+00
88.54200, 7.8856997E-02
89.77700, 55.11157
91.01200, 16.18481
92.24600, 75.01855
93.48000, 17.65625
94.71400, 33.32642
95.94800, 58.35669
97.18200, 21.47656
98.41600, 160.1577
99.64900, 409.7009
100.8830, 814.5371
102.1160, 1315.202
103.3490, 2040.314
104.5820, 2793.563
105.8150, 3571.751
107.0470, 4182.777
108.2800, 4592.438
109.5120, 5589.544
110.7440, 6284.932
111.9760, 6926.463
113.2080, 7248.021
114.4400, 7494.500
115.6710, 7504.812
116.9030, 6673.877
118.1340, 5373.630
119.3650, 4237.010
120.5960, 2987.968
121.8270, 2135.482
123.0580, 1649.778
124.2880, 1149.296
125.5190, 911.6118
126.7490, 705.3125
127.9790, 674.3652
129.2090, 618.7378
130.4390, 522.4009
131.6680, 545.3286
132.8980, 419.5005
134.1270, 540.8965
135.3560, 532.5015
136.5850, 621.3008
137.8140, 809.2803
139.0430, 1033.429
140.2710, 1204.736
141.5000, 1554.190
142.7280, 1764.784
143.9560, 2084.508
145.1840, 2207.355
146.4120, 2473.315
147.6390, 2757.384
148.8670, 3333.553
150.0940, 3632.817
151.3210, 3940.169
152.5490, 4104.642
153.7750, 3712.280
155.0020, 3331.251
156.2290, 2716.575
157.4550, 2126.382
158.6810, 1633.201
159.9080, 1492.477
161.1340, 1415.582
162.3590, 1469.710
163.5850, 1456.138
164.8110, 1465.625
166.0360, 1435.186
167.2610, 1584.744
168.4860, 1457.285
169.7110, 1584.791
170.9360, 1619.267
172.1610, 1862.724
173.3850, 1927.164
174.6100, 2255.594
175.8340, 2499.016
177.0580, 2737.435
178.2820, 3114.852
179.5050, 3357.269
180.7290, 3631.687
181.9520, 3964.109
183.1760, 4204.534
184.3990, 4488.962
185.6220, 4588.396
186.8450, 4647.832
188.0670, 4646.274
189.2900, 4358.722
190.5120, 4192.174
191.7340, 3938.631
192.9560, 3816.092
194.1780, 3704.065
195.4000, 3637.146
196.6220, 3703.499
197.8430, 3831.840
199.0640, 4041.444
200.2860, 4330.915
201.5070, 4706.381
202.7270, 4913.443
203.9480, 5219.305
205.1690, 5439.762
206.3890, 5679.214
207.6090, 5975.661
208.8290, 6147.104
210.0490, 6131.541
211.2690, 5712.973
212.4890, 5022.397
213.7080, 4192.814
214.9280, 3098.227
216.1470, 2377.631
217.3660, 1607.887
218.5850, 1158.857
219.8030, 791.5371
221.0220, 504.2310
222.2400, 413.6343
223.4590, 247.2451
224.6770, 52.19482
225.8950, 146.0098
227.1120, 59.69043
228.3300, 104.4932
229.5480, 93.34863
230.7650, 61.35254
231.9820, 69.75342
233.1990, 58.75293
234.4160, 112.3794
235.6330, 19.56787
236.8490, 49.55420
238.0660, 6.067383
239.2820, 69.78271
240.4980, 130.8496
241.7140, 320.4048
242.9300, 412.9595
244.1460, 590.4751
245.3610, 801.2222
246.5770, 912.6929
247.7920, 1135.953
249.0070, 1235.128
250.2220, 1430.421
251.4370, 1624.819
252.6510, 1778.314
253.8660, 1818.897
255.0800, 1804.561
256.2940, 1532.296
257.5080, 1507.099
258.7220, 1478.962
259.9360, 1728.881
261.1490, 1916.852
262.3630, 1980.870
263.5760, 2165.933
264.7890, 2482.035
266.0020, 2904.175
267.2150, 3177.350
268.4270, 3404.557
269.6400, 3703.792
270.8520, 3799.048
272.0640, 3963.324
273.2760, 3867.616
274.4880, 3698.924
275.7000, 3656.244
276.9120, 3843.576
278.1230, 4231.920
279.3340, 4946.272
280.5450, 6145.634
281.7560, 7499.001
282.9670, 8932.377
284.1780, 10197.76
285.3880, 11462.14
286.5980, 12896.53
287.8090, 14129.92
289.0190, 15396.31
290.2290, 15932.71
291.4380, 16372.11
292.6480, 15835.50
293.8570, 14269.90
295.0670, 12156.29
296.2760, 10000.69
297.4850, 7827.083
298.6930, 6018.474
299.9020, 4607.860
301.1110, 3653.242
302.3190, 2915.617
303.5270, 2472.983
304.7350, 1892.284
305.9430, 1680.540
307.1510, 1588.729
308.3580, 1325.886
309.5660, 1146.031
310.7730, 1081.164
311.9800, 1019.284
313.1870, 766.3911
314.3940, 726.4854
315.6010, 694.5674
316.8070, 522.6357
318.0130, 583.6929
319.2200, 574.7363
320.4260, 503.7676
321.6310, 611.7861
322.8370, 539.7910
324.0430, 580.7842
325.2480, 615.7646
326.4540, 692.7319
327.6590, 678.6860
328.8640, 752.6274
330.0680, 761.5557
331.2730, 586.4702
332.4780, 665.3716
333.6820, 531.2598
334.8860, 363.1343
336.0900, 276.9951
337.2940, 185.2056
338.4980, 174.6768
339.7010, 66.49658
340.9050, 86.30225
342.1080, 50.09424
343.3110, 115.8721
344.5140, 9.364258
345.7170, 36.37402
346.9200, 79.09570
348.1220, 6.803711
349.3240, 26.48926
350.5270, 27.15674
351.7290, 45.19336
352.9310, 12.58057
354.1320, 62.00439
355.3340, 86.42578
356.5350, 3.903320
357.7370, 7.408203
358.9380, 54.93994
360.1390, 50.51221
361.3400, 7.124023
362.5400, 51.77783
363.7410, 97.48145
364.9410, 112.2451
366.1410, 25.10352
367.3410, 5.031250
368.5410, 53.01318
369.7410, 19.91211
370.9400, 106.2246
372.1400, 21.49658
373.3390, 11.12207
374.5380, 93.91748
375.7370, 102.9370
376.9360, 74.44336
378.1350, 156.7764
379.3330, 54.73828
380.5310, 65.99121
381.7300, 39.72168
382.9280, 66.12793
384.1260, 35.03320
385.3230, 17.97949
386.5210, 34.95508
387.7180, 62.97363
388.9160, 74.94775
390.1130, 34.86279
391.3100, 14.76465
392.5060, 159.6460
393.7030, 133.5195
394.9000, 225.3838
396.0960, 253.2388
397.2920, 356.0850
398.4880, 413.9199
399.6840, 459.7451
400.8800, 671.5596
402.0750, 748.3711
403.2710, 798.1719
404.4660, 1007.960
405.6610, 1272.739
406.8560, 1594.539
408.0510, 1947.337
409.2450, 2104.334
410.4400, 2389.936
411.6340, 2405.719
412.8280, 2444.501
414.0220, 2516.284
415.2160, 2499.076
416.4100, 2677.854
417.6030, 2651.651
418.7970, 2588.435
419.9900, 2178.232
421.1830, 1669.017
422.3760, 1118.794
423.5690, 803.5566
424.7610, 646.3062
425.9540, 606.0518
427.1460, 454.7939
428.3380, 393.5298
429.5300, 477.2852
430.7220, 354.0278
431.9140, 365.7554
433.1050, 509.4692
434.2970, 472.1694
435.4880, 526.8555
436.6790, 481.5273
437.8700, 525.1860
439.0610, 555.8301
440.2510, 553.4609
441.4420, 586.0771
442.6320, 671.5630
443.8220, 809.2700
445.0120, 870.8457
446.2020, 877.4082
447.3910, 973.9565
448.5810, 1010.492
449.7700, 1154.014
450.9600, 1294.524
452.1490, 1404.022
453.3370, 1643.508
454.5260, 1763.981
455.7150, 1989.442
456.9030, 2182.891
458.0910, 2585.328
459.2800, 2920.753
460.4670, 3323.167
461.6550, 3924.568
462.8430, 4603.959
464.0300, 5603.339
465.2180, 6820.707
466.4050, 8595.063
467.5920, 10752.41
468.7790, 14344.75
469.9650, 18262.07
471.1520, 22966.38
472.3380, 28054.69
473.5250, 31839.97
474.7110, 35513.26
475.8970, 39645.53
477.0820, 42749.79
478.2680, 45224.04
479.4540, 45807.29
480.6390, 43596.52
481.8240, 39116.73
483.0090, 32828.94
484.1940, 26215.15
485.3780, 20512.34
486.5630, 16257.52
487.7470, 13139.38
488.9320, 11151.31
490.1160, 9992.466
491.3000, 9494.166
492.4830, 9749.697
493.6670, 10382.21
494.8500, 11842.49
496.0340, 14374.77
497.2170, 17965.87
498.4000, 22829.41
499.5820, 28466.08
500.7650, 34252.48
501.9480, 39786.85
503.1300, 44365.45
504.3120, 49167.73
505.4940, 53378.17
506.6760, 56052.69
507.8580, 57262.25
509.0390, 55235.24
510.2210, 49861.46
511.4020, 42132.63
512.5830, 33956.20
513.7640, 26378.97
514.9450, 20166.03
516.1250, 15841.24
517.3060, 12484.99
518.4860, 10136.25
519.6660, 8409.366
520.8460, 7144.388
522.0260, 6123.994
523.2060, 5388.050
524.3850, 4773.746
525.5650, 4208.714
526.7440, 3872.629
527.9230, 3350.611
529.1020, 3037.524
530.2810, 2799.679
531.4590, 2522.781
532.6380, 2400.320
533.8160, 2197.215
534.9940, 2084.326
536.1720, 1927.439
537.3500, 1794.555
538.5270, 1612.674
539.7050, 1418.795
540.8820, 1489.920
542.0590, 1266.048
543.2360, 1226.017
544.4130, 1278.150
545.5900, 1171.288
546.7660, 952.5698
547.9430, 1007.463
549.1190, 1019.654
550.2950, 914.9243
551.4710, 1019.879
552.6470, 900.0327
553.8220, 783.7646
554.9980, 849.1987
556.1730, 761.1504
557.3480, 659.3130
558.5230, 718.6753
559.6980, 720.8413
560.8730, 701.5430
562.0470, 718.7124
563.2220, 672.9868
564.3960, 639.1597
565.5700, 704.3340
566.7440, 701.6616
567.9170, 847.0073
569.0910, 762.5806
570.2640, 937.6113
571.4380, 970.7920
572.6110, 996.9736
573.7840, 1012.156
574.9570, 1080.340
576.1290, 1252.528
577.3020, 1287.717
578.4740, 1356.916
579.6460, 1162.135
580.8180, 1095.357
581.9900, 1047.582
583.1620, 935.8154
584.3330, 754.0742
585.5040, 635.3350
586.6760, 463.6040
587.8470, 376.8770
589.0180, 368.1553
590.1880, 342.4355
591.3590, 352.7168
592.5290, 308.0015
593.7000, 242.3008
594.8700, 177.6035
596.0400, 193.9282
597.2090, 111.2661
598.3790, 268.6191
599.5490, 182.9795
600.7180, 220.3423
601.8870, 133.7266
603.0560, 212.1133
604.2250, 197.5142
605.3940, 121.9409
606.5620, 168.3711
607.7300, 78.80908
608.8990, 166.2676
610.0670, 70.73584
611.2350, 163.2065
612.4020, 197.6865
613.5700, 150.1689
614.7370, 77.66943
615.9050, 129.1934
617.0720, 135.7197
618.2390, 200.2588
619.4060, 169.8013
620.5720, 254.3457
621.7390, 83.89355
622.9050, 136.4434
624.0710, 155.9961
625.2370, 180.5518
626.4030, 203.1099
627.5690, 195.6714
628.7340, 230.2466
629.9000, 220.8267
631.0650, 239.4097
632.2300, 258.5444
633.3950, 265.8613
634.5600, 297.2104
635.7240, 309.8418
636.8890, 332.4902
638.0530, 383.1421
639.2170, 350.8301
640.3810, 500.5327
641.5450, 414.2515
642.7080, 529.9990
643.8720, 544.7739
645.0350, 639.5654
646.1980, 635.3848
647.3610, 581.2451
648.5240, 567.1489
649.6870, 519.0752
650.8490, 439.9536
652.0120, 385.4707
653.1740, 280.9712
654.3360, 219.9961
655.4980, 173.0430
656.6600, 73.10107
657.8210, 142.1982
658.9830, 63.33740
660.1440, 90.50928
661.3050, 150.7349
662.4660, 27.98828
663.6270, 66.24414
664.7870, 8.504395
665.9480, 54.79346
667.1080, 53.10498
668.2680, 105.4321
669.4280, 83.78125
670.5880, 23.15869
671.7480, 50.53760
672.9070, 17.92188
674.0670, 91.31396
675.2260, 77.70752
676.3850, 49.10303
677.5440, 105.4990
678.7030, 5.896484
679.8610, 14.29541
681.0200, 22.69434
682.1780, 33.90479
683.3360, 28.47900
684.4940, 46.86328
685.6520, 3.750977
686.8090, 126.3677
687.9670, 35.05176
689.1240, 67.75439
690.2810, 14.49414
691.4380, 64.75732
692.5950, 41.99072
693.7520, 52.76318
694.9080, 76.56445
696.0650, 25.59082
697.2210, 114.2524
698.3770, 50.84082
699.5330, 103.0654
700.6880, 47.97168
701.8440, 15.99170
702.9990, 9.033691
704.1550, 44.05957
705.3100, 31.91504
706.4650, 31.91016
707.6190, 19.33008
708.7740, 121.9570
709.9290, 15.94482
711.0830, 59.84619
712.2370, 91.74756
713.3910, 62.64893
714.5450, 148.0347
715.6980, 102.9351
716.8520, 194.5830
718.0050, 270.7212
719.1580, 275.8965
720.3110, 287.8369
721.4640, 196.2822
722.6170, 139.6636
723.7700, 163.5591
724.9220, 221.8896
726.0740, 171.9141
727.2260, 112.5864
728.3780, 159.4761
729.5300, 101.3647
730.6810, 172.2578
731.8330, 181.0029
732.9840, 149.1362
734.1350, 199.3594
735.2860, 167.8130
736.4370, 195.4434
737.5880, 220.3667
738.7380, 220.2378
739.8880, 321.5933
741.0390, 285.4580
742.1890, 346.7861
743.3380, 402.2437
744.4880, 393.0986
745.6380, 520.1499
746.7870, 535.0811
747.9360, 759.4331
749.0850, 845.2725
750.2340, 919.3643
751.3830, 1198.194
752.5310, 1457.663
753.6800, 1768.069
754.8280, 2176.886
755.9760, 2931.966
757.1240, 3488.772
758.2720, 4110.573
759.4190, 4969.369
760.5670, 5593.160
761.7140, 5920.945
762.8610, 6435.725
764.0080, 6551.500
765.1550, 6191.270
766.3020, 5745.032
767.4480, 4806.792
768.5950, 4062.545
769.7410, 3370.293
770.8870, 2916.034
772.0330, 2488.771
773.1780, 2195.501
774.3240, 2130.226
775.4690, 1864.944
776.6140, 1623.657
777.7590, 1596.363
778.9040, 1282.064
780.0490, 1207.758
781.1940, 979.4463
782.3380, 822.1279
783.4820, 710.8022
784.6260, 727.4702
785.7700, 578.1318
786.9140, 530.7861
788.0580, 491.4370
789.2010, 417.0757
790.3450, 379.5640
791.4880, 298.3330
792.6310, 306.9497
793.7730, 267.5596
794.9160, 280.1611
796.0590, 189.7544
797.2010, 247.3403
798.3430, 339.9175
799.4850, 297.4863
800.6270, 373.0474
801.7690, 247.5991
802.9100, 371.1431
804.0520, 375.6777
805.1930, 454.2041
806.3340, 391.7212
807.4750, 446.2295
808.6160, 569.7295
809.7560, 730.2202
810.8970, 849.7017
812.0370, 899.1743
813.1770, 906.6382
814.3170, 922.0928
815.4570, 930.5381
816.5960, 964.9746
817.7360, 838.4023
818.8750, 791.8213
820.0140, 700.3945
821.1530, 485.7959
822.2920, 478.1885
823.4310, 377.4302
824.5690, 396.0552
825.7070, 331.3779
826.8460, 293.4487
827.9840, 297.1641
829.1220, 254.5088
830.2590, 254.2686
831.3970, 290.3232
832.5340, 244.8550
833.6710, 178.1704
834.8080, 135.2812
835.9450, 286.5830
837.0820, 261.3457
838.2190, 205.6353
839.3550, 189.8164
840.4910, 191.0947
841.6270, 123.3667
842.7630, 157.4805
843.8990, 152.5728
845.0350, 126.4331
846.1700, 38.83252
847.3060, 121.0771
848.4410, 206.3174
849.5760, 32.55273
850.7100, 5.783691
851.8450, 66.00391
852.9800, 14.78027
854.1140, 54.58643
855.2480, 9.565918
856.3820, 17.70898
857.5160, 12.15332
858.6500, 75.03467
859.7830, 72.03125
860.9170, 10.90771
862.0500, 12.13525
863.1830, 0.8286130
864.3160, 41.19434
865.4480, 44.21338
866.5810, 18.22803
867.7130, 34.76221
868.8460, 7.216797
869.9780, 58.81152
871.1100, 30.88281
872.2410, 33.98145
873.3730, 7.109375
874.5050, 21.74756
875.6360, 62.39941
876.7670, 58.41016
877.8980, 30.78369
879.0290, 81.00488
880.1590, 57.72168
881.2900, 11.55615
882.4200, 57.84863
883.5500, 17.18213
884.6800, 70.46680
885.8100, 13.88770
886.9400, 19.74121
888.0690, 52.63281
889.1990, 68.04297
890.3280, 18.50342
891.4570, 31.95361
892.5860, 73.56543
893.7140, 22.08105
894.8430, 68.59375
895.9710, 59.10400
897.1000, 90.61133
898.2280, 105.1152
899.3560, 94.84521
900.4830, 92.40918
901.6110, 86.61328
902.7380, 57.10693
903.8660, 68.59912
904.9930, 61.08838
906.1200, 63.57520
907.2460, 92.06006
908.3730, 78.25146
909.5000, 19.02490
910.6260, 76.50342
911.7520, 68.98096
912.8780, 76.45654
914.0040, 155.9307
915.1290, 55.40234
916.2550, 134.8730
917.3800, 85.34229
918.5050, 180.8174
919.6300, 93.29053
920.7550, 61.76318
921.8800, 41.23389
923.0040, 2.704102
924.1290, 57.17432
925.2530, 24.64941
926.3770, 83.12451
927.5010, 78.59814
928.6250, 76.07129
929.7480, 29.54590
930.8720, 126.0293
931.9950, 82.52344
933.1180, 128.0410
934.2410, 12.56641
935.3640, 45.09033
936.4860, 48.61523
937.6090, 142.1401
938.7310, 87.66504
939.8530, 113.1909
940.9750, 75.71777
942.0970, 149.2437
943.2180, 164.7715
944.3400, 159.2993
945.4610, 246.8281
946.5820, 228.1211
947.7030, 253.8535
948.8240, 259.4888
949.9450, 312.0483
951.0650, 368.6099
952.1860, 485.1724
953.3060, 429.7363
954.4260, 533.3213
955.5460, 587.9297
956.6650, 563.5508
957.7850, 699.1860
958.9040, 625.8247
960.0230, 656.4995
961.1420, 729.1860
962.2610, 699.8931
963.3800, 706.6074
964.4990, 909.3242
965.6170, 802.0547
966.7350, 1027.804
967.8530, 1113.576
968.9710, 1248.352
970.0890, 1471.161
971.2070, 1666.974
972.3240, 1819.822
973.4410, 1965.679
974.5580, 2226.544
975.6750, 2339.414
976.7920, 2513.286
977.9090, 2704.171
979.0250, 2520.071
980.1410, 2438.980
981.2580, 2305.935
982.3740, 1886.892
983.4890, 1626.875
984.6050, 1370.862
985.7200, 1202.367
986.8360, 1025.361
987.9510, 959.6108
989.0660, 727.3750
990.1810, 710.1045
991.2950, 695.0728
992.4100, 527.5400
993.5240, 608.0747
994.6390, 642.0986
995.7530, 620.6904
996.8660, 617.5928
997.9800, 617.8516
999.0940, 789.8955
1000.207, 834.9453
1001.320, 969.9932
1002.433, 1175.193
1003.546, 1228.010
1004.659, 1254.740
1005.772, 1249.243
1006.884, 1267.997
1007.996, 1318.614
1009.108, 1224.712
1010.220, 1165.331
1011.332, 1047.442
1012.444, 925.0952
1013.555, 857.6230
1014.666, 727.7578
1015.777, 571.7017
1016.888, 587.7686
1017.999, 479.4189
1019.110, 568.5869
1020.220, 668.5063
1021.331, 772.6924
1022.441, 817.2485
1023.551, 858.8633
1024.661, 940.0762
1025.770, 1083.030
1026.880, 1228.262
1027.989, 1372.505
1029.098, 1568.756
1030.207, 1659.018
1031.316, 1891.290
1032.425, 1817.571
1033.533, 1790.862
1034.642, 1734.164
1035.750, 1544.476
1036.858, 1441.798
1037.966, 1274.129
1039.073, 1107.472
1040.181, 1048.190
1041.288, 957.1162
1042.396, 963.5601
1043.503, 927.9434
1044.610, 993.3374
1045.716, 1102.741
1046.823, 1160.157
1047.929, 1030.582
1049.036, 999.0186
1050.142, 869.4644
1051.248, 768.3916
1052.353, 692.8594
1053.459, 595.3384
1054.564, 549.8271
1055.670, 514.3271
1056.775, 469.7505
1057.880, 413.7925
1058.985, 457.3242
1060.089, 389.8662
1061.194, 451.4199
1062.298, 435.0044
1063.402, 362.9561
1064.506, 428.8809
1065.610, 438.8838
1066.713, 410.0107
1067.817, 589.6270
1068.920, 522.2529
1070.023, 627.8892
1071.126, 629.5352
1072.229, 777.2412
1073.332, 804.9082
1074.435, 791.5840
1075.537, 828.2710
1076.639, 949.9683
1077.741, 1012.675
1078.843, 1258.101
1079.945, 1246.979
1081.046, 1421.831
1082.148, 1633.578
1083.249, 1939.335
1084.350, 2098.103
1085.451, 2360.880
1086.551, 2767.163
1087.652, 3294.867
1088.752, 3833.935
1089.853, 4572.606
1090.953, 5595.431
1092.053, 6409.264
1093.152, 7788.105
1094.252, 8999.957
1095.351, 10518.82
1096.451, 11630.69
1097.550, 12595.57
1098.649, 13417.46
1099.748, 13451.35
1100.846, 13268.26
1101.945, 12741.17
1103.043, 11764.10
1104.141, 10755.11
1105.239, 9940.184
1106.337, 9003.130
1107.434, 8297.089
1108.532, 7735.051
1109.629, 7478.023
1110.726, 7225.004
1111.823, 7091.992
1112.920, 7038.592
1114.017, 6845.599
1115.113, 6796.689
1116.210, 6684.709
1117.306, 6345.736
1118.402, 5753.774
1119.498, 5269.818
1120.593, 4874.879
1121.689, 4204.965
1122.784, 3639.061
1123.879, 3371.166
1124.974, 2763.284
1126.069, 2502.434
1127.164, 2287.590
1128.259, 1967.761
1129.353, 1665.941
1130.447, 1475.132
1131.541, 1249.331
1132.635, 1204.536
1133.729, 1048.749
1134.822, 926.9819
1135.916, 903.2241
1137.009, 703.4917
1138.102, 695.7866
1139.195, 712.1006
1140.288, 657.4453
1141.380, 643.7969
1142.473, 693.1758
1143.565, 604.5947
1144.657, 638.0322
1145.749, 509.5000
1146.841, 540.9795
1147.932, 601.4712
1149.024, 709.9878
1150.115, 729.5186
1151.206, 698.0571
1152.297, 623.6084
1153.388, 689.1665
1154.479, 672.7466
1155.569, 625.3535
1156.659, 485.9658
1157.750, 323.6035
1158.839, 326.2490
1159.929, 317.9009
1161.019, 268.5591
1162.108, 286.2241
1163.198, 114.8950
1164.287, 102.5718
1165.376, 165.2544
1166.465, 250.9424
1167.553, 183.6362
1168.642, 215.3364
1169.730, 88.04248
1170.818, 72.76172
1171.906, 163.4971
1172.994, 83.23730
1174.082, 163.9829
1175.170, 151.7334
1176.257, 162.4888
1177.344, 84.24854
1178.431, 82.01709
1179.518, 78.79004
1180.605, 75.56836
1181.691, 36.64941
1182.778, 111.1235
1183.864, 82.90088
1184.950, 205.6826
1186.036, 28.46826
1187.122, 7.741699
1188.207, 29.95020
1189.292, 79.83350
1190.378, 37.62109
1191.463, 22.41211
1192.548, 5.793457
1193.632, 45.45752
1194.717, 46.99561
1195.801, 95.45752
1196.886, 32.74023
1197.970, 8.965332
1199.054, 79.67480
1200.137, 29.38721
1201.221, 47.10352
1202.305, 0.1782230
1203.388, 4.650879
1204.471, 35.26514
1205.554, 20.99121
1206.637, 50.80957
1207.719, 88.54102
1208.802, 79.72461
1209.884, 2.028320
1210.966, 21.33252
1212.048, 19.35498
1213.130, 99.04541
1214.212, 11.76416
1215.293, 13.45898
1216.374, 73.84375
1217.456, 48.18408
1218.536, 37.54785
1219.617, 46.73584
1220.698, 12.66309
1221.778, 11.26025
1222.859, 13.85986
1223.939, 86.46338
1225.019, 69.06885
1226.099, 5.156250
1227.178, 68.76514
1228.258, 27.37793
1229.337, 26.00195
1230.417, 27.62695
1231.496, 67.25342
1232.574, 41.88086
1233.653, 14.49023
1234.732, 14.86865
1235.810, 98.74268
1236.888, 50.41992
1237.966, 48.04248
1239.044, 133.6660
1240.122, 103.2900
1241.199, 95.91455
1242.277, 20.34326
1243.354, 43.26709
1244.431, 75.12109
1245.508, 58.44678
1246.585, 43.01611
1247.661, 142.5859
1248.738, 23.15723
1249.814, 38.73047
1250.890, 68.30420
1251.966, 217.8784
1253.042, 89.48242
1254.117, 170.0576
1255.193, 134.6318
1256.268, 220.2051
1257.343, 125.7778
1258.418, 19.34912
1259.493, 96.92041
1260.567, 212.4902
1261.642, 168.0591
1262.716, 100.7217
1263.790, 81.28760
1264.864, 27.85205
1265.938, 128.4150
1267.011, 110.7261
1268.085, 121.3867
