##NAMES=Albite
##RRUFFID=R050402
##IDEAL CHEMISTRY=NaAlSi_3_O_8_
##LOCALITY=Urbano mine, Golconda District, Brazil
##OWNER=RRUFF
##SOURCE=Bob Downs
##DESCRIPTION=Colorless tabular single crystals associated with fluorapatite R050401
##STATUS=The identification of this mineral has been confirmed by X-ray diffraction and chemical analysis
##URL=rruff.info/R050402
##MEASURED CHEMISTRY=Na_1.00_Al_1.00_Si_3.00_O_8_
##PIN_ID=M00163
##ORIENTATION=Laser parallel to (1 0 1). Fiducial mark perpendicular to laser is parallel to b [0 1 0]
126.7490, 0.0000000E+00
127.9790, 116.8125
129.2090, 94.77344
130.4390, 31.14844
131.6680, 242.1172
132.8980, 71.55078
134.1270, 212.5078
135.3560, 295.8477
136.5850, 506.6855
137.8140, 1231.432
139.0430, 1622.322
140.2710, 2311.605
141.5000, 3079.943
142.7280, 3906.078
143.9560, 4668.736
145.1840, 5513.477
146.4120, 6246.371
147.6390, 7487.838
148.8670, 8650.508
150.0940, 9740.262
151.3210, 10538.29
152.5490, 11141.91
153.7750, 10467.08
155.0020, 9139.402
156.2290, 7051.586
157.4550, 4852.453
158.6810, 2964.387
159.9080, 1678.045
161.1340, 1384.900
162.3590, 891.2988
163.5850, 920.5527
164.8110, 1170.965
166.0360, 1219.818
167.2610, 1499.375
168.4860, 1524.863
169.7110, 1844.486
170.9360, 2240.412
172.1610, 2524.832
173.3850, 2894.842
174.6100, 3390.232
175.8340, 4234.203
177.0580, 5007.166
178.2820, 6012.691
179.5050, 6864.067
180.7290, 7872.293
181.9520, 8629.360
183.1760, 9352.833
184.3990, 10189.46
185.6220, 10597.94
186.8450, 10843.76
188.0670, 10541.97
189.2900, 10227.36
190.5120, 9363.513
191.7340, 8323.686
192.9560, 7010.116
194.1780, 6039.304
195.4000, 5210.217
196.6220, 4458.853
197.8430, 4281.225
199.0640, 3923.351
200.2860, 4275.340
201.5070, 4057.525
202.7270, 4319.906
203.9480, 4253.504
205.1690, 4415.326
206.3890, 4805.375
207.6090, 5067.664
208.8290, 5380.178
210.0490, 5748.982
211.2690, 5788.010
212.4890, 5302.181
213.7080, 4813.461
214.9280, 3757.820
216.1470, 2756.230
217.3660, 2066.979
218.5850, 1214.579
219.8030, 873.3369
221.0220, 548.5537
222.2400, 244.5371
223.4590, 231.1357
224.6770, 34.04199
225.8950, 78.52344
227.1120, 265.0879
228.3300, 144.7656
229.5480, 119.5674
230.7650, 461.4941
231.9820, 217.5381
233.1990, 224.8662
234.4160, 256.5312
235.6330, 297.7432
236.8490, 249.7695
238.0660, 74.47168
239.2820, 107.2803
240.4980, 194.8086
241.7140, 239.7949
242.9300, 441.1064
244.1460, 674.1738
245.3610, 957.5400
246.5770, 1102.896
247.7920, 1443.039
249.0070, 1779.656
250.2220, 2264.888
251.4370, 2637.967
252.6510, 3119.448
253.8660, 3315.676
255.0800, 3400.686
256.2940, 3171.584
257.5080, 2764.188
258.7220, 2334.687
259.9360, 2131.465
261.1490, 2101.889
262.3630, 2077.044
263.5760, 2425.612
264.7890, 2604.161
266.0020, 3036.689
267.2150, 3476.195
268.4270, 3812.680
269.6400, 4167.146
270.8520, 4585.594
272.0640, 4373.028
273.2760, 4264.518
274.4880, 3848.518
275.7000, 3370.699
276.9120, 2728.294
278.1230, 2484.037
279.3340, 2356.908
280.5450, 2571.841
281.7560, 2890.781
282.9670, 3111.770
284.1780, 3705.925
285.3880, 4343.296
286.5980, 5072.412
287.8090, 5927.980
289.0190, 6802.014
290.2290, 8060.623
291.4380, 8609.454
292.6480, 8999.227
293.8570, 8835.229
295.0670, 8285.577
296.2760, 6983.999
297.4850, 5665.662
298.6930, 4468.206
299.9020, 3229.702
301.1110, 2530.867
302.3190, 1951.709
303.5270, 1424.252
304.7350, 1237.512
305.9430, 1028.512
307.1510, 613.2637
308.3580, 581.7744
309.5660, 425.0586
310.7730, 329.1211
311.9800, 393.9707
313.1870, 370.6172
314.3940, 208.0713
315.6010, 189.3271
316.8070, 178.3975
318.0130, 239.9316
319.2200, 451.9795
320.4260, 561.3926
321.6310, 737.3340
322.8370, 1065.480
324.0430, 1183.940
325.2480, 1427.446
326.4540, 1663.184
327.6590, 2143.146
328.8640, 2293.613
330.0680, 2801.913
331.2730, 2750.134
332.4780, 2731.321
333.6820, 2355.477
334.8860, 1702.601
336.0900, 1325.688
337.2940, 1031.733
338.4980, 873.7402
339.7010, 755.7002
340.9050, 808.6162
342.1080, 588.4902
343.3110, 848.3184
344.5140, 752.1084
345.7170, 964.8545
346.9200, 1005.563
348.1220, 1136.234
349.3240, 1117.866
350.5270, 1221.458
351.7290, 1222.007
352.9310, 1049.514
354.1320, 1130.978
355.3340, 1050.396
356.5350, 943.7676
357.7370, 897.0918
358.9380, 877.3682
360.1390, 781.5928
361.3400, 887.7676
362.5400, 673.8779
363.7410, 613.8984
364.9410, 710.9785
366.1410, 445.2012
367.3410, 461.3145
368.5410, 483.0977
369.7410, 412.7559
370.9400, 394.6826
372.1400, 361.9570
373.3390, 131.8438
374.5380, 117.3633
375.7370, 56.51953
376.9360, 121.0566
378.1350, 133.0371
379.3330, 211.9941
380.5310, 216.3232
381.7300, 207.0781
382.9280, 204.5957
384.1260, 151.1543
385.3230, 95.31445
386.5210, 84.55664
387.7180, 231.7090
388.9160, 285.0918
390.1130, 319.1055
391.3100, 541.5996
392.5060, 403.7441
393.7030, 386.8379
394.9000, 602.8848
396.0960, 925.8750
397.2920, 1120.746
398.4880, 1139.488
399.6840, 1362.076
400.8800, 1496.543
402.0750, 1336.971
403.2710, 1309.385
404.4660, 1136.828
405.6610, 1018.262
406.8560, 1264.693
408.0510, 1518.162
409.2450, 1738.695
410.4400, 1875.299
411.6340, 2198.908
412.8280, 2156.564
414.0220, 2445.215
415.2160, 2827.941
416.4100, 3013.703
417.6030, 3605.455
418.7970, 3426.166
419.9900, 3257.828
421.1830, 2396.469
422.3760, 1689.057
423.5690, 1079.621
424.7610, 627.1758
425.9540, 185.7090
427.1460, 366.2344
428.3380, 51.73828
429.5300, 83.22852
430.7220, 15.30273
431.9140, 23.11914
433.1050, 77.49414
434.2970, 89.20508
435.4880, 187.0020
436.6790, 79.12500
437.8700, 188.2090
439.0610, 124.2402
440.2510, 256.2344
441.4420, 223.1641
442.6320, 600.0273
443.8220, 731.8281
445.0120, 857.5703
446.2020, 1491.260
447.3910, 1961.891
448.5810, 2421.469
449.7700, 3239.830
450.9600, 3730.398
452.1490, 4296.779
453.3370, 5309.018
454.5260, 6008.402
455.7150, 6813.279
456.9030, 7503.918
458.0910, 7971.564
459.2800, 7758.865
460.4670, 7138.949
461.6550, 6178.980
462.8430, 5580.090
464.0300, 4744.904
465.2180, 4673.416
466.4050, 4853.266
467.5920, 5478.088
468.7790, 6099.145
469.9650, 7088.637
471.1520, 8301.371
472.3380, 10019.08
473.5250, 11941.77
474.7110, 13675.44
475.8970, 16010.08
477.0820, 18371.71
478.2680, 20650.30
479.4540, 22559.88
480.6390, 23229.44
481.8240, 22330.36
483.0090, 19788.78
484.1940, 16391.41
485.3780, 13051.12
486.5630, 10340.91
487.7470, 8477.297
488.9320, 7140.562
490.1160, 6394.941
491.3000, 6080.299
492.4830, 5893.635
493.6670, 6006.949
494.8500, 6339.242
496.0340, 7287.516
497.2170, 8693.766
498.4000, 10430.00
499.5820, 12460.12
500.7650, 15049.05
501.9480, 17654.89
503.1300, 20606.33
504.3120, 23779.20
505.4940, 27216.17
506.6760, 30830.89
507.8580, 33905.01
509.0390, 34729.03
510.2210, 33653.16
511.4020, 30413.42
512.5830, 25632.51
513.7640, 20536.67
514.9450, 15708.96
516.1250, 12245.79
517.3060, 9602.738
518.4860, 7686.326
519.6660, 6313.645
520.8460, 5279.010
522.0260, 4354.281
523.2060, 3806.230
524.3850, 3029.607
525.5650, 2702.617
526.7440, 2451.527
527.9230, 2302.912
529.1020, 1854.906
530.2810, 1816.521
531.4590, 1572.783
532.6380, 1392.541
533.8160, 1405.330
534.9940, 1025.102
536.1720, 1045.832
537.3500, 1029.789
538.5270, 769.0996
539.7050, 874.2090
540.8820, 910.7812
542.0590, 1137.137
543.2360, 759.6289
544.4130, 748.6230
545.5900, 791.9355
546.7660, 594.0137
547.9430, 433.0273
549.1190, 536.3320
550.2950, 540.2012
551.4710, 515.2559
552.6470, 603.3340
553.8220, 553.9316
554.9980, 591.3340
556.1730, 504.5352
557.3480, 584.0586
558.5230, 537.4062
559.6980, 362.8672
560.8730, 320.9980
562.0470, 253.3984
563.2220, 439.9395
564.3960, 404.3398
565.5700, 684.0430
566.7440, 527.3984
567.9170, 576.6035
569.0910, 702.0547
570.2640, 757.7207
571.4380, 888.5762
572.6110, 844.4492
573.7840, 1115.068
574.9570, 1155.457
576.1290, 1177.168
577.3020, 1086.059
578.4740, 1567.084
579.6460, 1637.396
580.8180, 1560.752
581.9900, 1506.508
583.1620, 1681.420
584.3330, 1490.064
585.5040, 1662.686
586.6760, 1420.740
587.8470, 1399.314
589.0180, 1670.863
590.1880, 1619.389
591.3590, 1473.891
592.5290, 1693.381
593.7000, 1560.855
594.8700, 1516.320
596.0400, 1669.777
597.2090, 1492.229
598.3790, 1625.672
599.5490, 1704.117
600.7180, 1531.564
601.8870, 1659.014
603.0560, 1468.465
604.2250, 1366.906
605.3940, 1345.332
606.5620, 1470.740
607.7300, 1631.125
608.8990, 1444.492
610.0670, 936.8359
611.2350, 989.1582
612.4020, 1115.457
613.5700, 1020.732
614.7370, 1155.984
615.9050, 1060.217
617.0720, 1289.426
618.2390, 1325.613
619.4060, 1518.777
620.5720, 1704.920
621.7390, 1778.039
622.9050, 2042.137
624.0710, 2362.219
625.2370, 2604.281
626.4030, 2619.328
627.5690, 2416.354
628.7340, 2369.363
629.9000, 2404.352
631.0650, 2163.316
632.2300, 1989.258
633.3950, 1916.174
634.5600, 1719.072
635.7240, 1772.945
636.8890, 1614.795
638.0530, 1484.625
639.2170, 1689.430
640.3810, 1659.213
641.5450, 1935.973
642.7080, 2154.711
643.8720, 2090.430
645.0350, 2278.125
646.1980, 2658.805
647.3610, 2524.467
648.5240, 2500.121
649.6870, 2512.764
650.8490, 2308.393
652.0120, 2380.031
653.1740, 2079.656
654.3360, 1930.268
655.4980, 1685.861
656.6600, 1519.455
657.8210, 1325.051
658.9830, 1151.660
660.1440, 877.2949
661.3050, 919.9707
662.4660, 710.6875
663.6270, 742.4414
664.7870, 677.2383
665.9480, 466.0703
667.1080, 361.9160
668.2680, 614.7598
669.4280, 171.5996
670.5880, 471.4141
671.7480, 229.2148
672.9070, 206.9902
674.0670, 487.7285
675.2260, 68.44141
676.3850, 171.1172
677.5440, 84.75781
678.7030, 49.64258
679.8610, 40.87500
681.0200, 66.34766
682.1780, 53.21875
683.3360, 147.1250
684.4940, 96.56836
685.6520, 122.6270
686.8090, 134.7832
687.9670, 110.0977
689.1240, 198.0977
690.2810, 232.2676
691.4380, 26.37695
692.5950, 142.0312
693.7520, 113.4199
694.9080, 225.1641
696.0650, 109.9336
697.2210, 106.8281
698.3770, 12.84180
699.5330, 8.687500
700.6880, 75.08594
701.8440, 19.65820
702.9990, 90.65820
704.1550, 159.0879
705.3100, 105.6680
706.4650, 184.2148
707.6190, 112.2383
708.7740, 200.2285
709.9290, 137.3867
711.0830, 83.67578
712.2370, 58.06641
713.3910, 68.44922
714.5450, 109.9316
715.6980, 163.6035
716.8520, 61.25586
718.0050, 4.996094
719.1580, 63.81055
720.3110, 115.2852
721.4640, 315.3496
722.6170, 364.3867
723.7700, 332.3965
724.9220, 162.3770
726.0740, 364.3223
727.2260, 363.2422
728.3780, 453.1328
729.5300, 521.9961
730.6810, 403.8281
731.8330, 321.6348
732.9840, 655.4121
734.1350, 433.1621
735.2860, 451.8828
736.4370, 777.5781
737.5880, 280.2441
738.7380, 542.8828
739.8880, 566.4941
741.0390, 757.0781
742.1890, 952.6328
743.3380, 949.7402
744.4880, 844.6602
745.6380, 1035.133
746.7870, 1158.580
747.9360, 1262.998
749.0850, 1610.389
750.2340, 1659.756
751.3830, 1940.096
752.5310, 2399.408
753.6800, 2869.695
754.8280, 3878.955
755.9760, 4409.188
757.1240, 5307.186
758.2720, 6399.580
759.4190, 7185.738
760.5670, 8558.867
761.7140, 9765.977
762.8610, 10631.06
764.0080, 11469.11
765.1550, 11568.15
766.3020, 10761.16
767.4480, 9411.141
768.5950, 7940.098
769.7410, 6406.031
770.8870, 5211.941
772.0330, 4072.828
773.1780, 3534.693
774.3240, 2935.533
775.4690, 2683.350
776.6140, 2285.143
777.7590, 2019.914
778.9040, 1940.662
780.0490, 1867.387
781.1940, 1869.090
782.3380, 1596.773
783.4820, 1651.430
784.6260, 1626.068
785.7700, 1370.717
786.9140, 1545.320
788.0580, 1402.904
789.2010, 1322.967
790.3450, 1252.525
791.4880, 1438.070
792.6310, 1538.602
793.7730, 1512.404
794.9160, 1848.771
796.0590, 1826.242
797.2010, 1744.719
798.3430, 2165.340
799.4850, 2346.814
800.6270, 2416.283
801.7690, 2752.406
802.9100, 3366.557
804.0520, 3546.980
805.1930, 4448.383
806.3340, 5300.766
807.4750, 6029.027
808.6160, 6809.988
809.7560, 7572.465
810.8970, 8188.316
812.0370, 8677.594
813.1770, 9479.826
814.3170, 9971.467
815.4570, 10579.73
816.5960, 10165.16
817.7360, 10070.09
818.8750, 8846.215
820.0140, 7633.176
821.1530, 6312.605
822.2920, 5136.688
823.4310, 4154.980
824.5690, 3352.311
825.7070, 2926.320
826.8460, 2542.740
827.9840, 2283.949
829.1220, 2034.107
830.2590, 1818.861
831.3970, 1974.033
832.5340, 1739.457
833.6710, 1496.066
834.8080, 1745.828
835.9450, 1350.445
837.0820, 1573.371
838.2190, 1504.002
839.3550, 1310.467
840.4910, 1596.047
841.6270, 1703.299
842.7630, 1593.879
843.8990, 1749.504
845.0350, 1721.629
846.1700, 2081.215
847.3060, 1951.734
848.4410, 2199.619
849.5760, 2278.104
850.7100, 2450.043
851.8450, 2511.238
852.9800, 2557.100
854.1140, 3029.387
855.2480, 2906.838
856.3820, 2979.979
857.5160, 3329.266
858.6500, 3193.252
859.7830, 3347.246
860.9170, 3264.246
862.0500, 3041.795
863.1830, 2983.812
864.3160, 2680.838
865.4480, 2268.871
866.5810, 2156.912
867.7130, 1707.963
868.8460, 1567.023
869.9780, 1606.094
871.1100, 1415.172
872.2410, 1283.262
873.3730, 1075.672
874.5050, 1025.771
875.6360, 867.5918
876.7670, 874.7207
877.8980, 790.2852
879.0290, 771.4570
880.1590, 679.1836
881.2900, 682.3594
882.4200, 607.5469
883.5500, 369.7500
884.6800, 462.9629
885.8100, 493.1875
886.9400, 469.4277
888.0690, 661.6836
889.1990, 521.9492
890.3280, 489.2305
891.4570, 558.5234
892.5860, 649.8320
893.7140, 584.1562
894.8430, 458.4922
895.9710, 611.8457
897.1000, 556.2129
898.2280, 485.5977
899.3560, 544.9961
900.4830, 484.0098
901.6110, 656.8418
902.7380, 461.2891
903.8660, 352.7520
904.9930, 356.2305
906.1200, 581.7285
907.2460, 471.2441
908.3730, 560.7773
909.5000, 391.3281
910.6260, 480.8945
911.7520, 559.4824
912.8780, 339.0859
914.0040, 498.7070
915.1290, 128.3496
916.2550, 246.0098
917.3800, 102.6895
918.5050, 96.38867
919.6300, 186.1055
920.7550, 96.15625
921.8800, 77.05078
923.0040, 16.79883
924.1290, 168.4277
925.2530, 96.41992
926.3770, 131.2461
927.5010, 96.06055
928.6250, 49.14453
929.7480, 111.3418
930.8720, 117.4512
931.9950, 120.1113
933.1180, 91.15625
934.2410, 95.45703
935.3640, 10.80273
936.4860, 52.28906
937.6090, 25.46289
938.7310, 81.75977
939.8530, 132.7266
940.9750, 218.7539
942.0970, 18.18945
943.2180, 75.09766
944.3400, 18.98828
945.4610, 180.1641
946.5820, 277.4004
947.7030, 126.7031
948.8240, 200.0801
949.9450, 225.4824
951.0650, 477.9297
952.1860, 454.4297
953.3060, 461.9570
954.4260, 390.5156
955.5460, 533.1270
956.6650, 494.7637
957.7850, 461.9961
958.9040, 783.1992
960.0230, 412.9590
961.1420, 714.7910
962.2610, 831.7148
963.3800, 692.7422
964.4990, 823.8027
965.6170, 831.9453
966.7350, 765.1152
967.8530, 665.3906
968.9710, 1088.738
970.0890, 1080.152
971.2070, 1031.617
972.3240, 1408.125
973.4410, 1377.695
974.5580, 1549.305
975.6750, 1739.982
976.7920, 1961.750
977.9090, 2122.588
979.0250, 2084.520
980.1410, 2179.529
981.2580, 2282.635
982.3740, 1924.824
983.4890, 1915.082
984.6050, 1555.400
985.7200, 1292.750
986.8360, 1362.131
987.9510, 1310.604
989.0660, 1081.135
990.1810, 1107.713
991.2950, 1096.355
992.4100, 957.0273
993.5240, 1154.727
994.6390, 994.4531
995.7530, 1071.209
996.8660, 1130.994
997.9800, 1372.807
999.0940, 1644.646
1000.207, 1800.514
1001.320, 2203.408
1002.433, 2615.332
1003.546, 2919.281
1004.659, 2773.262
1005.772, 2282.270
1006.884, 2304.301
1007.996, 1794.363
1009.108, 1470.453
1010.220, 1607.572
1011.332, 1245.719
1012.444, 1511.893
1013.555, 1160.094
1014.666, 1172.324
1015.777, 1389.580
1016.888, 1067.865
1017.999, 1254.178
1019.110, 978.5176
1020.220, 1069.887
1021.331, 1088.281
1022.441, 854.7051
1023.551, 978.1562
1024.661, 949.6348
1025.770, 852.1426
1026.880, 807.6777
1027.989, 631.2402
1029.098, 756.8301
1030.207, 818.4473
1031.316, 766.0918
1032.425, 676.7656
1033.533, 514.4668
1034.642, 610.1934
1035.750, 662.9492
1036.858, 677.7324
1037.966, 448.5430
1039.073, 501.3809
1040.181, 485.2461
1041.288, 550.1406
1042.396, 456.0586
1043.503, 797.0078
1044.610, 513.9824
1045.716, 543.9863
1046.823, 627.0156
1047.929, 431.0723
1049.036, 654.1543
1050.142, 509.2656
1051.248, 629.4043
1052.353, 337.5684
1053.459, 474.7617
1054.564, 55.05469
1055.670, 143.1660
1056.775, 247.4141
1057.880, 90.81055
1058.985, 25.54297
1060.089, 47.25977
1061.194, 73.18750
1062.298, 236.2070
1063.402, 124.9805
1064.506, 142.2305
1065.610, 84.89453
1066.713, 103.9570
1067.817, 75.74414
1068.920, 45.16211
1070.023, 21.13477
1071.126, 30.51562
1072.229, 208.8359
1073.332, 154.1484
1074.435, 89.05078
1075.537, 278.6191
1076.639, 240.7969
1077.741, 444.5273
1078.843, 629.4160
1079.945, 633.2480
1081.046, 825.9375
1082.148, 837.5020
1083.249, 1048.195
1084.350, 1185.805
1085.451, 1280.439
1086.551, 1553.094
1087.652, 1528.771
1088.752, 1737.531
1089.853, 1766.252
1090.953, 2234.354
1092.053, 2423.113
1093.152, 2735.898
1094.252, 3012.703
1095.351, 3647.527
1096.451, 3843.373
1097.550, 4044.258
1098.649, 4293.166
1099.748, 4311.090
1100.846, 4131.039
1101.945, 4210.010
1103.043, 4064.000
1104.141, 3857.426
1105.239, 3211.035
1106.337, 3323.082
1107.434, 2968.150
1108.532, 2573.254
1109.629, 2601.377
1110.726, 2590.539
1111.823, 2291.715
1112.920, 2247.908
1114.017, 2018.119
1115.113, 1874.344
1116.210, 1604.584
1117.306, 1571.838
1118.402, 1245.107
1119.498, 1112.395
1120.593, 1133.691
1121.689, 1007.004
1122.784, 1101.332
1123.879, 1130.670
1124.974, 777.0234
1126.069, 560.3926
1127.164, 588.7734
1128.259, 466.1680
1129.353, 571.5762
1130.447, 492.0273
1131.541, 379.4336
1132.635, 402.8789
1133.729, 356.3418
1134.822, 291.8164
1135.916, 354.3027
1137.009, 135.8008
1138.102, 288.3125
1139.195, 83.83594
1140.288, 246.3750
1141.380, 209.9238
1142.473, 139.4863
1143.565, 349.0586
1144.657, 187.6465
1145.749, 436.2441
1146.841, 635.8555
1147.932, 297.4785
1149.024, 622.1133
1150.115, 563.7598
1151.206, 651.4160
1152.297, 552.0859
1153.388, 709.7656
1154.479, 636.4590
1155.569, 614.1621
1156.659, 688.8789
1157.750, 634.6055
1158.839, 578.3438
1159.929, 613.0918
1161.019, 489.8496
1162.108, 539.6211
1163.198, 271.4004
1164.287, 286.1934
1165.376, 303.9961
1166.465, 463.8105
1167.553, 324.6328
1168.642, 345.4648
1169.730, 231.3105
1170.818, 379.1641
1171.906, 478.0273
1172.994, 361.9004
1174.082, 436.7832
1175.170, 491.6758
1176.257, 377.5781
1177.344, 567.4902
1178.431, 305.4121
1179.518, 328.3438
1180.605, 249.2852
1181.691, 184.2324
1182.778, 370.1914
1183.864, 235.1602
1184.950, 227.1055
1186.036, 357.6582
1187.122, 114.6660
1188.207, 100.6836
1189.292, 100.6191
1190.378, 334.6094
1191.463, 52.64062
1192.548, 183.7207
1193.632, 13.81641
1194.717, 44.07422
1195.801, 126.1758
1196.886, 21.38281
1197.970, 60.27734
1199.054, 4.341797
1200.137, 1.417969
1201.221, 155.5938
1202.305, 50.39453
1203.388, 132.5176
1204.471, 1.498047
1205.554, 40.48438
1206.637, 53.49219
1207.719, 77.51562
1208.802, 224.5820
1209.884, 137.7812
1210.966, 169.0117
1212.048, 69.64648
1213.130, 48.68359
1214.212, 263.9570
1215.293, 71.60742
1216.374, 105.2656
1217.456, 174.9336
1218.536, 46.60742
1219.617, 70.28906
1220.698, 27.97070
1221.778, 267.6738
1222.859, 63.37500
1223.939, 139.0859
1225.019, 418.8047
1226.099, 201.5293
1227.178, 325.9062
1228.258, 488.6465
1229.337, 257.3965
1230.417, 459.4688
1231.496, 303.2344
1232.574, 253.0059
1233.653, 335.7832
1234.732, 553.5430
1235.810, 424.3379
1236.888, 632.1387
1237.966, 731.1816
1239.044, 600.9961
1240.122, 722.4883
1241.199, 808.3164
1242.277, 754.1504
1243.354, 774.9922
1244.431, 746.8438
1245.508, 683.6973
1246.585, 680.5586
1247.661, 585.4297
1248.738, 666.3047
1249.814, 822.1855
1250.890, 759.0762
1251.966, 590.9746
1253.042, 936.8789
1254.117, 592.7891
1255.193, 618.7266
1256.268, 667.7070
1257.343, 512.6934
1258.418, 611.6855
1259.493, 862.6875
1260.567, 876.6934
1261.642, 948.7070
1262.716, 795.7266
1263.790, 867.7520
1264.864, 838.7852
1265.938, 1198.824
1267.011, 997.8750
1268.085, 1313.930
1269.158, 1113.992
1270.231, 1036.061
1271.304, 1289.135
1272.377, 1388.258
1273.450, 1346.389
1274.522, 1300.527
1275.594, 1188.670
1276.666, 1310.820
1277.738, 1111.979
1278.810, 1299.145
1279.882, 909.3145
1280.953, 1022.492
1282.025, 958.6758
1283.096, 911.8672
1284.167, 727.0664
1285.238, 713.2715
1286.308, 762.4844
1287.379, 769.7070
1288.449, 802.9316
1289.519, 831.7852
1290.589, 870.1289
1291.659, 895.6523
1292.729, 983.9043
1293.798, 1041.164
1294.868, 1145.426
1295.937, 998.6992
1297.006, 1279.979
1298.075, 1107.262
1299.143, 877.5508
1300.212, 928.8457
1301.280, 799.1465
1302.348, 822.4512
1303.416, 1027.762
