##NAMES=Albite
##RRUFFID=R050402
##IDEAL CHEMISTRY=NaAlSi_3_O_8_
##LOCALITY=Urbano mine, Golconda District, Brazil
##OWNER=RRUFF
##SOURCE=Bob Downs
##DESCRIPTION=Colorless tabular single crystals associated with fluorapatite R050401
##STATUS=The identification of this mineral has been confirmed by X-ray diffraction and chemical analysis
##URL=rruff.info/R050402
##MEASURED CHEMISTRY=Na_1.00_Al_1.00_Si_3.00_O_8_
##PIN_ID=M00171
##ORIENTATION=Laser parallel to (1 1 0). Fiducial mark perpendicular to laser is parallel to c [0 0 1]
81.13100, 0.0000000E+00
82.36700, 219.1074
83.60200, 729.1699
84.83700, 1348.597
86.07200, 1824.249
87.30800, 2516.663
88.54200, 3047.358
89.77700, 3090.843
91.01200, 2393.519
92.24600, 1742.021
93.48000, 1047.825
94.71400, 433.3066
95.94800, 217.8027
97.18200, 33.48584
98.41600, 22.83447
99.64900, 72.41846
100.8830, 276.6831
102.1160, 449.2959
103.3490, 793.4023
104.5820, 1204.301
105.8150, 1737.687
107.0470, 1937.940
108.2800, 2292.240
109.5120, 2698.499
110.7440, 3015.640
111.9760, 3022.589
113.2080, 3310.284
114.4400, 3539.668
115.6710, 3524.691
116.9030, 3110.321
118.1340, 2329.600
119.3650, 1440.547
120.5960, 795.1504
121.8270, 289.3896
123.0580, 104.2134
124.2880, 3.434082
125.5190, 169.6006
126.7490, 168.3301
127.9790, 203.6597
129.2090, 190.6250
130.4390, 50.26904
131.6680, 175.3696
132.8980, 348.2734
134.1270, 561.4248
135.3560, 993.8115
136.5850, 1378.419
137.8140, 1885.233
139.0430, 2410.243
140.2710, 2714.435
141.5000, 3310.797
142.7280, 4040.321
143.9560, 4726.997
145.1840, 5540.817
146.4120, 6381.771
147.6390, 7103.853
148.8670, 7689.053
150.0940, 8292.367
151.3210, 8606.872
152.5490, 9111.118
153.7750, 9612.147
155.0020, 9797.021
156.2290, 9904.199
157.4550, 9842.793
158.6810, 10242.80
159.9080, 10835.21
161.1340, 11744.84
162.3590, 12331.48
163.5850, 12809.08
164.8110, 12712.64
166.0360, 11927.16
167.2610, 11038.63
168.4860, 10576.04
169.7110, 10316.40
170.9360, 10689.70
172.1610, 10719.96
173.3850, 10974.19
174.6100, 11030.38
175.8340, 11370.54
177.0580, 11519.60
178.2820, 11758.38
179.5050, 12255.92
180.7290, 12629.44
181.9520, 12984.95
183.1760, 13452.46
184.3990, 13733.98
185.6220, 13865.53
186.8450, 13600.34
188.0670, 13271.69
189.2900, 12440.29
190.5120, 11402.90
191.7340, 10224.51
192.9560, 9187.115
194.1780, 8252.716
195.4000, 7540.314
196.6220, 7380.905
197.8430, 7236.491
199.0640, 7430.068
200.2860, 8024.643
201.5070, 8162.206
202.7270, 8465.762
203.9480, 8422.313
205.1690, 8443.853
206.3890, 8569.384
207.6090, 8977.906
208.8290, 9194.420
210.0490, 9453.922
211.2690, 8815.417
212.4890, 7808.899
213.7080, 6278.373
214.9280, 4863.834
216.1470, 3589.286
217.3660, 2473.726
218.5850, 1808.153
219.8030, 1130.913
221.0220, 728.9980
222.2400, 594.1626
223.4590, 421.6919
224.6770, 313.4238
225.8950, 284.9360
227.1120, 291.6143
228.3300, 203.9033
229.5480, 141.5337
230.7650, 158.8779
231.9820, 197.2852
233.1990, 313.2588
234.4160, 393.7979
235.6330, 474.7764
236.8490, 623.6934
238.0660, 996.1299
239.2820, 1177.044
240.4980, 1689.816
241.7140, 2447.352
242.9300, 3280.186
244.1460, 3989.754
245.3610, 4768.833
246.5770, 4953.262
247.7920, 5759.711
249.0070, 6593.180
250.2220, 7399.367
251.4370, 8562.052
252.6510, 9216.469
253.8660, 9327.954
255.0800, 8397.508
256.2940, 7225.129
257.5080, 5686.808
258.7220, 4780.544
259.9360, 4403.331
261.1490, 4017.167
262.3630, 3791.049
263.5760, 4088.973
264.7890, 4301.938
266.0020, 4614.939
267.2150, 5178.974
268.4270, 5814.040
269.6400, 6285.130
270.8520, 6537.250
272.0640, 6786.188
273.2760, 6778.350
274.4880, 6592.735
275.7000, 6755.968
276.9120, 7017.540
278.1230, 7898.771
279.3340, 9392.018
280.5450, 11392.27
281.7560, 13510.54
282.9670, 15959.82
284.1780, 18409.55
285.3880, 20367.63
286.5980, 22517.78
287.8090, 24896.12
289.0190, 27389.18
290.2290, 29749.56
291.4380, 30835.78
292.6480, 30290.62
293.8570, 28081.47
295.0670, 23672.91
296.2760, 19006.53
297.4850, 14584.16
298.6930, 11110.64
299.9020, 8465.968
301.1110, 6528.470
302.3190, 5285.773
303.5270, 4367.060
304.7350, 3697.331
305.9430, 3079.584
307.1510, 2867.818
308.3580, 2613.032
309.5660, 2314.227
310.7730, 2173.401
311.9800, 1987.558
313.1870, 1915.694
314.3940, 1896.812
315.6010, 1998.911
316.8070, 2090.990
318.0130, 2441.052
319.2200, 3002.094
320.4260, 3862.117
321.6310, 4622.123
322.8370, 5113.108
324.0430, 5578.077
325.2480, 6279.030
326.4540, 7783.967
327.6590, 7996.887
328.8640, 8798.792
330.0680, 9286.682
331.2730, 8924.551
332.4780, 7618.403
333.6820, 6098.239
334.8860, 4514.058
336.0900, 3251.858
337.2940, 2317.642
338.4980, 1702.406
339.7010, 1330.153
340.9050, 1154.882
342.1080, 918.5928
343.3110, 844.2852
344.5140, 674.9595
345.7170, 673.6152
346.9200, 562.2520
348.1220, 500.8706
349.3240, 497.4697
350.5270, 501.0508
351.7290, 427.6128
352.9310, 357.1558
354.1320, 306.1406
355.3340, 289.1846
356.5350, 145.6699
357.7370, 70.13574
358.9380, 42.42432
360.1390, 79.03271
361.3400, 125.2354
362.5400, 51.43848
363.7410, 147.2285
364.9410, 78.09717
366.1410, 34.06250
367.3410, 195.1680
368.5410, 169.4556
369.7410, 175.8921
370.9400, 135.5464
372.1400, 125.3916
373.3390, 129.3462
374.5380, 51.41699
375.7370, 183.5674
376.9360, 168.8682
378.1350, 89.31201
379.3330, 253.8589
380.5310, 156.5962
381.7300, 36.47217
382.9280, 91.42432
384.1260, 10.48096
385.3230, 78.39990
386.5210, 151.2500
387.7180, 214.0894
388.9160, 346.9072
390.1130, 512.7080
391.3100, 756.4897
392.5060, 887.2510
393.7030, 1054.992
394.9000, 1193.715
396.0960, 1542.422
397.2920, 1921.114
398.4880, 2263.792
399.6840, 2790.455
400.8800, 3178.125
402.0750, 3302.805
403.2710, 3261.493
404.4660, 3265.167
405.6610, 3467.842
406.8560, 3833.528
408.0510, 4400.202
409.2450, 4465.866
410.4400, 4225.513
411.6340, 3821.169
412.8280, 3190.829
414.0220, 2885.480
415.2160, 2718.146
416.4100, 2725.837
417.6030, 2697.569
418.7970, 2467.349
419.9900, 1985.172
421.1830, 1463.013
422.3760, 983.8701
423.5690, 607.7202
424.7610, 415.5537
425.9540, 355.3833
427.1460, 148.2388
428.3380, 100.0884
429.5300, 90.91748
430.7220, 75.73340
431.9140, 103.5205
433.1050, 72.27930
434.2970, 87.00830
435.4880, 41.70752
436.6790, 133.3711
437.8700, 69.00879
439.0610, 187.6143
440.2510, 186.1948
441.4420, 219.7505
442.6320, 359.2827
443.8220, 211.7930
445.0120, 339.2793
446.2020, 438.7427
447.3910, 374.1841
448.5810, 537.6050
449.7700, 768.0107
450.9600, 624.3955
452.1490, 911.7593
453.3370, 932.1021
454.5260, 1050.423
455.7150, 1258.725
456.9030, 1512.004
458.0910, 1513.261
459.2800, 1504.497
460.4670, 1671.711
461.6550, 1910.902
462.8430, 2001.073
464.0300, 2243.221
465.2180, 2723.348
466.4050, 3400.452
467.5920, 4269.536
468.7790, 5462.599
469.9650, 7181.637
471.1520, 9005.658
472.3380, 10773.65
473.5250, 12297.63
474.7110, 13770.58
475.8970, 15500.51
477.0820, 17238.42
478.2680, 18785.31
479.4540, 19713.18
480.6390, 19288.03
481.8240, 17640.85
483.0090, 15244.66
484.1940, 12388.44
485.3780, 10078.20
486.5630, 8218.942
487.7470, 7046.662
488.9320, 6325.360
490.1160, 5928.038
491.3000, 5800.695
492.4830, 6250.330
493.6670, 7014.945
494.8500, 8424.540
496.0340, 10218.11
497.2170, 12754.66
498.4000, 16390.20
499.5820, 20757.38
500.7650, 24670.80
501.9480, 28873.97
503.1300, 32413.81
504.3120, 36438.71
505.4940, 40259.19
506.6760, 43858.62
507.8580, 46332.35
509.0390, 45334.80
510.2210, 41492.11
511.4020, 35601.00
512.5830, 28457.47
513.7640, 21845.46
514.9450, 16986.06
516.1250, 12916.41
517.3060, 10305.64
518.4860, 8014.573
519.6660, 6461.428
520.8460, 5429.280
522.0260, 4556.813
523.2060, 4047.463
524.3850, 3373.668
525.5650, 2839.442
526.7440, 2599.318
527.9230, 2337.395
529.1020, 2050.734
530.2810, 1881.753
531.4590, 1729.165
532.6380, 1512.330
533.8160, 1462.498
534.9940, 1252.729
536.1720, 1234.879
537.3500, 1059.441
538.5270, 1076.581
539.7050, 891.2266
540.8820, 777.5322
542.0590, 777.1641
543.2360, 805.1372
544.4130, 744.8276
545.5900, 758.6929
546.7660, 557.8154
547.9430, 468.5459
549.1190, 492.6045
550.2950, 574.6406
551.4710, 550.0688
552.6470, 566.3271
553.8220, 478.4985
554.9980, 396.1416
556.1730, 497.1572
557.3480, 476.1382
558.5230, 534.6201
559.6980, 515.7852
560.8730, 409.2378
562.0470, 449.1968
563.2220, 456.2842
564.3960, 403.1582
565.5700, 591.8555
566.7440, 710.3560
567.9170, 703.2627
569.0910, 725.9575
570.2640, 998.6245
571.4380, 878.2300
572.6110, 1034.428
573.7840, 1226.787
574.9570, 1307.912
576.1290, 1420.915
577.3020, 1501.389
578.4740, 1592.813
579.6460, 1540.542
580.8180, 1499.075
581.9900, 1355.591
583.1620, 1225.235
584.3330, 959.0210
585.5040, 795.6079
586.6760, 582.3711
587.8470, 563.1240
589.0180, 553.1509
590.1880, 345.4326
591.3590, 419.1528
592.5290, 213.1216
593.7000, 294.0884
594.8700, 279.0029
596.0400, 171.0146
597.2090, 268.7261
598.3790, 160.3945
599.5490, 171.0527
600.7180, 236.7002
601.8870, 243.3428
603.0560, 148.9756
604.2250, 221.5977
605.3940, 201.2085
606.5620, 278.8091
607.7300, 294.3989
608.8990, 308.9785
610.0670, 181.5474
611.2350, 247.1143
612.4020, 266.6704
613.5700, 254.2163
614.7370, 359.7637
615.9050, 399.3110
617.0720, 445.8477
618.2390, 530.3120
619.4060, 491.8999
620.5720, 665.4287
621.7390, 754.9468
622.9050, 810.4561
624.0710, 1013.961
625.2370, 1176.455
626.4030, 1189.939
627.5690, 1523.414
628.7340, 1452.895
629.9000, 1752.365
631.0650, 1749.823
632.2300, 1962.273
633.3950, 1810.717
634.5600, 1913.152
635.7240, 2012.578
636.8890, 1903.995
638.0530, 1872.401
639.2170, 1760.798
640.3810, 1875.188
641.5450, 1920.570
642.7080, 2049.984
643.8720, 2085.428
645.0350, 2409.912
646.1980, 2098.419
647.3610, 2190.975
648.5240, 2184.559
649.6870, 1915.170
650.8490, 1631.842
652.0120, 1504.570
653.1740, 1279.353
654.3360, 1053.182
655.4980, 908.0518
656.6600, 706.9658
657.8210, 504.9180
658.9830, 326.9277
660.1440, 333.0205
661.3050, 287.1455
662.4660, 336.3467
663.6270, 184.5977
664.7870, 198.8672
665.9480, 151.1689
667.1080, 117.4824
668.2680, 40.19922
669.4280, 111.0869
670.5880, 54.36230
671.7480, 153.6270
672.9070, 111.8799
674.0670, 96.12402
675.2260, 131.3545
676.3850, 19.57617
677.5440, 116.7822
678.7030, 9.978516
679.8610, 76.15918
681.0200, 79.67285
682.1780, 84.56445
683.3360, 79.51953
684.4940, 0.5351560
685.6520, 53.57227
686.8090, 94.65527
687.9670, 3.809570
689.1240, 18.98535
690.2810, 38.80762
691.4380, 85.41406
692.5950, 67.70117
693.7520, 27.04492
694.9080, 80.42578
696.0650, 0.1279300
697.2210, 55.33887
698.3770, 47.85840
699.5330, 56.42578
700.6880, 78.04590
701.8440, 111.7295
702.9990, 28.49609
704.1550, 6.698242
705.3100, 38.12695
706.4650, 155.9961
707.6190, 47.97168
708.7740, 4.995117
709.9290, 37.04199
711.0830, 50.87109
712.2370, 73.77441
713.3910, 51.66992
714.5450, 119.5928
715.6980, 82.47168
716.8520, 116.3428
718.0050, 169.2061
719.1580, 224.0625
720.3110, 203.9092
721.4640, 185.7461
722.6170, 225.5732
723.7700, 166.3887
724.9220, 167.1934
726.0740, 187.9873
727.2260, 55.77148
728.3780, 1.458984
729.5300, 187.2832
730.6810, 61.01367
731.8330, 58.73242
732.9840, 68.43652
734.1350, 46.25293
735.2860, 117.9688
736.4370, 278.6348
737.5880, 266.2891
738.7380, 287.9326
739.8880, 128.8613
741.0390, 252.4824
742.1890, 278.1064
743.3380, 191.7051
744.4880, 287.2920
745.6380, 273.8682
746.7870, 247.4346
747.9360, 397.9883
749.0850, 494.3262
750.2340, 622.8584
751.3830, 741.3799
752.5310, 987.5986
753.6800, 1083.215
754.8280, 1328.720
755.9760, 1766.845
757.1240, 2043.309
758.2720, 2506.030
759.4190, 2813.471
760.5670, 3212.900
761.7140, 3702.694
762.8610, 4079.101
764.0080, 4164.496
765.1550, 4067.880
766.3020, 3631.651
767.4480, 3201.012
768.5950, 2497.360
769.7410, 2019.697
770.8870, 1780.844
772.0330, 1451.158
773.1780, 1196.759
774.3240, 1090.050
775.4690, 926.3291
776.6140, 1062.598
777.7590, 774.8535
778.9040, 650.0986
780.0490, 780.2764
781.1940, 574.4980
782.3380, 446.7090
783.4820, 330.9072
784.6260, 471.0918
785.7700, 516.2656
786.9140, 251.2822
788.0580, 432.4316
789.2010, 293.6543
790.3450, 297.7764
791.4880, 335.8867
792.6310, 384.9834
793.7730, 283.0645
794.9160, 402.4971
796.0590, 367.5518
797.2010, 495.2920
798.3430, 546.3174
799.4850, 551.3271
800.6270, 493.3223
801.7690, 794.3008
802.9100, 762.2656
804.0520, 725.2129
805.1930, 1052.462
806.3340, 1295.799
807.4750, 1667.697
808.6160, 2018.340
809.7560, 2509.209
810.8970, 2813.055
812.0370, 3327.817
813.1770, 3605.640
814.3170, 3803.029
815.4570, 3904.822
816.5960, 3804.086
817.7360, 3586.673
818.8750, 3281.912
820.0140, 2548.790
821.1530, 1852.931
822.2920, 1700.875
823.4310, 1249.545
824.5690, 996.5859
825.7070, 783.2793
826.8460, 661.9756
827.9840, 541.2598
829.1220, 484.7256
830.2590, 521.1982
831.3970, 471.2109
832.5340, 464.8311
833.6710, 496.4658
834.8080, 444.0029
835.9450, 408.1699
837.0820, 400.1025
838.2190, 299.6836
839.3550, 304.6084
840.4910, 300.8340
841.6270, 220.5303
842.7630, 244.4932
843.8990, 168.0312
845.0350, 189.3232
846.1700, 91.29004
847.3060, 215.2207
848.4410, 75.37402
849.5760, 75.62012
850.7100, 9.766602
851.8450, 65.19043
852.9800, 157.4531
854.1140, 97.85254
855.2480, 37.28418
856.3820, 67.71094
857.5160, 214.1309
858.6500, 148.5459
859.7830, 264.9541
860.9170, 136.3564
862.0500, 241.7539
863.1830, 60.14648
864.3160, 114.2471
865.4480, 263.0762
866.5810, 104.4521
867.7130, 159.5625
868.8460, 91.65918
869.9780, 13.20801
871.1100, 28.19336
872.2410, 81.09570
873.3730, 26.41211
874.5050, 56.72461
875.6360, 16.96777
876.7670, 14.40234
877.8980, 8.038086
879.0290, 50.88965
880.1590, 17.16699
881.2900, 17.43945
882.4200, 13.70801
883.5500, 168.9736
884.6800, 26.76465
885.8100, 41.47461
886.9400, 132.7129
888.0690, 42.05371
889.1990, 32.84863
890.3280, 6.333984
891.4570, 7.488281
892.5860, 37.67969
893.7140, 68.15527
894.8430, 56.96777
895.9710, 49.08984
897.1000, 21.79199
898.2280, 173.3105
899.3560, 125.4111
900.4830, 102.5088
901.6110, 56.39648
902.7380, 33.66699
903.8660, 111.7285
904.9930, 88.78711
906.1200, 13.15625
907.2460, 52.90820
908.3730, 3.030273
909.5000, 158.0273
910.6260, 148.0820
911.7520, 27.13574
912.8780, 97.18848
914.0040, 68.23926
915.1290, 35.70996
916.2550, 82.32129
917.3800, 49.35254
918.5050, 108.3818
919.6300, 58.41211
920.7550, 7.439453
921.8800, 35.51465
923.0040, 131.5156
924.1290, 0.4365230
925.2530, 98.60840
926.3770, 106.6787
927.5010, 45.74805
928.6250, 169.8184
929.7480, 64.11133
930.8720, 8.930664
931.9950, 118.0273
933.1180, 87.96094
934.2410, 33.95020
935.3640, 27.94043
936.4860, 74.93164
937.6090, 5.877930
938.7310, 170.9844
939.8530, 47.98828
940.9750, 40.02051
942.0970, 86.04492
943.2180, 14.06934
944.3400, 150.0967
945.4610, 17.13184
946.5820, 125.1699
947.7030, 86.21094
948.8240, 146.2549
949.9450, 94.30273
951.0650, 176.3525
952.1860, 179.4082
953.3060, 246.4678
954.4260, 266.0771
955.5460, 287.6973
956.6650, 311.8545
957.7850, 260.0205
958.9040, 293.2129
960.0230, 408.4385
961.1420, 358.6738
962.2610, 369.9238
963.3800, 255.1768
964.4990, 420.4639
965.6170, 480.7764
966.7350, 539.1152
967.8530, 697.4824
968.9710, 759.8613
970.0890, 1010.265
971.2070, 1028.692
972.3240, 1210.145
973.4410, 1455.629
974.5580, 1619.171
975.6750, 1734.741
976.7920, 1967.321
977.9090, 2014.923
979.0250, 2153.577
980.1410, 2277.256
981.2580, 2000.948
982.3740, 1607.662
983.4890, 1447.384
984.6050, 1259.111
985.7200, 1014.808
986.8360, 950.5488
987.9510, 758.2949
989.0660, 844.0488
990.1810, 689.8076
991.2950, 598.5742
992.4100, 429.3457
993.5240, 447.1240
994.6390, 445.3984
995.7530, 687.6992
996.8660, 582.4980
997.9800, 753.3037
999.0940, 856.1162
1000.207, 897.9463
1001.320, 1039.781
1002.433, 1167.623
1003.546, 1358.475
1004.659, 1405.210
1005.772, 1527.040
1006.884, 1788.916
1007.996, 1900.800
1009.108, 1859.691
1010.220, 2050.293
1011.332, 1971.200
1012.444, 2053.103
1013.555, 2012.024
1014.666, 2294.955
1015.777, 2033.895
1016.888, 2047.842
1017.999, 1950.797
1019.110, 1763.965
1020.220, 1522.937
1021.331, 1435.919
1022.441, 1503.197
1023.551, 1472.077
1024.661, 1614.066
1025.770, 1841.434
1026.880, 1941.459
1027.989, 2057.227
1029.098, 2229.272
1030.207, 2568.326
1031.316, 2657.014
1032.425, 2697.088
1033.533, 2746.172
1034.642, 2523.266
1035.750, 2273.970
1036.858, 2093.082
1037.966, 1889.207
1039.073, 1530.342
1040.181, 1247.639
1041.288, 1078.795
1042.396, 946.6621
1043.503, 868.8389
1044.610, 662.0254
1045.716, 678.2236
1046.823, 584.4326
1047.929, 598.6523
1049.036, 620.9385
1050.142, 523.1787
1051.248, 540.4307
1052.353, 345.6934
1053.459, 402.9678
1054.564, 371.2627
1055.670, 297.9385
1056.775, 394.2139
1057.880, 349.4463
1058.985, 194.5078
1060.089, 261.8467
1061.194, 298.1973
1062.298, 217.5586
1063.402, 263.5674
1064.506, 320.9492
1065.610, 369.5684
1066.713, 377.9736
1067.817, 250.3906
1068.920, 369.8174
1070.023, 347.8867
1071.126, 454.3379
1072.229, 240.7988
1073.332, 409.9551
1074.435, 227.4395
1075.537, 446.9355
1076.639, 398.4414
1077.741, 450.1885
1078.843, 405.7168
1079.945, 572.2559
1081.046, 552.8076
1082.148, 749.3691
1083.249, 749.9424
1084.350, 866.5273
1085.451, 1046.123
1086.551, 938.6299
1087.652, 1165.248
1088.752, 1349.879
1089.853, 1617.522
1090.953, 1857.297
1092.053, 2237.961
1093.152, 2558.635
1094.252, 2692.318
1095.351, 3200.014
1096.451, 3609.720
1097.550, 4135.436
1098.649, 4340.652
1099.748, 4509.389
1100.846, 4478.135
1101.945, 4435.893
1103.043, 3992.880
1104.141, 3647.656
1105.239, 3384.443
1106.337, 3103.691
1107.434, 3004.131
1108.532, 2706.947
1109.629, 2637.772
1110.726, 2513.606
1111.823, 2400.449
1112.920, 2272.301
1114.017, 2345.161
1115.113, 2359.029
1116.210, 2306.908
1117.306, 2238.795
1118.402, 2061.692
1119.498, 1840.598
1120.593, 1895.513
1121.689, 1686.436
1122.784, 1298.370
1123.879, 1065.356
1124.974, 1229.352
1126.069, 1029.355
1127.164, 937.3672
1128.259, 950.3887
1129.353, 639.4756
1130.447, 635.5146
1131.541, 546.5635
1132.635, 399.6201
1133.729, 369.6855
1134.822, 351.7598
1135.916, 298.8438
1137.009, 271.9414
1138.102, 286.0566
1139.195, 261.8906
1140.288, 267.3145
1141.380, 238.4561
1142.473, 264.6133
1143.565, 204.7793
1144.657, 336.9551
1145.749, 251.1387
1146.841, 285.3311
1147.932, 393.5322
1149.024, 271.7412
1150.115, 494.9590
1151.206, 337.2490
1152.297, 330.4932
1153.388, 473.7441
1154.479, 221.0186
1155.569, 319.3105
1156.659, 253.6113
1157.750, 109.9238
1158.839, 224.2461
1159.929, 255.6133
1161.019, 136.9873
1162.108, 78.36914
1163.198, 85.76660
1164.287, 74.17285
1165.376, 134.5918
1166.465, 88.02246
1167.553, 135.4766
1168.642, 155.9463
1169.730, 111.4248
1170.818, 78.08887
1171.906, 215.3750
1172.994, 102.8477
1174.082, 288.3291
1175.170, 174.8184
1176.257, 175.3154
1177.344, 116.8223
1178.431, 152.3359
1179.518, 27.85840
1180.605, 54.39746
1181.691, 155.9434
1182.778, 102.4971
1183.864, 158.0586
1184.950, 76.37109
1186.036, 3.828125
1187.122, 75.27344
1188.207, 110.2539
1189.292, 105.2090
1190.378, 171.2842
1191.463, 67.78613
1192.548, 36.29492
1193.632, 85.81250
1194.717, 50.35059
1195.801, 17.10254
1196.886, 9.471680
1197.970, 113.0527
1199.054, 19.64062
1200.137, 134.7627
1201.221, 41.77441
1202.305, 6.319336
1203.388, 16.87012
1204.471, 225.4395
1205.554, 52.01465
1206.637, 110.5977
1207.719, 21.81152
1208.802, 20.77344
1209.884, 91.36523
1210.966, 51.96484
1212.048, 155.5713
1213.130, 89.18457
1214.212, 8.805664
1215.293, 129.4316
1216.374, 51.93457
1217.456, 52.68164
1218.536, 56.38281
1219.617, 217.0117
1220.698, 18.35352
1221.778, 156.2783
1222.859, 69.91602
1223.939, 25.55957
1225.019, 9.210938
1226.099, 90.86719
1227.178, 59.52930
1228.258, 24.80176
1229.337, 172.8604
1230.417, 171.5264
1231.496, 109.2002
1232.574, 0.8798830
1233.653, 104.5635
1234.732, 59.25195
1235.810, 70.05273
1236.888, 34.38770
1237.966, 147.2656
1239.044, 120.9248
1240.122, 236.5898
1241.199, 172.2607
1242.277, 100.9385
1243.354, 195.6211
1244.431, 176.3242
1245.508, 38.04102
1246.585, 149.7627
1247.661, 111.4902
1248.738, 108.2236
1249.814, 171.9746
1250.890, 230.7334
1251.966, 201.0557
1253.042, 228.7461
1254.117, 214.9414
1255.193, 307.3008
1256.268, 165.0859
1257.343, 50.87500
1258.418, 12.67090
1259.493, 160.4697
1260.567, 167.2754
1261.642, 266.0850
1262.716, 254.9014
1263.790, 190.7217
