##NAMES=Albite
##RRUFFID=R050402
##IDEAL CHEMISTRY=NaAlSi_3_O_8_
##LOCALITY=Urbano mine, Golconda District, Brazil
##OWNER=RRUFF
##SOURCE=Bob Downs
##DESCRIPTION=Colorless tabular single crystals associated with fluorapatite R050401
##STATUS=The identification of this mineral has been confirmed by X-ray diffraction and chemical analysis
##URL=rruff.info/R050402
##MEASURED CHEMISTRY=Na_1.00_Al_1.00_Si_3.00_O_8_
##PIN_ID=M00171
##ORIENTATION=Laser parallel to (1 1 0). Fiducial mark perpendicular to laser is parallel to c [0 0 1]
81.13100, 0.0000000E+00
82.36700, 7.034424
83.60200, 18.57324
84.83700, 39.25146
86.07200, 114.2012
87.30800, 134.8911
88.54200, 223.1118
89.77700, 261.1636
91.01200, 281.4658
92.24600, 248.1699
93.48000, 232.9014
94.71400, 50.58838
95.94800, 184.3853
97.18200, 200.6074
98.41600, 398.6963
99.64900, 547.1997
100.8830, 895.7632
102.1160, 1206.095
103.3490, 1842.920
104.5820, 2515.995
105.8150, 3145.105
107.0470, 3688.062
108.2800, 4130.702
109.5120, 4523.163
110.7440, 4872.087
111.9760, 5091.331
113.2080, 5300.392
114.4400, 5476.550
115.6710, 5378.738
116.9030, 5047.913
118.1340, 4150.063
119.3650, 3252.172
120.5960, 2356.283
121.8270, 1776.219
123.0580, 1332.901
124.2880, 1085.271
125.5190, 843.2734
126.7490, 579.8618
127.9790, 551.9937
129.2090, 437.6313
130.4390, 542.7412
131.6680, 510.2944
132.8980, 481.2627
134.1270, 442.6226
135.3560, 579.3511
136.5850, 670.4277
137.8140, 771.8330
139.0430, 1003.549
140.2710, 1101.561
141.5000, 1446.851
142.7280, 1585.406
143.9560, 1744.212
145.1840, 2040.257
146.4120, 2273.529
147.6390, 2522.029
148.8670, 2815.832
150.0940, 3034.030
151.3210, 3301.699
152.5490, 3639.842
153.7750, 3771.664
155.0020, 3607.086
156.2290, 3428.649
157.4550, 3295.857
158.6810, 3316.143
159.9080, 3601.079
161.1340, 3826.494
162.3590, 4169.938
163.5850, 4283.423
164.8110, 4450.941
166.0360, 4250.515
167.2610, 4148.093
168.4860, 3937.683
169.7110, 3974.589
170.9360, 3794.913
172.1610, 4096.565
173.3850, 4214.246
174.6100, 4339.957
175.8340, 4451.702
177.0580, 4711.481
178.2820, 5009.299
179.5050, 5230.152
180.7290, 5348.042
181.9520, 5820.971
183.1760, 6074.938
184.3990, 6165.942
185.6220, 6435.982
186.8450, 6378.061
188.0670, 6218.174
189.2900, 6032.325
190.5120, 5586.510
191.7340, 5191.729
192.9560, 4737.981
194.1780, 4537.265
195.4000, 4362.578
196.6220, 4411.919
197.8430, 4476.289
199.0640, 4901.683
200.2860, 5284.103
201.5070, 5798.548
202.7270, 6103.014
203.9480, 6266.502
205.1690, 6415.012
206.3890, 6609.539
207.6090, 6698.087
208.8290, 7107.651
210.0490, 7134.233
211.2690, 6708.829
212.4890, 6065.440
213.7080, 5213.809
214.9280, 4148.193
216.1470, 3061.097
217.3660, 2401.864
218.5850, 1695.874
219.8030, 1174.772
221.0220, 865.0659
222.2400, 617.6772
223.4590, 399.8506
224.6770, 288.3604
225.8950, 223.1382
227.1120, 134.2544
228.3300, 66.45068
229.5480, 43.70508
230.7650, 71.47119
231.9820, 62.81689
233.1990, 4.960449
234.4160, 45.89746
235.6330, 62.18506
236.8490, 44.50732
238.0660, 13.06055
239.2820, 7.547852
240.4980, 115.8154
241.7140, 146.8149
242.9300, 196.9751
244.1460, 432.5181
245.3610, 555.9951
246.5770, 590.6406
247.7920, 620.8564
249.0070, 740.6143
250.2220, 920.7285
251.4370, 982.2104
252.6510, 1003.592
253.8660, 983.0938
255.0800, 1034.708
256.2940, 1012.427
257.5080, 1096.243
258.7220, 1304.151
259.9360, 1543.146
261.1490, 1894.223
262.3630, 1952.375
263.5760, 2258.599
264.7890, 2458.890
266.0020, 2880.243
267.2150, 3161.655
268.4270, 3245.119
269.6400, 3516.635
270.8520, 3615.196
272.0640, 3772.802
273.2760, 3630.450
274.4880, 3563.136
275.7000, 3460.857
276.9120, 3740.614
278.1230, 4017.402
279.3340, 4840.222
280.5450, 5846.067
281.7560, 7085.940
282.9670, 8513.840
284.1780, 9793.758
285.3880, 11047.70
286.5980, 12057.66
287.8090, 13267.65
289.0190, 14341.64
290.2290, 15153.66
291.4380, 15291.69
292.6480, 14865.73
293.8570, 13742.79
295.0670, 11808.86
296.2760, 9696.935
297.4850, 7575.017
298.6930, 5795.104
299.9020, 4360.195
301.1110, 3566.282
302.3190, 2772.368
303.5270, 2172.442
304.7350, 1945.502
305.9430, 1655.551
307.1510, 1363.594
308.3580, 1192.630
309.5660, 1063.659
310.7730, 1021.681
311.9800, 907.6953
313.1870, 816.7017
314.3940, 742.7007
315.6010, 680.6914
316.8070, 625.6738
318.0130, 380.6479
319.2200, 571.6133
320.4260, 452.5688
321.6310, 607.5161
322.8370, 553.4531
324.0430, 614.3813
325.2480, 661.2979
326.4540, 677.2051
327.6590, 688.1011
328.8640, 750.9863
330.0680, 755.8604
331.2730, 649.7227
332.4780, 610.5728
333.6820, 436.4121
334.8860, 282.2378
336.0900, 272.0513
337.2940, 83.85205
338.4980, 200.6392
339.7010, 82.41309
340.9050, 61.17334
342.1080, 47.91992
343.3110, 6.652344
344.5140, 38.36523
345.7170, 45.06348
346.9200, 24.25244
348.1220, 25.40332
349.3240, 8.958008
350.5270, 3.654785
351.7290, 1.755371
352.9310, 94.18994
354.1320, 19.67188
355.3340, 50.81494
356.5350, 72.71436
357.7370, 38.28809
358.9380, 22.90332
360.1390, 23.43408
361.3400, 63.26416
362.5400, 88.02344
363.7410, 27.88232
364.9410, 116.8071
366.1410, 51.82666
367.3410, 38.92285
368.5410, 197.1113
369.7410, 150.4478
370.9400, 76.93799
372.1400, 119.5615
373.3390, 180.2466
374.5380, 3.1738002E-02
375.7370, 200.8320
376.9360, 24.51270
378.1350, 122.4766
379.3330, 38.01855
380.5310, 29.88867
381.7300, 186.5161
382.9280, 96.78320
384.1260, 56.20410
385.3230, 78.62012
386.5210, 55.88623
387.7180, 27.37451
388.9160, 34.83350
390.1130, 64.26660
391.3100, 53.68066
392.5060, 21.07178
393.7030, 211.4258
394.9000, 105.7700
396.0960, 222.1011
397.2920, 220.4199
398.4880, 316.7295
399.6840, 421.0278
400.8800, 601.3130
402.0750, 670.5845
403.2710, 910.8613
404.4660, 973.1348
405.6610, 1053.400
406.8560, 1244.662
408.0510, 1520.908
409.2450, 1681.151
410.4400, 1820.404
411.6340, 1815.681
412.8280, 1698.947
414.0220, 1707.197
415.2160, 1745.433
416.4100, 1809.651
417.6030, 1824.870
418.7970, 1560.084
419.9900, 1321.312
421.1830, 1092.538
422.3760, 809.7559
423.5690, 586.9556
424.7610, 493.1357
425.9540, 398.3208
427.1460, 359.5103
428.3380, 308.6797
429.5300, 355.8657
430.7220, 343.0322
431.9140, 307.1836
433.1050, 419.3145
434.2970, 401.4263
435.4880, 461.5166
436.6790, 471.5854
437.8700, 376.6328
439.0610, 575.6577
440.2510, 611.6611
441.4420, 556.6431
442.6320, 705.6035
443.8220, 851.5415
445.0120, 811.4570
446.2020, 1066.351
447.3910, 1186.223
448.5810, 1366.073
449.7700, 1527.901
450.9600, 1581.708
452.1490, 1833.492
453.3370, 2285.255
454.5260, 2455.994
455.7150, 2910.712
456.9030, 3097.410
458.0910, 3340.084
459.2800, 3553.738
460.4670, 3826.368
461.6550, 4341.978
462.8430, 4821.565
464.0300, 5553.130
465.2180, 6679.674
466.4050, 8284.196
467.5920, 10424.70
468.7790, 13546.17
469.9650, 17441.63
471.1520, 22193.07
472.3380, 26608.48
473.5250, 30322.88
474.7110, 33584.25
475.8970, 37346.60
477.0820, 40305.93
478.2680, 42592.24
479.4540, 42730.51
480.6390, 41359.79
481.8240, 37877.03
483.0090, 31761.25
484.1940, 25610.45
485.3780, 19919.63
486.5630, 15830.12
487.7470, 12800.25
488.9320, 10874.37
490.1160, 9581.945
491.3000, 9129.786
492.4830, 9297.964
493.6670, 9699.718
494.8500, 11144.06
496.0340, 13329.07
497.2170, 16565.23
498.4000, 20587.17
499.5820, 25757.05
500.7650, 31021.81
501.9480, 36110.36
503.1300, 40211.19
504.3120, 44457.12
505.4940, 48013.49
506.6760, 50649.25
507.8580, 51386.70
509.0390, 50034.84
510.2210, 45621.64
511.4020, 39135.90
512.5830, 32094.95
513.7640, 25061.21
514.9450, 19532.89
516.1250, 15171.75
517.3060, 12243.26
518.4860, 10078.62
519.6660, 8192.568
520.8460, 6930.703
522.0260, 6026.738
523.2060, 5276.216
524.3850, 4706.165
525.5650, 4138.615
526.7440, 3680.381
527.9230, 3341.771
529.1020, 2991.308
530.2810, 2759.610
531.4590, 2541.720
532.6380, 2328.349
533.8160, 2146.633
534.9940, 1912.761
536.1720, 1839.528
537.3500, 1722.266
538.5270, 1651.829
539.7050, 1485.126
540.8820, 1443.157
542.0590, 1249.816
543.2360, 1215.565
544.4130, 1204.495
545.5900, 1079.682
546.7660, 1048.844
547.9430, 1093.939
549.1190, 856.5386
550.2950, 882.2363
551.4710, 902.9038
552.6470, 825.1089
553.8220, 720.6777
554.9980, 699.7246
556.1730, 758.9268
557.3480, 701.6948
558.5230, 825.5723
559.6980, 615.0986
560.8730, 759.0483
562.0470, 686.5171
563.2220, 717.0737
564.3960, 692.0801
565.5700, 698.4829
566.7440, 800.6641
567.9170, 753.6323
569.0910, 753.0718
570.2640, 897.1348
571.4380, 918.6182
572.6110, 1027.986
573.7840, 1058.740
574.9570, 1085.250
576.1290, 1298.568
577.3020, 1280.874
578.4740, 1337.172
579.6460, 1231.460
580.8180, 1323.739
581.9900, 1173.010
583.1620, 1028.271
584.3330, 904.5239
585.5040, 732.7681
586.6760, 642.7759
587.8470, 475.2314
589.0180, 458.4502
590.1880, 490.7251
591.3590, 427.9277
592.5290, 328.1221
593.7000, 304.3101
594.8700, 248.4956
596.0400, 310.6890
597.2090, 289.8740
598.3790, 223.0522
599.5490, 167.2222
600.7180, 201.3989
601.8870, 314.5767
603.0560, 191.7485
604.2250, 341.9121
605.3940, 288.0693
606.5620, 238.2192
607.7300, 336.3696
608.8990, 233.5474
610.0670, 237.7173
611.2350, 268.8813
612.4020, 222.0386
613.5700, 160.1885
614.7370, 197.3516
615.9050, 195.5137
617.0720, 206.6694
618.2390, 314.8188
619.4060, 392.9614
620.5720, 271.0981
621.7390, 377.2363
622.9050, 289.3730
624.0710, 506.5024
625.2370, 554.6338
626.4030, 483.7588
627.5690, 655.8828
628.7340, 677.0015
629.9000, 406.1143
631.0650, 501.2344
632.2300, 561.3506
633.3950, 407.4707
634.5600, 521.5938
635.7240, 520.7202
636.8890, 403.8730
638.0530, 666.0415
639.2170, 723.2090
640.3810, 576.3979
641.5450, 739.6025
642.7080, 737.8174
643.8720, 804.0352
645.0350, 885.2754
646.1980, 817.5435
647.3610, 754.8271
648.5240, 771.1484
649.6870, 819.4937
650.8490, 800.8799
652.0120, 652.3242
653.1740, 528.8159
654.3360, 548.3364
655.4980, 411.8970
656.6600, 366.5137
657.8210, 269.1411
658.9830, 245.8311
660.1440, 308.5386
661.3050, 215.2886
662.4660, 254.0605
663.6270, 98.85107
664.7870, 123.7095
665.9480, 73.60449
667.1080, 201.5264
668.2680, 52.47998
669.4280, 140.4341
670.5880, 12.39600
671.7480, 58.36084
672.9070, 22.32666
674.0670, 55.29102
675.2260, 37.26318
676.3850, 22.73633
677.5440, 73.18848
678.7030, 6.142578
679.8610, 19.08398
681.0200, 48.01660
682.1780, 37.94287
683.3360, 54.13770
684.4940, 26.26270
685.6520, 9.813477
686.8090, 24.59326
687.9670, 53.20166
689.1240, 34.00928
690.2810, 81.25439
691.4380, 137.5581
692.5950, 4.8340000E-02
693.7520, 17.63818
694.9080, 10.21875
696.0650, 33.78662
697.2210, 52.65332
698.3770, 31.13818
699.5330, 101.6558
700.6880, 46.24365
701.8440, 15.87256
702.9990, 17.47314
704.1550, 75.80811
705.3100, 73.86182
706.4650, 70.58740
707.6190, 60.63330
708.7740, 120.1519
709.9290, 48.98389
711.0830, 2.113770
712.2370, 27.22803
713.3910, 44.33252
714.5450, 75.43115
715.6980, 116.5840
716.8520, 142.6157
718.0050, 195.7017
719.1580, 204.1489
720.3110, 209.8604
721.4640, 193.9341
722.6170, 154.0029
723.7700, 140.0679
724.9220, 233.1289
726.0740, 187.1855
727.2260, 111.2378
728.3780, 58.28662
729.5300, 192.3311
730.6810, 101.3711
731.8330, 282.5449
732.9840, 122.8174
734.1350, 88.24951
735.2860, 186.2744
736.4370, 163.2944
737.5880, 200.3105
738.7380, 232.4580
739.8880, 346.3374
741.0390, 326.4248
742.1890, 294.4238
743.3380, 436.4185
744.4880, 531.4102
745.6380, 550.1191
746.7870, 555.9536
747.9360, 692.9302
749.0850, 786.9033
750.2340, 959.8721
751.3830, 1095.836
752.5310, 1501.223
753.6800, 1843.300
754.8280, 2301.249
755.9760, 3045.193
757.1240, 3449.133
758.2720, 4197.068
759.4190, 4977.576
760.5670, 5620.413
761.7140, 6250.332
762.8610, 6460.634
764.0080, 6596.545
765.1550, 6247.449
766.3020, 5681.351
767.4480, 5021.247
768.5950, 4193.139
769.7410, 3536.023
770.8870, 2921.906
772.0330, 2585.781
773.1780, 2319.653
774.3240, 2139.521
775.4690, 1989.838
776.6140, 1922.226
777.7590, 1764.077
778.9040, 1484.924
780.0490, 1212.766
781.1940, 1082.701
782.3380, 795.5322
783.4820, 768.3574
784.6260, 671.3115
785.7700, 544.1250
786.9140, 533.5449
788.0580, 443.4463
789.2010, 450.2432
790.3450, 323.0322
791.4880, 388.8154
792.6310, 345.5928
793.7730, 319.3633
794.9160, 392.1260
796.0590, 354.8818
797.2010, 351.6299
798.3430, 398.4150
799.4850, 501.1494
800.6270, 451.8760
801.7690, 462.3574
802.9100, 507.0674
804.0520, 677.7705
805.1930, 756.4639
806.3340, 908.0820
807.4750, 997.7588
808.6160, 1178.791
809.7560, 1505.144
810.8970, 1579.414
812.0370, 1847.992
813.1770, 2117.438
814.3170, 2211.668
815.4570, 2221.289
816.5960, 2293.160
817.7360, 2073.282
818.8750, 1873.764
820.0140, 1493.141
821.1530, 1248.322
822.2920, 1065.233
823.4310, 825.1562
824.5690, 753.1299
825.7070, 646.5879
826.8460, 511.9336
827.9840, 398.2949
829.1220, 427.1074
830.2590, 389.5410
831.3970, 374.4844
832.5340, 336.2598
833.6710, 334.4561
834.8080, 229.5303
835.9450, 403.9424
837.0820, 347.9189
838.2190, 141.3643
839.3550, 256.7080
840.4910, 306.5918
841.6270, 308.0664
842.7630, 295.7510
843.8990, 242.6367
845.0350, 239.5508
846.1700, 240.1992
847.3060, 211.1416
848.4410, 210.5811
849.5760, 247.6230
850.7100, 200.6934
851.8450, 104.3564
852.9800, 153.8135
854.1140, 161.2695
855.2480, 165.7236
856.3820, 238.1758
857.5160, 269.6270
858.6500, 240.0781
859.7830, 166.5273
860.9170, 286.9746
862.0500, 156.4209
863.1830, 237.8672
864.3160, 199.3105
865.4480, 105.6895
866.5810, 28.13086
867.7130, 1.073242
868.8460, 18.02441
869.9780, 53.56543
871.1100, 18.82715
872.2410, 16.21777
873.3730, 59.61035
874.5050, 49.99902
875.6360, 29.63574
876.7670, 1.708008
877.8980, 46.04980
879.0290, 59.38965
880.1590, 75.73145
881.2900, 27.92773
882.4200, 126.6035
883.5500, 82.65234
884.6800, 13.90918
885.8100, 85.16504
886.9400, 77.42090
888.0690, 73.32324
889.1990, 19.10547
890.3280, 28.10059
891.4570, 83.30762
892.5860, 29.51562
893.7140, 166.7236
894.8430, 28.06836
895.9710, 16.87402
897.1000, 16.31152
898.2280, 25.50293
899.3560, 36.67090
900.4830, 67.84473
901.6110, 19.02051
902.7380, 51.19629
903.8660, 53.87988
904.9930, 62.55273
906.1200, 78.73242
907.2460, 80.91406
908.3730, 92.09961
909.5000, 183.2891
910.6260, 29.50586
911.7520, 12.30273
912.8780, 45.90723
914.0040, 74.12109
915.1290, 34.33398
916.2550, 1.449219
917.3800, 55.76660
918.5050, 28.98535
919.6300, 2.793945
920.7550, 39.42676
921.8800, 15.35059
923.0040, 93.12988
924.1290, 37.04883
925.2530, 69.23242
926.3770, 3.420898
927.5010, 120.6387
928.6250, 125.8574
929.7480, 183.0830
930.8720, 38.31250
931.9950, 136.5449
933.1180, 0.2197270
934.2410, 12.01953
935.3640, 106.2812
936.4860, 40.45410
937.6090, 136.7988
938.7310, 80.05566
939.8530, 34.31641
940.9750, 70.58203
942.0970, 106.8662
943.2180, 18.84570
944.3400, 72.44336
945.4610, 68.73730
946.5820, 27.03613
947.7030, 23.33984
948.8240, 88.65039
949.9450, 97.96777
951.0650, 129.2920
952.1860, 109.6270
953.3060, 114.9668
954.4260, 47.31250
955.5460, 91.66895
956.6650, 193.0498
957.7850, 156.4473
958.9040, 221.8584
960.0230, 192.2881
961.1420, 324.7227
962.2610, 172.1787
963.3800, 301.6660
964.4990, 295.2021
965.6170, 419.7490
966.7350, 301.3135
967.8530, 508.8887
968.9710, 533.4697
970.0890, 770.0781
971.2070, 679.7051
972.3240, 835.3721
973.4410, 1051.071
974.5580, 1205.791
975.6750, 1340.519
976.7920, 1349.254
977.9090, 1481.021
979.0250, 1409.819
980.1410, 1414.624
981.2580, 1215.475
982.3740, 1068.332
983.4890, 907.2012
984.6050, 679.0801
985.7200, 821.9678
986.8360, 522.8613
987.9510, 490.7637
989.0660, 561.6719
990.1810, 442.5879
991.2950, 457.5127
992.4100, 406.4424
993.5240, 383.3809
994.6390, 393.3262
995.7530, 484.2793
996.8660, 437.2393
997.9800, 572.2090
999.0940, 612.1846
1000.207, 834.1680
1001.320, 1002.160
1002.433, 1093.022
1003.546, 1271.790
1004.659, 1379.401
1005.772, 1438.615
1006.884, 1350.458
1007.996, 1471.498
1009.108, 1351.413
1010.220, 1216.600
1011.332, 1317.583
1012.444, 1264.658
1013.555, 1436.743
1014.666, 1388.836
1015.777, 1215.215
1016.888, 1268.476
1017.999, 1110.598
1019.110, 1019.729
1020.220, 928.8701
1021.331, 899.0205
1022.441, 941.7529
1023.551, 860.8018
1024.661, 980.9834
1025.770, 986.1748
1026.880, 1232.377
1027.989, 1272.589
1029.098, 1340.232
1030.207, 1460.557
1031.316, 1527.801
1032.425, 1539.671
1033.533, 1619.938
1034.642, 1456.214
1035.750, 1416.503
1036.858, 1355.802
1037.966, 1113.112
1039.073, 912.4346
1040.181, 929.7676
1041.288, 956.5781
1042.396, 1008.562
1043.503, 911.7529
1044.610, 1100.379
1045.716, 941.6436
1046.823, 1034.043
1047.929, 896.4521
1049.036, 918.8740
1050.142, 913.2051
1051.248, 671.6484
1052.353, 801.1035
1053.459, 598.4355
1054.564, 611.9131
1055.670, 530.7891
1056.775, 458.7422
1057.880, 476.8340
1058.985, 466.0723
1060.089, 468.8779
1061.194, 512.4219
1062.298, 460.7109
1063.402, 426.2783
1064.506, 431.8564
1065.610, 566.6064
1066.713, 640.1621
1067.817, 522.1016
1068.920, 808.7236
1070.023, 539.9434
1071.126, 759.5879
1072.229, 845.2432
1073.332, 795.9102
1074.435, 856.1348
1075.537, 989.8223
1076.639, 1038.875
1077.741, 1180.586
1078.843, 1323.308
1079.945, 1401.040
1081.046, 1555.980
1082.148, 1639.733
1083.249, 1814.045
1084.350, 2200.820
1085.451, 2362.606
1086.551, 2775.404
1087.652, 3183.876
1088.752, 3706.695
1089.853, 4464.525
1090.953, 5165.365
1092.053, 6279.217
1093.152, 7123.078
1094.252, 8496.949
1095.351, 9461.833
1096.451, 10472.73
1097.550, 11468.63
1098.649, 12229.43
1099.748, 12243.36
1100.846, 12082.29
1101.945, 11546.24
1103.043, 10951.19
1104.141, 9988.154
1105.239, 9164.672
1106.337, 8301.453
1107.434, 7799.477
1108.532, 7220.512
1109.629, 6858.553
1110.726, 6605.604
1111.823, 6352.668
1112.920, 5981.736
1114.017, 5993.814
1115.113, 5957.903
1116.210, 5632.000
1117.306, 5253.126
1118.402, 4938.260
1119.498, 4445.416
1120.593, 4209.580
1121.689, 3738.752
1122.784, 3078.935
1123.879, 2669.125
1124.974, 2439.324
1126.069, 2157.533
1127.164, 1947.749
1128.259, 1668.975
1129.353, 1515.208
1130.447, 1127.450
1131.541, 1024.701
1132.635, 1020.960
1133.729, 910.2344
1134.822, 963.5176
1135.916, 659.8164
1137.009, 564.1387
1138.102, 507.4697
1139.195, 457.8086
1140.288, 442.1572
1141.380, 406.9277
1142.473, 376.2246
1143.565, 402.3135
1144.657, 342.7266
1145.749, 406.1484
1146.841, 447.5771
1147.932, 379.0225
1149.024, 432.5176
1150.115, 402.0205
1151.206, 391.5371
1152.297, 425.0635
1153.388, 394.5967
1154.479, 327.1582
1155.569, 278.7344
1156.659, 318.3174
1157.750, 292.9111
1158.839, 265.8008
1159.929, 276.1191
1161.019, 163.7529
1162.108, 212.3994
1163.198, 79.05469
1164.287, 121.7314
1165.376, 176.4160
1166.465, 83.10840
1167.553, 284.8066
1168.642, 81.51367
1169.730, 190.2266
1170.818, 59.94727
1171.906, 12.32227
1172.994, 15.87109
1174.082, 58.51953
1175.170, 56.14453
1176.257, 50.43945
1177.344, 43.25195
1178.431, 46.95215
1179.518, 53.65723
1180.605, 59.37012
1181.691, 49.08887
1182.778, 109.8154
1183.864, 59.54883
1184.950, 10.29004
1186.036, 130.0371
1187.122, 12.20703
1188.207, 2.573242
1189.292, 18.64258
1190.378, 103.8594
1191.463, 17.87988
1192.548, 15.37500
1193.632, 8.659180
1194.717, 149.1191
1195.801, 2.124023
1196.886, 46.63477
1197.970, 79.59863
1199.054, 8.134766
1200.137, 6.125977
1201.221, 10.62402
1202.305, 166.3779
1203.388, 25.13770
1204.471, 65.09766
1205.554, 48.64258
1206.637, 46.38770
1207.719, 12.14160
1208.802, 15.90039
1209.884, 29.66504
1210.966, 1.565430
1212.048, 18.20801
1213.130, 9.015625
1214.212, 79.76074
1215.293, 79.54199
1216.374, 19.32910
1217.456, 10.87988
1218.536, 74.90918
1219.617, 95.70312
1220.698, 113.5010
1221.778, 91.30469
1222.859, 106.7822
1223.939, 90.42285
1225.019, 110.7393
1226.099, 36.55859
1227.178, 43.38379
1228.258, 32.78809
1229.337, 85.29785
1230.417, 45.11621
1231.496, 148.9404
1232.574, 62.76855
1233.653, 11.59961
1234.732, 22.12891
1235.810, 8.253906
1236.888, 112.5156
1237.966, 44.33984
1239.044, 122.2363
1240.122, 104.0918
1241.199, 147.9258
1242.277, 60.76270
1243.354, 123.6016
1244.431, 131.5625
1245.508, 137.4131
1246.585, 196.9834
1247.661, 93.83887
1248.738, 126.4326
1249.814, 138.3135
1250.890, 135.1973
1251.966, 158.0820
1253.042, 158.9697
1254.117, 117.8594
1255.193, 133.7510
1256.268, 99.64551
1257.343, 173.5420
1258.418, 163.4414
1259.493, 107.4492
1260.567, 206.3525
1261.642, 132.2568
1262.716, 307.2734
