##NAMES=Albite
##RRUFFID=R050253
##IDEAL CHEMISTRY=NaAlSi_3_O_8_
##LOCALITY=Madawaska/Faraday mine, Bancroft, Ontario, Canada
##OWNER=RRUFF
##SOURCE=Marcus Origlieri
##DESCRIPTION=Colorless to brown prismatic single crystals
##STATUS=The identification of this mineral has been confirmed by X-ray diffraction and chemical analysis
##URL=rruff.info/R050253
##MEASURED CHEMISTRY=(Na_0.99_Ca_0.01_)Al_1.00_(Si_0.99_Al_0.01_)_3_O_8_
##PIN_ID=L01462
##ORIENTATION=Laser parallel to (1 0 1). Fiducial mark perpendicular to laser is parallel to b [0 1 0]
94.71400, 0.0000000E+00
95.94800, 32.52441
97.18200, 2.719727
98.41600, 68.53223
99.64900, 96.12402
100.8830, 243.2012
102.1160, 219.6943
103.3490, 324.9453
104.5820, 365.9482
105.8150, 886.2559
107.0470, 1215.648
108.2800, 1298.978
109.5120, 1917.770
110.7440, 1870.071
111.9760, 1520.542
113.2080, 1432.555
114.4400, 1550.613
115.6710, 1542.908
116.9030, 1640.728
118.1340, 1369.937
119.3650, 1073.394
120.5960, 657.9961
121.8270, 457.6777
123.0580, 476.3760
124.2880, 384.0498
125.5190, 219.6689
126.7490, 65.79297
127.9790, 7.351563
129.2090, 40.91211
130.4390, 161.3027
131.6680, 107.1006
132.8980, 9.649414
134.1270, 2.817383
135.3560, 77.85645
136.5850, 281.4131
137.8140, 458.4336
139.0430, 678.9453
140.2710, 764.9824
141.5000, 949.5771
142.7280, 1173.769
143.9560, 1540.593
145.1840, 1920.080
146.4120, 2286.253
147.6390, 3107.127
148.8670, 3936.723
150.0940, 4682.051
151.3210, 5885.129
152.5490, 7480.964
153.7750, 8757.567
155.0020, 9826.950
156.2290, 10807.12
157.4550, 11877.08
158.6810, 13012.85
159.9080, 14151.45
161.1340, 15912.95
162.3590, 17211.27
163.5850, 18334.20
164.8110, 18803.96
166.0360, 17788.19
167.2610, 16277.30
168.4860, 14250.82
169.7110, 12253.59
170.9360, 11014.96
172.1610, 10305.34
173.3850, 10082.99
174.6100, 10029.41
175.8340, 10169.69
177.0580, 10356.23
178.2820, 10589.40
179.5050, 10790.21
180.7290, 11195.35
181.9520, 11795.48
183.1760, 11916.59
184.3990, 12450.65
185.6220, 12551.62
186.8450, 12613.55
188.0670, 12344.50
189.2900, 12122.54
190.5120, 11007.60
191.7340, 10070.75
192.9560, 9079.933
194.1780, 8046.123
195.4000, 7209.300
196.6220, 6913.439
197.8430, 6559.548
199.0640, 6572.613
200.2860, 7077.638
201.5070, 7531.621
202.7270, 7790.562
203.9480, 7869.459
205.1690, 8254.306
206.3890, 8219.099
207.6090, 8617.830
208.8290, 9243.496
210.0490, 9872.100
211.2690, 9958.646
212.4890, 9700.130
213.7080, 8503.552
214.9280, 7097.914
216.1470, 5605.220
217.3660, 4255.480
218.5850, 3146.669
219.8030, 2422.802
221.0220, 1656.977
222.2400, 1435.449
223.4590, 971.1768
224.6770, 782.2344
225.8950, 672.7207
227.1120, 384.9287
228.3300, 409.5400
229.5480, 290.0576
230.7650, 281.2695
231.9820, 130.8027
233.1990, 158.0566
234.4160, 181.3496
235.6330, 31.83691
236.8490, 103.6592
238.0660, 111.9697
239.2820, 38.06543
240.4980, 34.65527
241.7140, 42.19141
242.9300, 103.9580
244.1460, 24.03516
245.3610, 14.12500
246.5770, 60.90625
247.7920, 111.8506
249.0070, 106.1270
250.2220, 19.02441
251.4370, 54.17480
252.6510, 126.7822
253.8660, 157.4102
255.0800, 226.3320
256.2940, 90.18164
257.5080, 321.7539
258.7220, 358.0771
259.9360, 537.3574
261.1490, 724.5303
262.3630, 614.6572
263.5760, 340.7500
264.7890, 640.8027
266.0020, 546.8164
267.2150, 800.7920
268.4270, 914.7275
269.6400, 1126.623
270.8520, 1460.478
272.0640, 1591.292
273.2760, 1631.677
274.4880, 2094.381
275.7000, 2510.956
276.9120, 3224.609
278.1230, 3962.748
279.3340, 4915.230
280.5450, 6443.074
281.7560, 8168.065
282.9670, 9997.253
284.1780, 11399.78
285.3880, 12942.40
286.5980, 14727.66
287.8090, 15988.25
289.0190, 18085.05
290.2290, 19797.06
291.4380, 21209.59
292.6480, 21545.47
293.8570, 20876.30
295.0670, 18736.92
296.2760, 15773.81
297.4850, 12763.54
298.6930, 9822.733
299.9020, 7675.369
301.1110, 5712.962
302.3190, 4705.513
303.5270, 3823.021
304.7350, 3100.490
305.9430, 2832.919
307.1510, 2396.309
308.3580, 2206.653
309.5660, 2356.945
310.7730, 1961.180
311.9800, 2032.209
313.1870, 1871.122
314.3940, 1773.875
315.6010, 1826.441
316.8070, 1481.854
318.0130, 1329.046
319.2200, 1270.141
320.4260, 1315.186
321.6310, 1241.512
322.8370, 1155.146
324.0430, 1270.083
325.2480, 1238.991
326.4540, 1336.871
327.6590, 1338.856
328.8640, 1173.554
330.0680, 1292.354
331.2730, 1238.127
332.4780, 1087.875
333.6820, 969.5957
334.8860, 797.2900
336.0900, 902.9561
337.2940, 753.5938
338.4980, 417.2051
339.7010, 512.7881
340.9050, 455.3408
342.1080, 502.8662
343.3110, 438.3643
344.5140, 394.8330
345.7170, 508.2734
346.9200, 318.6855
348.1220, 433.0693
349.3240, 264.4238
350.5270, 395.7500
351.7290, 445.0469
352.9310, 375.3174
354.1320, 235.5596
355.3340, 225.7715
356.5350, 117.9541
357.7370, 41.10449
358.9380, 117.2207
360.1390, 84.30566
361.3400, 21.64258
362.5400, 159.3623
363.7410, 160.3379
364.9410, 74.28418
366.1410, 188.1973
367.3410, 135.0791
368.5410, 122.9277
369.7410, 146.2539
370.9400, 173.4805
372.1400, 155.8369
373.3390, 86.23633
374.5380, 93.86426
375.7370, 70.11035
376.9360, 19.94043
378.1350, 2.282227
379.3330, 79.52930
380.5310, 99.80371
381.7300, 77.10059
382.9280, 51.66895
384.1260, 27.31055
385.3230, 54.17383
386.5210, 42.41992
387.7180, 34.94727
388.9160, 12.64355
390.1130, 5.314453
391.3100, 5.291016
392.5060, 20.02637
393.7030, 112.0820
394.9000, 294.5723
396.0960, 165.5117
397.2920, 137.5020
398.4880, 527.7129
399.6840, 709.3086
400.8800, 854.7803
402.0750, 902.7139
403.2710, 1093.790
404.4660, 1124.161
405.6610, 1374.514
406.8560, 1394.840
408.0510, 1737.767
409.2450, 1942.078
410.4400, 2003.391
411.6340, 1740.697
412.8280, 1241.027
414.0220, 850.3359
415.2160, 536.6318
416.4100, 408.9053
417.6030, 107.1777
418.7970, 107.4404
419.9900, 263.7344
421.1830, 79.02637
422.3760, 32.34180
423.5690, 99.35449
424.7610, 90.09180
425.9540, 28.88184
427.1460, 7.686523
428.3380, 43.52930
429.5300, 99.41895
430.7220, 77.33594
431.9140, 27.31348
433.1050, 34.94727
434.2970, 23.26855
435.4880, 20.72070
436.6790, 19.67773
437.8700, 57.60156
439.0610, 220.5459
440.2510, 354.4658
441.4420, 124.3672
442.6320, 258.2412
443.8220, 400.0898
445.0120, 381.9141
446.2020, 493.7168
447.3910, 842.5117
448.5810, 980.2822
449.7700, 1190.027
450.9600, 1360.748
452.1490, 1528.445
453.3370, 1663.120
454.5260, 1780.776
455.7150, 2016.409
456.9030, 2317.018
458.0910, 2694.602
459.2800, 2828.162
460.4670, 3036.701
461.6550, 3379.221
462.8430, 3459.717
464.0300, 4283.195
465.2180, 4955.650
466.4050, 5921.084
467.5920, 7483.496
468.7790, 9445.888
469.9650, 12121.26
471.1520, 14920.60
472.3380, 17851.93
473.5250, 20279.23
474.7110, 22463.52
475.8970, 25275.79
477.0820, 28110.03
478.2680, 31336.25
479.4540, 33316.45
480.6390, 34216.63
481.8240, 32416.77
483.0090, 28642.91
484.1940, 23531.02
485.3780, 19006.12
486.5630, 14921.19
487.7470, 11592.16
488.9320, 9852.184
490.1160, 8207.797
491.3000, 7512.787
492.4830, 7544.139
493.6670, 7807.022
494.8500, 8510.949
496.0340, 9936.713
497.2170, 12242.87
498.4000, 14975.98
499.5820, 18411.60
500.7650, 22067.52
501.9480, 25225.12
503.1300, 28255.42
504.3120, 31497.74
505.4940, 35553.47
506.6760, 39004.18
507.8580, 41688.36
509.0390, 43160.16
510.2210, 41250.71
511.4020, 36937.20
512.5830, 31058.77
513.7640, 24865.45
514.9450, 19154.44
516.1250, 14860.81
517.3060, 11685.07
518.4860, 9489.495
519.6660, 7591.090
520.8460, 6449.104
522.0260, 5404.227
523.2060, 4846.549
524.3850, 4211.830
525.5650, 3629.903
526.7440, 3408.839
527.9230, 3053.174
529.1020, 2743.371
530.2810, 2586.102
531.4590, 2287.583
532.6380, 2206.027
533.8160, 1968.291
534.9940, 1836.217
536.1720, 1643.394
537.3500, 1614.368
538.5270, 1471.261
539.7050, 1469.438
540.8820, 1331.441
542.0590, 1215.783
543.2360, 1198.129
544.4130, 1161.909
545.5900, 1113.965
546.7660, 1175.601
547.9430, 1062.073
549.1190, 1017.495
550.2950, 1023.597
551.4710, 1175.824
552.6470, 1086.562
553.8220, 1076.345
554.9980, 877.6523
556.1730, 920.3828
557.3480, 982.5713
558.5230, 831.2549
559.6980, 1008.160
560.8730, 1048.829
562.0470, 966.1084
563.2220, 902.0049
564.3960, 860.0967
565.5700, 993.1064
566.7440, 976.5762
567.9170, 1021.897
569.0910, 1252.616
570.2640, 1316.265
571.4380, 1401.706
572.6110, 1451.661
573.7840, 1591.936
574.9570, 1515.102
576.1290, 1548.457
577.3020, 1678.282
578.4740, 1879.963
579.6460, 1911.920
580.8180, 1754.656
581.9900, 1754.240
583.1620, 1693.676
584.3330, 1485.040
585.5040, 1419.423
586.6760, 1355.326
587.8470, 1219.507
589.0180, 1177.674
590.1880, 1140.538
591.3590, 1161.101
592.5290, 1075.443
593.7000, 1115.718
594.8700, 1175.290
596.0400, 1008.070
597.2090, 1177.791
598.3790, 1114.488
599.5490, 1251.449
600.7180, 1171.116
601.8870, 1082.368
603.0560, 1000.968
604.2250, 966.9941
605.3940, 1055.097
606.5620, 952.6250
607.7300, 923.1270
608.8990, 1000.605
610.0670, 899.0605
611.2350, 934.4922
612.4020, 777.8965
613.5700, 833.2773
614.7370, 808.6348
615.9050, 1038.967
617.0720, 869.2754
618.2390, 944.5586
619.4060, 834.8184
620.5720, 868.0527
621.7390, 936.2637
622.9050, 1057.449
624.0710, 930.6094
625.2370, 1098.746
626.4030, 1094.857
627.5690, 926.9453
628.7340, 980.0098
629.9000, 987.0488
631.0650, 993.0645
632.2300, 982.8945
633.3950, 1011.023
634.5600, 953.9688
635.7240, 950.8887
636.8890, 996.7852
638.0530, 1118.658
639.2170, 1019.512
640.3810, 1064.344
641.5450, 1294.160
642.7080, 1285.959
643.8720, 1395.736
645.0350, 1250.510
646.1980, 1326.264
647.3610, 1339.998
648.5240, 1183.711
649.6870, 1207.404
650.8490, 1157.078
652.0120, 930.7324
653.1740, 953.4277
654.3360, 708.1016
655.4980, 841.8281
656.6600, 584.5625
657.8210, 608.2793
658.9830, 530.0117
660.1440, 454.7363
661.3050, 384.4629
662.4660, 405.1738
663.6270, 303.8613
664.7870, 417.5332
665.9480, 346.1816
667.1080, 259.8262
668.2680, 294.4629
669.4280, 172.0938
670.5880, 317.7188
671.7480, 206.3379
672.9070, 269.9395
674.0670, 171.5176
675.2260, 231.0703
676.3850, 15.40234
677.5440, 123.0645
678.7030, 45.50586
679.8610, 215.9121
681.0200, 132.2891
682.1780, 129.6289
683.3360, 38.06055
684.4940, 50.82422
685.6520, 8.333984
686.8090, 85.44922
687.9670, 13.52539
689.1240, 94.44531
690.2810, 64.51367
691.4380, 40.67383
692.5950, 152.9082
693.7520, 16.72656
694.9080, 8.685547
696.0650, 19.84375
697.2210, 40.33008
698.3770, 6.222656
699.5330, 145.8301
700.6880, 49.56445
701.8440, 167.3809
702.9990, 30.33594
704.1550, 71.35352
705.3100, 21.43750
706.4650, 64.55273
707.6190, 120.2520
708.7740, 95.03125
709.9290, 141.2168
711.0830, 85.43555
712.2370, 174.9277
713.3910, 18.42773
714.5450, 30.98242
715.6980, 116.3984
716.8520, 144.7637
718.0050, 156.8945
719.1580, 82.31250
720.3110, 26.49023
721.4640, 57.62305
722.6170, 179.7266
723.7700, 168.7969
724.9220, 52.83789
726.0740, 23.15430
727.2260, 199.7852
728.3780, 265.6992
729.5300, 91.58594
730.6810, 137.4414
731.8330, 146.2676
732.9840, 18.06055
734.1350, 250.8145
735.2860, 415.5391
736.4370, 270.2402
737.5880, 186.9160
738.7380, 249.5645
739.8880, 103.1855
741.0390, 274.7773
742.1890, 277.3438
743.3380, 589.8867
744.4880, 381.4023
745.6380, 453.8945
746.7870, 434.3633
747.9360, 388.8047
749.0850, 663.2266
750.2340, 575.6191
751.3830, 599.9902
752.5310, 903.3379
753.6800, 851.6621
754.8280, 1184.961
755.9760, 1297.238
757.1240, 1551.488
758.2720, 2000.717
759.4190, 2316.922
760.5670, 2384.104
761.7140, 2582.264
762.8610, 2973.400
764.0080, 3191.512
765.1550, 3214.604
766.3020, 3053.672
767.4480, 3063.719
768.5950, 2814.742
769.7410, 2706.740
770.8870, 2514.719
772.0330, 2458.068
773.1780, 2387.223
774.3240, 2427.523
775.4690, 2356.416
776.6140, 2419.287
777.7590, 2489.135
778.9040, 2063.961
780.0490, 1795.768
781.1940, 1458.555
782.3380, 1404.318
783.4820, 1116.061
784.6260, 1058.783
785.7700, 930.4863
786.9140, 1061.168
788.0580, 740.8301
789.2010, 858.4707
790.3450, 594.3008
791.4880, 758.9023
792.6310, 664.0449
793.7730, 520.6055
794.9160, 995.1426
796.0590, 810.7188
797.2010, 689.2148
798.3430, 839.2559
799.4850, 774.3789
800.6270, 881.8145
801.7690, 1174.230
802.9100, 1092.625
804.0520, 1238.502
805.1930, 1224.680
806.3340, 1286.188
807.4750, 1860.195
808.6160, 2084.705
809.7560, 2156.643
810.8970, 2507.828
812.0370, 2529.576
813.1770, 2798.557
814.3170, 3315.502
815.4570, 3360.332
816.5960, 3393.398
817.7360, 3438.238
818.8750, 3088.705
820.0140, 2721.145
821.1530, 2323.387
822.2920, 2095.785
823.4310, 1748.838
824.5690, 1512.021
825.7070, 1448.221
826.8460, 1305.713
827.9840, 1095.041
829.1220, 1046.832
830.2590, 1139.543
831.3970, 921.6992
832.5340, 819.3965
833.6710, 1143.607
834.8080, 980.2871
835.9450, 835.0527
837.0820, 878.0312
838.2190, 885.0195
839.3550, 966.5957
840.4910, 914.3672
841.6270, 629.9316
842.7630, 609.8867
843.8990, 654.8457
845.0350, 628.1387
846.1700, 775.0020
847.3060, 794.1074
848.4410, 789.0801
849.5760, 874.0488
850.7100, 728.8301
851.8450, 822.8184
852.9800, 965.5879
854.1140, 867.3809
855.2480, 705.4492
856.3820, 844.4004
857.5160, 901.5938
858.6500, 812.3926
859.7830, 908.7500
860.9170, 1012.064
862.0500, 862.8320
863.1830, 1014.293
864.3160, 1080.744
865.4480, 790.4727
866.5810, 718.4727
867.7130, 737.6699
868.8460, 734.9082
869.9780, 701.8242
871.1100, 582.5059
872.2410, 592.2246
873.3730, 514.9395
874.5050, 514.3672
875.6360, 592.0625
876.7670, 482.1484
877.8980, 540.8633
879.0290, 474.5801
880.1590, 467.2930
881.2900, 424.0059
882.4200, 523.7207
883.5500, 595.4336
884.6800, 551.1484
885.8100, 492.8652
886.9400, 422.5820
888.0690, 428.8379
889.1990, 400.0195
890.3280, 467.7383
891.4570, 479.3828
892.5860, 666.1875
893.7140, 579.9141
894.8430, 679.6426
895.9710, 775.3848
897.1000, 574.1328
898.2280, 609.8867
899.3560, 581.6465
900.4830, 441.4102
901.6110, 622.1777
902.7380, 479.9473
903.8660, 711.7227
904.9930, 593.5117
906.1200, 543.3027
907.2460, 474.0977
908.3730, 545.9004
909.5000, 617.7031
910.6260, 397.5117
911.7520, 126.3242
912.8780, 387.1406
914.0040, 257.9648
915.1290, 381.7910
916.2550, 251.6230
917.3800, 195.4688
918.5050, 225.3184
919.6300, 169.1738
920.7550, 23.03320
921.8800, 143.9004
923.0040, 64.77148
924.1290, 65.67773
925.2530, 77.40625
926.3770, 93.49805
927.5010, 104.5898
928.6250, 139.2891
929.7480, 284.1719
930.8720, 53.93164
931.9950, 27.96875
933.1180, 65.12500
934.2410, 21.19922
935.3640, 60.72852
936.4860, 23.70703
937.6090, 49.69531
938.7310, 64.31055
939.8530, 93.33008
940.9750, 57.37695
942.0970, 98.42773
943.2180, 79.49609
944.3400, 77.46094
945.4610, 116.4590
946.5820, 163.4668
947.7030, 203.4883
948.8240, 116.5215
949.9450, 12.42188
951.0650, 301.6426
952.1860, 452.7305
953.3060, 476.8281
954.4260, 409.9453
955.5460, 370.0742
956.6650, 357.2344
957.7850, 467.4336
958.9040, 435.6523
960.0230, 376.8828
961.1420, 534.1348
962.2610, 415.4336
963.3800, 469.7734
964.4990, 348.1465
965.6170, 298.8438
966.7350, 309.0430
967.8530, 235.5254
968.9710, 247.6270
970.0890, 150.5449
971.2070, 234.0898
972.3240, 217.6973
973.4410, 175.3438
974.5580, 21.94141
975.6750, 270.7988
976.7920, 62.41406
977.9090, 149.3789
979.0250, 103.2168
980.1410, 415.0684
981.2580, 16.93750
982.3740, 278.8672
983.4890, 15.81250
984.6050, 375.8301
985.7200, 49.87891
986.8360, 71.04102
987.9510, 20.96875
989.0660, 148.1133
990.1810, 71.25977
991.2950, 43.42383
992.4100, 82.60742
993.5240, 252.8105
994.6390, 394.0254
995.7530, 229.2559
996.8660, 586.5039
997.9800, 637.7812
999.0940, 995.0762
1000.207, 696.3828
1001.320, 653.7051
1002.433, 919.0430
1003.546, 946.3945
1004.659, 944.7715
1005.772, 729.1582
1006.884, 872.5586
1007.996, 801.9727
1009.108, 784.4004
1010.220, 970.8418
1011.332, 979.3008
1012.444, 872.7695
1013.555, 1185.252
1014.666, 927.7480
1015.777, 820.2598
1016.888, 1062.783
1017.999, 939.3184
1019.110, 807.8691
1020.220, 1018.430
1021.331, 653.0059
1022.441, 751.5938
1023.551, 743.1953
1024.661, 647.8105
1025.770, 581.4414
1026.880, 616.2441
1027.989, 558.7383
1029.098, 634.7539
1030.207, 591.6699
1031.316, 486.3672
1032.425, 553.0410
1033.533, 576.7637
1034.642, 496.4980
1035.750, 480.2461
1036.858, 355.0078
1037.966, 291.3750
1039.073, 345.1621
1040.181, 170.9609
1041.288, 418.7754
1042.396, 323.6016
1043.503, 167.4414
1044.610, 247.2930
1045.716, 416.1582
1046.823, 206.0391
1047.929, 150.9297
1049.036, 385.8359
1050.142, 305.1660
1051.248, 521.0977
1052.353, 197.0410
1053.459, 175.9961
1054.564, 239.9609
1055.670, 151.9414
1056.775, 97.40039
1057.880, 91.08203
1058.985, 190.4707
1060.089, 58.50000
1061.194, 73.97656
1062.298, 280.0332
1063.402, 298.6641
1064.506, 203.0918
1065.610, 399.1816
1066.713, 334.8945
1067.817, 452.3398
1068.920, 482.7695
1070.023, 621.9668
1071.126, 675.5469
1072.229, 731.7773
1073.332, 804.0195
1074.435, 851.5762
1075.537, 908.5078
1076.639, 1251.350
1077.741, 1367.371
1078.843, 1482.652
1079.945, 1573.947
1081.046, 1711.375
1082.148, 1895.635
1083.249, 2096.564
1084.350, 2376.742
1085.451, 2460.037
1086.551, 2731.658
1087.652, 3306.973
1088.752, 3271.295
1089.853, 4032.629
1090.953, 4704.973
1092.053, 5471.326
1093.152, 6400.252
1094.252, 7260.061
1095.351, 8383.443
1096.451, 9379.832
1097.550, 10481.23
1098.649, 11199.64
1099.748, 11318.06
1100.846, 11522.48
1101.945, 11290.92
1103.043, 10767.36
1104.141, 9957.809
1105.239, 9290.293
1106.337, 8480.785
1107.434, 7900.674
1108.532, 7582.184
1109.629, 7005.424
1110.726, 7097.957
1111.823, 7015.500
1112.920, 6755.047
1114.017, 6614.602
1115.113, 6517.164
1116.210, 6498.730
1117.306, 6386.307
1118.402, 5918.887
1119.498, 5768.799
1120.593, 5446.814
1121.689, 4715.416
1122.784, 4386.025
1123.879, 4044.639
1124.974, 3674.260
1126.069, 2909.885
1127.164, 2510.518
1128.259, 2246.160
1129.353, 1770.803
1130.447, 1615.453
1131.541, 1482.107
1132.635, 1150.771
1133.729, 1105.438
1134.822, 1215.109
1135.916, 748.7891
1137.009, 573.4727
1138.102, 699.1641
1139.195, 570.8574
1140.288, 415.5586
1141.380, 410.2676
1142.473, 393.9766
1143.565, 242.6953
1144.657, 296.4199
1145.749, 291.1504
1146.841, 392.8848
1147.932, 230.6250
1149.024, 191.3691
1150.115, 427.1230
1151.206, 304.8789
1152.297, 258.6406
1153.388, 345.4082
1154.479, 95.18164
1155.569, 130.9590
1156.659, 80.74023
1157.750, 209.5273
1158.839, 326.3184
1159.929, 37.88672
1161.019, 17.11133
1162.108, 176.6582
1163.198, 11.56641
1164.287, 204.2051
1165.376, 184.9863
1166.465, 107.7734
1167.553, 255.5645
1168.642, 40.63867
1169.730, 153.1387
1170.818, 74.91797
1171.906, 131.7031
1172.994, 162.4902
1174.082, 173.2812
1175.170, 189.3750
1176.257, 166.4531
1177.344, 180.6699
1178.431, 84.47461
1179.518, 61.27930
1180.605, 17.91211
1181.691, 30.88477
1182.778, 136.6836
1183.864, 123.4844
1184.950, 61.28906
1186.036, 45.09375
1187.122, 99.09961
1188.207, 3.347656
1189.292, 36.59766
1190.378, 144.1406
1191.463, 34.88281
1192.548, 163.6445
1193.632, 18.58984
1194.717, 48.83789
1195.801, 27.89453
1196.886, 124.3730
1197.970, 24.30469
1199.054, 158.0137
1200.137, 12.58008
1201.221, 100.1719
1202.305, 114.7656
1203.388, 70.37305
1204.471, 17.00391
1205.554, 39.38086
1206.637, 149.7656
1207.719, 117.1387
1208.802, 52.25977
1209.884, 10.73828
1210.966, 8.214844
1212.048, 220.6914
1213.130, 162.1699
1214.212, 22.35156
1215.293, 267.1113
1216.374, 12.42773
1217.456, 105.0234
1218.536, 25.47266
1219.617, 263.9238
1220.698, 88.37500
1221.778, 462.8262
1222.859, 272.2793
1223.939, 109.7305
1225.019, 133.1816
1226.099, 285.6328
1227.178, 246.0879
1228.258, 189.5391
1229.337, 77.99023
1230.417, 113.3242
1231.496, 124.2070
1232.574, 184.6562
1233.653, 189.1094
1234.732, 291.4395
1235.810, 210.8887
1236.888, 429.3418
1237.966, 227.8262
1239.044, 402.2832
1240.122, 126.5352
1241.199, 268.9980
1242.277, 348.4590
1243.354, 450.9277
1244.431, 252.3945
1245.508, 167.8594
1246.585, 294.3457
1247.661, 298.8398
1248.738, 341.1348
1249.814, 484.6523
1250.890, 457.1758
1251.966, 317.7363
1253.042, 499.3223
1254.117, 292.9375
1255.193, 560.5508
1256.268, 794.1777
1257.343, 514.8008
1258.418, 598.4297
1259.493, 652.0566
1260.567, 584.6895
1261.642, 827.3281
1262.716, 619.9629
1263.790, 849.6270
1264.864, 797.4414
1265.938, 1089.111
1267.011, 1232.783
1268.085, 1083.449
1269.158, 1114.119
1270.231, 913.0527
1271.304, 1379.795
1272.377, 1046.463
1273.450, 1137.654
1274.522, 972.3203
