##NAMES=Albite
##RRUFFID=R050253
##IDEAL CHEMISTRY=NaAlSi_3_O_8_
##LOCALITY=Madawaska/Faraday mine, Bancroft, Ontario, Canada
##OWNER=RRUFF
##SOURCE=Marcus Origlieri
##DESCRIPTION=Colorless to brown prismatic single crystals
##STATUS=The identification of this mineral has been confirmed by X-ray diffraction and chemical analysis
##URL=rruff.info/R050253
##MEASURED CHEMISTRY=(Na_0.99_Ca_0.01_)Al_1.00_(Si_0.99_Al_0.01_)_3_O_8_
##PIN_ID=L01944
##ORIENTATION=Laser parallel to (0 -1 -1). Fiducial mark perpendicular to laser is parallel to a [1 0 0]
94.71400, 0.0000000E+00
95.94800, 196.9541
97.18200, 180.8203
98.41600, 18.51855
99.64900, 156.6855
100.8830, 128.0977
102.1160, 120.4395
103.3490, 77.53125
104.5820, 538.8623
105.8150, 840.3438
107.0470, 1550.142
108.2800, 2138.601
109.5120, 2300.742
110.7440, 3363.528
111.9760, 2650.249
113.2080, 2751.129
114.4400, 2882.944
115.6710, 3800.489
116.9030, 3426.584
118.1340, 2570.072
119.3650, 1979.812
120.5960, 1504.689
121.8270, 1101.598
123.0580, 873.4463
124.2880, 713.1553
125.5190, 346.6543
126.7490, 309.8896
127.9790, 205.8457
129.2090, 371.6602
130.4390, 285.2451
131.6680, 361.4551
132.8980, 239.2490
134.1270, 323.5625
135.3560, 253.3467
136.5850, 145.5566
137.8140, 465.1582
139.0430, 641.1182
140.2710, 777.4141
141.5000, 718.0205
142.7280, 751.9170
143.9560, 989.0869
145.1840, 1055.514
146.4120, 1175.182
147.6390, 1488.079
148.8670, 1828.194
150.0940, 2225.513
151.3210, 2573.024
152.5490, 2821.872
153.7750, 3323.595
155.0020, 3172.636
156.2290, 3152.850
157.4550, 3070.230
158.6810, 3504.122
159.9080, 3819.430
161.1340, 4387.043
162.3590, 4804.139
163.5850, 5531.005
164.8110, 5706.613
166.0360, 5726.316
167.2610, 5184.371
168.4860, 4356.730
169.7110, 3978.080
170.9360, 3460.349
172.1610, 3355.547
173.3850, 2976.696
174.6100, 2670.812
175.8340, 2461.904
177.0580, 2033.983
178.2820, 2175.059
179.5050, 2072.137
180.7290, 2078.224
181.9520, 2362.322
183.1760, 2467.439
184.3990, 2752.578
185.6220, 2984.738
186.8450, 3059.926
188.0670, 3177.141
189.2900, 3392.383
190.5120, 3259.652
191.7340, 3362.955
192.9560, 3477.285
194.1780, 3211.646
195.4000, 2862.039
196.6220, 3111.465
197.8430, 2776.920
199.0640, 2638.406
200.2860, 2478.922
201.5070, 2744.467
202.7270, 2590.891
203.9480, 3084.645
205.1690, 2600.271
206.3890, 2432.930
207.6090, 2454.611
208.8290, 2872.322
210.0490, 3173.055
211.2690, 3125.811
212.4890, 3063.590
213.7080, 2537.393
214.9280, 2033.217
216.1470, 1255.064
217.3660, 979.9961
218.5850, 692.8750
219.8030, 468.7715
221.0220, 307.3926
222.2400, 450.6953
223.4590, 314.1875
224.6770, 82.87695
225.8950, 269.7812
227.1120, 91.23047
228.3300, 67.16016
229.5480, 51.59180
230.7650, 91.13086
231.9820, 89.58203
233.1990, 14.69336
234.4160, 38.95312
235.6330, 17.97656
236.8490, 50.58984
238.0660, 39.00781
239.2820, 108.6973
240.4980, 139.0137
241.7140, 215.8320
242.9300, 176.0078
244.1460, 426.4238
245.3610, 484.1289
246.5770, 664.3203
247.7920, 929.2402
249.0070, 1015.463
250.2220, 1345.012
251.4370, 1470.232
252.6510, 1832.158
253.8660, 1953.273
255.0800, 2000.559
256.2940, 1527.000
257.5080, 1399.584
258.7220, 1300.299
259.9360, 1225.139
261.1490, 1258.068
262.3630, 1529.141
263.5760, 1472.291
264.7890, 2020.531
266.0020, 2335.855
267.2150, 2798.260
268.4270, 3518.738
269.6400, 3839.285
270.8520, 4352.895
272.0640, 4566.570
273.2760, 4294.301
274.4880, 3904.090
275.7000, 3115.926
276.9120, 2911.809
278.1230, 2768.736
279.3340, 2547.707
280.5450, 2707.824
281.7560, 2883.760
282.9670, 3262.840
284.1780, 3853.955
285.3880, 4540.100
286.5980, 5752.275
287.8090, 6938.480
289.0190, 8157.709
290.2290, 9982.967
291.4380, 10927.27
292.6480, 11442.58
293.8570, 10984.91
295.0670, 9245.287
296.2760, 7794.658
297.4850, 5869.047
298.6930, 4725.453
299.9020, 3438.881
301.1110, 2694.324
302.3190, 2194.783
303.5270, 1795.258
304.7350, 1401.695
305.9430, 1179.244
307.1510, 998.7520
308.3580, 987.2578
309.5660, 1063.764
310.7730, 810.2676
311.9800, 1004.779
313.1870, 839.3105
314.3940, 734.8457
315.6010, 468.3809
316.8070, 691.9180
318.0130, 300.4570
319.2200, 503.0000
320.4260, 575.5449
321.6310, 392.0938
322.8370, 429.6406
324.0430, 222.1934
325.2480, 496.7500
326.4540, 585.3086
327.6590, 688.8672
328.8640, 869.4316
330.0680, 783.9961
331.2730, 847.5645
332.4780, 706.1328
333.6820, 400.7031
334.8860, 259.2773
336.0900, 37.84961
337.2940, 3.056641
338.4980, 53.99609
339.7010, 28.56836
340.9050, 57.14258
342.1080, 156.7148
343.3110, 199.2871
344.5140, 67.86133
345.7170, 192.5625
346.9200, 60.04102
348.1220, 54.53711
349.3240, 119.0547
350.5270, 73.39453
351.7290, 64.84375
352.9310, 26.70898
354.1320, 34.27539
355.3340, 37.69531
356.5350, 22.54492
357.7370, 14.05469
358.9380, 100.3281
360.1390, 123.7109
361.3400, 79.90625
362.5400, 33.56055
363.7410, 17.23047
364.9410, 160.0859
366.1410, 53.65820
367.3410, 7.472656
368.5410, 51.33398
369.7410, 196.2324
370.9400, 166.7793
372.1400, 164.7715
373.3390, 158.7090
374.5380, 79.34180
375.7370, 22.22852
376.9360, 91.36914
378.1350, 26.62500
379.3330, 85.44141
380.5310, 58.23047
381.7300, 63.14258
382.9280, 33.58594
384.1260, 130.0703
385.3230, 80.65430
386.5210, 12.27148
387.7180, 31.89062
388.9160, 57.47266
390.1130, 32.85156
391.3100, 192.2363
392.5060, 70.63672
393.7030, 61.04688
394.9000, 38.46680
396.0960, 264.8965
397.2920, 498.3379
398.4880, 402.7852
399.6840, 264.2363
400.8800, 665.6973
402.0750, 692.1602
403.2710, 723.6289
404.4660, 911.0977
405.6610, 1625.572
406.8560, 1958.049
408.0510, 2577.527
409.2450, 2713.008
410.4400, 2933.490
411.6340, 2356.973
412.8280, 2059.457
414.0220, 1688.941
415.2160, 1793.428
416.4100, 1990.912
417.6030, 2065.396
418.7970, 2039.879
419.9900, 1933.395
421.1830, 1336.947
422.3760, 984.5000
423.5690, 819.0508
424.7610, 228.6055
425.9540, 344.1797
427.1460, 327.7617
428.3380, 145.3555
429.5300, 301.9688
430.7220, 397.5801
431.9140, 315.2109
433.1050, 299.8398
434.2970, 79.48633
435.4880, 354.1289
436.6790, 116.7695
437.8700, 79.40430
439.0610, 253.0371
440.2510, 324.6660
441.4420, 224.2910
442.6320, 218.9141
443.8220, 239.2324
445.0120, 171.1465
446.2020, 292.7578
447.3910, 326.3672
448.5810, 411.9668
449.7700, 490.5684
450.9600, 506.1660
452.1490, 537.1562
453.3370, 658.7461
454.5260, 607.3320
455.7150, 980.2207
456.9030, 966.7988
458.0910, 992.3750
459.2800, 1226.947
460.4670, 1160.523
461.6550, 1343.109
462.8430, 1436.691
464.0300, 1679.268
465.2180, 2080.840
466.4050, 2640.410
467.5920, 3037.975
468.7790, 3636.535
469.9650, 4409.096
471.1520, 5796.664
472.3380, 7277.213
473.5250, 9408.760
474.7110, 12185.30
475.8970, 14802.85
477.0820, 18531.38
478.2680, 22387.92
479.4540, 25014.44
480.6390, 26272.07
481.8240, 24578.59
483.0090, 21322.11
484.1940, 16613.63
485.3780, 12860.14
486.5630, 9787.650
487.7470, 7508.156
488.9320, 6003.791
490.1160, 5157.014
491.3000, 4682.486
492.4830, 4159.250
493.6670, 3873.744
494.8500, 4148.240
496.0340, 4593.043
497.2170, 5429.391
498.4000, 6009.504
499.5820, 7377.590
500.7650, 9080.906
501.9480, 11465.39
503.1300, 14366.88
504.3120, 17745.39
505.4940, 22052.48
506.6760, 26499.42
507.8580, 30017.89
509.0390, 31144.75
510.2210, 29173.12
511.4020, 25182.02
512.5830, 19937.40
513.7640, 15259.89
514.9450, 11675.37
516.1250, 9181.859
517.3060, 7028.000
518.4860, 5909.494
519.6660, 4634.965
520.8460, 3968.191
522.0260, 3203.998
523.2060, 2872.512
524.3850, 2706.576
525.5650, 2156.359
526.7440, 2012.469
527.9230, 2036.461
529.1020, 1635.408
530.2810, 1613.230
531.4590, 1561.723
532.6380, 1259.684
533.8160, 1104.268
534.9940, 1282.855
536.1720, 1024.385
537.3500, 957.7363
538.5270, 984.3359
539.7050, 828.9434
540.8820, 1017.551
542.0590, 886.1660
543.2360, 725.7832
544.4130, 487.4043
545.5900, 639.0293
546.7660, 639.6582
547.9430, 780.2910
549.1190, 609.9277
550.2950, 400.5664
551.4710, 578.2129
552.6470, 557.8574
553.8220, 523.7324
554.9980, 531.7070
556.1730, 656.0449
557.3480, 414.7090
558.5230, 561.5234
559.6980, 525.4141
560.8730, 366.8730
562.0470, 407.9805
563.2220, 508.8555
564.3960, 547.5488
565.5700, 586.2617
566.7440, 407.5430
567.9170, 473.2773
569.0910, 263.2285
570.2640, 452.0195
571.4380, 409.8164
572.6110, 469.5449
573.7840, 455.2617
574.9570, 494.6152
576.1290, 643.3145
577.3020, 591.0352
578.4740, 701.7617
579.6460, 708.4570
580.8180, 814.1914
581.9900, 609.9199
583.1620, 642.6562
584.3330, 376.3926
585.5040, 391.1328
586.6760, 178.8691
587.8470, 105.6094
589.0180, 210.3750
590.1880, 185.1797
591.3590, 176.0117
592.5290, 50.15234
593.7000, 32.66016
594.8700, 18.35156
596.0400, 81.71875
597.2090, 74.24609
598.3790, 154.1602
599.5490, 69.93750
600.7180, 133.1309
601.8870, 115.9902
603.0560, 56.76758
604.2250, 132.5586
605.3940, 80.34766
606.5620, 101.0664
607.7300, 44.95508
608.8990, 109.7617
610.0670, 34.58984
611.2350, 1.437500
612.4020, 9.283203
613.5700, 89.13086
614.7370, 86.97852
615.9050, 2.845703
617.0720, 364.7422
618.2390, 139.7207
619.4060, 285.6953
620.5720, 154.6797
621.7390, 93.72656
622.9050, 298.7715
624.0710, 119.8574
625.2370, 131.9414
626.4030, 223.0391
627.5690, 254.1387
628.7340, 101.2344
629.9000, 355.3809
631.0650, 173.5449
632.2300, 241.7285
633.3950, 387.9434
634.5600, 360.1582
635.7240, 285.3711
636.8890, 335.6035
638.0530, 254.8496
639.2170, 329.1035
640.3810, 242.3613
641.5450, 330.6289
642.7080, 304.8926
643.8720, 398.1523
645.0350, 514.4336
646.1980, 585.7227
647.3610, 763.0195
648.5240, 552.3164
649.6870, 669.6289
650.8490, 488.1484
652.0120, 612.5098
653.1740, 608.9258
654.3360, 368.3379
655.4980, 438.0508
656.6600, 184.8672
657.8210, 253.6055
658.9830, 202.9922
660.1440, 131.8867
661.3050, 248.4473
662.4660, 230.9766
663.6270, 284.4609
664.7870, 186.7480
665.9480, 193.2617
667.1080, 206.2480
668.2680, 342.9766
669.4280, 286.5449
670.5880, 270.1230
671.7480, 171.6973
672.9070, 384.2617
674.0670, 361.8203
675.2260, 163.3691
676.3850, 36.09180
677.5440, 166.4199
678.7030, 51.92383
679.8610, 257.4180
681.0200, 228.9023
682.1780, 124.3789
683.3360, 93.84180
684.4940, 106.2969
685.6520, 68.74219
686.8090, 291.1758
687.9670, 163.5977
689.1240, 341.0527
690.2810, 138.5840
691.4380, 160.9746
692.5950, 17.35352
693.7520, 63.71875
694.9080, 79.21484
696.0650, 185.2090
697.2210, 33.54102
698.3770, 23.88281
699.5330, 99.57422
700.6880, 141.3398
701.8440, 32.79492
702.9990, 126.4863
704.1550, 6.400391
705.3100, 62.64062
706.4650, 21.66406
707.6190, 40.66406
708.7740, 69.70898
709.9290, 68.52148
711.0830, 68.00195
712.2370, 111.8223
713.3910, 61.39258
714.5450, 193.5410
715.6980, 141.2812
716.8520, 163.2598
718.0050, 181.9707
719.1580, 228.4922
720.3110, 188.3086
721.4640, 291.0820
722.6170, 523.2227
723.7700, 368.1719
724.9220, 436.7910
726.0740, 163.1484
727.2260, 218.7988
728.3780, 196.2461
729.5300, 271.7773
730.6810, 229.2188
731.8330, 131.0156
732.9840, 151.8320
734.1350, 137.3184
735.2860, 84.62109
736.4370, 98.56641
737.5880, 179.6211
738.7380, 15.96680
739.8880, 10.48828
741.0390, 140.2148
742.1890, 290.0293
743.3380, 213.6406
744.4880, 140.3086
745.6380, 185.9844
746.7870, 529.7480
747.9360, 188.4277
749.0850, 519.8535
750.2340, 327.7539
751.3830, 471.3340
752.5310, 653.2812
753.6800, 776.1797
754.8280, 817.8477
755.9760, 950.2754
757.1240, 1335.949
758.2720, 1503.104
759.4190, 1899.148
760.5670, 2464.129
761.7140, 3116.973
762.8610, 3356.801
764.0080, 4017.506
765.1550, 4045.041
766.3020, 3978.250
767.4480, 3422.205
768.5950, 2816.840
769.7410, 2095.391
770.8870, 1969.881
772.0330, 1413.904
773.1780, 1338.961
774.3240, 1423.664
775.4690, 1354.311
776.6140, 1270.930
777.7590, 1097.984
778.9040, 723.5449
780.0490, 787.0820
781.1940, 601.5918
782.3380, 636.0703
783.4820, 465.5254
784.6260, 569.9492
785.7700, 382.9668
786.9140, 453.3359
788.0580, 196.6758
789.2010, 288.2988
790.3450, 442.9414
791.4880, 282.5859
792.6310, 181.1836
793.7730, 156.3730
794.9160, 180.5293
796.0590, 45.18945
797.2010, 66.29492
798.3430, 85.55273
799.4850, 248.5469
800.6270, 275.5117
801.7690, 109.4453
802.9100, 292.3418
804.0520, 154.2070
805.1930, 222.1523
806.3340, 450.9492
807.4750, 374.7793
808.6160, 414.5137
809.7560, 582.2188
810.8970, 698.8926
812.0370, 648.5352
813.1770, 834.1445
814.3170, 902.4688
815.4570, 850.0176
816.5960, 801.5332
817.7360, 750.2012
818.8750, 703.4727
820.0140, 582.9004
821.1530, 536.2910
822.2920, 486.6504
823.4310, 278.9824
824.5690, 282.2793
825.7070, 255.5469
826.8460, 234.7812
827.9840, 487.9824
829.1220, 298.1543
830.2590, 355.0684
831.3970, 233.1777
832.5340, 125.2520
833.6710, 351.2891
834.8080, 261.1504
835.9450, 34.90625
837.0820, 473.0527
838.2190, 342.5254
839.3550, 121.2012
840.4910, 288.0254
841.6270, 40.80273
842.7630, 76.97852
843.8990, 400.6621
845.0350, 343.1074
846.1700, 159.6777
847.3060, 104.2168
848.4410, 266.7910
849.5760, 61.34766
850.7100, 188.2363
851.8450, 443.7246
852.9800, 40.18359
854.1140, 372.6035
855.2480, 67.99414
856.3820, 198.3516
857.5160, 46.67773
858.6500, 112.9648
859.7830, 154.2188
860.9170, 303.4414
862.0500, 73.63672
863.1830, 53.20312
864.3160, 98.12695
865.4480, 68.15430
866.5810, 107.7305
867.7130, 209.5801
868.8460, 151.4121
869.9780, 239.2148
871.1100, 38.98828
872.2410, 106.5547
873.3730, 83.14062
874.5050, 262.8320
875.6360, 196.0801
876.7670, 131.6289
877.8980, 16.76562
879.0290, 142.7773
880.1590, 125.2910
881.2900, 32.23242
882.4200, 91.18555
883.5500, 49.42969
884.6800, 30.11719
885.8100, 59.12695
886.9400, 113.3398
888.0690, 49.52148
889.1990, 40.33008
890.3280, 85.25000
891.4570, 273.2637
892.5860, 67.53125
893.7140, 0.2929690
894.8430, 189.9883
895.9710, 256.5820
897.1000, 124.8730
898.2280, 33.56055
899.3560, 29.03711
900.4830, 55.30078
901.6110, 116.6113
902.7380, 169.8906
903.8660, 32.14453
904.9930, 35.36719
906.1200, 38.55859
907.2460, 122.7148
908.3730, 106.8477
909.5000, 22.04688
910.6260, 201.0039
911.7520, 217.0312
912.8780, 76.03320
914.0040, 10.00977
915.1290, 231.9688
916.2550, 310.9023
917.3800, 201.8145
918.5050, 190.7051
919.6300, 209.5859
920.7550, 33.44141
921.8800, 222.2715
923.0040, 228.0781
924.1290, 98.34375
925.2530, 84.36914
926.3770, 75.05859
927.5010, 77.72070
928.6250, 258.0586
929.7480, 216.2656
930.8720, 34.55078
931.9950, 153.1875
933.1180, 105.3262
934.2410, 335.7852
935.3640, 178.2812
936.4860, 213.7910
937.6090, 180.4941
938.7310, 224.9668
939.8530, 120.9746
940.9750, 215.2422
942.0970, 129.6895
943.2180, 223.1172
944.3400, 162.5254
945.4610, 355.9375
946.5820, 315.5840
947.7030, 409.7188
948.8240, 354.0898
949.9450, 293.4551
951.0650, 368.8008
952.1860, 277.1270
953.3060, 177.4375
954.4260, 452.7305
955.5460, 173.0059
956.6650, 565.2656
957.7850, 339.5078
958.9040, 525.7324
960.0230, 259.9395
961.1420, 388.0918
962.2610, 269.1387
963.3800, 424.2988
964.4990, 361.4414
965.6170, 417.5703
966.7350, 266.5586
967.8530, 654.0176
968.9710, 370.1152
970.0890, 637.1758
971.2070, 650.0059
972.3240, 871.0918
973.4410, 764.2031
974.5580, 762.7383
975.6750, 890.8262
976.7920, 1145.227
977.9090, 1123.367
979.0250, 1249.449
980.1410, 1196.535
981.2580, 1155.293
982.3740, 854.7773
983.4890, 927.8711
984.6050, 750.9766
985.7200, 750.8867
986.8360, 668.9648
987.9510, 610.7773
989.0660, 713.8320
990.1810, 712.0508
991.2950, 531.9492
992.4100, 447.8633
993.5240, 640.3906
994.6390, 489.0742
995.7530, 701.0664
996.8660, 762.2969
997.9800, 822.2031
999.0940, 469.3281
1000.207, 799.3398
1001.320, 771.8164
1002.433, 766.7227
1003.546, 1063.379
1004.659, 1019.348
1005.772, 952.1602
1006.884, 1163.613
1007.996, 1209.934
1009.108, 1380.875
1010.220, 1300.711
1011.332, 1351.285
1012.444, 1291.734
1013.555, 1376.348
1014.666, 1423.891
1015.777, 1406.398
1016.888, 1339.797
1017.999, 1284.250
1019.110, 992.9375
1020.220, 1132.109
1021.331, 881.5938
1022.441, 1137.691
1023.551, 832.8086
1024.661, 783.1289
1025.770, 959.6719
1026.880, 813.2461
1027.989, 1216.719
1029.098, 892.5742
1030.207, 1211.473
1031.316, 1414.480
1032.425, 1525.492
1033.533, 1565.805
1034.642, 1601.848
1035.750, 1414.406
1036.858, 1166.199
1037.966, 965.2891
1039.073, 827.4375
1040.181, 939.6250
1041.288, 737.2578
1042.396, 800.8359
1043.503, 620.7461
1044.610, 601.6953
1045.716, 751.6484
1046.823, 591.1445
1047.929, 698.8438
1049.036, 659.8164
1050.142, 866.0469
1051.248, 513.0273
1052.353, 917.0664
1053.459, 498.0586
1054.564, 511.4414
1055.670, 550.5781
1056.775, 383.5898
1057.880, 351.1211
1058.985, 582.3984
1060.089, 476.0430
1061.194, 414.6641
1062.298, 393.7188
1063.402, 302.7812
1064.506, 304.9336
1065.610, 555.4414
1066.713, 487.3203
1067.817, 468.4375
1068.920, 287.5625
1070.023, 284.6992
1071.126, 432.8438
1072.229, 608.0000
1073.332, 546.0508
1074.435, 460.4375
1075.537, 601.5547
1076.639, 441.7461
1077.741, 733.5430
1078.843, 780.7500
1079.945, 697.1523
1081.046, 989.3750
1082.148, 1089.180
1083.249, 1182.422
1084.350, 1232.680
1085.451, 1536.941
1086.551, 1513.215
1087.652, 1903.492
1088.752, 2103.781
1089.853, 2250.082
1090.953, 2718.398
1092.053, 2788.719
1093.152, 3385.051
1094.252, 3713.383
1095.351, 4676.734
1096.451, 5376.094
1097.550, 6393.902
1098.649, 7389.367
1099.748, 7290.246
1100.846, 7847.648
1101.945, 7498.102
1103.043, 7024.527
1104.141, 6425.969
1105.239, 5742.426
1106.337, 5211.891
1107.434, 4751.371
1108.532, 4310.859
1109.629, 4119.367
1110.726, 3869.887
1111.823, 3849.422
1112.920, 3776.965
1114.017, 3682.191
1115.113, 3728.090
1116.210, 3650.672
1117.306, 3536.262
1118.402, 3649.020
1119.498, 3739.637
1120.593, 3346.270
1121.689, 3276.914
1122.784, 2889.578
1123.879, 2668.250
1124.974, 2336.945
1126.069, 2029.277
1127.164, 1707.582
1128.259, 1414.320
1129.353, 1157.074
1130.447, 845.5859
1131.541, 818.4258
1132.635, 593.3008
1133.729, 341.5039
1134.822, 626.4648
1135.916, 420.4102
1137.009, 447.3672
1138.102, 219.3398
1139.195, 362.3516
1140.288, 522.3750
1141.380, 313.4180
1142.473, 347.4688
1143.565, 271.5312
1144.657, 320.6250
1145.749, 264.2773
1146.841, 408.8477
1147.932, 202.0000
1149.024, 172.1602
1150.115, 198.3594
1151.206, 420.6250
1152.297, 252.8945
1153.388, 306.1836
1154.479, 498.4883
1155.569, 533.8203
1156.659, 363.2031
1157.750, 257.6797
1158.839, 186.1758
1159.929, 283.6914
1161.019, 525.2812
1162.108, 310.8750
1163.198, 526.5977
1164.287, 357.3555
1165.376, 271.1719
1166.465, 381.0117
1167.553, 463.9297
1168.642, 438.8633
1169.730, 527.8086
1170.818, 480.8125
1171.906, 374.8281
1172.994, 298.8750
1174.082, 247.9453
1175.170, 189.0391
1176.257, 58.14453
1177.344, 312.2578
1178.431, 98.61328
1179.518, 107.4922
1180.605, 13.38672
1181.691, 198.7383
1182.778, 83.12109
1183.864, 57.99609
1184.950, 92.12891
1186.036, 6.730469
1187.122, 88.51562
1188.207, 76.32422
1189.292, 24.13672
1190.378, 98.05469
1191.463, 33.73438
1192.548, 81.48047
1193.632, 216.7031
1194.717, 108.0703
1195.801, 17.87109
1196.886, 93.33203
1197.970, 89.55078
1199.054, 148.8086
1200.137, 175.0742
1201.221, 353.3594
1202.305, 82.64844
1203.388, 51.94531
1204.471, 164.7500
1205.554, 206.4883
1206.637, 110.7305
1207.719, 120.0195
1208.802, 73.17969
1209.884, 54.60938
1210.966, 247.5859
1212.048, 17.20703
1213.130, 54.99609
1214.212, 260.2031
1215.293, 130.4180
1216.374, 60.64453
1217.456, 195.8711
1218.536, 104.1055
1219.617, 190.3438
1220.698, 225.5898
1221.778, 113.8359
1222.859, 161.3242
1223.939, 122.4844
1225.019, 91.60156
1226.099, 78.86328
1227.178, 8.871094
1228.258, 45.60547
1229.337, 9.355469
1230.417, 41.88672
1231.496, 10.13281
1232.574, 99.37891
1233.653, 113.6328
1234.732, 64.27344
1235.810, 159.5078
1236.888, 62.78906
1237.966, 280.0430
1239.044, 91.30469
1240.122, 145.5625
1241.199, 146.8242
1242.277, 336.0859
1243.354, 289.8828
1244.431, 338.1406
1245.508, 172.4023
1246.585, 209.6641
1247.661, 8.921875
1248.738, 102.8086
1249.814, 274.3164
1250.890, 275.0820
1251.966, 133.5508
1253.042, 331.0625
1254.117, 70.39844
1255.193, 249.9688
1256.268, 11.69531
1257.343, 323.2930
1258.418, 233.5273
1259.493, 128.2539
1260.567, 205.1914
1261.642, 179.5195
1262.716, 15.98438
1263.790, 70.98438
1264.864, 204.7578
1265.938, 242.8594
1267.011, 205.9531
1268.085, 218.0156
1269.158, 236.3281
1270.231, 409.3867
1271.304, 529.4492
1272.377, 422.3203
1273.450, 529.1680
1274.522, 545.4844
