##NAMES=Albite
##RRUFFID=R050253
##IDEAL CHEMISTRY=NaAlSi_3_O_8_
##LOCALITY=Madawaska/Faraday mine, Bancroft, Ontario, Canada
##OWNER=RRUFF
##SOURCE=Marcus Origlieri
##DESCRIPTION=Colorless to brown prismatic single crystals
##STATUS=The identification of this mineral has been confirmed by X-ray diffraction and chemical analysis
##URL=rruff.info/R050253
##MEASURED CHEMISTRY=(Na_0.99_Ca_0.01_)Al_1.00_(Si_0.99_Al_0.01_)_3_O_8_
##PIN_ID=L01398
##ORIENTATION=Laser parallel to a* (1 0 0). Fiducial mark perpendicular to laser is parallel to b [0 1 0]
87.30800, 0.0000000E+00
88.54200, 11.26416
89.77700, 92.96973
91.01200, 121.7979
92.24600, 309.3774
93.48000, 235.7485
94.71400, 41.78076
95.94800, 198.8179
97.18200, 5.233398
98.41600, 121.4600
99.64900, 404.4028
100.8830, 550.1821
102.1160, 771.4531
103.3490, 1226.923
104.5820, 1774.351
105.8150, 2271.551
107.0470, 2970.380
108.2800, 3560.697
109.5120, 4383.367
110.7440, 4831.265
111.9760, 4157.279
113.2080, 3424.312
114.4400, 3047.275
115.6710, 2766.091
116.9030, 2352.688
118.1340, 1791.004
119.3650, 1401.986
120.5960, 1110.611
121.8270, 788.8789
123.0580, 772.7930
124.2880, 499.3711
125.5190, 564.5635
126.7490, 336.3047
127.9790, 364.5352
129.2090, 575.2051
130.4390, 489.2754
131.6680, 516.7080
132.8980, 660.4785
134.1270, 539.5576
135.3560, 611.9238
136.5850, 806.5596
137.8140, 903.4443
139.0430, 1125.279
140.2710, 1391.902
141.5000, 1670.449
142.7280, 1939.191
143.9560, 2308.409
145.1840, 2616.219
146.4120, 3100.486
147.6390, 3578.908
148.8670, 4047.479
150.0940, 4544.191
151.3210, 4574.080
152.5490, 4687.368
153.7750, 5070.107
155.0020, 5320.204
156.2290, 5703.719
157.4550, 5936.666
158.6810, 6345.417
159.9080, 6715.629
161.1340, 6964.041
162.3590, 6700.402
163.5850, 6201.708
164.8110, 5912.927
166.0360, 5616.033
167.2610, 5334.070
168.4860, 4885.052
169.7110, 4476.990
170.9360, 3944.894
172.1610, 3402.772
173.3850, 3249.632
174.6100, 2988.479
175.8340, 2960.319
177.0580, 3106.154
178.2820, 3203.991
179.5050, 3325.830
180.7290, 3521.676
181.9520, 3504.528
183.1760, 3705.390
184.3990, 3681.263
185.6220, 3645.146
186.8450, 3638.045
188.0670, 3604.955
189.2900, 3483.879
190.5120, 3426.820
191.7340, 3229.773
192.9560, 3169.743
194.1780, 3052.729
195.4000, 3096.729
196.6220, 3081.742
197.8430, 3180.773
199.0640, 3439.816
200.2860, 3793.873
201.5070, 4049.943
202.7270, 4495.025
203.9480, 4778.118
205.1690, 4876.224
206.3890, 4548.341
207.6090, 4423.468
208.8290, 4078.605
210.0490, 3472.753
211.2690, 2969.911
212.4890, 2565.078
213.7080, 2068.253
214.9280, 1592.136
216.1470, 1290.822
217.3660, 1052.443
218.5850, 821.6641
219.8030, 785.5986
221.0220, 612.1348
222.2400, 598.1240
223.4590, 682.5596
224.6770, 575.0312
225.8950, 530.9072
227.1120, 617.3398
228.3300, 442.5273
229.5480, 366.5186
230.7650, 221.0381
231.9820, 326.3242
233.1990, 217.9316
234.4160, 160.0488
235.6330, 349.1709
236.8490, 644.8828
238.0660, 611.7939
239.2820, 833.0332
240.4980, 1032.637
241.7140, 1184.457
242.9300, 1498.980
244.1460, 1655.833
245.3610, 1979.940
246.5770, 2276.215
247.7920, 2434.643
249.0070, 2810.211
250.2220, 2659.909
251.4370, 2573.730
252.6510, 2523.660
253.8660, 2053.696
255.0800, 2023.830
256.2940, 1991.054
257.5080, 2156.361
258.7220, 2409.749
259.9360, 3381.209
261.1490, 3926.740
262.3630, 4261.336
263.5760, 4815.992
264.7890, 5424.708
266.0020, 6055.478
267.2150, 6432.300
268.4270, 6414.170
269.6400, 6165.085
270.8520, 5805.044
272.0640, 5319.042
273.2760, 4748.076
274.4880, 4306.146
275.7000, 4191.248
276.9120, 4166.379
278.1230, 4828.542
279.3340, 5378.730
280.5450, 6368.945
281.7560, 7750.184
282.9670, 9436.448
284.1780, 11283.73
285.3880, 13026.04
286.5980, 14710.36
287.8090, 16233.71
289.0190, 16808.07
290.2290, 16087.45
291.4380, 14809.85
292.6480, 12994.25
293.8570, 11023.68
295.0670, 9248.119
296.2760, 7455.572
297.4850, 6167.035
298.6930, 4968.510
299.9020, 4301.992
301.1110, 3485.479
302.3190, 2757.972
303.5270, 2651.467
304.7350, 2144.960
305.9430, 1726.449
307.1510, 1717.934
308.3580, 1507.416
309.5660, 1471.894
310.7730, 1274.371
311.9800, 1021.844
313.1870, 929.3145
314.3940, 862.7822
315.6010, 697.2471
316.8070, 700.7109
318.0130, 640.1719
319.2200, 767.6309
320.4260, 641.0869
321.6310, 783.5420
322.8370, 1071.994
324.0430, 820.4443
325.2480, 972.8926
326.4540, 1048.338
327.6590, 919.7803
328.8640, 920.2207
330.0680, 720.6592
331.2730, 574.0947
332.4780, 446.5283
333.6820, 391.9580
334.8860, 206.3867
336.0900, 237.8105
337.2940, 191.2324
338.4980, 112.6514
339.7010, 16.06641
340.9050, 49.52148
342.1080, 105.1279
343.3110, 7.769531
344.5140, 57.41895
345.7170, 7.909180
346.9200, 6.769531
348.1220, 127.4580
349.3240, 50.18750
350.5270, 48.93848
351.7290, 25.70898
352.9310, 13.50293
354.1320, 100.2900
355.3340, 77.11816
356.5350, 30.97656
357.7370, 76.12109
358.9380, 93.24512
360.1390, 75.68066
361.3400, 10.67871
362.5400, 5.711914
363.7410, 207.8057
364.9410, 206.0010
366.1410, 156.2744
367.3410, 151.6562
368.5410, 133.6387
369.7410, 66.67090
370.9400, 106.2568
372.1400, 105.0039
373.3390, 90.88379
374.5380, 13.14160
375.7370, 48.90527
376.9360, 89.00586
378.1350, 63.81738
379.3330, 39.34863
380.5310, 9.533203
381.7300, 23.86328
382.9280, 67.91016
384.1260, 69.87109
385.3230, 116.6611
386.5210, 178.5840
387.7180, 51.29590
388.9160, 184.1260
390.1130, 279.9619
391.3100, 251.8066
392.5060, 441.6553
393.7030, 514.5098
394.9000, 611.3682
396.0960, 716.2314
397.2920, 1153.106
398.4880, 1533.986
399.6840, 1891.867
400.8800, 2349.751
402.0750, 2890.636
403.2710, 3337.522
404.4660, 4111.410
405.6610, 4424.300
406.8560, 4776.202
408.0510, 4715.105
409.2450, 4454.020
410.4400, 4181.963
411.6340, 4224.919
412.8280, 4246.879
414.0220, 4208.863
415.2160, 3809.847
416.4100, 3187.849
417.6030, 2528.865
418.7970, 2025.897
419.9900, 1568.969
421.1830, 1310.045
422.3760, 957.1475
423.5690, 878.2510
424.7610, 828.3555
425.9540, 611.7139
427.1460, 408.6309
428.3380, 414.7666
429.5300, 234.8984
430.7220, 276.0293
431.9140, 314.1572
433.1050, 360.2832
434.2970, 374.4062
435.4880, 413.5273
436.6790, 364.6465
437.8700, 333.7627
439.0610, 382.8770
440.2510, 407.9883
441.4420, 545.0977
442.6320, 559.2051
443.8220, 568.3096
445.0120, 729.4121
446.2020, 725.5117
447.3910, 726.6094
448.5810, 918.7051
449.7700, 1021.800
450.9600, 1170.169
452.1490, 1416.260
453.3370, 1515.782
454.5260, 1656.874
455.7150, 1898.963
456.9030, 2141.061
458.0910, 2179.146
459.2800, 2480.230
460.4670, 2896.313
461.6550, 3281.396
462.8430, 3928.477
464.0300, 4653.556
465.2180, 5635.637
466.4050, 7014.714
467.5920, 9110.794
468.7790, 12053.87
469.9650, 15573.95
471.1520, 19899.02
472.3380, 24651.10
473.5250, 29448.18
474.7110, 34246.25
475.8970, 38456.33
477.0820, 39597.42
478.2680, 38309.50
479.4540, 34236.58
480.6390, 29074.65
481.8240, 24291.73
483.0090, 19914.81
484.1940, 16106.66
485.3780, 12921.18
486.5630, 10473.29
487.7470, 8773.549
488.9320, 7655.425
490.1160, 7286.484
491.3000, 7129.354
492.4830, 7210.861
493.6670, 7993.404
494.8500, 9338.268
496.0340, 11084.19
497.2170, 13860.54
498.4000, 17679.28
499.5820, 22192.69
500.7650, 27559.42
501.9480, 33100.54
503.1300, 38053.23
504.3120, 43043.71
505.4940, 45110.44
506.6760, 43523.75
507.8580, 39859.13
509.0390, 34110.62
510.2210, 28869.38
511.4020, 23566.26
512.5830, 19071.32
513.7640, 14850.89
514.9450, 12056.53
516.1250, 9544.052
517.3060, 7550.685
518.4860, 6208.786
519.6660, 5395.447
520.8460, 4403.727
522.0260, 3894.389
523.2060, 3431.840
524.3850, 2982.902
525.5650, 2714.942
526.7440, 2264.257
527.9230, 2263.585
529.1020, 1989.924
530.2810, 1794.277
531.4590, 1743.643
532.6380, 1615.022
533.8160, 1371.414
534.9940, 1196.817
536.1720, 1169.235
537.3500, 1165.665
538.5270, 956.0186
539.7050, 923.4736
540.8820, 867.9404
542.0590, 802.4209
543.2360, 737.9131
544.4130, 808.4180
545.5900, 687.9346
546.7660, 637.4639
547.9430, 652.9434
549.1190, 422.4961
550.2950, 372.4492
551.4710, 559.3750
552.6470, 432.3057
553.8220, 257.9766
554.9980, 274.0273
556.1730, 221.5400
557.3480, 330.7432
558.5230, 240.7930
559.6980, 339.0586
560.8730, 314.0957
562.0470, 453.4736
563.2220, 260.9258
564.3960, 323.9102
565.5700, 303.0771
566.7440, 496.8408
567.9170, 494.5664
569.0910, 546.3027
570.2640, 578.0469
571.4380, 513.8008
572.6110, 468.5635
573.7840, 729.3340
574.9570, 831.1221
576.1290, 740.9209
577.3020, 690.7305
578.4740, 764.5518
579.6460, 682.3828
580.8180, 620.2275
581.9900, 609.0879
583.1620, 498.9561
584.3330, 460.8457
585.5040, 251.7588
586.6760, 151.7041
587.8470, 54.66895
589.0180, 112.6445
590.1880, 288.6377
591.3590, 15.35938
592.5290, 240.6543
593.7000, 21.87402
594.8700, 70.15625
596.0400, 100.1943
597.2090, 4.253906
598.3790, 257.3428
599.5490, 306.4688
600.7180, 203.6172
601.8870, 314.8027
603.0560, 328.0244
604.2250, 379.2627
605.3940, 323.5137
606.5620, 403.7812
607.7300, 394.0986
608.8990, 516.4434
610.0670, 409.7969
611.2350, 295.1846
612.4020, 407.5850
613.5700, 378.9951
614.7370, 375.4258
615.9050, 458.8701
617.0720, 439.3242
618.2390, 348.8145
619.4060, 278.3125
620.5720, 314.8184
621.7390, 319.3516
622.9050, 394.8945
624.0710, 286.4453
625.2370, 268.0186
626.4030, 201.6328
627.5690, 292.2705
628.7340, 381.9307
629.9000, 389.6025
631.0650, 305.2871
632.2300, 356.0176
633.3950, 372.6318
634.5600, 316.5518
635.7240, 484.3525
636.8890, 477.1631
638.0530, 559.0127
639.2170, 722.8945
640.3810, 645.8008
641.5450, 678.7373
642.7080, 815.6963
643.8720, 706.6855
645.0350, 801.6924
646.1980, 880.7129
647.3610, 654.8066
648.5240, 571.9658
649.6870, 602.1768
650.8490, 473.4395
652.0120, 373.7490
653.1740, 577.0859
654.3360, 384.4619
655.4980, 158.8789
656.6600, 251.3301
657.8210, 288.7900
658.9830, 140.2725
660.1440, 204.7871
661.3050, 201.3066
662.4660, 251.8457
663.6270, 235.5664
664.7870, 248.1543
665.9480, 197.5371
667.1080, 271.1230
668.2680, 266.7119
669.4280, 322.3018
670.5880, 300.8926
671.7480, 135.4863
672.9070, 250.0811
674.0670, 135.6768
675.2260, 162.2754
676.3850, 88.87207
677.5440, 45.52930
678.7030, 209.0508
679.8610, 171.6299
681.0200, 97.21094
682.1780, 56.79004
683.3360, 53.37012
684.4940, 125.9492
685.6520, 78.45898
686.8090, 57.89258
687.9670, 36.65723
689.1240, 47.79492
690.2810, 110.2715
691.4380, 45.80566
692.5950, 23.36523
693.7520, 93.93750
694.9080, 49.43945
696.0650, 77.18652
697.2210, 59.85449
698.3770, 62.55762
699.5330, 153.8301
700.6880, 13.50586
701.8440, 111.3408
702.9990, 3.734375
704.1550, 7.639648
705.3100, 130.3887
706.4650, 84.66211
707.6190, 12.66895
708.7740, 95.89355
709.9290, 167.0742
711.0830, 173.0703
712.2370, 160.0605
713.3910, 245.8193
714.5450, 249.4600
715.6980, 325.7871
716.8520, 363.5303
718.0050, 478.9316
719.1580, 338.0518
720.3110, 537.1738
721.4640, 463.3838
722.6170, 298.0840
723.7700, 274.1211
724.9220, 285.8809
726.0740, 159.0918
727.2260, 141.5791
728.3780, 56.34863
729.5300, 103.7002
730.6810, 88.51562
731.8330, 4.937500
732.9840, 207.1670
734.1350, 79.32520
735.2860, 136.7070
736.4370, 57.63086
737.5880, 214.3037
738.7380, 141.5723
739.8880, 306.9033
741.0390, 384.2246
742.1890, 301.8945
743.3380, 217.8418
744.4880, 357.7246
745.6380, 445.7334
746.7870, 592.4092
747.9360, 699.0957
749.0850, 870.3008
750.2340, 1067.841
751.3830, 1161.191
752.5310, 1630.773
753.6800, 1664.826
754.8280, 2150.054
755.9760, 2753.008
757.1240, 3539.062
758.2720, 4335.900
759.4190, 5119.098
760.5670, 5896.327
761.7140, 6579.223
762.8610, 6325.760
764.0080, 5832.942
765.1550, 5146.703
766.3020, 4398.365
767.4480, 3747.043
768.5950, 3024.498
769.7410, 2608.420
770.8870, 2176.150
772.0330, 2151.020
773.1780, 1814.131
774.3240, 1792.143
775.4690, 1593.648
776.6140, 1559.649
777.7590, 1212.910
778.9040, 1099.196
780.0490, 897.3311
781.1940, 771.5771
782.3380, 630.6123
783.4820, 532.5986
784.6260, 499.6816
785.7700, 434.2334
786.9140, 334.3770
788.0580, 385.7783
789.2010, 400.0518
790.3450, 361.1289
791.4880, 361.5566
792.6310, 319.8760
793.7730, 290.1006
794.9160, 273.2129
796.0590, 228.1758
797.2010, 230.2939
798.3430, 227.8672
799.4850, 241.9180
800.6270, 260.9883
801.7690, 299.8291
802.9100, 341.6455
804.0520, 527.4404
805.1930, 471.2080
806.3340, 563.9512
807.4750, 595.7930
808.6160, 814.4863
809.7560, 745.1562
810.8970, 1099.904
812.0370, 1060.523
813.1770, 1328.119
814.3170, 1464.688
815.4570, 983.3203
816.5960, 1210.841
817.7360, 1100.336
818.8750, 759.8057
820.0140, 663.2500
821.1530, 622.6699
822.2920, 396.0635
823.4310, 442.4326
824.5690, 377.8379
825.7070, 244.1572
826.8460, 246.0645
827.9840, 270.9834
829.1220, 278.8857
830.2590, 365.0342
831.3970, 347.2891
832.5340, 274.9580
833.6710, 314.6455
834.8080, 194.3594
835.9450, 78.84570
837.0820, 133.5439
838.2190, 221.8877
839.3550, 60.14258
840.4910, 178.8486
841.6270, 123.3584
842.7630, 146.2588
843.8990, 208.1797
845.0350, 104.0801
846.1700, 113.9531
847.3060, 163.8037
848.4410, 242.6318
849.5760, 4.436523
850.7100, 42.20117
851.8450, 75.93652
852.9800, 35.64648
854.1140, 64.32617
855.2480, 18.97949
856.3820, 18.74902
857.5160, 99.18359
858.6500, 11.25684
859.7830, 16.74414
860.9170, 60.28320
862.0500, 3.896484
863.1830, 50.44531
864.3160, 2.760742
865.4480, 64.03320
866.5810, 17.28027
867.7130, 53.49414
868.8460, 34.43066
869.9780, 92.38867
871.1100, 8.477539
872.2410, 49.39062
873.3730, 77.37207
874.5050, 23.43555
875.6360, 72.55371
876.7670, 72.75098
877.8980, 0.9716800
879.0290, 21.65332
880.1590, 3.697266
881.2900, 119.0898
882.4200, 48.58691
883.5500, 114.8516
884.6800, 63.73633
885.8100, 11.60156
886.9400, 37.90625
888.0690, 17.81934
889.1990, 6.407227
890.3280, 42.59668
891.4570, 73.24023
892.5860, 57.84473
893.7140, 100.9023
894.8430, 47.06250
895.9710, 32.90820
897.1000, 73.85352
898.2280, 173.7744
899.3560, 30.67188
900.4830, 11.45703
901.6110, 110.3701
902.7380, 102.1738
903.8660, 191.9531
904.9930, 43.71191
906.1200, 74.45020
907.2460, 44.16406
908.3730, 19.86230
909.5000, 24.52930
910.6260, 107.1719
911.7520, 20.82031
912.8780, 6.441406
914.0040, 197.0332
915.1290, 42.39746
916.2550, 187.1182
917.3800, 9.612305
918.5050, 54.08301
919.6300, 3.468750
920.7550, 45.94629
921.8800, 176.3506
923.0040, 69.73438
924.1290, 94.09570
925.2530, 259.4492
926.3770, 63.78223
927.5010, 45.09375
928.6250, 80.38965
929.7480, 100.6680
930.8720, 129.9287
931.9950, 142.1699
933.1180, 217.3916
934.2410, 183.6641
935.3640, 77.77832
936.4860, 127.9414
937.6090, 171.0859
938.7310, 123.2109
939.8530, 201.3408
940.9750, 285.4531
942.0970, 91.59277
943.2180, 221.7148
944.3400, 250.8164
945.4610, 92.90527
946.5820, 306.9834
947.7030, 347.0625
948.8240, 265.1230
949.9450, 353.1660
951.0650, 286.2012
952.1860, 386.2197
953.3060, 392.9199
954.4260, 318.2041
955.5460, 464.1777
956.6650, 462.1328
957.7850, 536.0137
958.9040, 384.0371
960.0230, 546.9785
961.1420, 422.9043
962.2610, 413.8262
963.3800, 511.7598
964.4990, 379.6914
965.6170, 514.6113
966.7350, 655.5410
967.8530, 749.4551
968.9710, 703.3750
970.0890, 972.2930
971.2070, 921.7500
972.3240, 962.5527
973.4410, 1273.492
974.5580, 1295.945
975.6750, 1528.893
976.7920, 1472.660
977.9090, 1559.576
979.0250, 1361.518
980.1410, 1432.223
981.2580, 1318.955
982.3740, 1104.857
983.4890, 846.7422
984.6050, 935.8418
985.7200, 737.0430
986.8360, 826.5391
987.9510, 667.6035
989.0660, 653.9883
990.1810, 766.6387
991.2950, 709.2676
992.4100, 769.7930
993.5240, 618.8086
994.6390, 770.4707
995.7530, 695.3926
996.8660, 583.8438
997.9800, 739.0000
999.0940, 1018.857
1000.207, 894.1152
1001.320, 1251.613
1002.433, 1300.762
1003.546, 1727.654
1004.659, 1896.027
1005.772, 2195.164
1006.884, 2510.727
1007.996, 2722.535
1009.108, 2522.727
1010.220, 2314.836
1011.332, 2211.943
1012.444, 2252.680
1013.555, 2065.273
1014.666, 1939.729
1015.777, 1574.951
1016.888, 1584.611
1017.999, 1424.000
1019.110, 1262.734
1020.220, 1324.074
1021.331, 1222.984
1022.441, 1320.646
1023.551, 1075.820
1024.661, 1207.803
1025.770, 1372.037
1026.880, 1495.156
1027.989, 1710.475
1029.098, 1833.412
1030.207, 2187.756
1031.316, 2127.963
1032.425, 2210.508
1033.533, 2036.391
1034.642, 1764.674
1035.750, 1605.039
1036.858, 1539.371
1037.966, 1094.910
1039.073, 1293.164
1040.181, 1070.391
1041.288, 1124.230
1042.396, 1177.035
1043.503, 1171.924
1044.610, 1183.180
1045.716, 1155.908
1046.823, 1220.621
1047.929, 1026.156
1049.036, 980.8262
1050.142, 835.3633
1051.248, 633.4219
1052.353, 723.5977
1053.459, 799.8203
1054.564, 587.8809
1055.670, 633.4258
1056.775, 656.6875
1057.880, 460.1289
1058.985, 618.6777
1060.089, 583.9316
1061.194, 668.5781
1062.298, 756.9141
1063.402, 681.7871
1064.506, 547.3418
1065.610, 670.9004
1066.713, 744.4590
1067.817, 808.0215
1068.920, 902.7930
1070.023, 749.9492
1071.126, 1024.518
1072.229, 849.4004
1073.332, 817.9766
1074.435, 1062.406
1075.537, 1042.863
1076.639, 1066.445
1077.741, 1138.549
1078.843, 1422.121
1079.945, 1493.375
1081.046, 1591.965
1082.148, 1849.557
1083.249, 1938.152
1084.350, 2319.750
1085.451, 2651.350
1086.551, 2930.951
1087.652, 3376.777
1088.752, 3986.385
1089.853, 4574.422
1090.953, 5631.035
1092.053, 6656.752
1093.152, 8082.373
1094.252, 9157.994
1095.351, 10671.62
1096.451, 11744.25
1097.550, 12629.89
1098.649, 12875.52
1099.748, 12666.16
1100.846, 12150.80
1101.945, 11258.45
1103.043, 10455.10
1104.141, 9345.338
1105.239, 8482.996
1106.337, 7923.871
1107.434, 7421.541
1108.532, 7256.213
1109.629, 6614.891
1110.726, 6617.572
1111.823, 6368.258
1112.920, 6260.949
1114.017, 5940.645
1115.113, 5959.344
1116.210, 5605.045
1117.306, 5394.762
1118.402, 5030.484
1119.498, 4714.215
1120.593, 4296.949
1121.689, 3822.689
1122.784, 3398.443
1123.879, 2985.203
1124.974, 2590.971
1126.069, 2351.758
1127.164, 2057.561
1128.259, 1765.395
1129.353, 1590.246
1130.447, 1306.102
1131.541, 1006.975
1132.635, 1060.854
1133.729, 1111.742
1134.822, 834.6426
1135.916, 1001.551
1137.009, 671.4629
1138.102, 780.3926
1139.195, 563.3535
1140.288, 560.3457
1141.380, 631.3613
1142.473, 330.4102
1143.565, 627.4941
1144.657, 471.5918
1145.749, 447.7012
1146.841, 243.8262
1147.932, 386.0020
1149.024, 301.2090
1150.115, 448.4219
1151.206, 473.6680
1152.297, 444.7656
1153.388, 462.1934
1154.479, 339.4805
1155.569, 297.7988
1156.659, 99.12500
1157.750, 183.4863
1158.839, 72.85742
1159.929, 235.2344
1161.019, 16.35938
1162.108, 214.0508
1163.198, 206.4668
1164.287, 63.88867
1165.376, 116.3262
1166.465, 31.77734
1167.553, 56.23828
1168.642, 15.71094
1169.730, 32.81250
1170.818, 182.6953
1171.906, 43.78711
1172.994, 51.72266
1174.082, 229.2559
1175.170, 129.1992
1176.257, 43.28906
1177.344, 40.80859
1178.431, 49.33789
1179.518, 170.8711
1180.605, 32.42773
1181.691, 33.00781
1182.778, 37.55078
1183.864, 132.1172
1184.950, 62.30078
1186.036, 55.26562
1187.122, 136.8379
1188.207, 64.58203
1189.292, 225.9727
1190.378, 184.5352
1191.463, 33.90039
1192.548, 24.33984
1193.632, 11.78711
1194.717, 8.767578
1195.801, 130.3262
1196.886, 271.8906
1197.970, 11.46289
1199.054, 234.0430
1200.137, 85.63086
1201.221, 160.2266
1202.305, 98.16992
1203.388, 11.39062
1204.471, 186.0449
1205.554, 188.4316
1206.637, 66.91211
1207.719, 11.60156
1208.802, 43.11523
1209.884, 70.64258
1210.966, 72.80273
1212.048, 59.25391
1213.130, 157.7090
1214.212, 76.17383
1215.293, 58.64258
1216.374, 105.1172
1217.456, 25.40234
1218.536, 57.08008
1219.617, 81.43164
1220.698, 143.0332
1221.778, 0.5078130
1222.859, 208.0020
1223.939, 5.511719
1225.019, 25.04102
1226.099, 86.58789
1227.178, 102.1406
1228.258, 134.6973
1229.337, 72.30664
1230.417, 103.9219
1231.496, 69.50391
1232.574, 161.1680
1233.653, 10.20117
1234.732, 80.43750
1235.810, 1.244141
1236.888, 219.7168
1237.966, 66.36523
1239.044, 111.0176
1240.122, 204.6777
1241.199, 65.34570
1242.277, 251.0195
1243.354, 365.6992
1244.431, 125.3809
1245.508, 365.0664
1246.585, 247.7559
1247.661, 374.4492
1248.738, 364.1445
1249.814, 121.8418
1250.890, 284.5449
1251.966, 227.2500
1253.042, 444.9551
1254.117, 362.6641
1255.193, 302.3828
1256.268, 580.1055
1257.343, 258.8301
1258.418, 323.5566
1259.493, 430.2832
1260.567, 521.0156
1261.642, 575.7461
1262.716, 604.1484
1263.790, 580.6270
1264.864, 618.3652
1265.938, 587.1055
1267.011, 615.8652
1268.085, 603.1621
