##NAMES=Albite
##RRUFFID=R050253
##IDEAL CHEMISTRY=NaAlSi_3_O_8_
##LOCALITY=Madawaska/Faraday mine, Bancroft, Ontario, Canada
##OWNER=RRUFF
##SOURCE=Marcus Origlieri
##DESCRIPTION=Colorless to brown prismatic single crystals
##STATUS=The identification of this mineral has been confirmed by X-ray diffraction and chemical analysis
##URL=rruff.info/R050253
##MEASURED CHEMISTRY=(Na_0.99_Ca_0.01_)Al_1.00_(Si_0.99_Al_0.01_)_3_O_8_
##PIN_ID=L01944
##ORIENTATION=Laser parallel to (0 -1 -1). Fiducial mark perpendicular to laser is parallel to a [1 0 0]
94.71400, 0.0000000E+00
95.94800, 277.0000
97.18200, 7.875977
98.41600, 88.69727
99.64900, 264.3945
100.8830, 448.2188
102.1160, 185.3682
103.3490, 552.8213
104.5820, 964.6670
105.8150, 1319.239
107.0470, 2198.678
108.2800, 2832.289
109.5120, 3355.964
110.7440, 4062.141
111.9760, 4667.799
113.2080, 5178.143
114.4400, 6217.814
115.6710, 6653.572
116.9030, 6418.203
118.1340, 5248.522
119.3650, 3605.367
120.5960, 2403.599
121.8270, 1332.098
123.0580, 1142.758
124.2880, 756.4863
125.5190, 325.1992
126.7490, 18.82422
127.9790, 65.70508
129.2090, 26.82812
130.4390, 161.3750
131.6680, 6.667969
132.8980, 70.66602
134.1270, 161.3105
135.3560, 183.5332
136.5850, 288.2871
137.8140, 502.5293
139.0430, 826.2246
140.2710, 994.8223
141.5000, 1300.852
142.7280, 1525.732
143.9560, 1885.971
145.1840, 2271.551
146.4120, 2907.463
147.6390, 3446.688
148.8670, 3473.211
150.0940, 3465.018
151.3210, 3534.094
152.5490, 3877.424
153.7750, 4171.000
155.0020, 4469.807
156.2290, 4831.834
157.4550, 5388.074
158.6810, 6192.516
159.9080, 7160.150
161.1340, 8609.973
162.3590, 9954.070
163.5850, 11188.59
164.8110, 11761.08
166.0360, 11652.97
167.2610, 10700.76
168.4860, 9796.184
169.7110, 9349.750
170.9360, 9308.355
172.1610, 9405.895
173.3850, 9498.395
174.6100, 9058.863
175.8340, 8443.328
177.0580, 8084.791
178.2820, 7851.270
179.5050, 7689.770
180.7290, 8229.293
181.9520, 8800.852
183.1760, 9576.449
184.3990, 10230.09
185.6220, 10688.77
186.8450, 11248.49
188.0670, 11436.26
189.2900, 10919.09
190.5120, 10110.01
191.7340, 9300.105
192.9560, 8383.312
194.1780, 7320.619
195.4000, 6818.023
196.6220, 6303.506
197.8430, 5785.062
199.0640, 5600.693
200.2860, 5762.367
201.5070, 5450.086
202.7270, 5708.561
203.9480, 6316.652
205.1690, 6321.492
206.3890, 6796.377
207.6090, 7535.297
208.8290, 8260.254
210.0490, 9524.252
211.2690, 9935.283
212.4890, 9475.352
213.7080, 8029.457
214.9280, 6198.594
216.1470, 4546.766
217.3660, 3280.971
218.5850, 2334.205
219.8030, 1559.475
221.0220, 1330.773
222.2400, 805.1035
223.4590, 618.4629
224.6770, 603.8496
225.8950, 308.2656
227.1120, 225.7070
228.3300, 124.9082
229.5480, 114.3613
230.7650, 64.78125
231.9820, 215.0840
233.1990, 98.06055
234.4160, 50.22070
235.6330, 34.41797
236.8490, 19.64648
238.0660, 135.5664
239.2820, 75.49609
240.4980, 155.7949
241.7140, 409.3301
242.9300, 504.9805
244.1460, 736.3652
245.3610, 768.1992
246.5770, 863.2695
247.7920, 1227.760
249.0070, 1567.480
250.2220, 2105.646
251.4370, 2554.100
252.6510, 3153.807
253.8660, 3296.746
255.0800, 3180.900
256.2940, 2597.250
257.5080, 2063.783
258.7220, 1711.451
259.9360, 1904.279
261.1490, 1744.254
262.3630, 1309.365
263.5760, 785.6055
264.7890, 1232.963
266.0020, 1307.434
267.2150, 1666.012
268.4270, 1862.689
269.6400, 1977.461
270.8520, 2313.322
272.0640, 2540.270
273.2760, 2480.293
274.4880, 2707.705
275.7000, 2450.881
276.9120, 2665.121
278.1230, 2807.426
279.3340, 3381.791
280.5450, 4142.213
281.7560, 4580.688
282.9670, 5635.219
284.1780, 6797.822
285.3880, 8592.312
286.5980, 10899.38
287.8090, 13033.66
289.0190, 15915.35
290.2290, 18901.93
291.4380, 21167.02
292.6480, 22193.25
293.8570, 21245.73
295.0670, 18393.31
296.2760, 14565.91
297.4850, 11095.91
298.6930, 8413.939
299.9020, 6000.504
301.1110, 4627.586
302.3190, 3623.744
303.5270, 2820.877
304.7350, 2485.033
305.9430, 1879.211
307.1510, 1600.412
308.3580, 1330.635
309.5660, 1358.811
310.7730, 1279.006
311.9800, 1205.209
313.1870, 1160.428
314.3940, 1160.656
315.6010, 1244.895
316.8070, 1102.141
318.0130, 894.3965
319.2200, 1245.662
320.4260, 1292.938
321.6310, 1540.221
322.8370, 1829.516
324.0430, 2212.818
325.2480, 2674.129
326.4540, 3736.451
327.6590, 4885.781
328.8640, 5877.115
330.0680, 6643.465
331.2730, 6606.818
332.4780, 5900.182
333.6820, 4364.551
334.8860, 3102.926
336.0900, 2419.311
337.2940, 1730.699
338.4980, 1219.096
339.7010, 1034.498
340.9050, 660.9004
342.1080, 498.3086
343.3110, 477.7227
344.5140, 457.1328
345.7170, 425.5488
346.9200, 411.9668
348.1220, 421.3906
349.3240, 372.8125
350.5270, 334.2363
351.7290, 289.6641
352.9310, 213.7910
354.1320, 215.5195
355.3340, 85.94922
356.5350, 122.3789
357.7370, 134.8086
358.9380, 21.24023
360.1390, 45.33203
361.3400, 101.0742
362.5400, 59.48438
363.7410, 95.89062
364.9410, 6.296875
366.1410, 59.30664
367.3410, 158.0684
368.5410, 71.55859
369.7410, 13.21289
370.9400, 171.1152
372.1400, 25.44531
373.3390, 59.74414
374.5380, 99.96094
375.7370, 110.6719
376.9360, 240.2227
378.1350, 98.14453
379.3330, 108.1094
380.5310, 167.5820
381.7300, 108.1895
382.9280, 179.0879
384.1260, 105.5352
385.3230, 150.1094
386.5210, 143.7500
387.7180, 13.45312
388.9160, 89.15625
390.1130, 127.0957
391.3100, 152.3672
392.5060, 28.65234
393.7030, 117.9434
394.9000, 232.2480
396.0960, 410.5645
397.2920, 628.8926
398.4880, 628.2266
399.6840, 725.5742
400.8800, 954.9297
402.0750, 1039.291
403.2710, 1158.658
404.4660, 1324.029
405.6610, 1533.412
406.8560, 2005.799
408.0510, 2773.199
409.2450, 3018.605
410.4400, 2990.035
411.6340, 2473.471
412.8280, 1864.914
414.0220, 1705.365
415.2160, 1561.814
416.4100, 1245.268
417.6030, 1226.719
418.7970, 1112.211
419.9900, 1163.725
421.1830, 607.2363
422.3760, 530.7754
423.5690, 426.3125
424.7610, 338.8477
425.9540, 128.3867
427.1460, 38.92578
428.3380, 34.54688
429.5300, 9.062500
430.7220, 28.61719
431.9140, 43.79883
433.1050, 21.58984
434.2970, 35.26953
435.4880, 7.017578
436.6790, 60.33789
437.8700, 5.703125
439.0610, 59.03711
440.2510, 174.3594
441.4420, 242.6738
442.6320, 24.98633
443.8220, 327.3398
445.0120, 98.66211
446.2020, 200.9785
447.3910, 130.2910
448.5810, 239.5957
449.7700, 358.8984
450.9600, 121.2168
452.1490, 516.5312
453.3370, 447.8555
454.5260, 904.1582
455.7150, 699.4531
456.9030, 1260.746
458.0910, 1031.055
459.2800, 1319.357
460.4670, 1239.656
461.6550, 1193.945
462.8430, 1132.230
464.0300, 1362.508
465.2180, 1466.777
466.4050, 1720.039
467.5920, 1873.295
468.7790, 2406.543
469.9650, 2997.783
471.1520, 3607.018
472.3380, 4650.246
473.5250, 5604.465
474.7110, 7101.676
475.8970, 8803.875
477.0820, 11094.07
478.2680, 13278.26
479.4540, 15425.43
480.6390, 16164.60
481.8240, 15028.77
483.0090, 13329.92
484.1940, 10516.07
485.3780, 8117.207
486.5630, 6179.338
487.7470, 5125.463
488.9320, 4095.574
490.1160, 3720.680
491.3000, 3250.779
492.4830, 3393.867
493.6670, 3398.949
494.8500, 3844.023
496.0340, 4519.088
497.2170, 4946.145
498.4000, 6329.191
499.5820, 7518.234
500.7650, 9210.266
501.9480, 11668.83
503.1300, 14641.96
504.3120, 18485.97
505.4940, 22874.96
506.6760, 27410.96
507.8580, 30780.64
509.0390, 32232.71
510.2210, 29983.67
511.4020, 25862.93
512.5830, 20353.33
513.7640, 15821.28
514.9450, 11893.49
516.1250, 9164.414
517.3060, 7246.666
518.4860, 5834.277
519.6660, 4816.424
520.8460, 3859.908
522.0260, 3454.752
523.2060, 2815.080
524.3850, 2474.838
525.5650, 2347.396
526.7440, 1979.223
527.9230, 1713.404
529.1020, 1760.922
530.2810, 1417.980
531.4590, 1480.637
532.6380, 1389.539
533.8160, 1325.441
534.9940, 1244.473
536.1720, 1058.371
537.3500, 958.2695
538.5270, 898.1641
539.7050, 875.0586
540.8820, 927.9512
542.0590, 796.8398
543.2360, 941.7266
544.4130, 816.6152
545.5900, 734.4980
546.7660, 614.6230
547.9430, 792.5605
549.1190, 536.7129
550.2950, 798.9844
551.4710, 799.4219
552.6470, 526.8984
553.8220, 537.4512
554.9980, 442.1406
556.1730, 482.0176
557.3480, 483.5469
558.5230, 477.9355
559.6980, 523.7363
560.8730, 565.9551
562.0470, 576.7891
563.2220, 695.9844
564.3960, 714.8516
565.5700, 707.0742
566.7440, 461.1543
567.9170, 795.4902
569.0910, 677.9355
570.2640, 688.9062
571.4380, 850.3066
572.6110, 740.3848
573.7840, 873.2402
574.9570, 920.3066
576.1290, 926.0312
577.3020, 1291.457
578.4740, 1460.979
579.6460, 1639.428
580.8180, 1552.572
581.9900, 1401.336
583.1620, 1346.939
584.3330, 1086.172
585.5040, 829.9375
586.6760, 638.4082
587.8470, 490.3711
589.0180, 342.1152
590.1880, 288.4727
591.3590, 201.0293
592.5290, 130.7832
593.7000, 21.11133
594.8700, 77.83398
596.0400, 172.5996
597.2090, 104.0371
598.3790, 200.6172
599.5490, 74.59766
600.7180, 145.1934
601.8870, 127.9219
603.0560, 155.7656
604.2250, 75.47852
605.3940, 143.1895
606.5620, 257.8926
607.7300, 246.7715
608.8990, 420.4609
610.0670, 130.3359
611.2350, 384.0137
612.4020, 46.68555
613.5700, 159.3496
614.7370, 393.0098
615.9050, 296.6680
617.0720, 413.7715
618.2390, 377.9727
619.4060, 461.6660
620.5720, 380.3711
621.7390, 410.0820
622.9050, 334.7930
624.0710, 235.4941
625.2370, 417.1914
626.4030, 279.8828
627.5690, 412.5664
628.7340, 823.2402
629.9000, 748.9297
631.0650, 899.6074
632.2300, 1016.275
633.3950, 980.9355
634.5600, 1033.602
635.7240, 1186.260
636.8890, 1060.908
638.0530, 1052.551
639.2170, 1044.182
640.3810, 1206.801
641.5450, 1148.414
642.7080, 1181.018
643.8720, 1461.631
645.0350, 1401.242
646.1980, 1528.840
647.3610, 1630.436
648.5240, 1728.066
649.6870, 1330.750
650.8490, 1168.381
652.0120, 1223.029
653.1740, 1264.682
654.3360, 915.3203
655.4980, 630.9785
656.6600, 716.9395
657.8210, 524.7930
658.9830, 330.8535
660.1440, 431.6445
661.3050, 461.4570
662.4660, 362.3418
663.6270, 416.2695
664.7870, 338.2188
665.9480, 237.2129
667.1080, 258.2305
668.2680, 230.2852
669.4280, 251.3730
670.5880, 447.4629
671.7480, 358.5742
672.9070, 380.6719
674.0670, 388.7520
675.2260, 303.8281
676.3850, 287.4297
677.5440, 168.9395
678.7030, 182.9766
679.8610, 171.1387
681.0200, 150.0039
682.1780, 228.9980
683.3360, 261.9766
684.4940, 235.9414
685.6520, 9.107422
686.8090, 85.81641
687.9670, 8.875000
689.1240, 10.39453
690.2810, 60.54297
691.4380, 16.25391
692.5950, 13.97070
693.7520, 4.775391
694.9080, 105.4980
696.0650, 15.20312
697.2210, 66.88672
698.3770, 117.4473
699.5330, 70.78711
700.6880, 123.7285
701.8440, 85.76953
702.9990, 110.2852
704.1550, 42.84766
705.3100, 3.613281
706.4650, 33.16406
707.6190, 22.50781
708.7740, 2.830078
709.9290, 326.2168
711.0830, 27.46484
712.2370, 139.5801
713.3910, 62.13281
714.5450, 85.09961
715.6980, 12.94531
716.8520, 49.39844
718.0050, 61.74805
719.1580, 397.0605
720.3110, 189.3496
721.4640, 88.53906
722.6170, 104.6348
723.7700, 330.3496
724.9220, 28.75586
726.0740, 100.6777
727.2260, 147.5781
728.3780, 41.79883
729.5300, 69.04102
730.6810, 147.9141
731.8330, 44.68359
732.9840, 298.2305
734.1350, 144.3477
735.2860, 33.88477
736.4370, 49.46289
737.5880, 102.7344
738.7380, 33.31836
739.8880, 166.2754
741.0390, 139.2266
742.1890, 574.0918
743.3380, 294.8301
744.4880, 451.6582
745.6380, 128.2598
746.7870, 317.2246
747.9360, 127.0410
749.0850, 354.0801
750.2340, 471.0625
751.3830, 548.8359
752.5310, 325.0195
753.6800, 413.0918
754.8280, 363.1367
755.9760, 564.4629
757.1240, 794.8730
758.2720, 810.8555
759.4190, 1182.627
760.5670, 1401.562
761.7140, 1764.031
762.8610, 2122.914
764.0080, 2606.607
765.1550, 2424.340
766.3020, 2368.961
767.4480, 2024.656
768.5950, 1726.965
769.7410, 1453.127
770.8870, 1074.150
772.0330, 1079.896
773.1780, 738.9531
774.3240, 854.1172
775.4690, 1031.428
776.6140, 887.2773
777.7590, 727.3398
778.9040, 777.1387
780.0490, 439.9141
781.1940, 558.7207
782.3380, 302.2676
783.4820, 534.0332
784.6260, 409.3867
785.7700, 234.3828
786.9140, 221.0059
788.0580, 444.6094
789.2010, 312.3457
790.3450, 425.3359
791.4880, 275.8555
792.6310, 405.9688
793.7730, 180.0586
794.9160, 211.4961
796.0590, 168.9707
797.2010, 286.6895
798.3430, 423.0391
799.4850, 382.5918
800.6270, 572.0840
801.7690, 591.5117
802.9100, 595.1934
804.0520, 637.4004
805.1930, 643.8750
806.3340, 868.0215
807.4750, 1206.404
808.6160, 1278.646
809.7560, 1681.703
810.8970, 2069.729
812.0370, 2470.725
813.1770, 2851.691
814.3170, 3656.623
815.4570, 4124.529
816.5960, 4008.402
817.7360, 3956.248
818.8750, 3924.062
820.0140, 2797.846
821.1530, 2571.600
822.2920, 1852.322
823.4310, 1093.771
824.5690, 1146.377
825.7070, 596.7305
826.8460, 759.9355
827.9840, 567.9395
829.1220, 535.2324
830.2590, 673.0547
831.3970, 497.7090
832.5340, 313.1445
833.6710, 452.8926
834.8080, 315.0957
835.9450, 227.1680
837.0820, 477.1211
838.2190, 325.4316
839.3550, 98.34570
840.4910, 199.5547
841.6270, 200.3770
842.7630, 135.3047
843.8990, 331.9434
845.0350, 246.4102
846.1700, 217.4805
847.3060, 414.5586
848.4410, 25.76172
849.5760, 276.7676
850.7100, 497.6797
851.8450, 74.43164
852.9800, 141.3359
854.1140, 220.9023
855.2480, 38.43164
856.3820, 180.2598
857.5160, 317.0566
858.6500, 37.01758
859.7830, 200.7129
860.9170, 95.38867
862.0500, 274.2754
863.1830, 211.6973
864.3160, 123.2852
865.4480, 131.2344
866.5810, 20.95703
867.7130, 271.4395
868.8460, 39.31250
869.9780, 102.7578
871.1100, 11.86914
872.2410, 30.27734
873.3730, 58.24219
874.5050, 16.73828
875.6360, 96.62891
876.7670, 92.82422
877.8980, 107.0781
879.0290, 12.02344
880.1590, 105.1328
881.2900, 154.2188
882.4200, 61.09375
883.5500, 91.12500
884.6800, 43.93359
885.8100, 47.90625
886.9400, 83.85156
888.0690, 22.76953
889.1990, 0.3398440
890.3280, 28.51172
891.4570, 12.32812
892.5860, 166.8906
893.7140, 49.22656
894.8430, 30.63672
895.9710, 2.097656
897.1000, 102.4062
898.2280, 22.87891
899.3560, 40.32422
900.4830, 31.74219
901.6110, 41.21094
902.7380, 50.50391
903.8660, 101.8008
904.9930, 129.0742
906.1200, 155.3281
907.2460, 38.43750
908.3730, 134.7344
909.5000, 100.8906
910.6260, 60.01953
911.7520, 183.1250
912.8780, 105.2070
914.0040, 289.2695
915.1290, 193.3086
916.2550, 145.3281
917.3800, 10.67578
918.5050, 141.2852
919.6300, 9.226563
920.7550, 131.8594
921.8800, 200.9531
923.0040, 150.7031
924.1290, 111.4805
925.2530, 43.23828
926.3770, 197.9688
927.5010, 75.32031
928.6250, 123.6719
929.7480, 270.6055
930.8720, 126.9961
931.9950, 60.18359
933.1180, 219.6758
934.2410, 167.8516
935.3640, 89.50781
936.4860, 97.12891
937.6090, 28.46484
938.7310, 206.7773
939.8530, 60.07422
940.9750, 265.3477
942.0970, 65.60938
943.2180, 89.84766
944.3400, 266.0859
945.4610, 251.3047
946.5820, 263.4766
947.7030, 319.7539
948.8240, 262.9844
949.9450, 225.1992
951.0650, 345.3945
952.1860, 426.5781
953.3060, 484.7422
954.4260, 183.8906
955.5460, 252.0234
956.6650, 129.1445
957.7850, 154.2500
958.9040, 663.3477
960.0230, 239.4297
961.1420, 502.5039
962.2610, 176.5742
963.3800, 15.65234
964.4990, 257.7500
965.6170, 464.8516
966.7350, 248.9492
967.8530, 422.0352
968.9710, 97.10547
970.0890, 513.1719
971.2070, 403.1758
972.3240, 625.2695
973.4410, 556.3555
974.5580, 707.8320
975.6750, 519.7891
976.7920, 453.7500
977.9090, 566.4258
979.0250, 874.5078
980.1410, 875.5898
981.2580, 913.5977
982.3740, 713.6562
983.4890, 678.9727
984.6050, 574.0234
985.7200, 401.0859
986.8360, 728.3984
987.9510, 534.1055
989.0660, 607.1680
990.1810, 317.0508
991.2950, 712.9336
992.4100, 366.9648
993.5240, 491.1523
994.6390, 431.2109
995.7530, 487.8281
996.8660, 317.8984
997.9800, 486.9648
999.0940, 392.6836
1000.207, 858.4336
1001.320, 716.3398
1002.433, 927.4023
1003.546, 762.6484
1004.659, 686.3047
1005.772, 1000.520
1006.884, 1240.602
1007.996, 836.0938
1009.108, 966.1680
1010.220, 1226.848
1011.332, 1126.504
1012.444, 1249.215
1013.555, 1205.031
1014.666, 1577.734
1015.777, 1490.637
1016.888, 1315.152
1017.999, 1097.789
1019.110, 1238.180
1020.220, 1299.602
1021.331, 1241.207
1022.441, 825.3750
1023.551, 913.6328
1024.661, 880.8984
1025.770, 852.8477
1026.880, 1127.699
1027.989, 1240.953
1029.098, 1199.387
1030.207, 1550.637
1031.316, 1515.332
1032.425, 1812.586
1033.533, 1561.012
1034.642, 1687.367
1035.750, 1731.809
1036.858, 1283.156
1037.966, 1137.871
1039.073, 1231.703
1040.181, 901.6484
1041.288, 606.8555
1042.396, 632.7266
1043.503, 728.4648
1044.610, 658.0391
1045.716, 569.0547
1046.823, 529.8242
1047.929, 408.8438
1049.036, 402.3086
1050.142, 517.8320
1051.248, 365.0312
1052.353, 485.9961
1053.459, 472.3477
1054.564, 278.0391
1055.670, 752.0742
1056.775, 370.8359
1057.880, 494.7188
1058.985, 228.3281
1060.089, 598.3828
1061.194, 286.9336
1062.298, 208.3750
1063.402, 216.4531
1064.506, 137.4648
1065.610, 225.2109
1066.713, 501.3086
1067.817, 123.4258
1068.920, 23.66797
1070.023, 305.1172
1071.126, 526.7930
1072.229, 602.9180
1073.332, 394.7539
1074.435, 593.9023
1075.537, 356.7852
1076.639, 547.5742
1077.741, 485.7422
1078.843, 686.5000
1079.945, 448.4062
1081.046, 622.1406
1082.148, 760.3398
1083.249, 661.5430
1084.350, 689.7578
1085.451, 951.9766
1086.551, 1078.203
1087.652, 1195.441
1088.752, 1356.684
1089.853, 1382.934
1090.953, 1407.188
1092.053, 1412.453
1093.152, 1528.730
1094.252, 2094.016
1095.351, 2034.305
1096.451, 2552.516
1097.550, 3087.145
1098.649, 3199.461
1099.748, 3568.875
1100.846, 3751.207
1101.945, 3544.543
1103.043, 3530.883
1104.141, 3221.359
1105.239, 3077.941
1106.337, 2431.309
1107.434, 2180.578
1108.532, 2188.961
1109.629, 2171.355
1110.726, 1850.758
1111.823, 1959.168
1112.920, 1973.582
1114.017, 1810.008
1115.113, 2217.445
1116.210, 2244.898
1117.306, 1999.359
1118.402, 2227.828
1119.498, 2391.359
1120.593, 2337.906
1121.689, 2027.461
1122.784, 2024.031
1123.879, 1902.609
1124.974, 1415.199
1126.069, 1262.820
1127.164, 1421.004
1128.259, 1178.688
1129.353, 819.3828
1130.447, 927.0977
1131.541, 632.8242
1132.635, 407.5625
1133.729, 551.3125
1134.822, 151.0703
1135.916, 222.8438
1137.009, 310.6875
1138.102, 363.2539
1139.195, 333.0820
1140.288, 297.9258
1141.380, 242.7969
1142.473, 232.8672
1143.565, 207.5625
1144.657, 208.4609
1145.749, 83.39062
1146.841, 77.32422
1147.932, 53.26562
1149.024, 68.22266
1150.115, 235.1914
1151.206, 442.1680
1152.297, 232.1602
1153.388, 338.1523
1154.479, 293.1680
1155.569, 225.1992
1156.659, 566.2344
1157.750, 453.2852
1158.839, 543.4375
1159.929, 607.5820
1161.019, 265.7773
1162.108, 517.9805
1163.198, 488.1992
1164.287, 701.4219
1165.376, 505.6602
1166.465, 439.9141
1167.553, 264.1719
1168.642, 167.4648
1169.730, 441.7617
1170.818, 293.0781
1171.906, 332.4023
1172.994, 223.8164
1174.082, 328.2383
1175.170, 253.6719
1176.257, 110.1094
1177.344, 287.5625
1178.431, 82.05469
1179.518, 120.5508
1180.605, 258.0508
1181.691, 69.56641
1182.778, 121.0977
1183.864, 225.6289
1184.950, 13.17188
1186.036, 210.7578
1187.122, 25.64453
1188.207, 312.0117
1189.292, 374.6797
1190.378, 195.3945
1191.463, 4.878906
1192.548, 204.8789
1193.632, 191.6953
1194.717, 181.5234
1195.801, 24.34766
1196.886, 248.1836
1197.970, 8.972656
1199.054, 147.9180
1200.137, 67.46484
1201.221, 86.41406
1202.305, 195.2969
1203.388, 267.1797
1204.471, 73.06641
1205.554, 119.9570
1206.637, 83.14844
1207.719, 115.7188
1208.802, 38.42188
1209.884, 180.5703
1210.966, 36.80078
1212.048, 34.95703
1213.130, 51.71484
1214.212, 155.0781
1215.293, 219.2383
1216.374, 275.0039
1217.456, 123.7734
1218.536, 152.5430
1219.617, 26.31250
1220.698, 214.0859
1221.778, 324.8555
1222.859, 155.6328
1223.939, 61.41016
1225.019, 80.18359
1226.099, 150.0430
1227.178, 66.58984
1228.258, 128.3320
1229.337, 15.00781
1230.417, 126.6797
1231.496, 189.3477
1232.574, 179.0195
1233.653, 14.68750
1234.732, 2.351563
1235.810, 262.1016
1236.888, 91.24219
1237.966, 391.3672
1239.044, 238.9805
1240.122, 239.6445
1241.199, 59.25391
1242.277, 81.85547
1243.354, 227.4141
1244.431, 76.32812
1245.508, 165.2031
1246.585, 503.0938
1247.661, 264.6836
1248.738, 499.9805
1249.814, 380.2734
1250.890, 255.7930
1251.966, 192.6836
1253.042, 198.3672
1254.117, 109.6523
1255.193, 274.1992
1256.268, 3.375000
1257.343, 376.2734
1258.418, 420.5977
1259.493, 220.7578
1260.567, 228.0742
1261.642, 342.5703
1262.716, 276.3047
1263.790, 512.5430
1264.864, 170.0469
1265.938, 92.51172
1267.011, 33.83203
1268.085, 289.5820
1269.158, 249.8359
1270.231, 350.9023
1271.304, 263.2852
1272.377, 326.0664
1273.450, 259.4258
1274.522, 351.9922
