##NAMES=Albite
##RRUFFID=R050253
##IDEAL CHEMISTRY=NaAlSi_3_O_8_
##LOCALITY=Madawaska/Faraday mine, Bancroft, Ontario, Canada
##OWNER=RRUFF
##SOURCE=Marcus Origlieri
##DESCRIPTION=Colorless to brown prismatic single crystals
##STATUS=The identification of this mineral has been confirmed by X-ray diffraction and chemical analysis
##URL=rruff.info/R050253
##MEASURED CHEMISTRY=(Na_0.99_Ca_0.01_)Al_1.00_(Si_0.99_Al_0.01_)_3_O_8_
##PIN_ID=L01266
##ORIENTATION=Laser parallel to (-1 -1 0). Fiducial mark perpendicular to laser is parallel to c [0 0 1]
109.5120, 0.0000000E+00
110.7440, 374.9912
111.9760, 214.8955
113.2080, 22.38086
114.4400, 98.07031
115.6710, 170.7930
116.9030, 242.5791
118.1340, 153.7324
119.3650, 59.85547
120.5960, 26.84473
121.8270, 1.124023
123.0580, 60.00293
124.2880, 20.85059
125.5190, 110.9668
126.7490, 161.1162
127.9790, 274.9424
129.2090, 561.1494
130.4390, 667.4609
131.6680, 974.6387
132.8980, 1376.474
134.1270, 1880.791
135.3560, 2557.875
136.5850, 3357.263
137.8140, 4270.189
139.0430, 5424.086
140.2710, 6633.319
141.5000, 8114.605
142.7280, 9579.755
143.9560, 10659.70
145.1840, 11461.45
146.4120, 12168.92
147.6390, 13020.03
148.8670, 14156.67
150.0940, 15096.78
151.3210, 15915.33
152.5490, 16229.25
153.7750, 15471.53
155.0020, 13729.12
156.2290, 10885.01
157.4550, 8294.171
158.6810, 5967.580
159.9080, 4293.226
161.1340, 3613.086
162.3590, 3286.148
163.5850, 3435.400
164.8110, 3436.828
166.0360, 3743.423
167.2610, 3959.170
168.4860, 4192.062
169.7110, 4566.312
170.9360, 5228.510
172.1610, 5770.180
173.3850, 6664.051
174.6100, 7350.514
175.8340, 8595.312
177.0580, 9430.195
178.2820, 10281.06
179.5050, 11396.29
180.7290, 12181.45
181.9520, 12876.43
183.1760, 13629.24
184.3990, 14370.84
185.6220, 14745.17
186.8450, 14955.34
188.0670, 14728.37
189.2900, 14254.30
190.5120, 12966.14
191.7340, 11767.91
192.9560, 10559.61
194.1780, 9386.271
195.4000, 8382.890
196.6220, 7746.472
197.8430, 7323.027
199.0640, 7381.562
200.2860, 7711.076
201.5070, 7940.578
202.7270, 8031.596
203.9480, 8349.541
205.1690, 8285.010
206.3890, 8600.471
207.6090, 8797.920
208.8290, 9432.370
210.0490, 9663.814
211.2690, 9656.251
212.4890, 9280.688
213.7080, 8031.119
214.9280, 6379.543
216.1470, 4900.960
217.3660, 3622.367
218.5850, 2474.766
219.8030, 1794.154
221.0220, 1494.534
222.2400, 917.9023
223.4590, 674.2607
224.6770, 400.6074
225.8950, 284.9414
227.1120, 143.2656
228.3300, 70.57715
229.5480, 37.12500
230.7650, 81.83887
231.9820, 206.3955
233.1990, 138.5801
234.4160, 165.1621
235.6330, 130.7217
236.8490, 0.8798830
238.0660, 187.0938
239.2820, 414.1084
240.4980, 590.3672
241.7140, 888.2109
242.9300, 1144.926
244.1460, 1663.717
245.3610, 2030.690
246.5770, 2178.355
247.7920, 2467.641
249.0070, 2704.967
250.2220, 3215.142
251.4370, 3532.307
252.6510, 4107.459
253.8660, 4250.598
255.0800, 4260.721
256.2940, 3911.811
257.5080, 3633.031
258.7220, 3511.271
259.9360, 3632.158
261.1490, 3619.898
262.3630, 3862.361
263.5760, 4002.491
264.7890, 4248.918
266.0020, 4644.605
267.2150, 5128.528
268.4270, 5415.650
269.6400, 5873.975
270.8520, 6168.471
272.0640, 6088.123
273.2760, 5767.919
274.4880, 5466.842
275.7000, 4828.883
276.9120, 4357.031
278.1230, 4338.278
279.3340, 4537.617
280.5450, 5105.039
281.7560, 5797.535
282.9670, 6754.105
284.1780, 7520.741
285.3880, 8139.438
286.5980, 8864.187
287.8090, 9610.982
289.0190, 10569.82
290.2290, 11309.69
291.4380, 12205.59
292.6480, 12199.52
293.8570, 11883.48
295.0670, 10540.46
296.2760, 8766.466
297.4850, 7014.486
298.6930, 5569.523
299.9020, 4318.146
301.1110, 3252.642
302.3190, 2409.719
303.5270, 1839.806
304.7350, 1410.822
305.9430, 1111.006
307.1510, 946.1182
308.3580, 833.2344
309.5660, 891.3555
310.7730, 576.4805
311.9800, 660.6074
313.1870, 562.7363
314.3940, 519.8652
315.6010, 573.9893
316.8070, 752.0322
318.0130, 872.9932
319.2200, 1234.916
320.4260, 1370.832
321.6310, 1927.735
322.8370, 2073.620
324.0430, 2315.483
325.2480, 2633.322
326.4540, 2839.136
327.6590, 3239.928
328.8640, 3699.694
330.0680, 4015.440
331.2730, 3867.166
332.4780, 3553.870
333.6820, 2869.557
334.8860, 2403.222
336.0900, 1818.868
337.2940, 1373.325
338.4980, 860.1035
339.7010, 658.6943
340.9050, 440.2666
342.1080, 341.8193
343.3110, 357.3555
344.5140, 340.8721
345.7170, 203.3701
346.9200, 152.8496
348.1220, 271.3105
349.3240, 228.7529
350.5270, 228.1758
351.7290, 141.5811
352.9310, 153.9668
354.1320, 235.3330
355.3340, 91.32129
356.5350, 45.96094
357.7370, 39.21484
358.9380, 72.56152
360.1390, 71.39941
361.3400, 11.70312
362.5400, 48.23340
363.7410, 66.22461
364.9410, 63.27344
366.1410, 240.3828
367.3410, 129.5986
368.5410, 155.8906
369.7410, 181.2666
370.9400, 110.7354
372.1400, 183.2754
373.3390, 126.9082
374.5380, 142.1240
375.7370, 114.3965
376.9360, 153.9941
378.1350, 235.2646
379.3330, 173.6465
380.5310, 112.0996
381.7300, 71.44238
382.9280, 123.0850
384.1260, 21.15527
385.3230, 99.78613
386.5210, 269.0762
387.7180, 286.7949
388.9160, 339.3867
390.1130, 527.8047
391.3100, 779.1660
392.5060, 1054.446
393.7030, 1108.686
394.9000, 1288.918
396.0960, 1414.146
397.2920, 1905.368
398.4880, 2216.596
399.6840, 2513.820
400.8800, 2871.046
402.0750, 2775.289
403.2710, 2779.545
404.4660, 2827.822
405.6610, 3021.130
406.8560, 3327.475
408.0510, 3976.847
409.2450, 4535.245
410.4400, 4990.656
411.6340, 4918.092
412.8280, 4764.545
414.0220, 4837.022
415.2160, 5174.504
416.4100, 5614.982
417.6030, 5632.477
418.7970, 5522.990
419.9900, 4766.516
421.1830, 3657.034
422.3760, 2596.551
423.5690, 1894.069
424.7610, 1330.585
425.9540, 948.1025
427.1460, 852.6045
428.3380, 731.0898
429.5300, 609.5576
430.7220, 519.0078
431.9140, 622.4404
433.1050, 571.8594
434.2970, 670.2598
435.4880, 765.6426
436.6790, 850.0039
437.8700, 996.3477
439.0610, 1131.671
440.2510, 1360.975
441.4420, 1525.260
442.6320, 1775.524
443.8220, 2220.768
445.0120, 2832.372
446.2020, 3426.195
447.3910, 4506.379
448.5810, 5566.541
449.7700, 6766.684
450.9600, 7626.806
452.1490, 8217.905
453.3370, 9149.986
454.5260, 9932.045
455.7150, 10905.09
456.9030, 11976.10
458.0910, 12072.27
459.2800, 11676.25
460.4670, 10557.67
461.6550, 9485.605
462.8430, 8538.598
464.0300, 7802.494
465.2180, 7682.369
466.4050, 8009.225
467.5920, 9315.146
468.7790, 11368.96
469.9650, 13940.76
471.1520, 16833.54
472.3380, 19906.29
473.5250, 22275.03
474.7110, 24481.75
475.8970, 27028.45
477.0820, 29490.13
478.2680, 32010.79
479.4540, 34070.43
480.6390, 34427.05
481.8240, 32532.66
483.0090, 28678.23
484.1940, 23786.80
485.3780, 18971.35
486.5630, 14767.88
487.7470, 11947.39
488.9320, 10267.88
490.1160, 8954.346
491.3000, 8694.800
492.4830, 8622.232
493.6670, 9237.650
494.8500, 10670.96
496.0340, 12346.29
497.2170, 15180.65
498.4000, 19199.17
499.5820, 23939.84
500.7650, 28201.13
501.9480, 32515.60
503.1300, 36429.35
504.3120, 39423.65
505.4940, 43528.41
506.6760, 46792.98
507.8580, 49499.65
509.0390, 50067.14
510.2210, 47819.51
511.4020, 42305.18
512.5830, 35160.19
513.7640, 27927.56
514.9450, 21627.34
516.1250, 16849.59
517.3060, 13197.86
518.4860, 10526.91
519.6660, 8598.710
520.8460, 7359.541
522.0260, 6096.414
523.2060, 5317.284
524.3850, 4644.527
525.5650, 4035.651
526.7440, 3588.743
527.9230, 3193.608
529.1020, 2905.721
530.2810, 2656.823
531.4590, 2539.952
532.6380, 2316.029
533.8160, 2143.417
534.9940, 1994.592
536.1720, 1790.720
537.3500, 1645.960
538.5270, 1459.179
539.7050, 1288.642
540.8820, 1315.291
542.0590, 1296.844
543.2360, 1149.797
544.4130, 1160.299
545.5900, 1124.053
546.7660, 1048.697
547.9430, 895.8525
549.1190, 946.6426
550.2950, 979.4229
551.4710, 835.2656
552.6470, 869.9424
553.8220, 866.7490
554.9980, 806.5166
556.1730, 1013.906
557.3480, 915.9980
558.5230, 920.4385
559.6980, 641.8438
560.8730, 804.7383
562.0470, 798.9814
563.2220, 703.9453
564.3960, 820.6289
565.5700, 835.7158
566.7440, 865.5254
567.9170, 945.8945
569.0910, 1007.004
570.2640, 1294.024
571.4380, 1969.177
572.6110, 1933.171
573.7840, 1899.066
574.9570, 1740.046
576.1290, 1882.018
577.3020, 1990.000
578.4740, 2071.957
579.6460, 2016.905
580.8180, 1983.847
581.9900, 1839.780
583.1620, 1654.706
584.3330, 1450.624
585.5040, 1155.538
586.6760, 934.4453
587.8470, 819.3457
589.0180, 676.2383
590.1880, 553.1230
591.3590, 439.6328
592.5290, 350.1035
593.7000, 242.7676
594.8700, 220.6396
596.0400, 186.5049
597.2090, 169.3896
598.3790, 26.26660
599.5490, 149.1367
600.7180, 5.000977
601.8870, 184.8564
603.0560, 47.70605
604.2250, 136.5488
605.3940, 124.4043
606.5620, 68.25293
607.7300, 45.09570
608.8990, 183.9307
610.0670, 143.7637
611.2350, 181.6270
612.4020, 107.4834
613.5700, 200.3330
614.7370, 157.1768
615.9050, 192.0137
617.0720, 213.9258
618.2390, 128.6699
619.4060, 222.4912
620.5720, 186.3037
621.7390, 146.1318
622.9050, 197.9512
624.0710, 254.7773
625.2370, 371.5977
626.4030, 377.4189
627.5690, 439.2559
628.7340, 322.0879
629.9000, 581.9141
631.0650, 401.7393
632.2300, 509.5576
633.3950, 566.3701
634.5600, 590.1768
635.7240, 815.9775
636.8890, 674.7715
638.0530, 1031.561
639.2170, 772.3867
640.3810, 700.2168
641.5450, 854.0508
642.7080, 1002.920
643.8720, 930.8242
645.0350, 1004.739
646.1980, 1078.685
647.3610, 1039.669
648.5240, 1051.673
649.6870, 936.8594
650.8490, 900.0459
652.0120, 742.2900
653.1740, 492.5996
654.3360, 604.9639
655.4980, 404.3945
656.6600, 260.8770
657.8210, 218.4551
658.9830, 270.0801
660.1440, 235.7617
661.3050, 112.5215
662.4660, 91.65918
663.6270, 28.15137
664.7870, 185.9580
665.9480, 249.8105
667.1080, 14.67285
668.2680, 74.57129
669.4280, 23.53711
670.5880, 196.3252
671.7480, 21.82031
672.9070, 77.00684
674.0670, 42.17578
675.2260, 226.6025
676.3850, 51.37402
677.5440, 57.13574
678.7030, 24.11230
679.8610, 9.606445
681.0200, 16.31250
682.1780, 45.99609
683.3360, 6.347656
684.4940, 8.275391
685.6520, 87.11816
686.8090, 126.5801
687.9670, 104.3086
689.1240, 87.75586
690.2810, 56.45020
691.4380, 101.1973
692.5950, 71.02051
693.7520, 101.9033
694.9080, 31.86719
696.0650, 10.86816
697.2210, 79.89941
698.3770, 94.99707
699.5330, 70.73047
700.6880, 3.595703
701.8440, 23.66211
702.9990, 34.95703
704.1550, 25.29492
705.3100, 36.66992
706.4650, 35.90820
707.6190, 67.47461
708.7740, 87.03125
709.9290, 55.57617
711.0830, 173.1113
712.2370, 11.63477
713.3910, 218.1406
714.5450, 106.6367
715.6980, 84.12305
716.8520, 219.5996
718.0050, 230.0664
719.1580, 147.5234
720.3110, 302.9727
721.4640, 311.4121
722.6170, 386.8418
723.7700, 374.6719
724.9220, 396.3438
726.0740, 356.5547
727.2260, 362.9473
728.3780, 380.3281
729.5300, 403.6992
730.6810, 324.4219
731.8330, 502.7754
732.9840, 462.1641
734.1350, 535.4961
735.2860, 445.8125
736.4370, 583.1250
737.5880, 607.2598
738.7380, 582.5547
739.8880, 695.2383
741.0390, 782.5117
742.1890, 870.6992
743.3380, 927.4238
744.4880, 1199.668
745.6380, 1323.986
746.7870, 1481.123
747.9360, 1561.256
749.0850, 1942.043
750.2340, 2390.234
751.3830, 2773.416
752.5310, 3681.586
753.6800, 4478.756
754.8280, 5778.035
755.9760, 7368.174
757.1240, 8905.607
758.2720, 10733.72
759.4190, 12202.03
760.5670, 13705.12
761.7140, 14956.22
762.8610, 15952.29
764.0080, 16898.18
765.1550, 16746.80
766.3020, 15491.14
767.4480, 13681.17
768.5950, 11269.40
769.7410, 8943.402
770.8870, 7033.396
772.0330, 5425.379
773.1780, 4222.348
774.3240, 3547.307
775.4690, 3067.252
776.6140, 2783.189
777.7590, 2379.113
778.9040, 2161.023
780.0490, 1892.924
781.1940, 1745.812
782.3380, 1570.711
783.4820, 1447.244
784.6260, 1333.566
785.7700, 1292.301
786.9140, 1249.129
788.0580, 1204.943
789.2010, 1136.742
790.3450, 1169.527
791.4880, 1119.176
792.6310, 1294.977
793.7730, 1158.721
794.9160, 1331.865
796.0590, 1218.578
797.2010, 1439.275
798.3430, 1631.953
799.4850, 1780.617
800.6270, 2050.262
801.7690, 2259.725
802.9100, 2560.340
804.0520, 3024.936
805.1930, 4045.223
806.3340, 4794.785
807.4750, 6122.363
808.6160, 7535.895
809.7560, 8987.465
810.8970, 10591.96
812.0370, 12030.14
813.1770, 13034.61
814.3170, 14250.95
815.4570, 14842.29
816.5960, 14776.38
817.7360, 13806.26
818.8750, 12430.23
820.0140, 10309.78
821.1530, 8209.766
822.2920, 6221.484
823.4310, 4801.295
824.5690, 3611.580
825.7070, 2928.215
826.8460, 2547.844
827.9840, 2170.396
829.1220, 1611.098
830.2590, 1309.656
831.3970, 1349.238
832.5340, 1057.184
833.6710, 1165.410
834.8080, 919.2734
835.9450, 741.1562
837.0820, 749.5352
838.2190, 901.5527
839.3550, 669.8340
840.4910, 737.3809
841.6270, 448.5098
842.7630, 341.9043
843.8990, 397.7207
845.0350, 303.7832
846.1700, 294.9238
847.3060, 444.9180
848.4410, 258.0547
849.5760, 151.2773
850.7100, 213.4023
851.8450, 256.5215
852.9800, 287.6172
854.1140, 192.7266
855.2480, 181.8320
856.3820, 52.92969
857.5160, 131.0234
858.6500, 41.11328
859.7830, 8.195313
860.9170, 18.26953
862.0500, 65.33594
863.1830, 98.39844
864.3160, 187.4551
865.4480, 27.49023
866.5810, 176.5371
867.7130, 99.56055
868.8460, 5.421875
869.9780, 106.5820
871.1100, 88.41992
872.2410, 38.52148
873.3730, 69.46289
874.5050, 55.39844
875.6360, 21.66602
876.7670, 115.2480
877.8980, 143.1602
879.0290, 66.92773
880.1590, 50.93750
881.2900, 11.80078
882.4200, 37.66211
883.5500, 6.480469
884.6800, 134.6387
885.8100, 110.1289
886.9400, 30.89453
888.0690, 107.6582
889.1990, 12.41992
890.3280, 7.177734
891.4570, 110.9316
892.5860, 2.683594
893.7140, 166.4277
894.8430, 67.82617
895.9710, 101.8789
897.1000, 48.41406
898.2280, 112.2637
899.3560, 28.05859
900.4830, 76.40234
901.6110, 0.2148440
902.7380, 49.82617
903.8660, 18.56055
904.9930, 50.04297
906.1200, 7.642578
907.2460, 75.24219
908.3730, 103.4023
909.5000, 135.0039
910.6260, 182.0430
911.7520, 230.6465
912.8780, 264.2520
914.0040, 305.1465
915.1290, 276.6738
916.2550, 193.0703
917.3800, 199.6816
918.5050, 26.29297
919.6300, 23.09180
920.7550, 157.4883
921.8800, 91.04102
923.0040, 110.5723
924.1290, 77.10742
925.2530, 104.6562
926.3770, 39.79297
927.5010, 0.7421880
928.6250, 180.2793
929.7480, 171.1797
930.8720, 53.28320
931.9950, 90.75000
933.1180, 98.22070
934.2410, 42.69336
935.3640, 185.1777
936.4860, 193.6914
937.6090, 160.2129
938.7310, 176.7715
939.8530, 194.3359
940.9750, 280.9199
942.0970, 216.5137
943.2180, 345.1230
944.3400, 318.7383
945.4610, 497.3711
946.5820, 607.0117
947.7030, 584.7129
948.8240, 795.4219
949.9450, 768.1367
951.0650, 725.8555
952.1860, 726.6133
953.3060, 721.7402
954.4260, 627.1602
955.5460, 772.9746
956.6650, 851.8047
957.7850, 946.6504
958.9040, 907.5312
960.0230, 693.4590
961.1420, 740.4297
962.2610, 756.4434
963.3800, 774.4922
964.4990, 817.4531
965.6170, 837.0410
966.7350, 912.8809
967.8530, 983.0762
968.9710, 1080.293
970.0890, 1217.295
971.2070, 1601.842
972.3240, 1537.174
973.4410, 1670.525
974.5580, 1855.900
975.6750, 2385.303
976.7920, 2582.730
977.9090, 2759.188
979.0250, 2737.654
980.1410, 2501.135
981.2580, 2587.629
982.3740, 2091.133
983.4890, 2145.648
984.6050, 1800.184
985.7200, 1520.727
986.8360, 1164.297
987.9510, 1293.879
989.0660, 903.4746
990.1810, 1138.078
991.2950, 1110.695
992.4100, 907.3262
993.5240, 1273.971
994.6390, 1082.215
995.7530, 1123.812
996.8660, 928.4941
997.9800, 1241.189
999.0940, 1250.898
1000.207, 1386.264
1001.320, 1704.998
1002.433, 1815.746
1003.546, 1904.467
1004.659, 2076.246
1005.772, 2083.045
1006.884, 2359.852
1007.996, 2141.672
1009.108, 2192.508
1010.220, 2169.492
1011.332, 1984.357
1012.444, 1986.238
1013.555, 1800.664
1014.666, 1775.576
1015.777, 1959.422
1016.888, 1797.365
1017.999, 1624.408
1019.110, 1496.799
1020.220, 1302.791
1021.331, 1132.803
1022.441, 1013.832
1023.551, 919.8672
1024.661, 808.7969
1025.770, 851.8789
1026.880, 904.6719
1027.989, 1004.785
1029.098, 802.7207
1030.207, 1022.875
1031.316, 753.0371
1032.425, 827.2266
1033.533, 778.6094
1034.642, 852.2676
1035.750, 818.3965
1036.858, 951.6406
1037.966, 817.7090
1039.073, 758.0176
1040.181, 867.3438
1041.288, 1033.691
1042.396, 940.0586
1043.503, 1080.447
1044.610, 1080.852
1045.716, 1177.279
1046.823, 944.7285
1047.929, 1243.197
1049.036, 933.6855
1050.142, 848.1953
1051.248, 1173.727
1052.353, 860.2754
1053.459, 814.6875
1054.564, 786.3867
1055.670, 504.0000
1056.775, 338.6348
1057.880, 636.6270
1058.985, 804.3047
1060.089, 447.1289
1061.194, 407.8066
1062.298, 453.5508
1063.402, 388.8984
1064.506, 461.6875
1065.610, 460.2480
1066.713, 382.3730
1067.817, 505.7578
1068.920, 417.6797
1070.023, 445.6230
1071.126, 443.8945
1072.229, 351.1348
1073.332, 397.0371
1074.435, 479.7344
1075.537, 471.7910
1076.639, 598.8672
1077.741, 578.4180
1078.843, 569.5391
1079.945, 889.2168
1081.046, 994.3828
1082.148, 826.5703
1083.249, 966.7793
1084.350, 1234.629
1085.451, 1164.881
1086.551, 1467.154
1087.652, 1690.973
1088.752, 1743.291
1089.853, 2446.627
1090.953, 2741.986
1092.053, 3039.365
1093.152, 3681.766
1094.252, 4176.867
1095.351, 4731.357
1096.451, 5100.826
1097.550, 5580.312
1098.649, 5834.822
1099.748, 5860.367
1100.846, 5542.934
1101.945, 5496.516
1103.043, 4853.123
1104.141, 4375.771
1105.239, 3988.439
1106.337, 3202.127
1107.434, 2750.836
1108.532, 2608.559
1109.629, 2020.307
1110.726, 1905.070
1111.823, 1520.857
1112.920, 1341.664
1114.017, 1457.486
1115.113, 1361.338
1116.210, 1129.209
1117.306, 941.0977
1118.402, 1153.820
1119.498, 1255.748
1120.593, 968.6953
1121.689, 1065.658
1122.784, 774.6426
1123.879, 716.6445
1124.974, 821.6699
1126.069, 858.7168
1127.164, 674.7812
1128.259, 512.8691
1129.353, 496.9746
1130.447, 422.0996
1131.541, 365.2402
1132.635, 332.6523
1133.729, 243.6055
1134.822, 274.8320
1135.916, 279.0820
1137.009, 302.3496
1138.102, 245.6621
1139.195, 281.3438
1140.288, 173.3457
1141.380, 293.7148
1142.473, 221.1152
1143.565, 186.5332
1144.657, 379.9688
1145.749, 327.4453
1146.841, 404.9375
1147.932, 665.4512
1149.024, 552.9805
1150.115, 650.5566
1151.206, 696.1914
1152.297, 870.8672
1153.388, 793.5645
1154.479, 763.2793
1155.569, 859.0508
1156.659, 707.8438
1157.750, 342.6504
1158.839, 507.4785
1159.929, 345.3223
1161.019, 124.2031
1162.108, 258.1016
1163.198, 116.0312
1164.287, 337.9766
1165.376, 238.9473
1166.465, 158.9531
1167.553, 11.01953
1168.642, 42.83008
1169.730, 219.0840
1170.818, 93.16211
1171.906, 124.2559
1172.994, 68.36719
1174.082, 59.47656
1175.170, 74.63867
1176.257, 82.79688
1177.344, 126.9707
1178.431, 165.2305
1179.518, 9.365234
1180.605, 169.5840
1181.691, 53.81641
1182.778, 10.06641
1183.864, 199.3301
1184.950, 72.61523
1186.036, 175.9590
1187.122, 89.32031
1188.207, 68.30664
1189.292, 101.0586
1190.378, 190.4395
1191.463, 40.84375
1192.548, 214.2617
1193.632, 145.6934
1194.717, 53.17773
1195.801, 63.67773
1196.886, 196.4043
1197.970, 18.07227
1199.054, 143.4609
1200.137, 55.00781
1201.221, 158.1426
1202.305, 25.36719
1203.388, 71.10938
1204.471, 21.60352
1205.554, 91.91406
1206.637, 158.4414
1207.719, 15.01758
1208.802, 203.5273
1209.884, 170.9141
1210.966, 114.5840
1212.048, 329.1055
1213.130, 112.6426
1214.212, 81.81055
1215.293, 10.71289
1216.374, 179.2500
1217.456, 59.20312
1218.536, 25.33398
1219.617, 102.8789
1220.698, 81.43555
1221.778, 36.00391
1222.859, 136.5840
1223.939, 17.59570
1225.019, 26.00195
1226.099, 126.5898
1227.178, 18.19141
1228.258, 75.80273
1229.337, 86.34961
1230.417, 18.97852
1231.496, 122.6191
1232.574, 165.2852
1233.653, 56.58789
1234.732, 118.2715
1235.810, 60.96484
1236.888, 86.66602
1237.966, 105.3750
1239.044, 43.08984
1240.122, 75.81641
1241.199, 161.0078
1242.277, 107.7559
1243.354, 140.6934
1244.431, 65.91602
1245.508, 107.6855
1246.585, 15.46094
1247.661, 51.75781
1248.738, 213.0059
1249.814, 19.77344
1250.890, 205.5449
1251.966, 286.3262
1253.042, 87.16992
1254.117, 47.22852
1255.193, 204.0273
1256.268, 272.8320
1257.343, 266.6387
1258.418, 283.4961
1259.493, 266.3672
1260.567, 139.1895
1261.642, 251.1172
1262.716, 287.9492
1263.790, 46.75000
1264.864, 103.5898
1265.938, 104.4746
1267.011, 121.3496
1268.085, 102.2012
1269.158, 64.05273
1270.231, 323.9102
1271.304, 64.86523
1272.377, 70.91797
1273.450, 330.7832
1274.522, 354.6504
1275.594, 444.5176
1276.666, 207.4219
1277.738, 397.2949
1278.810, 167.1602
1279.882, 191.0332
1280.953, 61.19727
1282.025, 176.4336
1283.096, 186.3086
1284.167, 245.8828
1285.238, 196.7578
1286.308, 391.6328
1287.379, 184.5078
