##NAMES=Albite
##RRUFFID=R050253
##IDEAL CHEMISTRY=NaAlSi_3_O_8_
##LOCALITY=Madawaska/Faraday mine, Bancroft, Ontario, Canada
##OWNER=RRUFF
##SOURCE=Marcus Origlieri
##DESCRIPTION=Colorless to brown prismatic single crystals
##STATUS=The identification of this mineral has been confirmed by X-ray diffraction and chemical analysis
##URL=rruff.info/R050253
##MEASURED CHEMISTRY=(Na_0.99_Ca_0.01_)Al_1.00_(Si_0.99_Al_0.01_)_3_O_8_
##PIN_ID=L01416
##ORIENTATION=Laser parallel to b* (0 1 0). Fiducial mark perpendicular to laser is parallel to c [0 0 1]
77.42300, 0.0000000E+00
78.65900, 8.907715
79.89500, 346.5942
81.13100, 604.6460
82.36700, 803.6387
83.60200, 1443.350
84.83700, 2001.001
86.07200, 2307.470
87.30800, 2762.320
88.54200, 3196.494
89.77700, 3278.423
91.01200, 2955.875
92.24600, 2381.314
93.48000, 1590.278
94.71400, 861.4795
95.94800, 485.6787
97.18200, 122.6855
98.41600, 22.65381
99.64900, 75.47827
100.8830, 7.917236
102.1160, 88.08960
103.3490, 36.10205
104.5820, 64.94897
105.8150, 298.9778
107.0470, 606.9072
108.2800, 956.6682
109.5120, 1323.199
110.7440, 1521.444
111.9760, 886.3516
113.2080, 666.8799
114.4400, 709.0371
115.6710, 914.8296
116.9030, 989.2344
118.1340, 779.2261
119.3650, 707.7744
120.5960, 401.8311
121.8270, 349.3467
123.0580, 362.2847
124.2880, 410.6128
125.5190, 331.3027
126.7490, 319.3301
127.9790, 434.6724
129.2090, 744.3091
130.4390, 1074.223
131.6680, 1614.399
132.8980, 1977.821
134.1270, 2171.477
135.3560, 2647.353
136.5850, 2852.438
137.8140, 3090.721
139.0430, 3270.191
140.2710, 3588.840
141.5000, 3750.660
142.7280, 4119.641
143.9560, 4569.776
145.1840, 5272.057
146.4120, 5910.479
147.6390, 6892.035
148.8670, 8088.837
150.0940, 9059.389
151.3210, 10733.60
152.5490, 12194.12
153.7750, 13875.89
155.0020, 14589.94
156.2290, 15263.22
157.4550, 15710.70
158.6810, 16315.41
159.9080, 17752.25
161.1340, 19326.08
162.3590, 20833.84
163.5850, 21848.53
164.8110, 21929.16
166.0360, 20616.79
167.2610, 18368.41
168.4860, 16276.03
169.7110, 13974.66
170.9360, 13124.29
172.1610, 12381.94
173.3850, 12007.59
174.6100, 12150.26
175.8340, 12370.94
177.0580, 12604.64
178.2820, 13084.36
179.5050, 13680.09
180.7290, 14413.84
181.9520, 15134.62
183.1760, 16066.41
184.3990, 16545.22
185.6220, 17019.08
186.8450, 17372.93
188.0670, 17234.82
189.2900, 16256.71
190.5120, 15033.63
191.7340, 13608.57
192.9560, 11849.52
194.1780, 10443.49
195.4000, 9339.479
196.6220, 8710.479
197.8430, 8200.499
199.0640, 8401.531
200.2860, 8604.579
201.5070, 8887.642
202.7270, 9339.717
203.9480, 9570.806
205.1690, 9897.907
206.3890, 10237.02
207.6090, 10872.15
208.8290, 11622.28
210.0490, 12363.43
211.2690, 12015.59
212.4890, 11281.75
213.7080, 9982.931
214.9280, 8038.117
216.1470, 6146.310
217.3660, 4627.553
218.5850, 3396.452
219.8030, 2437.411
221.0220, 1935.636
222.2400, 1439.663
223.4590, 1161.929
224.6770, 856.6045
225.8950, 692.7524
227.1120, 562.5312
228.3300, 394.9390
229.5480, 391.1353
230.7650, 291.2627
231.9820, 228.1709
233.1990, 118.1182
234.4160, 41.04541
235.6330, 103.5254
236.8490, 36.89502
238.0660, 29.14844
239.2820, 112.8276
240.4980, 38.04346
241.7140, 84.03076
242.9300, 157.7764
244.1460, 276.7847
245.3610, 309.6323
246.5770, 390.6548
247.7920, 458.3848
249.0070, 612.3804
250.2220, 697.5562
251.4370, 920.8574
252.6510, 1153.235
253.8660, 1356.685
255.0800, 1419.203
256.2940, 1219.787
257.5080, 1117.431
258.7220, 1088.134
259.9360, 1427.892
261.1490, 1640.702
262.3630, 1475.562
263.5760, 1482.467
264.7890, 1627.417
266.0020, 1981.406
267.2150, 2252.436
268.4270, 2662.500
269.6400, 3038.600
270.8520, 3339.732
272.0640, 3362.896
273.2760, 3729.090
274.4880, 3795.311
275.7000, 3932.560
276.9120, 4222.833
278.1230, 4917.132
279.3340, 6056.452
280.5450, 7280.795
281.7560, 9227.160
282.9670, 10736.54
284.1780, 12741.95
285.3880, 14564.37
286.5980, 16462.09
287.8090, 18434.55
289.0190, 20852.16
290.2290, 22882.64
291.4380, 24650.21
292.6480, 24542.71
293.8570, 23055.24
295.0670, 20482.77
296.2760, 16750.32
297.4850, 12913.86
298.6930, 9787.415
299.9020, 7502.966
301.1110, 5785.520
302.3190, 4605.073
303.5270, 3751.624
304.7350, 3274.173
305.9430, 2837.720
307.1510, 2492.263
308.3580, 2324.804
309.5660, 2303.341
310.7730, 2168.877
311.9800, 1959.411
313.1870, 1879.941
314.3940, 1663.470
315.6010, 1558.996
316.8070, 1421.519
318.0130, 1370.040
319.2200, 1430.557
320.4260, 1402.071
321.6310, 1449.583
322.8370, 1619.091
324.0430, 1551.597
325.2480, 1743.098
326.4540, 1845.595
327.6590, 2312.089
328.8640, 2354.579
330.0680, 2606.064
331.2730, 2439.547
332.4780, 2241.022
333.6820, 1861.495
334.8860, 1475.962
336.0900, 1083.425
337.2940, 754.8818
338.4980, 651.3335
339.7010, 536.7803
340.9050, 297.2222
342.1080, 341.6577
343.3110, 306.0874
344.5140, 258.5117
345.7170, 278.9302
346.9200, 276.8501
348.1220, 282.7476
349.3240, 325.1475
350.5270, 340.5400
351.7290, 360.9268
352.9310, 180.3066
354.1320, 152.6797
355.3340, 55.04541
356.5350, 65.40381
357.7370, 25.75488
358.9380, 29.72461
360.1390, 64.59131
361.3400, 103.3120
362.5400, 136.0791
363.7410, 130.9048
364.9410, 154.8296
366.1410, 125.9004
367.3410, 135.1196
368.5410, 98.48291
369.7410, 155.9058
370.9400, 173.4219
372.1400, 66.04443
373.3390, 121.7173
374.5380, 133.4722
375.7370, 111.3164
376.9360, 93.23828
378.1350, 90.22998
379.3330, 52.29102
380.5310, 114.3999
381.7300, 110.5903
382.9280, 82.86133
384.1260, 41.19775
385.3230, 19.40771
386.5210, 66.00439
387.7180, 57.58643
388.9160, 159.1631
390.1130, 221.7446
391.3100, 310.3369
392.5060, 324.9302
393.7030, 449.5347
394.9000, 559.1445
396.0960, 752.7637
397.2920, 925.3911
398.4880, 1189.030
399.6840, 1554.679
400.8800, 2000.330
402.0750, 2093.988
403.2710, 2236.646
404.4660, 2364.300
405.6610, 2701.948
406.8560, 2984.591
408.0510, 3504.241
409.2450, 3710.904
410.4400, 3727.581
411.6340, 3227.267
412.8280, 2659.982
414.0220, 2207.723
415.2160, 1831.464
416.4100, 1686.220
417.6030, 1780.985
418.7970, 1647.763
419.9900, 1365.541
421.1830, 1012.330
422.3760, 657.1221
423.5690, 397.9229
424.7610, 333.7168
425.9540, 185.5063
427.1460, 142.2896
428.3380, 90.06738
429.5300, 64.83740
430.7220, 155.5952
431.9140, 76.34912
433.1050, 133.1030
434.2970, 82.84814
435.4880, 127.5825
436.6790, 153.3105
437.8700, 196.0293
439.0610, 333.7388
440.2510, 392.4385
441.4420, 439.1289
442.6320, 573.8096
443.8220, 630.4810
445.0120, 806.1426
446.2020, 1082.795
447.3910, 1215.438
448.5810, 1623.071
449.7700, 1919.696
450.9600, 2222.311
452.1490, 2640.916
453.3370, 3046.512
454.5260, 3633.100
455.7150, 4075.675
456.9030, 4591.243
458.0910, 4850.800
459.2800, 5103.349
460.4670, 4697.887
461.6550, 4653.416
462.8430, 4657.934
464.0300, 4896.446
465.2180, 5384.947
466.4050, 6247.438
467.5920, 7681.921
468.7790, 9580.395
469.9650, 12276.86
471.1520, 15375.31
472.3380, 18644.76
473.5250, 21206.20
474.7110, 24128.62
475.8970, 27605.04
477.0820, 30954.46
478.2680, 34180.85
479.4540, 36319.25
480.6390, 36305.64
481.8240, 34110.01
483.0090, 29404.38
484.1940, 24247.74
485.3780, 18886.08
486.5630, 14839.43
487.7470, 11638.76
488.9320, 9881.082
490.1160, 8531.396
491.3000, 8035.701
492.4830, 8000.000
493.6670, 8270.288
494.8500, 9095.565
496.0340, 10796.84
497.2170, 13204.10
498.4000, 16652.31
499.5820, 20685.56
500.7650, 24816.14
501.9480, 29328.72
503.1300, 33147.09
504.3120, 37497.96
505.4940, 42362.72
506.6760, 46556.77
507.8580, 49794.25
509.0390, 50053.51
510.2210, 47187.15
511.4020, 41414.06
512.5830, 33686.32
513.7640, 26424.46
514.9450, 20439.32
516.1250, 15833.65
517.3060, 12398.23
518.4860, 9870.180
519.6660, 8139.249
520.8460, 6828.497
522.0260, 5865.115
523.2060, 5004.827
524.3850, 4428.773
525.5650, 3922.458
526.7440, 3490.756
527.9230, 3057.424
529.1020, 2727.465
530.2810, 2542.364
531.4590, 2228.547
532.6380, 2092.734
533.8160, 1918.924
534.9940, 1804.116
536.1720, 1587.756
537.3500, 1520.345
538.5270, 1438.283
539.7050, 1331.619
540.8820, 1307.948
542.0590, 1137.245
543.2360, 1148.965
544.4130, 1067.156
545.5900, 1108.396
546.7660, 905.6074
547.9430, 816.9780
549.1190, 837.9106
550.2950, 923.3325
551.4710, 809.1143
552.6470, 765.4375
553.8220, 707.4580
554.9980, 769.7100
556.1730, 710.5562
557.3480, 666.7207
558.5230, 662.4971
559.6980, 627.3994
560.8730, 619.9087
562.0470, 628.6206
563.2220, 627.9375
564.3960, 679.8281
565.5700, 674.3315
566.7440, 748.2856
567.9170, 749.7402
569.0910, 859.5654
570.2640, 968.9429
571.4380, 1149.915
572.6110, 1141.941
573.7840, 1331.530
574.9570, 1471.711
576.1290, 1492.823
577.3020, 1570.461
578.4740, 1653.650
579.6460, 1674.820
580.8180, 1632.994
581.9900, 1600.167
583.1620, 1366.338
584.3330, 1199.506
585.5040, 945.6870
586.6760, 728.8647
587.8470, 580.0405
589.0180, 435.1436
590.1880, 282.3911
591.3590, 281.6260
592.5290, 264.7969
593.7000, 286.9663
594.8700, 232.1318
596.0400, 279.2954
597.2090, 141.4561
598.3790, 114.6162
599.5490, 145.7886
600.7180, 160.9575
601.8870, 103.1362
603.0560, 111.3125
604.2250, 99.51758
605.3940, 112.7305
606.5620, 106.9746
607.7300, 71.21533
608.8990, 131.4629
610.0670, 101.7148
611.2350, 118.9663
612.4020, 135.5005
613.5700, 158.5103
614.7370, 157.8057
615.9050, 172.1084
617.0720, 189.4150
618.2390, 279.7217
619.4060, 190.0269
620.5720, 336.3296
621.7390, 329.6299
622.9050, 418.9263
624.0710, 427.2202
625.2370, 599.5112
626.4030, 544.7993
627.5690, 623.0835
628.7340, 779.3730
629.9000, 801.6719
631.0650, 866.9746
632.2300, 951.2744
633.3950, 932.5713
634.5600, 988.8638
635.7240, 958.1538
636.8890, 929.4497
638.0530, 987.7427
639.2170, 933.0327
640.3810, 914.3198
641.5450, 909.6074
642.7080, 982.9111
643.8720, 1059.238
645.0350, 1033.600
646.1980, 1003.005
647.3610, 1062.451
648.5240, 994.9453
649.6870, 898.4839
650.8490, 812.0654
652.0120, 739.6812
653.1740, 636.3452
654.3360, 560.3560
655.4980, 504.8057
656.6600, 389.5879
657.8210, 323.4141
658.9830, 230.2759
660.1440, 247.1709
661.3050, 135.0972
662.4660, 118.0449
663.6270, 162.0303
664.7870, 130.0527
665.9480, 62.10449
667.1080, 110.1738
668.2680, 157.2559
669.4280, 66.33398
670.5880, 106.4092
671.7480, 180.4790
672.9070, 101.5435
674.0670, 47.60205
675.2260, 4.344238
676.3850, 36.30273
677.5440, 41.29053
678.7030, 47.04150
679.8610, 46.36426
681.0200, 13.45312
682.1780, 35.56104
683.3360, 10.69922
684.4940, 42.14502
685.6520, 95.98291
686.8090, 19.81494
687.9670, 36.36230
689.1240, 59.57129
690.2810, 64.82568
691.4380, 41.12793
692.5950, 131.4658
693.7520, 102.8862
694.9080, 16.37598
696.0650, 68.88916
697.2210, 46.45410
698.3770, 64.05811
699.5330, 9.710938
700.6880, 60.38525
701.8440, 22.10693
702.9990, 46.85693
704.1550, 16.35303
705.3100, 0.4013670
706.4650, 20.73389
707.6190, 2.906250
708.7740, 29.06299
709.9290, 52.21045
711.0830, 0.3515630
712.2370, 26.52490
713.3910, 90.59473
714.5450, 134.6797
715.6980, 9.758301
716.8520, 67.82373
718.0050, 231.8809
719.1580, 126.1577
720.3110, 173.6523
721.4640, 227.6855
722.6170, 188.8525
723.7700, 99.31396
724.9220, 106.3223
726.0740, 92.32178
727.2260, 121.5972
728.3780, 125.6724
729.5300, 67.74512
730.6810, 177.7295
731.8330, 97.71045
732.9840, 244.6572
734.1350, 185.6006
735.2860, 161.6353
736.4370, 84.68311
737.5880, 250.2935
738.7380, 176.1958
739.8880, 301.9082
741.0390, 336.7915
742.1890, 318.1943
743.3380, 336.2886
744.4880, 362.0576
745.6380, 426.9126
746.7870, 601.6519
747.9360, 619.1699
749.0850, 626.3491
750.2340, 887.6240
751.3830, 925.6221
752.5310, 1205.530
753.6800, 1436.777
754.8280, 1786.721
755.9760, 2237.382
757.1240, 2699.162
758.2720, 3264.987
759.4190, 3881.817
760.5670, 4434.564
761.7140, 5158.246
762.8610, 5622.916
764.0080, 6059.717
765.1550, 6238.385
766.3020, 5958.746
767.4480, 5449.152
768.5950, 4708.345
769.7410, 4146.942
770.8870, 3606.524
772.0330, 3281.094
773.1780, 2882.651
774.3240, 2821.444
775.4690, 2728.976
776.6140, 2593.507
777.7590, 2285.013
778.9040, 2151.506
780.0490, 1783.229
781.1940, 1510.696
782.3380, 1289.149
783.4820, 1049.590
784.6260, 895.0161
785.7700, 814.4282
786.9140, 787.5034
788.0580, 617.8872
789.2010, 599.2856
790.3450, 567.6587
791.4880, 523.9980
792.6310, 572.3403
793.7730, 470.6494
794.9160, 510.9429
796.0590, 529.2207
797.2010, 631.4824
798.3430, 725.7285
799.4850, 721.9580
800.6270, 847.1714
801.7690, 862.3687
802.9100, 1055.548
804.0520, 1128.712
805.1930, 1420.858
806.3340, 1702.987
807.4750, 2109.100
808.6160, 2662.196
809.7560, 3266.274
810.8970, 3950.335
812.0370, 4361.379
813.1770, 5015.962
814.3170, 5632.582
815.4570, 5920.837
816.5960, 6117.681
817.7360, 5714.518
818.8750, 5086.371
820.0140, 4118.789
821.1530, 3357.720
822.2920, 2488.589
823.4310, 2072.474
824.5690, 1597.183
825.7070, 1325.317
826.8460, 1167.949
827.9840, 878.2075
829.1220, 756.9102
830.2590, 632.9019
831.3970, 593.6479
832.5340, 488.7871
833.6710, 486.5938
834.8080, 514.7739
835.9450, 439.8164
837.0820, 430.2383
838.2190, 354.4478
839.3550, 320.0298
840.4910, 294.0298
841.6270, 264.4033
842.7630, 279.3130
843.8990, 191.7080
845.0350, 88.72070
846.1700, 141.1592
847.3060, 226.7153
848.4410, 97.48633
849.5760, 65.54395
850.7100, 165.1348
851.8450, 109.7148
852.9800, 201.8228
854.1140, 96.36816
855.2480, 3.081055
856.3820, 10.44727
857.5160, 96.96094
858.6500, 34.46484
859.7830, 39.04199
860.9170, 75.41064
862.0500, 73.85400
863.1830, 14.28711
864.3160, 2.291992
865.4480, 42.10840
866.5810, 60.43750
867.7130, 58.70996
868.8460, 72.30029
869.9780, 62.55127
871.1100, 37.90430
872.2410, 32.24707
873.3730, 45.42188
874.5050, 74.86963
875.6360, 31.84814
876.7670, 66.39990
877.8980, 107.3604
879.0290, 23.19482
880.1590, 114.0581
881.2900, 55.00244
882.4200, 18.94531
883.5500, 15.91992
884.6800, 5.082031
885.8100, 44.93018
886.9400, 56.98096
888.0690, 56.07666
889.1990, 30.21680
890.3280, 12.38770
891.4570, 1.579102
892.5860, 7.251953
893.7140, 22.99707
894.8430, 17.77197
895.9710, 33.78613
897.1000, 52.29736
898.2280, 52.04883
899.3560, 8.793457
900.4830, 37.52979
901.6110, 22.74072
902.7380, 40.03516
903.8660, 21.36084
904.9930, 59.29150
906.1200, 135.9375
907.2460, 92.57666
908.3730, 106.2100
909.5000, 34.16309
910.6260, 84.43750
911.7520, 29.03174
912.8780, 158.6196
914.0040, 69.20166
915.1290, 2.221680
916.2550, 117.3462
917.3800, 97.90820
918.5050, 105.4653
919.6300, 121.0171
920.7550, 29.56348
921.8800, 13.89502
923.0040, 29.63428
924.1290, 13.15869
925.2530, 14.69043
926.3770, 76.21729
927.5010, 12.73926
928.6250, 26.25684
929.7480, 62.77441
930.8720, 125.2876
931.9950, 142.7969
933.1180, 54.30176
934.2410, 65.80371
935.3640, 19.30127
936.4860, 44.85645
937.6090, 81.29834
938.7310, 122.7925
939.8530, 168.2827
940.9750, 206.7705
942.0970, 238.6411
943.2180, 209.7402
944.3400, 286.2261
945.4610, 309.7100
946.5820, 311.1987
947.7030, 367.6855
948.8240, 383.8394
949.9450, 426.2979
951.0650, 462.1777
952.1860, 499.7163
953.3060, 574.2686
954.4260, 581.8252
955.5460, 651.4189
956.6650, 634.0234
957.7850, 761.6270
958.9040, 718.2515
960.0230, 602.8789
961.1420, 685.5181
962.2610, 579.1753
963.3800, 600.8613
964.4990, 645.5615
965.6170, 638.2983
966.7350, 686.0674
967.8530, 602.8428
968.9710, 809.6401
970.0890, 832.4712
971.2070, 1057.323
972.3240, 1145.186
973.4410, 1196.068
974.5580, 1268.972
975.6750, 1508.892
976.7920, 1533.814
977.9090, 1527.748
979.0250, 1750.684
980.1410, 1736.623
981.2580, 1688.563
982.3740, 1482.517
983.4890, 1510.477
984.6050, 1242.423
985.7200, 1042.398
986.8360, 932.3740
987.9510, 779.3545
989.0660, 740.3369
990.1810, 709.0923
991.2950, 702.6235
992.4100, 695.6099
993.5240, 751.4556
994.6390, 818.9995
995.7530, 835.9907
996.8660, 861.9839
997.9800, 894.7026
999.0940, 938.6152
1000.207, 1093.523
1001.320, 1203.514
1002.433, 1389.502
1003.546, 1519.523
1004.659, 1717.558
1005.772, 1787.495
1006.884, 1906.415
1007.996, 1902.766
1009.108, 1961.819
1010.220, 2024.057
1011.332, 2147.118
1012.444, 2122.347
1013.555, 2119.934
1014.666, 2041.649
1015.777, 2019.714
1016.888, 1847.891
1017.999, 1799.283
1019.110, 1613.393
1020.220, 1489.632
1021.331, 1263.527
1022.441, 1158.507
1023.551, 1079.142
1024.661, 903.9268
1025.770, 906.4219
1026.880, 994.3721
1027.989, 954.4082
1029.098, 1051.436
1030.207, 1018.542
1031.316, 1161.706
1032.425, 1221.878
1033.533, 1273.918
1034.642, 1156.089
1035.750, 1122.560
1036.858, 1075.979
1037.966, 997.6064
1039.073, 933.8276
1040.181, 847.0562
1041.288, 764.2930
1042.396, 763.5376
1043.503, 701.5420
1044.610, 791.8018
1045.716, 722.0576
1046.823, 609.3340
1047.929, 683.6187
1049.036, 648.6680
1050.142, 606.9688
1051.248, 630.2773
1052.353, 603.5952
1053.459, 546.9209
1054.564, 530.2827
1055.670, 491.9653
1056.775, 467.2002
1057.880, 449.2095
1058.985, 451.5757
1060.089, 464.9512
1061.194, 506.3164
1062.298, 468.5732
1063.402, 516.9736
1064.506, 461.3818
1065.610, 508.7988
1066.713, 576.2236
1067.817, 697.6572
1068.920, 559.4233
1070.023, 649.8735
1071.126, 631.3315
1072.229, 799.7983
1073.332, 858.2734
1074.435, 849.7568
1075.537, 1012.064
1076.639, 995.1309
1077.741, 984.6387
1078.843, 1281.922
1079.945, 1516.447
1081.046, 1570.000
1082.148, 1749.542
1083.249, 1834.092
1084.350, 2180.676
1085.451, 2469.507
1086.551, 2689.081
1087.652, 3112.739
1088.752, 3473.838
1089.853, 4126.434
1090.953, 4863.138
1092.053, 5781.348
1093.152, 6747.966
1094.252, 7828.591
1095.351, 9059.256
1096.451, 10147.89
1097.550, 11202.54
1098.649, 11828.27
1099.748, 12357.93
1100.846, 12226.60
1101.945, 12000.23
1103.043, 11272.90
1104.141, 10291.33
1105.239, 9432.016
1106.337, 8640.062
1107.434, 8084.782
1108.532, 7448.481
1109.629, 7066.543
1110.726, 6997.255
1111.823, 6656.970
1112.920, 6526.690
1114.017, 6347.928
1115.113, 6380.717
1116.210, 6261.699
1117.306, 5933.576
1118.402, 5624.460
1119.498, 5315.294
1120.593, 5006.201
1121.689, 4228.010
1122.784, 3913.786
1123.879, 3383.567
1124.974, 3152.354
1126.069, 2691.146
1127.164, 2303.958
1128.259, 2073.878
1129.353, 1851.322
1130.447, 1383.160
1131.541, 1335.009
1132.635, 1068.007
1133.729, 921.8652
1134.822, 893.8169
1135.916, 772.6016
1137.009, 693.4731
1138.102, 674.7373
1139.195, 597.5337
1140.288, 564.6143
1141.380, 538.5303
1142.473, 525.4673
1143.565, 540.4087
1144.657, 462.3999
1145.749, 474.4048
1146.841, 491.5894
1147.932, 437.6357
1149.024, 638.7441
1150.115, 572.8135
1151.206, 642.0430
1152.297, 617.1362
1153.388, 540.2563
1154.479, 494.4326
1155.569, 484.7158
1156.659, 498.8862
1157.750, 522.0654
1158.839, 339.2490
1159.929, 335.8164
1161.019, 191.0063
1162.108, 296.2905
1163.198, 177.5596
1164.287, 301.9409
1165.376, 84.14014
1166.465, 204.3418
1167.553, 193.6216
1168.642, 158.8506
1169.730, 96.08838
1170.818, 121.3281
1171.906, 126.5693
1172.994, 201.0142
1174.082, 164.2583
1175.170, 77.51416
1176.257, 37.77246
1177.344, 80.03076
1178.431, 66.42578
1179.518, 134.6875
1180.605, 95.95117
1181.691, 106.2168
1182.778, 30.48242
1183.864, 45.74951
1184.950, 0.9833980
1186.036, 67.28467
1187.122, 62.55664
1188.207, 53.16992
1189.292, 8.0077998E-02
1190.378, 24.32959
1191.463, 145.5806
1192.548, 22.16895
1193.632, 41.07275
1194.717, 64.34863
1195.801, 53.58984
1196.886, 95.83203
1197.970, 96.07373
1199.054, 28.68604
1200.137, 35.54297
1201.221, 30.77051
1202.305, 111.9980
1203.388, 17.22412
1204.471, 37.50195
1205.554, 17.27441
1206.637, 12.05957
1207.719, 76.14795
1208.802, 32.51514
1209.884, 64.67285
1210.966, 8.859375
1212.048, 34.04590
1213.130, 20.23047
1214.212, 66.58594
1215.293, 3.437012
1216.374, 116.7075
1217.456, 98.15088
1218.536, 25.06250
1219.617, 142.0093
1220.698, 81.56201
1221.778, 8.538574
1222.859, 26.50586
1223.939, 90.53809
1225.019, 31.43262
1226.099, 35.57666
1227.178, 96.59277
1228.258, 6.598145
1229.337, 55.65820
1230.417, 65.71338
1231.496, 60.29053
1232.574, 50.70312
1233.653, 8.341309
1234.732, 46.61133
1235.810, 33.44678
1236.888, 28.47217
1237.966, 86.38721
1239.044, 16.70117
1240.122, 101.1938
1241.199, 47.08496
1242.277, 54.08008
1243.354, 33.46924
1244.431, 28.38916
1245.508, 4.200195
1246.585, 11.28613
1247.661, 11.12891
1248.738, 24.96875
1249.814, 9.547852
1250.890, 34.71729
1251.966, 81.67041
1253.042, 71.49072
1254.117, 105.3076
1255.193, 116.3486
1256.268, 126.1670
1257.343, 29.52344
1258.418, 14.66260
