##NAMES=Albite
##RRUFFID=R050402
##IDEAL CHEMISTRY=NaAlSi_3_O_8_
##LOCALITY=Urbano mine, Golconda District, Brazil
##OWNER=RRUFF
##SOURCE=Bob Downs
##DESCRIPTION=Colorless tabular single crystals associated with fluorapatite R050401
##STATUS=The identification of this mineral has been confirmed by X-ray diffraction and chemical analysis
##URL=rruff.info/R050402
##MEASURED CHEMISTRY=Na_1.00_Al_1.00_Si_3.00_O_8_
##PIN_ID=M00139
##ORIENTATION=Laser parallel to c* (0 0 1). Fiducial mark perpendicular to laser is parallel to a [1 0 0]
81.13100, 0.0000000E+00
82.36700, 47.71289
83.60200, 581.6287
84.83700, 1195.747
86.07200, 2357.778
87.30800, 3939.658
88.54200, 5715.204
89.77700, 6063.330
91.01200, 5116.182
92.24600, 3466.650
93.48000, 1995.675
94.71400, 1079.929
95.94800, 610.7271
97.18200, 346.5596
98.41600, 86.70850
99.64900, 61.34814
100.8830, 66.59961
102.1160, 81.54248
103.3490, 229.2192
104.5820, 440.3477
105.8150, 799.1543
107.0470, 1223.210
108.2800, 1708.074
109.5120, 2555.993
110.7440, 3040.053
111.9760, 3849.161
113.2080, 5011.238
114.4400, 6044.208
115.6710, 6769.008
116.9030, 5961.583
118.1340, 4376.927
119.3650, 2944.034
120.5960, 1767.877
121.8270, 1074.433
123.0580, 675.6543
124.2880, 458.4863
125.5190, 68.87891
126.7490, 85.21191
127.9790, 91.82568
129.2090, 123.9966
130.4390, 87.75977
131.6680, 198.1523
132.8980, 102.2017
134.1270, 71.92822
135.3560, 23.34717
136.5850, 231.5293
137.8140, 452.6870
139.0430, 668.1104
140.2710, 992.7847
141.5000, 1429.697
142.7280, 1969.835
143.9560, 2858.186
145.1840, 4267.741
146.4120, 5540.488
147.6390, 6759.419
148.8670, 7079.523
150.0940, 6820.794
151.3210, 6424.245
152.5490, 6002.970
153.7750, 5261.416
155.0020, 4427.577
156.2290, 3579.990
157.4550, 2892.684
158.6810, 2569.731
159.9080, 2558.163
161.1340, 2756.986
162.3590, 2998.951
163.5850, 3471.957
164.8110, 3901.960
166.0360, 4146.964
167.2610, 4393.969
168.4860, 4821.967
169.7110, 5601.958
170.9360, 6636.950
172.1610, 7352.948
173.3850, 7423.952
174.6100, 7094.967
175.8340, 6680.998
177.0580, 6463.042
178.2820, 6854.040
179.5050, 7336.955
180.7290, 7994.752
181.9520, 8764.515
183.1760, 9721.303
184.3990, 10702.12
185.6220, 11341.97
186.8450, 11781.90
188.0670, 11540.87
189.2900, 11108.91
190.5120, 10113.04
191.7340, 8969.225
192.9560, 8033.441
194.1780, 6971.678
195.4000, 6155.937
196.6220, 5683.216
197.8430, 5308.514
199.0640, 5114.830
200.2860, 4948.530
201.5070, 4880.513
202.7270, 4981.878
203.9480, 5189.260
205.1690, 5470.656
206.3890, 6189.064
207.6090, 7053.486
208.8290, 8144.919
210.0490, 8844.366
211.2690, 8755.821
212.4890, 7936.288
213.7080, 6202.761
214.9280, 4557.247
216.1470, 3170.738
217.3660, 2124.237
218.5850, 1446.743
219.8030, 1009.744
221.0220, 668.7715
222.2400, 443.5674
223.4590, 292.9395
224.6770, 258.0835
225.8950, 141.4854
227.1120, 91.97705
228.3300, 125.2515
229.5480, 70.49365
230.7650, 23.60254
231.9820, 18.90771
233.1990, 162.9268
234.4160, 193.7896
235.6330, 282.5654
236.8490, 239.1812
238.0660, 452.1060
239.2820, 661.7764
240.4980, 841.8462
241.7140, 1173.602
242.9300, 1439.277
244.1460, 1940.051
245.3610, 2529.661
246.5770, 3412.357
247.7920, 4601.139
249.0070, 6273.999
250.2220, 8496.936
251.4370, 11249.77
252.6510, 13403.48
253.8660, 14103.00
255.0800, 12740.53
256.2940, 10045.15
257.5080, 7135.849
258.7220, 5234.626
259.9360, 4073.479
261.1490, 3297.397
262.3630, 2824.382
263.5760, 2893.427
264.7890, 3073.531
266.0020, 3623.687
267.2150, 4483.894
268.4270, 5648.147
269.6400, 6585.445
270.8520, 7389.783
272.0640, 7604.161
273.2760, 7256.518
274.4880, 6574.702
275.7000, 5902.746
276.9120, 5415.219
278.1230, 5178.303
279.3340, 5314.357
280.5450, 5798.603
281.7560, 6487.465
282.9670, 7811.101
284.1780, 9616.758
285.3880, 11890.43
286.5980, 15401.13
287.8090, 19807.89
289.0190, 25450.01
290.2290, 31025.80
291.4380, 35507.18
292.6480, 36604.19
293.8570, 33688.10
295.0670, 28203.22
296.2760, 22066.85
297.4850, 16409.40
298.6930, 12189.51
299.9020, 8994.821
301.1110, 6878.651
302.3190, 5249.334
303.5270, 4203.161
304.7350, 3409.986
305.9430, 2719.803
307.1510, 2428.614
308.3580, 2131.418
309.5660, 1838.214
310.7730, 1678.002
311.9800, 1495.782
313.1870, 1456.553
314.3940, 1243.315
315.6010, 1017.070
316.8070, 982.8164
318.0130, 1009.727
319.2200, 1200.283
320.4260, 1369.003
321.6310, 1730.714
322.8370, 2161.416
324.0430, 2779.108
325.2480, 3858.792
326.4540, 5545.468
327.6590, 7776.135
328.8640, 10131.79
330.0680, 11553.44
331.2730, 11413.08
332.4780, 9395.715
333.6820, 7144.337
334.8860, 4782.947
336.0900, 3564.548
337.2940, 2546.138
338.4980, 1771.716
339.7010, 1318.283
340.9050, 1081.837
342.1080, 920.3799
343.3110, 709.9102
344.5140, 582.4287
345.7170, 552.9346
346.9200, 478.4282
348.1220, 589.9082
349.3240, 578.3760
350.5270, 595.8306
351.7290, 385.2715
352.9310, 357.6997
354.1320, 290.1138
355.3340, 279.5142
356.5350, 65.90088
357.7370, 117.2705
358.9380, 67.62598
360.1390, 22.96338
361.3400, 82.27637
362.5400, 24.57275
363.7410, 24.15527
364.9410, 78.92480
366.1410, 92.66064
367.3410, 138.6426
368.5410, 101.6382
369.7410, 112.7715
370.9400, 100.0645
372.1400, 169.5049
373.3390, 112.0547
374.5380, 30.69043
375.7370, 102.3750
376.9360, 137.1484
378.1350, 96.03223
379.3330, 153.0073
380.5310, 130.1055
381.7300, 115.3149
382.9280, 187.6294
384.1260, 64.08887
385.3230, 9.628906
386.5210, 59.77930
387.7180, 30.16357
388.9160, 153.5146
390.1130, 176.8540
391.3100, 288.1816
392.5060, 521.4971
393.7030, 641.8008
394.9000, 857.0908
396.0960, 1318.371
397.2920, 1700.641
398.4880, 2004.909
399.6840, 2196.083
400.8800, 2493.413
402.0750, 2360.649
403.2710, 2060.875
404.4660, 1982.099
405.6610, 2064.312
406.8560, 2526.520
408.0510, 3157.720
409.2450, 3702.911
410.4400, 3659.093
411.6340, 3069.263
412.8280, 2542.429
414.0220, 2393.590
415.2160, 2606.758
416.4100, 3110.915
417.6030, 3635.075
418.7970, 3361.249
419.9900, 2765.452
421.1830, 1845.682
422.3760, 1112.963
423.5690, 762.2720
424.7610, 495.6143
425.9540, 411.9585
427.1460, 323.3003
428.3380, 283.6260
429.5300, 193.9346
430.7220, 150.2256
431.9140, 117.4990
433.1050, 17.75098
434.2970, 104.9600
435.4880, 131.1445
436.6790, 143.3076
437.8700, 126.4507
439.0610, 44.42773
440.2510, 102.6123
441.4420, 40.62695
442.6320, 117.6006
443.8220, 224.5498
445.0120, 98.48145
446.2020, 207.3848
447.3910, 217.2690
448.5810, 269.1343
449.7700, 324.7969
450.9600, 238.8091
452.1490, 420.6182
453.3370, 465.4209
454.5260, 530.2056
455.7150, 747.9702
456.9030, 776.7168
458.0910, 904.4453
459.2800, 972.1553
460.4670, 982.8457
461.6550, 931.5181
462.8430, 1155.171
464.0300, 1229.807
465.2180, 1456.422
466.4050, 1789.019
467.5920, 1958.598
468.7790, 2408.157
469.9650, 2839.699
471.1520, 3608.221
472.3380, 4723.725
473.5250, 6050.210
474.7110, 7753.677
475.8970, 10422.13
477.0820, 13290.56
478.2680, 16944.97
479.4540, 19734.36
480.6390, 20237.73
481.8240, 18692.09
483.0090, 15394.43
484.1940, 12164.75
485.3780, 9651.047
486.5630, 7664.327
487.7470, 6170.591
488.9320, 5284.836
490.1160, 4661.062
491.3000, 4618.272
492.4830, 4454.462
493.6670, 4651.634
494.8500, 4984.789
496.0340, 5597.925
497.2170, 6807.043
498.4000, 8219.143
499.5820, 10096.76
500.7650, 12550.82
501.9480, 16332.38
503.1300, 21025.47
504.3120, 27832.21
505.4940, 36083.24
506.6760, 44678.47
507.8580, 51658.18
509.0390, 53295.97
510.2210, 49092.79
511.4020, 40639.87
512.5830, 31510.20
513.7640, 23719.26
514.9450, 17570.93
516.1250, 13373.14
517.3060, 10421.42
518.4860, 8362.160
519.6660, 6863.677
520.8460, 6077.741
522.0260, 4739.194
523.2060, 4123.058
524.3850, 3393.825
525.5650, 3077.033
526.7440, 2614.979
527.9230, 2407.329
529.1020, 2108.845
530.2810, 1981.351
531.4590, 1755.102
532.6380, 1647.849
533.8160, 1455.590
534.9940, 1333.327
536.1720, 1243.072
537.3500, 1085.375
538.5270, 1089.097
539.7050, 1008.123
540.8820, 957.8340
542.0590, 851.5396
543.2360, 856.7842
544.4130, 704.6890
545.5900, 638.8530
546.7660, 607.9424
547.9430, 638.0103
549.1190, 633.0962
550.2950, 565.0122
551.4710, 476.3984
552.6470, 476.4004
553.8220, 561.5063
554.9980, 514.3193
556.1730, 552.8535
557.3480, 420.3955
558.5230, 449.9619
559.6980, 436.8120
560.8730, 345.3252
562.0470, 463.5220
563.2220, 441.0879
564.3960, 378.2554
565.5700, 399.9673
566.7440, 468.8159
567.9170, 598.5767
569.0910, 441.4106
570.2640, 605.0723
571.4380, 578.6147
572.6110, 619.1831
573.7840, 659.6299
574.9570, 731.0107
576.1290, 1004.900
577.3020, 1263.161
578.4740, 1336.523
579.6460, 1455.709
580.8180, 1478.370
581.9900, 1464.124
583.1620, 1247.316
584.3330, 1040.302
585.5040, 757.7642
586.6760, 683.3623
587.8470, 570.8096
589.0180, 412.2505
590.1880, 353.6846
591.3590, 301.1118
592.5290, 253.5327
593.7000, 234.8599
594.8700, 214.9673
596.0400, 210.5352
597.2090, 209.9370
598.3790, 205.5234
599.5490, 213.9048
600.7180, 210.2798
601.8870, 176.6611
603.0560, 166.0376
604.2250, 177.4102
605.3940, 252.7764
606.5620, 191.1519
607.7300, 172.5215
608.8990, 215.8916
610.0670, 170.2559
611.2350, 285.6260
612.4020, 259.9907
613.5700, 255.3501
614.7370, 350.7036
615.9050, 307.0503
617.0720, 250.3921
618.2390, 306.7290
619.4060, 327.0596
620.5720, 415.3853
621.7390, 503.7051
622.9050, 722.0195
624.0710, 725.3286
625.2370, 907.6323
626.4030, 1045.932
627.5690, 1105.226
628.7340, 1348.515
629.9000, 1445.798
631.0650, 1723.077
632.2300, 2080.351
633.3950, 2087.620
634.5600, 2295.884
635.7240, 2212.145
636.8890, 1906.399
638.0530, 1786.650
639.2170, 1614.896
640.3810, 1615.142
641.5450, 1669.391
642.7080, 1787.639
643.8720, 1806.894
645.0350, 2124.154
646.1980, 2222.420
647.3610, 2375.711
648.5240, 2433.035
649.6870, 2325.397
650.8490, 1985.822
652.0120, 1500.295
653.1740, 1260.812
654.3360, 1024.371
655.4980, 901.9893
656.6600, 653.6509
657.8210, 538.3350
658.9830, 293.0659
660.1440, 463.8491
661.3050, 374.6724
662.4660, 270.5547
663.6270, 241.4858
664.7870, 180.2725
665.9480, 191.5034
667.1080, 120.5757
668.2680, 108.4946
669.4280, 93.75781
670.5880, 58.85791
671.7480, 54.95459
672.9070, 62.04736
674.0670, 155.1362
675.2260, 29.22168
676.3850, 6.697266
677.5440, 48.37305
678.7030, 35.56006
679.8610, 53.48047
681.0200, 72.51709
682.1780, 4.450684
683.3360, 11.57178
684.4940, 36.41162
685.6520, 0.5771480
686.8090, 18.44238
687.9670, 18.47998
689.1240, 15.53613
690.2810, 6.609863
691.4380, 4.304688
692.5950, 33.78906
693.7520, 28.91064
694.9080, 72.05566
696.0650, 8.249023
697.2210, 8.455566
698.3770, 44.67676
699.5330, 86.93213
700.6880, 97.68457
701.8440, 119.4043
702.9990, 97.06055
704.1550, 137.5679
705.3100, 44.15723
706.4650, 42.78027
707.6190, 11.56396
708.7740, 25.70752
709.9290, 52.23291
711.0830, 28.56152
712.2370, 8.886230
713.3910, 5.794434
714.5450, 121.5269
715.6980, 71.84717
716.8520, 130.8667
718.0050, 129.1855
719.1580, 167.1782
720.3110, 74.51904
721.4640, 84.86084
722.6170, 138.2090
723.7700, 114.5562
724.9220, 165.9004
726.0740, 110.2446
727.2260, 174.5864
728.3780, 141.9238
729.5300, 79.25781
730.6810, 73.58838
731.8330, 32.08496
732.9840, 110.2129
734.1350, 130.5078
735.2860, 38.93750
736.4370, 19.22510
737.5880, 44.50635
738.7380, 87.78564
739.8880, 106.6982
741.0390, 170.3833
742.1890, 169.0928
743.3380, 188.3574
744.4880, 197.1978
745.6380, 291.4556
746.7870, 188.0952
747.9360, 285.3457
749.0850, 245.3862
750.2340, 420.6289
751.3830, 422.8682
752.5310, 507.1040
753.6800, 678.3354
754.8280, 803.5635
755.9760, 923.7881
757.1240, 1281.009
758.2720, 1633.226
759.4190, 1994.439
760.5670, 2549.650
761.7140, 3320.856
762.8610, 3939.059
764.0080, 4535.258
765.1550, 4620.454
766.3020, 4207.646
767.4480, 3521.835
768.5950, 2763.021
769.7410, 2123.204
770.8870, 1693.383
772.0330, 1255.559
773.1780, 1108.731
774.3240, 841.9014
775.4690, 710.0669
776.6140, 653.2300
777.7590, 553.3896
778.9040, 460.5088
780.0490, 383.6626
781.1940, 382.8120
782.3380, 384.8296
783.4820, 290.9727
784.6260, 254.2148
785.7700, 287.3511
786.9140, 263.6470
788.0580, 219.6943
789.2010, 229.8320
790.3450, 302.9512
791.4880, 244.5698
792.6310, 298.6797
793.7730, 134.8037
794.9160, 240.9033
796.0590, 232.3149
797.2010, 362.6265
798.3430, 189.7090
799.4850, 213.6885
800.6270, 343.7583
801.7690, 364.8218
802.9100, 381.8789
804.0520, 381.9287
805.1930, 496.9717
806.3340, 642.0073
807.4750, 670.0356
808.6160, 821.0576
809.7560, 1117.073
810.8970, 1339.081
812.0370, 1676.081
813.1770, 2103.061
814.3170, 2505.471
815.4570, 2928.451
816.5960, 3133.114
817.7360, 2989.081
818.8750, 2581.042
820.0140, 2033.452
821.1530, 1700.190
822.2920, 1326.658
823.4310, 950.1899
824.5690, 789.7314
825.7070, 610.2441
826.8460, 534.9160
827.9840, 426.1064
829.1220, 394.6714
830.2590, 313.1211
831.3970, 510.8525
832.5340, 306.8516
833.6710, 423.8340
834.8080, 351.7812
835.9450, 156.4331
837.0820, 306.4126
838.2190, 263.6982
839.3550, 233.6045
840.4910, 261.8984
841.6270, 227.0903
842.7630, 145.2305
843.8990, 193.9009
845.0350, 203.4873
846.1700, 135.2368
847.3060, 145.0957
848.4410, 173.8696
849.5760, 158.4170
850.7100, 41.36475
851.8450, 40.22021
852.9800, 26.92529
854.1140, 15.08691
855.2480, 9.259766
856.3820, 45.55957
857.5160, 108.3779
858.6500, 76.19629
859.7830, 133.0132
860.9170, 74.82910
862.0500, 157.6455
863.1830, 55.46143
864.3160, 157.2764
865.4480, 108.0898
866.5810, 25.90381
867.7130, 99.71729
868.8460, 51.74951
869.9780, 144.5620
871.1100, 1.374512
872.2410, 159.1777
873.3730, 173.7896
874.5050, 158.5996
875.6360, 49.58984
876.7670, 0.1958010
877.8980, 6.021973
879.0290, 169.7563
880.1590, 61.46533
881.2900, 58.28174
882.4200, 24.97070
883.5500, 133.7637
884.6800, 49.50098
885.8100, 40.20996
886.9400, 122.9214
888.0690, 161.6338
889.1990, 7.346680
890.3280, 33.06006
891.4570, 42.77441
892.5860, 22.48975
893.7140, 29.25391
894.8430, 33.92334
895.9710, 11.64209
897.1000, 16.36133
898.2280, 14.08203
899.3560, 14.80420
900.4830, 55.52686
901.6110, 30.25195
902.7380, 36.97803
903.8660, 46.70508
904.9930, 9.433594
906.1200, 50.16406
907.2460, 39.89600
908.3730, 91.62939
909.5000, 101.1650
910.6260, 67.10107
911.7520, 97.84033
912.8780, 51.58105
914.0040, 39.67627
915.1290, 100.0503
916.2550, 74.77930
917.3800, 38.48975
918.5050, 4.226563
919.6300, 24.05566
920.7550, 32.65430
921.8800, 2.633301
923.0040, 57.92139
924.1290, 42.22754
925.2530, 38.45068
926.3770, 11.86865
927.5010, 43.80957
928.6250, 1.490723
929.7480, 33.17285
930.8720, 30.14111
931.9950, 5.452637
933.1180, 76.23633
934.2410, 22.07227
935.3640, 31.61475
936.4860, 95.30420
937.6090, 67.00830
938.7310, 105.3037
939.8530, 184.5020
940.9750, 124.2534
942.0970, 110.0088
943.2180, 139.7676
944.3400, 75.53027
945.4610, 83.29736
946.5820, 73.06787
947.7030, 77.80518
948.8240, 99.21582
949.9450, 126.4312
951.0650, 164.2354
952.1860, 201.0547
953.3060, 266.8784
954.4260, 157.7251
955.5460, 300.5801
956.6650, 258.4438
957.7850, 237.3242
958.9040, 340.2129
960.0230, 361.1167
961.1420, 332.0420
962.2610, 371.9785
963.3800, 379.9243
964.4990, 392.8779
965.6170, 478.8472
966.7350, 449.8320
967.8530, 629.8442
968.9710, 710.8755
970.0890, 955.9175
971.2070, 1120.980
972.3240, 1322.073
973.4410, 1601.202
974.5580, 2058.369
975.6750, 2230.571
976.7920, 2773.818
977.9090, 3029.086
979.0250, 3371.374
980.1410, 3436.684
981.2580, 3020.003
982.3740, 2653.327
983.4890, 2179.657
984.6050, 1818.995
985.7200, 1490.344
986.8360, 1120.699
987.9510, 1063.359
989.0660, 760.7222
990.1810, 677.4160
991.2950, 616.7954
992.4100, 580.1812
993.5240, 629.5732
994.6390, 497.9717
995.7530, 498.3770
996.8660, 424.7871
997.9800, 380.2061
999.0940, 444.6299
1000.207, 635.0615
1001.320, 703.4980
1002.433, 740.9434
1003.546, 932.4062
1004.659, 807.8770
1005.772, 1109.216
1006.884, 1035.700
1007.996, 1197.192
1009.108, 1194.690
1010.220, 1231.323
1011.332, 1387.659
1012.444, 1389.738
1013.555, 1614.266
1014.666, 1588.221
1015.777, 1652.764
1016.888, 1678.928
1017.999, 1335.486
1019.110, 1249.259
1020.220, 1199.832
1021.331, 1077.413
1022.441, 985.0039
1023.551, 994.6016
1024.661, 1075.207
1025.770, 1079.821
1026.880, 902.4434
1027.989, 1235.072
1029.098, 1295.712
1030.207, 1632.358
1031.316, 1749.014
1032.425, 1868.676
1033.533, 1971.348
1034.642, 1963.026
1035.750, 1860.715
1036.858, 1637.410
1037.966, 1330.115
1039.073, 1086.829
1040.181, 1073.551
1041.288, 740.2803
1042.396, 593.0186
1043.503, 692.7646
1044.610, 476.5195
1045.716, 516.2842
1046.823, 501.0566
1047.929, 386.8730
1049.036, 428.6631
1050.142, 346.4609
1051.248, 321.3965
1052.353, 197.2119
1053.459, 367.9336
1054.564, 222.7666
1055.670, 225.4443
1056.775, 146.3867
1057.880, 220.2324
1058.985, 71.10156
1060.089, 254.4756
1061.194, 113.3633
1062.298, 160.2402
1063.402, 17.14551
1064.506, 229.5117
1065.610, 252.2129
1066.713, 195.1455
1067.817, 175.1846
1068.920, 171.1357
1070.023, 119.6436
1071.126, 143.3418
1072.229, 122.3193
1073.332, 122.3066
1074.435, 269.3027
1075.537, 194.3066
1076.639, 295.3203
1077.741, 198.3428
1078.843, 369.3740
1079.945, 362.4141
1081.046, 291.6924
1082.148, 415.5303
1083.249, 504.5957
1084.350, 574.6680
1085.451, 578.7510
1086.551, 617.1201
1087.652, 609.2178
1088.752, 728.1416
1089.853, 926.2559
1090.953, 906.4639
1092.053, 1074.322
1093.152, 1302.608
1094.252, 1412.754
1095.351, 1871.908
1096.451, 2151.068
1097.550, 2385.237
1098.649, 2756.411
1099.748, 2890.594
1100.846, 2776.922
1101.945, 3026.119
1103.043, 2757.322
1104.141, 2463.533
1105.239, 2210.750
1106.337, 2052.973
1107.434, 1881.204
1108.532, 1697.440
1109.629, 1613.684
1110.726, 1548.945
1111.823, 1499.831
1112.920, 1470.278
1114.017, 1388.559
1115.113, 1378.844
1116.210, 1492.135
1117.306, 1276.432
1118.402, 1273.733
1119.498, 1123.047
1120.593, 1183.376
1121.689, 1212.715
1122.784, 904.0635
1123.879, 918.4170
1124.974, 981.7764
1126.069, 747.1406
1127.164, 693.5107
1128.259, 543.8848
1129.353, 415.2646
1130.447, 342.6504
1131.541, 269.0410
1132.635, 329.4365
1133.729, 214.8535
1134.822, 364.2744
1135.916, 129.7012
1137.009, 260.1338
1138.102, 129.5713
1139.195, 122.0137
1140.288, 243.4629
1141.380, 213.9170
1142.473, 246.3896
1143.565, 114.8672
1144.657, 151.3682
1145.749, 48.89844
1146.841, 102.4492
1147.932, 136.0049
1149.024, 230.5713
1150.115, 195.1436
1151.206, 203.7344
1152.297, 200.4639
1153.388, 216.9277
1154.479, 129.5303
1155.569, 181.1396
1156.659, 112.7529
1157.750, 82.37012
1158.839, 141.9912
1159.929, 40.61816
1161.019, 166.2500
1162.108, 181.8857
1163.198, 113.5264
1164.287, 88.18652
1165.376, 84.85156
1166.465, 51.52051
1167.553, 18.19434
1168.642, 58.87207
1169.730, 14.55273
1170.818, 123.2383
1171.906, 90.92969
1172.994, 112.6240
1174.082, 13.32324
1175.170, 19.02539
1176.257, 58.73242
1177.344, 108.4404
1178.431, 118.1533
1179.518, 139.8779
1180.605, 9.606445
1181.691, 6.337891
1182.778, 45.08203
1183.864, 30.83008
1184.950, 62.58496
1186.036, 108.3428
1187.122, 21.89453
1188.207, 54.87500
1189.292, 50.65527
1190.378, 105.4395
1191.463, 101.2295
1192.548, 7.021484
1193.632, 17.81641
1194.717, 50.38574
1195.801, 45.39648
1196.886, 71.18262
1197.970, 22.97070
1199.054, 53.76562
1200.137, 45.43652
1201.221, 143.6592
1202.305, 83.04590
1203.388, 134.7529
1204.471, 26.46289
1205.554, 84.17383
1206.637, 57.07422
1207.719, 17.79102
1208.802, 81.59473
1209.884, 46.31445
1210.966, 37.96289
1212.048, 13.26074
1213.130, 66.43848
1214.212, 20.13770
1215.293, 40.83984
1216.374, 69.45703
1217.456, 11.20996
1218.536, 13.00293
1219.617, 36.73633
1220.698, 1.401367
1221.778, 10.93555
1222.859, 34.27734
1223.939, 16.36816
1225.019, 17.00977
1226.099, 181.6523
1227.178, 117.2969
1228.258, 9.942383
1229.337, 133.5879
1230.417, 32.76465
1231.496, 34.86426
1232.574, 129.4951
1233.653, 126.1270
1234.732, 30.75879
1235.810, 189.3906
1236.888, 52.02344
1237.966, 109.6562
1239.044, 33.32520
1240.122, 43.14746
1241.199, 53.21680
1242.277, 2.660156
1243.354, 122.9893
1244.431, 81.59277
1245.508, 114.1973
1246.585, 99.80078
1247.661, 81.35840
1248.738, 169.6172
1249.814, 84.22070
1250.890, 94.04785
1251.966, 175.6504
1253.042, 127.2539
1254.117, 193.8564
1255.193, 49.45898
1256.268, 145.0615
1257.343, 70.66309
1258.418, 95.26465
1259.493, 50.86523
1260.567, 27.46484
1261.642, 201.0645
1262.716, 152.3730
1263.790, 254.9707
