##NAMES=Albite
##RRUFFID=R050253
##IDEAL CHEMISTRY=NaAlSi_3_O_8_
##LOCALITY=Madawaska/Faraday mine, Bancroft, Ontario, Canada
##OWNER=RRUFF
##SOURCE=Marcus Origlieri
##DESCRIPTION=Colorless to brown prismatic single crystals
##STATUS=The identification of this mineral has been confirmed by X-ray diffraction and chemical analysis
##URL=rruff.info/R050253
##MEASURED CHEMISTRY=(Na_0.99_Ca_0.01_)Al_1.00_(Si_0.99_Al_0.01_)_3_O_8_
##PIN_ID=L01266
##ORIENTATION=Laser parallel to (-1 -1 0). Fiducial mark perpendicular to laser is parallel to c [0 0 1]
109.5120, 0.0000000E+00
110.7440, 339.4438
111.9760, 160.4346
113.2080, 3.863770
114.4400, 246.5532
115.6710, 357.0757
116.9030, 416.9053
118.1340, 380.3784
119.3650, 212.3267
120.5960, 7.9590000E-02
121.8270, 38.58984
123.0580, 46.06641
124.2880, 84.11328
125.5190, 0.4643550
126.7490, 65.66064
127.9790, 8.519043
129.2090, 249.8892
130.4390, 443.2734
131.6680, 655.5273
132.8980, 801.5381
134.1270, 1110.213
135.3560, 1425.477
136.5850, 2022.264
137.8140, 2451.519
139.0430, 3079.194
140.2710, 3996.249
141.5000, 4592.743
142.7280, 5482.676
143.9560, 6338.550
145.1840, 6889.185
146.4120, 7576.977
147.6390, 8371.895
148.8670, 9497.910
150.0940, 10879.02
151.3210, 13346.20
152.5490, 15631.44
153.7750, 18235.75
155.0020, 20629.14
156.2290, 22233.62
157.4550, 23906.16
158.6810, 25842.78
159.9080, 27814.46
161.1340, 29904.19
162.3590, 31455.97
163.5850, 32276.81
164.8110, 31927.70
166.0360, 29818.62
167.2610, 26926.59
168.4860, 23645.59
169.7110, 20943.63
170.9360, 19109.70
172.1610, 18221.81
173.3850, 18372.78
174.6100, 18497.66
175.8340, 18823.15
177.0580, 19407.84
178.2820, 20182.80
179.5050, 20677.26
180.7290, 21424.95
181.9520, 21614.31
183.1760, 22205.43
184.3990, 22391.53
185.6220, 22517.54
186.8450, 22168.50
188.0670, 21107.42
189.2900, 20094.26
190.5120, 18148.06
191.7340, 16026.81
192.9560, 14117.51
194.1780, 12769.20
195.4000, 11375.92
196.6220, 10919.76
197.8430, 10599.79
199.0640, 10893.92
200.2860, 11775.11
201.5070, 12165.29
202.7270, 12868.46
203.9480, 13215.63
205.1690, 13278.79
206.3890, 13643.94
207.6090, 14284.08
208.8290, 14755.22
210.0490, 15013.35
211.2690, 14587.48
212.4890, 13689.59
213.7080, 11718.71
214.9280, 9634.819
216.1470, 7369.922
217.3660, 5658.013
218.5850, 4217.091
219.8030, 3226.157
221.0220, 2416.209
222.2400, 1934.250
223.4590, 1440.278
224.6770, 1197.293
225.8950, 971.2969
227.1120, 744.2891
228.3300, 642.2686
229.5480, 431.2368
230.7650, 335.1929
231.9820, 179.1372
233.1990, 15.07275
234.4160, 126.1895
235.6330, 42.34863
236.8490, 10.87012
238.0660, 99.90723
239.2820, 95.60986
240.4980, 92.49463
241.7140, 46.03271
242.9300, 59.40918
244.1460, 9.342773
245.3610, 33.74561
246.5770, 37.66748
247.7920, 1.341797
249.0070, 53.76123
250.2220, 56.89551
251.4370, 115.4590
252.6510, 85.93359
253.8660, 217.3789
255.0800, 114.8145
256.2940, 180.5693
257.5080, 292.8560
258.7220, 415.6416
259.9360, 498.7046
261.1490, 587.5537
262.3630, 657.8447
263.5760, 794.8145
264.7890, 775.5991
266.0020, 995.4810
267.2150, 1121.051
268.4270, 1408.535
269.6400, 1601.271
270.8520, 1994.314
272.0640, 2325.096
273.2760, 2802.297
274.4880, 3460.399
275.7000, 4395.914
276.9120, 5518.478
278.1230, 7218.204
279.3340, 9554.233
280.5450, 12146.81
281.7560, 15598.71
282.9670, 18969.21
284.1780, 22043.99
285.3880, 24248.29
286.5980, 26670.22
287.8090, 28915.16
289.0190, 31531.80
290.2290, 33605.96
291.4380, 34525.20
292.6480, 33952.21
293.8570, 31535.09
295.0670, 27349.98
296.2760, 22468.87
297.4850, 17796.76
298.6930, 13471.66
299.9020, 10372.55
301.1110, 8195.448
302.3190, 6541.345
303.5270, 5540.243
304.7350, 4694.139
305.9430, 4179.035
307.1510, 3677.928
308.3580, 3307.821
309.5660, 3283.712
310.7730, 3157.601
311.9800, 2863.486
313.1870, 2724.370
314.3940, 2500.250
315.6010, 2357.127
316.8070, 2131.000
318.0130, 2028.870
319.2200, 2014.714
320.4260, 2168.466
321.6310, 2049.150
322.8370, 2115.797
324.0430, 2086.390
325.2480, 2137.929
326.4540, 2222.456
327.6590, 2305.973
328.8640, 2360.481
330.0680, 2280.981
331.2730, 2178.472
332.4780, 2025.955
333.6820, 1565.429
334.8860, 1287.896
336.0900, 1045.355
337.2940, 795.8076
338.4980, 669.2524
339.7010, 588.6899
340.9050, 587.1201
342.1080, 498.5415
343.3110, 462.9546
344.5140, 490.3574
345.7170, 495.7515
346.9200, 443.1343
348.1220, 402.5083
349.3240, 401.8716
350.5270, 458.2256
351.7290, 381.5693
352.9310, 349.9033
354.1320, 264.2271
355.3340, 148.5405
356.5350, 120.8438
357.7370, 138.1367
358.9380, 68.41895
360.1390, 26.31006
361.3400, 35.93262
362.5400, 19.16357
363.7410, 6.621582
364.9410, 62.57178
366.1410, 21.24707
367.3410, 6.908203
368.5410, 68.95557
369.7410, 29.85791
370.9400, 75.78906
372.1400, 30.76074
373.3390, 53.76074
374.5380, 1.795898
375.7370, 84.85156
376.9360, 43.95020
378.1350, 159.0908
379.3330, 22.28516
380.5310, 122.8350
381.7300, 82.46484
382.9280, 94.05518
384.1260, 14.44092
385.3230, 58.21631
386.5210, 32.60254
387.7180, 18.84668
388.9160, 51.18652
390.1130, 125.5923
391.3100, 182.2778
392.5060, 250.7676
393.7030, 272.9399
394.9000, 417.7026
396.0960, 669.6899
397.2920, 713.5747
398.4880, 1094.563
399.6840, 1489.551
400.8800, 1850.536
402.0750, 2012.512
403.2710, 2167.485
404.4660, 2469.472
405.6610, 2584.466
406.8560, 2868.469
408.0510, 3208.498
409.2450, 3082.567
410.4400, 2958.635
411.6340, 2457.722
412.8280, 1812.807
414.0220, 1170.900
415.2160, 702.9961
416.4100, 526.0903
417.6030, 312.2163
418.7970, 209.3403
419.9900, 135.4619
421.1830, 90.59766
422.3760, 27.73291
423.5690, 32.12451
424.7610, 68.49854
425.9540, 29.93750
427.1460, 97.87109
428.3380, 121.8638
429.5300, 35.92285
430.7220, 4.020996
431.9140, 31.12598
433.1050, 46.73242
434.2970, 28.58643
435.4880, 86.42822
436.6790, 156.2622
437.8700, 168.0908
439.0610, 241.9106
440.2510, 309.7217
441.4420, 393.5234
442.6320, 451.3159
443.8220, 544.0991
445.0120, 699.8730
446.2020, 893.6372
447.3910, 986.3916
448.5810, 1257.137
449.7700, 1454.873
450.9600, 1705.599
452.1490, 1983.732
453.3370, 2238.022
454.5260, 2543.720
455.7150, 2804.409
456.9030, 3067.087
458.0910, 3414.755
459.2800, 3587.414
460.4670, 3754.064
461.6550, 4203.705
462.8430, 4596.336
464.0300, 5288.959
465.2180, 6261.572
466.4050, 7816.180
467.5920, 9939.777
468.7790, 12839.37
469.9650, 16770.95
471.1520, 20829.53
472.3380, 25163.09
473.5250, 28938.65
474.7110, 31917.21
475.8970, 35281.77
477.0820, 38670.29
478.2680, 41364.83
479.4540, 42736.36
480.6390, 42268.88
481.8240, 39049.39
483.0090, 33836.90
484.1940, 27755.39
485.3780, 21765.88
486.5630, 17188.37
487.7470, 14074.85
488.9320, 11654.32
490.1160, 10213.79
491.3000, 9936.249
492.4830, 10054.70
493.6670, 10719.15
494.8500, 12421.59
496.0340, 14723.02
497.2170, 18331.45
498.4000, 23362.87
499.5820, 29079.16
500.7650, 34921.51
501.9480, 40232.57
503.1300, 44527.36
504.3120, 48877.25
505.4940, 53315.71
506.6760, 56796.69
507.8580, 58482.69
509.0390, 57776.71
510.2210, 53719.50
511.4020, 47293.51
512.5830, 39491.96
513.7640, 30838.50
514.9450, 23682.87
516.1250, 18592.78
517.3060, 14674.94
518.4860, 11857.88
519.6660, 9864.379
520.8460, 8234.646
522.0260, 7056.489
523.2060, 6064.074
524.3850, 5339.203
525.5650, 4639.767
526.7440, 4277.212
527.9230, 3755.347
529.1020, 3313.166
530.2810, 3123.954
531.4590, 2815.989
532.6380, 2569.019
533.8160, 2433.772
534.9940, 2199.194
536.1720, 2008.637
537.3500, 1956.081
538.5270, 1760.644
539.7050, 1684.297
540.8820, 1620.819
542.0590, 1445.050
543.2360, 1451.651
544.4130, 1412.103
545.5900, 1206.186
546.7660, 1267.316
547.9430, 1181.422
549.1190, 1062.585
550.2950, 1083.117
551.4710, 1086.766
552.6470, 941.0479
553.8220, 910.6304
554.9980, 911.5630
556.1730, 953.2251
557.3480, 901.8696
558.5230, 854.9600
559.6980, 822.6606
560.8730, 739.9570
562.0470, 906.3223
563.2220, 969.1689
564.3960, 920.2563
565.5700, 952.9600
566.7440, 980.1899
567.9170, 1090.517
569.0910, 1124.700
570.2640, 1385.446
571.4380, 1543.908
572.6110, 1650.562
573.7840, 1705.197
574.9570, 1790.823
576.1290, 1870.904
577.3020, 1969.509
578.4740, 1953.665
579.6460, 1816.178
580.8180, 1766.882
581.9900, 1608.113
583.1620, 1467.650
584.3330, 1247.078
585.5040, 1034.503
586.6760, 801.9258
587.8470, 689.3472
589.0180, 564.7661
590.1880, 473.1836
591.3590, 430.5986
592.5290, 415.0117
593.7000, 439.4229
594.8700, 393.8623
596.0400, 270.2568
597.2090, 319.6802
598.3790, 294.1011
599.5490, 207.5327
600.7180, 226.9619
601.8870, 274.3896
603.0560, 142.8564
604.2250, 240.3247
605.3940, 225.7905
606.5620, 134.2759
607.7300, 294.7812
608.8990, 201.2900
610.0670, 226.7974
611.2350, 295.3022
612.4020, 236.8389
613.5700, 296.3838
614.7370, 300.9614
615.9050, 407.5366
617.0720, 384.1099
618.2390, 413.6855
619.4060, 378.2661
620.5720, 481.8447
621.7390, 504.9883
622.9050, 571.0288
624.0710, 623.6318
625.2370, 707.2754
626.4030, 836.8320
627.5690, 898.4282
628.7340, 998.0225
629.9000, 1095.614
631.0650, 1157.204
632.2300, 1218.791
633.3950, 1266.375
634.5600, 1260.874
635.7240, 1263.536
636.8890, 1230.112
638.0530, 1278.687
639.2170, 1285.258
640.3810, 1394.827
641.5450, 1366.394
642.7080, 1409.959
643.8720, 1481.539
645.0350, 1443.119
646.1980, 1519.702
647.3610, 1391.294
648.5240, 1461.884
649.6870, 1345.487
650.8490, 1129.097
652.0120, 1072.731
653.1740, 907.3813
654.3360, 737.0591
655.4980, 587.7529
656.6600, 495.4673
657.8210, 469.1904
658.9830, 474.9438
660.1440, 376.7168
661.3050, 317.5386
662.4660, 270.3740
663.6270, 163.2485
664.7870, 186.1514
665.9480, 179.0864
667.1080, 202.0225
668.2680, 150.9785
669.4280, 190.9478
670.5880, 57.92578
671.7480, 195.9009
672.9070, 91.87207
674.0670, 72.83838
675.2260, 81.80029
676.3850, 77.75732
677.5440, 18.70996
678.7030, 16.34375
679.8610, 30.58496
681.0200, 40.49268
682.1780, 13.39795
683.3360, 53.28223
684.4940, 4.838379
685.6520, 36.97266
686.8090, 36.13818
687.9670, 100.3340
689.1240, 153.5947
690.2810, 7.052246
691.4380, 53.31006
692.5950, 23.28711
693.7520, 31.12207
694.9080, 10.56152
696.0650, 9.212891
697.2210, 80.48535
698.3770, 6.991211
699.5330, 3.541504
700.6880, 68.09033
701.8440, 13.68945
702.9990, 53.30908
704.1550, 18.03027
705.3100, 99.62451
706.4650, 62.32227
707.6190, 32.05420
708.7740, 48.78662
709.9290, 25.47754
711.0830, 40.25098
712.2370, 77.99023
713.3910, 10.76074
714.5450, 52.46826
715.6980, 10.69189
716.8520, 1.905273
718.0050, 35.10352
719.1580, 35.29443
720.3110, 49.11523
721.4640, 60.48779
722.6170, 73.45947
723.7700, 69.62109
724.9220, 106.7759
726.0740, 114.9238
727.2260, 174.0645
728.3780, 98.19873
729.5300, 163.3257
730.6810, 123.4453
731.8330, 167.0537
732.9840, 164.9468
734.1350, 229.0879
735.2860, 171.4521
736.4370, 107.5361
737.5880, 120.0796
738.7380, 140.1489
739.8880, 270.2554
741.0390, 279.8457
742.1890, 245.3423
743.3380, 211.3804
744.4880, 303.2280
745.6380, 379.0640
746.7870, 400.3770
747.9360, 484.3804
749.0850, 496.3750
750.2340, 662.0635
751.3830, 696.2847
752.5310, 798.2119
753.6800, 972.1685
754.8280, 1227.115
755.9760, 1537.774
757.1240, 1967.283
758.2720, 2106.199
759.4190, 2452.083
760.5670, 2614.148
761.7140, 2865.588
762.8610, 3134.463
764.0080, 3313.326
765.1550, 3332.180
766.3020, 3151.021
767.4480, 3151.853
768.5950, 2992.673
769.7410, 2815.482
770.8870, 2808.281
772.0330, 2767.070
773.1780, 2805.847
774.3240, 2833.614
775.4690, 2805.371
776.6140, 2658.116
777.7590, 2510.851
778.9040, 2265.575
780.0490, 1911.289
781.1940, 1569.992
782.3380, 1374.684
783.4820, 1012.364
784.6260, 916.0347
785.7700, 742.6938
786.9140, 662.3418
788.0580, 610.9795
789.2010, 567.6064
790.3450, 610.2212
791.4880, 439.8252
792.6310, 567.4180
793.7730, 456.9995
794.9160, 529.5693
796.0590, 530.3218
797.2010, 563.8682
798.3430, 638.4038
799.4850, 627.9277
800.6270, 653.4390
801.7690, 674.9395
802.9100, 807.4268
804.0520, 980.9023
805.1930, 1172.365
806.3340, 1551.816
807.4750, 1929.255
808.6160, 2283.680
809.7560, 2790.095
810.8970, 3414.496
812.0370, 3740.885
813.1770, 4008.262
814.3170, 4204.625
815.4570, 4327.861
816.5960, 4302.996
817.7360, 3993.250
818.8750, 3376.785
820.0140, 2943.938
821.1530, 2297.230
822.2920, 1848.881
823.4310, 1467.474
824.5690, 1127.079
825.7070, 1082.618
826.8460, 826.7769
827.9840, 750.8086
829.1220, 615.1953
830.2590, 569.2715
831.3970, 550.9868
832.5340, 550.9624
833.6710, 490.9448
834.8080, 454.4717
835.9450, 383.3765
837.0820, 402.6758
838.2190, 312.8960
839.3550, 365.5049
840.4910, 338.6016
841.6270, 192.5552
842.7630, 256.6968
843.8990, 237.1567
845.0350, 180.4951
846.1700, 158.7607
847.3060, 131.7065
848.4410, 72.46533
849.5760, 158.5400
850.7100, 69.10693
851.8450, 222.1372
852.9800, 78.87988
854.1140, 54.18066
855.2480, 69.11816
856.3820, 91.95020
857.5160, 24.94971
858.6500, 75.89014
859.7830, 177.8530
860.9170, 180.4453
862.0500, 129.7617
863.1830, 140.7085
864.3160, 126.6494
865.4480, 49.58545
866.5810, 77.51611
867.7130, 56.44141
868.8460, 9.361328
869.9780, 38.72607
871.1100, 7.152832
872.2410, 44.02197
873.3730, 29.11377
874.5050, 30.72363
875.6360, 12.55615
876.7670, 142.6172
877.8980, 2.123047
879.0290, 59.85303
880.1590, 68.42188
881.2900, 68.74316
882.4200, 13.11084
883.5500, 28.50439
884.6800, 19.11523
885.8100, 116.2778
886.9400, 29.74121
888.0690, 121.2290
889.1990, 23.21045
890.3280, 30.64600
891.4570, 6.921387
892.5860, 21.50049
893.7140, 44.90283
894.8430, 44.69775
895.9710, 16.32812
897.1000, 38.97363
898.2280, 96.35498
899.3560, 59.68018
900.4830, 99.00391
901.6110, 66.32471
902.7380, 42.64355
903.8660, 101.9600
904.9930, 102.2744
906.1200, 129.5879
907.2460, 63.89844
908.3730, 153.2075
909.5000, 78.51514
910.6260, 184.8218
911.7520, 64.12646
912.8780, 40.43066
914.0040, 104.7329
915.1290, 69.03516
916.2550, 167.3359
917.3800, 99.63672
918.5050, 115.9365
919.6300, 70.23535
920.7550, 115.5342
921.8800, 51.83252
923.0040, 24.13135
924.1290, 98.43506
925.2530, 81.73877
926.3770, 97.04443
927.5010, 80.35059
928.6250, 134.6572
929.7480, 155.9688
930.8720, 7.718750
931.9950, 59.59131
933.1180, 37.91895
934.2410, 99.25391
935.3640, 85.59033
936.4860, 8.945801
937.6090, 122.3018
938.7310, 167.6631
939.8530, 147.0264
940.9750, 110.3911
942.0970, 133.7578
943.2180, 176.1270
944.3400, 179.4995
945.4610, 134.8745
946.5820, 343.2524
947.7030, 364.6328
948.8240, 400.0156
949.9450, 384.4019
951.0650, 451.0889
952.1860, 546.2129
953.3060, 572.6382
954.4260, 644.0796
955.5460, 724.5312
956.6650, 592.9873
957.7850, 698.4551
958.9040, 684.9390
960.0230, 580.4404
961.1420, 596.9756
962.2610, 492.5581
963.3800, 479.1465
964.4990, 473.7568
965.6170, 474.3730
966.7350, 431.0049
967.8530, 459.6533
968.9710, 452.1089
970.0890, 542.9995
971.2070, 506.6982
972.3240, 540.4072
973.4410, 648.1436
974.5580, 662.8931
975.6750, 733.6665
976.7920, 750.4561
977.9090, 742.5347
979.0250, 785.1338
980.1410, 695.0054
981.2580, 667.8994
982.3740, 623.8008
983.4890, 604.7231
984.6050, 454.6528
985.7200, 544.6060
986.8360, 454.5654
987.9510, 494.5337
989.0660, 491.5127
990.1810, 356.4990
991.2950, 334.8550
992.4100, 353.8560
993.5240, 386.8711
994.6390, 477.8945
995.7530, 515.9282
996.8660, 517.9697
997.9800, 528.0181
999.0940, 564.0742
1000.207, 634.1748
1001.320, 769.2090
1002.433, 811.2886
1003.546, 882.1064
1004.659, 977.3184
1005.772, 992.9775
1006.884, 1116.089
1007.996, 1206.759
1009.108, 1209.904
1010.220, 1289.014
1011.332, 1434.642
1012.444, 1474.363
1013.555, 1445.546
1014.666, 1446.921
1015.777, 1432.308
1016.888, 1356.221
1017.999, 1273.444
1019.110, 1145.679
1020.220, 974.2212
1021.331, 874.2319
1022.441, 743.5396
1023.551, 753.8193
1024.661, 730.1113
1025.770, 847.6924
1026.880, 858.4258
1027.989, 955.7549
1029.098, 1113.118
1030.207, 1050.304
1031.316, 1058.115
1032.425, 1039.496
1033.533, 1136.889
1034.642, 1079.296
1035.750, 1015.717
1036.858, 918.1499
1037.966, 872.5967
1039.073, 695.0581
1040.181, 791.5332
1041.288, 566.0215
1042.396, 585.5234
1043.503, 516.0391
1044.610, 536.5674
1045.716, 448.1108
1046.823, 510.6670
1047.929, 528.2378
1049.036, 419.8218
1050.142, 418.4194
1051.248, 463.0312
1052.353, 461.6567
1053.459, 407.3008
1054.564, 418.9580
1055.670, 404.6328
1056.775, 395.4546
1057.880, 489.1685
1058.985, 365.1533
1060.089, 469.8950
1061.194, 502.6504
1062.298, 501.2769
1063.402, 532.0605
1064.506, 555.9932
1065.610, 560.1211
1066.713, 628.3335
1067.817, 657.2812
1068.920, 718.8682
1070.023, 762.2954
1071.126, 835.3154
1072.229, 860.2129
1073.332, 913.1235
1074.435, 985.0488
1075.537, 1065.301
1076.639, 1227.228
1077.741, 1332.195
1078.843, 1473.176
1079.945, 1752.171
1081.046, 1876.179
1082.148, 2110.201
1083.249, 2375.251
1084.350, 2714.177
1085.451, 3059.588
1086.551, 3553.681
1087.652, 3963.873
1088.752, 4493.131
1089.853, 5174.076
1090.953, 5976.225
1092.053, 6974.386
1093.152, 8294.561
1094.252, 9495.748
1095.351, 10920.95
1096.451, 12180.16
1097.550, 13244.38
1098.649, 13860.62
1099.748, 14384.94
1100.846, 14268.21
1101.945, 13749.81
1103.043, 12777.18
1104.141, 12154.49
1105.239, 11058.81
1106.337, 10253.14
1107.434, 9732.479
1108.532, 9137.061
1109.629, 8848.429
1110.726, 8692.807
1111.823, 8522.194
1112.920, 8398.593
1114.017, 8338.007
1115.113, 8189.429
1116.210, 8045.989
1117.306, 7723.562
1118.402, 7106.015
1119.498, 6689.481
1120.593, 5998.958
1121.689, 5420.452
1122.784, 4781.956
1123.879, 4252.499
1124.974, 3687.714
1126.069, 3236.277
1127.164, 2944.555
1128.259, 2330.139
1129.353, 1978.732
1130.447, 1902.335
1131.541, 1623.950
1132.635, 1442.574
1133.729, 1157.220
1134.822, 1090.875
1135.916, 867.5464
1137.009, 849.2466
1138.102, 721.9775
1139.195, 705.1616
1140.288, 693.9229
1141.380, 565.9199
1142.473, 503.6997
1143.565, 608.5303
1144.657, 557.3740
1145.749, 520.2275
1146.841, 484.1108
1147.932, 454.0679
1149.024, 455.0024
1150.115, 409.9463
1151.206, 500.8984
1152.297, 394.8984
1153.388, 428.9175
1154.479, 288.9800
1155.569, 361.0532
1156.659, 263.1479
1157.750, 277.2769
1158.839, 273.5269
1159.929, 320.6797
1161.019, 254.2495
1162.108, 109.0439
1163.198, 136.2524
1164.287, 118.4702
1165.376, 73.70068
1166.465, 147.9385
1167.553, 203.1865
1168.642, 138.4409
1169.730, 147.8511
1170.818, 108.1196
1171.906, 101.3955
1172.994, 82.56787
1174.082, 70.09375
1175.170, 51.26221
1176.257, 55.56396
1177.344, 61.87158
1178.431, 53.18652
1179.518, 88.50635
1180.605, 54.83252
1181.691, 65.16504
1182.778, 58.50244
1183.864, 88.75391
1184.950, 28.10254
1186.036, 21.05469
1187.122, 36.58594
1188.207, 123.3691
1189.292, 12.27197
1190.378, 47.08789
1191.463, 5.453613
1192.548, 28.17725
1193.632, 29.18896
1194.717, 73.55908
1195.801, 81.06494
1196.886, 38.71729
1197.970, 5.378418
1199.054, 81.03760
1200.137, 12.27490
1201.221, 22.40967
1202.305, 16.73242
1203.388, 89.08936
1204.471, 110.4087
1205.554, 100.1006
1206.637, 10.44678
1207.719, 43.87891
1208.802, 23.20752
1209.884, 127.5679
1210.966, 19.04102
1212.048, 58.37793
1213.130, 16.11133
1214.212, 96.53125
1215.293, 38.16797
1216.374, 5.468262
1217.456, 25.94141
1218.536, 3.647461
1219.617, 19.73486
1220.698, 46.64307
1221.778, 83.93213
1222.859, 111.2231
1223.939, 51.51709
1225.019, 74.05518
1226.099, 44.69727
1227.178, 36.51416
1228.258, 17.81006
1229.337, 21.85010
1230.417, 8.437988
1231.496, 26.27393
1232.574, 0.3232420
1233.653, 130.2769
1234.732, 51.55225
1235.810, 62.05273
1236.888, 84.32715
1237.966, 39.26660
1239.044, 58.43018
1240.122, 69.68652
1241.199, 49.97168
1242.277, 91.22656
1243.354, 47.48047
1244.431, 91.79199
1245.508, 1.133789
1246.585, 34.45068
1247.661, 31.93408
1248.738, 119.1924
1249.814, 73.45166
1250.890, 142.3745
1251.966, 54.59668
1253.042, 21.81689
1254.117, 23.87842
1255.193, 27.32227
1256.268, 7.452637
1257.343, 28.73584
1258.418, 50.92188
1259.493, 22.10742
1260.567, 75.66553
1261.642, 54.84912
1262.716, 100.8218
1263.790, 90.00732
1264.864, 108.1499
1265.938, 14.61182
1267.011, 41.20898
1268.085, 44.60938
1269.158, 98.53857
1270.231, 8.682129
1271.304, 64.81934
1272.377, 123.9526
1273.450, 95.63672
1274.522, 113.7598
1275.594, 72.87988
1276.666, 17.99414
1277.738, 131.4331
1278.810, 72.76367
1279.882, 111.8623
1280.953, 99.14600
1282.025, 131.3027
1283.096, 114.8643
1284.167, 74.24268
1285.238, 77.38184
1286.308, 60.75732
1287.379, 26.66406
