##NAMES=Albite
##RRUFFID=R050253
##IDEAL CHEMISTRY=NaAlSi_3_O_8_
##LOCALITY=Madawaska/Faraday mine, Bancroft, Ontario, Canada
##OWNER=RRUFF
##SOURCE=Marcus Origlieri
##DESCRIPTION=Colorless to brown prismatic single crystals
##STATUS=The identification of this mineral has been confirmed by X-ray diffraction and chemical analysis
##URL=rruff.info/R050253
##MEASURED CHEMISTRY=(Na_0.99_Ca_0.01_)Al_1.00_(Si_0.99_Al_0.01_)_3_O_8_
##PIN_ID=L01462
##ORIENTATION=Laser parallel to (1 0 1). Fiducial mark perpendicular to laser is parallel to b [0 1 0]
94.71400, 0.0000000E+00
95.94800, 119.9478
97.18200, 7.426758
98.41600, 5.534668
99.64900, 101.6157
100.8830, 223.7925
102.1160, 399.4746
103.3490, 709.6099
104.5820, 1167.040
105.8150, 1526.199
107.0470, 1919.893
108.2800, 2265.176
109.5120, 2873.288
110.7440, 3140.604
111.9760, 3056.620
113.2080, 2827.945
114.4400, 2383.274
115.6710, 1947.322
116.9030, 1463.823
118.1340, 943.5439
119.3650, 519.2734
120.5960, 76.82617
121.8270, 105.0410
123.0580, 28.77344
124.2880, 158.8975
125.5190, 124.2998
126.7490, 191.8799
127.9790, 354.5635
129.2090, 311.3496
130.4390, 765.2666
131.6680, 816.3184
132.8980, 1157.424
134.1270, 1695.462
135.3560, 2245.332
136.5850, 2887.956
137.8140, 3679.265
139.0430, 4807.203
140.2710, 5983.719
141.5000, 7231.771
142.7280, 8725.326
143.9560, 9927.342
145.1840, 10938.80
146.4120, 11947.66
147.6390, 12972.90
148.8670, 13534.51
150.0940, 13258.46
151.3210, 12131.73
152.5490, 10659.31
153.7750, 8649.182
155.0020, 6765.324
156.2290, 4934.727
157.4550, 3820.378
158.6810, 3130.264
159.9080, 2796.463
161.1340, 2798.352
162.3590, 3091.086
163.5850, 3498.738
164.8110, 3789.486
166.0360, 4294.913
167.2610, 4996.238
168.4860, 5692.116
169.7110, 6209.752
170.9360, 6739.164
172.1610, 7206.408
173.3850, 7631.521
174.6100, 8441.540
175.8340, 8608.481
177.0580, 9487.368
178.2820, 10132.21
179.5050, 10957.04
180.7290, 11682.84
181.9520, 12457.64
183.1760, 12995.44
184.3990, 13516.24
185.6220, 13393.06
186.8450, 12771.90
188.0670, 11972.76
189.2900, 10801.63
190.5120, 9580.541
191.7340, 8522.472
192.9560, 7428.435
194.1780, 6487.427
195.4000, 6094.449
196.6220, 5807.504
197.8430, 5857.591
199.0640, 5963.709
200.2860, 6594.861
201.5070, 7273.044
202.7270, 7827.260
203.9480, 8588.506
205.1690, 9354.781
206.3890, 10203.09
207.6090, 11003.42
208.8290, 10826.78
210.0490, 10345.16
211.2690, 9309.573
212.4890, 7928.005
213.7080, 6388.461
214.9280, 4975.939
216.1470, 3844.438
217.3660, 2897.228
218.5850, 2039.497
219.8030, 1577.055
221.0220, 1201.631
222.2400, 923.2236
223.4590, 646.8477
224.6770, 500.4365
225.8950, 397.1152
227.1120, 349.6934
228.3300, 276.1377
229.5480, 201.4014
230.7650, 160.8613
231.9820, 101.1445
233.1990, 222.6006
234.4160, 228.4385
235.6330, 198.3271
236.8490, 150.7422
238.0660, 202.7314
239.2820, 391.1475
240.4980, 469.6836
241.7140, 645.9033
242.9300, 840.4434
244.1460, 1000.659
245.3610, 1267.009
246.5770, 1298.033
247.7920, 1753.587
249.0070, 2104.602
250.2220, 2359.021
251.4370, 2498.804
252.6510, 2555.911
253.8660, 2490.313
255.0800, 2468.983
256.2940, 2352.900
257.5080, 2462.043
258.7220, 2586.395
259.9360, 2919.938
261.1490, 3432.659
262.3630, 3970.547
263.5760, 4617.590
264.7890, 5104.773
266.0020, 5860.093
267.2150, 6460.537
268.4270, 6644.100
269.6400, 6702.771
270.8520, 6434.549
272.0640, 6083.421
273.2760, 5260.386
274.4880, 4677.439
275.7000, 4436.574
276.9120, 3896.784
278.1230, 3923.066
279.3340, 4192.414
280.5450, 4794.826
281.7560, 5752.295
282.9670, 6695.817
284.1780, 7961.394
285.3880, 9186.016
286.5980, 10826.68
287.8090, 12382.40
289.0190, 13407.15
290.2290, 13983.94
291.4380, 13596.77
292.6480, 12518.63
293.8570, 11198.52
295.0670, 9441.447
296.2760, 7663.400
297.4850, 6016.381
298.6930, 4778.386
299.9020, 3700.417
301.1110, 2893.471
302.3190, 2224.546
303.5270, 1888.642
304.7350, 1629.756
305.9430, 1353.888
307.1510, 1232.034
308.3580, 981.1914
309.5660, 928.3535
310.7730, 752.5176
311.9800, 777.6797
313.1870, 558.8350
314.3940, 435.9814
315.6010, 521.1182
316.8070, 459.2480
318.0130, 581.3730
319.2200, 610.4902
320.4260, 847.6045
321.6310, 1116.712
322.8370, 1255.815
324.0430, 1327.913
325.2480, 1817.007
326.4540, 1995.095
327.6590, 2228.179
328.8640, 2184.257
330.0680, 2161.328
331.2730, 1767.397
332.4780, 1347.460
333.6820, 1178.517
334.8860, 946.5664
336.0900, 663.6113
337.2940, 607.6514
338.4980, 347.6836
339.7010, 368.7080
340.9050, 297.7275
342.1080, 74.73926
343.3110, 193.7412
344.5140, 161.7383
345.7170, 220.7266
346.9200, 72.70703
348.1220, 84.67773
349.3240, 191.6406
350.5270, 31.40430
351.7290, 93.52441
352.9310, 83.44141
354.1320, 23.65039
355.3340, 123.7676
356.5350, 65.93750
357.7370, 155.1455
358.9380, 83.41504
360.1390, 118.7295
361.3400, 52.09570
362.5400, 60.50000
363.7410, 129.9443
364.9410, 155.4463
366.1410, 182.0127
367.3410, 77.64941
368.5410, 177.3545
369.7410, 211.1299
370.9400, 236.0527
372.1400, 63.15137
373.3390, 19.37598
374.5380, 74.69238
375.7370, 74.16113
376.9360, 127.7744
378.1350, 140.5820
379.3330, 169.5645
380.5310, 179.5908
381.7300, 187.9365
382.9280, 152.3877
384.1260, 76.03125
385.3230, 11.18945
386.5210, 72.40723
387.7180, 261.6416
388.9160, 246.8975
390.1130, 286.1738
391.3100, 546.4844
392.5060, 543.8086
393.7030, 715.1426
394.9000, 844.4873
396.0960, 1240.839
397.2920, 1334.196
398.4880, 1555.558
399.6840, 1608.922
400.8800, 1777.299
402.0750, 1971.965
403.2710, 1843.113
404.4660, 2451.546
405.6610, 2537.975
406.8560, 2942.415
408.0510, 3431.852
409.2450, 3587.314
410.4400, 3937.607
411.6340, 3827.272
412.8280, 4409.755
414.0220, 4744.229
415.2160, 4982.701
416.4100, 4823.227
417.6030, 4225.779
418.7970, 3696.338
419.9900, 2903.912
421.1830, 2226.477
422.3760, 1629.074
423.5690, 1270.685
424.7610, 1033.310
425.9540, 690.9541
427.1460, 647.6182
428.3380, 668.2754
429.5300, 650.9209
430.7220, 570.5566
431.9140, 658.1777
433.1050, 697.7881
434.2970, 809.3857
435.4880, 906.9697
436.6790, 985.5430
437.8700, 1184.105
439.0610, 1345.663
440.2510, 1423.206
441.4420, 1592.736
442.6320, 2055.254
443.8220, 2451.758
445.0120, 3236.247
446.2020, 4143.721
447.3910, 4955.183
448.5810, 6397.630
449.7700, 7830.062
450.9600, 9292.481
452.1490, 10866.88
453.3370, 12167.28
454.5260, 13602.65
455.7150, 14097.01
456.9030, 13866.36
458.0910, 12601.69
459.2800, 11575.00
460.4670, 10042.31
461.6550, 8980.598
462.8430, 8303.874
464.0300, 7698.133
465.2180, 7855.380
466.4050, 8742.610
467.5920, 10202.59
468.7790, 12151.03
469.9650, 15182.22
471.1520, 18684.40
472.3380, 22746.56
473.5250, 26399.70
474.7110, 30890.84
475.8970, 35791.96
477.0820, 39068.07
478.2680, 40393.15
479.4540, 38512.23
480.6390, 35076.30
481.8240, 29790.34
483.0090, 24681.38
484.1940, 19594.41
485.3780, 15371.41
486.5630, 12361.41
487.7470, 10503.39
488.9320, 8827.357
490.1160, 8085.311
491.3000, 7968.253
492.4830, 8035.181
493.6670, 8426.551
494.8500, 9679.450
496.0340, 11481.34
497.2170, 13927.85
498.4000, 17633.42
499.5820, 21797.26
500.7650, 26567.77
501.9480, 31780.37
503.1300, 36783.81
504.3120, 42432.04
505.4940, 46816.69
506.6760, 48119.16
507.8580, 47224.04
509.0390, 43237.21
510.2210, 37373.46
511.4020, 31081.72
512.5830, 24908.75
513.7640, 19338.11
514.9450, 15131.87
516.1250, 12243.14
517.3060, 9749.092
518.4860, 7959.010
519.6660, 6631.729
520.8460, 5905.596
522.0260, 4989.580
523.2060, 4391.882
524.3850, 3873.607
525.5650, 3216.521
526.7440, 3139.028
527.9230, 2977.613
529.1020, 2690.575
530.2810, 2356.308
531.4590, 2212.046
532.6380, 2137.093
533.8160, 1874.839
534.9940, 1818.588
536.1720, 1458.568
537.3500, 1590.323
538.5270, 1298.111
539.7050, 1169.874
540.8820, 1120.793
542.0590, 1113.707
543.2360, 1160.929
544.4130, 1078.965
545.5900, 1101.836
546.7660, 974.6162
547.9430, 1055.750
549.1190, 829.6865
550.2950, 818.1797
551.4710, 855.5225
552.6470, 745.2305
553.8220, 785.1133
554.9980, 694.9766
556.1730, 726.6387
557.3480, 773.4092
558.5230, 454.3389
559.6980, 567.9922
560.8730, 558.2793
562.0470, 712.0713
563.2220, 682.0049
564.3960, 720.2930
565.5700, 789.7793
566.7440, 840.9385
567.9170, 927.1572
569.0910, 1045.698
570.2640, 1135.566
571.4380, 1309.341
572.6110, 1420.113
573.7840, 1702.881
574.9570, 1790.647
576.1290, 2059.410
577.3020, 1942.252
578.4740, 2013.593
579.6460, 1970.585
580.8180, 1768.336
581.9900, 1519.204
583.1620, 1360.951
584.3330, 1150.993
585.5040, 877.4346
586.6760, 788.1729
587.8470, 628.9082
589.0180, 473.6406
590.1880, 422.3750
591.3590, 218.1074
592.5290, 280.8359
593.7000, 245.5654
594.8700, 121.2920
596.0400, 145.0166
597.2090, 110.7383
598.3790, 263.4727
599.5490, 181.2334
600.7180, 297.9932
601.8870, 253.7510
603.0560, 219.5068
604.2250, 208.2598
605.3940, 115.0137
606.5620, 100.7686
607.7300, 151.5215
608.8990, 90.27148
610.0670, 117.0205
611.2350, 102.6162
612.4020, 161.5400
613.5700, 71.30566
614.7370, 127.0840
615.9050, 106.8584
617.0720, 147.6445
618.2390, 106.4365
619.4060, 85.25586
620.5720, 364.0723
621.7390, 184.8926
622.9050, 351.7129
624.0710, 279.5283
625.2370, 312.3428
626.4030, 268.1670
627.5690, 297.9883
628.7340, 412.8076
629.9000, 465.6406
631.0650, 639.4893
632.2300, 529.3350
633.3950, 630.1797
634.5600, 613.0391
635.7240, 509.9131
636.8890, 784.7842
638.0530, 806.6719
639.2170, 963.5996
640.3810, 865.5537
641.5450, 971.5566
642.7080, 1090.592
643.8720, 1150.670
645.0350, 1274.779
646.1980, 1194.933
647.3610, 1155.130
648.5240, 1251.378
649.6870, 1076.686
650.8490, 816.0254
652.0120, 693.4229
653.1740, 579.8887
654.3360, 438.4287
655.4980, 452.9971
656.6600, 297.5859
657.8210, 217.2109
658.9830, 169.8682
660.1440, 39.59570
661.3050, 113.3809
662.4660, 201.2285
663.6270, 224.1348
664.7870, 227.0469
665.9480, 239.1309
667.1080, 194.1904
668.2680, 42.26270
669.4280, 61.33594
670.5880, 206.4062
671.7480, 60.52637
672.9070, 73.49707
674.0670, 75.51660
675.2260, 16.53125
676.3850, 84.92871
677.5440, 40.54492
678.7030, 85.54395
679.8610, 26.53906
681.0200, 21.47168
682.1780, 89.50977
683.3360, 22.39062
684.4940, 82.71777
685.6520, 65.11523
686.8090, 22.05762
687.9670, 34.74121
689.1240, 90.46582
690.2810, 39.73828
691.4380, 45.05078
692.5950, 43.59570
693.7520, 46.23535
694.9080, 4.878906
696.0650, 203.5146
697.2210, 110.0244
698.3770, 25.61230
699.5330, 67.23242
700.6880, 95.09180
701.8440, 140.5898
702.9990, 50.36523
704.1550, 69.18848
705.3100, 90.06836
706.4650, 86.01660
707.6190, 12.96777
708.7740, 54.93848
709.9290, 133.9014
711.0830, 135.4180
712.2370, 144.8291
713.3910, 102.7529
714.5450, 106.6914
715.6980, 59.62305
716.8520, 23.54883
718.0050, 4.459961
719.1580, 123.3516
720.3110, 57.23535
721.4640, 241.1133
722.6170, 118.9834
723.7700, 161.8477
724.9220, 224.7988
726.0740, 269.6484
727.2260, 225.4932
728.3780, 233.1191
729.5300, 305.9492
730.6810, 354.7725
731.8330, 386.1045
732.9840, 341.9150
734.1350, 294.7168
735.2860, 489.5723
736.4370, 507.5547
737.5880, 674.8252
738.7380, 596.0059
739.8880, 689.8076
741.0390, 935.5654
742.1890, 748.3145
743.3380, 933.6396
744.4880, 1177.059
745.6380, 1293.860
746.7870, 1421.577
747.9360, 1886.286
749.0850, 2021.895
750.2340, 2338.102
751.3830, 3077.152
752.5310, 3828.992
753.6800, 4747.658
754.8280, 5967.506
755.9760, 7413.633
757.1240, 9523.945
758.2720, 11501.57
759.4190, 13643.50
760.5670, 15907.11
761.7140, 17597.71
762.8610, 18110.31
764.0080, 17504.34
765.1550, 15882.91
766.3020, 13444.47
767.4480, 11160.52
768.5950, 8877.924
769.7410, 6949.453
770.8870, 5445.972
772.0330, 4588.481
773.1780, 3856.509
774.3240, 3226.072
775.4690, 2693.548
776.6140, 2497.012
777.7590, 2092.463
778.9040, 1847.902
780.0490, 1532.424
781.1940, 1633.265
782.3380, 1490.296
783.4820, 1295.135
784.6260, 1084.515
785.7700, 1152.974
786.9140, 992.3271
788.0580, 1028.666
789.2010, 996.9932
790.3450, 1168.306
791.4880, 1008.604
792.6310, 1371.887
793.7730, 1126.154
794.9160, 1278.859
796.0590, 1249.098
797.2010, 1451.479
798.3430, 1462.392
799.4850, 1691.740
800.6270, 1998.914
801.7690, 2422.072
802.9100, 2983.213
804.0520, 3612.336
805.1930, 4362.441
806.3340, 5317.530
807.4750, 6689.600
808.6160, 8309.654
809.7560, 10369.38
810.8970, 12309.40
812.0370, 14534.40
813.1770, 15866.16
814.3170, 16910.13
815.4570, 16827.05
816.5960, 15688.98
817.7360, 13495.74
818.8750, 11122.50
820.0140, 8924.931
821.1530, 6785.535
822.2920, 5455.291
823.4310, 4243.123
824.5690, 3525.590
825.7070, 2730.240
826.8460, 2130.318
827.9840, 1892.533
829.1220, 1881.371
830.2590, 1445.020
831.3970, 1354.672
832.5340, 1256.514
833.6710, 1183.232
834.8080, 1173.781
835.9450, 1040.588
837.0820, 934.7500
838.2190, 860.1855
839.3550, 678.8848
840.4910, 634.0078
841.6270, 535.9199
842.7630, 396.4941
843.8990, 492.2949
845.0350, 355.1133
846.1700, 365.5879
847.3060, 254.1465
848.4410, 287.6953
849.5760, 327.2324
850.7100, 327.7598
851.8450, 189.2793
852.9800, 133.7051
854.1140, 316.6211
855.2480, 147.8730
856.3820, 190.3535
857.5160, 119.7031
858.6500, 71.16016
859.7830, 80.61133
860.9170, 40.43359
862.0500, 128.4844
863.1830, 64.90625
864.3160, 2.318359
865.4480, 106.7129
866.5810, 95.09570
867.7130, 6.472656
868.8460, 179.8340
869.9780, 302.1855
871.1100, 45.52539
872.2410, 37.14062
873.3730, 89.84570
874.5050, 7.384766
875.6360, 49.59766
876.7670, 88.80469
877.8980, 81.00195
879.0290, 3.189453
880.1590, 1.363281
881.2900, 37.51953
882.4200, 95.66602
883.5500, 77.80469
884.6800, 19.06445
885.8100, 28.96094
886.9400, 5.111328
888.0690, 39.83203
889.1990, 107.1914
890.3280, 40.79688
891.4570, 13.82031
892.5860, 96.86523
893.7140, 58.02148
894.8430, 12.09766
895.9710, 94.76172
897.1000, 52.61328
898.2280, 56.45703
899.3560, 31.70703
900.4830, 77.09961
901.6110, 85.89844
902.7380, 49.30859
903.8660, 55.55859
904.9930, 138.1523
906.1200, 131.8594
907.2460, 39.55859
908.3730, 51.75195
909.5000, 19.90234
910.6260, 173.5488
911.7520, 159.1875
912.8780, 110.8184
914.0040, 44.44531
915.1290, 12.18359
916.2550, 4.324219
917.3800, 24.72461
918.5050, 54.14648
919.6300, 56.41602
920.7550, 6.972656
921.8800, 79.99219
923.0040, 63.06641
924.1290, 132.6289
925.2530, 144.1875
926.3770, 40.74219
927.5010, 28.28906
928.6250, 44.83008
929.7480, 8.630859
930.8720, 22.89453
931.9950, 86.58398
933.1180, 31.99219
934.2410, 1.658203
935.3640, 47.78320
936.4860, 92.22461
937.6090, 159.6582
938.7310, 135.0879
939.8530, 77.51562
940.9750, 138.9434
942.0970, 172.3691
943.2180, 174.7910
944.3400, 237.7793
945.4610, 263.9082
946.5820, 347.1152
947.7030, 340.5703
948.8240, 428.0332
949.9450, 457.9316
951.0650, 361.9648
952.1860, 471.4258
953.3060, 453.8867
954.4260, 501.3555
955.5460, 487.8516
956.6650, 503.3516
957.7850, 485.8809
958.9040, 436.4062
960.0230, 448.9590
961.1420, 415.5137
962.2610, 427.0957
963.3800, 412.9551
964.4990, 409.3125
965.6170, 371.9395
966.7350, 404.5957
967.8530, 344.2578
968.9710, 389.9766
970.0890, 345.7344
971.2070, 415.4277
972.3240, 651.3008
973.4410, 533.0957
974.5580, 586.9668
975.6750, 575.8613
976.7920, 932.7812
977.9090, 756.7305
979.0250, 766.7109
980.1410, 834.6934
981.2580, 709.6777
982.3740, 649.6602
983.4890, 442.6426
984.6050, 393.6250
985.7200, 557.6113
986.8360, 460.5977
987.9510, 553.5840
989.0660, 507.5723
990.1810, 434.5664
991.2950, 615.5645
992.4100, 517.5625
993.5240, 546.5605
994.6390, 628.5586
995.7530, 567.4648
996.8660, 879.4668
997.9800, 934.4668
999.0940, 1024.684
1000.207, 1311.686
1001.320, 1700.693
1002.433, 1616.184
1003.546, 1841.191
1004.659, 1849.201
1005.772, 1975.154
1006.884, 2143.975
1007.996, 2127.500
1009.108, 1998.111
1010.220, 1998.096
1011.332, 2105.123
1012.444, 2146.150
1013.555, 2018.596
1014.666, 2035.943
1015.777, 1916.902
1016.888, 1623.941
1017.999, 1478.986
1019.110, 1315.123
1020.220, 1225.662
1021.331, 938.3477
1022.441, 996.2402
1023.551, 859.3047
1024.661, 552.1816
1025.770, 727.7734
1026.880, 561.1777
1027.989, 569.2598
1029.098, 649.0371
1030.207, 563.1309
1031.316, 439.2305
1032.425, 469.3340
1033.533, 446.9863
1034.642, 428.2812
1035.750, 455.3848
1036.858, 453.8555
1037.966, 511.1230
1039.073, 558.5488
1040.181, 655.6953
1041.288, 695.0859
1042.396, 704.4746
1043.503, 820.5645
1044.610, 944.7383
1045.716, 1067.918
1046.823, 986.1074
1047.929, 1190.303
1049.036, 948.4121
1050.142, 941.1973
1051.248, 857.7891
1052.353, 833.1621
1053.459, 744.3535
1054.564, 523.5371
1055.670, 572.7832
1056.775, 606.0586
1057.880, 565.7305
1058.985, 241.5879
1060.089, 419.8633
1061.194, 388.1484
1062.298, 191.4395
1063.402, 365.2852
1064.506, 232.5898
1065.610, 397.7441
1066.713, 429.3613
1067.817, 449.5332
1068.920, 593.8711
1070.023, 528.2402
1071.126, 355.5938
1072.229, 550.9570
1073.332, 507.7188
1074.435, 540.1719
1075.537, 650.6289
1076.639, 635.1270
1077.741, 796.3281
1078.843, 776.5488
1079.945, 892.9668
1081.046, 951.6055
1082.148, 967.5449
1083.249, 1157.986
1084.350, 1599.572
1085.451, 1834.025
1086.551, 1820.490
1087.652, 2101.959
1088.752, 2780.016
1089.853, 3122.500
1090.953, 3746.070
1092.053, 4357.824
1093.152, 5062.488
1094.252, 5933.002
1095.351, 6573.867
1096.451, 7315.395
1097.550, 7734.088
1098.649, 7955.070
1099.748, 7772.617
1100.846, 7527.170
1101.945, 6827.438
1103.043, 6047.010
1104.141, 5196.584
1105.239, 4481.207
1106.337, 3800.816
1107.434, 3576.691
1108.532, 2951.289
1109.629, 2760.889
1110.726, 2541.559
1111.823, 2246.170
1112.920, 2164.783
1114.017, 1851.447
1115.113, 1720.158
1116.210, 1370.785
1117.306, 1251.416
1118.402, 1269.289
1119.498, 1191.928
1120.593, 1143.354
1121.689, 1213.225
1122.784, 984.8809
1123.879, 919.5391
1124.974, 698.1992
1126.069, 552.8672
1127.164, 638.7500
1128.259, 552.4961
1129.353, 450.1816
1130.447, 538.8848
1131.541, 376.6328
1132.635, 350.3867
1133.729, 181.2949
1134.822, 298.0605
1135.916, 270.8320
1137.009, 220.6074
1138.102, 180.4766
1139.195, 189.2754
1140.288, 262.1074
1141.380, 235.9414
1142.473, 104.7852
1143.565, 247.6367
1144.657, 402.4961
1145.749, 355.3652
1146.841, 588.2676
1147.932, 647.3984
1149.024, 582.3613
1150.115, 514.3359
1151.206, 534.3262
1152.297, 714.3301
1153.388, 421.3418
1154.479, 642.3711
1155.569, 345.4043
1156.659, 491.4590
1157.750, 394.5293
1158.839, 245.6328
1159.929, 332.7402
1161.019, 154.8555
1162.108, 94.97656
1163.198, 188.0977
1164.287, 162.2227
1165.376, 223.3594
1166.465, 152.5000
1167.553, 65.64258
1168.642, 207.8066
1169.730, 11.00977
1170.818, 184.1719
1171.906, 164.3535
1172.994, 196.5371
1174.082, 149.7422
1175.170, 104.9473
1176.257, 9.160156
1177.344, 174.3750
1178.431, 97.59180
1179.518, 175.8125
1180.605, 67.03516
1181.691, 27.26172
1182.778, 87.50586
1183.864, 197.7070
1184.950, 40.92188
1186.036, 119.1367
1187.122, 108.6406
1188.207, 21.53125
1189.292, 25.70508
1190.378, 199.8789
1191.463, 64.09375
1192.548, 88.26562
1193.632, 194.4414
1194.717, 178.6211
1195.801, 136.7988
1196.886, 204.0000
1197.970, 192.2109
1199.054, 179.8691
1200.137, 22.62891
1201.221, 103.8359
1202.305, 106.0449
1203.388, 27.75000
1204.471, 14.44336
1205.554, 17.63867
1206.637, 10.83008
1207.719, 49.97656
1208.802, 49.77148
1209.884, 150.3301
1210.966, 39.52734
1212.048, 27.33398
1213.130, 97.76953
1214.212, 10.88086
1215.293, 173.9902
1216.374, 53.10156
1217.456, 205.2168
1218.536, 26.66992
1219.617, 242.4238
1220.698, 31.51758
1221.778, 68.39062
1222.859, 15.65820
1223.939, 96.70508
1225.019, 0.2480470
1226.099, 162.7910
1227.178, 49.16602
1228.258, 101.1602
1229.337, 198.7871
1230.417, 160.7324
1231.496, 6.794922
1232.574, 87.16602
1233.653, 223.1211
1234.732, 55.07227
1235.810, 123.9785
1236.888, 3.894531
1237.966, 118.7617
1239.044, 86.73438
1240.122, 54.61328
1241.199, 114.4863
1242.277, 114.3574
1243.354, 62.22070
1244.431, 53.08008
1245.508, 131.9355
1246.585, 164.1211
1247.661, 20.96875
1248.738, 165.0547
1249.814, 281.8887
1250.890, 102.7188
1251.966, 252.7324
1253.042, 195.5547
1254.117, 122.3867
1255.193, 167.6523
1256.268, 35.93555
1257.343, 71.07227
1258.418, 174.0820
1259.493, 128.5039
1260.567, 162.2500
1261.642, 273.9844
1262.716, 65.77148
1263.790, 202.8496
1264.864, 153.6074
1265.938, 148.4844
1267.011, 84.28711
1268.085, 179.3066
1269.158, 258.0430
1270.231, 304.1914
1271.304, 288.8105
1272.377, 293.5977
1273.450, 242.9551
1274.522, 153.4277
