##NAMES=Albite
##RRUFFID=R040068
##IDEAL CHEMISTRY=NaAlSi_3_O_8_
##LOCALITY=Harding Pegmatite, Dixon, New Mexico, USA
##OWNER=RRUFF
##SOURCE=University of Arizona Mineral Museum
##DESCRIPTION=Tan colored crystal fragment
##STATUS=The identification of this mineral has been confirmed by X-ray diffraction and chemical analysis
##URL=rruff.info/R040068
##MEASURED CHEMISTRY=(Na_0.99_Ca_0.01_)Al_1.00_(Si_0.99_Al_0.01_)_3_O_8_
##PIN_ID=L00467
##ORIENTATION=Laser parallel to a* (1 0 0). Fiducial mark perpendicular to laser is parallel to -b [0 -1 0]
123.129, 0.000
124.519, 4.486
125.910, 1.239
127.300, 38.268
128.690, 14.905
130.080, 16.251
131.469, 30.952
132.858, 110.904
134.248, 289.843
135.636, 424.375
137.025, 883.797
138.413, 1428.132
139.801, 2186.330
141.189, 3017.507
142.577, 3781.038
143.964, 4216.480
145.352, 4253.508
146.739, 4021.855
148.125, 3531.322
149.512, 3083.100
150.898, 2749.260
152.284, 2979.027
153.670, 3268.776
155.056, 4048.197
156.441, 4997.443
157.827, 6046.613
159.212, 6875.713
160.596, 7284.751
161.981, 7303.751
163.365, 7162.796
164.749, 6771.893
166.133, 6331.021
167.517, 6430.168
168.900, 6489.332
170.283, 6808.505
171.666, 6737.693
173.049, 6926.896
174.431, 7094.555
175.813, 7913.515
177.195, 8837.884
178.577, 10014.900
179.959, 11094.542
181.340, 12556.839
182.721, 13532.354
184.102, 13598.199
185.483, 13534.666
186.863, 12621.645
188.244, 11269.262
189.624, 9387.558
191.003, 7966.142
192.383, 6354.701
193.762, 5603.223
195.141, 4751.705
196.520, 4230.150
197.899, 3948.562
199.277, 3987.079
200.656, 4446.245
202.034, 4926.110
203.411, 5776.117
204.789, 6956.034
206.166, 7945.846
207.543, 8025.518
208.920, 7755.101
210.297, 6904.625
211.673, 5544.107
213.049, 4073.573
214.425, 2923.027
215.801, 1972.480
217.176, 1471.936
218.552, 911.396
219.927, 450.866
221.302, 390.342
222.676, 99.826
224.051, 109.316
225.425, 61.188
226.799, 8.312
228.173, 192.182
229.546, 112.672
230.919, 143.158
232.292, 183.644
233.665, 94.137
235.038, 154.647
236.410, 155.176
237.782, 125.723
239.154, 233.711
240.526, 203.128
241.898, 442.776
243.269, 1052.195
244.640, 1202.716
246.011, 2301.692
247.381, 3137.460
248.752, 4203.135
250.122, 4714.725
251.492, 4732.368
252.861, 4098.545
254.231, 3203.090
255.600, 2399.630
256.969, 1706.819
258.338, 1245.144
259.707, 1053.034
261.075, 880.769
262.443, 988.365
263.811, 1255.865
265.179, 1533.373
266.546, 1920.891
267.914, 2148.411
269.281, 2375.936
270.647, 2433.460
272.014, 2190.982
273.380, 2299.705
274.747, 2699.085
276.113, 2847.590
277.478, 3354.931
278.844, 4333.854
280.209, 5691.369
281.574, 7770.252
282.939, 10649.076
284.304, 14645.673
285.668, 19522.658
287.032, 23979.420
288.396, 27556.150
289.760, 28331.561
291.123, 26728.369
292.487, 22875.654
293.850, 17833.334
295.212, 13541.346
296.575, 9809.146
297.937, 7227.648
299.300, 5156.340
300.662, 3845.192
302.023, 2764.184
303.385, 2203.287
304.746, 1962.484
306.107, 1501.762
307.468, 1241.104
308.829, 1210.505
310.189, 1099.954
311.549, 1029.446
312.909, 778.975
314.269, 698.527
315.629, 928.085
316.988, 747.629
318.347, 1227.160
319.706, 1426.680
321.065, 2006.188
322.423, 3165.683
323.781, 4485.166
325.139, 6224.639
326.497, 7574.096
327.855, 8033.545
329.212, 7222.977
330.569, 6052.396
331.926, 4571.803
333.283, 3281.195
334.639, 2250.572
335.995, 1749.936
337.351, 1199.283
338.707, 1028.572
340.063, 797.709
341.418, 666.668
342.773, 715.438
344.128, 794.006
345.483, 692.498
346.837, 750.990
348.192, 729.480
349.546, 657.967
350.899, 556.445
352.253, 404.916
353.606, 303.371
354.960, 321.838
356.313, 220.299
357.665, 268.748
359.018, 167.182
360.370, 205.625
361.722, 294.053
363.074, 7.535
364.426, 10.838
365.777, 10.781
367.128, 37.555
368.479, 25.863
369.830, 44.139
371.181, 22.383
372.531, 50.596
373.881, 8.775
375.231, 23.082
376.581, 5.035
377.930, 33.113
379.280, 91.158
380.629, 130.822
381.977, 7.158
383.326, 64.900
384.674, 26.969
386.023, 180.914
387.370, 41.191
388.718, 244.004
390.066, 201.793
391.413, 299.973
392.760, 412.637
394.107, 583.697
395.454, 1052.344
396.800, 1075.910
398.146, 1266.240
399.492, 1396.518
400.838, 938.381
402.184, 776.119
403.529, 823.834
404.874, 801.525
406.219, 949.195
407.564, 756.791
408.908, 744.346
410.252, 581.848
411.596, 659.299
412.940, 606.697
414.284, 744.033
415.627, 791.283
416.970, 558.443
418.313, 465.547
419.656, 152.604
420.999, 99.641
422.341, 126.660
423.683, 116.318
425.025, 19.361
426.367, 192.439
427.708, 104.400
429.049, 238.779
430.390, 112.055
431.731, 115.391
433.072, 128.791
434.412, 82.256
435.752, 34.676
437.092, 211.070
438.432, 127.355
439.772, 53.537
441.111, 420.088
442.450, 276.043
443.789, 171.977
445.127, 267.994
446.466, 223.887
447.804, 290.098
449.142, 545.957
450.480, 461.807
451.817, 707.650
453.155, 833.479
454.492, 1069.346
455.829, 1149.160
457.166, 1090.920
458.502, 1256.678
459.838, 1112.414
461.175, 1058.127
462.510, 1233.816
463.846, 1339.480
465.181, 1685.119
466.517, 1840.730
467.852, 2256.318
469.186, 2941.879
470.521, 4067.408
471.855, 5472.910
473.190, 7618.387
474.523, 10103.836
475.857, 13269.252
477.191, 15254.641
478.524, 15909.998
479.857, 14345.330
481.190, 11800.631
482.523, 9305.902
483.855, 7121.148
485.187, 5326.359
486.519, 4871.543
487.851, 3866.699
489.183, 3591.824
490.514, 3536.922
491.845, 3461.988
493.176, 3987.023
494.507, 4582.031
495.837, 5217.008
497.168, 6661.957
498.498, 8846.875
499.828, 12111.762
501.157, 16696.621
502.487, 23451.449
503.816, 30826.256
505.145, 36341.035
506.474, 38395.785
507.802, 35200.500
509.131, 29545.217
510.459, 23089.887
511.787, 16904.729
513.115, 12729.350
514.442, 9619.324
515.770, 7225.998
517.097, 5801.104
518.424, 4675.609
519.750, 3905.379
521.077, 3339.805
522.403, 3024.543
523.729, 2264.551
525.055, 2085.941
526.381, 1956.057
527.706, 1669.105
529.031, 1611.371
530.356, 1413.582
531.681, 1435.279
533.006, 1157.666
534.330, 1268.416
535.654, 1001.861
536.978, 1102.164
538.302, 713.844
539.625, 987.270
540.949, 607.627
542.272, 837.838
543.595, 524.955
544.917, 833.068
546.240, 765.150
547.562, 552.615
548.884, 706.523
550.206, 560.717
551.527, 642.430
552.849, 419.057
554.170, 553.520
555.491, 607.656
556.812, 501.693
558.132, 370.152
559.453, 635.113
560.773, 479.129
562.093, 563.223
563.412, 557.182
564.732, 441.449
566.051, 455.352
567.370, 626.158
568.689, 550.008
570.008, 764.299
571.326, 654.615
572.644, 908.410
573.963, 1064.715
575.280, 1338.600
576.598, 1552.320
577.915, 1448.945
579.233, 1642.227
580.550, 1325.539
581.866, 1283.246
583.183, 946.352
584.499, 845.498
585.815, 723.805
587.131, 646.578
588.447, 551.330
589.763, 414.994
591.078, 347.914
592.393, 329.959
593.708, 124.891
595.022, 306.297
596.337, 309.424
597.651, 262.135
598.965, 113.881
600.279, 317.148
601.593, 270.395
602.906, 203.221
604.219, 246.422
605.532, 149.418
606.845, 242.570
608.158, 295.703
609.470, 268.816
610.782, 271.904
612.094, 214.988
613.406, 258.055
614.718, 251.092
616.029, 384.113
617.340, 297.111
618.651, 300.084
619.962, 533.039
621.272, 415.973
622.582, 678.883
623.892, 741.773
625.202, 714.641
626.512, 887.488
627.821, 1090.314
629.131, 1383.117
630.440, 1645.900
631.749, 1678.662
633.057, 1661.402
634.366, 1474.123
635.674, 1446.822
636.982, 1159.500
638.290, 1282.156
639.597, 1324.791
640.905, 1617.408
642.212, 1460.006
643.519, 1582.580
644.825, 1505.135
646.132, 1597.670
647.438, 1530.184
648.744, 1302.678
650.050, 1365.152
651.356, 917.607
652.662, 930.041
653.967, 532.455
655.272, 434.430
656.577, 497.227
657.882, 289.582
659.186, 321.920
660.490, 424.236
661.794, 216.537
663.098, 558.816
664.402, 281.078
665.705, 203.320
667.009, 305.545
668.312, 157.750
669.614, 219.932
670.917, 57.902
672.219, 5.803
673.522, 66.254
674.824, 298.289
676.125, 59.691
677.427, 222.256
678.728, 124.189
680.030, 126.102
681.331, 141.984
682.631, 39.838
683.932, 11.656
685.232, 23.459
686.532, 165.252
687.832, 57.035
689.132, 148.811
690.432, 80.578
691.731, 57.656
693.030, 104.072
694.329, 105.803
695.628, 87.525
696.926, 119.807
698.224, 118.277
699.522, 160.053
700.820, 81.537
702.118, 106.867
703.415, 26.436
704.713, 223.768
706.010, 75.268
707.307, 93.250
708.603, 171.854
709.900, 71.350
711.196, 154.096
712.492, 175.324
713.788, 35.809
715.083, 25.348
716.379, 256.475
717.674, 167.586
718.969, 268.680
720.264, 109.756
721.558, 420.811
722.853, 77.006
724.147, 353.957
725.441, 74.904
726.735, 67.553
728.028, 193.299
729.322, 3.975
730.615, 156.820
731.908, 267.600
733.201, 11.639
734.493, 389.082
735.785, 89.787
737.078, 39.523
738.370, 511.113
739.661, 221.781
740.953, 162.453
742.244, 233.180
743.535, 375.115
744.826, 385.893
746.117, 460.061
747.407, 328.713
748.698, 489.590
749.988, 430.033
751.278, 320.930
752.567, 571.814
753.857, 512.686
755.146, 643.061
756.435, 883.914
757.724, 1374.756
759.013, 1495.471
760.301, 2006.287
761.590, 2066.756
762.878, 2407.547
764.165, 2118.326
765.453, 1509.092
766.741, 1653.795
768.028, 1244.484
769.315, 975.213
770.602, 1185.932
771.888, 876.635
773.175, 877.328
774.461, 958.012
775.747, 538.680
777.033, 709.340
778.319, 449.986
779.604, 580.621
780.889, 341.246
782.174, 351.857
783.459, 582.461
784.744, 353.053
786.028, 423.633
787.312, 334.205
788.596, 334.766
789.880, 275.316
791.164, 225.857
792.447, 406.389
793.730, 426.908
795.013, 327.422
796.296, 197.922
797.579, 266.154
798.861, 418.898
800.143, 269.373
801.425, 499.838
802.707, 360.295
803.989, 690.742
805.270, 851.184
806.551, 931.613
807.832, 1152.035
809.113, 1602.451
810.394, 2412.859
811.674, 2743.258
812.954, 3183.650
814.234, 3464.035
815.514, 3014.414
816.794, 2984.785
818.073, 2275.150
819.352, 1925.506
820.631, 1225.844
821.910, 1086.188
823.189, 946.328
824.467, 716.660
825.745, 751.598
827.023, 659.807
828.301, 399.555
829.578, 569.863
830.856, 404.703
832.133, 465.004
833.410, 424.990
834.687, 204.980
835.963, 564.678
837.240, 174.240
838.516, 343.430
839.792, 232.848
841.068, 423.006
842.343, 152.713
843.618, 252.805
844.894, 242.613
846.169, 417.676
847.443, 87.588
848.718, 327.506
849.992, 12.650
851.266, 111.484
852.540, 138.398
853.814, 76.801
855.088, 326.539
856.361, 41.691
857.634, 112.311
858.907, 67.816
860.180, 177.449
861.453, 269.816
862.725, 52.732
863.997, 43.123
865.269, 316.826
866.541, 153.127
867.812, 52.484
869.084, 211.596
870.355, 51.662
871.626, 401.623
872.897, 51.701
874.167, 231.445
875.438, 38.391
876.708, 364.840
877.978, 205.006
879.248, 145.285
880.517, 428.352
881.787, 61.514
883.056, 26.082
884.325, 136.080
885.594, 146.223
886.862, 123.445
888.130, 133.609
889.399, 156.520
890.667, 178.971
891.934, 199.158
893.202, 309.352
894.469, 312.924
895.737, 50.311
897.004, 229.889
898.270, 140.092
899.537, 49.701
900.803, 430.498
902.070, 220.703
903.336, 120.910
904.601, 431.121
905.867, 141.336
907.132, 271.557
908.398, 41.783
909.663, 392.018
910.928, 382.254
912.192, 122.477
913.457, 452.703
914.721, 262.938
915.985, 293.180
917.249, 293.424
918.512, 116.324
919.776, 343.916
921.039, 204.164
922.302, 444.418
923.565, 34.680
924.827, 164.949
926.090, 215.225
927.352, 195.510
928.614, 55.799
929.876, 536.098
931.138, 76.404
932.399, 336.719
933.660, 117.043
934.922, 277.377
936.182, 217.719
937.443, 198.068
938.704, 148.430
939.964, 528.797
941.224, 309.180
942.484, 379.566
943.744, 189.969
945.003, 70.379
946.262, 340.803
947.521, 371.234
948.780, 361.680
950.039, 492.135
951.298, 436.322
952.556, 463.082
953.814, 353.574
955.072, 332.838
956.330, 464.598
957.587, 265.131
958.845, 295.676
960.102, 336.234
961.359, 516.811
962.615, 797.400
963.872, 238.008
965.128, 798.629
966.384, 379.264
967.640, 369.914
968.896, 990.580
970.152, 361.264
971.407, 1091.963
972.662, 1072.678
973.917, 1063.404
975.172, 1154.154
976.427, 1364.916
977.681, 1505.725
978.935, 1326.559
980.189, 1107.414
981.443, 1158.285
982.697, 1069.203
983.950, 899.160
985.203, 981.098
986.456, 622.076
987.709, 563.123
988.962, 524.312
990.214, 215.412
991.467, 536.537
992.719, 347.684
993.971, 358.857
995.222, 570.057
996.474, 261.281
997.725, 722.559
998.976, 313.857
1000.227, 535.186
1001.478, 755.582
1002.728, 630.586
1003.978, 702.037
1005.229, 453.570
1006.479, 385.133
1007.728, 514.971
1008.978, 570.818
1010.227, 862.516
1011.476, 644.250
1012.725, 566.051
1013.974, 826.004
1015.223, 797.424
1016.471, 649.389
1017.719, 715.268
1018.967, 677.330
1020.215, 989.438
1021.462, 901.918
1022.710, 1024.107
1023.957, 1616.340
1025.204, 1526.486
1026.451, 1947.670
1027.697, 2040.074
1028.944, 2493.820
1030.190, 2949.709
1031.436, 3102.303
1032.682, 3083.062
1033.928, 3065.781
1035.173, 2258.533
1036.418, 2091.281
1037.663, 1554.094
1038.908, 1566.965
1040.153, 1169.041
1041.398, 1101.043
1042.642, 962.994
1043.886, 1084.855
1045.130, 786.598
1046.374, 926.934
1047.617, 828.410
1048.860, 769.920
1050.104, 1030.055
1051.347, 801.678
1052.589, 932.455
1053.832, 714.213
1055.074, 635.994
1056.316, 867.805
1057.558, 949.639
1058.800, 281.504
1060.042, 773.396
1061.283, 581.119
1062.524, 693.031
1063.765, 734.973
1065.006, 586.945
1066.247, 888.949
1067.487, 270.984
1068.728, 553.051
1069.968, 615.145
1071.208, 607.271
1072.447, 639.434
1073.687, 721.627
1074.926, 667.256
1076.165, 1096.125
1077.404, 628.424
1078.643, 850.760
1079.881, 913.133
1081.120, 655.539
1082.358, 927.982
1083.596, 870.463
1084.834, 992.986
1086.071, 1135.543
1087.309, 1078.141
1088.546, 1640.779
1089.783, 1313.455
1091.020, 1476.174
1092.256, 2188.926
1093.493, 2401.723
1094.729, 2824.559
1095.965, 3097.434
1097.201, 3080.344
1098.436, 3673.295
1099.672, 3366.281
1100.907, 3039.312
1102.142, 3112.436
1103.377, 2355.643
1104.612, 2398.898
1105.846, 2322.289
1107.081, 2315.715
1108.315, 2009.215
1109.549, 1872.797
1110.782, 1726.465
1112.016, 2040.160
1113.249, 1893.758
1114.483, 1797.285
1115.716, 1900.859
1116.948, 1654.527
1118.181, 1738.234
1119.413, 1451.957
1120.646, 1105.703
1121.878, 1079.492
1123.110, 713.336
1124.341, 897.262
1125.573, 891.273
1126.804, 415.367
1128.035, 989.543
1129.266, 313.793
1130.497, 558.121
1131.727, 582.609
1132.957, 227.188
1134.188, 531.855
1135.418, 536.609
1136.647, 51.461
1137.877, 696.402
1139.106, 331.449
1140.335, 676.594
1141.564, 421.848
1142.793, 107.203
1144.022, 1092.672
1145.250, 108.254
1146.479, 803.961
1147.707, 799.785
1148.934, 125.734
1150.162, 681.820
1151.390, 738.035
1152.617, 554.395
1153.844, 780.891
1155.071, 287.535
1156.298, 614.324
1157.524, 671.273
1158.751, 198.398
1159.977, 395.715
1161.203, 913.227
1162.428, 40.949
1163.654, 588.887
1164.879, 27.066
1166.105, 395.480
1167.330, 584.148
1168.555, 142.531
1169.779, 401.719
1171.004, 701.203
1172.228, 218.996
1173.452, 691.121
1174.676, 291.609
1175.900, 102.477
1177.123, 583.758
1178.346, 445.473
1179.570, 497.676
1180.793, 630.395
1182.015, 425.520
1183.238, 715.258
1184.460, 394.879
1185.683, 447.879
1186.905, 377.945
1188.126, 474.070
1189.348, 479.719
1190.569, 367.898
1191.791, 310.047
1193.012, 321.992
1194.233, 139.770
1195.453, 34.543
1196.674, 203.352
1197.894, 1.074
1199.114, 0.000
##END=



