##NAMES=Albite
##RRUFFID=R050253
##IDEAL CHEMISTRY=NaAlSi_3_O_8_
##LOCALITY=Madawaska/Faraday mine, Bancroft, Ontario, Canada
##OWNER=RRUFF
##SOURCE=Marcus Origlieri
##DESCRIPTION=Colorless to brown prismatic single crystals
##STATUS=The identification of this mineral has been confirmed by X-ray diffraction and chemical analysis
##URL=rruff.info/R050253
##MEASURED CHEMISTRY=(Na_0.99_Ca_0.01_)Al_1.00_(Si_0.99_Al_0.01_)_3_O_8_
##PIN_ID=L01398
##ORIENTATION=Laser parallel to a* (1 0 0). Fiducial mark perpendicular to laser is parallel to b [0 1 0]
87.30800, 0.0000000E+00
88.54200, 177.1738
89.77700, 4.808594
91.01200, 77.71289
92.24600, 232.5625
93.48000, 68.99609
94.71400, 27.21094
95.94800, 166.0850
97.18200, 15.23926
98.41600, 115.2109
99.64900, 453.1758
100.8830, 828.6426
102.1160, 1239.980
103.3490, 1555.940
104.5820, 2331.533
105.8150, 2956.109
107.0470, 3698.298
108.2800, 4249.770
109.5120, 4339.479
110.7440, 5247.381
111.9760, 4057.009
113.2080, 3323.896
114.4400, 2623.865
115.6710, 2460.758
116.9030, 2333.434
118.1340, 1776.766
119.3650, 1413.641
120.5960, 872.9531
121.8270, 731.6182
123.0580, 672.6055
124.2880, 499.9414
125.5190, 656.4883
126.7490, 499.2070
127.9790, 613.9746
129.2090, 678.7021
130.4390, 1033.314
131.6680, 957.7510
132.8980, 1316.954
134.1270, 1612.877
135.3560, 1928.480
136.5850, 2480.725
137.8140, 2907.582
139.0430, 3449.041
140.2710, 4064.096
141.5000, 4467.723
142.7280, 4776.896
143.9560, 5033.588
145.1840, 5171.773
146.4120, 5438.430
147.6390, 5540.537
148.8670, 5928.076
150.0940, 6462.029
151.3210, 7676.381
152.5490, 8929.109
153.7750, 10214.21
155.0020, 11433.66
156.2290, 12834.77
157.4550, 14354.64
158.6810, 15545.42
159.9080, 16729.26
161.1340, 16980.85
162.3590, 16783.31
163.5850, 15613.80
164.8110, 14759.53
166.0360, 14197.26
167.2610, 13853.97
168.4860, 13649.67
169.7110, 13383.40
170.9360, 13455.16
172.1610, 13288.99
173.3850, 13756.88
174.6100, 14246.85
175.8340, 14706.92
177.0580, 15632.07
178.2820, 16688.33
179.5050, 17301.69
180.7290, 18118.16
181.9520, 18420.74
183.1760, 18680.44
184.3990, 18319.26
185.6220, 17280.19
186.8450, 16173.28
188.0670, 14456.62
189.2900, 13042.37
190.5120, 11818.51
191.7340, 10847.96
192.9560, 9831.605
194.1780, 9252.359
195.4000, 8628.211
196.6220, 8714.148
197.8430, 9025.176
199.0640, 9545.289
200.2860, 10454.49
201.5070, 11508.78
202.7270, 12763.16
203.9480, 13478.61
205.1690, 13647.15
206.3890, 13727.78
207.6090, 13142.48
208.8290, 12206.26
210.0490, 10773.12
211.2690, 9123.057
212.4890, 7402.070
213.7080, 5824.160
214.9280, 4765.320
216.1470, 3735.555
217.3660, 2965.859
218.5850, 2417.234
219.8030, 1912.678
221.0220, 1897.188
222.2400, 1130.762
223.4590, 1137.895
224.6770, 1085.791
225.8950, 874.4004
227.1120, 660.3555
228.3300, 677.7578
229.5480, 590.9082
230.7650, 692.4883
231.9820, 491.5312
233.1990, 498.6914
234.4160, 379.7383
235.6330, 458.4297
236.8490, 592.0117
238.0660, 680.2227
239.2820, 903.7988
240.4980, 1097.551
241.7140, 1618.980
242.9300, 1994.432
244.1460, 2460.121
245.3610, 2663.361
246.5770, 2683.004
247.7920, 3030.020
249.0070, 2919.385
250.2220, 2805.072
251.4370, 2708.062
252.6510, 2403.332
253.8660, 2011.871
255.0800, 1867.658
256.2940, 1731.682
257.5080, 1491.928
258.7220, 1523.383
259.9360, 1807.041
261.1490, 1643.521
262.3630, 1874.918
263.5760, 1651.117
264.7890, 1851.486
266.0020, 1908.010
267.2150, 1917.686
268.4270, 2309.504
269.6400, 2285.461
270.8520, 2603.547
272.0640, 2773.764
273.2760, 3174.098
274.4880, 3887.553
275.7000, 4688.115
276.9120, 5970.787
278.1230, 7442.561
279.3340, 9445.434
280.5450, 12543.41
281.7560, 15521.47
282.9670, 19433.63
284.1780, 22823.21
285.3880, 25758.53
286.5980, 28365.70
287.8090, 30435.86
289.0190, 30494.21
290.2290, 29121.17
291.4380, 26497.69
292.6480, 22607.24
293.8570, 18658.16
295.0670, 14947.66
296.2760, 11928.27
297.4850, 9459.516
298.6930, 7296.648
299.9020, 5618.781
301.1110, 4415.965
302.3190, 3648.201
303.5270, 3122.480
304.7350, 2494.803
305.9430, 2375.160
307.1510, 2156.553
308.3580, 1830.979
309.5660, 1802.438
310.7730, 1634.930
311.9800, 1637.457
313.1870, 1685.016
314.3940, 1509.609
315.6010, 1575.234
316.8070, 1928.891
318.0130, 2099.580
319.2200, 3208.305
320.4260, 4177.061
321.6310, 4942.846
322.8370, 5756.662
324.0430, 6546.508
325.2480, 6867.387
326.4540, 7358.293
327.6590, 7059.230
328.8640, 6612.195
330.0680, 5612.186
331.2730, 4481.205
332.4780, 3656.254
333.6820, 2804.322
334.8860, 2038.418
336.0900, 1721.533
337.2940, 1009.670
338.4980, 768.8262
339.7010, 806.0000
340.9050, 476.1895
342.1080, 573.4004
343.3110, 597.6270
344.5140, 509.8691
345.7170, 559.1289
346.9200, 605.4062
348.1220, 434.6953
349.3240, 311.0000
350.5270, 441.3203
351.7290, 196.6543
352.9310, 343.0020
354.1320, 212.3633
355.3340, 253.7383
356.5350, 131.8770
357.7370, 97.50781
358.9380, 41.15234
360.1390, 84.79883
361.3400, 2.458984
362.5400, 161.1113
363.7410, 193.7949
364.9410, 105.5176
366.1410, 165.2578
367.3410, 174.0312
368.5410, 65.90234
369.7410, 85.82031
370.9400, 244.8047
372.1400, 235.9238
373.3390, 263.8730
374.5380, 151.5508
375.7370, 219.0762
376.9360, 146.7617
378.1350, 41.57812
379.3330, 134.6250
380.5310, 97.11133
381.7300, 4.154297
382.9280, 193.5469
384.1260, 183.3105
385.3230, 23.12891
386.5210, 5.939453
387.7180, 88.91016
388.9160, 205.7637
390.1130, 264.7949
391.3100, 458.1074
392.5060, 573.4512
393.7030, 766.8262
394.9000, 682.2285
396.0960, 1035.658
397.2920, 1140.113
398.4880, 1511.594
399.6840, 1582.094
400.8800, 2060.619
402.0750, 2300.164
403.2710, 2354.729
404.4660, 2783.332
405.6610, 2687.951
406.8560, 2770.594
408.0510, 2491.250
409.2450, 2495.924
410.4400, 2447.611
411.6340, 2003.316
412.8280, 1931.074
414.0220, 1673.865
415.2160, 1351.738
416.4100, 1179.650
417.6030, 790.6289
418.7970, 726.6152
419.9900, 642.6133
421.1830, 667.6250
422.3760, 548.5801
423.5690, 139.7676
424.7610, 364.8750
425.9540, 120.9883
427.1460, 7.111328
428.3380, 180.2109
429.5300, 1.326172
430.7220, 119.5918
431.9140, 120.5977
433.1050, 162.7754
434.2970, 153.0938
435.4880, 66.22266
436.6790, 104.6113
437.8700, 9.912109
439.0610, 8.580078
440.2510, 41.89258
441.4420, 130.3477
442.6320, 221.8125
443.8220, 400.2793
445.0120, 375.7520
446.2020, 435.2227
447.3910, 352.7246
448.5810, 535.2266
449.7700, 714.7363
450.9600, 881.2480
452.1490, 1176.764
453.3370, 1500.277
454.5260, 1744.795
455.7150, 1647.336
456.9030, 1693.893
458.0910, 1736.453
459.2800, 1768.012
460.4670, 1874.572
461.6550, 1991.133
462.8430, 2101.695
464.0300, 2440.258
465.2180, 3227.869
466.4050, 3765.482
467.5920, 4952.094
468.7790, 6318.705
469.9650, 8332.322
471.1520, 10904.93
472.3380, 13248.54
473.5250, 15742.15
474.7110, 17822.77
475.8970, 19826.38
477.0820, 20548.98
478.2680, 20035.59
479.4540, 18101.20
480.6390, 15429.80
481.8240, 13049.40
483.0090, 10791.00
484.1940, 8797.596
485.3780, 7460.193
486.5630, 6437.791
487.7470, 5828.385
488.9320, 5749.977
490.1160, 5752.568
491.3000, 5938.156
492.4830, 6797.742
493.6670, 7546.330
494.8500, 8703.910
496.0340, 10885.49
497.2170, 13959.07
498.4000, 17782.65
499.5820, 22222.58
500.7650, 27211.14
501.9480, 32368.38
503.1300, 36431.40
504.3120, 39766.24
505.4940, 41127.01
506.6760, 39948.89
507.8580, 36677.46
509.0390, 31615.69
510.2210, 26307.32
511.4020, 21104.66
512.5830, 16857.90
513.7640, 13062.37
514.9450, 10382.25
516.1250, 8445.391
517.3060, 6675.699
518.4860, 5772.262
519.6660, 4800.686
520.8460, 4013.721
522.0260, 3418.312
523.2060, 3112.240
524.3850, 2803.422
525.5650, 2346.980
526.7440, 2342.035
527.9230, 1986.705
529.1020, 1827.197
530.2810, 1606.832
531.4590, 1518.475
532.6380, 1297.123
533.8160, 1263.777
534.9940, 1040.434
536.1720, 1070.100
537.3500, 1095.768
538.5270, 985.4414
539.7050, 930.1211
540.8820, 666.8047
542.0590, 868.4941
543.2360, 765.1855
544.4130, 999.8848
545.5900, 671.8516
546.7660, 350.5566
547.9430, 741.2656
549.1190, 727.4199
550.2950, 695.1367
551.4710, 597.0215
552.6470, 641.7500
553.8220, 742.4336
554.9980, 448.0430
556.1730, 572.2695
557.3480, 712.3457
558.5230, 512.7773
559.6980, 534.5059
560.8730, 660.2324
562.0470, 500.8633
563.2220, 646.8516
564.3960, 677.7559
565.5700, 818.4961
566.7440, 736.5488
567.9170, 788.5293
569.0910, 1128.340
570.2640, 1050.330
571.4380, 1136.326
572.6110, 1535.896
573.7840, 1792.816
574.9570, 1787.502
576.1290, 1666.402
577.3020, 1871.346
578.4740, 1778.990
579.6460, 1663.936
580.8180, 1386.607
581.9900, 1280.109
583.1620, 1030.199
584.3330, 815.9277
585.5040, 782.8027
586.6760, 604.5410
587.8470, 423.7109
589.0180, 384.4531
590.1880, 304.9590
591.3590, 179.2949
592.5290, 298.3340
593.7000, 381.1289
594.8700, 435.2305
596.0400, 355.9941
597.2090, 397.3047
598.3790, 325.5039
599.5490, 247.3105
600.7180, 383.2285
601.8870, 563.2832
603.0560, 453.5625
604.2250, 597.5156
605.3940, 553.7676
606.5620, 550.7363
607.7300, 735.7051
608.8990, 640.4629
610.0670, 722.4492
611.2350, 627.4375
612.4020, 766.4258
613.5700, 712.4277
614.7370, 657.4414
615.9050, 960.4570
617.0720, 886.4688
618.2390, 918.4824
619.4060, 767.4980
620.5720, 888.5078
621.7390, 742.5410
622.9050, 962.5918
624.0710, 1078.721
625.2370, 1277.852
626.4030, 1408.988
627.5690, 1596.125
628.7340, 1511.279
629.9000, 1867.424
631.0650, 1783.564
632.2300, 1683.705
633.3950, 1539.842
634.5600, 1659.979
635.7240, 1546.115
636.8890, 1497.246
638.0530, 1786.377
639.2170, 1643.502
640.3810, 1726.652
641.5450, 1801.820
642.7080, 1705.996
643.8720, 2019.193
645.0350, 2006.406
646.1980, 1916.676
647.3610, 1766.992
648.5240, 1718.332
649.6870, 1269.707
650.8490, 1196.121
652.0120, 996.5488
653.1740, 900.9980
654.3360, 917.5020
655.4980, 812.0625
656.6600, 676.6816
657.8210, 621.3379
658.9830, 553.0645
660.1440, 530.8281
661.3050, 487.5957
662.4660, 503.3613
663.6270, 469.0449
664.7870, 528.9258
665.9480, 462.7520
667.1080, 491.6191
668.2680, 557.4902
669.4280, 588.3633
670.5880, 701.2266
671.7480, 631.0742
672.9070, 652.9141
674.0670, 637.7402
675.2260, 392.5547
676.3850, 446.3555
677.5440, 297.1445
678.7030, 416.9180
679.8610, 356.6816
681.0200, 274.4277
682.1780, 385.1641
683.3360, 83.88477
684.4940, 57.40820
685.6520, 125.2441
686.8090, 146.8809
687.9670, 16.50195
689.1240, 123.1035
690.2810, 37.69141
691.4380, 54.26172
692.5950, 128.1816
693.7520, 62.72070
694.9080, 231.3203
696.0650, 85.07227
697.2210, 185.8984
698.3770, 122.1504
699.5330, 99.17969
700.6880, 6.193359
701.8440, 65.81836
702.9990, 143.7910
704.1550, 76.02344
705.3100, 43.14453
706.4650, 49.92188
707.6190, 37.67578
708.7740, 16.23828
709.9290, 82.37500
711.0830, 34.50195
712.2370, 271.6230
713.3910, 55.17969
714.5450, 168.9785
715.6980, 251.4395
716.8520, 120.8906
718.0050, 21.78516
719.1580, 1.671875
720.3110, 147.1621
721.4640, 14.01172
722.6170, 137.1367
723.7700, 87.96680
724.9220, 149.1855
726.0740, 75.96484
727.2260, 208.8730
728.3780, 27.19727
729.5300, 76.83984
730.6810, 93.31445
731.8330, 173.1562
732.9840, 90.09570
734.1350, 46.00977
735.2860, 22.47656
736.4370, 83.65430
737.5880, 184.6973
738.7380, 153.9219
739.8880, 149.2324
741.0390, 127.4922
742.1890, 207.9648
743.3380, 129.9512
744.4880, 307.1738
745.6380, 253.6113
746.7870, 91.00000
747.9360, 435.7480
749.0850, 464.6035
750.2340, 478.8809
751.3830, 741.5371
752.5310, 495.8555
753.6800, 718.7910
754.8280, 1138.592
755.9760, 1252.770
757.1240, 1713.586
758.2720, 1703.510
759.4190, 2208.262
760.5670, 2400.945
761.7140, 2534.312
762.8610, 2622.529
764.0080, 2551.846
765.1550, 2037.418
766.3020, 1623.648
767.4480, 1487.262
768.5950, 1380.998
769.7410, 1434.430
770.8870, 1143.389
772.0330, 1149.227
773.1780, 1162.100
774.3240, 1296.719
775.4690, 1201.383
776.6140, 954.9297
777.7590, 1033.113
778.9040, 857.6816
780.0490, 668.8320
781.1940, 567.6445
782.3380, 471.4629
783.4820, 368.5957
784.6260, 394.1738
785.7700, 527.6699
786.9140, 371.0215
788.0580, 507.0488
789.2010, 546.2422
790.3450, 528.0117
791.4880, 392.5098
792.6310, 380.8066
793.7730, 466.7188
794.9160, 523.4863
796.0590, 422.7402
797.2010, 612.7246
798.3430, 606.2285
799.4850, 817.2754
800.6270, 715.6875
801.7690, 844.1816
802.9100, 1097.625
804.0520, 1379.020
805.1930, 1721.268
806.3340, 1852.473
807.4750, 2524.816
808.6160, 2878.938
809.7560, 3569.336
810.8970, 4478.375
812.0370, 4884.367
813.1770, 5013.320
814.3170, 5140.232
815.4570, 4804.100
816.5960, 4431.924
817.7360, 3874.707
818.8750, 3069.447
820.0140, 2543.143
821.1530, 1764.797
822.2920, 1342.145
823.4310, 1285.713
824.5690, 1163.238
825.7070, 1078.279
826.8460, 836.7207
827.9840, 761.5645
829.1220, 723.9121
830.2590, 634.2656
831.3970, 603.6543
832.5340, 574.3828
833.6710, 489.2207
834.8080, 544.6641
835.9450, 524.7715
837.0820, 365.8398
838.2190, 572.9590
839.3550, 303.6797
840.4910, 344.4453
841.6270, 243.3320
842.7630, 398.8633
843.8990, 430.4238
845.0350, 241.7773
846.1700, 132.2441
847.3060, 434.8984
848.4410, 144.0312
849.5760, 145.6426
850.7100, 398.9160
851.8450, 67.44141
852.9800, 180.9121
854.1140, 218.3359
855.2480, 259.8945
856.3820, 395.6426
857.5160, 331.9375
858.6500, 233.7715
859.7830, 304.9844
860.9170, 73.01172
862.0500, 102.1328
863.1830, 269.7715
864.3160, 148.7988
865.4480, 104.1602
866.5810, 122.3223
867.7130, 80.88281
868.8460, 215.6387
869.9780, 220.0449
871.1100, 286.7480
872.2410, 132.8594
873.3730, 10.04297
874.5050, 89.43750
875.6360, 171.1074
876.7670, 139.0156
877.8980, 108.7559
879.0290, 22.81250
880.1590, 1.482422
881.2900, 207.4531
882.4200, 56.34375
883.5500, 29.59961
884.6800, 103.1641
885.8100, 55.88086
886.9400, 14.45117
888.0690, 9.855469
889.1990, 77.67188
890.3280, 89.15234
891.4570, 48.58594
892.5860, 78.97266
893.7140, 248.3105
894.8430, 53.38867
895.9710, 37.18164
897.1000, 272.0488
898.2280, 28.87695
899.3560, 2.248047
900.4830, 75.56445
901.6110, 34.66211
902.7380, 255.0312
903.8660, 216.6875
904.9930, 72.30469
906.1200, 145.8770
907.2460, 27.41016
908.3730, 22.38281
909.5000, 199.3262
910.6260, 50.72070
911.7520, 134.0723
912.8780, 274.3809
914.0040, 174.6562
915.1290, 263.8906
916.2550, 7.111328
917.3800, 26.71875
918.5050, 64.61719
919.6300, 122.4043
920.7550, 133.3848
921.8800, 157.3711
923.0040, 223.9277
924.1290, 17.25391
925.2530, 277.1445
926.3770, 81.00195
927.5010, 118.8184
928.6250, 200.5977
929.7480, 223.3418
930.8720, 62.92773
931.9950, 150.7344
933.1180, 254.3750
934.2410, 113.9863
935.3640, 480.5684
936.4860, 223.1328
937.6090, 224.6641
938.7310, 225.1621
939.8530, 257.6289
940.9750, 253.0625
942.0970, 203.4688
943.2180, 272.8398
944.3400, 167.1797
945.4610, 446.5020
946.5820, 293.7969
947.7030, 272.0703
948.8240, 583.3125
949.9450, 339.5371
951.0650, 452.7324
952.1860, 580.8965
953.3060, 359.0312
954.4260, 301.1406
955.5460, 525.2188
956.6650, 522.2676
957.7850, 281.3105
958.9040, 290.3281
960.0230, 423.3203
961.1420, 331.2871
962.2610, 74.22461
963.3800, 352.1328
964.4990, 266.0137
965.6170, 287.9082
966.7350, 348.7969
967.8530, 732.7266
968.9710, 350.6660
970.0890, 670.6367
971.2070, 603.5781
972.3240, 391.4961
973.4410, 912.3906
974.5580, 1031.182
975.6750, 984.0957
976.7920, 1047.664
977.9090, 1119.529
979.0250, 1108.375
980.1410, 1203.859
981.2580, 838.7656
982.3740, 614.5508
983.4890, 725.5137
984.6050, 817.4648
985.7200, 834.1895
986.8360, 648.2695
987.9510, 909.3516
989.0660, 720.5625
990.1810, 954.9512
991.2950, 780.5840
992.4100, 733.1973
993.5240, 879.4395
994.6390, 750.9512
995.7530, 952.0371
996.8660, 955.4434
997.9800, 1090.799
999.0940, 1394.742
1000.207, 1613.082
1001.320, 2047.664
1002.433, 2860.836
1003.546, 3262.867
1004.659, 4052.898
1005.772, 5565.230
1006.884, 7205.906
1007.996, 7415.621
1009.108, 6463.125
1010.220, 5478.492
1011.332, 4599.867
1012.444, 3613.277
1013.555, 2938.457
1014.666, 2188.250
1015.777, 2045.230
1016.888, 1801.219
1017.999, 1722.809
1019.110, 1506.242
1020.220, 1515.215
1021.331, 1599.770
1022.441, 1762.621
1023.551, 2041.816
1024.661, 1987.102
1025.770, 2520.969
1026.880, 2846.156
1027.989, 3346.195
1029.098, 3320.348
1030.207, 3306.617
1031.316, 3005.586
1032.425, 2967.172
1033.533, 2494.617
1034.642, 2523.469
1035.750, 1804.922
1036.858, 1575.949
1037.966, 1510.812
1039.073, 1489.941
1040.181, 1058.500
1041.288, 759.1406
1042.396, 829.7109
1043.503, 934.4883
1044.610, 456.4570
1045.716, 774.9609
1046.823, 692.0547
1047.929, 533.7266
1049.036, 413.6016
1050.142, 393.4727
1051.248, 496.2539
1052.353, 448.9570
1053.459, 270.4180
1054.564, 492.2070
1055.670, 594.8164
1056.775, 78.92969
1057.880, 298.6094
1058.985, 165.6797
1060.089, 382.9766
1061.194, 432.4297
1062.298, 420.2344
1063.402, 229.5977
1064.506, 530.3320
1065.610, 440.6562
1066.713, 363.8906
1067.817, 417.1914
1068.920, 425.1680
1070.023, 332.0859
1071.126, 423.0156
1072.229, 496.9531
1073.332, 431.9961
1074.435, 748.0391
1075.537, 565.9727
1076.639, 411.0117
1077.741, 215.1406
1078.843, 591.1797
1079.945, 776.3750
1081.046, 834.4141
1082.148, 1014.762
1083.249, 1004.879
1084.350, 839.9219
1085.451, 1190.961
1086.551, 1156.004
1087.652, 1366.047
1088.752, 1553.090
1089.853, 1910.176
1090.953, 2228.234
1092.053, 2573.281
1093.152, 3180.328
1094.252, 3520.379
1095.351, 4022.969
1096.451, 4320.023
1097.550, 4587.203
1098.649, 4923.254
1099.748, 4828.316
1100.846, 4824.875
1101.945, 4274.938
1103.043, 4167.000
1104.141, 3730.066
1105.239, 3213.137
1106.337, 3353.211
1107.434, 3010.281
1108.532, 2992.359
1109.629, 3031.438
1110.726, 2958.520
1111.823, 2896.609
1112.920, 2923.691
1114.017, 2612.789
1115.113, 2824.004
1116.210, 2729.109
1117.306, 2655.441
1118.402, 2384.699
1119.498, 2491.820
1120.593, 2502.953
1121.689, 2164.086
1122.784, 2080.227
1123.879, 1949.371
1124.974, 1712.520
1126.069, 1416.676
1127.164, 1577.832
1128.259, 1128.000
1129.353, 1154.176
1130.447, 862.3594
1131.541, 797.5508
1132.635, 719.7891
1133.729, 779.0391
1134.822, 1017.293
1135.916, 699.5586
1137.009, 1125.828
1138.102, 525.1055
1139.195, 585.3867
1140.288, 728.6914
1141.380, 528.0430
1142.473, 528.4570
1143.565, 351.9258
1144.657, 361.4062
1145.749, 14.09375
1146.841, 450.4141
1147.932, 399.9375
1149.024, 166.4727
1150.115, 528.0352
1151.206, 261.6016
1152.297, 160.1836
1153.388, 286.7852
1154.479, 359.4180
1155.569, 101.0664
1156.659, 228.7266
1157.750, 243.3984
1158.839, 36.08203
1159.929, 34.77344
1161.019, 15.50391
1162.108, 109.2422
1163.198, 259.0859
1164.287, 349.9453
1165.376, 19.17578
1166.465, 262.7031
1167.553, 118.6211
1168.642, 208.5469
1169.730, 217.4766
1170.818, 196.4258
1171.906, 224.3750
1172.994, 252.3398
1174.082, 48.32422
1175.170, 74.34375
1176.257, 309.3789
1177.344, 60.41797
1178.431, 166.4688
1179.518, 101.4766
1180.605, 164.5391
1181.691, 258.5703
1182.778, 40.36719
1183.864, 258.7070
1184.950, 190.1953
1186.036, 49.82031
1187.122, 107.1523
1188.207, 183.8359
1189.292, 201.8320
1190.378, 95.83984
1191.463, 117.8516
1192.548, 30.21094
1193.632, 92.10938
1194.717, 71.12109
1195.801, 78.08203
1196.886, 3.9062999E-02
1197.970, 39.96875
1199.054, 61.89844
1200.137, 250.1602
1201.221, 69.24609
1202.305, 198.3438
1203.388, 55.44922
1204.471, 39.56641
1205.554, 15.68359
1206.637, 190.8125
1207.719, 70.05078
1208.802, 335.0586
1209.884, 44.82031
1210.966, 142.2852
1212.048, 47.60547
1213.130, 19.49219
1214.212, 48.59375
1215.293, 177.7305
1216.374, 235.8711
1217.456, 154.7695
1218.536, 194.1719
1219.617, 31.33203
1220.698, 18.50781
1221.778, 90.65234
1222.859, 107.8125
1223.939, 185.0039
1225.019, 9.199219
1226.099, 216.4102
1227.178, 17.62500
1228.258, 50.85156
1229.337, 144.0820
1230.417, 27.68750
1231.496, 143.5352
1232.574, 288.7695
1233.653, 420.0117
1234.732, 97.26172
1235.810, 171.5117
1236.888, 125.7656
1237.966, 160.0273
1239.044, 179.2930
1240.122, 217.5742
1241.199, 162.8750
1242.277, 264.1836
1243.354, 154.5039
1244.431, 17.17578
1245.508, 263.1445
1246.585, 12.46094
1247.661, 30.78125
1248.738, 164.1055
1249.814, 521.4453
1250.890, 215.7852
1251.966, 636.1328
1253.042, 330.4727
1254.117, 401.8203
1255.193, 413.1641
1256.268, 479.5156
1257.343, 294.2344
1258.418, 354.5859
1259.493, 339.9414
1260.567, 260.2930
1261.642, 697.6445
1262.716, 359.5312
1263.790, 392.8789
1264.864, 584.2227
1265.938, 305.5703
1267.011, 127.9102
1268.085, 475.2461
