##NAMES=Albite
##RRUFFID=R050253
##IDEAL CHEMISTRY=NaAlSi_3_O_8_
##LOCALITY=Madawaska/Faraday mine, Bancroft, Ontario, Canada
##OWNER=RRUFF
##SOURCE=Marcus Origlieri
##DESCRIPTION=Colorless to brown prismatic single crystals
##STATUS=The identification of this mineral has been confirmed by X-ray diffraction and chemical analysis
##URL=rruff.info/R050253
##MEASURED CHEMISTRY=(Na_0.99_Ca_0.01_)Al_1.00_(Si_0.99_Al_0.01_)_3_O_8_
##PIN_ID=L00649
##ORIENTATION=Laser parallel to c* (0 0 1). Fiducial mark perpendicular to laser is parallel to a [1 0 0]
87.30800, 0.0000000E+00
88.54200, 95.61133
89.77700, 102.8643
91.01200, 34.22705
92.24600, 212.6226
93.48000, 111.4380
94.71400, 5.327637
95.94800, 18.24414
97.18200, 42.81641
98.41600, 106.1494
99.64900, 366.2500
100.8830, 726.1274
102.1160, 1086.469
103.3490, 1756.005
104.5820, 2415.503
105.8150, 3304.789
107.0470, 4150.732
108.2800, 4978.203
109.5120, 6149.067
110.7440, 7298.203
111.9760, 7792.500
113.2080, 7910.854
114.4400, 8060.178
115.6710, 7814.389
116.9030, 6832.416
118.1340, 5605.197
119.3650, 4427.672
120.5960, 3184.788
121.8270, 2329.524
123.0580, 1795.958
124.2880, 1403.112
125.5190, 1001.931
126.7490, 884.3486
127.9790, 809.3018
129.2090, 749.7358
130.4390, 732.4443
131.6680, 767.8691
132.8980, 794.4971
134.1270, 870.4580
135.3560, 997.7285
136.5850, 1133.285
137.8140, 1668.108
139.0430, 2016.180
140.2710, 2491.487
141.5000, 3222.011
142.7280, 3893.739
143.9560, 4740.662
145.1840, 5458.767
146.4120, 6361.044
147.6390, 7823.482
148.8670, 8803.073
150.0940, 9498.809
151.3210, 9640.681
152.5490, 9400.685
153.7750, 8817.821
155.0020, 7603.257
156.2290, 6618.292
157.4550, 5753.410
158.6810, 5229.097
159.9080, 4956.140
161.1340, 4950.208
162.3590, 4953.883
163.5850, 4880.648
164.8110, 4690.455
166.0360, 4405.189
167.2610, 4261.816
168.4860, 3977.364
169.7110, 3704.850
170.9360, 3668.282
172.1610, 3780.671
173.3850, 3780.024
174.6100, 3959.348
175.8340, 4245.650
177.0580, 4507.933
178.2820, 4851.205
179.5050, 5387.465
180.7290, 5915.718
181.9520, 6421.967
183.1760, 6800.215
184.3990, 7177.459
185.6220, 7410.706
186.8450, 7619.956
188.0670, 7342.209
189.2900, 6948.464
190.5120, 6697.727
191.7340, 5890.992
192.9560, 5296.264
194.1780, 4931.541
195.4000, 4578.827
196.6220, 4244.117
197.8430, 4080.411
199.0640, 4085.711
200.2860, 4342.016
201.5070, 4663.324
202.7270, 4930.635
203.9480, 5274.950
205.1690, 5560.267
206.3890, 5775.584
207.6090, 6113.905
208.8290, 6192.225
210.0490, 6062.548
211.2690, 5794.871
212.4890, 5126.194
213.7080, 4221.516
214.9280, 3237.837
216.1470, 2443.158
217.3660, 1671.478
218.5850, 1124.795
219.8030, 829.7900
221.0220, 521.9922
222.2400, 391.5234
223.4590, 224.5088
224.6770, 138.7622
225.8950, 18.06982
227.1120, 13.61230
228.3300, 44.45264
229.5480, 46.37598
230.7650, 6.211914
231.9820, 14.67041
233.1990, 21.85645
234.4160, 61.62744
235.6330, 40.36963
236.8490, 105.7051
238.0660, 337.4077
239.2820, 324.6636
240.4980, 506.7085
241.7140, 813.5708
242.9300, 1193.575
244.1460, 1439.941
245.3610, 1817.983
246.5770, 2171.195
247.7920, 2585.565
249.0070, 3112.080
250.2220, 3460.728
251.4370, 3586.499
252.6510, 3600.385
253.8660, 3417.378
255.0800, 3066.470
256.2940, 2639.654
257.5080, 2296.924
258.7220, 2063.274
259.9360, 2183.699
261.1490, 2365.194
262.3630, 2458.755
263.5760, 2676.377
264.7890, 3004.058
266.0020, 3425.793
267.2150, 3872.579
268.4270, 4089.413
269.6400, 4287.293
270.8520, 4529.214
272.0640, 4369.171
273.2760, 4180.165
274.4880, 3795.191
275.7000, 3645.249
276.9120, 3630.334
278.1230, 3663.444
279.3340, 4299.580
280.5450, 5050.737
281.7560, 6228.916
282.9670, 7442.116
284.1780, 8845.332
285.3880, 10338.57
286.5980, 11856.82
287.8090, 13397.08
289.0190, 15024.36
290.2290, 15871.66
291.4380, 16181.96
292.6480, 15657.27
293.8570, 14136.59
295.0670, 11965.92
296.2760, 9859.267
297.4850, 7845.615
298.6930, 6105.970
299.9020, 4824.331
301.1110, 3660.695
302.3190, 2976.062
303.5270, 2498.425
304.7350, 2157.775
305.9430, 1911.116
307.1510, 1741.443
308.3580, 1527.760
309.5660, 1396.066
310.7730, 1270.360
311.9800, 1147.021
313.1870, 1129.914
314.3940, 1018.173
315.6010, 1013.424
316.8070, 1077.664
318.0130, 1131.893
319.2200, 1267.111
320.4260, 1608.320
321.6310, 1773.520
322.8370, 2050.708
324.0430, 2338.887
325.2480, 2609.055
326.4540, 2893.213
327.6590, 3109.360
328.8640, 3048.498
330.0680, 2945.624
331.2730, 2415.740
332.4780, 1945.846
333.6820, 1604.941
334.8860, 1183.024
336.0900, 833.0977
337.2940, 659.1587
338.4980, 475.2090
339.7010, 349.2480
340.9050, 252.2754
342.1080, 187.2920
343.3110, 134.2959
344.5140, 103.2886
345.7170, 147.2695
346.9200, 54.23779
348.1220, 63.19385
349.3240, 121.1382
350.5270, 8.069824
351.7290, 22.01660
352.9310, 3.871094
354.1320, 3.260254
355.3340, 46.41406
356.5350, 52.60107
357.7370, 105.8237
358.9380, 146.0957
360.1390, 61.42871
361.3400, 104.7998
362.5400, 165.2212
363.7410, 97.70996
364.9410, 173.2534
366.1410, 56.88818
367.3410, 77.59375
368.5410, 135.4072
369.7410, 77.35742
370.9400, 100.4458
372.1400, 58.80469
373.3390, 112.1323
374.5380, 95.18359
375.7370, 174.7607
376.9360, 68.47363
378.1350, 127.5664
379.3330, 38.49121
380.5310, 114.4575
381.7300, 64.50391
382.9280, 50.60205
384.1260, 42.74707
385.3230, 45.93604
386.5210, 14.83252
387.7180, 95.61084
388.9160, 182.3955
390.1130, 232.1782
391.3100, 367.9575
392.5060, 417.7329
393.7030, 597.5054
394.9000, 656.2734
396.0960, 876.0454
397.2920, 996.8271
398.4880, 1159.626
399.6840, 1343.753
400.8800, 1628.246
402.0750, 1690.050
403.2710, 1938.866
404.4660, 2111.684
405.6610, 2434.518
406.8560, 2795.354
408.0510, 3046.195
409.2450, 3247.055
410.4400, 3370.908
411.6340, 3385.766
412.8280, 3515.613
414.0220, 3629.482
415.2160, 3746.347
416.4100, 3772.231
417.6030, 3527.129
418.7970, 3074.034
419.9900, 2470.939
421.1830, 1999.833
422.3760, 1305.726
423.5690, 960.6084
424.7610, 684.4775
425.9540, 566.3350
427.1460, 492.1973
428.3380, 385.0469
429.5300, 327.8823
430.7220, 413.7051
431.9140, 322.5137
433.1050, 391.3081
434.2970, 351.0884
435.4880, 377.8550
436.6790, 385.6069
437.8700, 409.3955
439.0610, 520.0679
440.2510, 529.7773
441.4420, 633.4717
442.6320, 791.1519
443.8220, 905.8174
445.0120, 944.4688
446.2020, 1219.104
447.3910, 1306.728
448.5810, 1588.335
449.7700, 1811.928
450.9600, 2141.507
452.1490, 2434.071
453.3370, 2844.622
454.5260, 3153.157
455.7150, 3551.679
456.9030, 3730.187
458.0910, 3958.680
459.2800, 4044.158
460.4670, 4099.625
461.6550, 4173.076
462.8430, 4697.513
464.0300, 5159.936
465.2180, 6060.346
466.4050, 7167.743
467.5920, 8912.122
468.7790, 11458.49
469.9650, 14600.85
471.1520, 18622.18
472.3380, 22788.52
473.5250, 27901.82
474.7110, 32077.61
475.8970, 36161.41
477.0820, 39589.69
478.2680, 42337.94
479.4540, 42429.20
480.6390, 40627.42
481.8240, 36050.65
483.0090, 30684.85
484.1940, 24545.04
485.3780, 19293.22
486.5630, 15141.39
487.7470, 12129.54
488.9320, 10280.68
490.1160, 9067.809
491.3000, 8507.923
492.4830, 8528.022
493.6670, 9119.492
494.8500, 10165.00
496.0340, 12307.06
497.2170, 14863.60
498.4000, 18562.35
499.5820, 23489.64
500.7650, 28623.54
501.9480, 34278.83
503.1300, 39959.36
504.3120, 45829.11
505.4940, 50962.99
506.6760, 53876.06
507.8580, 54619.32
509.0390, 52071.84
510.2210, 47073.00
511.4020, 39603.47
512.5830, 32175.55
513.7640, 24783.12
514.9450, 19330.29
516.1250, 14677.07
517.3060, 11749.92
518.4860, 9612.749
519.6660, 7872.222
520.8460, 6596.985
522.0260, 5634.321
523.2060, 4950.875
524.3850, 4330.551
525.5650, 3776.091
526.7440, 3396.162
527.9230, 2991.171
529.1020, 2906.556
530.2810, 2500.469
531.4590, 2435.357
532.6380, 2148.244
533.8160, 1966.132
534.9940, 1781.146
536.1720, 1615.456
537.3500, 1490.218
538.5270, 1388.511
539.7050, 1320.598
540.8820, 1271.995
542.0590, 1295.647
543.2360, 1215.528
544.4130, 1144.922
545.5900, 1099.100
546.7660, 1026.551
547.9430, 977.6826
549.1190, 893.2881
550.2950, 877.5366
551.4710, 834.2178
552.6470, 778.1133
553.8220, 832.4438
554.9980, 713.7104
556.1730, 699.2261
557.3480, 775.9746
558.5230, 702.5562
559.6980, 657.9731
560.8730, 568.3491
562.0470, 660.3208
563.2220, 505.9473
564.3960, 617.1592
565.5700, 654.0283
566.7440, 672.1113
567.9170, 676.9995
569.0910, 688.9033
570.2640, 792.7036
571.4380, 782.6240
572.6110, 918.4146
573.7840, 1019.199
574.9570, 1026.979
576.1290, 1168.755
577.3020, 1240.525
578.4740, 1180.291
579.6460, 1170.063
580.8180, 1243.840
581.9900, 1024.612
583.1620, 806.4038
584.3330, 814.1899
585.5040, 668.9883
586.6760, 665.7944
587.8470, 566.7114
589.0180, 419.4038
590.1880, 347.2012
591.3590, 324.9932
592.5290, 143.7817
593.7000, 213.5659
594.8700, 241.3457
596.0400, 236.1240
597.2090, 188.9038
598.3790, 186.6792
599.5490, 91.47363
600.7180, 242.2871
601.8870, 52.09570
603.0560, 123.9136
604.2250, 224.7271
605.3940, 192.5356
606.5620, 159.3428
607.7300, 96.14502
608.8990, 112.9429
610.0670, 129.7373
611.2350, 106.5288
612.4020, 193.3276
613.5700, 112.1362
614.7370, 172.9463
615.9050, 116.7583
617.0720, 60.56592
618.2390, 244.3691
619.4060, 182.1670
620.5720, 134.9634
621.7390, 213.7549
622.9050, 235.5425
624.0710, 251.3257
625.2370, 232.1045
626.4030, 211.8843
627.5690, 302.6660
628.7340, 258.4429
629.9000, 345.2241
631.0650, 298.0005
632.2300, 340.7720
633.3950, 412.5396
634.5600, 391.3081
635.7240, 325.0850
636.8890, 512.8643
638.0530, 462.6479
639.2170, 512.4478
640.3810, 433.2656
641.5450, 538.1157
642.7080, 612.0093
643.8720, 602.9229
645.0350, 703.8691
646.1980, 595.8667
647.3610, 605.8950
648.5240, 555.9746
649.6870, 491.7622
650.8490, 535.2017
652.0120, 363.3774
653.1740, 325.5801
654.3360, 229.8208
655.4980, 290.0845
656.6600, 187.3833
657.8210, 157.7134
658.9830, 114.0962
660.1440, 98.45654
661.3050, 105.9492
662.4660, 112.4209
663.6270, 110.9292
664.7870, 124.4609
665.9480, 46.01172
667.1080, 14.57910
668.2680, 69.83691
669.4280, 45.70557
670.5880, 122.2417
671.7480, 101.7720
672.9070, 106.2964
674.0670, 34.81445
675.2260, 12.32471
676.3850, 19.25928
677.5440, 45.60742
678.7030, 71.26123
679.8610, 43.87793
681.0200, 31.53369
682.1780, 34.77783
683.3360, 55.91943
684.4940, 22.66211
685.6520, 74.43457
686.8090, 24.26367
687.9670, 41.12354
689.1240, 86.02197
690.2810, 3.015625
691.4380, 31.96387
692.5950, 12.02100
693.7520, 101.0059
694.9080, 9.104980
696.0650, 92.22900
697.2210, 73.42041
698.3770, 54.66992
699.5330, 21.96875
700.6880, 47.70117
701.8440, 25.63721
702.9990, 19.99023
704.1550, 69.60645
705.3100, 29.21436
706.4650, 45.18799
707.6190, 58.36572
708.7740, 101.9106
709.9290, 52.44824
711.0830, 134.9771
712.2370, 128.4980
713.3910, 183.0410
714.5450, 230.5474
715.6980, 255.0679
716.8520, 310.6133
718.0050, 312.6914
719.1580, 335.2354
720.3110, 314.7021
721.4640, 282.6968
722.6170, 296.1475
723.7700, 278.3877
724.9220, 198.6567
726.0740, 181.2041
727.2260, 198.6206
728.3780, 263.0278
729.5300, 123.4263
730.6810, 205.8750
731.8330, 336.3047
732.9840, 241.6763
734.1350, 244.7231
735.2860, 421.3726
736.4370, 321.7173
737.5880, 275.5845
738.7380, 306.2407
739.8880, 293.5571
741.0390, 338.7285
742.1890, 428.3320
743.3380, 460.6182
744.4880, 539.4048
745.6380, 624.6709
746.7870, 711.0234
747.9360, 817.2690
749.0850, 833.7554
750.2340, 1149.698
751.3830, 1392.062
752.5310, 1596.462
753.6800, 2015.033
754.8280, 2590.217
755.9760, 3286.391
757.1240, 3974.552
758.2720, 5286.215
759.4190, 6098.355
760.5670, 7078.536
761.7140, 8030.656
762.8610, 8513.765
764.0080, 8692.064
765.1550, 8145.354
766.3020, 7324.427
767.4480, 6207.375
768.5950, 5329.428
769.7410, 4346.472
770.8870, 3715.505
772.0330, 3160.525
773.1780, 2813.536
774.3240, 2726.534
775.4690, 2447.522
776.6140, 2245.499
777.7590, 1974.464
778.9040, 1614.417
780.0490, 1403.360
781.1940, 1275.291
782.3380, 979.2090
783.4820, 921.5938
784.6260, 763.4883
785.7700, 725.3711
786.9140, 597.2407
788.0580, 596.0981
789.2010, 498.5059
790.3450, 574.3369
791.4880, 473.4541
792.6310, 445.2588
793.7730, 509.0493
794.9160, 406.8262
796.0590, 444.5889
797.2010, 478.3379
798.3430, 443.0723
799.4850, 532.6641
800.6270, 605.3696
801.7690, 604.0605
802.9100, 605.7363
804.0520, 769.3462
805.1930, 954.7979
806.3340, 1038.617
807.4750, 1214.169
808.6160, 1512.771
809.7560, 1715.358
810.8970, 2254.931
812.0370, 2534.362
813.1770, 2757.633
814.3170, 3142.291
815.4570, 3152.250
816.5960, 3117.552
817.7360, 2799.530
818.8750, 2477.239
820.0140, 2006.550
821.1530, 1595.645
822.2920, 1277.786
823.4310, 939.6392
824.5690, 810.6030
825.7070, 726.4712
826.8460, 686.4863
827.9840, 582.1377
829.1220, 532.1670
830.2590, 453.2881
831.3970, 428.2300
832.5340, 415.9097
833.6710, 411.3438
834.8080, 279.9307
835.9450, 262.6694
837.0820, 359.4360
838.2190, 231.5938
839.3550, 257.0845
840.4910, 175.9756
841.6270, 201.1982
842.7630, 212.1938
843.8990, 138.3716
845.0350, 109.5215
846.1700, 150.7627
847.3060, 71.87207
848.4410, 190.0986
849.5760, 23.31934
850.7100, 103.5327
851.8450, 15.73975
852.9800, 46.93848
854.1140, 28.86963
855.2480, 20.70703
856.3820, 26.42920
857.5160, 76.44141
858.6500, 29.63428
859.7830, 49.29639
860.9170, 34.26660
862.0500, 7.269043
863.1830, 78.71143
864.3160, 69.68652
865.4480, 147.6548
866.5810, 10.61865
867.7130, 10.57471
868.8460, 33.52393
869.9780, 2.532227
871.1100, 12.60156
872.2410, 43.31055
873.3730, 80.78223
874.5050, 77.92773
875.6360, 46.87451
876.7670, 44.32812
877.8980, 29.43506
879.0290, 26.19434
880.1590, 3.050781
881.2900, 28.27539
882.4200, 3.433105
883.5500, 14.16553
884.6800, 0.1054690
885.8100, 40.38525
886.9400, 47.69287
888.0690, 17.03418
889.1990, 20.39062
890.3280, 145.2358
891.4570, 27.85889
892.5860, 81.47803
893.7140, 7.905762
894.8430, 35.70068
895.9710, 1.304199
897.1000, 47.90283
898.2280, 104.4985
899.3560, 21.90869
900.4830, 22.33105
901.6110, 128.2324
902.7380, 34.20703
903.8660, 35.33350
904.9930, 73.87158
906.1200, 34.40771
907.2460, 24.94141
908.3730, 12.47363
909.5000, 61.00391
910.6260, 59.53271
911.7520, 100.0591
912.8780, 125.5845
914.0040, 35.11084
915.1290, 61.63623
916.2550, 20.16064
917.3800, 86.68359
918.5050, 14.79199
919.6300, 133.7256
920.7550, 76.24316
921.8800, 5.759766
923.0040, 74.27539
924.1290, 38.20898
925.2530, 11.29150
926.3770, 34.20898
927.5010, 118.2793
928.6250, 53.76904
929.7480, 200.2583
930.8720, 109.7480
931.9950, 49.23926
933.1180, 93.73047
934.2410, 47.77734
935.3640, 127.6987
936.4860, 108.1758
937.6090, 61.65332
938.7310, 130.1333
939.8530, 159.6343
940.9750, 195.1577
942.0970, 211.7041
943.2180, 170.2617
944.3400, 341.8267
945.4610, 331.4019
946.5820, 391.9917
947.7030, 351.5845
948.8240, 536.2056
949.9450, 524.8379
951.0650, 620.4932
952.1860, 614.1748
953.3060, 644.8760
954.4260, 716.5933
955.5460, 765.3154
956.6650, 817.0596
957.7850, 797.8184
958.9040, 780.6064
960.0230, 810.4092
961.1420, 885.2329
962.2610, 680.0884
963.3800, 976.9531
964.4990, 967.8350
965.6170, 958.7251
966.7350, 1201.671
967.8530, 1382.631
968.9710, 1985.632
970.0890, 1943.106
971.2070, 2209.718
972.3240, 2203.800
973.4410, 2607.889
974.5580, 3047.996
975.6750, 3281.130
976.7920, 3559.270
977.9090, 3655.416
979.0250, 3808.604
980.1410, 3573.798
981.2580, 3169.008
982.3740, 2685.265
983.4890, 2376.528
984.6050, 1966.558
985.7200, 1603.041
986.8360, 1395.244
987.9510, 1150.487
989.0660, 1035.227
990.1810, 890.4565
991.2950, 842.7622
992.4100, 842.5381
993.5240, 794.8574
994.6390, 614.3853
995.7530, 693.8823
996.8660, 720.1016
997.9800, 822.4502
999.0940, 968.8066
1000.207, 1074.170
1001.320, 1229.484
1002.433, 1531.815
1003.546, 1548.204
1004.659, 1689.917
1005.772, 1871.026
1006.884, 1832.439
1007.996, 1835.330
1009.108, 1731.432
1010.220, 1612.873
1011.332, 1478.151
1012.444, 1305.629
1013.555, 1193.117
1014.666, 1028.106
1015.777, 922.6138
1016.888, 957.0352
1017.999, 860.5640
1019.110, 871.8530
1020.220, 901.6851
1021.331, 815.0962
1022.441, 753.4712
1023.551, 988.6748
1024.661, 930.2676
1025.770, 1075.870
1026.880, 1255.484
1027.989, 1320.600
1029.098, 1554.237
1030.207, 1666.835
1031.316, 1763.496
1032.425, 1869.167
1033.533, 1883.647
1034.642, 1574.144
1035.750, 1704.851
1036.858, 1497.688
1037.966, 1309.419
1039.073, 1218.163
1040.181, 1126.918
1041.288, 1136.686
1042.396, 1063.467
1043.503, 1010.259
1044.610, 1091.064
1045.716, 1032.882
1046.823, 1195.134
1047.929, 1100.977
1049.036, 1086.831
1050.142, 942.6987
1051.248, 922.8828
1052.353, 783.2983
1053.459, 664.2046
1054.564, 471.1226
1055.670, 585.0537
1056.775, 501.9976
1057.880, 509.3906
1058.985, 366.3608
1060.089, 521.0439
1061.194, 301.2798
1062.298, 541.2891
1063.402, 542.3115
1064.506, 404.3467
1065.610, 526.3955
1066.713, 480.4575
1067.817, 572.6611
1068.920, 487.7495
1070.023, 588.8516
1071.126, 674.9668
1072.229, 722.4893
1073.332, 830.0947
1074.435, 896.0684
1075.537, 911.2617
1076.639, 1050.455
1077.741, 1160.324
1078.843, 1237.217
1079.945, 1441.435
1081.046, 1505.071
1082.148, 1800.313
1083.249, 1891.180
1084.350, 2197.445
1085.451, 2511.723
1086.551, 2932.013
1087.652, 3326.312
1088.752, 3901.624
1089.853, 4564.947
1090.953, 5429.282
1092.053, 6569.629
1093.152, 7819.987
1094.252, 9286.354
1095.351, 10515.73
1096.451, 11909.12
1097.550, 13322.53
1098.649, 14014.51
1099.748, 14084.93
1100.846, 14068.55
1101.945, 13264.99
1103.043, 12586.45
1104.141, 11236.69
1105.239, 10345.41
1106.337, 9261.900
1107.434, 8529.965
1108.532, 7992.472
1109.629, 7384.984
1110.726, 7372.487
1111.823, 7231.020
1112.920, 7064.934
1114.017, 6759.963
1115.113, 6808.521
1116.210, 6522.086
1117.306, 6298.661
1118.402, 5773.244
1119.498, 5372.837
1120.593, 4805.438
1121.689, 4431.058
1122.784, 3922.696
1123.879, 3410.343
1124.974, 3002.021
1126.069, 2568.710
1127.164, 2286.423
1128.259, 2058.156
1129.353, 1775.904
1130.447, 1428.660
1131.541, 1325.430
1132.635, 1030.207
1133.729, 971.9922
1134.822, 1080.787
1135.916, 938.5898
1137.009, 768.4043
1138.102, 759.2334
1139.195, 675.4219
1140.288, 617.9590
1141.380, 680.8848
1142.473, 643.8174
1143.565, 757.8975
1144.657, 650.8594
1145.749, 592.8291
1146.841, 738.8096
1147.932, 746.7969
1149.024, 787.7920
1150.115, 856.7949
1151.206, 996.8057
1152.297, 785.8369
1153.388, 926.8877
1154.479, 736.9531
1155.569, 663.0332
1156.659, 737.1191
1157.750, 431.2109
1158.839, 461.3096
1159.929, 411.4170
1161.019, 275.5488
1162.108, 250.6885
1163.198, 164.8340
1164.287, 288.9863
1165.376, 168.1533
1166.465, 203.3340
1167.553, 269.5186
1168.642, 111.7217
1169.730, 332.9307
1170.818, 166.1475
1171.906, 102.3701
1172.994, 131.5967
1174.082, 82.83203
1175.170, 145.0713
1176.257, 151.3164
1177.344, 15.43262
1178.431, 113.8330
1179.518, 38.10352
1180.605, 162.3789
1181.691, 11.34082
1182.778, 69.94141
1183.864, 81.23242
1184.950, 97.52637
1186.036, 185.8252
1187.122, 131.1299
1188.207, 100.4385
1189.292, 237.7578
1190.378, 167.6592
1191.463, 7.583008
1192.548, 169.7520
1193.632, 32.09082
1194.717, 47.43457
1195.801, 42.78125
1196.886, 95.13281
1197.970, 76.91895
1199.054, 20.85449
1200.137, 31.22559
1201.221, 20.59863
1202.305, 77.02441
1203.388, 77.68359
1204.471, 25.62207
1205.554, 35.07129
1206.637, 19.77734
1207.719, 31.49219
1208.802, 47.21973
1209.884, 90.03125
1210.966, 89.71680
1212.048, 48.49121
1213.130, 10.29785
1214.212, 4.909180
1215.293, 8.117188
1216.374, 19.93457
1217.456, 28.75098
1218.536, 68.75879
1219.617, 60.97656
1220.698, 51.19824
1221.778, 97.42578
1222.859, 15.66309
1223.939, 206.9023
1225.019, 32.14355
1226.099, 148.3877
1227.178, 45.63184
1228.258, 70.12109
1229.337, 57.08594
1230.417, 15.53711
1231.496, 24.66113
1232.574, 141.8594
1233.653, 23.93945
1234.732, 2.245117
1235.810, 91.42676
1236.888, 67.37695
1237.966, 143.7666
1239.044, 131.9102
1240.122, 56.94531
1241.199, 49.16504
1242.277, 30.72461
1243.354, 143.6348
1244.431, 122.3740
1245.508, 38.38379
1246.585, 201.3955
1247.661, 21.40723
1248.738, 170.4189
1249.814, 114.4316
1250.890, 162.4521
1251.966, 150.4727
1253.042, 102.4951
1254.117, 121.5840
1255.193, 144.6045
1256.268, 145.6328
1257.343, 134.7422
1258.418, 214.8086
1259.493, 123.8447
1260.567, 80.09961
1261.642, 144.1221
1262.716, 142.1436
1263.790, 240.1641
1264.864, 132.1836
1265.938, 236.3115
1267.011, 223.3281
1268.085, 179.7129
