##NAMES=Albite
##RRUFFID=R050402
##IDEAL CHEMISTRY=NaAlSi_3_O_8_
##LOCALITY=Urbano mine, Golconda District, Brazil
##OWNER=RRUFF
##SOURCE=Bob Downs
##DESCRIPTION=Colorless tabular single crystals associated with fluorapatite R050401
##STATUS=The identification of this mineral has been confirmed by X-ray diffraction and chemical analysis
##URL=rruff.info/R050402
##MEASURED CHEMISTRY=Na_1.00_Al_1.00_Si_3.00_O_8_
##PIN_ID=M00068
##ORIENTATION=Laser parallel to a* (1 0 0). Fiducial mark perpendicular to laser is parallel to b [0 1 0]
86.07200, 0.0000000E+00
87.30800, 78.72217
88.54200, 112.6421
89.77700, 53.33594
91.01200, 11.47900
92.24600, 6.614746
93.48000, 5.875000
94.71400, 38.46191
95.94800, 61.17871
97.18200, 106.5791
98.41600, 195.3062
99.64900, 308.0625
100.8830, 424.6006
102.1160, 485.7114
103.3490, 714.2173
104.5820, 940.9780
105.8150, 1317.887
107.0470, 1855.848
108.2800, 2494.771
109.5120, 3374.570
110.7440, 4099.167
111.9760, 4566.490
113.2080, 4605.091
114.4400, 4560.072
115.6710, 3942.226
116.9030, 3210.892
118.1340, 2251.028
119.3650, 1589.604
120.5960, 1139.600
121.8270, 723.0239
123.0580, 549.8882
124.2880, 606.1899
125.5190, 304.8936
126.7490, 378.9639
127.9790, 444.3691
129.2090, 395.0757
130.4390, 302.0562
131.6680, 492.2842
132.8980, 426.7383
134.1270, 577.3975
135.3560, 655.2466
136.5850, 774.2715
137.8140, 983.8579
139.0430, 1188.812
140.2710, 1427.309
141.5000, 1593.945
142.7280, 1830.709
143.9560, 1865.591
145.1840, 1662.582
146.4120, 1751.670
147.6390, 1706.852
148.8670, 1858.117
150.0940, 1825.460
151.3210, 1834.939
152.5490, 1858.550
153.7750, 1865.315
155.0020, 1887.461
156.2290, 1911.948
157.4550, 2179.748
158.6810, 2358.966
159.9080, 2606.725
161.1340, 2933.557
162.3590, 3253.431
163.5850, 3268.357
164.8110, 3561.284
166.0360, 3780.184
167.2610, 4391.134
168.4860, 4966.041
169.7110, 5213.906
170.9360, 5335.735
172.1610, 4762.516
173.3850, 4315.255
174.6100, 3871.953
175.8340, 3537.614
177.0580, 3429.242
178.2820, 3582.838
179.5050, 3776.405
180.7290, 4042.943
181.9520, 4245.456
183.1760, 4506.949
184.3990, 4631.439
185.6220, 4642.930
186.8450, 4403.425
188.0670, 4124.940
189.2900, 3869.513
190.5120, 3441.116
191.7340, 3064.717
192.9560, 2924.320
194.1780, 2738.916
195.4000, 2556.497
196.6220, 2489.063
197.8430, 2438.599
199.0640, 2406.104
200.2860, 2824.578
201.5070, 3041.020
202.7270, 3559.431
203.9480, 4038.811
205.1690, 4715.157
206.3890, 5622.473
207.6090, 6242.755
208.8290, 6595.006
210.0490, 6021.225
211.2690, 5087.410
212.4890, 4104.563
213.7080, 3086.817
214.9280, 2320.544
216.1470, 1672.333
217.3660, 1312.602
218.5850, 1061.059
219.8030, 731.8911
221.0220, 534.3770
222.2400, 430.6973
223.4590, 391.3647
224.6770, 249.7036
225.8950, 209.9062
227.1120, 230.8901
228.3300, 193.2344
229.5480, 264.1875
230.7650, 128.9463
231.9820, 236.0825
233.1990, 176.1680
234.4160, 188.7808
235.6330, 65.54346
236.8490, 114.4722
238.0660, 82.89941
239.2820, 227.0918
240.4980, 244.7241
241.7140, 245.5659
242.9300, 240.8428
244.1460, 357.9146
245.3610, 474.7500
246.5770, 504.1055
247.7920, 611.5093
249.0070, 899.7915
250.2220, 1053.640
251.4370, 1131.028
252.6510, 1088.629
253.8660, 1071.297
255.0800, 934.3433
256.2940, 689.6040
257.5080, 739.7139
258.7220, 513.8550
259.9360, 693.0288
261.1490, 784.2271
262.3630, 635.4512
263.5760, 814.6963
264.7890, 938.9609
266.0020, 1086.241
267.2150, 1361.540
268.4270, 1496.851
269.6400, 1578.171
270.8520, 1502.500
272.0640, 1340.836
273.2760, 1351.176
274.4880, 1339.520
275.7000, 1084.866
276.9120, 1411.213
278.1230, 1395.733
279.3340, 1631.499
280.5450, 1912.938
281.7560, 2282.081
282.9670, 2871.396
284.1780, 3679.540
285.3880, 4826.191
286.5980, 5895.940
287.8090, 7369.303
289.0190, 8353.729
290.2290, 8855.443
291.4380, 8418.960
292.6480, 7390.610
293.8570, 6106.953
295.0670, 4531.097
296.2760, 3432.505
297.4850, 2602.210
298.6930, 1980.368
299.9020, 1619.400
301.1110, 1335.208
302.3190, 1083.530
303.5270, 878.7715
304.7350, 734.4189
305.9430, 574.4629
307.1510, 553.3770
308.3580, 436.2617
309.5660, 420.1152
310.7730, 461.9385
311.9800, 407.7295
313.1870, 322.4912
314.3940, 320.2217
315.6010, 313.9189
316.8070, 338.6104
318.0130, 383.2705
319.2200, 527.8984
320.4260, 651.4951
321.6310, 726.0615
322.8370, 913.5957
324.0430, 1178.099
325.2480, 1982.570
326.4540, 2525.009
327.6590, 2905.417
328.8640, 2878.793
330.0680, 2548.138
331.2730, 1968.458
332.4780, 1381.744
333.6820, 1000.027
334.8860, 628.3037
336.0900, 577.5488
337.2940, 330.7705
338.4980, 293.9551
339.7010, 219.1055
340.9050, 176.2256
342.1080, 14.69043
343.3110, 153.3447
344.5140, 200.3389
345.7170, 73.29004
346.9200, 3.200195
348.1220, 44.06250
349.3240, 164.8789
350.5270, 67.65234
351.7290, 57.37891
352.9310, 76.05957
354.1320, 42.30566
355.3340, 13.73340
356.5350, 41.21582
357.7370, 95.76172
358.9380, 68.20020
360.1390, 23.09570
361.3400, 30.86621
362.5400, 8.710938
363.7410, 66.38281
364.9410, 13.57910
366.1410, 32.62598
367.3410, 109.7705
368.5410, 50.06348
369.7410, 143.4609
370.9400, 46.03125
372.1400, 63.55859
373.3390, 4.713867
374.5380, 91.12109
375.7370, 213.0732
376.9360, 153.2363
378.1350, 11.46094
379.3330, 42.89160
380.5310, 38.67676
381.7300, 146.7969
382.9280, 39.60547
384.1260, 43.03809
385.3230, 28.23340
386.5210, 18.45312
387.7180, 30.61914
388.9160, 62.73242
390.1130, 59.20410
391.3100, 182.7637
392.5060, 230.6875
393.7030, 112.5654
394.9000, 238.3955
396.0960, 202.2031
397.2920, 199.4277
398.4880, 360.4629
399.6840, 320.4648
400.8800, 425.2832
402.0750, 590.9297
403.2710, 829.7480
404.4660, 887.3037
405.6610, 1322.841
406.8560, 1655.771
408.0510, 1538.890
409.2450, 1450.688
410.4400, 1195.490
411.6340, 1013.604
412.8280, 949.1426
414.0220, 1063.489
415.2160, 1130.428
416.4100, 1095.331
417.6030, 922.7041
418.7970, 605.6992
419.9900, 573.8613
421.1830, 350.3682
422.3760, 292.1787
423.5690, 131.8906
424.7610, 202.4961
425.9540, 161.1758
427.1460, 201.3516
428.3380, 98.19824
429.5300, 85.83594
430.7220, 39.43066
431.9140, 126.8027
433.1050, 7.113281
434.2970, 21.65820
435.4880, 92.47168
436.6790, 134.5342
437.8700, 178.5332
439.0610, 117.4668
440.2510, 80.33691
441.4420, 163.1377
442.6320, 188.8750
443.8220, 237.6055
445.0120, 348.2158
446.2020, 127.0127
447.3910, 254.6650
448.5810, 397.0322
449.7700, 432.7314
450.9600, 805.0586
452.1490, 980.6621
453.3370, 1104.565
454.5260, 1367.602
455.7150, 1465.441
456.9030, 1400.698
458.0910, 1174.512
459.2800, 1167.921
460.4670, 1082.294
461.6550, 972.9346
462.8430, 1105.183
464.0300, 1186.257
465.2180, 1157.068
466.4050, 1479.806
467.5920, 1628.762
468.7790, 2286.390
469.9650, 2551.023
471.1520, 3308.973
472.3380, 4373.549
473.5250, 5487.889
474.7110, 7152.338
475.8970, 9219.561
477.0820, 10999.99
478.2680, 12022.89
479.4540, 11494.73
480.6390, 10111.44
481.8240, 8367.438
483.0090, 6553.971
484.1940, 5065.318
485.3780, 3849.719
486.5630, 3033.141
487.7470, 2619.623
488.9320, 2244.910
490.1160, 2046.200
491.3000, 1942.769
492.4830, 1974.320
493.6670, 2125.609
494.8500, 2480.778
496.0340, 2951.201
497.2170, 3629.785
498.4000, 4284.039
499.5820, 5439.445
500.7650, 7021.307
501.9480, 9049.777
503.1300, 11942.96
504.3120, 14945.53
505.4940, 17786.38
506.6760, 19174.83
507.8580, 18567.14
509.0390, 16149.14
510.2210, 13282.18
511.4020, 10359.86
512.5830, 7798.567
513.7640, 6158.399
514.9450, 4580.909
516.1250, 3618.019
517.3060, 2989.823
518.4860, 2342.191
519.6660, 1993.669
520.8460, 1699.405
522.0260, 1478.366
523.2060, 1227.116
524.3850, 1150.578
525.5650, 891.4854
526.7440, 810.1611
527.9230, 827.6230
529.1020, 807.1963
530.2810, 785.6748
531.4590, 515.4248
532.6380, 683.4053
533.8160, 461.8613
534.9940, 417.4229
536.1720, 464.7266
537.3500, 429.9102
538.5270, 263.0820
539.7050, 297.6240
540.8820, 295.4717
542.0590, 329.7119
543.2360, 360.7500
544.4130, 70.63965
545.5900, 362.6328
546.7660, 117.2021
547.9430, 251.9902
549.1190, 200.5283
550.2950, 270.4766
551.4710, 43.44336
552.6470, 175.2168
553.8220, 301.7432
554.9980, 98.01953
556.1730, 184.3945
557.3480, 181.3447
558.5230, 62.07812
559.6980, 138.4072
560.8730, 87.74707
562.0470, 232.4951
563.2220, 148.1729
564.3960, 160.0840
565.5700, 171.3740
566.7440, 140.1025
567.9170, 246.1992
569.0910, 310.6914
570.2640, 350.0146
571.4380, 344.6484
572.6110, 518.3320
573.7840, 541.7803
574.9570, 729.8125
576.1290, 879.4521
577.3020, 898.1719
578.4740, 1013.326
579.6460, 1112.297
580.8180, 1004.587
581.9900, 669.0811
583.1620, 761.9912
584.3330, 361.4795
585.5040, 513.9023
586.6760, 316.5859
587.8470, 335.1758
589.0180, 149.3594
590.1880, 57.40137
591.3590, 132.4688
592.5290, 55.61328
593.7000, 207.6611
594.8700, 162.5918
596.0400, 8.531250
597.2090, 82.96094
598.3790, 175.7812
599.5490, 75.95508
600.7180, 35.61230
601.8870, 176.2607
603.0560, 36.66992
604.2250, 50.15527
605.3940, 93.19727
606.5620, 97.53027
607.7300, 42.61328
608.8990, 94.13770
610.0670, 79.46094
611.2350, 22.22266
612.4020, 64.14355
613.5700, 23.67871
614.7370, 64.69141
615.9050, 103.6426
617.0720, 92.10645
618.2390, 2.689453
619.4060, 37.34766
620.5720, 164.9004
621.7390, 80.08691
622.9050, 21.77246
624.0710, 130.2842
625.2370, 171.2764
626.4030, 291.2119
627.5690, 305.0889
628.7340, 205.9043
629.9000, 315.6592
631.0650, 363.3613
632.2300, 408.0078
633.3950, 459.5977
634.5600, 383.1484
635.7240, 302.6484
636.8890, 507.1113
638.0530, 464.5332
639.2170, 535.9121
640.3810, 441.9004
641.5450, 491.3770
642.7080, 548.9531
643.8720, 679.2695
645.0350, 782.5918
646.1980, 776.7832
647.3610, 835.8320
648.5240, 724.4004
649.6870, 645.0293
650.8490, 536.3691
652.0120, 389.7617
653.1740, 378.3223
654.3360, 374.7266
655.4980, 259.2520
656.6600, 304.3438
657.8210, 228.2070
658.9830, 121.4492
660.1440, 104.5977
661.3050, 183.3926
662.4660, 83.14844
663.6270, 15.16406
664.7870, 151.4961
665.9480, 164.0898
667.1080, 184.6406
668.2680, 70.13281
669.4280, 154.5625
670.5880, 155.9316
671.7480, 17.24023
672.9070, 103.5039
674.0670, 110.7051
675.2260, 44.85938
676.3850, 68.05078
677.5440, 128.9316
678.7030, 36.37891
679.8610, 92.92188
681.0200, 2.390625
682.1780, 36.92383
683.3360, 47.51172
684.4940, 27.08398
685.6520, 88.26367
686.8090, 36.61523
687.9670, 26.54492
689.1240, 34.01562
690.2810, 0.7050780
691.4380, 9.300781
692.5950, 28.46680
693.7520, 50.96680
694.9080, 30.77930
696.0650, 91.76367
697.2210, 4.109375
698.3770, 13.19727
699.5330, 7.138672
700.6880, 73.41602
701.8440, 44.32422
702.9990, 2.291016
704.1550, 109.0684
705.3100, 58.53711
706.4650, 150.5234
707.6190, 80.31250
708.7740, 25.82812
709.9290, 51.58789
711.0830, 2.990234
712.2370, 191.9609
713.3910, 14.47461
714.5450, 89.13281
715.6980, 273.1191
716.8520, 225.6035
718.0050, 297.9805
719.1580, 141.1250
720.3110, 241.1855
721.4640, 253.4590
722.6170, 412.9766
723.7700, 179.8770
724.9220, 212.7285
726.0740, 237.4590
727.2260, 208.0273
728.3780, 127.8984
729.5300, 128.4648
730.6810, 93.32812
731.8330, 104.8613
732.9840, 117.0195
734.1350, 99.54297
735.2860, 203.1777
736.4370, 93.28320
737.5880, 210.1562
738.7380, 106.6582
739.8880, 70.17969
741.0390, 111.9199
742.1890, 314.5684
743.3380, 164.8301
744.4880, 78.10547
745.6380, 411.5586
746.7870, 238.5332
747.9360, 53.75977
749.0850, 158.6328
750.2340, 362.0918
751.3830, 473.9707
752.5310, 703.9590
753.6800, 600.9961
754.8280, 494.7734
755.9760, 807.4746
757.1240, 1059.643
758.2720, 1568.416
759.4190, 1934.402
760.5670, 2337.719
761.7140, 2587.518
762.8610, 2792.633
764.0080, 2780.498
765.1550, 2836.715
766.3020, 2301.873
767.4480, 1795.703
768.5950, 1330.918
769.7410, 972.3730
770.8870, 859.6348
772.0330, 835.3105
773.1780, 529.4531
774.3240, 517.5234
775.4690, 373.1816
776.6140, 537.2676
777.7590, 209.2148
778.9040, 344.8535
780.0490, 330.9609
781.1940, 529.0293
782.3380, 369.0371
783.4820, 336.4629
784.6260, 222.5488
785.7700, 273.8184
786.9140, 247.7266
788.0580, 313.1484
789.2010, 290.8691
790.3450, 247.4453
791.4880, 273.7324
792.6310, 236.4316
793.7730, 326.6211
794.9160, 534.1406
796.0590, 286.0645
797.2010, 303.8633
798.3430, 566.4102
799.4850, 401.5332
800.6270, 569.4023
801.7690, 441.0078
802.9100, 640.0410
804.0520, 655.0664
805.1930, 641.1211
806.3340, 1151.914
807.4750, 1282.938
808.6160, 1662.186
809.7560, 1800.750
810.8970, 2524.734
812.0370, 3186.092
813.1770, 3751.113
814.3170, 3944.111
815.4570, 3955.475
816.5960, 3820.180
817.7360, 3366.932
818.8750, 2623.498
820.0140, 1974.100
821.1530, 1709.924
822.2920, 1282.328
823.4310, 952.0430
824.5690, 956.4141
825.7070, 565.9141
826.8460, 588.8867
827.9840, 617.7207
829.1220, 573.6250
830.2590, 540.0371
831.3970, 366.8184
832.5340, 478.7598
833.6710, 296.0078
834.8080, 411.3516
835.9450, 257.9785
837.0820, 365.4688
838.2190, 322.4336
839.3550, 450.1719
840.4910, 580.3066
841.6270, 88.26953
842.7630, 139.9590
843.8990, 73.97656
845.0350, 307.6387
846.1700, 189.0859
847.3060, 171.4902
848.4410, 78.34961
849.5760, 149.2500
850.7100, 99.14062
851.8450, 96.51172
852.9800, 113.4434
854.1140, 123.1426
855.2480, 44.08594
856.3820, 167.3027
857.5160, 100.8828
858.6500, 265.4570
859.7830, 7.562500
860.9170, 154.5586
862.0500, 107.7598
863.1830, 150.0059
864.3160, 114.0762
865.4480, 315.7578
866.5810, 303.3945
867.7130, 8.158203
868.8460, 180.2500
869.9780, 121.6719
871.1100, 110.9688
872.2410, 106.6523
873.3730, 236.8262
874.5050, 40.44141
875.6360, 125.6074
876.7670, 52.57227
877.8980, 348.6582
879.0290, 165.5488
880.1590, 193.7695
881.2900, 137.5840
882.4200, 42.52930
883.5500, 9.912109
884.6800, 19.62891
885.8100, 131.7402
886.9400, 7.175781
888.0690, 157.3652
889.1990, 28.86719
890.3280, 174.3145
891.4570, 31.74609
892.5860, 97.15039
893.7140, 172.5137
894.8430, 32.85742
895.9710, 53.84961
897.1000, 121.3691
898.2280, 55.55273
899.3560, 97.68555
900.4830, 118.5527
901.6110, 130.8125
902.7380, 94.80469
903.8660, 97.75000
904.9930, 72.65039
906.1200, 103.4980
907.2460, 35.70312
908.3730, 101.0098
909.5000, 48.32422
910.6260, 185.2754
911.7520, 66.82812
912.8780, 84.33398
914.0040, 121.8535
915.1290, 114.6406
916.2550, 270.3594
917.3800, 304.5254
918.5050, 130.8281
919.6300, 194.7383
920.7550, 133.1289
921.8800, 364.6953
923.0040, 52.11328
924.1290, 212.7617
925.2530, 245.2773
926.3770, 17.57422
927.5010, 165.9277
928.6250, 171.0859
929.7480, 25.58789
930.8720, 172.8027
931.9950, 79.04883
933.1180, 105.3379
934.2410, 48.88477
935.3640, 271.3926
936.4860, 250.0000
937.6090, 235.3184
938.7310, 288.7363
939.8530, 289.6914
940.9750, 136.0449
942.0970, 148.3652
943.2180, 79.65234
944.3400, 54.90430
945.4610, 57.12305
946.5820, 57.69141
947.7030, 327.4141
948.8240, 114.4922
949.9450, 296.5625
951.0650, 46.39648
952.1860, 37.57227
953.3060, 120.5059
954.4260, 335.4121
955.5460, 126.3066
956.6650, 334.1758
957.7850, 308.0195
958.9040, 362.7070
960.0230, 622.6309
961.1420, 625.4062
962.2610, 659.1680
963.3800, 972.9062
964.4990, 990.6309
965.6170, 1033.332
966.7350, 736.0117
967.8530, 773.6680
968.9710, 586.0703
970.0890, 455.6836
971.2070, 573.8984
972.3240, 660.4668
973.4410, 490.9180
974.5580, 772.4395
975.6750, 623.9453
976.7920, 1030.305
977.9090, 707.9219
979.0250, 702.0977
980.1410, 800.3809
981.2580, 845.1699
982.3740, 674.8691
983.4890, 621.0703
984.6050, 255.6465
985.7200, 399.0000
986.8360, 287.9609
987.9510, 333.3418
989.0660, 383.7480
990.1810, 243.3047
991.2950, 304.8652
992.4100, 115.1328
993.5240, 326.0742
994.6390, 271.4980
995.7530, 305.9453
996.8660, 284.1836
997.9800, 373.5879
999.0940, 254.8281
1000.207, 204.9004
1001.320, 358.9141
1002.433, 412.2188
1003.546, 438.1504
1004.659, 511.3750
1005.772, 313.5488
1006.884, 518.6914
1007.996, 444.3711
1009.108, 635.6895
1010.220, 709.8867
1011.332, 840.4590
1012.444, 849.5078
1013.555, 873.6621
1014.666, 806.1758
1015.777, 816.3867
1016.888, 780.5254
1017.999, 693.5469
1019.110, 578.4883
1020.220, 435.9375
1021.331, 244.1992
1022.441, 122.4609
1023.551, 304.4219
1024.661, 128.7383
1025.770, 241.7891
1026.880, 105.9688
1027.989, 347.9648
1029.098, 686.0508
1030.207, 339.4922
1031.316, 317.5586
1032.425, 439.1680
1033.533, 221.1289
1034.642, 551.1719
1035.750, 488.2656
1036.858, 567.2070
1037.966, 235.1523
1039.073, 465.9922
1040.181, 320.9609
1041.288, 351.4531
1042.396, 229.4062
1043.503, 290.5117
1044.610, 174.8203
1045.716, 323.6328
1046.823, 221.7148
1047.929, 27.83984
1049.036, 224.4297
1050.142, 174.9961
1051.248, 44.44922
1052.353, 181.8867
1053.459, 120.2266
1054.564, 226.3125
1055.670, 89.83984
1056.775, 12.50391
1057.880, 88.94531
1058.985, 66.46484
1060.089, 100.2109
1061.194, 209.4766
1062.298, 123.7734
1063.402, 32.12891
1064.506, 189.1680
1065.610, 69.08203
1066.713, 56.11719
1067.817, 120.8398
1068.920, 7.859375
1070.023, 169.8398
1071.126, 22.33984
1072.229, 11.16406
1073.332, 291.3281
1074.435, 336.5430
1075.537, 463.8164
1076.639, 280.8164
1077.741, 373.7266
1078.843, 224.6523
1079.945, 411.1797
1081.046, 317.4805
1082.148, 459.6797
1083.249, 507.1836
1084.350, 714.5312
1085.451, 689.3047
1086.551, 831.5859
1087.652, 981.5586
1088.752, 1087.891
1089.853, 835.4141
1090.953, 1016.945
1092.053, 870.4805
1093.152, 1103.020
1094.252, 1371.559
1095.351, 1734.109
1096.451, 1675.168
1097.550, 2092.176
1098.649, 2080.742
1099.748, 2164.309
1100.846, 1975.887
1101.945, 1947.148
1103.043, 1750.059
1104.141, 1649.652
1105.239, 1539.254
1106.337, 1232.867
1107.434, 1356.480
1108.532, 885.1055
1109.629, 1016.742
1110.726, 999.3867
1111.823, 1105.051
1112.920, 967.7188
1114.017, 863.3945
1115.113, 1069.082
1116.210, 892.7891
1117.306, 958.5000
1118.402, 802.2305
1119.498, 745.0078
1120.593, 927.7969
1121.689, 934.6016
1122.784, 617.4180
1123.879, 870.2539
1124.974, 674.1016
1126.069, 366.9570
1127.164, 384.8438
1128.259, 339.7461
1129.353, 226.6562
1130.447, 77.58594
1131.541, 270.5312
1132.635, 323.4766
1133.729, 231.4414
1134.822, 62.56250
1135.916, 370.4219
1137.009, 210.4258
1138.102, 19.44531
1139.195, 212.4766
1140.288, 72.52734
1141.380, 132.5938
1142.473, 71.67188
1143.565, 79.77734
1144.657, 235.8906
1145.749, 153.0234
1146.841, 268.1680
1147.932, 169.3320
1149.024, 291.5156
1150.115, 23.72656
1151.206, 256.9688
1152.297, 234.2734
1153.388, 143.6094
1154.479, 280.9609
1155.569, 185.3359
1156.659, 92.72656
1157.750, 6.843750
1158.839, 93.40234
1159.929, 260.1836
1161.019, 122.3555
1162.108, 231.1094
1163.198, 102.5898
1164.287, 304.0938
1165.376, 188.6133
1166.465, 195.1523
1167.553, 223.7109
1168.642, 87.28906
1169.730, 42.88672
1170.818, 69.50000
1171.906, 116.1445
1172.994, 381.8203
1174.082, 130.4805
1175.170, 202.2148
1176.257, 78.92578
1177.344, 37.33984
1178.431, 38.40625
1179.518, 32.21875
1180.605, 25.08984
1181.691, 12.03516
1182.778, 40.33984
1183.864, 17.57422
1184.950, 38.50781
1186.036, 242.4688
1187.122, 167.4414
1188.207, 46.44141
1189.292, 362.4609
1190.378, 283.5039
1191.463, 92.56641
1192.548, 419.6523
1193.632, 171.7617
1194.717, 283.3359
1195.801, 144.4922
1196.886, 311.6680
1197.970, 149.8711
1199.054, 294.1016
1200.137, 248.3516
1201.221, 229.6250
1202.305, 87.91406
1203.388, 280.6602
1204.471, 118.9922
1205.554, 369.4648
1206.637, 115.8516
1207.719, 159.2578
1208.802, 258.6836
1209.884, 216.1445
1210.966, 30.34375
1212.048, 132.1797
1213.130, 355.7266
1214.212, 70.29297
1215.293, 372.9023
1216.374, 333.5391
1217.456, 96.80469
1218.536, 309.8477
1219.617, 177.5195
1220.698, 204.2148
1221.778, 31.92969
1222.859, 347.6680
1223.939, 119.4336
1225.019, 177.2188
1226.099, 50.97266
1227.178, 20.16016
1228.258, 260.6797
1229.337, 163.5391
1230.417, 329.4219
1231.496, 202.3281
1232.574, 141.2539
1233.653, 363.2070
1234.732, 100.1797
1235.810, 292.1797
1236.888, 329.1992
1237.966, 281.2461
1239.044, 365.3086
1240.122, 421.3984
1241.199, 169.5117
1242.277, 352.6484
1243.354, 139.8086
1244.431, 119.9922
1245.508, 63.22656
1246.585, 152.4844
1247.661, 328.7656
1248.738, 326.0742
1249.814, 361.4062
1250.890, 101.7578
1251.966, 359.1328
1253.042, 322.5273
1254.117, 103.9531
1255.193, 196.3984
1256.268, 124.5469
1257.343, 137.2344
1258.418, 181.8828
1259.493, 232.4297
1260.567, 382.9961
1261.642, 448.5859
1262.716, 106.1992
1263.790, 287.8359
1264.864, 42.04297
1265.938, 147.5977
1267.011, 206.7266
1268.085, 344.1680
