##NAMES=Albite
##RRUFFID=R040129
##IDEAL CHEMISTRY=NaAlSi_3_O_8_
##LOCALITY=LaChance Quarry, Brunswick, Cumberland County, Maine, USA
##OWNER=RRUFF
##SOURCE=Bob Downs
##DESCRIPTION=Colorless fragment of a tabular single crystal
##STATUS=The identification of this mineral has been confirmed by X-ray diffraction and chemical analysis
##URL=rruff.info/R040129
##MEASURED CHEMISTRY=(Na_0.99_K_0.01_)Al_1.00_Si_3.00_O_8_
##PIN_ID=M00199
##ORIENTATION=Laser parallel to (0 -1 -1). Fiducial mark perpendicular to laser is parallel to a [1 0 0]
93.714, 0.000
95.115, 24.525
96.515, 73.229
97.916, 31.567
99.316, 19.918
100.715, 24.701
102.115, 43.852
103.514, 45.258
104.913, 199.673
106.312, 296.687
107.711, 544.194
109.109, 870.305
110.507, 1199.297
111.905, 1594.578
113.303, 1863.673
114.700, 1934.196
116.097, 1740.804
117.494, 1616.194
118.891, 1309.104
120.287, 1106.298
121.683, 1023.574
123.079, 1009.750
124.475, 968.669
125.870, 1032.191
127.265, 1050.192
128.660, 1039.565
130.055, 1222.244
131.449, 1208.203
132.843, 1318.386
134.237, 1425.699
135.631, 1589.056
137.024, 1844.371
138.417, 2292.569
139.810, 2687.599
141.203, 3342.406
142.596, 4021.936
143.988, 4766.136
145.380, 5063.967
146.771, 5425.387
148.163, 5237.364
149.554, 4959.866
150.945, 4711.868
152.336, 4846.344
153.726, 5290.270
155.117, 6224.630
156.507, 7399.401
157.896, 8834.568
159.286, 10270.111
160.675, 11646.019
162.064, 12272.274
163.453, 12368.974
164.842, 11676.203
166.230, 10694.151
167.618, 9942.845
169.006, 9432.227
170.393, 9461.943
171.781, 9311.840
173.168, 9581.913
174.555, 9542.160
175.941, 9872.575
177.328, 10543.127
178.714, 11413.650
180.100, 12564.278
181.485, 13775.080
182.871, 15196.104
184.256, 16067.343
185.641, 16428.746
187.025, 15970.244
188.410, 15021.844
189.794, 13283.504
191.178, 11525.232
192.562, 9557.035
193.945, 8228.914
195.328, 7060.874
196.711, 6132.917
198.094, 5565.052
199.476, 5327.279
200.859, 5419.597
202.241, 5742.012
203.623, 6444.522
205.004, 7557.133
206.385, 9019.838
207.766, 9812.643
209.147, 10625.543
210.528, 10438.544
211.908, 9601.641
213.288, 7964.831
214.668, 6088.119
216.048, 4751.500
217.427, 3421.973
218.806, 2659.537
220.185, 1967.192
221.564, 1605.934
222.942, 1233.764
224.320, 1026.679
225.698, 885.679
227.076, 823.761
228.453, 724.925
229.830, 598.170
231.207, 585.793
232.584, 495.038
233.960, 502.736
235.337, 423.495
236.713, 475.454
238.088, 515.465
239.464, 504.316
240.839, 443.918
242.214, 567.847
243.589, 762.302
244.964, 889.008
246.338, 1131.351
247.712, 1557.768
249.086, 2122.258
250.459, 2597.815
251.833, 3099.438
253.206, 3237.125
254.579, 2940.875
255.951, 2389.687
257.324, 1887.557
258.696, 1397.472
260.068, 1220.605
261.439, 1146.875
262.811, 955.520
264.182, 1007.112
265.553, 1107.713
266.924, 1166.781
268.294, 1340.812
269.665, 1473.981
271.035, 1611.309
272.404, 1684.617
273.774, 1940.720
275.143, 2092.081
276.512, 2296.751
277.881, 2612.812
279.250, 3242.021
280.618, 4190.836
281.986, 5555.023
283.354, 7428.179
284.721, 10241.528
286.089, 14215.301
287.456, 18819.471
288.823, 23553.346
290.190, 27477.381
291.556, 29571.557
292.922, 28635.881
294.288, 24590.336
295.654, 20034.926
297.019, 14969.634
298.385, 10964.459
299.750, 8049.394
301.114, 5914.443
302.479, 4359.589
303.843, 3304.835
305.207, 2666.173
306.571, 2315.603
307.935, 1923.118
309.298, 1657.717
310.661, 1596.396
312.024, 1403.153
313.387, 1199.984
314.749, 1124.889
316.111, 1004.862
317.473, 978.904
318.835, 1132.012
320.196, 1274.182
321.558, 1419.415
322.919, 1914.706
324.279, 2633.055
325.640, 3819.461
327.000, 5235.920
328.360, 6542.431
329.720, 7168.992
331.080, 6975.599
332.439, 6002.249
333.798, 4498.937
335.157, 3295.663
336.516, 2447.426
337.874, 1649.224
339.232, 1267.058
340.590, 906.925
341.948, 793.826
343.305, 664.760
344.662, 656.728
346.019, 606.728
347.376, 683.759
348.733, 661.819
350.089, 625.911
351.445, 575.032
352.801, 502.181
354.156, 383.359
355.512, 325.564
356.867, 206.799
358.222, 262.061
359.576, 150.354
360.931, 125.674
362.285, 69.023
363.639, 36.401
364.992, 5.214
366.346, 34.765
367.699, 55.290
369.052, 82.798
370.405, 36.294
371.757, 26.773
373.110, 65.231
374.462, 90.668
375.814, 92.093
377.165, 98.504
378.516, 88.902
379.868, 166.290
381.218, 138.682
382.569, 77.076
383.920, 151.470
385.270, 54.850
386.620, 108.222
387.969, 136.564
389.319, 105.913
390.668, 18.266
392.017, 72.406
393.366, 56.895
394.714, 140.829
396.063, 211.541
397.411, 410.260
398.759, 512.957
400.106, 621.674
401.454, 671.348
402.801, 598.982
404.148, 641.587
405.495, 590.145
406.841, 783.692
408.187, 737.237
409.533, 692.798
410.879, 520.372
412.224, 467.959
413.570, 365.566
414.915, 243.185
416.260, 179.816
417.604, 103.884
418.949, 55.452
420.293, 10.777
421.637, 13.558
422.980, 21.866
424.324, 67.149
425.667, 73.376
427.010, 111.726
428.353, 101.440
429.695, 99.378
431.037, 110.746
432.379, 95.604
433.721, 87.576
435.063, 67.061
436.404, 46.558
437.745, 9.071
439.086, 33.413
440.427, 44.090
441.767, 68.386
443.108, 24.879
444.448, 117.378
445.787, 110.896
447.127, 65.431
448.466, 56.131
449.805, 257.688
451.144, 240.259
452.482, 564.844
453.821, 591.442
455.159, 807.052
456.497, 858.687
457.834, 954.319
459.172, 1058.961
460.509, 1133.612
461.846, 995.272
463.183, 1057.941
464.519, 1147.618
465.856, 1162.302
467.192, 1428.991
468.527, 1867.688
469.863, 2355.390
471.198, 3023.098
472.534, 4130.809
473.868, 5618.525
475.203, 7806.246
476.538, 11053.970
477.872, 14091.696
479.206, 16749.428
480.540, 17387.160
481.873, 16034.893
483.206, 13432.629
484.539, 10480.365
485.872, 7868.104
487.205, 6395.841
488.537, 4973.581
489.869, 4071.320
491.201, 3729.059
492.533, 3346.797
493.864, 3374.533
495.196, 3812.270
496.527, 4250.006
497.857, 4937.736
499.188, 6165.471
500.518, 8163.199
501.848, 10970.926
503.178, 15308.650
504.508, 21336.369
505.837, 28274.086
507.166, 34781.793
508.495, 38379.523
509.824, 36987.223
511.153, 32575.129
512.481, 25662.834
513.809, 19200.531
515.137, 14428.338
516.464, 10676.166
517.792, 8224.092
519.119, 6452.675
520.446, 4990.586
521.772, 4118.963
523.099, 3527.387
524.425, 2845.041
525.751, 2533.922
527.077, 2266.576
528.402, 2002.759
529.728, 1728.375
531.053, 1515.310
532.377, 1523.131
533.702, 1300.900
535.027, 1296.646
536.351, 1053.213
537.675, 969.188
538.998, 855.156
540.322, 947.299
541.645, 780.422
542.968, 784.431
544.291, 649.521
545.613, 605.347
546.936, 587.224
548.258, 418.876
549.580, 724.120
550.902, 566.217
552.223, 542.426
553.544, 432.707
554.865, 521.952
556.186, 507.060
557.507, 472.524
558.827, 368.989
560.147, 452.744
561.467, 344.190
562.786, 406.653
564.106, 454.078
565.425, 304.012
566.744, 477.415
568.063, 495.494
569.381, 496.881
570.700, 455.356
572.018, 558.776
573.335, 750.539
574.653, 778.161
575.970, 975.504
577.288, 1162.841
578.604, 1270.679
579.921, 1352.012
581.238, 1372.145
582.554, 1337.245
583.870, 1119.299
585.186, 910.934
586.501, 751.300
587.817, 691.256
589.132, 451.270
590.447, 470.743
591.761, 260.845
593.076, 241.338
594.390, 202.878
595.704, 195.465
597.018, 230.023
598.331, 224.074
599.645, 220.419
600.958, 236.125
602.271, 202.106
603.583, 159.321
604.896, 136.525
606.208, 93.478
607.520, 150.197
608.832, 207.368
610.143, 214.529
611.455, 141.678
612.766, 248.817
614.077, 115.943
615.387, 203.061
616.698, 300.166
618.008, 257.261
619.318, 204.345
620.628, 171.418
621.937, 308.479
623.247, 275.526
624.556, 362.563
625.865, 529.589
627.173, 636.602
628.482, 653.604
629.790, 900.593
631.098, 1117.569
632.405, 1184.534
633.713, 1401.487
635.020, 1308.427
636.327, 1335.354
637.634, 1222.271
638.941, 1129.172
640.247, 1176.062
641.553, 1162.939
642.859, 1199.803
644.165, 1306.656
645.471, 1523.494
646.776, 1550.321
648.081, 1637.134
649.386, 1573.934
650.691, 1390.721
651.995, 1057.495
653.299, 934.256
654.603, 741.004
655.907, 657.738
657.210, 484.460
658.514, 271.169
659.817, 337.864
661.120, 384.545
662.422, 281.214
663.725, 275.259
665.027, 244.512
666.329, 191.140
667.630, 97.756
668.932, 194.354
670.233, 200.941
671.534, 107.515
672.835, 104.073
674.136, 93.717
675.436, 50.453
676.737, 93.649
678.036, 60.139
679.336, 56.608
680.636, 173.058
681.935, 29.494
683.234, 54.095
684.533, 82.256
685.832, 38.600
687.130, 74.936
688.428, 41.260
689.726, 2.433
691.024, 10.878
692.322, 6.324
693.619, 3.637
694.916, 2.591
696.213, 1.153
697.510, 5.056
698.806, 121.264
700.102, 72.527
701.398, 43.643
702.694, 100.195
703.990, 5.901
705.285, 31.999
706.580, 21.903
707.875, 5.845
709.170, 87.769
710.464, 48.185
711.758, 14.387
713.052, 130.291
714.346, 153.816
715.640, 24.432
716.933, 200.183
718.226, 5.920
719.519, 161.626
720.812, 2.682
722.105, 192.975
723.397, 48.924
724.689, 174.548
725.981, 102.192
727.272, 17.799
728.564, 153.371
729.855, 79.157
731.146, 144.817
732.437, 141.216
733.727, 56.735
735.017, 114.530
736.308, 110.026
737.597, 55.765
738.887, 171.255
740.176, 126.757
741.466, 32.273
742.755, 189.088
744.043, 189.592
745.332, 102.174
746.620, 217.767
747.908, 189.208
749.196, 184.836
750.484, 260.479
751.771, 276.130
753.059, 341.782
754.346, 427.427
755.633, 514.579
756.919, 538.721
758.206, 784.357
759.492, 909.980
760.778, 1135.593
762.063, 1461.041
763.349, 1826.633
764.634, 1882.213
765.919, 1757.781
767.204, 1633.338
768.489, 1338.884
769.773, 1064.403
771.057, 999.924
772.341, 935.866
773.625, 781.365
774.909, 886.853
776.192, 782.329
777.475, 837.793
778.758, 823.247
780.041, 558.689
781.323, 494.122
782.605, 349.542
783.887, 504.951
785.169, 390.351
786.451, 435.739
787.732, 351.163
789.013, 316.531
790.294, 261.889
791.575, 367.235
792.856, 242.572
794.136, 267.899
795.416, 373.216
796.696, 208.523
797.976, 403.822
799.255, 349.109
800.534, 404.387
801.813, 459.655
803.092, 475.565
804.371, 590.164
805.649, 595.406
806.927, 790.637
808.205, 915.860
809.483, 1211.074
810.760, 1676.278
812.037, 2151.476
813.315, 2806.663
814.591, 3501.842
815.868, 3587.014
817.144, 3712.177
818.421, 3237.331
819.697, 2632.479
820.972, 1967.616
822.248, 1512.547
823.523, 1187.670
824.798, 1002.786
826.073, 737.781
827.348, 692.738
828.623, 587.590
829.897, 551.770
831.171, 556.612
832.445, 360.976
833.718, 435.278
834.992, 240.338
836.265, 394.026
837.538, 253.112
838.811, 197.792
840.083, 321.730
841.356, 266.316
842.628, 190.320
843.900, 242.680
845.171, 165.789
846.443, 177.916
847.714, 80.218
848.985, 32.919
850.256, 115.394
851.527, 108.259
852.797, 213.244
854.067, 201.259
855.337, 85.361
856.607, 71.655
857.876, 44.606
859.146, 148.479
860.415, 129.714
861.684, 38.033
862.953, 109.003
864.221, 6.811
865.489, 136.499
866.757, 31.442
868.025, 55.626
869.293, 127.995
870.560, 12.914
871.828, 135.808
873.095, 30.730
874.361, 113.136
875.628, 11.939
876.894, 132.301
878.160, 52.773
879.426, 2.061
880.692, 145.541
881.958, 9.528
883.223, 4.867
884.488, 29.938
885.753, 34.987
887.018, 60.598
888.282, 104.288
889.546, 10.839
890.810, 53.552
892.074, 138.469
893.338, 23.392
894.601, 42.581
895.864, 107.664
897.127, 140.997
898.390, 51.910
899.652, 123.268
900.915, 21.508
902.177, 136.287
903.439, 21.071
904.700, 235.858
905.962, 60.649
907.223, 85.443
908.484, 100.241
909.745, 145.049
911.006, 169.859
912.266, 44.674
913.526, 199.492
914.786, 44.316
916.046, 179.144
917.306, 43.976
918.565, 108.813
919.824, 53.656
921.083, 158.503
922.342, 133.354
923.600, 21.789
924.859, 113.069
926.117, 77.931
927.375, 162.798
928.632, 47.672
929.890, 132.551
931.147, 37.435
932.404, 92.325
933.661, 27.222
934.918, 162.125
936.174, 87.033
937.430, 161.948
938.686, 3.130
939.942, 121.797
941.198, 116.731
942.453, 171.673
943.708, 146.621
944.963, 162.767
946.218, 66.538
947.472, 191.508
948.727, 146.484
949.981, 211.470
951.235, 126.462
952.488, 131.461
953.742, 266.469
954.995, 161.484
956.248, 96.508
957.501, 251.540
958.754, 126.580
960.006, 261.628
961.258, 26.685
962.510, 241.750
963.762, 36.823
965.014, 121.905
966.265, 196.995
967.516, 122.095
968.767, 277.202
970.018, 282.319
971.269, 317.445
972.519, 452.580
973.769, 417.726
975.019, 542.879
976.269, 638.042
977.518, 673.216
978.767, 688.399
980.017, 753.596
981.265, 438.807
982.514, 594.029
983.762, 329.264
985.011, 554.517
986.259, 239.779
987.507, 215.058
988.754, 260.376
990.002, 205.704
991.249, 241.053
992.496, 196.414
993.743, 121.793
994.989, 257.195
996.236, 112.620
997.482, 278.119
998.728, 233.644
999.974, 159.145
1001.219, 354.740
1002.464, 410.357
1003.710, 265.987
1004.954, 251.658
1006.199, 217.346
1007.444, 323.085
1008.688, 458.892
1009.932, 324.713
1011.176, 430.568
1012.420, 314.394
1013.663, 520.318
1014.906, 505.999
1016.149, 541.968
1017.392, 478.011
1018.635, 541.642
1019.877, 517.767
1021.120, 483.936
1022.362, 710.125
1023.603, 726.337
1024.845, 1092.576
1026.086, 1158.520
1027.328, 1314.787
1028.569, 1882.823
1029.809, 1989.104
1031.050, 2535.414
1032.290, 2691.523
1033.530, 2607.741
1034.770, 2473.264
1036.010, 1839.664
1037.250, 1713.795
1038.489, 1400.251
1039.728, 1006.473
1040.967, 1052.972
1042.206, 699.870
1043.444, 806.390
1044.683, 781.641
1045.921, 483.235
1047.159, 612.783
1048.396, 459.358
1049.634, 430.114
1050.871, 506.712
1052.108, 293.521
1053.345, 330.143
1054.582, 206.891
1055.818, 323.543
1057.054, 460.204
1058.290, 207.809
1059.526, 354.496
1060.762, 271.195
1061.997, 237.909
1063.232, 294.633
1064.467, 221.454
1065.702, 238.202
1066.937, 324.959
1068.171, 231.733
1069.405, 268.518
1070.639, 335.312
1071.873, 222.117
1073.107, 378.500
1074.340, 335.324
1075.573, 402.212
1076.806, 419.062
1078.039, 375.926
1079.272, 422.822
1080.504, 449.732
1081.736, 516.664
1082.968, 683.604
1084.200, 560.559
1085.431, 727.541
1086.663, 824.533
1087.894, 1061.493
1089.125, 1108.527
1090.355, 1405.572
1091.586, 1452.633
1092.816, 2099.704
1094.046, 2186.783
1095.276, 2733.873
1096.506, 3240.974
1097.735, 3488.081
1098.965, 3636.020
1100.194, 3822.325
1101.423, 3469.458
1102.651, 3306.601
1103.880, 2883.750
1105.108, 2751.113
1106.336, 2478.280
1107.564, 2325.455
1108.792, 2292.637
1110.019, 1969.827
1111.246, 2097.025
1112.473, 2164.231
1113.700, 2031.444
1114.927, 2218.666
1116.153, 1995.894
1117.380, 1853.334
1118.606, 1880.579
1119.831, 1497.832
1121.057, 1355.090
1122.283, 1372.355
1123.508, 1069.627
1124.733, 1046.904
1125.958, 574.188
1127.182, 651.683
1128.407, 449.463
1129.631, 386.760
1130.855, 424.062
1132.079, 332.426
1133.302, 199.736
1134.526, 417.223
1135.749, 124.988
1136.972, 362.314
1138.195, 250.802
1139.417, 318.309
1140.640, 135.799
1141.862, 174.022
1143.084, 292.031
1144.305, 311.223
1145.527, 398.771
1146.748, 136.115
1147.970, 240.559
1149.191, 187.903
1150.411, 235.632
1151.632, 353.299
1152.852, 181.031
1154.072, 199.440
1155.292, 257.632
1156.512, 144.973
1157.732, 273.885
1158.951, 21.478
1160.170, 399.144
1161.389, 88.344
1162.608, 85.803
1163.826, 18.174
1165.045, 135.882
1166.263, 93.776
1167.481, 99.015
1168.699, 16.415
1169.916, 166.056
1171.134, 44.622
1172.351, 71.929
1173.568, 140.321
1174.784, 92.266
1176.001, 174.998
1177.217, 183.016
1178.433, 10.377
1179.649, 47.758
1180.865, 115.681
1182.081, 42.911
1183.296, 162.781
1184.511, 134.913
1185.726, 172.268
1186.941, 303.888
1188.155, 8.680
1189.370, 108.500
1190.584, 116.045
1191.798, 143.486
1193.011, 200.885
1194.225, 59.125
1195.438, 96.418
1196.651, 404.004
1197.864, 11.271
1199.077, 228.635
1200.290, 37.703
1201.502, 204.889
1202.714, 162.029
1203.926, 19.771
1205.138, 227.336
1206.349, 244.740
1207.561, 182.773
1208.772, 159.840
1209.983, 56.895
1211.194, 154.703
1212.404, 301.730
1213.614, 90.369
1214.825, 217.369
1216.034, 344.430
1217.244, 111.631
1218.454, 238.586
1219.663, 225.693
1220.872, 84.295
1222.081, 411.213
1223.290, 268.623
1224.498, 151.395
1225.707, 328.816
1226.915, 368.580
1228.123, 305.709
1229.331, 273.264
1230.538, 224.875
1231.746, 227.713
1232.953, 206.166
1234.160, 281.223
1235.366, 208.084
1236.573, 286.582
1237.779, 303.814
1238.986, 290.596
1240.192, 348.029
1241.397, 254.797
1242.603, 151.639
1243.808, 148.623
1245.013, 195.371
1246.218, 162.107
1247.423, 208.979
1248.628, 425.699
1249.832, 102.414
1251.036, 359.115
1252.240, 185.807
1253.444, 162.676
1254.648, 269.344
1255.851, 266.000
1257.054, 172.639
1258.257, 309.266
1259.460, 266.074
1260.663, 502.609
1261.865, 119.096
1263.067, 236.576
1264.269, 363.025
1265.471, 199.402
1266.673, 176.084
1267.874, 372.412
1269.075, 208.703
1270.276, 304.910
1271.477, 131.053
1272.678, 67.203
1273.878, 233.283
1275.078, 209.348
1276.278, 15.615
1277.478, 221.568
1278.678, 147.486
1279.877, 84.443
1281.077, 260.260
1282.276, 16.248
1283.475, 152.201
1284.673, 157.943
1285.872, 33.746
1287.070, 59.428
1288.268, 154.914
1289.466, 150.850
1290.664, 246.402
1291.861, 78.066
1293.058, 217.410
1294.255, 112.850
1295.452, 128.268
1296.649, 113.662
1297.846, 29.020
1299.042, 135.703
1300.238, 239.479
1301.434, 14.629
1302.630, 149.701
1303.825, 134.697
1305.020, 9.650
1306.216, 184.561
1307.411, 200.564
1308.605, 124.219
1309.800, 88.967
1310.994, 86.320
1312.188, 198.469
1313.382, 3.082
1314.576, 27.652
1315.770, 272.180
1316.963, 36.676
1318.156, 191.117
1319.349, 231.738
1320.542, 66.109
1321.735, 190.443
1322.927, 184.729
1324.119, 131.004
1325.311, 303.186
1326.503, 2.674
1327.695, 38.578
1328.886, 185.465
1330.077, 30.527
1331.268, 163.426
1332.459, 246.955
1333.650, 130.844
1334.840, 154.695
1336.030, 169.473
1337.220, 43.256
1338.410, 197.006
1339.600, 130.727
1340.789, 204.416
1341.979, 178.104
1343.168, 11.734
1344.357, 215.219
1345.545, 308.787
1346.734, 42.326
1347.922, 344.912
1349.110, 148.398
1350.298, 51.861
1351.486, 275.297
1352.674, 308.717
1353.861, 72.027
1355.048, 375.371
1356.235, 18.699
1357.422, 411.996
1358.608, 205.275
1359.795, 168.545
1360.981, 341.805
1362.167, 185.053
1363.353, 18.297
1364.538, 381.496
1365.724, 104.746
1366.909, 51.988
1368.094, 102.994
1369.279, 3.695
1370.463, 159.086
1371.648, 81.381
1372.832, 32.996
1374.016, 202.580
1375.200, 88.082
1376.384, 36.457
1377.567, 218.973
1378.750, 24.373
1379.933, 129.742
1381.116, 385.084
1382.299, 100.176
1383.481, 515.459
1384.664, 220.711
1385.846, 185.936
1387.028, 391.129
1388.210, 276.061
1389.391, 211.184
1390.572, 466.277
1391.754, 261.342
1392.935, 356.139
1394.115, 410.570
1395.296, 204.283
1396.476, 449.020
1397.656, 343.385
1398.837, 326.613
1400.016, 430.148
1401.196, 179.119
1402.375, 313.469
1403.555, 428.887
1404.734, 62.432
1405.912, 414.943
1407.091, 294.846
1408.270, 146.580
1409.448, 267.750
1410.626, 190.908
1411.804, 393.432
1412.982, 255.934
1414.159, 184.455
1415.336, 386.422
1416.514, 309.775
1417.690, 142.002
1418.867, 229.215
1420.044, 338.439
1421.220, 3.832
1422.396, 419.619
1423.572, 121.959
1424.748, 124.061
1425.924, 265.049
1427.099, 147.090
1428.274, 346.354
1429.449, 468.979
1430.624, 119.795
1431.799, 540.203
1432.973, 232.750
1434.147, 163.889
1435.322, 253.389
1436.495, 195.213
1437.669, 267.260
1438.843, 526.373
1440.016, 236.166
1441.189, 211.322
1442.362, 661.096
1443.535, 182.748
1444.707, 182.037
1445.880, 479.285
1447.052, 199.078
1448.224, 498.186
1449.396, 197.830
1450.567, 247.971
1451.739, 517.586
1452.910, 77.314
1454.081, 376.387
1455.252, 435.709
1456.422, 304.844
1457.593, 453.422
1458.763, 359.982
1459.933, 239.113
1461.103, 467.371
1462.273, 356.639
1463.442, 236.100
1464.611, 515.594
1465.781, 264.445
1466.949, 440.797
1468.118, 599.963
1469.287, 219.004
1470.455, 418.258
1471.623, 497.033
1472.791, 246.322
1473.959, 275.498
1475.127, 594.529
1476.294, 26.344
1477.461, 563.078
1478.628, 172.953
1479.795, 293.117
1480.962, 453.332
1482.128, 13.562
1483.295, 413.160
1484.461, 503.492
1485.627, 214.002
1486.792, 384.713
1487.958, 295.568
1489.123, 256.566
1490.288, 317.914
1491.453, 259.494
1492.618, 281.363
1493.783, 593.555
1494.947, 88.215
1496.111, 230.570
1497.275, 361.084
1498.439, 123.961
1499.603, 327.215
1500.766, 340.879
1501.930, 174.977
1503.093, 479.504
1504.256, 95.775
1505.418, 263.475
1506.581, 532.725
1507.743, 5.736
1508.905, 238.602
1510.067, 220.695
1511.229, 0.000
##END=

