##NAMES=Albite
##RRUFFID=R050253
##IDEAL CHEMISTRY=NaAlSi_3_O_8_
##LOCALITY=Madawaska/Faraday mine, Bancroft, Ontario, Canada
##OWNER=RRUFF
##SOURCE=Marcus Origlieri
##DESCRIPTION=Colorless to brown prismatic single crystals
##STATUS=The identification of this mineral has been confirmed by X-ray diffraction and chemical analysis
##URL=rruff.info/R050253
##MEASURED CHEMISTRY=(Na_0.99_Ca_0.01_)Al_1.00_(Si_0.99_Al_0.01_)_3_O_8_
##PIN_ID=L01398
##ORIENTATION=Laser parallel to a* (1 0 0). Fiducial mark perpendicular to laser is parallel to b [0 1 0]
87.30800, 0.0000000E+00
88.54200, 987.5654
89.77700, 9.416992
91.01200, 27.71777
92.24600, 212.6357
93.48000, 6.512695
94.71400, 13.88477
95.94800, 80.48242
97.18200, 125.5928
98.41600, 354.9180
99.64900, 601.4316
100.8830, 985.6670
102.1160, 1512.861
103.3490, 2059.538
104.5820, 2862.867
105.8150, 3713.478
107.0470, 4986.073
108.2800, 5958.383
109.5120, 7502.153
110.7440, 7937.160
111.9760, 6460.201
113.2080, 4816.104
114.4400, 3937.713
115.6710, 3010.893
116.9030, 2667.524
118.1340, 1899.498
119.3650, 1354.719
120.5960, 734.0986
121.8270, 658.5811
123.0580, 657.1885
124.2880, 767.9229
125.5190, 471.7148
126.7490, 347.4668
127.9790, 238.0820
129.2090, 582.4844
130.4390, 555.6094
131.6680, 775.4023
132.8980, 928.8164
134.1270, 1102.809
135.3560, 1275.347
136.5850, 1759.396
137.8140, 2369.930
139.0430, 2758.937
140.2710, 3260.398
141.5000, 3881.290
142.7280, 4475.591
143.9560, 4732.281
145.1840, 5201.341
146.4120, 5262.754
147.6390, 5898.502
148.8670, 6422.573
150.0940, 6713.949
151.3210, 7251.621
152.5490, 8365.572
153.7750, 9066.795
155.0020, 9710.439
156.2290, 10265.89
157.4550, 11042.51
158.6810, 11479.92
159.9080, 12214.06
161.1340, 12309.76
162.3590, 11962.40
163.5850, 11460.97
164.8110, 10955.56
166.0360, 10477.06
167.2610, 10510.51
168.4860, 10225.92
169.7110, 10112.33
170.9360, 9563.736
172.1610, 9217.163
173.3850, 9084.610
174.6100, 9363.100
175.8340, 9899.636
177.0580, 10585.22
178.2820, 10936.86
179.5050, 11431.56
180.7290, 11627.32
181.9520, 11861.15
183.1760, 11573.05
184.3990, 11299.01
185.6220, 10533.05
186.8450, 9971.150
188.0670, 8900.539
189.2900, 8086.122
190.5120, 7502.826
191.7340, 6934.645
192.9560, 6449.525
194.1780, 6245.469
195.4000, 6295.475
196.6220, 6344.544
197.8430, 6637.670
199.0640, 7225.855
200.2860, 7764.096
201.5070, 8676.392
202.7270, 9541.745
203.9480, 9717.150
205.1690, 9669.607
206.3890, 9300.121
207.6090, 8582.682
208.8290, 7448.293
210.0490, 6283.953
211.2690, 4760.662
212.4890, 3767.418
213.7080, 3051.219
214.9280, 2269.065
216.1470, 1955.957
217.3660, 1509.891
218.5850, 1309.868
219.8030, 1049.886
221.0220, 739.1836
222.2400, 801.0049
223.4590, 678.2949
224.6770, 565.0127
225.8950, 602.3096
227.1120, 503.8672
228.3300, 382.5273
229.5480, 250.4365
230.7650, 225.5078
231.9820, 253.7285
233.1990, 297.9365
234.4160, 454.1602
235.6330, 542.5869
236.8490, 721.7168
238.0660, 1015.788
239.2820, 916.7021
240.4980, 1426.607
241.7140, 1869.411
242.9300, 2357.645
244.1460, 3190.264
245.3610, 3608.234
246.5770, 4114.527
247.7920, 4835.117
249.0070, 5165.980
250.2220, 5182.098
251.4370, 4658.452
252.6510, 3864.027
253.8660, 3102.808
255.0800, 2451.782
256.2940, 2150.938
257.5080, 1816.264
258.7220, 1834.752
259.9360, 2425.391
261.1490, 2992.172
262.3630, 2829.093
263.5760, 2826.141
264.7890, 2969.312
266.0020, 3503.599
267.2150, 3718.998
268.4270, 3718.504
269.6400, 3778.107
270.8520, 3389.811
272.0640, 3395.602
273.2760, 3620.479
274.4880, 3803.439
275.7000, 4177.477
276.9120, 4945.586
278.1230, 6326.770
279.3340, 7895.020
280.5450, 10328.33
281.7560, 12860.72
282.9670, 15394.16
284.1780, 17733.65
285.3880, 19894.21
286.5980, 22105.44
287.8090, 23182.10
289.0190, 23000.11
290.2290, 21240.23
291.4380, 18237.26
292.6480, 14828.68
293.8570, 12191.76
295.0670, 9898.692
296.2760, 7735.654
297.4850, 6252.650
298.6930, 4975.682
299.9020, 3919.831
301.1110, 3251.930
302.3190, 2660.053
303.5270, 2304.201
304.7350, 2001.367
305.9430, 1733.549
307.1510, 1554.743
308.3580, 1574.950
309.5660, 1428.172
310.7730, 1309.406
311.9800, 1345.654
313.1870, 1203.916
314.3940, 1353.192
315.6010, 1371.481
316.8070, 1550.785
318.0130, 1915.104
319.2200, 2781.435
320.4260, 3695.779
321.6310, 4484.138
322.8370, 5103.510
324.0430, 6078.894
325.2480, 6817.291
326.4540, 7338.701
327.6590, 6812.122
328.8640, 5701.556
330.0680, 4471.000
331.2730, 3316.455
332.4780, 2607.922
333.6820, 1966.396
334.8860, 1458.878
336.0900, 1038.369
337.2940, 932.8662
338.4980, 709.3691
339.7010, 649.8789
340.9050, 364.3945
342.1080, 240.9150
343.3110, 248.4404
344.5140, 277.9717
345.7170, 166.5068
346.9200, 173.0469
348.1220, 200.5908
349.3240, 228.1367
350.5270, 85.68555
351.7290, 150.2383
352.9310, 52.20508
354.1320, 55.66309
355.3340, 86.05469
356.5350, 29.62891
357.7370, 148.1328
358.9380, 178.5039
360.1390, 240.3701
361.3400, 372.9062
362.5400, 179.6504
363.7410, 156.4395
364.9410, 2.273438
366.1410, 247.1328
367.3410, 119.0996
368.5410, 173.1562
369.7410, 4.375000
370.9400, 224.7539
372.1400, 78.24609
373.3390, 58.86719
374.5380, 160.5645
375.7370, 264.3945
376.9360, 53.36328
378.1350, 14.44336
379.3330, 7.943359
380.5310, 124.5898
381.7300, 17.68750
382.9280, 14.23047
384.1260, 104.8359
385.3230, 180.0547
386.5210, 298.9727
387.7180, 290.9121
388.9160, 472.8730
390.1130, 689.8555
391.3100, 700.8555
392.5060, 921.8711
393.7030, 1146.902
394.9000, 1290.947
396.0960, 1672.008
397.2920, 2220.078
398.4880, 2389.160
399.6840, 2747.254
400.8800, 3222.357
402.0750, 3497.510
403.2710, 4126.668
404.4660, 4685.838
405.6610, 4985.014
406.8560, 5040.199
408.0510, 4497.387
409.2450, 3939.582
410.4400, 3535.779
411.6340, 3310.012
412.8280, 3205.268
414.0220, 3061.523
415.2160, 2731.795
416.4100, 2262.084
417.6030, 1739.395
418.7970, 1305.703
419.9900, 991.3457
421.1830, 709.3281
422.3760, 479.6406
423.5690, 383.9746
424.7610, 215.3496
425.9540, 204.7227
427.1460, 155.0957
428.3380, 117.4648
429.5300, 143.1641
430.7220, 97.90234
431.9140, 44.27539
433.1050, 68.56250
434.2970, 84.52930
435.4880, 69.61328
436.6790, 4.687500
437.8700, 104.7246
439.0610, 173.7539
440.2510, 171.7832
441.4420, 179.8125
442.6320, 100.8340
443.8220, 115.8477
445.0120, 143.8594
446.2020, 296.8633
447.3910, 353.8652
448.5810, 369.8633
449.7700, 471.8535
450.9600, 781.8438
452.1490, 787.8945
453.3370, 975.9238
454.5260, 985.9512
455.7150, 944.9863
456.9030, 1152.020
458.0910, 965.0469
459.2800, 1180.080
460.4670, 1194.107
461.6550, 1461.133
462.8430, 1554.152
464.0300, 2176.213
465.2180, 2475.318
466.4050, 3364.418
467.5920, 3993.512
468.7790, 5575.600
469.9650, 7247.680
471.1520, 9270.758
472.3380, 11431.83
473.5250, 13094.90
474.7110, 14466.96
475.8970, 15968.01
477.0820, 16368.06
478.2680, 14901.10
479.4540, 13128.14
480.6390, 10679.17
481.8240, 8625.193
483.0090, 7546.215
484.1940, 6048.229
485.3780, 5226.238
486.5630, 4843.238
487.7470, 4161.236
488.9320, 4229.225
490.1160, 4253.211
491.3000, 4548.188
492.4830, 5183.162
493.6670, 5997.127
494.8500, 7248.090
496.0340, 9087.078
497.2170, 11681.80
498.4000, 15320.88
499.5820, 19065.74
500.7650, 23440.24
501.9480, 27570.91
503.1300, 30865.85
504.3120, 33960.61
505.4940, 33982.89
506.6760, 31619.43
507.8580, 27737.13
509.0390, 22778.15
510.2210, 18126.52
511.4020, 14423.68
512.5830, 11623.02
513.7640, 9079.004
514.9450, 7337.312
516.1250, 5920.617
517.3060, 4799.148
518.4860, 3854.520
519.6660, 3295.979
520.8460, 2979.510
522.0260, 2375.340
523.2060, 2211.705
524.3850, 1878.938
525.5650, 1655.766
526.7440, 1625.143
527.9230, 1382.105
529.1020, 1118.072
530.2810, 1152.045
531.4590, 939.0254
532.6380, 1055.008
533.8160, 813.9961
534.9940, 671.9902
536.1720, 661.9863
537.3500, 505.5293
538.5270, 597.9961
539.7050, 412.0059
540.8820, 427.0195
542.0590, 515.0410
543.2360, 567.5742
544.4130, 576.6582
545.5900, 572.3340
546.7660, 283.9863
547.9430, 456.3281
549.1190, 403.3672
550.2950, 258.6484
551.4710, 359.6934
552.6470, 235.1797
553.8220, 359.8887
554.9980, 289.9395
556.1730, 456.4004
557.3480, 124.0957
558.5230, 269.3379
559.6980, 326.3965
560.8730, 443.5918
562.0470, 417.9004
563.2220, 405.0801
564.3960, 235.0469
565.5700, 496.8125
566.7440, 582.9023
567.9170, 473.9668
569.0910, 948.0312
570.2640, 740.2520
571.4380, 873.7969
572.6110, 1016.859
573.7840, 1212.623
574.9570, 1157.428
576.1290, 1379.268
577.3020, 1592.777
578.4740, 1212.662
579.6460, 1107.742
580.8180, 871.3008
581.9900, 789.6895
583.1620, 677.7871
584.3330, 422.8027
585.5040, 341.9355
586.6760, 283.0488
587.8470, 350.4219
589.0180, 115.6934
590.1880, 55.83203
591.3590, 66.63867
592.5290, 3.966797
593.7000, 154.4902
594.8700, 98.42188
596.0400, 111.5586
597.2090, 324.0352
598.3790, 250.2227
599.5490, 406.1621
600.7180, 252.4492
601.8870, 453.2266
603.0560, 444.4297
604.2250, 635.5332
605.3940, 765.3730
606.5620, 624.6680
607.7300, 759.9668
608.8990, 768.2852
610.0670, 616.6152
611.2350, 645.9570
612.4020, 633.3086
613.5700, 680.6641
614.7370, 463.0293
615.9050, 506.3945
617.0720, 604.7734
618.2390, 748.1797
619.4060, 695.6055
620.5720, 655.0254
621.7390, 807.4473
622.9050, 758.8652
624.0710, 727.2832
625.2370, 1123.703
626.4030, 932.1289
627.5690, 1077.553
628.7340, 1269.018
629.9000, 1262.482
631.0650, 1366.955
632.2300, 1353.439
633.3950, 1395.920
634.5600, 1171.404
635.7240, 1203.881
636.8890, 1104.371
638.0530, 1158.553
639.2170, 1286.393
640.3810, 1375.920
641.5450, 1564.482
642.7080, 1745.084
643.8720, 1814.742
645.0350, 1873.494
646.1980, 1704.285
647.3610, 1477.119
648.5240, 1406.957
649.6870, 1185.857
650.8490, 1122.787
652.0120, 974.8105
653.1740, 754.8398
654.3360, 616.9355
655.4980, 697.0586
656.6600, 557.1992
657.8210, 418.4570
658.9830, 762.1230
660.1440, 600.3887
661.3050, 353.6641
662.4660, 524.9414
663.6270, 210.2500
664.7870, 328.5664
665.9480, 407.8809
667.1080, 439.2227
668.2680, 507.4766
669.4280, 524.8809
670.5880, 532.1992
671.7480, 515.5039
672.9070, 421.8008
674.0670, 277.0859
675.2260, 363.3594
676.3850, 217.6250
677.5440, 249.8789
678.7030, 416.1230
679.8610, 36.35547
681.0200, 74.57617
682.1780, 150.2168
683.3360, 29.89844
684.4940, 2.000000
685.6520, 96.08789
686.8090, 2.160156
687.9670, 228.2148
689.1240, 7.259766
690.2810, 108.2891
691.4380, 96.69727
692.5950, 67.75391
693.7520, 111.1348
694.9080, 30.79297
696.0650, 49.95703
697.2210, 58.16602
698.3770, 100.5703
699.5330, 43.43750
700.6880, 21.14453
701.8440, 51.83398
702.9990, 67.13672
704.1550, 143.1113
705.3100, 80.40430
706.4650, 145.5840
707.6190, 112.0703
708.7740, 55.63477
709.9290, 72.09375
711.0830, 99.89062
712.2370, 180.5254
713.3910, 79.63672
714.5450, 250.8301
715.6980, 255.8613
716.8520, 308.1191
718.0050, 210.7910
719.1580, 25.74219
720.3110, 44.67969
721.4640, 215.3320
722.6170, 355.0176
723.7700, 113.5332
724.9220, 210.2500
726.0740, 65.27734
727.2260, 92.46875
728.3780, 170.1172
729.5300, 26.92383
730.6810, 159.6602
731.8330, 129.1328
732.9840, 23.72461
734.1350, 22.07422
735.2860, 73.74805
736.4370, 149.0508
737.5880, 16.81445
738.7380, 132.1191
739.8880, 48.54883
741.0390, 277.0820
742.1890, 139.3398
743.3380, 150.6758
744.4880, 194.2676
745.6380, 214.3477
746.7870, 404.1992
747.9360, 407.1367
749.0850, 511.9434
750.2340, 462.2461
751.3830, 687.4805
752.5310, 643.8320
753.6800, 751.9961
754.8280, 1314.199
755.9760, 1610.096
757.1240, 1783.037
758.2720, 2300.574
759.4190, 2772.510
760.5670, 2818.008
761.7140, 3175.621
762.8610, 3073.791
764.0080, 2719.809
765.1550, 2150.221
766.3020, 1850.803
767.4480, 1696.113
768.5950, 1347.639
769.7410, 1217.809
770.8870, 906.5840
772.0330, 864.9727
773.1780, 920.0918
774.3240, 967.1016
775.4690, 792.3555
776.6140, 865.6094
777.7590, 485.7480
778.9040, 566.5938
780.0490, 399.4824
781.1940, 348.2422
782.3380, 486.2422
783.4820, 376.0332
784.6260, 431.2793
785.7700, 316.1680
786.9140, 330.4121
788.0580, 395.2441
789.2010, 342.3770
790.3450, 383.9004
791.4880, 366.5449
792.6310, 394.8359
793.7730, 309.7539
794.9160, 289.2305
796.0590, 209.1660
797.2010, 353.6211
798.3430, 409.1074
799.4850, 506.3828
800.6270, 533.6172
801.7690, 677.1348
802.9100, 759.4043
804.0520, 1074.732
805.1930, 1212.035
806.3340, 1631.236
807.4750, 1873.168
808.6160, 2289.062
809.7560, 2831.918
810.8970, 3218.734
812.0370, 3738.512
813.1770, 3953.250
814.3170, 3929.947
815.4570, 3419.607
816.5960, 2942.236
817.7360, 2733.818
818.8750, 1959.363
820.0140, 1501.355
821.1530, 1108.764
822.2920, 1074.102
823.4310, 832.4883
824.5690, 862.5312
825.7070, 818.8418
826.8460, 471.8730
827.9840, 539.1074
829.1220, 386.8594
830.2590, 384.3555
831.3970, 270.4727
832.5340, 361.1465
833.6710, 377.5430
834.8080, 368.3555
835.9450, 276.3164
837.0820, 441.1035
838.2190, 329.7383
839.3550, 228.4688
840.4910, 211.3711
841.6270, 387.4336
842.7630, 139.1367
843.8990, 331.8223
845.0350, 279.4688
846.1700, 100.9238
847.3060, 229.3945
848.4410, 274.9180
849.5760, 158.4043
850.7100, 143.7559
851.8450, 179.1562
852.9800, 130.5137
854.1140, 86.82617
855.2480, 192.0918
856.3820, 189.8496
857.5160, 253.7383
858.6500, 241.8789
859.7830, 278.9766
860.9170, 29.00781
862.0500, 148.0117
863.1830, 120.7148
864.3160, 9.525391
865.4480, 187.3125
866.5810, 89.44336
867.7130, 141.6816
868.8460, 57.33789
869.9780, 28.21680
871.1100, 118.8418
872.2410, 1.091797
873.3730, 266.5703
874.5050, 29.26367
875.6360, 3.443359
876.7670, 146.3086
877.8980, 118.4062
879.0290, 91.89648
880.1590, 137.5781
881.2900, 34.40430
882.4200, 41.66211
883.5500, 11.81055
884.6800, 10.02539
885.8100, 3.240234
886.9400, 19.36133
888.0690, 5.027344
889.1990, 101.5234
890.3280, 19.96484
891.4570, 79.52148
892.5860, 33.17969
893.7140, 224.0898
894.8430, 121.3223
895.9710, 42.51367
897.1000, 183.6621
898.2280, 66.77148
899.3560, 7.158203
900.4830, 209.8535
901.6110, 145.1719
902.7380, 218.6719
903.8660, 18.52148
904.9930, 13.77148
906.1200, 83.91406
907.2460, 22.56250
908.3730, 224.1855
909.5000, 241.7754
910.6260, 175.3945
911.7520, 166.9785
912.8780, 186.5254
914.0040, 248.0469
915.1290, 229.4023
916.2550, 310.9883
917.3800, 185.4102
918.5050, 227.7969
919.6300, 109.1523
920.7550, 19.47070
921.8800, 91.74414
923.0040, 181.9824
924.1290, 171.7812
925.2530, 155.3457
926.3770, 11.56055
927.5010, 7.517578
928.6250, 113.4707
929.7480, 20.42578
930.8720, 90.01758
931.9950, 193.7480
933.1180, 176.6094
934.2410, 216.4355
935.3640, 216.5938
936.4860, 138.0156
937.6090, 187.7637
938.7310, 163.2988
939.8530, 159.1816
940.9750, 172.8145
942.0970, 241.4375
943.2180, 355.0293
944.3400, 369.5938
945.4610, 335.1289
946.5820, 300.6367
947.7030, 260.1133
948.8240, 372.5625
949.9450, 293.9844
951.0650, 215.3809
952.1860, 373.7480
953.3060, 257.0859
954.4260, 335.4023
955.5460, 353.7305
956.6650, 169.0508
957.7850, 470.3496
958.9040, 520.6230
960.0230, 315.8711
961.1420, 293.0938
962.2610, 485.2910
963.3800, 304.4648
964.4990, 551.6387
965.6170, 598.8086
966.7350, 400.7578
967.8530, 816.8906
968.9710, 519.0117
970.0890, 673.1328
971.2070, 870.0801
972.3240, 982.1504
973.4410, 1156.199
974.5580, 1366.871
975.6750, 1406.486
976.7920, 1608.531
977.9090, 1584.875
979.0250, 1254.871
980.1410, 1283.750
981.2580, 1187.699
982.3740, 949.3223
983.4890, 1021.107
984.6050, 887.3828
985.7200, 582.5762
986.8360, 809.8926
987.9510, 765.9453
989.0660, 647.5645
990.1810, 853.8652
991.2950, 661.1387
992.4100, 742.6562
993.5240, 680.1055
994.6390, 811.6875
995.7530, 984.0273
996.8660, 973.0176
997.9800, 883.8047
999.0940, 1247.098
1000.207, 1330.195
1001.320, 1518.643
1002.433, 2115.605
1003.546, 3272.750
1004.659, 3737.240
1005.772, 5583.061
1006.884, 7344.363
1007.996, 6877.791
1009.108, 6430.371
1010.220, 5094.418
1011.332, 4223.318
1012.444, 3351.137
1013.555, 2444.785
1014.666, 2239.064
1015.777, 1771.172
1016.888, 1813.469
1017.999, 1607.641
1019.110, 1369.928
1020.220, 1492.645
1021.331, 1472.410
1022.441, 1396.021
1023.551, 1628.115
1024.661, 1616.801
1025.770, 1882.754
1026.880, 1988.621
1027.989, 2318.861
1029.098, 2311.664
1030.207, 2547.867
1031.316, 2284.918
1032.425, 2347.639
1033.533, 2153.227
1034.642, 1909.369
1035.750, 1435.303
1036.858, 1253.475
1037.966, 1232.266
1039.073, 860.5000
1040.181, 956.8145
1041.288, 708.4434
1042.396, 607.6230
1043.503, 694.5723
1044.610, 802.5410
1045.716, 688.4863
1046.823, 601.0527
1047.929, 423.3164
1049.036, 417.1777
1050.142, 511.9961
1051.248, 358.9961
1052.353, 526.1699
1053.459, 475.8477
1054.564, 272.8477
1055.670, 267.4512
1056.775, 411.0508
1057.880, 178.5625
1058.985, 565.4336
1060.089, 266.6621
1061.194, 372.6797
1062.298, 317.3770
1063.402, 253.5117
1064.506, 205.5586
1065.610, 273.5996
1066.713, 353.5723
1067.817, 362.2617
1068.920, 432.5898
1070.023, 429.8477
1071.126, 484.8770
1072.229, 462.8047
1073.332, 411.7188
1074.435, 562.7520
1075.537, 494.9570
1076.639, 451.1621
1077.741, 572.3672
1078.843, 581.5703
1079.945, 800.7734
1081.046, 896.6875
1082.148, 836.1816
1083.249, 1129.449
1084.350, 1007.645
1085.451, 968.8496
1086.551, 1179.455
1087.652, 1320.660
1088.752, 1400.059
1089.853, 1746.932
1090.953, 2018.139
1092.053, 2308.346
1093.152, 2881.555
1094.252, 3251.766
1095.351, 3508.977
1096.451, 4136.189
1097.550, 4098.402
1098.649, 4410.617
1099.748, 4015.838
1100.846, 3864.057
1101.945, 3752.277
1103.043, 3387.502
1104.141, 2968.729
1105.239, 2951.098
1106.337, 2426.328
1107.434, 2244.314
1108.532, 2256.555
1109.629, 2096.795
1110.726, 2115.004
1111.823, 2286.291
1112.920, 2194.543
1114.017, 2181.805
1115.113, 2302.066
1116.210, 1929.338
1117.306, 2105.613
1118.402, 2033.895
1119.498, 2024.180
1120.593, 1938.477
1121.689, 1642.783
1122.784, 1507.094
1123.879, 1375.512
1124.974, 1225.812
1126.069, 1226.061
1127.164, 1037.395
1128.259, 1157.742
1129.353, 1092.096
1130.447, 884.4609
1131.541, 863.8477
1132.635, 859.2441
1133.729, 605.6484
1134.822, 702.0645
1135.916, 662.4883
1137.009, 643.9277
1138.102, 597.3770
1139.195, 492.8477
1140.288, 542.3203
1141.380, 487.8105
1142.473, 641.3223
1143.565, 364.8438
1144.657, 360.4219
1145.749, 367.0059
1146.841, 554.6445
1147.932, 440.3223
1149.024, 406.9707
1150.115, 312.6699
1151.206, 259.3887
1152.297, 175.1250
1153.388, 308.8750
1154.479, 9.353516
1155.569, 262.4238
1156.659, 270.2246
1157.750, 51.06055
1158.839, 123.9277
1159.929, 228.8027
1161.019, 415.6895
1162.108, 266.5371
1163.198, 6.507813
1164.287, 7.404297
1165.376, 159.3359
1166.465, 100.2773
1167.553, 184.2754
1168.642, 22.71484
1169.730, 42.30664
1170.818, 18.63672
1171.906, 99.73438
1172.994, 168.4570
1174.082, 261.5020
1175.170, 160.4746
1176.257, 11.46094
1177.344, 37.54688
1178.431, 140.4375
1179.518, 3.572266
1180.605, 72.42383
1181.691, 137.4629
1182.778, 176.5098
1183.864, 111.5645
1184.950, 81.62695
1186.036, 231.7031
1187.122, 147.2109
1188.207, 135.1816
1189.292, 75.85742
1190.378, 11.09375
1191.463, 80.97266
1192.548, 52.06641
1193.632, 11.17383
1194.717, 74.67383
1195.801, 37.45703
1196.886, 21.60156
1197.970, 11.75000
1199.054, 68.09375
1200.137, 106.0410
1201.221, 156.1895
1202.305, 142.3438
1203.388, 36.50586
1204.471, 10.67578
1205.554, 50.85352
1206.637, 55.03711
1207.719, 46.34961
1208.802, 58.80664
1209.884, 37.68750
1210.966, 40.93750
1212.048, 45.22852
1213.130, 12.53125
1214.212, 95.84375
1215.293, 142.1641
1216.374, 6.505859
1217.456, 43.82617
1218.536, 85.83203
1219.617, 17.52148
1220.698, 98.78711
1221.778, 134.1035
1222.859, 119.4238
1223.939, 206.7480
1225.019, 195.0801
1226.099, 168.4199
1227.178, 293.0547
1228.258, 204.1309
1229.337, 386.5098
1230.417, 314.8984
1231.496, 104.2988
1232.574, 46.72266
1233.653, 172.1543
1234.732, 8.705078
1235.810, 268.0273
1236.888, 13.52930
1237.966, 121.9102
1239.044, 328.3574
1240.122, 306.8340
1241.199, 326.3320
1242.277, 233.8477
1243.354, 239.3867
1244.431, 197.9414
1245.508, 529.5078
1246.585, 301.0781
1247.661, 322.6523
1248.738, 372.2363
1249.814, 242.8281
1250.890, 232.4316
1251.966, 241.0371
1253.042, 431.6484
1254.117, 278.2578
1255.193, 378.8750
1256.268, 547.5078
1257.343, 502.1484
1258.418, 573.0430
1259.493, 475.4219
1260.567, 542.0586
1261.642, 450.6992
1262.716, 352.3398
1263.790, 698.9805
1264.864, 594.6211
1265.938, 428.2617
1267.011, 605.9062
1268.085, 558.5430
