##NAMES=Albite
##RRUFFID=R050402
##IDEAL CHEMISTRY=NaAlSi_3_O_8_
##LOCALITY=Urbano mine, Golconda District, Brazil
##OWNER=RRUFF
##SOURCE=Bob Downs
##DESCRIPTION=Colorless tabular single crystals associated with fluorapatite R050401
##STATUS=The identification of this mineral has been confirmed by X-ray diffraction and chemical analysis
##URL=rruff.info/R050402
##MEASURED CHEMISTRY=Na_1.00_Al_1.00_Si_3.00_O_8_
##PIN_ID=M00145
##ORIENTATION=Laser parallel to (0 1 1). Fiducial mark perpendicular to laser is parallel to -a [-1 0 0]
93.48000, 0.0000000E+00
94.71400, 17.98682
95.94800, 73.38525
97.18200, 8.448242
98.41600, 7.261719
99.64900, 120.5913
100.8830, 186.7236
102.1160, 417.5093
103.3490, 549.5391
104.5820, 756.8623
105.8150, 1160.729
107.0470, 1875.536
108.2800, 2806.789
109.5120, 2727.606
110.7440, 2404.560
111.9760, 2207.935
113.2080, 1846.517
114.4400, 1638.106
115.6710, 1239.520
116.9030, 844.5879
118.1340, 499.1670
119.3650, 187.1338
120.5960, 17.37500
121.8270, 59.79297
123.0580, 34.29785
124.2880, 9.190430
125.5190, 60.25488
126.7490, 200.5664
127.9790, 333.6895
129.2090, 362.6182
130.4390, 532.3760
131.6680, 626.9346
132.8980, 963.2119
134.1270, 1286.134
135.3560, 1571.644
136.5850, 2074.692
137.8140, 2567.237
139.0430, 3235.244
140.2710, 4222.688
141.5000, 5009.559
142.7280, 5886.843
143.9560, 6264.518
145.1840, 6400.566
146.4120, 6202.963
147.6390, 6192.689
148.8670, 6443.728
150.0940, 7349.061
151.3210, 8429.672
152.5490, 9788.548
153.7750, 11489.68
155.0020, 13343.05
156.2290, 15740.64
157.4550, 17897.45
158.6810, 19966.47
159.9080, 21121.68
161.1340, 21176.10
162.3590, 20121.79
163.5850, 18625.21
164.8110, 16701.31
166.0360, 15530.16
167.2610, 15220.76
168.4860, 14937.37
169.7110, 15136.89
170.9360, 15216.30
172.1610, 15228.66
173.3850, 15639.96
174.6100, 16172.24
175.8340, 17636.50
177.0580, 18718.76
178.2820, 20060.03
179.5050, 20920.31
180.7290, 22419.62
181.9520, 23050.95
183.1760, 23079.32
184.3990, 22267.73
185.6220, 20689.24
186.8450, 18773.99
188.0670, 16437.97
189.2900, 14087.12
190.5120, 11880.35
191.7340, 10548.68
192.9560, 9279.113
194.1780, 8459.611
195.4000, 7901.143
196.6220, 7817.702
197.8430, 7986.297
199.0640, 8623.917
200.2860, 9191.574
201.5070, 10287.26
202.7270, 11343.98
203.9480, 12636.73
205.1690, 14061.51
206.3890, 14804.31
207.6090, 14756.15
208.8290, 13416.01
210.0490, 11355.91
211.2690, 9139.823
212.4890, 7058.766
213.7080, 5080.734
214.9280, 3894.727
216.1470, 2887.744
217.3660, 2217.784
218.5850, 1704.845
219.8030, 1231.928
221.0220, 937.0312
222.2400, 638.1553
223.4590, 624.2979
224.6770, 438.4590
225.8950, 385.6367
227.1120, 337.8320
228.3300, 162.3896
229.5480, 218.6006
230.7650, 34.09570
231.9820, 116.8486
233.1990, 132.1641
234.4160, 166.7900
235.6330, 236.8701
236.8490, 347.6035
238.0660, 417.3047
239.2820, 549.3174
240.4980, 644.4883
241.7140, 802.1787
242.9300, 1009.464
244.1460, 1260.825
245.3610, 1526.153
246.5770, 2132.056
247.7920, 2354.305
249.0070, 3087.861
250.2220, 3034.701
251.4370, 2978.795
252.6510, 2563.123
253.8660, 1977.666
255.0800, 1495.407
256.2940, 1362.328
257.5080, 1259.422
258.7220, 1455.676
259.9360, 1349.078
261.1490, 1187.619
262.3630, 1207.291
263.5760, 1199.086
264.7890, 1426.998
266.0020, 1635.019
267.2150, 1855.142
268.4270, 2131.362
269.6400, 2270.676
270.8520, 2718.017
272.0640, 3031.500
273.2760, 3619.062
274.4880, 4356.245
275.7000, 5233.573
276.9120, 6589.925
278.1230, 8247.536
279.3340, 10494.60
280.5450, 13290.62
281.7560, 16693.80
282.9670, 20678.56
284.1780, 24934.26
285.3880, 30246.93
286.5980, 34536.21
287.8090, 38069.27
289.0190, 39381.04
290.2290, 37203.34
291.4380, 32551.05
292.6480, 26881.43
293.8570, 21034.84
295.0670, 15965.27
296.2760, 12152.73
297.4850, 9296.226
298.6930, 7220.742
299.9020, 5669.281
301.1110, 4397.843
302.3190, 3685.426
303.5270, 3157.029
304.7350, 2738.654
305.9430, 2474.295
307.1510, 2132.951
308.3580, 1911.625
309.5660, 1767.461
310.7730, 1683.006
311.9800, 1602.707
313.1870, 1604.409
314.3940, 1608.112
315.6010, 1539.820
316.8070, 1875.528
318.0130, 2125.239
319.2200, 2644.953
320.4260, 3196.671
321.6310, 3812.391
322.8370, 4813.112
324.0430, 5906.838
325.2480, 7453.566
326.4540, 8430.298
327.6590, 8717.028
328.8640, 7738.762
330.0680, 6093.496
331.2730, 4948.232
332.4780, 3598.969
333.6820, 2673.702
334.8860, 2139.435
336.0900, 1463.163
337.2940, 1237.889
338.4980, 1105.610
339.7010, 1034.327
340.9050, 811.0400
342.1080, 889.7471
343.3110, 736.4492
344.5140, 835.1445
345.7170, 669.8340
346.9200, 756.5176
348.1220, 693.1963
349.3240, 659.8672
350.5270, 529.5312
351.7290, 405.1885
352.9310, 384.8379
354.1320, 362.4795
355.3340, 178.1143
356.5350, 293.7402
357.7370, 218.3594
358.9380, 93.96973
360.1390, 5.570313
361.3400, 124.1602
362.5400, 43.73828
363.7410, 3.691406
364.9410, 33.13672
366.1410, 43.60547
367.3410, 148.0996
368.5410, 117.6484
369.7410, 135.0547
370.9400, 76.89258
372.1400, 96.57617
373.3390, 121.3057
374.5380, 75.09180
375.7370, 80.94824
376.9360, 133.9268
378.1350, 127.0293
379.3330, 145.2568
380.5310, 134.5967
381.7300, 200.0732
382.9280, 242.7129
384.1260, 50.56641
385.3230, 81.44727
386.5210, 19.62891
387.7180, 3.290039
388.9160, 198.7842
390.1130, 108.8721
391.3100, 372.9688
392.5060, 262.0723
393.7030, 478.1826
394.9000, 642.2969
396.0960, 792.4160
397.2920, 932.5371
398.4880, 1177.659
399.6840, 1232.809
400.8800, 1184.963
402.0750, 1135.115
403.2710, 1407.266
404.4660, 1722.435
405.6610, 1826.637
406.8560, 1620.832
408.0510, 1467.059
409.2450, 1045.284
410.4400, 630.5361
411.6340, 430.8018
412.8280, 341.0674
414.0220, 289.3330
415.2160, 162.5928
416.4100, 198.8750
417.6030, 54.20020
418.7970, 24.55957
419.9900, 24.09961
421.1830, 58.24707
422.3760, 79.57715
423.5690, 61.42773
424.7610, 46.34863
425.9540, 38.32910
427.1460, 32.62988
428.3380, 66.56445
429.5300, 23.48242
430.7220, 30.36816
431.9140, 15.77832
433.1050, 141.0186
434.2970, 28.19043
435.4880, 184.5371
436.6790, 208.2490
437.8700, 151.9463
439.0610, 207.6318
440.2510, 213.6895
441.4420, 322.9570
442.6320, 312.5977
443.8220, 381.2236
445.0120, 522.8359
446.2020, 528.4355
447.3910, 817.0293
448.5810, 860.6074
449.7700, 1045.169
450.9600, 1334.727
452.1490, 1424.268
453.3370, 1705.789
454.5260, 1847.296
455.7150, 2085.783
456.9030, 2106.255
458.0910, 1957.708
459.2800, 2002.144
460.4670, 2138.562
461.6550, 2340.963
462.8430, 2733.344
464.0300, 2969.709
465.2180, 3816.057
466.4050, 4635.385
467.5920, 5801.695
468.7790, 7390.986
469.9650, 9181.259
471.1520, 11548.51
472.3380, 14328.75
473.5250, 17403.97
474.7110, 20971.17
475.8970, 23564.35
477.0820, 24681.51
478.2680, 23558.66
479.4540, 20406.78
480.6390, 16668.88
481.8240, 13390.97
483.0090, 10672.04
484.1940, 8635.088
485.3780, 7319.117
486.5630, 6543.127
487.7470, 5855.118
488.9320, 5824.090
490.1160, 5932.044
491.3000, 6143.979
492.4830, 6998.891
493.6670, 7972.787
494.8500, 9490.662
496.0340, 11869.52
497.2170, 14532.36
498.4000, 18359.18
499.5820, 22758.97
500.7650, 28019.75
501.9480, 34621.51
503.1300, 41442.93
504.3120, 46858.66
505.4940, 49895.35
506.6760, 48545.11
507.8580, 43288.18
509.0390, 36023.52
510.2210, 28886.43
511.4020, 22192.13
512.5830, 17114.63
513.7640, 13623.65
514.9450, 10757.34
516.1250, 8682.386
517.3060, 7219.226
518.4860, 6127.598
519.6660, 5303.550
520.8460, 4574.846
522.0260, 4011.909
523.2060, 3525.562
524.3850, 3012.027
525.5650, 2698.744
526.7440, 2393.038
527.9230, 2400.170
529.1020, 2034.825
530.2810, 1899.186
531.4590, 1871.557
532.6380, 1659.919
533.8160, 1569.270
534.9940, 1364.610
536.1720, 1309.941
537.3500, 1204.869
538.5270, 1120.698
539.7050, 1060.426
540.8820, 1006.256
542.0590, 947.7764
543.2360, 982.0430
544.4130, 799.5322
545.5900, 817.5771
546.7660, 847.0361
547.9430, 762.2578
549.1190, 789.8379
550.2950, 910.8291
551.4710, 831.5449
552.6470, 1031.387
553.8220, 647.2637
554.9980, 1157.180
556.1730, 823.6240
557.3480, 633.0176
558.5230, 802.7266
559.6980, 651.7480
560.8730, 828.5146
562.0470, 777.3057
563.2220, 756.0361
564.3960, 789.2539
565.5700, 709.5879
566.7440, 826.1377
567.9170, 791.4326
569.0910, 1049.778
570.2640, 1081.981
571.4380, 1203.367
572.6110, 1364.742
573.7840, 1427.302
574.9570, 1675.700
576.1290, 1895.366
577.3020, 1979.379
578.4740, 1861.241
579.6460, 1722.429
580.8180, 1499.268
581.9900, 1428.806
583.1620, 1086.618
584.3330, 791.5977
585.5040, 786.8887
586.6760, 688.2939
587.8470, 619.5361
589.0180, 524.4512
590.1880, 428.2285
591.3590, 394.5723
592.5290, 508.2891
593.7000, 281.9932
594.8700, 692.7480
596.0400, 330.4258
597.2090, 669.0918
598.3790, 1146.745
599.5490, 387.3867
600.7180, 569.0146
601.8870, 549.6299
603.0560, 531.2334
604.2250, 440.8223
605.3940, 280.3994
606.5620, 485.9639
607.7300, 371.5156
608.8990, 437.0557
610.0670, 543.5840
611.2350, 440.1035
612.4020, 552.6104
613.5700, 468.1055
614.7370, 625.5918
615.9050, 785.0674
617.0720, 672.5303
618.2390, 677.9805
619.4060, 851.4189
620.5720, 987.8447
621.7390, 1051.261
622.9050, 1331.664
624.0710, 1421.055
625.2370, 1618.435
626.4030, 1719.804
627.5690, 1887.159
628.7340, 1894.505
629.9000, 1942.838
631.0650, 1848.160
632.2300, 2022.472
633.3950, 1834.770
634.5600, 1768.059
635.7240, 1737.335
636.8890, 1833.602
638.0530, 1549.863
639.2170, 1767.113
640.3810, 1721.354
641.5450, 2028.583
642.7080, 2185.811
643.8720, 2309.031
645.0350, 2190.240
646.1980, 2042.439
647.3610, 1927.635
648.5240, 1712.834
649.6870, 1557.039
650.8490, 1289.289
652.0120, 1154.568
653.1740, 956.8877
654.3360, 874.2217
655.4980, 709.6113
656.6600, 456.0381
657.8210, 506.4805
658.9830, 184.9434
660.1440, 363.4648
661.3050, 331.0186
662.4660, 302.6172
663.6270, 255.2510
664.7870, 190.9365
665.9480, 198.7041
667.1080, 192.4844
668.2680, 104.2852
669.4280, 147.0811
670.5880, 205.8779
671.7480, 153.6660
672.9070, 89.44336
674.0670, 113.2100
675.2260, 104.9678
676.3850, 60.95410
677.5440, 124.4492
678.7030, 32.17578
679.8610, 69.11328
681.0200, 0.4609380
682.1780, 96.16797
683.3360, 49.78613
684.4940, 56.60742
685.6520, 111.0537
686.8090, 108.4209
687.9670, 113.1143
689.1240, 12.26660
690.2810, 107.3691
691.4380, 46.08594
692.5950, 6.849609
693.7520, 7.639648
694.9080, 42.54199
696.0650, 95.28906
697.2210, 180.1934
698.3770, 162.2168
699.5330, 16.34375
700.6880, 1.505859
701.8440, 11.64551
702.9990, 6.365234
704.1550, 1.926758
705.3100, 7.259766
706.4650, 3.829102
707.6190, 4.763672
708.7740, 11.32715
709.9290, 23.13672
711.0830, 43.30176
712.2370, 55.15723
713.3910, 3.977539
714.5450, 55.86426
715.6980, 55.71973
716.8520, 119.5654
718.0050, 35.40332
719.1580, 145.2275
720.3110, 12.04395
721.4640, 191.8457
722.6170, 48.63672
723.7700, 22.41895
724.9220, 15.18652
726.0740, 20.05859
727.2260, 48.66211
728.3780, 65.76953
729.5300, 21.52637
730.6810, 150.1436
731.8330, 92.80566
732.9840, 60.45996
734.1350, 270.1045
735.2860, 149.7412
736.4370, 296.3701
737.5880, 110.9912
738.7380, 244.6045
739.8880, 173.2100
741.0390, 180.8076
742.1890, 237.3965
743.3380, 274.9795
744.4880, 186.5547
745.6380, 147.1211
746.7870, 270.6816
747.9360, 187.2334
749.0850, 286.7812
750.2340, 572.9795
751.3830, 460.5098
752.5310, 598.9209
753.6800, 748.4365
754.8280, 1090.945
755.9760, 1268.447
757.1240, 1570.942
758.2720, 1607.430
759.4190, 2021.911
760.5670, 2143.386
761.7140, 2424.854
762.8610, 2212.314
764.0080, 2118.769
765.1550, 1835.217
766.3020, 1680.658
767.4480, 1303.094
768.5950, 1327.522
769.7410, 1284.944
770.8870, 1164.360
772.0330, 1251.771
773.1780, 1332.177
774.3240, 1266.575
775.4690, 1044.541
776.6140, 1077.928
777.7590, 803.3105
778.9040, 691.6855
780.0490, 689.1836
781.1940, 509.5469
782.3380, 399.9062
783.4820, 356.2598
784.6260, 417.6064
785.7700, 298.1934
786.9140, 416.5293
788.0580, 457.0713
789.2010, 438.5107
790.3450, 356.6367
791.4880, 335.9492
792.6310, 352.1055
793.7730, 314.1406
794.9160, 432.4336
796.0590, 536.7197
797.2010, 661.4258
798.3430, 621.6982
799.4850, 808.0068
800.6270, 680.2637
801.7690, 842.5127
802.9100, 1036.293
804.0520, 1212.526
805.1930, 1596.749
806.3340, 1941.254
807.4750, 2062.170
808.6160, 2868.368
809.7560, 3402.557
810.8970, 3981.737
812.0370, 4308.908
813.1770, 4681.071
814.3170, 4675.100
815.4570, 4517.247
816.5960, 3520.956
817.7360, 2964.547
818.8750, 2317.427
820.0140, 1895.543
821.1530, 1523.418
822.2920, 1127.719
823.4310, 1081.118
824.5690, 950.2061
825.7070, 605.9170
826.8460, 782.1973
827.9840, 676.2461
829.1220, 628.1318
830.2590, 633.4717
831.3970, 487.7549
832.5340, 491.4932
833.6710, 416.2627
834.8080, 400.7002
835.9450, 326.2656
837.0820, 377.9902
838.2190, 304.8379
839.3550, 249.8633
840.4910, 386.9736
841.6270, 466.6143
842.7630, 317.9219
843.8990, 351.9287
845.0350, 294.9922
846.1700, 268.9287
847.3060, 343.7383
848.4410, 282.5049
849.5760, 272.3770
850.7100, 333.9004
851.8450, 183.7822
852.9800, 308.6641
854.1140, 325.6797
855.2480, 171.3604
856.3820, 286.3770
857.5160, 370.6777
858.6500, 310.6924
859.7830, 423.5264
860.9170, 378.0371
862.0500, 159.4189
863.1830, 317.9512
864.3160, 27.20312
865.4480, 38.76270
866.5810, 158.1484
867.7130, 225.1484
868.8460, 259.1494
869.9780, 208.0879
871.1100, 192.0898
872.2410, 95.09375
873.3730, 83.09766
874.5050, 100.3027
875.6360, 79.10938
876.7670, 164.1152
877.8980, 131.1230
879.0290, 139.1328
880.1590, 167.1445
881.2900, 38.15625
882.4200, 10.16992
883.5500, 58.18652
884.6800, 14.79492
885.8100, 89.21680
886.9400, 131.2314
888.0690, 19.75293
889.1990, 201.2559
890.3280, 193.2676
891.4570, 178.2812
892.5860, 74.29688
893.7140, 55.31445
894.8430, 142.3359
895.9710, 82.35840
897.1000, 74.38477
898.2280, 189.4141
899.3560, 257.4639
900.4830, 281.5176
901.6110, 62.57617
902.7380, 142.6377
903.8660, 148.7031
904.9930, 9.789063
906.1200, 101.8799
907.2460, 240.9736
908.3730, 40.07031
909.5000, 56.17090
910.6260, 34.72559
911.7520, 191.3672
912.8780, 191.4678
914.0040, 139.5703
915.1290, 45.31738
916.2550, 60.78027
917.3800, 10.89844
918.5050, 294.0234
919.6300, 168.1533
920.7550, 5.712891
921.8800, 175.4219
923.0040, 47.43848
924.1290, 26.31445
925.2530, 40.19727
926.3770, 52.90723
927.5010, 138.9834
928.6250, 44.93555
929.7480, 141.0996
930.8720, 120.1465
931.9950, 121.7812
933.1180, 7.258789
934.2410, 45.69531
935.3640, 40.33691
936.4860, 54.37402
937.6090, 90.58398
938.7310, 61.42480
939.8530, 51.43848
940.9750, 146.4580
942.0970, 24.48438
943.2180, 64.51660
944.3400, 42.55371
945.4610, 30.59863
946.5820, 93.12988
947.7030, 92.75586
948.8240, 181.8096
949.9450, 177.9004
951.0650, 165.9971
952.1860, 250.1035
953.3060, 91.24121
954.4260, 100.3926
955.5460, 131.5508
956.6650, 113.7188
957.7850, 16.08398
958.9040, 164.1611
960.0230, 97.41309
961.1420, 233.7090
962.2610, 72.01758
963.3800, 219.3691
964.4990, 204.7471
965.6170, 432.1406
966.7350, 158.5537
967.8530, 256.9756
968.9710, 79.43750
970.0890, 289.9629
971.2070, 468.5449
972.3240, 547.1484
973.4410, 656.7637
974.5580, 750.4004
975.6750, 751.0469
976.7920, 809.7129
977.9090, 834.3945
979.0250, 793.0898
980.1410, 717.8008
981.2580, 665.7832
982.3740, 601.3672
983.4890, 471.0039
984.6050, 437.7578
985.7200, 304.5293
986.8360, 262.7402
987.9510, 183.1016
989.0660, 187.9004
990.1810, 200.7109
991.2950, 211.5430
992.4100, 172.3652
993.5240, 197.2090
994.6390, 253.0605
995.7530, 199.9277
996.8660, 143.8047
997.9800, 359.7031
999.0940, 463.2168
1000.207, 753.1367
1001.320, 744.0781
1002.433, 662.0312
1003.546, 625.9941
1004.659, 526.9668
1005.772, 520.9473
1006.884, 444.9434
1007.996, 382.9453
1009.108, 710.9590
1010.220, 670.9844
1011.332, 681.0156
1012.444, 605.0625
1013.555, 658.1152
1014.666, 476.1816
1015.777, 579.2578
1016.888, 524.3457
1017.999, 704.4434
1019.110, 861.8887
1020.220, 886.0059
1021.331, 1093.746
1022.441, 1213.389
1023.551, 1454.539
1024.661, 1643.701
1025.770, 1928.875
1026.880, 1886.059
1027.989, 2527.254
1029.098, 2730.461
1030.207, 2967.676
1031.316, 2900.086
1032.425, 2773.311
1033.533, 2589.561
1034.642, 2147.365
1035.750, 1953.637
1036.858, 1724.922
1037.966, 1285.424
1039.073, 1051.729
1040.181, 1074.045
1041.288, 991.3730
1042.396, 769.4629
1043.503, 630.0605
1044.610, 443.8496
1045.716, 446.8887
1046.823, 492.2695
1047.929, 349.7207
1049.036, 351.9961
1050.142, 361.4258
1051.248, 283.2520
1052.353, 173.6895
1053.459, 294.1387
1054.564, 316.3535
1055.670, 318.8262
1056.775, 215.0957
1057.880, 157.4766
1058.985, 300.1738
1060.089, 23.68945
1061.194, 373.6777
1062.298, 345.1719
1063.402, 397.3184
1064.506, 170.8086
1065.610, 173.9688
1066.713, 158.5566
1067.817, 301.1113
1068.920, 392.7227
1070.023, 366.3457
1071.126, 350.4414
1072.229, 366.0879
1073.332, 397.7480
1074.435, 576.4199
1075.537, 727.1055
1076.639, 595.8008
1077.741, 731.5098
1078.843, 689.2305
1079.945, 795.4668
1081.046, 894.2207
1082.148, 1102.988
1083.249, 1216.766
1084.350, 1373.395
1085.451, 1572.510
1086.551, 1688.172
1087.652, 1952.002
1088.752, 2144.033
1089.853, 2314.883
1090.953, 2858.623
1092.053, 3383.494
1093.152, 3797.381
1094.252, 4464.279
1095.351, 5013.188
1096.451, 5268.109
1097.550, 5689.039
1098.649, 5570.240
1099.748, 5271.203
1100.846, 5183.178
1101.945, 4875.164
1103.043, 4315.176
1104.141, 4064.184
1105.239, 3691.201
1106.337, 3426.229
1107.434, 3281.273
1108.532, 3379.326
1109.629, 3246.406
1110.726, 3192.496
1111.823, 3436.594
1112.920, 3099.707
1114.017, 3203.824
1115.113, 3030.955
1116.210, 2688.096
1117.306, 2600.246
1118.402, 2355.404
1119.498, 2017.574
1120.593, 1864.752
1121.689, 1585.941
1122.784, 1258.141
1123.879, 1297.348
1124.974, 768.5645
1126.069, 906.7891
1127.164, 820.0254
1128.259, 646.2930
1129.353, 686.5684
1130.447, 537.8535
1131.541, 600.1543
1132.635, 528.4922
1133.729, 367.8418
1134.822, 487.1992
1135.916, 514.5645
1137.009, 349.9434
1138.102, 400.3281
1139.195, 213.7266
1140.288, 145.1309
1141.380, 191.5449
1142.473, 178.9668
1143.565, 207.4004
1144.657, 267.8398
1145.749, 280.2910
1146.841, 303.7500
1147.932, 393.2188
1149.024, 297.6973
1150.115, 278.1855
1151.206, 301.6875
1152.297, 201.1934
1153.388, 184.7109
1154.479, 90.24023
1155.569, 275.7793
1156.659, 80.32812
1157.750, 156.8848
1158.839, 143.4707
1159.929, 92.06641
1161.019, 74.66992
1162.108, 3.716797
1163.198, 78.09570
1164.287, 97.49805
1165.376, 11.90039
1166.465, 243.7031
1167.553, 50.31641
1168.642, 81.06445
1169.730, 118.5293
1170.818, 124.1328
1171.906, 196.7441
1172.994, 172.3633
1174.082, 92.98828
1175.170, 66.62305
1176.257, 13.72461
1177.344, 242.9316
1178.431, 21.40625
1179.518, 198.2559
1180.605, 76.06250
1181.691, 7.412109
1182.778, 154.2441
1183.864, 5.908203
1184.950, 162.5801
1186.036, 47.26367
1187.122, 91.95117
1188.207, 90.65820
1189.292, 32.37891
1190.378, 140.1152
1191.463, 48.94727
1192.548, 22.64062
1193.632, 30.55664
1194.717, 89.76172
1195.801, 74.00195
1196.886, 127.7559
1197.970, 8.523438
1199.054, 113.3066
1200.137, 70.09766
1201.221, 95.89453
1202.305, 33.72266
1203.388, 167.5547
1204.471, 83.79492
1205.554, 91.24219
1206.637, 8.095703
1207.719, 76.95898
1208.802, 71.82617
1209.884, 79.36914
1210.966, 37.47461
1212.048, 28.32422
1213.130, 117.1797
1214.212, 177.4844
1215.293, 181.9141
1216.374, 236.7910
1217.456, 129.6758
1218.536, 0.5644530
1219.617, 129.4590
1220.698, 41.64062
1221.778, 113.2480
1222.859, 189.1406
1223.939, 149.1309
1225.019, 31.03711
1226.099, 27.94922
1227.178, 11.86719
1228.258, 0.2070310
1229.337, 58.21484
1230.417, 43.14844
1231.496, 70.08594
1232.574, 8.031250
1233.653, 21.98047
1234.732, 49.30078
1235.810, 162.9102
1236.888, 104.0332
1237.966, 97.00391
1239.044, 79.75195
1240.122, 60.73242
1241.199, 99.72070
1242.277, 133.7129
1243.354, 53.70898
1244.431, 200.7109
1245.508, 153.7188
1246.585, 99.73047
1247.661, 154.7480
1248.738, 256.7715
1249.814, 195.7988
1250.890, 262.8125
1251.966, 171.8711
1253.042, 268.9141
1254.117, 248.9590
1255.193, 185.0117
1256.268, 109.0684
1257.343, 187.5977
1258.418, 160.6660
1259.493, 330.7344
1260.567, 209.8105
1261.642, 179.6934
1262.716, 182.7773
1263.790, 322.8652
1264.864, 351.9805
1265.938, 328.1641
1267.011, 231.2871
1268.085, 205.4160
1269.158, 239.5078
1270.231, 134.6836
1271.304, 322.8203
1272.377, 320.9629
1273.450, 311.1094
1274.522, 470.2598
