##NAMES=Albite
##RRUFFID=R040129
##IDEAL CHEMISTRY=NaAlSi_3_O_8_
##LOCALITY=LaChance Quarry, Brunswick, Cumberland County, Maine, USA
##OWNER=RRUFF
##SOURCE=Bob Downs
##DESCRIPTION=Colorless fragment of a tabular single crystal
##STATUS=The identification of this mineral has been confirmed by X-ray diffraction and chemical analysis
##URL=rruff.info/R040129
##MEASURED CHEMISTRY=(Na_0.99_K_0.01_)Al_1.00_Si_3.00_O_8_
##PIN_ID=L00143
##ORIENTATION=Laser parallel to -a* (-1 0 0). Fiducial mark perpendicular to laser is parallel to -b [0 -1 0]
96.663, 0.000
98.058, 63.549
99.453, 8.414
100.848, 8.058
102.242, 87.982
103.636, 163.603
105.030, 392.329
106.423, 610.140
107.817, 1024.934
109.210, 1515.164
110.603, 2242.637
111.996, 2366.420
113.388, 2382.760
114.780, 1823.076
116.172, 1432.932
117.564, 962.953
118.956, 709.805
120.347, 595.179
121.738, 533.808
123.129, 531.459
124.519, 540.933
125.910, 578.055
127.300, 660.676
128.690, 658.665
130.080, 816.918
131.469, 975.416
132.858, 975.173
134.248, 1228.162
135.636, 1386.277
137.025, 1718.406
138.413, 2187.450
139.801, 2926.306
141.189, 3802.882
142.577, 4899.108
143.964, 6344.927
145.352, 7754.292
146.739, 9124.160
148.125, 10014.503
149.512, 10365.286
150.898, 9196.486
152.284, 7178.075
153.670, 4680.035
155.056, 2767.347
156.441, 1921.992
157.827, 1444.953
159.212, 1474.217
160.596, 1556.768
161.981, 1699.651
163.365, 1841.064
164.749, 2025.421
166.133, 2413.785
167.517, 2972.107
168.900, 3737.250
170.283, 4185.057
171.666, 4444.011
173.049, 4296.964
174.431, 4207.920
175.813, 4526.882
177.195, 5023.852
178.577, 6022.833
179.959, 6811.765
181.340, 8030.488
182.721, 9099.061
184.102, 9707.546
185.483, 10005.968
186.863, 9174.356
188.244, 8262.729
189.624, 6741.111
191.003, 5459.505
192.383, 4454.924
193.762, 3544.378
195.141, 3306.873
196.520, 2942.415
197.899, 2806.008
199.277, 2828.654
200.656, 3001.357
202.034, 3693.119
203.411, 4530.943
204.789, 5905.826
206.166, 7224.771
207.543, 8363.780
208.920, 8492.850
210.297, 7501.981
211.673, 5981.175
213.049, 4309.431
214.425, 2930.748
215.801, 2050.125
217.176, 1562.560
218.552, 1180.053
219.927, 743.601
221.302, 642.204
222.676, 478.859
224.051, 309.566
225.425, 338.179
226.799, 210.484
228.173, 248.354
229.546, 127.135
230.919, 170.173
232.292, 134.946
233.665, 148.359
235.038, 184.474
236.410, 197.023
237.782, 172.324
239.154, 191.458
240.526, 237.272
241.898, 351.455
243.269, 443.836
244.640, 701.420
246.011, 890.018
247.381, 1318.671
248.752, 1696.375
250.122, 2047.126
251.492, 2113.920
252.861, 1956.753
254.231, 1588.624
255.600, 1235.532
256.969, 1091.475
258.338, 1095.453
259.707, 1238.466
261.075, 1603.513
262.443, 2044.095
263.811, 2778.249
265.179, 3752.747
266.546, 4675.400
267.914, 5220.735
269.281, 5326.581
270.647, 4822.873
272.014, 3991.554
273.380, 3140.584
274.747, 2355.928
276.113, 2095.555
277.478, 1709.439
278.844, 1651.560
280.209, 1784.899
281.574, 2162.439
282.939, 2777.164
284.304, 3919.062
285.668, 5641.118
287.032, 7700.327
288.396, 9799.671
289.760, 11109.149
291.123, 10618.753
292.487, 9468.473
293.850, 7218.307
295.212, 5208.244
296.575, 3680.279
297.937, 2686.408
299.300, 2004.621
300.662, 1481.916
302.023, 1234.286
303.385, 863.728
304.746, 776.238
306.107, 696.811
307.468, 637.446
308.829, 570.137
310.189, 449.884
311.549, 411.684
312.909, 288.534
314.269, 248.432
315.629, 185.377
316.988, 124.366
318.347, 221.398
319.706, 240.471
321.065, 254.583
322.423, 360.733
323.781, 735.919
325.139, 1208.140
326.497, 1533.395
327.855, 1574.329
329.212, 1807.990
330.569, 1385.322
331.926, 990.671
333.283, 614.034
334.639, 431.408
335.995, 262.790
337.351, 196.183
338.707, 121.584
340.063, 84.995
341.418, 62.417
342.773, 47.850
344.128, 56.291
345.483, 88.742
346.837, 126.210
348.192, 113.689
349.546, 36.183
350.899, 4.312
352.253, 7.200
353.606, 8.722
354.960, 5.259
356.313, 12.162
357.665, 45.612
359.018, 64.045
360.370, 83.431
361.722, 112.938
363.074, 110.411
364.426, 142.900
365.777, 165.413
367.128, 85.945
368.479, 185.471
369.830, 111.026
371.181, 109.569
372.531, 94.134
373.881, 162.720
375.231, 186.328
376.581, 157.979
377.930, 106.645
379.280, 80.332
380.629, 174.040
381.977, 51.771
383.326, 89.507
384.674, 143.268
386.023, 40.027
387.370, 16.801
388.718, 12.589
390.066, 88.629
391.413, 102.826
392.760, 249.995
394.107, 353.108
395.454, 665.148
396.800, 816.104
398.146, 932.995
399.492, 954.805
400.838, 804.518
402.184, 808.174
403.529, 789.757
404.874, 1298.267
406.219, 1626.748
407.564, 1794.222
408.908, 1769.704
410.252, 1687.197
411.596, 1927.697
412.940, 2627.205
414.284, 3604.720
415.627, 4355.241
416.970, 3915.771
418.313, 2908.307
419.656, 1834.850
420.999, 1110.398
422.341, 765.955
423.683, 555.516
425.025, 410.115
426.367, 457.750
427.708, 324.416
429.049, 309.109
430.390, 299.828
431.731, 277.199
433.072, 310.708
434.412, 353.104
435.752, 411.897
437.092, 538.705
438.432, 659.525
439.772, 671.358
441.111, 837.362
442.450, 1004.215
443.789, 1028.076
445.127, 1430.947
446.466, 1741.823
447.804, 2325.775
449.142, 3103.662
450.480, 4454.554
451.817, 6086.072
453.155, 8387.027
454.492, 10588.963
455.829, 11339.867
457.166, 10670.771
458.502, 8912.108
459.838, 6763.015
461.175, 5364.137
462.510, 4315.043
463.846, 3865.969
465.181, 3777.091
466.517, 3877.993
467.852, 4388.895
469.186, 5309.792
470.521, 6880.688
471.855, 9081.581
473.190, 12842.473
474.523, 18533.359
475.857, 24804.238
477.191, 31555.121
478.524, 32975.988
479.857, 30316.865
481.190, 24067.730
482.523, 16908.588
483.855, 12189.444
485.187, 8610.295
486.519, 6551.140
487.851, 5661.979
489.183, 4652.812
490.514, 4213.638
491.845, 4074.460
493.176, 4155.274
494.507, 4396.082
495.837, 5056.883
497.168, 5977.679
498.498, 7498.467
499.828, 10259.249
501.157, 13960.685
502.487, 19961.451
503.816, 28092.213
505.145, 35402.977
506.474, 40204.969
507.802, 37945.719
509.131, 31397.023
510.459, 23887.742
511.787, 16767.904
513.115, 12318.625
514.442, 9260.376
515.770, 7084.450
517.097, 5784.352
518.424, 4682.793
519.750, 4089.593
521.077, 3415.588
522.403, 2959.578
523.729, 2666.551
525.055, 2253.710
526.381, 2093.735
527.706, 1895.938
529.031, 1740.217
530.356, 1556.123
531.681, 1384.022
533.006, 1425.464
534.330, 1168.434
535.654, 1219.631
536.978, 1053.848
538.302, 938.167
539.625, 832.802
540.949, 823.945
542.272, 787.598
543.595, 736.502
544.917, 656.724
546.240, 678.171
547.562, 527.816
548.884, 539.828
550.206, 619.609
551.527, 544.620
552.849, 441.176
554.170, 408.417
555.491, 455.894
556.812, 382.422
558.132, 526.888
559.453, 379.933
560.773, 359.584
562.093, 426.041
563.412, 361.655
564.732, 387.104
566.051, 412.548
567.370, 374.989
568.689, 528.810
570.008, 514.242
571.326, 657.676
572.644, 789.272
573.963, 905.553
575.280, 1128.999
576.598, 1346.439
577.915, 1595.902
579.233, 1549.360
580.550, 1402.813
581.866, 1039.261
583.183, 854.704
584.499, 745.149
585.815, 463.589
587.131, 432.023
588.447, 400.455
589.763, 282.880
591.078, 281.317
592.393, 178.750
593.708, 187.176
595.022, 201.595
596.337, 181.009
597.651, 227.435
598.965, 76.854
600.279, 206.265
601.593, 120.672
602.906, 100.072
604.219, 150.465
605.532, 86.851
606.845, 132.229
608.158, 157.601
609.470, 50.964
610.782, 88.315
612.094, 33.657
613.406, 168.982
614.718, 128.300
616.029, 60.611
617.340, 108.909
618.651, 74.204
619.962, 109.487
621.272, 95.763
622.582, 74.032
623.892, 217.292
625.202, 164.543
626.512, 189.787
627.821, 161.023
629.131, 323.252
630.440, 392.474
631.749, 419.699
633.057, 433.916
634.366, 337.126
635.674, 368.328
636.982, 437.523
638.290, 393.709
639.597, 508.890
640.905, 610.063
642.212, 644.229
643.519, 785.387
644.825, 893.537
646.132, 1089.680
647.438, 952.816
648.744, 791.944
650.050, 619.064
651.356, 630.178
652.662, 456.283
653.967, 375.383
655.272, 243.473
656.577, 266.558
657.882, 41.634
659.186, 170.696
660.490, 160.753
661.794, 130.802
663.098, 16.842
664.402, 110.864
665.705, 43.879
667.009, 130.882
668.312, 116.878
669.614, 75.868
670.917, 17.854
672.219, 29.175
673.522, 53.759
674.824, 37.688
676.125, 99.618
677.427, 57.560
678.728, 99.515
680.030, 22.492
681.331, 20.484
682.631, 22.501
683.932, 54.479
685.232, 15.485
686.532, 106.473
687.832, 50.491
689.132, 68.478
690.432, 29.517
691.731, 60.497
693.030, 64.447
694.329, 15.596
695.628, 332.656
696.926, 51.265
698.224, 15.184
699.522, 91.887
700.820, 124.020
702.118, 91.031
703.415, 15.094
704.713, 57.846
706.010, 53.177
707.307, 46.809
708.603, 23.843
709.900, 50.910
711.196, 96.976
712.492, 11.854
713.788, 162.716
715.083, 0.572
716.379, 8.860
717.674, 187.679
718.969, 62.491
720.264, 88.296
721.558, 160.095
722.853, 167.889
724.147, 40.677
725.441, 335.455
726.735, 115.587
728.028, 188.816
729.322, 177.579
730.615, 375.404
731.908, 215.154
733.201, 333.954
734.493, 300.692
735.785, 427.426
737.078, 321.152
738.370, 362.875
739.661, 484.098
740.953, 524.807
742.244, 605.598
743.535, 672.641
744.826, 787.333
746.117, 838.387
747.407, 1004.068
748.698, 1021.743
749.988, 1366.414
751.278, 1536.078
752.567, 1820.150
753.857, 2489.805
755.146, 3149.289
756.435, 4269.490
757.724, 5699.126
759.013, 8138.754
760.301, 11048.381
761.590, 13517.930
762.878, 14827.545
764.165, 13937.155
765.453, 10936.136
766.741, 8295.681
768.028, 6004.241
769.315, 4413.830
770.602, 3373.416
771.888, 2692.562
773.175, 2342.547
774.461, 1891.901
775.747, 1781.468
777.033, 1551.011
778.319, 1200.351
779.604, 1109.903
780.889, 999.453
782.174, 918.999
783.459, 778.540
784.744, 828.078
786.028, 869.987
787.312, 849.518
788.596, 669.044
789.880, 748.567
791.164, 515.085
792.447, 653.601
793.730, 727.192
795.013, 696.700
796.296, 806.205
797.579, 885.706
798.861, 1005.204
800.143, 1064.699
801.425, 1124.191
802.707, 1543.682
803.989, 1753.168
805.270, 2332.652
806.551, 3032.133
807.832, 4011.612
809.113, 5361.090
810.394, 7010.562
811.674, 9540.034
812.954, 11918.842
814.234, 13118.310
815.514, 13297.774
816.794, 10437.237
818.073, 8445.433
819.352, 6164.893
820.631, 4343.777
821.910, 3223.235
823.189, 2482.689
824.467, 2022.020
825.745, 1590.313
827.023, 1336.092
828.301, 1245.174
829.578, 1053.989
830.856, 1023.438
832.133, 902.581
833.410, 732.028
834.687, 750.535
835.963, 658.997
837.240, 625.274
838.516, 569.608
839.792, 446.319
841.068, 367.407
842.343, 486.493
843.618, 335.791
844.894, 401.727
846.169, 350.951
847.443, 334.719
848.718, 323.128
849.992, 282.574
851.266, 177.189
852.540, 106.018
853.814, 90.373
855.088, 112.530
856.361, 81.980
857.634, 90.426
858.907, 145.660
860.180, 144.836
861.453, 169.777
862.725, 96.171
863.997, 40.874
865.269, 150.338
866.541, 58.749
867.812, 128.220
869.084, 39.881
870.355, 134.403
871.626, 103.884
872.897, 73.208
874.167, 42.698
875.438, 142.191
876.708, 31.688
877.978, 130.804
879.248, 39.690
880.517, 60.193
881.787, 139.293
883.056, 71.215
884.325, 88.254
885.594, 122.272
886.862, 157.152
888.130, 116.582
889.399, 66.028
890.667, 95.480
891.934, 45.062
893.202, 84.385
894.469, 133.837
895.737, 16.704
897.004, 42.759
898.270, 97.772
899.537, 111.664
900.803, 31.104
902.070, 80.558
903.336, 230.018
904.601, 100.516
905.867, 58.919
907.132, 178.359
908.398, 22.192
909.663, 227.258
910.928, 126.713
912.192, 106.175
913.457, 85.644
914.721, 85.119
915.985, 61.561
917.249, 87.041
918.512, 23.591
919.776, 113.099
921.039, 92.618
922.302, 42.144
923.565, 161.679
924.827, 18.778
926.090, 110.769
927.352, 100.323
928.614, 99.888
929.876, 109.458
931.138, 59.038
932.399, 48.630
933.660, 128.229
934.922, 17.836
936.182, 137.461
937.443, 72.906
938.704, 116.714
939.964, 146.343
941.224, 55.980
942.484, 205.628
943.744, 185.282
945.003, 5.054
946.262, 64.620
947.521, 104.303
948.780, 233.994
950.039, 83.694
951.298, 113.405
952.556, 173.124
953.814, 182.854
955.072, 222.591
956.330, 182.340
957.587, 102.098
958.845, 201.864
960.102, 51.646
961.359, 171.436
962.615, 61.236
963.872, 101.046
965.128, 150.868
966.384, 80.700
967.640, 70.543
968.896, 210.395
970.152, 140.263
971.407, 220.142
972.662, 380.034
973.917, 259.936
975.172, 419.848
976.427, 379.772
977.681, 469.712
978.935, 379.679
980.189, 279.658
981.443, 359.650
982.697, 229.656
983.950, 259.685
985.203, 69.725
986.456, 329.779
987.709, 209.853
988.962, 229.952
990.214, 320.090
991.467, 230.249
992.719, 290.460
993.971, 400.694
995.222, 350.938
996.474, 401.224
997.725, 491.523
998.976, 591.859
1000.227, 762.229
1001.478, 982.609
1002.728, 1133.025
1003.978, 1533.471
1005.229, 1603.927
1006.479, 1454.437
1007.728, 1454.958
1008.978, 1205.496
1010.227, 1366.103
1011.476, 1366.721
1012.725, 1457.370
1013.974, 1578.085
1015.223, 1428.832
1016.471, 1159.590
1017.719, 1180.363
1018.967, 753.023
1020.215, 842.375
1021.462, 584.456
1022.710, 435.287
1023.957, 456.134
1025.204, 486.990
1026.451, 547.865
1027.697, 418.755
1028.944, 249.659
1030.190, 449.216
1031.436, 289.612
1032.682, 360.551
1033.928, 458.432
1035.173, 339.390
1036.418, 364.307
1037.663, 345.289
1038.908, 268.887
1040.153, 609.891
1041.398, 400.907
1042.642, 800.428
1043.886, 751.467
1045.130, 792.536
1046.374, 1114.029
1047.617, 815.136
1048.860, 901.889
1050.104, 833.032
1051.347, 565.429
1052.589, 676.784
1053.832, 537.964
1055.074, 394.852
1056.316, 456.052
1057.558, 337.263
1058.800, 367.928
1060.042, 319.160
1061.283, 330.403
1062.524, 340.327
1063.765, 282.923
1065.006, 354.200
1066.247, 365.486
1067.487, 346.798
1068.728, 378.121
1069.968, 389.451
1071.208, 400.790
1072.447, 424.469
1073.687, 463.495
1074.926, 474.473
1076.165, 585.846
1077.404, 647.258
1078.643, 708.657
1079.881, 660.064
1081.120, 632.146
1082.358, 933.634
1083.596, 875.144
1084.834, 1068.422
1086.071, 1259.986
1087.309, 1329.232
1088.546, 1800.814
1089.783, 2012.404
1091.020, 2314.010
1092.256, 3175.625
1093.493, 3537.245
1094.729, 4729.101
1095.965, 5270.736
1097.201, 5722.379
1098.436, 6164.084
1099.672, 5965.740
1100.907, 5167.403
1102.142, 4699.074
1103.377, 3800.749
1104.612, 3142.619
1105.846, 2724.309
1107.081, 2166.002
1108.315, 2068.594
1109.549, 1640.305
1110.782, 1542.050
1112.016, 1473.773
1113.249, 1225.503
1114.483, 1217.271
1115.716, 1129.016
1116.948, 840.764
1118.181, 862.519
1119.413, 794.568
1120.646, 826.332
1121.878, 718.104
1123.110, 539.880
1124.341, 501.874
1125.573, 373.659
1126.804, 275.449
1128.035, 227.394
1129.266, 299.191
1130.497, 121.723
1131.727, 396.049
1132.957, 127.874
1134.188, 240.016
1135.418, 232.720
1136.647, 144.556
1137.877, 207.494
1139.106, 189.406
1140.335, 142.007
1141.564, 266.308
1142.793, 128.152
1144.022, 243.073
1145.250, 295.583
1146.479, 157.430
1147.707, 623.645
1148.934, 355.490
1150.162, 308.161
1151.390, 581.572
1152.617, 503.442
1153.844, 515.826
1155.071, 318.216
1156.298, 300.057
1157.524, 300.188
1158.751, 142.070
1159.977, 313.911
1161.203, 165.388
1162.428, 77.213
1163.654, 109.033
1164.879, 101.167
1166.105, 56.782
1167.330, 195.127
1168.555, 42.916
1169.779, 48.945
1171.004, 161.497
1172.228, 43.607
1173.452, 27.105
1174.676, 50.235
1175.900, 62.134
1177.123, 74.502
1178.346, 53.289
1179.570, 168.480
1180.793, 90.372
1182.015, 32.092
1183.238, 263.994
1184.460, 26.440
1185.683, 61.719
1186.905, 190.181
1188.126, 72.437
1189.348, 214.108
1190.569, 146.379
1191.791, 112.605
1193.012, 25.117
1194.233, 60.017
1195.453, 72.213
1196.674, 87.539
1197.894, 30.323
1199.114, 0.871
1200.334, 143.889
1201.554, 15.631
1202.774, 127.215
1203.993, 249.377
1205.212, 50.938
1206.431, 192.558
1207.650, 144.732
1208.869, 106.259
1210.087, 188.566
1211.305, 70.415
1212.524, 151.903
1213.741, 207.453
1214.959, 118.949
1216.177, 140.397
1217.394, 131.884
1218.611, 373.303
1219.828, 144.710
1221.045, 66.101
1222.261, 317.479
1223.478, 70.990
1224.694, 162.339
1225.910, 353.672
1227.126, 0.652
1228.342, 321.460
1229.557, 286.131
1230.772, 13.416
1231.987, 267.815
1233.202, 99.113
1234.417, 161.172
1235.631, 222.365
1236.846, 125.597
1238.060, 236.998
1239.274, 338.142
1240.488, 49.574
1241.701, 180.701
1242.915, 301.818
1244.128, 112.949
1245.341, 204.050
1246.554, 145.143
1247.767, 216.388
1248.979, 217.460
1250.191, 88.522
1251.403, 229.575
1252.615, 170.617
1253.827, 12.775
1255.039, 383.794
1256.250, 134.802
1257.461, 216.015
1258.672, 286.984
1259.883, 137.968
1261.094, 199.602
1262.304, 250.527
1263.514, 151.524
1264.724, 82.396
1265.934, 243.251
1267.144, 154.824
1268.354, 265.618
1269.563, 106.397
1270.772, 267.402
1271.981, 257.576
1273.190, 125.390
1274.398, 309.746
1275.607, 40.350
1276.815, 4.783
1278.023, 315.771
1279.231, 96.298
1280.439, 37.269
1281.646, 417.744
1282.853, 28.202
1284.060, 158.639
1285.267, 49.053
1286.474, 0.455
1287.681, 210.272
1288.887, 9.418
1290.093, 60.835
1291.299, 221.039
1292.505, 28.779
1293.711, 301.364
1294.916, 51.485
1296.121, 21.581
1297.327, 181.872
1298.531, 81.917
1299.736, 81.910
1300.941, 201.882
1302.145, 88.165
1303.349, 181.732
1304.553, 191.596
1305.757, 108.673
1306.961, 240.961
1308.164, 240.501
1309.367, 120.009
1310.570, 139.475
1311.773, 167.040
1312.976, 156.451
1314.178, 174.576
1315.381, 63.937
1316.583, 113.269
1317.785, 22.571
1318.987, 33.887
1320.188, 161.051
1321.390, 80.243
1322.591, 99.396
1323.792, 186.588
1324.993, 155.679
1326.193, 214.732
1327.394, 153.753
1328.594, 72.740
1329.794, 171.693
1330.994, 147.962
1332.194, 86.795
1333.394, 265.594
1334.593, 84.361
1335.792, 26.915
1336.991, 82.316
1338.190, 9.890
1339.389, 88.697
1340.587, 12.756
1341.786, 95.739
1342.984, 202.958
1344.182, 51.191
1345.379, 159.576
1346.577, 207.819
1347.774, 86.143
1348.972, 224.432
1350.169, 182.690
1351.365, 80.917
1352.562, 289.110
1353.759, 67.272
1354.955, 115.399
1356.151, 273.494
1357.347, 18.440
1358.543, 189.578
1359.738, 267.568
1360.934, 185.515
1362.129, 253.433
1363.324, 251.359
1364.519, 199.226
1365.713, 387.046
1366.908, 14.863
1368.102, 242.628
1369.296, 340.391
1370.490, 181.869
1371.684, 65.183
1372.877, 7.177
1374.071, 99.568
1375.264, 226.266
1376.457, 174.022
1377.650, 61.516
1378.843, 399.058
1380.035, 16.563
1381.227, 134.051
1382.419, 251.560
1383.611, 121.032
1384.803, 410.783
1385.995, 300.451
1387.186, 190.147
1388.377, 269.619
1389.568, 299.260
1390.759, 157.921
1391.950, 417.456
1393.140, 206.955
1394.331, 356.454
1395.521, 365.604
1396.711, 55.038
1397.900, 344.200
1399.090, 403.569
1400.279, 152.734
1401.469, 328.289
1402.658, 197.125
1403.847, 85.262
1405.035, 352.990
1406.224, 178.206
1407.412, 313.483
1408.600, 241.612
1409.788, 75.106
1410.976, 240.932
1412.164, 268.972
1413.351, 136.989
1414.538, 334.894
1415.725, 130.817
1416.912, 129.184
1418.099, 396.774
1419.285, 25.289
1420.472, 231.827
1421.658, 427.203
1422.844, 83.260
1424.030, 329.846
1425.215, 177.656
1426.401, 175.486
1427.586, 382.340
1428.771, 149.248
1429.956, 96.384
1431.141, 286.483
1432.325, 248.104
1433.510, 269.323
1434.694, 345.407
1435.878, 192.800
1437.062, 359.471
1438.245, 305.910
1439.429, 102.143
1440.612, 269.073
1441.795, 279.499
1442.978, 346.780
1444.161, 354.127
1445.343, 281.456
1446.526, 404.849
1447.708, 435.479
1448.890, 154.371
1450.072, 503.464
1451.253, 368.015
1452.435, 230.237
1453.616, 255.918
1454.797, 351.360
1455.978, 347.227
1457.159, 503.001
1458.340, 318.294
1459.520, 403.788
1460.700, 436.623
1461.880, 241.765
1463.060, 396.285
1464.240, 389.489
1465.420, 234.017
1466.599, 538.720
1467.778, 441.508
1468.957, 165.398
1470.136, 539.607
1471.315, 233.755
1472.493, 456.504
1473.671, 559.346
1474.849, 173.351
1476.027, 507.173
1477.205, 479.418
1478.383, 6.888
1479.560, 476.869
1480.737, 110.446
1481.914, 203.094
1483.091, 416.377
1484.268, 149.518
1485.444, 292.453
1486.621, 326.158
1487.797, 130.410
1488.973, 384.698
1490.149, 348.886
1491.324, 72.955
1492.500, 266.964
1493.675, 230.934
1494.850, 104.902
1496.025, 328.844
1497.200, 162.796
1498.374, 196.986
1499.548, 301.521
1500.723, 216.152
1501.897, 237.292
1503.071, 251.979
1504.244, 3.162
1505.418, 271.894
1506.591, 347.050
1507.764, 82.317
1508.937, 217.748
1510.110, 103.390
1511.282, 9.293
1512.455, 285.429
1513.627, 2.308
1514.799, 129.056
1515.971, 176.822
1517.143, 4.739
1518.314, 104.589
