##NAMES=Albite
##RRUFFID=R050402
##IDEAL CHEMISTRY=NaAlSi_3_O_8_
##LOCALITY=Urbano mine, Golconda District, Brazil
##OWNER=RRUFF
##SOURCE=Bob Downs
##DESCRIPTION=Colorless tabular single crystals associated with fluorapatite R050401
##STATUS=The identification of this mineral has been confirmed by X-ray diffraction and chemical analysis
##URL=rruff.info/R050402
##MEASURED CHEMISTRY=Na_1.00_Al_1.00_Si_3.00_O_8_
##PIN_ID=M00145
##ORIENTATION=Laser parallel to (0 1 1). Fiducial mark perpendicular to laser is parallel to -a [-1 0 0]
93.48000, 0.0000000E+00
94.71400, 18.02832
95.94800, 16.32617
97.18200, 173.6797
98.41600, 382.4199
99.64900, 655.6885
100.8830, 1170.510
102.1160, 1735.900
103.3490, 2714.451
104.5820, 3319.328
105.8150, 4280.307
107.0470, 5468.850
108.2800, 7026.742
109.5120, 7141.001
110.7440, 6838.842
111.9760, 6389.643
113.2080, 5382.907
114.4400, 4479.180
115.6710, 3664.053
116.9030, 2718.164
118.1340, 1670.203
119.3650, 1158.894
120.5960, 680.9980
121.8270, 422.3037
123.0580, 485.6279
124.2880, 136.8047
125.5190, 94.70312
126.7490, 245.2412
127.9790, 241.3896
129.2090, 277.1240
130.4390, 471.3984
131.6680, 660.0889
132.8980, 868.0469
134.1270, 896.1396
135.3560, 1358.267
136.5850, 1481.340
137.8140, 2130.285
139.0430, 2813.039
140.2710, 3359.545
141.5000, 3936.754
142.7280, 4470.621
143.9560, 4834.107
145.1840, 5075.177
146.4120, 5276.796
147.6390, 5379.934
148.8670, 5057.566
150.0940, 4658.666
151.3210, 4715.206
152.5490, 4428.169
153.7750, 4349.533
155.0020, 4484.285
156.2290, 5011.521
157.4550, 5535.320
158.6810, 6218.793
159.9080, 6670.693
161.1340, 7090.271
162.3590, 7579.866
163.5850, 7795.114
164.8110, 8026.238
166.0360, 8362.099
167.2610, 8577.368
168.4860, 8499.542
169.7110, 8061.535
170.9360, 7347.344
172.1610, 6998.025
173.3850, 6735.616
174.6100, 6472.154
175.8340, 6444.662
177.0580, 6666.164
178.2820, 6844.670
179.5050, 7215.200
180.7290, 7695.762
181.9520, 7700.365
183.1760, 7850.014
184.3990, 7891.721
185.6220, 7481.488
186.8450, 6925.316
188.0670, 6196.209
189.2900, 5633.170
190.5120, 5090.201
191.7340, 4478.301
192.9560, 4253.471
194.1780, 3749.713
195.4000, 3754.025
196.6220, 3873.407
197.8430, 4107.857
199.0640, 4561.380
200.2860, 5134.969
201.5070, 5785.625
202.7270, 6348.347
203.9480, 6913.131
205.1690, 7447.975
206.3890, 7534.876
207.6090, 7250.836
208.8290, 6578.852
210.0490, 5746.920
211.2690, 4847.041
212.4890, 3893.212
213.7080, 2933.431
214.9280, 2272.696
216.1470, 1657.176
217.3660, 1057.860
218.5850, 829.8955
219.8030, 1047.364
221.0220, 444.2666
222.2400, 386.0820
223.4590, 224.2148
224.6770, 165.2803
225.8950, 147.9570
227.1120, 56.60352
228.3300, 37.70996
229.5480, 9.581055
230.7650, 60.85547
231.9820, 93.27539
233.1990, 130.3271
234.4160, 183.3213
235.6330, 247.1484
236.8490, 288.0410
238.0660, 345.8711
239.2820, 418.2246
240.4980, 540.7373
241.7140, 648.9648
242.9300, 853.0664
244.1460, 976.4873
245.3610, 1153.043
246.5770, 1398.406
247.7920, 1521.468
249.0070, 1627.137
250.2220, 1881.347
251.4370, 1800.039
252.6510, 1855.167
253.8660, 1853.690
255.0800, 2039.574
256.2940, 2141.785
257.5080, 2822.302
258.7220, 3659.098
259.9360, 4105.150
261.1490, 4638.445
262.3630, 5413.960
263.5760, 6138.686
264.7890, 6924.604
266.0020, 7340.703
267.2150, 7432.932
268.4270, 7351.402
269.6400, 6971.980
270.8520, 6369.701
272.0640, 5590.557
273.2760, 5091.539
274.4880, 4604.637
275.7000, 4546.846
276.9120, 4735.160
278.1230, 5168.570
279.3340, 6037.070
280.5450, 7155.047
281.7560, 8537.321
282.9670, 10283.06
284.1780, 12300.88
285.3880, 14412.76
286.5980, 16221.71
287.8090, 17305.71
289.0190, 17313.78
290.2290, 16145.89
291.4380, 14194.07
292.6480, 12262.28
293.8570, 10084.55
295.0670, 8029.861
296.2760, 6387.213
297.4850, 5045.605
298.6930, 3754.034
299.9020, 3145.498
301.1110, 2628.996
302.3190, 2225.525
303.5270, 1982.083
304.7350, 1625.666
305.9430, 1582.269
307.1510, 1327.887
308.3580, 1109.519
309.5660, 1131.155
310.7730, 837.7969
311.9800, 798.4365
313.1870, 740.0752
314.3940, 645.7109
315.6010, 627.3467
316.8070, 629.9824
318.0130, 600.6162
319.2200, 684.2510
320.4260, 716.8867
321.6310, 859.5264
322.8370, 935.1660
324.0430, 932.8066
325.2480, 1013.666
326.4540, 1003.025
327.6590, 1062.724
328.8640, 891.3613
330.0680, 873.9990
331.2730, 607.6338
332.4780, 479.2676
333.6820, 275.8984
334.8860, 108.5264
336.0900, 147.1514
337.2940, 14.77246
338.4980, 68.38672
339.7010, 21.00488
340.9050, 58.41113
342.1080, 161.1582
343.3110, 61.28125
344.5140, 150.2529
345.7170, 7.779297
346.9200, 26.70703
348.1220, 158.7812
349.3240, 40.73633
350.5270, 71.28125
351.7290, 193.8633
352.9310, 18.48926
354.1320, 117.1758
355.3340, 6.109375
356.5350, 187.6260
357.7370, 38.42969
358.9380, 219.2676
360.1390, 182.1836
361.3400, 114.1719
362.5400, 3.773438
363.7410, 129.3320
364.9410, 200.5205
366.1410, 107.8125
367.3410, 79.18066
368.5410, 138.6904
369.7410, 49.31641
370.9400, 124.0586
372.1400, 130.9590
373.3390, 156.0283
374.5380, 104.2305
375.7370, 60.60156
376.9360, 101.1064
378.1350, 94.74609
379.3330, 83.54980
380.5310, 77.09277
381.7300, 70.26953
382.9280, 30.74316
384.1260, 60.03809
385.3230, 44.35547
386.5210, 42.69141
387.7180, 104.9551
388.9160, 170.6240
390.1130, 225.3193
391.3100, 222.0713
392.5060, 403.8408
393.7030, 473.6338
394.9000, 566.4385
396.0960, 827.2578
397.2920, 927.0889
398.4880, 1103.925
399.6840, 1393.767
400.8800, 1853.610
402.0750, 2194.455
403.2710, 2657.311
404.4660, 3075.170
405.6610, 3336.062
406.8560, 3337.007
408.0510, 3248.018
409.2450, 2973.030
410.4400, 3036.035
411.6340, 3109.053
412.8280, 3068.098
414.0220, 3037.182
415.2160, 2631.299
416.4100, 2329.406
417.6030, 1980.519
418.7970, 1664.650
419.9900, 1340.769
421.1830, 990.8760
422.3760, 613.9707
423.5690, 585.0537
424.7610, 410.1221
425.9540, 514.1748
427.1460, 542.2129
428.3380, 464.2383
429.5300, 581.2471
430.7220, 334.2422
431.9140, 596.2207
433.1050, 646.1816
434.2970, 434.1250
435.4880, 665.0518
436.6790, 615.9619
437.8700, 617.8525
439.0610, 770.7246
440.2510, 1045.580
441.4420, 1189.416
442.6320, 1632.232
443.8220, 1737.032
445.0120, 2165.812
446.2020, 2621.571
447.3910, 3324.312
448.5810, 4301.034
449.7700, 5108.734
450.9600, 5952.416
452.1490, 6896.076
453.3370, 7828.719
454.5260, 8042.340
455.7150, 7820.939
456.9030, 7277.521
458.0910, 7063.082
459.2800, 7393.623
460.4670, 7949.145
461.6550, 6431.646
462.8430, 6827.127
464.0300, 7667.055
465.2180, 8853.497
466.4050, 10717.92
467.5920, 13467.32
468.7790, 16800.70
469.9650, 20954.06
471.1520, 25906.39
472.3380, 31206.71
473.5250, 37125.01
474.7110, 42386.28
475.8970, 45462.54
477.0820, 45322.79
478.2680, 42051.00
479.4540, 36356.20
480.6390, 30363.23
481.8240, 24439.39
483.0090, 19360.55
484.1940, 15128.66
485.3780, 12293.76
486.5630, 10274.42
487.7470, 9186.476
488.9320, 8443.463
490.1160, 7911.561
491.3000, 8175.559
492.4830, 8554.604
493.6670, 9987.844
494.8500, 11331.99
496.0340, 14091.74
497.2170, 17466.04
498.4000, 21663.93
499.5820, 26061.78
500.7650, 31393.98
501.9480, 36560.66
503.1300, 42035.34
504.3120, 45709.86
505.4940, 46460.85
506.6760, 43987.18
507.8580, 39367.21
509.0390, 33580.51
510.2210, 27598.36
511.4020, 22127.59
512.5830, 17426.93
513.7640, 13716.77
514.9450, 11003.08
516.1250, 9133.814
517.3060, 7404.477
518.4860, 6280.592
519.6660, 5543.235
520.8460, 4808.160
522.0260, 4190.653
523.2060, 3684.461
524.3850, 3407.660
525.5650, 2901.387
526.7440, 2730.120
527.9230, 2660.056
529.1020, 2330.635
530.2810, 2132.186
531.4590, 2040.451
532.6380, 1760.249
533.8160, 1601.901
534.9940, 1685.199
536.1720, 1404.847
537.3500, 1356.463
538.5270, 1232.945
539.7050, 1114.863
540.8820, 1017.505
542.0590, 905.2266
543.2360, 822.8994
544.4130, 960.7041
545.5900, 868.3301
546.7660, 841.2461
547.9430, 664.5391
549.1190, 784.1494
550.2950, 822.9980
551.4710, 831.6133
552.6470, 731.5830
553.8220, 649.8105
554.9980, 617.0498
556.1730, 786.4053
557.3480, 534.9941
558.5230, 538.0781
559.6980, 725.6172
560.8730, 495.1855
562.0470, 486.2334
563.2220, 554.0518
564.3960, 494.6348
565.5700, 589.1768
566.7440, 859.7119
567.9170, 850.2402
569.0910, 961.3545
570.2640, 978.8701
571.4380, 1036.631
572.6110, 1237.132
573.7840, 1244.629
574.9570, 1235.118
576.1290, 1436.600
577.3020, 1562.078
578.4740, 1268.555
579.6460, 1290.029
580.8180, 1062.500
581.9900, 989.9639
583.1620, 966.4219
584.3330, 738.8730
585.5040, 524.3203
586.6760, 368.7607
587.8470, 337.1953
589.0180, 339.6260
590.1880, 415.0488
591.3590, 228.4668
592.5290, 286.8867
593.7000, 237.3066
594.8700, 280.7227
596.0400, 410.1338
597.2090, 364.5410
598.3790, 267.9414
599.5490, 279.3379
600.7180, 136.7285
601.8870, 271.1152
603.0560, 315.4971
604.2250, 52.87402
605.3940, 278.2422
606.5620, 154.6045
607.7300, 200.9639
608.8990, 200.3174
610.0670, 209.6914
611.2350, 138.0703
612.4020, 181.4443
613.5700, 202.8145
614.7370, 223.1816
615.9050, 340.5430
617.0720, 357.9219
618.2390, 311.2559
619.4060, 446.6074
620.5720, 418.9961
621.7390, 421.3857
622.9050, 480.7881
624.0710, 454.1963
625.2370, 561.6230
626.4030, 546.9756
627.5690, 620.4961
628.7340, 616.9414
629.9000, 602.3916
631.0650, 751.8662
632.2300, 751.3379
633.3950, 806.8252
634.5600, 863.2080
635.7240, 666.9463
636.8890, 954.5625
638.0530, 782.2158
639.2170, 858.8779
640.3810, 974.5947
641.5450, 1234.332
642.7080, 1422.134
643.8720, 1335.992
645.0350, 1262.891
646.1980, 1170.802
647.3610, 1267.756
648.5240, 885.7969
649.6870, 788.8770
650.8490, 855.0293
652.0120, 664.2305
653.1740, 459.4570
654.3360, 483.7324
655.4980, 315.0547
656.6600, 335.4355
657.8210, 306.8574
658.9830, 262.3105
660.1440, 133.8066
661.3050, 142.3457
662.4660, 89.92383
663.6270, 73.54883
664.7870, 41.12695
665.9480, 64.90625
667.1080, 6.371094
668.2680, 16.62891
669.4280, 18.12109
670.5880, 24.86719
671.7480, 111.3965
672.9070, 119.2891
674.0670, 7.029297
675.2260, 162.6328
676.3850, 7.294922
677.5440, 13.94336
678.7030, 58.59375
679.8610, 151.2383
681.0200, 85.88086
682.1780, 98.09766
683.3360, 12.84961
684.4940, 8.759766
685.6520, 109.6445
686.8090, 179.1289
687.9670, 247.7246
689.1240, 3.531250
690.2810, 120.7676
691.4380, 46.00000
692.5950, 97.81055
693.7520, 161.6914
694.9080, 131.6777
696.0650, 136.2480
697.2210, 31.83203
698.3770, 86.94727
699.5330, 123.8730
700.6880, 41.68945
701.8440, 64.49805
702.9990, 103.2988
704.1550, 167.0977
705.3100, 181.8906
706.4650, 175.6836
707.6190, 32.46875
708.7740, 141.2480
709.9290, 65.02344
711.0830, 227.7930
712.2370, 164.5586
713.3910, 303.3223
714.5450, 364.0801
715.6980, 414.8359
716.8520, 448.7168
718.0050, 510.5625
719.1580, 385.3086
720.3110, 505.0488
721.4640, 337.7871
722.6170, 364.5234
723.7700, 210.2539
724.9220, 410.9824
726.0740, 403.7070
727.2260, 270.4258
728.3780, 316.1426
729.5300, 214.8555
730.6810, 371.7773
731.8330, 364.6758
732.9840, 335.5449
734.1350, 375.3340
735.2860, 372.3184
736.4370, 423.7305
737.5880, 433.4102
738.7380, 559.0938
739.8880, 648.7734
741.0390, 751.4512
742.1890, 825.1250
743.3380, 936.3184
744.4880, 1008.994
745.6380, 1191.656
746.7870, 1285.316
747.9360, 1508.260
749.0850, 1684.756
750.2340, 2278.402
751.3830, 2574.047
752.5310, 3270.686
753.6800, 3970.322
754.8280, 5135.953
755.9760, 6702.582
757.1240, 7877.205
758.2720, 9333.543
759.4190, 10922.16
760.5670, 11831.35
761.7140, 11772.01
762.8610, 11233.61
764.0080, 9833.207
765.1550, 8457.412
766.3020, 7213.998
767.4480, 5664.580
768.5950, 4845.613
769.7410, 3999.184
770.8870, 3542.746
772.0330, 3166.059
773.1780, 2619.611
774.3240, 2652.502
775.4690, 2307.039
776.6140, 1975.574
777.7590, 1873.102
778.9040, 1591.623
780.0490, 1261.135
781.1940, 1373.697
782.3380, 1141.197
783.4820, 1053.686
784.6260, 851.1680
785.7700, 995.5645
786.9140, 658.0293
788.0580, 822.0781
789.2010, 577.5254
790.3450, 720.9629
791.4880, 827.3926
792.6310, 925.8086
793.7730, 782.2188
794.9160, 828.6172
796.0590, 916.0039
797.2010, 817.3828
798.3430, 946.7480
799.4850, 1264.104
800.6270, 1249.744
801.7690, 1412.686
802.9100, 1743.039
804.0520, 2061.178
805.1930, 2409.662
806.3340, 2972.811
807.4750, 3840.367
808.6160, 4582.014
809.7560, 5659.203
810.8970, 6367.441
812.0370, 6904.023
813.1770, 6992.355
814.3170, 7022.301
815.4570, 6451.309
816.5960, 5554.215
817.7360, 4824.385
818.8750, 3753.457
820.0140, 3120.572
821.1530, 2428.537
822.2920, 1931.672
823.4310, 1645.498
824.5690, 1427.938
825.7070, 1075.047
826.8460, 868.9043
827.9840, 763.9824
829.1220, 819.6934
830.2590, 764.1328
831.3970, 758.5488
832.5340, 630.8340
833.6710, 678.8770
834.8080, 655.4121
835.9450, 484.4785
837.0820, 385.5020
838.2190, 395.0352
839.3550, 286.7852
840.4910, 450.7598
841.6270, 526.7656
842.7630, 414.8926
843.8990, 444.4160
845.0350, 250.1523
846.1700, 301.1367
847.3060, 258.8633
848.4410, 206.8379
849.5760, 181.0957
850.7100, 179.7715
851.8450, 87.73047
852.9800, 6.312500
854.1140, 5.972656
855.2480, 214.5488
856.3820, 69.46484
857.5160, 295.3770
858.6500, 387.2871
859.7830, 131.1895
860.9170, 221.0879
862.0500, 284.9844
863.1830, 309.8750
864.3160, 223.7617
865.4480, 90.64453
866.5810, 9.478516
867.7130, 9.314453
868.8460, 11.23047
869.9780, 22.06836
871.1100, 95.90430
872.2410, 125.7324
873.3730, 87.55859
874.5050, 175.3828
875.6360, 56.19922
876.7670, 152.0137
877.8980, 83.82422
879.0290, 176.6328
880.1590, 119.4375
881.2900, 70.23828
882.4200, 261.0371
883.5500, 77.16797
884.6800, 22.42188
885.8100, 72.30273
886.9400, 72.02344
888.0690, 35.74023
889.1990, 107.4531
890.3280, 60.16406
891.4570, 201.8711
892.5860, 37.57422
893.7140, 149.7246
894.8430, 190.8887
895.9710, 52.50000
897.1000, 14.07617
898.2280, 131.6484
899.3560, 229.2168
900.4830, 22.21484
901.6110, 24.33203
902.7380, 89.87695
903.8660, 36.58008
904.9930, 54.93750
906.1200, 48.45117
907.2460, 74.03516
908.3730, 219.4336
909.5000, 84.10156
910.6260, 69.31445
911.7520, 183.7500
912.8780, 117.1836
914.0040, 38.61523
915.1290, 118.0449
916.2550, 3.474609
917.3800, 80.90039
918.5050, 76.32422
919.6300, 33.74609
920.7550, 80.83203
921.8800, 112.5430
923.0040, 140.0820
924.1290, 127.2168
925.2530, 90.51562
926.3770, 59.85352
927.5010, 191.1875
928.6250, 187.5215
929.7480, 178.8887
930.8720, 156.2559
931.9950, 8.621094
933.1180, 89.98633
934.2410, 53.35352
935.3640, 44.28320
936.4860, 16.93750
937.6090, 10.60156
938.7310, 119.7344
939.8530, 17.93359
940.9750, 93.40234
942.0970, 46.75000
943.2180, 52.10352
944.3400, 91.54102
945.4610, 51.80859
946.5820, 41.15820
947.7030, 22.48242
948.8240, 17.86719
949.9450, 54.77344
951.0650, 73.56641
952.1860, 74.93164
953.3060, 197.2988
954.4260, 158.6719
955.5460, 244.0703
956.6650, 129.4805
957.7850, 283.9004
958.9040, 244.3613
960.0230, 224.8965
961.1420, 185.5293
962.2610, 184.5918
963.3800, 163.4551
964.4990, 262.5215
965.6170, 226.2402
966.7350, 426.0254
967.8530, 657.8535
968.9710, 661.6895
970.0890, 799.5430
971.2070, 903.4277
972.3240, 919.3164
973.4410, 1061.213
974.5580, 1134.131
975.6750, 1105.051
976.7920, 1130.975
977.9090, 1007.900
979.0250, 1060.832
980.1410, 1005.770
981.2580, 847.7090
982.3740, 841.6523
983.4890, 830.6035
984.6050, 717.5547
985.7200, 427.5098
986.8360, 535.4707
987.9510, 424.3066
989.0660, 375.1777
990.1810, 365.1523
991.2950, 434.1328
992.4100, 472.1152
993.5240, 451.1035
994.6390, 659.0977
995.7530, 738.0918
996.8660, 730.0938
997.9800, 900.1016
999.0940, 967.1113
1000.207, 1183.127
1001.320, 1354.936
1002.433, 1529.771
1003.546, 1595.631
1004.659, 1718.578
1005.772, 1765.617
1006.884, 1906.662
1007.996, 1891.713
1009.108, 1915.768
1010.220, 2352.830
1011.332, 2183.896
1012.444, 2413.969
1013.555, 2500.045
1014.666, 2227.129
1015.777, 2012.217
1016.888, 1835.311
1017.999, 1652.900
1019.110, 1480.385
1020.220, 1357.498
1021.331, 1414.617
1022.441, 1250.742
1023.551, 1091.877
1024.661, 1240.018
1025.770, 1342.164
1026.880, 1334.318
1027.989, 1422.760
1029.098, 1582.926
1030.207, 1427.516
1031.316, 1437.648
1032.425, 1581.836
1033.533, 1320.033
1034.642, 1273.627
1035.750, 1125.838
1036.858, 1110.059
1037.966, 1148.828
1039.073, 1142.062
1040.181, 1131.627
1041.288, 1063.807
1042.396, 1121.068
1043.503, 1114.994
1044.610, 1173.182
1045.716, 1170.467
1046.823, 1052.762
1047.929, 979.0762
1049.036, 1131.396
1050.142, 824.6699
1051.248, 708.0098
1052.353, 846.3594
1053.459, 599.7168
1054.564, 572.1602
1055.670, 542.5352
1056.775, 355.3262
1057.880, 463.7207
1058.985, 526.2773
1060.089, 415.6895
1061.194, 575.1133
1062.298, 701.9863
1063.402, 716.4277
1064.506, 775.8770
1065.610, 687.3340
1066.713, 675.8008
1067.817, 786.2852
1068.920, 779.5078
1070.023, 904.3105
1071.126, 975.4141
1072.229, 1122.938
1073.332, 1035.762
1074.435, 1071.303
1075.537, 1216.150
1076.639, 1381.709
1077.741, 1580.191
1078.843, 1798.771
1079.945, 1769.359
1081.046, 1996.125
1082.148, 2218.732
1083.249, 2593.695
1084.350, 3215.428
1085.451, 3336.062
1086.551, 3848.707
1087.652, 4177.385
1088.752, 4975.049
1089.853, 6136.717
1090.953, 7364.254
1092.053, 8475.125
1093.152, 9711.348
1094.252, 10701.05
1095.351, 11904.56
1096.451, 12488.29
1097.550, 12591.04
1098.649, 12756.07
1099.748, 11900.84
1100.846, 11093.72
1101.945, 10182.50
1103.043, 9113.281
1104.141, 8265.068
1105.239, 7448.863
1106.337, 6819.498
1107.434, 6046.246
1108.532, 5851.082
1109.629, 5414.924
1110.726, 5092.801
1111.823, 5152.684
1112.920, 4682.574
1114.017, 4397.469
1115.113, 4479.369
1116.210, 3891.277
1117.306, 3629.189
1118.402, 3212.107
1119.498, 2678.033
1120.593, 2625.969
1121.689, 2005.383
1122.784, 1700.336
1123.879, 1518.297
1124.974, 1471.262
1126.069, 1298.230
1127.164, 1106.207
1128.259, 1007.189
1129.353, 855.1777
1130.447, 762.9492
1131.541, 668.1699
1132.635, 645.1738
1133.729, 620.1953
1134.822, 656.2324
1135.916, 573.5547
1137.009, 371.3242
1138.102, 505.3770
1139.195, 480.4355
1140.288, 595.5020
1141.380, 407.5703
1142.473, 344.6484
1143.565, 573.7305
1144.657, 423.8164
1145.749, 260.9082
1146.841, 418.0059
1147.932, 304.1074
1149.024, 390.2188
1150.115, 241.3555
1151.206, 448.5059
1152.297, 213.7148
1153.388, 194.8750
1154.479, 323.6367
1155.569, 536.8105
1156.659, 192.9922
1157.750, 194.1758
1158.839, 262.3652
1159.929, 299.6035
1161.019, 332.8438
1162.108, 244.1133
1163.198, 115.3848
1164.287, 228.6621
1165.376, 217.9453
1166.465, 265.2402
1167.553, 220.5410
1168.642, 196.8438
1169.730, 204.1738
1170.818, 232.4902
1171.906, 176.8203
1172.994, 170.1777
1174.082, 136.5391
1175.170, 93.06836
1176.257, 105.2832
1177.344, 217.6426
1178.431, 406.2148
1179.518, 85.58203
1180.605, 115.9531
1181.691, 64.32812
1182.778, 211.7051
1183.864, 266.0898
1184.950, 23.47656
1186.036, 55.88867
1187.122, 96.30664
1188.207, 77.76367
1189.292, 155.7734
1190.378, 105.6133
1191.463, 12.00195
1192.548, 127.6035
1193.632, 131.7285
1194.717, 194.0625
1195.801, 104.4043
1196.886, 137.7461
1197.970, 152.6699
1199.054, 1.707031
1200.137, 131.0684
1201.221, 152.4375
1202.305, 7.810547
1203.388, 62.63867
1204.471, 60.35156
1205.554, 4.041016
1206.637, 91.34375
1207.719, 90.73242
1208.802, 23.14258
1209.884, 48.62500
1210.966, 306.0430
1212.048, 30.47070
1213.130, 130.8984
1214.212, 99.65820
1215.293, 120.7324
1216.374, 200.1250
1217.456, 97.48047
1218.536, 242.8652
1219.617, 255.2109
1220.698, 13.43945
1221.778, 51.09961
1222.859, 88.26562
1223.939, 61.48242
1225.019, 60.24609
1226.099, 71.30469
1227.178, 230.7520
1228.258, 33.00781
1229.337, 231.2109
1230.417, 5.431641
1231.496, 107.6504
1232.574, 79.87109
1233.653, 195.0938
1234.732, 85.31641
1235.810, 55.45898
1236.888, 156.7344
1237.966, 146.9434
1239.044, 193.1367
1240.122, 75.36719
1241.199, 176.5605
1242.277, 59.75586
1243.354, 118.9531
1244.431, 90.14844
1245.508, 354.3477
1246.585, 267.5547
1247.661, 84.75977
1248.738, 353.9648
1249.814, 278.1719
1250.890, 5.376953
1251.966, 186.5781
1253.042, 147.7793
1254.117, 66.98047
1255.193, 190.1816
1256.268, 185.3809
1257.343, 209.5820
1258.418, 159.7832
1259.493, 58.98242
1260.567, 185.1855
1261.642, 271.3848
1262.716, 208.0469
1263.790, 139.4219
1264.864, 372.6230
1265.938, 321.8223
1267.011, 338.0234
1268.085, 461.2500
1269.158, 173.4785
1270.231, 194.7070
1271.304, 333.9316
1272.377, 341.1602
1273.450, 197.3887
1274.522, 189.6133
