##NAMES=Albite
##RRUFFID=R040068
##IDEAL CHEMISTRY=NaAlSi_3_O_8_
##LOCALITY=Harding Pegmatite, Dixon, New Mexico, USA
##OWNER=RRUFF
##SOURCE=University of Arizona Mineral Museum
##DESCRIPTION=Tan colored crystal fragment
##STATUS=The identification of this mineral has been confirmed by X-ray diffraction and chemical analysis
##URL=rruff.info/R040068
##MEASURED CHEMISTRY=(Na_0.99_Ca_0.01_)Al_1.00_(Si_0.99_Al_0.01_)_3_O_8_
##PIN_ID=L00307
##ORIENTATION=Laser parallel to c* (0 0 1). Fiducial mark perpendicular to laser is parallel to -a [-1 0 0]
116.172, 0.000
117.564, 147.959
118.956, 12.450
120.347, 68.429
121.738, 130.520
123.129, 157.909
124.519, 196.861
125.910, 242.753
127.300, 280.230
128.690, 351.615
130.080, 388.044
131.469, 518.743
132.858, 583.116
134.248, 750.720
135.636, 811.180
137.025, 1044.168
138.413, 1339.395
139.801, 1566.608
141.189, 2335.587
142.577, 2806.146
143.964, 3578.123
145.352, 4611.381
146.739, 5225.812
148.125, 5791.396
149.512, 5608.117
150.898, 5115.922
152.284, 4334.719
153.670, 3174.400
155.056, 2254.879
156.441, 1606.080
157.827, 1257.936
159.212, 1090.377
160.596, 883.337
161.981, 886.764
163.365, 950.621
164.749, 1054.874
166.133, 1099.496
167.517, 1234.464
168.900, 1419.756
170.283, 1535.354
171.666, 1601.242
173.049, 1867.403
174.431, 1973.825
175.813, 2300.531
177.195, 2757.859
178.577, 3056.058
179.959, 3604.902
181.340, 4034.525
182.721, 4284.636
184.102, 4645.141
185.483, 4465.924
186.863, 4256.728
188.244, 3687.541
189.624, 3148.370
191.003, 2799.215
192.383, 2280.080
193.762, 2160.963
195.141, 1811.870
196.520, 1652.865
197.899, 1683.883
199.277, 1754.873
200.656, 2195.710
202.034, 2356.445
203.411, 2897.119
204.789, 3357.762
206.166, 3898.391
207.543, 3939.023
208.920, 3739.670
210.297, 3420.341
211.673, 2791.043
213.049, 2061.785
214.425, 1622.565
215.801, 1153.394
217.176, 854.269
218.552, 705.193
219.927, 586.169
221.302, 307.196
222.676, 278.276
224.051, 139.406
225.425, 180.590
226.799, 221.826
228.173, 193.112
229.546, 193.448
230.919, 95.835
232.292, 127.271
233.665, 93.784
235.038, 52.581
236.410, 143.137
237.782, 145.734
239.154, 205.365
240.526, 296.749
241.898, 304.903
243.269, 526.033
244.640, 669.405
246.011, 895.430
247.381, 1152.050
248.752, 1374.029
250.122, 1441.641
251.492, 1459.501
252.861, 1197.992
254.231, 1049.207
255.600, 819.911
256.969, 630.664
258.338, 671.462
259.707, 572.307
261.075, 793.191
262.443, 834.123
263.811, 965.094
265.179, 1206.096
266.546, 1517.127
267.914, 1578.182
269.281, 1489.262
270.647, 1530.367
272.014, 1281.494
273.380, 862.965
274.747, 887.201
276.113, 858.480
277.478, 769.691
278.844, 780.961
280.209, 862.320
281.574, 1308.715
282.939, 1625.387
284.304, 2152.207
285.668, 2730.221
287.032, 3288.725
288.396, 3857.635
289.760, 4046.898
291.123, 3746.484
292.487, 3186.344
293.850, 2586.453
295.212, 1976.793
296.575, 1357.332
297.937, 1108.062
299.300, 718.965
300.662, 630.016
302.023, 471.205
303.385, 292.545
304.746, 354.004
306.107, 305.576
307.468, 157.264
308.829, 189.047
310.189, 160.918
311.549, 112.875
312.909, 134.908
314.269, 77.016
315.629, 29.189
316.988, 131.428
318.347, 343.723
319.706, 266.070
321.065, 368.469
322.423, 730.914
323.781, 1113.402
325.139, 1345.934
326.497, 1578.506
327.855, 1661.113
329.212, 1513.756
330.569, 1236.434
331.926, 839.141
333.283, 591.881
334.639, 404.646
335.995, 267.443
337.351, 250.262
338.707, 123.109
340.063, 135.977
341.418, 118.863
342.773, 181.766
344.128, 24.680
345.483, 127.604
346.837, 170.535
348.192, 3.473
349.546, 36.412
350.899, 40.641
352.253, 12.301
353.606, 124.750
354.960, 11.826
356.313, 138.900
357.665, 26.006
359.018, 83.082
360.370, 180.174
361.722, 82.707
363.074, 144.410
364.426, 28.439
365.777, 98.678
367.128, 175.818
368.479, 103.000
369.830, 30.182
371.181, 137.367
372.531, 94.557
373.881, 111.770
375.231, 48.979
376.581, 16.199
377.930, 76.570
379.280, 150.637
380.629, 7.883
381.977, 65.135
383.326, 82.408
384.674, 10.295
386.023, 16.990
387.370, 64.279
388.718, 18.406
390.066, 31.107
391.413, 105.475
392.760, 146.521
394.107, 319.232
395.454, 371.982
396.800, 544.688
398.146, 547.377
399.492, 540.031
400.838, 602.633
402.184, 545.146
403.529, 737.613
404.874, 950.043
406.219, 1073.891
407.564, 1126.170
408.908, 1168.381
410.252, 1070.561
411.596, 1532.688
412.940, 1924.781
414.284, 2146.840
415.627, 2078.861
416.970, 1720.877
418.313, 1222.891
419.656, 884.900
420.999, 566.908
422.341, 378.912
423.683, 280.914
425.025, 132.912
426.367, 124.906
427.708, 58.074
429.049, 1.121
430.390, 61.281
431.731, 73.320
433.072, 175.271
434.412, 147.221
435.752, 153.979
437.092, 325.898
438.432, 322.615
439.772, 339.949
441.111, 422.006
442.450, 475.232
443.789, 607.412
445.127, 713.508
446.466, 837.936
447.804, 1002.867
449.142, 1465.082
450.480, 2197.430
451.817, 2622.969
453.155, 3305.693
454.492, 3588.680
455.829, 3543.660
457.166, 3225.617
458.502, 2760.615
459.838, 2433.590
461.175, 1995.516
462.510, 1597.436
463.846, 1654.344
465.181, 1657.033
466.517, 1858.922
467.852, 2183.996
469.186, 2575.875
470.521, 3517.994
471.855, 4459.834
473.190, 6161.660
474.523, 8273.867
475.857, 10395.662
477.191, 11807.447
478.524, 12029.215
479.857, 10480.965
481.190, 8442.703
482.523, 6444.422
483.855, 4776.121
485.187, 3687.807
486.519, 3149.477
487.851, 2581.127
489.183, 2172.760
490.514, 2144.375
491.845, 1995.971
493.176, 2177.549
494.507, 2529.105
495.837, 2880.674
497.168, 3732.193
498.498, 4823.695
499.828, 6415.176
501.157, 8936.639
502.487, 12208.078
503.816, 15469.500
505.145, 17880.900
506.474, 18302.314
507.802, 16314.164
509.131, 13645.488
510.459, 10537.879
511.787, 7887.531
513.115, 6049.129
514.442, 4624.652
515.770, 3485.680
517.097, 2839.904
518.424, 2207.836
519.750, 1954.898
521.077, 1669.584
522.403, 1490.711
523.729, 1334.506
525.055, 1241.986
526.381, 1037.715
527.706, 949.016
529.031, 970.273
530.356, 709.338
531.681, 689.273
533.006, 554.762
534.330, 766.688
535.654, 584.471
536.978, 703.846
538.302, 309.881
539.625, 501.695
540.949, 321.262
542.272, 437.723
543.595, 433.234
544.917, 237.090
546.240, 377.494
547.562, 263.656
548.884, 427.828
550.206, 378.422
551.527, 264.332
552.849, 294.975
554.170, 125.596
555.491, 276.408
556.812, 216.982
558.132, 429.949
559.453, 250.543
560.773, 221.080
562.093, 271.594
563.412, 412.088
564.732, 52.562
566.051, 283.004
567.370, 343.445
568.689, 163.867
570.008, 334.270
571.326, 274.650
572.644, 485.010
573.963, 385.352
575.280, 645.674
576.598, 674.025
577.915, 631.889
579.233, 786.521
580.550, 526.764
581.866, 476.986
583.183, 397.191
584.499, 327.375
585.815, 147.539
587.131, 237.375
588.447, 94.820
589.763, 124.633
591.078, 154.605
592.393, 194.666
593.708, 15.293
595.022, 204.684
596.337, 15.357
597.651, 25.463
598.965, 114.365
600.279, 54.172
601.593, 103.947
602.906, 6.301
604.219, 23.395
605.532, 13.045
606.845, 102.650
608.158, 92.234
609.470, 1.791
610.782, 71.299
612.094, 60.777
613.406, 10.227
614.718, 129.627
616.029, 9.010
617.340, 58.342
618.651, 147.645
619.962, 176.928
621.272, 23.807
622.582, 65.393
623.892, 204.564
625.202, 3.719
626.512, 122.822
627.821, 91.908
629.131, 260.971
630.440, 180.014
631.749, 79.035
633.057, 248.035
634.366, 177.018
635.674, 305.979
636.982, 234.922
638.290, 173.846
639.597, 182.750
640.905, 311.637
642.212, 220.504
643.519, 449.352
644.825, 388.182
646.132, 436.994
647.438, 215.789
648.744, 374.564
650.050, 413.320
651.356, 202.062
652.662, 100.785
653.967, 119.488
655.272, 128.174
656.577, 106.844
657.882, 175.496
659.186, 160.229
660.490, 182.748
661.794, 161.348
663.098, 89.932
664.402, 48.498
665.705, 227.043
667.009, 25.572
668.312, 164.074
669.614, 52.568
670.917, 51.043
672.219, 49.527
673.522, 197.992
674.824, 93.525
676.125, 94.879
677.427, 16.713
678.728, 131.693
680.030, 40.086
681.331, 71.508
682.631, 96.828
683.932, 125.174
685.232, 66.453
686.532, 81.879
687.832, 79.793
689.132, 318.498
690.432, 93.203
691.731, 85.049
693.030, 103.301
694.329, 58.453
695.628, 109.734
696.926, 98.230
698.224, 66.439
699.522, 44.654
700.820, 37.121
702.118, 5.336
703.415, 219.230
704.713, 42.596
706.010, 105.535
707.307, 66.018
708.603, 142.045
709.900, 130.135
711.196, 18.135
712.492, 366.158
713.788, 20.217
715.083, 37.764
716.379, 306.230
717.674, 214.191
718.969, 372.215
720.264, 110.375
721.558, 136.797
722.853, 69.914
724.147, 39.373
725.441, 225.783
726.735, 113.670
728.028, 191.551
729.322, 299.420
730.615, 147.283
731.908, 265.137
733.201, 352.980
734.493, 260.816
735.785, 178.643
737.078, 286.461
738.370, 384.273
739.661, 392.078
740.953, 438.475
742.244, 387.662
743.535, 465.447
744.826, 472.801
746.117, 530.504
747.407, 648.283
748.698, 646.055
749.988, 559.004
751.278, 796.766
752.567, 859.715
753.857, 1292.039
755.146, 1589.631
756.435, 2176.037
757.724, 3123.504
759.013, 4047.064
760.301, 4872.305
761.590, 5547.051
762.878, 5754.508
764.165, 5011.844
765.453, 4085.980
766.741, 3172.930
768.028, 2469.619
769.315, 1794.307
770.602, 1432.012
771.888, 1096.682
773.175, 973.359
774.461, 699.516
775.747, 748.795
777.033, 451.514
778.319, 438.443
779.604, 576.162
780.889, 540.689
782.174, 554.461
783.459, 435.861
784.744, 463.590
786.028, 491.316
787.312, 318.656
788.596, 386.393
789.880, 384.131
791.164, 181.877
792.447, 489.623
793.730, 267.371
795.013, 655.123
796.296, 452.881
797.579, 430.641
798.861, 458.406
800.143, 616.180
801.425, 573.955
802.707, 901.734
803.989, 1119.521
805.270, 1137.312
806.551, 1555.109
807.832, 1902.883
809.113, 2640.691
810.394, 3418.504
811.674, 4326.324
812.954, 5164.152
814.234, 5411.984
815.514, 4809.828
816.794, 3927.676
818.073, 3295.500
819.352, 2382.867
820.631, 1720.738
821.910, 1397.543
823.189, 955.430
824.467, 753.004
825.745, 790.582
827.023, 448.164
828.301, 886.090
829.578, 516.051
830.856, 353.992
832.133, 498.871
833.410, 196.832
834.687, 324.445
835.963, 396.035
837.240, 184.027
838.516, 152.031
839.792, 94.094
841.068, 142.121
842.343, 53.453
843.618, 431.500
844.894, 192.090
846.169, 330.164
847.443, 48.250
848.718, 201.184
849.992, 20.703
851.266, 277.414
852.540, 35.547
853.814, 173.617
855.088, 328.152
856.361, 54.734
857.634, 102.922
858.907, 17.277
860.180, 24.508
861.453, 148.477
862.725, 3.281
863.997, 204.977
865.269, 73.031
866.541, 178.684
867.812, 207.195
869.084, 34.555
870.355, 73.754
871.626, 7.914
872.897, 19.566
874.167, 128.797
875.438, 172.812
876.708, 275.543
877.978, 6.082
879.248, 92.316
880.517, 140.727
881.787, 139.168
883.056, 157.633
884.325, 206.113
885.594, 94.609
886.862, 83.129
888.130, 271.664
889.399, 180.223
890.667, 198.793
891.934, 57.387
893.202, 226.004
894.469, 154.641
895.737, 103.293
897.004, 151.969
898.270, 220.688
899.537, 169.434
900.803, 368.199
902.070, 106.980
903.336, 145.812
904.601, 234.660
905.867, 233.574
907.132, 202.527
908.398, 21.508
909.663, 83.672
910.928, 52.633
912.192, 98.617
913.457, 177.723
914.721, 186.859
915.985, 207.566
917.249, 235.211
918.512, 234.438
919.776, 133.691
921.039, 202.969
922.302, 232.285
923.565, 1.625
924.827, 211.000
926.090, 430.406
927.352, 319.828
928.614, 229.273
929.876, 488.762
931.138, 188.277
932.399, 267.828
933.660, 397.406
934.922, 117.012
936.182, 276.645
937.443, 276.289
938.704, 295.965
939.964, 285.664
941.224, 365.379
942.484, 355.121
943.744, 386.434
945.003, 409.613
946.262, 394.465
947.521, 444.289
948.780, 374.133
950.039, 404.000
951.298, 3.887
952.556, 473.793
953.814, 173.727
955.072, 303.680
956.330, 473.656
957.587, 313.652
958.845, 383.672
960.102, 213.719
961.359, 503.785
962.615, 453.875
963.872, 263.984
965.128, 564.125
966.384, 484.281
967.640, 484.465
968.896, 384.672
970.152, 474.906
971.407, 805.164
972.662, 635.445
973.917, 825.758
975.172, 1046.094
976.427, 916.461
977.681, 976.852
978.935, 1198.332
980.189, 748.773
981.443, 799.273
982.697, 679.801
983.950, 200.375
985.203, 710.969
986.456, 401.594
987.709, 532.270
988.962, 402.977
990.214, 463.707
991.467, 484.496
992.719, 365.309
993.971, 566.176
995.222, 437.070
996.474, 498.023
997.725, 459.004
998.976, 440.012
1000.227, 611.074
1001.478, 621.875
1002.728, 732.984
1003.978, 654.125
1005.229, 565.297
1006.479, 816.508
1007.728, 717.758
1008.978, 469.031
1010.227, 710.344
1011.476, 691.367
1012.725, 582.766
1013.974, 904.152
1015.223, 715.605
1016.471, 587.094
1017.719, 574.438
1018.967, 429.094
1020.215, 570.176
1021.462, 344.559
1022.710, 546.121
1023.957, 527.570
1025.204, 439.266
1026.451, 355.801
1027.697, 437.559
1028.944, 339.648
1030.190, 531.469
1031.436, 525.742
1032.682, 627.629
1033.928, 539.547
1035.173, 651.496
1036.418, 763.473
1037.663, 565.473
1038.908, 367.504
1040.153, 579.566
1041.398, 761.668
1042.642, 633.801
1043.886, 805.961
1045.130, 978.160
1046.374, 800.391
1047.617, 738.434
1048.860, 690.734
1050.104, 693.160
1051.347, 745.527
1052.589, 699.883
1053.832, 710.375
1055.074, 617.090
1056.316, 619.602
1057.558, 462.070
1058.800, 594.523
1060.042, 637.008
1061.283, 749.527
1062.524, 452.070
1063.765, 674.590
1065.006, 557.148
1066.247, 609.730
1067.487, 282.348
1068.728, 694.996
1069.968, 387.672
1071.208, 570.371
1072.447, 692.949
1073.687, 345.527
1074.926, 518.133
1076.165, 640.609
1077.404, 413.094
1078.643, 765.586
1079.881, 628.082
1081.120, 602.348
1082.358, 614.844
1083.596, 637.324
1084.834, 899.801
1086.071, 792.281
1087.309, 614.770
1088.546, 1057.102
1089.783, 859.406
1091.020, 1052.090
1092.256, 1114.320
1093.493, 1346.391
1094.729, 1498.305
1095.965, 1730.648
1097.201, 1883.027
1098.436, 2015.449
1099.672, 1567.918
1100.907, 1480.426
1102.142, 1402.977
1103.377, 1124.469
1104.612, 1208.207
1105.846, 840.879
1107.081, 843.602
1108.315, 876.363
1109.549, 519.176
1110.782, 592.031
1112.016, 464.918
1113.249, 467.848
1114.483, 550.820
1115.716, 613.840
1116.948, 326.898
1118.181, 410.004
1119.413, 233.145
1120.646, 264.832
1121.878, 909.562
1123.110, 362.836
1124.341, 516.148
1125.573, 559.504
1126.804, 47.098
1128.035, 306.340
1129.266, 189.824
1130.497, 363.367
1131.727, 256.941
1132.957, 40.523
1134.188, 554.152
1135.418, 157.883
1136.647, 131.645
1137.877, 425.418
1139.106, 179.230
1140.335, 313.078
1141.564, 176.969
1142.793, 30.891
1144.022, 394.855
1145.250, 28.816
1146.479, 422.773
1147.707, 286.766
1148.934, 210.758
1150.162, 324.758
1151.390, 358.789
1152.617, 402.852
1153.844, 336.953
1155.071, 251.082
1156.298, 185.250
1157.524, 349.441
1158.751, 133.680
1159.977, 207.957
1161.203, 252.277
1162.428, 136.617
1163.654, 91.000
1164.879, 34.570
1166.105, 59.422
1167.330, 184.453
1168.555, 50.938
1169.779, 43.742
1171.004, 198.488
1172.228, 13.309
1173.452, 398.191
1174.676, 143.141
1175.900, 1.836
1177.123, 293.250
1178.346, 31.590
1179.570, 113.641
1180.793, 208.945
1182.015, 64.312
1183.238, 319.762
1184.460, 112.559
1185.683, 258.090
1186.905, 243.684
1188.126, 109.363
1189.348, 385.105
1190.569, 90.922
1191.791, 206.812
1193.012, 282.777
1194.233, 61.176
1195.453, 104.949
1196.674, 71.168
1197.894, 137.477
1199.114, 323.887
1200.334, 400.395
1201.554, 22.988
1202.774, 663.738
1203.993, 122.762
1205.212, 477.895
1206.431, 413.941
1207.650, 160.027
1208.869, 274.555
1210.087, 329.305
1211.305, 214.957
1212.524, 250.586
1213.741, 226.297
1214.959, 251.961
1216.177, 437.543
1217.394, 406.199
1218.611, 241.039
1219.828, 433.438
1221.045, 305.910
1222.261, 275.078
1223.478, 275.633
1224.694, 435.684
1225.910, 325.309
1227.126, 5.734
1228.342, 441.785
1229.557, 147.445
1230.772, 255.305
1231.987, 234.035
1233.202, 264.488
1234.417, 176.531
1235.631, 339.422
1236.846, 0.922
1238.060, 387.309
1239.274, 446.348
1240.488, 0.000
##END=



