##NAMES=Albite
##RRUFFID=R050402
##IDEAL CHEMISTRY=NaAlSi_3_O_8_
##LOCALITY=Urbano mine, Golconda District, Brazil
##OWNER=RRUFF
##SOURCE=Bob Downs
##DESCRIPTION=Colorless tabular single crystals associated with fluorapatite R050401
##STATUS=The identification of this mineral has been confirmed by X-ray diffraction and chemical analysis
##URL=rruff.info/R050402
##MEASURED CHEMISTRY=Na_1.00_Al_1.00_Si_3.00_O_8_
##PIN_ID=M00171
##ORIENTATION=Laser parallel to (1 1 0). Fiducial mark perpendicular to laser is parallel to c [0 0 1]
81.13100, 0.0000000E+00
82.36700, 16.99805
83.60200, 255.1455
84.83700, 451.8677
86.07200, 564.9634
87.30800, 869.0850
88.54200, 871.1455
89.77700, 806.1470
91.01200, 686.2285
92.24600, 427.1978
93.48000, 275.1484
94.71400, 33.63721
95.94800, 0.2636720
97.18200, 56.62549
98.41600, 13.30420
99.64900, 209.7334
100.8830, 442.4302
102.1160, 833.1997
103.3490, 1324.847
104.5820, 1937.197
105.8150, 2344.090
107.0470, 2972.386
108.2800, 3169.959
109.5120, 3871.697
110.7440, 4365.503
111.9760, 4653.287
113.2080, 5121.970
114.4400, 5606.480
115.6710, 5438.759
116.9030, 4797.785
118.1340, 3789.589
119.3650, 2679.254
120.5960, 1814.722
121.8270, 1224.866
123.0580, 941.6284
124.2880, 763.9473
125.5190, 397.7739
126.7490, 345.0645
127.9790, 214.7822
129.2090, 151.8940
130.4390, 220.3701
131.6680, 276.1846
132.8980, 313.3140
134.1270, 481.7363
135.3560, 538.4331
136.5850, 899.3862
137.8140, 1135.581
139.0430, 1504.999
140.2710, 1966.630
141.5000, 2405.459
142.7280, 2829.475
143.9560, 3268.666
145.1840, 3590.023
146.4120, 4170.534
147.6390, 4732.191
148.8670, 5503.998
150.0940, 6419.024
151.3210, 7337.534
152.5490, 8226.745
153.7750, 8818.806
155.0020, 9356.446
156.2290, 9916.783
157.4550, 10775.67
158.6810, 11758.18
159.9080, 12884.89
161.1340, 14143.77
162.3590, 14916.64
163.5850, 15068.42
164.8110, 14081.14
166.0360, 12656.81
167.2610, 10953.43
168.4860, 9509.013
169.7110, 8416.570
170.9360, 7816.100
172.1610, 7276.610
173.3850, 7129.104
174.6100, 6963.585
175.8340, 6822.056
177.0580, 6971.518
178.2820, 7186.973
179.5050, 7579.423
180.7290, 7846.871
181.9520, 8283.313
183.1760, 8873.756
184.3990, 9004.193
185.6220, 8985.634
186.8450, 9081.071
188.0670, 8653.505
189.2900, 8129.943
190.5120, 7254.376
191.7340, 6602.810
192.9560, 6046.241
194.1780, 5370.669
195.4000, 4900.095
196.6220, 4811.516
197.8430, 4826.932
199.0640, 4961.341
200.2860, 5259.743
201.5070, 5678.138
202.7270, 6089.526
203.9480, 6630.904
205.1690, 6992.275
206.3890, 7526.638
207.6090, 8324.987
208.8290, 8765.326
210.0490, 8929.657
211.2690, 8353.976
212.4890, 7298.280
213.7080, 5947.573
214.9280, 4640.854
216.1470, 3383.598
217.3660, 2507.982
218.5850, 1763.423
219.8030, 1189.529
221.0220, 858.8311
222.2400, 617.9644
223.4590, 421.3457
224.6770, 303.7383
225.8950, 232.1699
227.1120, 150.9180
228.3300, 135.8066
229.5480, 101.0034
230.7650, 35.40918
231.9820, 26.76562
233.1990, 37.25586
234.4160, 25.19385
235.6330, 98.35791
236.8490, 160.6860
238.0660, 327.9990
239.2820, 449.5913
240.4980, 716.0820
241.7140, 924.8975
242.9300, 1324.470
244.1460, 1656.782
245.3610, 1838.275
246.5770, 2071.903
247.7920, 2276.656
249.0070, 2617.522
250.2220, 2976.495
251.4370, 3210.565
252.6510, 3413.724
253.8660, 3149.966
255.0800, 2849.286
256.2940, 2532.677
257.5080, 2258.134
258.7220, 2294.653
259.9360, 2497.229
261.1490, 2682.859
262.3630, 2963.539
263.5760, 3178.265
264.7890, 3682.032
266.0020, 4053.838
267.2150, 4569.678
268.4270, 5168.550
269.6400, 5416.450
270.8520, 5691.375
272.0640, 5430.323
273.2760, 5017.291
274.4880, 4800.280
275.7000, 4498.285
276.9120, 4645.304
278.1230, 4725.338
279.3340, 5188.384
280.5450, 6214.440
281.7560, 7441.506
282.9670, 8620.579
284.1780, 10246.66
285.3880, 11624.75
286.5980, 13447.84
287.8090, 15246.93
289.0190, 17136.03
290.2290, 18667.13
291.4380, 19071.22
292.6480, 18394.33
293.8570, 16736.42
295.0670, 13973.52
296.2760, 11438.62
297.4850, 9026.702
298.6930, 6828.779
299.9020, 5407.846
301.1110, 4432.896
302.3190, 3716.922
303.5270, 3227.919
304.7350, 2912.891
305.9430, 2531.842
307.1510, 2323.772
308.3580, 2269.681
309.5660, 2082.567
310.7730, 1884.433
311.9800, 1806.277
313.1870, 1662.101
314.3940, 1508.902
315.6010, 1347.684
316.8070, 1276.444
318.0130, 1334.183
319.2200, 1255.900
320.4260, 1472.596
321.6310, 1371.271
322.8370, 1619.924
324.0430, 1632.556
325.2480, 1856.166
326.4540, 2091.754
327.6590, 2230.320
328.8640, 2364.864
330.0680, 2414.387
331.2730, 2161.885
332.4780, 1801.363
333.6820, 1373.817
334.8860, 999.2480
336.0900, 670.6567
337.2940, 529.0425
338.4980, 384.4048
339.7010, 347.7437
340.9050, 226.0596
342.1080, 207.3521
343.3110, 150.6206
344.5140, 194.8657
345.7170, 126.0864
346.9200, 180.2832
348.1220, 65.45654
349.3240, 58.60352
350.5270, 86.72314
351.7290, 71.81836
352.9310, 5.887695
354.1320, 4.916992
355.3340, 35.09326
356.5350, 8.845703
357.7370, 51.25537
358.9380, 21.41260
360.1390, 46.61816
361.3400, 129.8848
362.5400, 58.23047
363.7410, 60.66895
364.9410, 116.2100
366.1410, 190.8828
367.3410, 53.73584
368.5410, 99.71729
369.7410, 122.8901
370.9400, 53.21875
372.1400, 140.6904
373.3390, 145.2720
374.5380, 203.9722
375.7370, 141.5386
376.9360, 115.5127
378.1350, 95.45312
379.3330, 83.20166
380.5310, 155.4834
381.7300, 86.89990
382.9280, 39.41846
384.1260, 50.01367
385.3230, 72.30713
386.5210, 117.5996
387.7180, 163.8726
388.9160, 184.1348
390.1130, 273.3877
391.3100, 297.6299
392.5060, 449.8530
393.7030, 433.0654
394.9000, 612.2578
396.0960, 813.4316
397.2920, 965.5854
398.4880, 1294.740
399.6840, 1691.875
400.8800, 1922.019
402.0750, 2214.147
403.2710, 2315.256
404.4660, 2694.343
405.6610, 3180.439
406.8560, 3834.513
408.0510, 4299.582
409.2450, 4543.635
410.4400, 4129.673
411.6340, 3598.707
412.8280, 3087.723
414.0220, 2887.728
415.2160, 2913.728
416.4100, 2861.719
417.6030, 2770.714
418.7970, 2447.705
419.9900, 1861.686
421.1830, 1404.653
422.3760, 997.6138
423.5690, 782.5674
424.7610, 508.5386
425.9540, 520.4863
427.1460, 406.4092
428.3380, 285.3057
429.5300, 303.1953
430.7220, 255.0581
431.9140, 369.9126
433.1050, 328.7402
434.2970, 264.5410
435.4880, 356.3145
436.6790, 330.0610
437.8700, 350.7793
439.0610, 426.4717
440.2510, 489.1353
441.4420, 563.0410
442.6320, 649.4819
443.8220, 749.9619
445.0120, 848.5161
446.2020, 969.8149
447.3910, 1115.922
448.5810, 1203.012
449.7700, 1415.456
450.9600, 1539.873
452.1490, 1713.263
453.3370, 2101.625
454.5260, 2310.961
455.7150, 2645.269
456.9030, 2828.550
458.0910, 2972.804
459.2800, 3215.031
460.4670, 3336.231
461.6550, 3623.405
462.8430, 4108.551
464.0300, 4560.671
465.2180, 5435.765
466.4050, 6678.830
467.5920, 8632.479
468.7790, 10618.88
469.9650, 13790.87
471.1520, 17347.83
472.3380, 20934.77
473.5250, 24564.67
474.7110, 28140.55
475.8970, 32558.41
477.0820, 36735.24
478.2680, 40579.05
479.4540, 41705.82
480.6390, 40060.58
481.8240, 35746.30
483.0090, 29826.01
484.1940, 23600.68
485.3780, 18573.33
486.5630, 14536.96
487.7470, 11665.56
488.9320, 10097.13
490.1160, 9097.684
491.3000, 8307.103
492.4830, 8377.266
493.6670, 9012.739
494.8500, 10158.06
496.0340, 11613.64
497.2170, 14506.04
498.4000, 18191.83
499.5820, 22728.27
500.7650, 27431.84
501.9480, 32182.18
503.1300, 36539.85
504.3120, 41980.17
505.4940, 47112.91
506.6760, 51716.39
507.8580, 53702.32
509.0390, 51762.46
510.2210, 47163.12
511.4020, 39949.82
512.5830, 32097.01
513.7640, 25096.49
514.9450, 19391.43
516.1250, 15198.01
517.3060, 11780.85
518.4860, 9722.604
519.6660, 7982.940
520.8460, 6778.541
522.0260, 5777.900
523.2060, 5125.687
524.3850, 4523.743
525.5650, 3821.750
526.7440, 3473.063
527.9230, 3186.633
529.1020, 2866.484
530.2810, 2628.771
531.4590, 2365.417
532.6380, 2066.631
533.8160, 2013.572
534.9940, 1746.244
536.1720, 1730.270
537.3500, 1576.619
538.5270, 1485.726
539.7050, 1469.583
540.8820, 1214.797
542.0590, 1141.944
543.2360, 1006.210
544.4130, 1074.543
545.5900, 960.0137
546.7660, 999.1768
547.9430, 977.2959
549.1190, 787.5576
550.2950, 770.9585
551.4710, 812.8877
552.6470, 790.9805
553.8220, 758.3423
554.9980, 699.0537
556.1730, 671.2417
557.3480, 597.7744
558.5230, 575.2310
559.6980, 667.9067
560.8730, 699.0547
562.0470, 491.4297
563.2220, 607.4800
564.3960, 596.5776
565.5700, 632.2456
566.7440, 668.5928
567.9170, 698.1660
569.0910, 717.6030
570.2640, 824.5806
571.4380, 868.2427
572.6110, 993.0186
573.7840, 1071.719
574.9570, 1222.317
576.1290, 1187.904
577.3020, 1431.598
578.4740, 1375.161
579.6460, 1473.713
580.8180, 1403.253
581.9900, 1209.782
583.1620, 1049.300
584.3330, 953.8062
585.5040, 760.3018
586.6760, 624.7866
587.8470, 602.2598
589.0180, 396.7227
590.1880, 396.1743
591.3590, 341.6152
592.5290, 298.0454
593.7000, 267.4653
594.8700, 221.8745
596.0400, 242.2734
597.2090, 223.6616
598.3790, 191.0396
599.5490, 194.4072
600.7180, 184.7729
601.8870, 218.1289
603.0560, 208.9180
604.2250, 212.8311
605.3940, 208.1699
606.5620, 218.5044
607.7300, 206.8291
608.8990, 203.1479
610.0670, 195.4575
611.2350, 169.7661
612.4020, 231.0771
613.5700, 112.3784
614.7370, 188.7031
615.9050, 197.0176
617.0720, 167.3335
618.2390, 207.6426
619.4060, 343.9424
620.5720, 365.2344
621.7390, 362.5181
622.9050, 435.7925
624.0710, 448.0586
625.2370, 507.3154
626.4030, 569.2275
627.5690, 662.8037
628.7340, 681.0347
629.9000, 686.2578
631.0650, 697.0586
632.2300, 709.6812
633.3950, 736.8857
634.5600, 685.0825
635.7240, 717.2725
636.8890, 686.4697
638.0530, 714.6797
639.2170, 761.9082
640.3810, 802.1445
641.5450, 804.4189
642.7080, 873.2197
643.8720, 1010.026
645.0350, 1009.387
646.1980, 991.7754
647.3610, 1105.210
648.5240, 1054.689
649.6870, 874.2373
650.8490, 824.8125
652.0120, 737.4287
653.1740, 677.0908
654.3360, 560.7817
655.4980, 493.5308
656.6600, 386.3384
657.8210, 359.2354
658.9830, 281.1841
660.1440, 207.1772
661.3050, 126.2251
662.4660, 109.3086
663.6270, 167.4468
664.7870, 164.6226
665.9480, 119.8223
667.1080, 112.0498
668.2680, 35.27783
669.4280, 30.49805
670.5880, 19.29297
671.7480, 12.10938
672.9070, 102.0527
674.0670, 18.79346
675.2260, 79.33447
676.3850, 21.45312
677.5440, 57.55957
678.7030, 68.34326
679.8610, 36.70068
681.0200, 104.2671
682.1780, 10.30615
683.3360, 21.63135
684.4940, 10.55664
685.6520, 103.5327
686.8090, 45.30518
687.9670, 56.86768
689.1240, 11.08887
690.2810, 19.33496
691.4380, 53.61035
692.5950, 9.932617
693.7520, 31.27979
694.9080, 54.66357
696.0650, 44.09521
697.2210, 90.56934
698.3770, 62.11133
699.5330, 37.70654
700.6880, 25.34180
701.8440, 52.00977
702.9990, 52.72607
704.1550, 141.4902
705.3100, 13.65039
706.4650, 29.77686
707.6190, 57.89062
708.7740, 51.00635
709.9290, 107.0488
711.0830, 47.90381
712.2370, 92.09668
713.3910, 152.0884
714.5450, 130.0713
715.6980, 85.04639
716.8520, 224.0122
718.0050, 298.9697
719.1580, 225.9185
720.3110, 310.8599
721.4640, 273.7930
722.6170, 245.7178
723.7700, 312.6343
724.9220, 180.5425
726.0740, 132.4434
727.2260, 207.3354
728.3780, 229.2192
729.5300, 175.0957
730.6810, 178.9639
731.8330, 272.8242
732.9840, 261.6772
734.1350, 127.5215
735.2860, 234.3579
736.4370, 251.1865
737.5880, 215.0068
738.7380, 302.4258
739.8880, 207.2578
741.0390, 244.6167
742.1890, 418.4761
743.3380, 287.2559
744.4880, 459.0591
745.6380, 508.8223
746.7870, 508.1924
747.9360, 577.9404
749.0850, 809.5737
750.2340, 884.7773
751.3830, 1044.500
752.5310, 1356.548
753.6800, 1615.253
754.8280, 2106.045
755.9760, 2579.126
757.1240, 3199.805
758.2720, 3821.554
759.4190, 4538.216
760.5670, 5062.868
761.7140, 5829.510
762.8610, 6229.146
764.0080, 6407.771
765.1550, 6143.388
766.3020, 5504.997
767.4480, 4707.595
768.5950, 3985.186
769.7410, 3266.768
770.8870, 2783.421
772.0330, 2478.984
773.1780, 2162.541
774.3240, 2062.087
775.4690, 1917.685
776.6140, 1892.214
777.7590, 1598.734
778.9040, 1420.613
780.0490, 1183.520
781.1940, 998.0122
782.3380, 805.4946
783.4820, 652.9673
784.6260, 767.1577
785.7700, 496.6104
786.9140, 495.5605
788.0580, 464.9917
789.2010, 250.8120
790.3450, 416.2207
791.4880, 358.9355
792.6310, 361.7085
793.7730, 271.5527
794.9160, 478.0986
796.0590, 385.4468
797.2010, 447.7817
798.3430, 352.6689
799.4850, 445.9766
800.6270, 459.2705
801.7690, 545.5498
802.9100, 641.8154
804.0520, 766.2163
805.1930, 850.4531
806.3340, 1043.251
807.4750, 1249.991
808.6160, 1506.789
809.7560, 1763.703
810.8970, 2157.869
812.0370, 2464.282
813.1770, 2793.320
814.3170, 2989.014
815.4570, 3085.930
816.5960, 3008.072
817.7360, 2821.837
818.8750, 2395.649
820.0140, 1885.320
821.1530, 1490.905
822.2920, 1218.332
823.4310, 928.0444
824.5690, 767.7808
825.7070, 681.3550
826.8460, 540.7695
827.9840, 492.6802
829.1220, 463.3179
830.2590, 423.7114
831.3970, 375.7363
832.5340, 360.2646
833.6710, 356.5205
834.8080, 304.6494
835.9450, 363.6323
837.0820, 350.1235
838.2190, 326.3696
839.3550, 272.9204
840.4910, 92.40674
841.6270, 218.3027
842.7630, 114.5020
843.8990, 98.91113
845.0350, 219.5293
846.1700, 112.0425
847.3060, 66.85449
848.4410, 70.53467
849.5760, 113.2725
850.7100, 59.09521
851.8450, 147.9121
852.9800, 112.6050
854.1140, 41.41064
855.2480, 123.2104
856.3820, 108.0054
857.5160, 93.79492
858.6500, 289.5791
859.7830, 185.3579
860.9170, 229.1318
862.0500, 132.9004
863.1830, 221.6641
864.3160, 165.4229
865.4480, 79.17578
866.5810, 106.9243
867.7130, 35.66846
868.8460, 30.40771
869.9780, 160.1416
871.1100, 33.87158
872.2410, 28.59619
873.3730, 57.31738
874.5050, 19.96680
875.6360, 9.729492
876.7670, 19.57959
877.8980, 11.90771
879.0290, 55.74902
880.1590, 11.59814
881.2900, 25.03906
882.4200, 5.326660
883.5500, 32.29590
884.6800, 26.08545
885.8100, 35.48828
886.9400, 37.08203
888.0690, 113.3516
889.1990, 9.147949
890.3280, 30.35645
891.4570, 2.882813
892.5860, 39.58154
893.7140, 3.042480
894.8430, 20.49805
895.9710, 38.95117
897.1000, 114.4004
898.2280, 121.8472
899.3560, 111.2798
900.4830, 9.731934
901.6110, 82.17041
902.7380, 19.60547
903.8660, 58.03906
904.9930, 8.469727
906.1200, 1.897461
907.2460, 31.32178
908.3730, 37.74316
909.5000, 43.16211
910.6260, 18.41748
911.7520, 103.9902
912.8780, 90.39600
914.0040, 56.19971
915.1290, 6.827637
916.2550, 91.53711
917.3800, 23.90137
918.5050, 146.2725
919.6300, 79.35645
920.7550, 13.97119
921.8800, 28.70264
923.0040, 91.60742
924.1290, 8.082520
925.2530, 99.22119
926.3770, 6.476074
927.5010, 28.17773
928.6250, 29.89404
929.7480, 89.62061
930.8720, 115.6064
931.9950, 117.8477
933.1180, 64.91211
934.2410, 148.2964
935.3640, 23.51807
936.4860, 80.73877
937.6090, 125.9604
938.7310, 3.811035
939.8530, 116.4194
940.9750, 100.6665
942.0970, 132.9282
943.2180, 105.2119
944.3400, 114.5249
945.4610, 183.8682
946.5820, 90.22119
947.7030, 119.5854
948.8240, 233.9521
949.9450, 95.32227
951.0650, 202.6948
952.1860, 110.0928
953.3060, 153.4937
954.4260, 204.9292
955.5460, 224.3735
956.6650, 323.8228
957.7850, 280.2764
958.9040, 235.7642
960.0230, 358.2563
961.1420, 353.7715
962.2610, 362.3003
963.3800, 527.8462
964.4990, 414.4146
965.6170, 429.9932
966.7350, 682.6016
967.8530, 582.2344
968.9710, 773.8882
970.0890, 927.5747
971.2070, 1083.287
972.3240, 1368.019
973.4410, 1583.766
974.5580, 1748.537
975.6750, 1902.331
976.7920, 2001.172
977.9090, 2090.021
979.0250, 2033.874
980.1410, 1997.732
981.2580, 1721.615
982.3740, 1534.501
983.4890, 1279.411
984.6050, 1095.325
985.7200, 920.2432
986.8360, 843.1655
987.9510, 722.0923
989.0660, 648.0244
990.1810, 548.9609
991.2950, 595.9009
992.4100, 613.8462
993.5240, 665.7964
994.6390, 674.3301
995.7530, 537.7114
996.8660, 740.6768
997.9800, 723.6465
999.0940, 852.6216
1000.207, 944.6011
1001.320, 1064.587
1002.433, 1507.577
1003.546, 1545.572
1004.659, 1729.572
1005.772, 1779.578
1006.884, 1825.590
1007.996, 1951.606
1009.108, 2029.023
1010.220, 2037.023
1011.332, 2093.495
1012.444, 1994.463
1013.555, 2138.509
1014.666, 2211.530
1015.777, 2002.589
1016.888, 1915.038
1017.999, 1807.108
1019.110, 1556.291
1020.220, 1485.902
1021.331, 1379.993
1022.441, 1378.758
1023.551, 1347.860
1024.661, 1405.879
1025.770, 1493.895
1026.880, 1480.732
1027.989, 1737.788
1029.098, 1808.932
1030.207, 1914.082
1031.316, 2070.240
1032.425, 2136.407
1033.533, 2080.582
1034.642, 1981.766
1035.750, 1816.958
1036.858, 1588.156
1037.966, 1406.365
1039.073, 1323.582
1040.181, 1304.729
1041.288, 1158.962
1042.396, 1130.205
1043.503, 1084.057
1044.610, 996.2559
1045.716, 1121.525
1046.823, 1086.803
1047.929, 1009.722
1049.036, 928.6133
1050.142, 934.9189
1051.248, 827.3037
1052.353, 706.6299
1053.459, 558.2354
1054.564, 673.5781
1055.670, 555.4219
1056.775, 552.7832
1057.880, 417.7549
1058.985, 462.1357
1060.089, 486.2100
1061.194, 535.2227
1062.298, 538.7744
1063.402, 461.2090
1064.506, 544.7432
1065.610, 478.1855
1066.713, 470.0723
1067.817, 551.2363
1068.920, 517.7100
1070.023, 516.1934
1071.126, 567.1523
1072.229, 602.9385
1073.332, 727.4414
1074.435, 770.6230
1075.537, 901.8184
1076.639, 1039.568
1077.741, 1078.383
1078.843, 1055.678
1079.945, 1262.551
1081.046, 1381.133
1082.148, 1571.725
1083.249, 1623.325
1084.350, 1859.984
1085.451, 2125.606
1086.551, 2396.238
1087.652, 2822.877
1088.752, 3275.525
1089.853, 3809.184
1090.953, 4623.850
1092.053, 5272.525
1093.152, 6240.209
1094.252, 7344.642
1095.351, 8342.962
1096.451, 9443.672
1097.550, 9982.389
1098.649, 11045.07
1099.748, 11264.81
1100.846, 11187.79
1101.945, 10835.54
1103.043, 10136.29
1104.141, 9199.060
1105.239, 8530.833
1106.337, 7775.613
1107.434, 7154.402
1108.532, 6693.199
1109.629, 6283.000
1110.726, 6033.812
1111.823, 5855.629
1112.920, 5723.453
1114.017, 5640.283
1115.113, 5406.123
1116.210, 5304.969
1117.306, 5142.822
1118.402, 4929.682
1119.498, 4486.550
1120.593, 4002.423
1121.689, 3639.315
1122.784, 3128.215
1123.879, 2824.120
1124.974, 2391.034
1126.069, 2093.953
1127.164, 1787.948
1128.259, 1565.812
1129.353, 1352.935
1130.447, 1251.772
1131.541, 1041.727
1132.635, 939.6895
1133.729, 864.6582
1134.822, 759.6348
1135.916, 714.6191
1137.009, 638.6084
1138.102, 606.6055
1139.195, 499.6084
1140.288, 495.6191
1141.380, 544.6436
1142.473, 471.6768
1143.565, 424.7236
1144.657, 407.7832
1145.749, 350.8496
1146.841, 385.9268
1147.932, 378.9717
1149.024, 397.2852
1150.115, 414.2158
1151.206, 447.3359
1152.297, 455.4756
1153.388, 451.6211
1154.479, 523.8057
1155.569, 351.9980
1156.659, 333.2070
1157.750, 408.4258
1158.839, 134.6504
1159.929, 185.8984
1161.019, 198.1543
1162.108, 142.4170
1163.198, 166.7139
1164.287, 133.0166
1165.376, 164.3262
1166.465, 208.6426
1167.553, 244.9648
1168.642, 113.2930
1169.730, 199.6406
1170.818, 60.99512
1171.906, 191.3730
1172.994, 169.7549
1174.082, 15.85449
1175.170, 64.53418
1176.257, 36.93555
1177.344, 34.34277
1178.431, 20.75586
1179.518, 93.18945
1180.605, 51.63184
1181.691, 42.91895
1182.778, 2.515625
1183.864, 119.9561
1184.950, 6.422852
1186.036, 99.89648
1187.122, 162.3818
1188.207, 138.8740
1189.292, 31.37207
1190.378, 10.87793
1191.463, 102.3906
1192.548, 17.08496
1193.632, 100.4434
1194.717, 58.00000
1195.801, 22.53516
1196.886, 25.07617
1197.970, 50.36328
1199.054, 145.1777
1200.137, 20.72461
1201.221, 27.72461
1202.305, 13.18066
1203.388, 66.09766
1204.471, 48.12598
1205.554, 80.63086
1206.637, 73.17285
1207.719, 89.74707
1208.802, 31.36133
1209.884, 3.988281
1210.966, 102.3867
1212.048, 48.76562
1213.130, 117.1504
1214.212, 2.170898
1215.293, 135.5615
1216.374, 88.95898
1217.456, 94.35938
1218.536, 92.76465
1219.617, 82.17285
1220.698, 209.5869
1221.778, 26.00488
1222.859, 146.4258
1223.939, 11.14648
1225.019, 8.724609
1226.099, 41.69531
1227.178, 48.11914
1228.258, 49.45117
1229.337, 108.9531
1230.417, 0.6357420
1231.496, 33.77539
1232.574, 51.19043
1233.653, 141.6084
1234.732, 103.0312
1235.810, 133.4570
1236.888, 159.8877
1237.966, 152.3223
1239.044, 78.75977
1240.122, 86.27441
1241.199, 142.6475
1242.277, 37.09668
1243.354, 30.54883
1244.431, 15.07324
1245.508, 98.46387
1246.585, 39.92773
1247.661, 170.3936
1248.738, 152.8643
1249.814, 196.3516
1250.890, 135.2979
1251.966, 61.79102
1253.042, 170.2881
1254.117, 138.7881
1255.193, 108.2900
1256.268, 6.795898
1257.343, 93.30176
1258.418, 199.8105
1259.493, 277.3232
1260.567, 162.8379
1261.642, 157.3564
1262.716, 171.8779
1263.790, 211.4033
