##NAMES=Albite
##RRUFFID=R050402
##IDEAL CHEMISTRY=NaAlSi_3_O_8_
##LOCALITY=Urbano mine, Golconda District, Brazil
##OWNER=RRUFF
##SOURCE=Bob Downs
##DESCRIPTION=Colorless tabular single crystals associated with fluorapatite R050401
##STATUS=The identification of this mineral has been confirmed by X-ray diffraction and chemical analysis
##URL=rruff.info/R050402
##MEASURED CHEMISTRY=Na_1.00_Al_1.00_Si_3.00_O_8_
##PIN_ID=M00107
##ORIENTATION=Laser parallel to b* (0 1 0). Fiducial mark perpendicular to laser is parallel to c [0 0 1]
73.71400, 0.0000000E+00
74.95100, 9.793213
76.18700, 167.5120
77.42300, 399.5671
78.65900, 789.3154
79.89500, 1218.526
81.13100, 1745.986
82.36700, 2382.395
83.60200, 3254.062
84.83700, 3894.559
86.07200, 4261.137
87.30800, 4451.300
88.54200, 4167.587
89.77700, 3474.096
91.01200, 2581.425
92.24600, 1782.223
93.48000, 973.1780
94.71400, 778.0249
95.94800, 389.5332
97.18200, 285.7026
98.41600, 265.7830
99.64900, 371.4229
100.8830, 461.6343
102.1160, 586.9976
103.3490, 844.6770
104.5820, 1119.055
105.8150, 1449.007
107.0470, 1638.425
108.2800, 2092.206
109.5120, 2583.263
110.7440, 2581.515
111.9760, 2479.886
113.2080, 2296.319
114.4400, 2162.816
115.6710, 1800.316
116.9030, 1351.782
118.1340, 830.1475
119.3650, 395.3496
120.5960, 21.66992
121.8270, 64.96143
123.0580, 112.5708
124.2880, 114.5415
125.5190, 212.9111
126.7490, 99.70410
127.9790, 8.941406
129.2090, 173.3560
130.4390, 331.1616
131.6680, 637.4502
132.8980, 951.1982
134.1270, 1501.383
135.3560, 2177.984
136.5850, 2878.982
137.8140, 3418.357
139.0430, 4105.097
140.2710, 4802.181
141.5000, 5350.594
142.7280, 6353.325
143.9560, 7288.356
145.1840, 8026.683
146.4120, 8580.294
147.6390, 8745.331
148.8670, 8769.478
150.0940, 9036.914
151.3210, 9793.740
152.5490, 10953.10
153.7750, 12352.65
155.0020, 13490.05
156.2290, 14663.92
157.4550, 16084.30
158.6810, 17834.00
159.9080, 19620.83
161.1340, 20539.71
162.3590, 21311.64
163.5850, 21081.62
164.8110, 20117.65
166.0360, 18769.76
167.2610, 17752.94
168.4860, 17288.18
169.7110, 17369.50
170.9360, 18038.90
172.1610, 18588.35
173.3850, 19564.82
174.6100, 20525.32
175.8340, 21974.92
177.0580, 23293.66
178.2820, 24503.58
179.5050, 25988.67
180.7290, 27387.96
181.9520, 28154.41
183.1760, 28718.97
184.3990, 29020.63
185.6220, 28408.36
186.8450, 27027.16
188.0670, 24865.01
189.2900, 22657.94
190.5120, 19741.92
191.7340, 17023.96
192.9560, 14605.06
194.1780, 13067.22
195.4000, 11928.43
196.6220, 11365.69
197.8430, 11382.01
199.0640, 11632.38
200.2860, 12632.79
201.5070, 13531.26
202.7270, 14278.77
203.9480, 14989.38
205.1690, 15425.93
206.3890, 16014.57
207.6090, 16477.25
208.8290, 16616.97
210.0490, 15590.74
211.2690, 14010.53
212.4890, 11766.37
213.7080, 9264.236
214.9280, 7025.135
216.1470, 5015.068
217.3660, 3657.030
218.5850, 2717.973
219.8030, 1927.121
221.0220, 1456.296
222.2400, 962.4824
223.4590, 675.5874
224.6770, 555.3130
225.8950, 344.4141
227.1120, 246.5142
228.3300, 158.6611
229.5480, 126.2080
230.7650, 41.38428
231.9820, 33.81494
233.1990, 20.63672
234.4160, 29.94336
235.6330, 93.85889
236.8490, 127.0854
238.0660, 305.1104
239.2820, 566.8608
240.4980, 957.2173
241.7140, 1364.339
242.9300, 1733.500
244.1460, 2176.651
245.3610, 2627.776
246.5770, 3077.678
247.7920, 3647.710
249.0070, 4151.906
250.2220, 4495.253
251.4370, 4850.744
252.6510, 4717.374
253.8660, 4376.133
255.0800, 3734.018
256.2940, 2982.019
257.5080, 2326.133
258.7220, 2071.354
259.9360, 1932.676
261.1490, 1856.095
262.3630, 1770.606
263.5760, 1806.204
264.7890, 1926.885
266.0020, 2179.646
267.2150, 2471.284
268.4270, 2666.424
269.6400, 3111.781
270.8520, 3537.171
272.0640, 4005.386
273.2760, 4640.223
274.4880, 5652.406
275.7000, 6911.684
276.9120, 8653.468
278.1230, 11190.13
279.3340, 14654.55
280.5450, 18934.51
281.7560, 23844.19
282.9670, 28711.21
284.1780, 33138.68
285.3880, 37429.35
286.5980, 42108.88
287.8090, 46133.31
289.0190, 48790.37
290.2290, 49646.45
291.4380, 48687.72
292.6480, 43605.54
293.8570, 37574.69
295.0670, 29848.86
296.2760, 22933.76
297.4850, 17168.68
298.6930, 12684.62
299.9020, 9796.578
301.1110, 7408.545
302.3190, 5767.527
303.5270, 4783.517
304.7350, 3919.516
305.9430, 3279.521
307.1510, 2856.533
308.3580, 2523.553
309.5660, 2271.579
310.7730, 2064.602
311.9800, 2063.646
313.1870, 1910.688
314.3940, 1949.734
315.6010, 2118.785
316.8070, 2451.838
318.0130, 3158.895
319.2200, 4125.955
320.4260, 5369.017
321.6310, 6324.081
322.8370, 7267.146
324.0430, 8184.212
325.2480, 9500.274
326.4540, 10710.34
327.6590, 11455.40
328.8640, 11619.46
330.0680, 11103.51
331.2730, 9478.557
332.4780, 7459.600
333.6820, 5777.637
334.8860, 4121.668
336.0900, 3086.694
337.2940, 2314.714
338.4980, 1932.726
339.7010, 1543.730
340.9050, 1431.728
342.1080, 1190.717
343.3110, 1131.697
344.5140, 1111.668
345.7170, 1083.631
346.9200, 1086.583
348.1220, 1015.526
349.3240, 948.4580
350.5270, 941.3804
351.7290, 702.2910
352.9310, 584.1904
354.1320, 483.0786
355.3340, 341.9551
356.5350, 204.8184
357.7370, 187.6699
358.9380, 99.50928
360.1390, 34.33496
361.3400, 79.14111
362.5400, 38.06689
363.7410, 79.31982
364.9410, 15.32178
366.1410, 113.0176
367.3410, 111.4043
368.5410, 119.8467
369.7410, 127.3555
370.9400, 181.9390
372.1400, 119.6284
373.3390, 250.3965
374.5380, 219.3130
375.7370, 223.3657
376.9360, 200.5581
378.1350, 203.2383
379.3330, 134.6973
380.5310, 217.2583
381.7300, 107.9658
382.9280, 230.7661
384.1260, 187.7236
385.3230, 77.81787
386.5210, 13.00488
387.7180, 13.78760
388.9160, 110.5298
390.1130, 212.2627
391.3100, 403.9897
392.5060, 594.7095
393.7030, 762.4233
394.9000, 884.1289
396.0960, 1087.825
397.2920, 1258.513
398.4880, 1506.190
399.6840, 1501.856
400.8800, 1556.512
402.0750, 1434.159
403.2710, 1263.804
404.4660, 1183.437
405.6610, 1127.058
406.8560, 1139.675
408.0510, 971.2793
409.2450, 957.8896
410.4400, 773.5063
411.6340, 489.1089
412.8280, 493.7002
414.0220, 326.2993
415.2160, 170.8994
416.4100, 293.5391
417.6030, 174.1919
418.7970, 193.8354
419.9900, 143.4961
421.1830, 107.1416
422.3760, 9.756348
423.5690, 42.33008
424.7610, 27.85254
425.9540, 72.32568
427.1460, 14.76855
428.3380, 33.16895
429.5300, 16.51904
430.7220, 68.80469
431.9140, 53.06104
433.1050, 120.2729
434.2970, 115.4697
435.4880, 137.6396
436.6790, 179.7778
437.8700, 181.9028
439.0610, 234.5850
440.2510, 278.2407
441.4420, 335.1543
442.6320, 403.1973
443.8220, 474.2285
445.0120, 573.2363
446.2020, 691.9927
447.3910, 811.1831
448.5810, 985.1211
449.7700, 1165.042
450.9600, 1359.939
452.1490, 1518.815
453.3370, 1738.667
454.5260, 1916.494
455.7150, 2179.299
456.9030, 2343.081
458.0910, 2388.838
459.2800, 2450.572
460.4670, 2492.283
461.6550, 2771.970
462.8430, 2992.633
464.0300, 3630.271
465.2180, 4403.887
466.4050, 5478.477
467.5920, 6968.042
468.7790, 8972.583
469.9650, 11729.10
471.1520, 14637.59
472.3380, 17586.06
473.5250, 20208.50
474.7110, 23125.92
475.8970, 25864.32
477.0820, 28105.69
478.2680, 29004.04
479.4540, 27658.36
480.6390, 25253.66
481.8240, 21717.93
483.0090, 17555.18
484.1940, 14159.40
485.3780, 11502.60
486.5630, 9620.773
487.7470, 8470.925
488.9320, 7861.051
490.1160, 7826.153
491.3000, 7950.231
492.4830, 8987.283
493.6670, 10459.31
494.8500, 12381.32
496.0340, 15671.30
497.2170, 20281.25
498.4000, 25834.19
499.5820, 32784.09
500.7650, 39220.97
501.9480, 45636.84
503.1300, 51405.72
504.3120, 57091.54
505.4940, 60783.51
506.6760, 60772.95
507.8580, 60767.59
509.0390, 55941.79
510.2210, 47733.95
511.4020, 38394.50
512.5830, 30029.48
513.7640, 22927.15
514.9450, 17614.35
516.1250, 13736.65
517.3060, 11228.78
518.4860, 9048.519
519.6660, 7500.556
520.8460, 6323.344
522.0260, 5581.082
523.2060, 4927.772
524.3850, 4374.910
525.5650, 3874.555
526.7440, 3432.184
527.9230, 3185.501
529.1020, 2778.438
530.2810, 2548.356
531.4590, 2402.516
532.6380, 2185.909
533.8160, 2089.291
534.9940, 1907.663
536.1720, 1798.023
537.3500, 1577.373
538.5270, 1595.712
539.7050, 1427.042
540.8820, 1222.365
542.0590, 1256.762
543.2360, 1207.823
544.4130, 1070.109
545.5900, 1078.436
546.7660, 964.1978
547.9430, 914.5527
549.1190, 883.0620
550.2950, 901.8315
551.4710, 877.9629
552.6470, 809.1733
553.8220, 904.6152
554.9980, 756.3906
556.1730, 881.5869
557.3480, 663.0127
558.5230, 721.5181
559.6980, 674.6455
560.8730, 741.9038
562.0470, 730.4341
563.2220, 679.6338
564.3960, 694.5156
565.5700, 926.3101
566.7440, 887.5757
567.9170, 1062.044
569.0910, 1062.612
570.2640, 1279.328
571.4380, 1633.948
572.6110, 1688.234
573.7840, 1874.539
574.9570, 1974.688
576.1290, 2151.243
577.3020, 2376.265
578.4740, 2263.574
579.6460, 2318.218
580.8180, 2101.652
581.9900, 1762.561
583.1620, 1562.458
584.3330, 1317.676
585.5040, 1171.550
586.6760, 906.4141
587.8470, 794.2671
589.0180, 657.1123
590.1880, 600.0078
591.3590, 531.8560
592.5290, 462.8472
593.7000, 487.6553
594.8700, 430.4541
596.0400, 459.3130
597.2090, 439.2378
598.3790, 420.1533
599.5490, 402.8027
600.7180, 398.8789
601.8870, 350.6240
603.0560, 353.3594
604.2250, 354.0850
605.3940, 356.8140
606.5620, 419.5327
607.7300, 329.2412
608.8990, 402.9399
610.0670, 399.6406
611.2350, 378.3481
612.4020, 461.0649
613.5700, 496.7720
614.7370, 558.4688
615.9050, 524.1572
617.0720, 601.8438
618.2390, 681.5215
619.4060, 737.1982
620.5720, 962.8647
621.7390, 956.5322
622.9050, 1233.191
624.0710, 1430.844
625.2370, 1603.487
626.4030, 1819.122
627.5690, 2074.751
628.7340, 2275.374
629.9000, 2448.181
631.0650, 2539.615
632.2300, 2702.228
633.3950, 2687.831
634.5600, 2679.427
635.7240, 2519.014
636.8890, 2449.593
638.0530, 2330.164
639.2170, 2446.728
640.3810, 2549.284
641.5450, 2613.832
642.7080, 2758.372
643.8720, 2799.910
645.0350, 2816.443
646.1980, 2834.991
647.3610, 2701.566
648.5240, 2640.157
649.6870, 2241.785
650.8490, 1909.451
652.0120, 1543.171
653.1740, 1220.932
654.3360, 1012.748
655.4980, 907.6030
656.6600, 759.5327
657.8210, 626.5278
658.9830, 536.5908
660.1440, 437.7163
661.3050, 363.9043
662.4660, 352.1387
663.6270, 225.4414
664.7870, 297.7827
665.9480, 238.1973
667.1080, 242.6719
668.2680, 140.1802
669.4280, 148.6992
670.5880, 184.2305
671.7480, 101.7573
672.9070, 78.27686
674.0670, 111.7910
675.2260, 149.2979
676.3850, 156.7983
677.5440, 91.29248
678.7030, 113.7798
679.8610, 68.26123
681.0200, 48.73584
682.1780, 0.7968750
683.3360, 23.34424
684.4940, 59.08105
685.6520, 12.50000
686.8090, 24.09180
687.9670, 29.28809
689.1240, 62.34082
690.2810, 68.01709
691.4380, 113.2559
692.5950, 32.52197
693.7520, 46.22021
694.9080, 21.00195
696.0650, 136.8101
697.2210, 73.70508
698.3770, 20.65430
699.5330, 117.6284
700.6880, 17.68066
701.8440, 23.24561
702.9990, 79.83154
704.1550, 37.05811
705.3100, 25.04443
706.4650, 33.15527
707.6190, 73.28809
708.7740, 14.45068
709.9290, 18.38232
711.0830, 50.77295
712.2370, 12.95703
713.3910, 58.14746
714.5450, 19.37793
715.6980, 57.37402
716.8520, 28.87549
718.0050, 71.84668
719.1580, 26.43506
720.3110, 143.2534
721.4640, 86.93701
722.6170, 23.38574
723.7700, 114.2646
724.9220, 128.9092
726.0740, 90.64502
727.2260, 82.80029
728.3780, 2.571289
729.5300, 65.04004
730.6810, 41.43213
731.8330, 99.03076
732.9840, 124.6240
734.1350, 59.74658
735.2860, 44.32861
736.4370, 159.9033
737.5880, 98.47266
738.7380, 31.03613
739.8880, 146.5918
741.0390, 121.1426
742.1890, 225.9028
743.3380, 151.3120
744.4880, 242.8472
745.6380, 225.3765
746.7870, 280.9019
747.9360, 366.0361
749.0850, 597.2949
750.2340, 568.1147
751.3830, 629.6172
752.5310, 638.1147
753.6800, 973.6074
754.8280, 1118.896
755.9760, 1458.377
757.1240, 1749.547
758.2720, 2116.017
759.4190, 2647.598
760.5670, 2746.056
761.7140, 2996.004
762.8610, 3179.451
764.0080, 3029.893
765.1550, 2848.895
766.3020, 2527.620
767.4480, 2143.491
768.5950, 1960.910
769.7410, 1692.061
770.8870, 1490.468
772.0330, 1405.871
773.1780, 1442.267
774.3240, 1491.658
775.4690, 1337.043
776.6140, 1192.424
777.7590, 1120.799
778.9040, 938.1680
780.0490, 822.6240
781.1940, 654.8911
782.3380, 578.2456
783.4820, 493.5938
784.6260, 443.0381
785.7700, 354.4355
786.9140, 344.0737
788.0580, 450.7148
789.2010, 342.2798
790.3450, 456.5942
791.4880, 396.9028
792.6310, 351.2046
793.7730, 451.4995
794.9160, 427.7881
796.0590, 487.0688
797.2010, 443.3413
798.3430, 619.6069
799.4850, 631.8633
800.6270, 825.1123
801.7690, 806.3525
802.9100, 1027.584
804.0520, 1432.807
805.1930, 1687.020
806.3340, 2089.223
807.4750, 2561.418
808.6160, 3195.602
809.7560, 3894.777
810.8970, 4643.942
812.0370, 5266.099
813.1770, 5662.247
814.3170, 6035.385
815.4570, 5971.514
816.5960, 5517.634
817.7360, 4669.739
818.8750, 3869.752
820.0140, 3043.081
821.1530, 2339.166
822.2920, 1824.193
823.4310, 1443.763
824.5690, 1181.721
825.7070, 998.5068
826.8460, 877.0137
827.9840, 721.8911
829.1220, 580.1689
830.2590, 578.9473
831.3970, 513.3740
832.5340, 548.3628
833.6710, 511.0615
834.8080, 417.7031
835.9450, 412.6582
837.0820, 451.5107
838.2190, 371.6230
839.3550, 376.2188
840.4910, 351.4048
841.6270, 231.1636
842.7630, 188.7646
843.8990, 239.8452
845.0350, 268.3965
846.1700, 179.6309
847.3060, 225.1152
848.4410, 126.0503
849.5760, 109.3486
850.7100, 78.80225
851.8450, 110.6821
852.9800, 66.54834
854.1140, 171.8179
855.2480, 114.7402
856.3820, 95.14990
857.5160, 73.06934
858.6500, 176.9868
859.7830, 128.5713
860.9170, 148.4844
862.0500, 1.396484
863.1830, 8.696289
864.3160, 53.20361
865.4480, 153.0396
866.5810, 31.08887
867.7130, 58.61816
868.8460, 142.4951
869.9780, 43.62939
871.1100, 76.16064
872.2410, 113.8525
873.3730, 54.70068
874.5050, 103.2856
875.6360, 13.07471
876.7670, 64.91992
877.8980, 2.235352
879.0290, 50.39453
880.1590, 107.4194
881.2900, 33.23242
882.4200, 13.04541
883.5500, 47.14258
884.6800, 65.35498
885.8100, 74.60107
886.9400, 13.11426
888.0690, 34.82959
889.1990, 28.54395
890.3280, 34.74072
891.4570, 25.95703
892.5860, 33.34521
893.7140, 90.33643
894.8430, 40.98193
895.9710, 7.680664
897.1000, 10.65625
898.2280, 59.00146
899.3560, 28.65967
900.4830, 12.68115
901.6110, 6.027832
902.7380, 48.37744
903.8660, 4.251953
904.9930, 17.28223
906.1200, 20.50342
907.2460, 14.12646
908.3730, 29.75098
909.5000, 38.11084
910.6260, 39.50146
911.7520, 40.63232
912.8780, 63.27734
914.0040, 55.92285
915.1290, 99.57617
916.2550, 30.23047
917.3800, 111.8872
918.5050, 27.54492
919.6300, 1.795410
920.7550, 46.13525
921.8800, 8.492676
923.0040, 8.851563
924.1290, 67.21143
925.2530, 55.40186
926.3770, 23.02881
927.5010, 56.66064
928.6250, 77.13623
929.7480, 24.93066
930.8720, 83.56982
931.9950, 28.21143
933.1180, 40.86084
934.2410, 60.52100
935.3640, 130.1846
936.4860, 108.2119
937.6090, 130.1431
938.7310, 93.19482
939.8530, 97.87158
940.9750, 86.55176
942.0970, 95.89502
943.2180, 94.92627
944.3400, 142.6279
945.4610, 171.3374
946.5820, 219.0513
947.7030, 153.7734
948.8240, 151.5151
949.9450, 144.2622
951.0650, 113.0127
952.1860, 120.7681
953.3060, 104.4551
954.4260, 121.3086
955.5460, 147.7080
956.6650, 179.9146
957.7850, 222.7402
958.9040, 284.5728
960.0230, 330.4409
961.1420, 329.6909
962.2610, 257.2173
963.3800, 338.1465
964.4990, 358.0811
965.6170, 418.0225
966.7350, 430.9863
967.8530, 568.9663
968.9710, 700.9971
970.0890, 803.0576
971.2070, 888.1348
972.3240, 1020.452
973.4410, 1085.406
974.5580, 1242.558
975.6750, 1360.741
976.7920, 1433.932
977.9090, 1505.140
979.0250, 1434.368
980.1410, 1221.627
981.2580, 1156.905
982.3740, 928.1953
983.4890, 743.5093
984.6050, 667.8379
985.7200, 562.1948
986.8360, 514.5674
987.9510, 456.9473
989.0660, 404.3467
990.1810, 356.7529
991.2950, 244.1777
992.4100, 212.6099
993.5240, 295.0493
994.6390, 390.5068
995.7530, 338.9712
996.8660, 338.3462
997.9800, 498.3032
999.0940, 521.7891
1000.207, 556.2881
1001.320, 576.0112
1002.433, 690.5283
1003.546, 710.0537
1004.659, 662.0513
1005.772, 805.5918
1006.884, 689.1416
1007.996, 632.6987
1009.108, 654.2642
1010.220, 741.8398
1011.332, 693.4224
1012.444, 754.7993
1013.555, 630.5298
1014.666, 688.1367
1015.777, 819.7529
1016.888, 878.3774
1017.999, 1002.395
1019.110, 1021.292
1020.220, 1282.631
1021.331, 1423.291
1022.441, 1544.958
1023.551, 1819.636
1024.661, 2149.521
1025.770, 2793.217
1026.880, 3133.229
1027.989, 3651.943
1029.098, 4147.554
1030.207, 4717.290
1031.316, 4801.538
1032.425, 4860.293
1033.533, 4798.057
1034.642, 4204.267
1035.750, 3610.757
1036.858, 3117.106
1037.966, 2578.911
1039.073, 2123.991
1040.181, 1762.816
1041.288, 1435.188
1042.396, 1227.501
1043.503, 1013.359
1044.610, 893.2271
1045.716, 860.5142
1046.823, 751.4033
1047.929, 778.4131
1049.036, 598.3228
1050.142, 672.2427
1051.248, 511.1729
1052.353, 434.1138
1053.459, 501.9644
1054.564, 336.8662
1055.670, 355.5327
1056.775, 352.2129
1057.880, 323.9614
1058.985, 287.6738
1060.089, 336.9126
1061.194, 349.9375
1062.298, 291.9731
1063.402, 453.0195
1064.506, 324.0762
1065.610, 495.1641
1066.713, 307.0537
1067.817, 347.1426
1068.920, 437.2412
1070.023, 491.3853
1071.126, 360.5049
1072.229, 564.6343
1073.332, 463.7744
1074.435, 458.1860
1075.537, 610.3472
1076.639, 619.5752
1077.741, 615.5132
1078.843, 800.7139
1079.945, 736.7451
1081.046, 945.7202
1082.148, 923.9507
1083.249, 1125.191
1084.350, 1267.442
1085.451, 1337.701
1086.551, 1602.132
1087.652, 1806.413
1088.752, 2162.771
1089.853, 2695.070
1090.953, 3082.379
1092.053, 3677.332
1093.152, 4213.657
1094.252, 5073.146
1095.351, 5614.490
1096.451, 6246.844
1097.550, 6593.217
1098.649, 6989.679
1099.748, 7010.077
1100.846, 6755.530
1101.945, 6296.945
1103.043, 5807.369
1104.141, 5366.038
1105.239, 4806.478
1106.337, 4367.927
1107.434, 4305.383
1108.532, 4049.847
1109.629, 3980.317
1110.726, 3881.796
1111.823, 3807.524
1112.920, 3787.848
1114.017, 3743.630
1115.113, 3646.160
1116.210, 3568.698
1117.306, 3258.243
1118.402, 3105.794
1119.498, 2901.351
1120.593, 2422.915
1121.689, 2349.485
1122.784, 2005.062
1123.879, 1788.645
1124.974, 1531.235
1126.069, 1274.830
1127.164, 1206.432
1128.259, 941.0396
1129.353, 1011.654
1130.447, 795.2778
1131.541, 558.9072
1132.635, 434.9458
1133.729, 434.5957
1134.822, 442.2510
1135.916, 417.9136
1137.009, 443.6021
1138.102, 368.2959
1139.195, 285.9961
1140.288, 304.7017
1141.380, 277.4126
1142.473, 339.1289
1143.565, 349.2153
1144.657, 370.3384
1145.749, 395.3257
1146.841, 426.0781
1147.932, 408.8359
1149.024, 438.5981
1150.115, 350.3784
1151.206, 476.1797
1152.297, 536.0054
1153.388, 454.8516
1154.479, 409.7026
1155.569, 307.5601
1156.659, 348.4312
1157.750, 320.3066
1158.839, 300.1958
1159.929, 228.0898
1161.019, 248.9985
1162.108, 139.9111
1163.198, 180.8530
1164.287, 65.80029
1165.376, 107.7520
1166.465, 88.71240
1167.553, 191.6797
1168.642, 217.6621
1169.730, 273.6489
1170.818, 174.6440
1171.906, 109.6436
1172.994, 59.64697
1174.082, 60.65430
1175.170, 38.66602
1176.257, 67.31934
1177.344, 38.66992
1178.431, 26.33691
1179.518, 2.649414
1180.605, 113.6377
1181.691, 205.6299
1182.778, 189.6260
1183.864, 137.6250
1184.950, 36.62842
1186.036, 78.64404
1187.122, 1.077637
1188.207, 76.69043
1189.292, 52.26660
1190.378, 5.245605
1191.463, 23.77539
1192.548, 140.7993
1193.632, 92.82568
1194.717, 95.85547
1195.801, 21.11279
1196.886, 35.08838
1197.970, 50.92236
1199.054, 51.93506
1200.137, 0.9497070
1201.221, 114.9658
1202.305, 26.98438
1203.388, 91.00488
1204.471, 3.972656
1205.554, 76.04834
1206.637, 36.04932
1207.719, 13.04297
1208.802, 16.95801
1209.884, 14.04004
1210.966, 62.04443
1212.048, 45.91943
1213.130, 72.88477
1214.212, 113.8516
1215.293, 83.81982
1216.374, 51.21094
1217.456, 5.886719
1218.536, 65.16113
1219.617, 67.74756
1220.698, 22.65723
1221.778, 73.43262
1222.859, 58.43848
1223.939, 1.309570
1225.019, 9.179199
1226.099, 43.36914
1227.178, 78.37793
1228.258, 5.110352
1229.337, 108.0981
1230.417, 13.03076
1231.496, 142.8301
1232.574, 177.7568
1233.653, 31.38184
1234.732, 212.7852
1235.810, 83.71777
1236.888, 115.5586
1237.966, 141.3994
1239.044, 162.2417
1240.122, 69.43945
1241.199, 35.28076
1242.277, 8.407227
1243.354, 4.781738
1244.431, 16.55811
1245.508, 90.07422
1246.585, 65.89795
1247.661, 143.7227
1248.738, 116.5459
1249.814, 71.36865
1250.890, 81.18994
1251.966, 108.0098
1253.042, 130.9487
1254.117, 132.0161
1255.193, 96.66748
1256.268, 141.4824
1257.343, 107.2969
