##NAMES=Almandine
##RRUFFID=R040168
##IDEAL CHEMISTRY=Fe^2+^_3_Al_2_(SiO_4_)_3_
##LOCALITY=Pocos Dos Cavatos, Ceara, Brazil
##OWNER=RRUFF
##SOURCE=University of Arizona Mineral Museum
##DESCRIPTION=Dark red etched single crystal
##STATUS=The identification of this mineral has been confirmed by X-ray diffraction and chemical analysis
##URL=rruff.info/R040168
##MEASURED CHEMISTRY=(Fe^2+^_1.48_Mn_1.47_Ca_0.05_)_Î£=3_Al_2.00_(Si_1.00_O_4_)_3_; trace amounts of Ti and Y
##PIN_ID=L00513
##ORIENTATION=Laser parallel to -a* (-1 0 0). Fiducial mark perpendicular to laser is parallel to -c [0 0 -1]
71.747, 0.000
73.144, 1.272
74.540, 97.412
75.937, 78.199
77.333, 245.373
78.729, 53.856
80.125, 91.530
81.521, 43.227
82.916, 154.074
84.311, 202.875
85.706, 161.994
87.101, 221.155
88.496, 211.064
89.890, 189.788
91.284, 243.951
92.678, 200.891
94.071, 128.229
95.465, 136.778
96.858, 143.579
98.251, 73.887
99.644, 79.368
101.036, 93.520
102.428, 127.006
103.820, 149.082
105.212, 156.593
106.604, 242.738
107.995, 264.840
109.387, 281.121
110.777, 278.102
112.168, 346.280
113.559, 402.363
114.949, 465.304
116.339, 400.693
117.729, 285.998
119.119, 192.329
120.508, 105.742
121.897, 87.139
123.286, 43.942
124.675, 79.756
126.063, 49.475
127.452, 70.754
128.840, 106.967
130.228, 115.551
131.615, 147.041
133.003, 171.531
134.390, 185.700
135.777, 204.610
137.164, 242.073
138.550, 299.545
139.937, 298.095
141.323, 225.937
142.709, 179.139
144.094, 219.103
145.480, 166.395
146.865, 161.360
148.250, 187.991
149.635, 188.360
151.019, 180.684
152.403, 189.029
153.788, 192.555
155.171, 296.026
156.555, 307.053
157.939, 422.500
159.322, 586.102
160.705, 986.260
162.088, 1582.854
163.470, 2365.924
164.853, 3169.711
166.235, 2897.203
167.617, 2083.402
168.998, 1246.814
170.380, 770.679
171.761, 437.105
173.142, 279.834
174.523, 195.784
175.904, 92.229
177.284, 67.465
178.664, 63.698
180.044, 51.898
181.424, 14.052
182.803, 13.305
184.183, 24.178
185.562, 6.862
186.940, 17.982
188.319, 21.186
189.698, 46.476
191.076, 35.869
192.454, 44.369
193.831, 59.976
195.209, 21.691
196.586, 42.503
197.963, 20.393
199.340, 62.339
200.717, 51.339
202.093, 55.393
203.470, 19.502
204.846, 43.672
206.221, 1.924
207.597, 20.717
208.972, 5.760
210.347, 21.630
211.722, 9.885
213.097, 65.978
214.472, 83.889
215.846, 140.612
217.220, 155.168
218.594, 175.561
219.967, 207.776
221.341, 181.843
222.714, 193.796
224.087, 185.655
225.460, 177.448
226.832, 185.154
228.204, 168.827
229.577, 159.458
230.948, 160.050
232.320, 139.603
233.692, 157.118
235.063, 170.593
236.434, 173.031
237.805, 143.179
239.175, 173.307
240.545, 197.610
241.916, 241.668
243.286, 215.462
244.655, 174.996
246.025, 276.260
247.394, 239.151
248.763, 279.882
250.132, 192.342
251.501, 279.493
252.869, 272.349
254.237, 274.924
255.605, 276.393
256.973, 314.564
258.340, 321.616
259.708, 314.260
261.075, 343.699
262.442, 335.928
263.808, 306.539
265.175, 343.877
266.541, 364.106
267.907, 362.279
269.273, 430.062
270.639, 357.736
272.004, 382.346
273.369, 358.781
274.734, 413.950
276.099, 438.002
277.463, 445.940
278.828, 482.001
280.192, 516.868
281.556, 540.769
282.919, 574.626
284.283, 604.698
285.646, 631.745
287.009, 681.598
288.372, 710.948
289.734, 735.294
291.097, 844.114
292.459, 876.778
293.821, 948.550
295.183, 1039.095
296.544, 1099.302
297.905, 1243.267
299.266, 1320.042
300.627, 1417.630
301.988, 1369.123
303.348, 1346.680
304.709, 1377.095
306.069, 1348.769
307.428, 1387.992
308.788, 1452.512
310.147, 1548.518
311.507, 1744.310
312.865, 1975.355
314.224, 2386.209
315.583, 2788.857
316.941, 3414.752
318.299, 4020.585
319.657, 4753.017
321.015, 5447.818
322.372, 5872.985
323.729, 5884.839
325.086, 5465.609
326.443, 5032.313
327.800, 4545.901
329.156, 4046.468
330.512, 3910.991
331.868, 3632.475
333.224, 3790.778
334.579, 3954.019
335.935, 4493.664
337.290, 5190.628
338.645, 6130.060
339.999, 7569.461
341.354, 9201.498
342.708, 11641.475
344.062, 14091.256
345.416, 15910.049
346.769, 16918.836
348.123, 15658.009
349.476, 13865.728
350.829, 11182.771
352.182, 8919.642
353.534, 7147.954
354.887, 5731.956
356.239, 5005.457
357.591, 4239.013
358.942, 4011.003
360.294, 3924.720
361.645, 3850.853
362.996, 4075.392
364.347, 4444.660
365.698, 5145.715
367.048, 5924.053
368.398, 6925.905
369.748, 8160.416
371.098, 9076.826
372.448, 9685.175
373.797, 9294.646
375.146, 8693.865
376.495, 7373.075
377.844, 6058.529
379.192, 4874.499
380.540, 3872.606
381.889, 3167.898
383.236, 2507.367
384.584, 2102.733
385.932, 1790.159
387.279, 1398.562
388.626, 1277.936
389.973, 1106.344
391.319, 980.688
392.666, 833.966
394.012, 776.268
395.358, 701.412
396.704, 578.718
398.049, 554.096
399.394, 527.485
400.740, 465.640
402.084, 472.920
403.429, 358.243
404.774, 383.693
406.118, 336.977
407.462, 315.042
408.806, 284.476
410.150, 255.704
411.493, 276.050
412.836, 223.980
414.179, 246.225
415.522, 218.393
416.865, 178.526
418.207, 188.620
419.549, 159.828
420.891, 166.021
422.233, 154.142
423.575, 134.344
424.916, 132.474
426.257, 123.442
427.598, 89.530
428.939, 62.666
430.279, 102.758
431.619, 66.100
432.959, 97.105
434.299, 87.180
435.639, 94.125
436.978, 54.270
438.318, 79.485
439.657, 6.704
440.996, 17.029
442.334, 6.680
443.673, 37.577
445.011, 34.804
446.349, 57.003
447.687, 33.176
449.024, 11.325
450.361, 47.450
451.699, 44.574
453.036, 70.656
454.372, 47.720
455.709, 29.764
457.045, 68.788
458.381, 65.795
459.717, 54.828
461.053, 48.802
462.388, 51.761
463.724, 58.706
465.059, 57.164
466.394, 73.551
467.728, 63.455
469.063, 58.350
470.397, 64.234
471.731, 94.110
473.065, 82.979
474.398, 121.840
475.732, 157.694
477.065, 97.543
478.398, 112.384
479.731, 133.218
481.063, 47.043
482.396, 66.855
483.728, 57.655
485.060, 70.438
486.391, 75.377
487.723, 93.274
489.054, 88.198
490.385, 89.202
491.716, 89.138
493.047, 122.977
494.377, 160.934
495.708, 196.770
497.038, 237.693
498.368, 306.584
499.697, 293.541
501.027, 296.486
502.356, 321.159
503.685, 241.508
505.014, 227.471
506.342, 191.134
507.671, 184.785
508.999, 163.741
510.327, 148.688
511.655, 198.391
512.982, 156.235
514.310, 187.715
515.637, 232.525
516.964, 239.429
518.291, 267.810
519.617, 288.339
520.944, 309.593
522.270, 343.815
523.596, 379.575
524.921, 429.938
526.247, 410.763
527.572, 406.736
528.897, 437.646
530.222, 417.019
531.547, 446.229
532.871, 430.852
534.196, 513.874
535.520, 550.173
536.844, 640.875
538.167, 720.936
539.491, 732.231
540.814, 932.383
542.137, 1055.382
543.460, 1229.978
544.783, 1539.148
546.105, 1846.849
547.427, 2313.712
548.749, 2812.904
550.071, 3504.549
551.393, 4108.519
552.714, 4388.624
554.035, 4621.637
555.356, 4401.803
556.677, 3918.274
557.998, 3410.155
559.318, 2730.656
560.638, 2207.419
561.958, 1782.216
563.278, 1514.940
564.597, 1271.735
565.917, 1045.382
567.236, 917.075
568.555, 781.807
569.874, 682.479
571.192, 625.141
572.511, 547.793
573.829, 532.434
575.147, 457.067
576.464, 466.542
577.782, 397.056
579.099, 411.445
580.416, 410.857
581.733, 370.215
583.050, 370.487
584.366, 383.747
585.683, 393.966
586.999, 451.040
588.315, 502.997
589.630, 578.119
590.946, 703.083
592.261, 772.173
593.576, 846.218
594.891, 683.289
596.206, 620.189
597.520, 465.192
598.834, 355.885
600.148, 326.616
601.462, 233.195
602.776, 189.003
604.089, 175.796
605.402, 179.678
606.715, 178.455
608.028, 147.138
609.341, 107.967
610.653, 149.781
611.965, 112.699
613.277, 115.519
614.589, 124.259
615.901, 114.159
617.212, 98.043
618.523, 157.877
619.834, 121.682
621.145, 164.496
622.456, 182.336
623.766, 130.166
625.076, 169.062
626.386, 158.911
627.696, 184.736
629.006, 192.582
630.315, 214.550
631.624, 192.468
632.933, 184.545
634.242, 161.728
635.551, 178.696
636.859, 158.446
638.167, 157.835
639.475, 134.583
640.783, 127.409
642.090, 108.194
643.398, 52.030
644.705, 57.881
646.012, 46.803
647.318, 23.699
648.625, 35.594
649.931, 54.484
651.237, 22.511
652.543, 47.558
653.849, 23.595
655.155, 28.622
656.460, 10.638
657.765, 12.644
659.070, 8.361
660.375, 2.384
661.679, 6.578
662.984, 24.471
664.288, 7.546
665.592, 12.639
666.895, 13.247
668.199, 7.876
669.502, 10.017
670.805, 3.177
672.108, 25.353
673.411, 26.557
674.713, 17.788
676.016, 20.042
677.318, 2.679
678.620, 46.613
679.921, 38.943
681.223, 48.308
682.524, 6.712
683.825, 9.134
685.126, 40.575
686.427, 32.051
687.727, 29.558
689.028, 20.094
690.328, 42.655
691.628, 31.252
692.927, 37.879
694.227, 36.539
695.526, 39.232
696.825, 29.959
698.124, 59.715
699.423, 21.515
700.721, 31.339
702.020, 40.191
703.318, 10.078
704.616, 2.018
705.913, 6.898
707.211, 11.170
708.508, 32.771
709.805, 14.741
711.102, 17.730
712.399, 5.739
713.695, 14.237
714.992, 24.795
716.288, 35.150
717.584, 23.088
718.879, 54.018
720.175, 15.941
721.470, 12.143
722.765, 37.757
724.060, 19.650
725.355, 47.537
726.649, 59.417
727.944, 35.291
729.238, 43.159
730.532, 69.020
731.825, 46.876
733.119, 55.726
734.412, 42.571
735.705, 51.411
736.998, 60.247
738.291, 52.078
739.584, 58.904
740.876, 30.727
742.168, 61.546
743.460, 63.361
744.752, 46.174
746.043, 65.984
747.334, 62.791
748.626, 52.595
749.916, 57.397
751.207, 27.195
752.498, 49.992
753.788, 54.786
755.078, 78.579
756.368, 46.371
757.658, 36.162
758.947, 29.952
760.237, 20.741
761.526, 88.528
762.815, 101.314
764.104, 54.100
765.392, 82.864
766.680, 22.647
767.969, 48.429
769.257, 87.209
770.544, 56.989
771.832, 72.768
773.119, 70.503
774.406, 79.281
775.693, 70.057
776.980, 64.833
778.267, 117.608
779.553, 112.383
780.839, 167.157
782.125, 173.930
783.411, 151.703
784.697, 201.476
785.982, 213.248
787.267, 205.019
788.552, 219.789
789.837, 204.558
791.122, 199.329
792.406, 176.102
793.690, 165.875
794.974, 184.648
796.258, 181.422
797.542, 175.198
798.825, 169.808
800.108, 196.453
801.391, 190.060
802.674, 219.578
803.957, 254.156
805.239, 264.821
806.522, 314.362
807.804, 396.019
809.085, 382.585
810.367, 453.179
811.649, 428.701
812.930, 436.246
814.211, 468.078
815.492, 484.246
816.772, 472.818
818.053, 471.705
819.333, 431.609
820.613, 483.218
821.893, 422.846
823.173, 461.732
824.452, 461.493
825.732, 469.639
827.011, 451.473
828.290, 433.235
829.568, 438.552
830.847, 443.748
832.125, 418.241
833.403, 449.789
834.681, 438.829
835.959, 434.291
837.236, 501.315
838.514, 456.205
839.791, 504.180
841.068, 507.701
842.345, 549.389
843.621, 562.674
844.898, 620.566
846.174, 664.187
847.450, 709.407
848.726, 758.727
850.001, 772.896
851.277, 841.665
852.552, 931.585
853.827, 1026.904
855.102, 1039.648
856.376, 1062.857
857.651, 1146.904
858.925, 1160.618
860.199, 1166.877
861.473, 1068.811
862.746, 1133.607
864.020, 1057.492
865.293, 1124.226
866.566, 1158.653
867.839, 1149.668
869.112, 1240.061
870.384, 1278.193
871.656, 1315.288
872.928, 1467.457
874.200, 1470.551
875.472, 1574.793
876.744, 1782.990
878.015, 1789.145
879.286, 2018.360
880.557, 2164.586
881.828, 2308.821
883.098, 2604.065
884.369, 2807.320
885.639, 3189.585
886.909, 3409.861
888.178, 3719.145
889.448, 4252.439
890.717, 4560.747
891.987, 5197.062
893.256, 5684.388
894.524, 6328.726
895.793, 7561.073
897.061, 8425.430
898.330, 10249.801
899.598, 11779.182
900.865, 14098.568
902.133, 17747.969
903.401, 20667.385
904.668, 25446.805
905.935, 31586.236
907.202, 36725.684
908.468, 43905.145
909.735, 47204.617
911.001, 49604.090
912.267, 49983.578
913.533, 44923.078
914.799, 41092.594
916.064, 34082.117
917.330, 28601.650
918.595, 24161.195
919.860, 19320.756
921.124, 16280.326
922.389, 13999.907
923.653, 11339.500
924.918, 10109.105
926.182, 8254.722
927.445, 7213.351
928.709, 6195.991
929.972, 5359.643
931.236, 4689.307
932.499, 4088.982
933.761, 3613.669
935.024, 3194.369
936.286, 2804.080
937.549, 2571.803
938.811, 2319.539
940.073, 2029.286
941.334, 1888.258
942.596, 1705.414
943.857, 1596.794
945.118, 1465.590
946.379, 1326.460
947.640, 1326.280
948.900, 1179.520
950.161, 1179.567
951.421, 1116.956
952.681, 1018.980
953.940, 1002.912
955.200, 935.914
956.459, 909.039
957.719, 922.289
958.978, 821.044
960.236, 891.217
961.495, 811.029
962.753, 795.080
964.012, 836.279
965.270, 767.544
966.527, 777.957
967.785, 788.902
969.043, 767.524
970.300, 800.584
971.557, 745.332
972.814, 708.425
974.071, 745.530
975.327, 684.651
976.583, 656.789
977.840, 646.941
979.095, 584.113
980.351, 588.880
981.607, 504.821
982.862, 547.448
984.117, 461.566
985.372, 441.725
986.627, 508.426
987.882, 467.058
989.136, 436.390
990.390, 494.775
991.644, 437.146
992.898, 458.537
994.152, 470.950
995.405, 433.380
996.659, 468.835
997.912, 449.310
999.165, 477.807
1000.417, 435.326
1001.670, 456.869
1002.922, 508.431
1004.174, 452.021
1005.426, 461.629
1006.678, 474.257
1007.930, 489.908
1009.181, 494.574
1010.432, 481.252
1011.683, 479.944
1012.934, 542.650
1014.185, 480.377
1015.435, 520.120
1016.685, 569.881
1017.935, 481.658
1019.185, 610.445
1020.435, 588.250
1021.684, 597.958
1022.934, 702.896
1024.183, 637.737
1025.432, 676.588
1026.680, 736.454
1027.929, 780.329
1029.177, 855.216
1030.425, 819.112
1031.673, 955.018
1032.921, 940.934
1034.169, 903.861
1035.416, 861.798
1036.663, 809.746
1037.911, 748.705
1039.157, 1115.674
1040.404, 1225.651
1041.650, 908.637
1042.897, 476.639
1044.143, 371.650
1045.389, 363.670
1046.634, 316.702
1047.880, 279.743
1049.125, 262.793
1050.371, 210.852
1051.615, 197.918
1052.860, 187.995
1054.105, 173.083
1055.349, 148.180
1056.593, 145.288
1057.837, 141.403
1059.081, 133.528
1060.325, 67.660
1061.568, 135.801
1062.812, 66.949
1064.055, 102.106
1065.298, 92.270
1066.540, 91.442
1067.783, 58.621
1069.025, 63.807
1070.267, 33.000
1071.509, 99.201
1072.751, 63.409
1073.993, 50.624
1075.234, 51.844
1076.475, 3.072
1077.716, 61.304
1078.957, 2.543
1080.198, 31.793
1081.438, 28.054
1082.679, 35.325
1083.919, 21.602
1085.159, 24.886
1086.398, 22.177
1087.638, 13.473
1088.877, 20.776
1090.116, 6.086
1091.355, 15.599
1092.594, 15.282
1093.833, 15.033
1095.071, 1.648
1096.309, 18.676
1097.547, 9.991
1098.785, 25.657
1100.023, 31.328
1101.260, 24.008
1102.498, 21.695
1103.735, 22.388
1104.972, 24.088
1106.208, 25.795
1107.445, 34.505
1108.681, 23.227
1109.918, 15.958
1111.154, 0.308
1112.389, 40.425
1113.625, 57.174
1114.860, 42.949
1116.096, 66.744
1117.331, 27.566
1118.566, 7.599
1119.800, 10.233
1121.035, 39.931
1122.269, 76.097
1123.503, 77.265
1124.737, 61.435
1125.971, 48.608
1127.205, 6.783
1128.438, 25.041
1129.671, 43.878
1130.904, 2.737
1132.137, 29.600
1133.370, 11.479
1134.602, 2.365
1135.834, 0.254
1137.066, 17.853
1138.298, 6.962
1139.530, 21.071
1140.762, 27.179
1141.993, 23.288
1143.224, 48.396
1144.455, 53.503
1145.686, 64.633
1146.917, 73.716
1148.147, 74.821
1149.377, 109.924
1150.607, 89.027
1151.837, 90.128
1153.067, 135.228
1154.296, 140.326
1155.526, 191.497
1156.755, 181.743
1157.984, 169.861
1159.213, 195.086
1160.441, 192.042
1161.670, 175.296
1162.898, 192.509
1164.126, 214.115
1165.354, 227.791
1166.581, 238.469
1167.809, 200.206
1169.036, 230.625
1170.263, 211.125
1171.490, 154.334
1172.717, 239.542
1173.943, 209.001
1175.170, 223.162
1176.396, 235.700
1177.622, 184.911
1178.848, 262.346
1180.073, 240.700
1181.299, 219.436
1182.524, 218.721
1183.749, 200.238
1184.974, 193.936
1186.199, 191.318
1187.423, 177.346
1188.648, 194.557
1189.872, 185.497
1191.096, 184.902
1192.320, 186.799
1193.543, 181.034
1194.767, 171.302
1195.990, 170.405
1197.213, 148.805
1198.436, 161.767
1199.659, 155.415
1200.881, 165.269
1202.104, 154.581
1203.326, 142.294
1204.548, 132.466
1205.770, 148.838
1206.991, 149.873
1208.213, 133.396
1209.434, 137.442
1210.655, 108.693
1211.876, 120.808
1213.096, 86.922
1214.317, 136.011
1215.537, 98.048
1216.757, 112.167
1217.977, 143.360
1219.197, 117.557
1220.417, 79.579
1221.636, 129.427
1222.855, 87.386
1224.074, 120.275
1225.293, 143.194
1226.512, 120.143
1227.731, 144.634
1228.949, 132.288
1230.167, 131.332
1231.385, 181.460
1232.603, 99.649
1233.820, 176.592
1235.038, 183.676
1236.255, 136.022
1237.472, 169.940
1238.689, 163.730
1239.906, 180.918
1241.122, 177.630
1242.338, 181.480
1243.555, 179.616
1244.771, 194.023
1245.986, 176.078
1247.202, 201.365
1248.417, 206.052
1249.633, 200.708
1250.848, 237.280
1252.063, 212.880
1253.277, 177.696
1254.492, 228.622
1255.706, 206.954
1256.920, 254.215
1258.134, 236.682
1259.348, 201.101
1260.562, 273.496
1261.775, 219.624
1262.988, 231.130
1264.201, 250.116
1265.414, 235.674
1266.627, 193.587
1267.839, 214.136
1269.052, 196.744
1270.264, 186.377
1271.476, 226.947
1272.688, 188.583
1273.899, 253.042
1275.111, 189.953
1276.322, 219.774
1277.533, 203.819
1278.744, 171.469
1279.955, 168.099
1281.165, 190.075
1282.376, 155.252
1283.586, 159.965
1284.796, 120.365
1286.006, 131.704
1287.215, 112.025
1288.425, 112.326
1289.634, 87.616
1290.843, 84.901
1292.052, 94.161
1293.261, 101.426
1294.469, 99.739
1295.678, 73.964
1296.886, 100.240
1298.094, 65.432
1299.302, 62.613
1300.509, 37.798
1301.717, 24.952
1302.924, 50.095
1304.131, 27.228
1305.338, 0.673
1306.545, 24.403
1307.752, 28.462
1308.958, 6.506
1310.164, 4.531
1311.370, 29.535
1312.576, 27.526
1313.782, 13.491
1314.987, 9.565
1316.193, 27.360
1317.398, 27.270
1318.603, 11.151
1319.807, 32.013
1321.012, 7.861
1322.216, 25.693
1323.421, 11.502
1324.625, 15.295
1325.829, 2.070
1327.032, 18.827
1328.236, 7.565
1329.439, 2.285
1330.642, 12.986
1331.845, 52.669
1333.048, 22.331
1334.251, 18.024
1335.453, 20.597
1336.656, 34.202
1337.858, 7.210
1339.060, 16.357
1340.261, 28.905
1341.463, 9.061
1342.664, 54.950
1343.866, 1.448
1345.067, 2.074
1346.267, 11.385
1347.468, 0.174
1348.669, 18.248
1349.869, 7.654
1351.069, 29.042
1352.269, 2.415
1353.469, 25.770
1354.668, 11.110
1355.868, 18.433
1357.067, 17.740
1358.266, 19.032
1359.465, 22.309
1360.664, 15.571
1361.862, 10.818
1363.061, 10.050
1364.259, 20.267
1365.457, 44.470
1366.655, 23.660
1367.852, 30.837
1369.050, 26.002
1370.247, 7.845
1371.444, 16.708
1372.641, 3.575
1373.838, 12.531
1375.035, 7.626
1376.231, 4.718
1377.427, 16.792
1378.623, 7.861
1379.819, 0.077
1381.015, 15.980
1382.211, 1.138
1383.406, 27.732
1384.601, 40.578
1385.796, 14.408
1386.991, 13.759
1388.185, 21.077
1389.380, 0.088
1390.574, 19.753
1391.768, 17.588
1392.962, 31.445
1394.156, 37.341
1395.350, 18.252
1396.543, 14.845
1397.736, 24.042
1398.929, 67.913
1400.122, 1.777
1401.315, 66.665
1402.507, 38.565
1403.700, 31.464
1404.892, 68.349
1406.084, 3.777
1407.276, 50.084
1408.467, 50.934
1409.659, 43.773
1410.850, 50.600
1412.041, 35.415
1413.232, 30.926
1414.423, 41.505
1415.614, 27.912
1416.804, 61.785
1417.994, 52.535
1419.184, 34.565
1420.374, 55.064
1421.564, 32.938
1422.753, 31.714
1423.943, 63.512
1425.132, 31.612
1426.321, 10.059
1427.510, 37.026
1428.698, 59.178
1429.887, 55.352
1431.075, 55.698
1432.263, 55.421
1433.451, 53.090
1434.639, 54.861
1435.827, 46.283
1437.014, 56.393
1438.201, 28.387
1439.388, 32.730
1440.575, 62.101
1441.762, 75.564
1442.949, 44.613
1444.135, 81.725
1445.321, 60.489
1446.507, 78.167
1447.693, 98.803
1448.879, 43.520
1450.064, 63.823
1451.250, 65.557
1452.435, 38.689
1453.620, 68.860
1454.805, 68.016
1455.989, 59.245
1457.174, 96.127
1458.358, 50.000
1459.542, 78.856
1460.726, 66.388
1461.910, 86.481
1463.093, 83.565
1464.277, 71.487
1465.460, 32.296
1466.643, 100.004
1467.826, 54.512
1469.009, 82.730
1470.191, 104.052
1471.373, 78.349
1472.556, 96.646
1473.738, 88.924
1474.919, 69.124
1476.101, 78.360
1477.283, 75.866
1478.464, 53.319
1479.645, 84.722
1480.826, 56.861
1482.007, 67.001
1483.187, 74.260
1484.368, 28.516
1485.548, 70.757
1486.728, 52.074
1487.908, 66.377
1489.088, 59.675
1490.268, 62.039
1491.447, 45.382
1492.626, 60.828
1493.805, 31.243
1494.984, 52.709
1496.163, 38.168
1497.341, 12.641
1498.520, 35.128
1499.698, 27.689
1500.876, 43.262
1502.054, 17.855
1503.232, 35.496
1504.409, 3.182
1505.586, 33.916
1506.763, 38.705
1507.940, 18.552
1509.117, 43.462
1510.294, 44.445
1511.470, 15.516
1512.647, 58.686
1513.823, 1.024
1514.999, 23.409
1516.174, 6.015
1517.350, 0.159
1518.526, 43.445
1519.701, 37.746
1520.876, 0.053
1522.051, 0.000
##END=



