##NAMES=Almandine
##RRUFFID=R070129
##IDEAL CHEMISTRY=Fe^2+^_3_Al_2_(SiO_4_)_3_
##LOCALITY=Wrangell, Wrangell Island, Wrangell-Petersburg Borough, Alaska, USA
##OWNER=Michael Scott
##SOURCE=Michael Scott
##DESCRIPTION=Dark red well-formed dodecahedral crystals in schist
##STATUS=The identification of this mineral has been confirmed by X-ray diffraction and chemical analysis
##URL=rruff.info/R070129
##MEASURED CHEMISTRY=(Fe^2+^_2.15_Mg_0.60_Mn_0.11_Fe^3+^_0.06_Ca_0.08_)_Σ=3_Al_2.00_((Si_0.98_Al_0.02_)_Σ=1_O_4_)_3_
##PIN_ID=L01134
##ORIENTATION=Laser parallel to b* (0 1 0). Fiducial mark perpendicular to laser is parallel to a [1 0 0]
137.6830, 0.0000000E+00
138.9210, 55.51453
140.1580, 92.45178
141.3950, 38.17090
142.6330, 3.005005
143.8690, 51.44116
145.1060, 34.35950
146.3430, 93.29724
147.5790, 121.2418
148.8150, 95.16785
150.0510, 185.9130
151.2870, 197.1335
152.5220, 203.6367
153.7580, 212.2015
154.9930, 293.8628
156.2280, 384.6411
157.4620, 486.5479
158.6970, 591.5895
159.9310, 702.7699
161.1660, 884.8792
162.4000, 1077.939
163.6330, 1220.449
164.8670, 1469.930
166.1000, 1693.212
167.3340, 1655.593
168.5670, 1570.137
169.8000, 1505.835
171.0320, 1372.677
172.2650, 1045.656
173.4970, 788.7632
174.7290, 618.9929
175.9610, 466.3379
177.1930, 350.7885
178.4240, 240.2186
179.6550, 132.0027
180.8870, 91.76709
182.1170, 36.63135
183.3480, 14.58911
184.5790, 48.36523
185.8090, 1.236938
187.0390, 13.96887
188.2690, 22.24707
189.4990, 23.40613
190.7290, 5.006470
191.9580, 4.518433
193.1870, 12.98279
194.4160, 8.389160
195.6450, 12.29651
196.8740, 66.96399
198.1020, 70.71960
199.3310, 125.5259
200.5590, 155.3809
201.7870, 141.2831
203.0140, 165.2316
204.2420, 198.2246
205.4690, 260.2611
206.6960, 233.3400
207.9230, 202.4604
209.1500, 265.6215
210.3760, 307.8224
211.6030, 289.0728
212.8290, 325.3290
214.0550, 375.5867
215.2810, 270.8573
216.5060, 313.1617
217.7320, 289.5452
218.9570, 258.0098
220.1820, 283.5859
221.4070, 295.2212
222.6320, 278.8981
223.8560, 327.6328
225.0800, 291.3815
226.3040, 339.1438
227.5280, 301.9204
228.7520, 379.7075
229.9760, 369.5063
231.1990, 337.3176
232.4220, 352.1417
233.6450, 442.9795
234.8680, 346.8193
236.0910, 445.6616
237.3130, 429.5149
238.5350, 380.3788
239.7570, 360.2532
240.9790, 474.1426
242.2010, 427.0481
243.4220, 406.9701
244.6430, 415.9082
245.8640, 385.8628
247.0850, 403.8336
248.3060, 450.8209
249.5270, 444.8245
250.7470, 459.8441
251.9670, 460.8799
253.1870, 390.9316
254.4070, 448.9995
255.6260, 462.0830
256.8460, 460.1821
258.0650, 529.2970
259.2840, 496.2219
260.5030, 555.5720
261.7220, 470.7323
262.9400, 420.9076
264.1580, 418.0975
265.3760, 435.3022
266.5940, 470.5215
267.8120, 515.7551
269.0290, 487.0037
270.2470, 499.2667
271.4640, 453.5447
272.6810, 503.8376
273.8980, 574.1462
275.1140, 555.4712
276.3310, 562.8125
277.5470, 651.1702
278.7630, 606.7006
279.9790, 654.9363
281.1940, 583.3447
282.4100, 643.7708
283.6250, 642.0571
284.8400, 679.7141
286.0550, 763.3008
287.2700, 754.7947
288.4850, 784.3647
289.6990, 779.6169
290.9130, 816.3108
292.1270, 845.7937
293.3410, 908.4609
294.5540, 912.2947
295.7680, 950.4341
296.9810, 995.8582
298.1940, 1017.617
299.4070, 1036.748
300.6200, 1094.796
301.8320, 1150.242
303.0450, 1203.291
304.2570, 1181.213
305.4690, 1303.393
306.6800, 1351.267
307.8920, 1460.719
309.1030, 1581.525
310.3150, 1727.661
311.5260, 1867.947
312.7360, 2029.544
313.9470, 2204.678
315.1580, 2392.898
316.3680, 2612.140
317.5780, 2846.404
318.7880, 3115.422
319.9980, 3448.994
321.2070, 3722.319
322.4170, 4126.664
323.6260, 4492.025
324.8350, 5016.406
326.0430, 5315.806
327.2520, 5782.221
328.4610, 6311.653
329.6690, 6541.104
330.8770, 6966.807
332.0850, 7503.266
333.2920, 7826.762
334.5000, 8640.271
335.7070, 9364.188
336.9140, 10445.72
338.1210, 11857.21
339.3280, 13020.52
340.5350, 14413.97
341.7410, 15969.56
342.9470, 17184.16
344.1540, 18392.79
345.3590, 18732.41
346.5650, 18466.05
347.7710, 17525.71
348.9760, 16037.37
350.1810, 14591.05
351.3860, 12723.74
352.5910, 11040.44
353.7950, 9362.145
355.0000, 8243.862
356.2040, 7301.593
357.4080, 6673.333
358.6120, 6433.083
359.8150, 6091.842
361.0190, 6233.613
362.2220, 6157.392
363.4250, 6308.180
364.6280, 6569.977
365.8310, 7118.783
367.0340, 7479.596
368.2360, 7695.420
369.4380, 7866.248
370.6400, 8078.085
371.8420, 7970.930
373.0440, 7510.781
374.2450, 6959.640
375.4470, 6356.505
376.6480, 5728.379
377.8490, 4925.259
379.0490, 4259.146
380.2500, 3674.041
381.4500, 3020.941
382.6510, 2572.850
383.8510, 2241.765
385.0500, 1957.686
386.2500, 1630.615
387.4500, 1406.551
388.6490, 1143.493
389.8480, 1047.442
391.0470, 948.3977
392.2460, 769.3621
393.4440, 634.3329
394.6430, 634.3186
395.8410, 514.3152
397.0390, 524.3185
398.2370, 435.3348
399.4340, 389.3579
400.6320, 326.3986
401.8290, 337.4473
403.0260, 323.5159
404.2230, 269.6088
405.4200, 262.7283
406.6170, 239.8772
407.8130, 177.0447
409.0090, 187.2396
410.2050, 176.4493
411.4010, 139.6709
412.5970, 167.9045
413.7920, 157.1575
414.9880, 98.42200
416.1830, 87.70703
417.3780, 85.00952
418.5730, 47.33801
419.7670, 55.68359
420.9620, 6.040161
422.1560, 59.42334
423.3500, 72.81592
424.5440, 30.23425
425.7380, 4.317993
426.9310, 12.86816
428.1240, 33.57764
429.3180, 2.033813
430.5110, 14.50256
431.7030, 5.978516
432.8960, 0.5247800
434.0890, 8.978271
435.2810, 13.50977
436.4730, 15.99939
437.6650, 12.50916
438.8570, 40.96582
440.0480, 61.45459
441.2390, 15.96790
442.4310, 53.48450
443.6220, 53.02368
444.8120, 58.58606
446.0030, 13.82483
447.1940, 48.76099
448.3840, 2.630737
449.5740, 10.97595
450.7640, 39.58716
451.9540, 9.216553
453.1430, 28.15051
454.3330, 18.51990
455.5220, 24.89197
456.7110, 4.733521
457.9000, 46.63757
459.0890, 19.01782
460.2770, 51.39978
461.4650, 74.78516
462.6540, 29.17200
463.8420, 50.55981
465.0290, 73.94897
466.2170, 45.33911
467.4050, 74.72974
468.5920, 69.12085
469.7790, 119.5126
470.9660, 169.9044
472.1530, 178.2963
473.3390, 199.6882
474.5250, 170.0876
475.7120, 249.4871
476.8980, 276.8866
478.0840, 286.2854
479.2690, 247.6865
480.4550, 227.0867
481.6400, 230.2622
482.8250, 227.8860
484.0100, 221.2849
485.1950, 224.6827
486.3800, 251.0488
487.5640, 276.6113
488.7480, 326.8661
489.9320, 380.2568
491.1160, 441.6456
492.3000, 545.0325
493.4840, 596.4167
494.6670, 685.7988
495.8500, 789.1782
497.0330, 947.5552
498.2160, 978.9294
499.3990, 1063.301
500.5810, 973.6707
501.7630, 956.0369
502.9460, 898.3995
504.1280, 774.7596
505.3090, 661.1165
506.4910, 568.4695
507.6720, 522.8225
508.8540, 419.1738
510.0350, 418.5238
511.2160, 383.8696
512.3960, 342.2119
513.5770, 406.5498
514.7570, 398.8832
515.9380, 364.2122
517.1180, 385.5369
518.2970, 415.8566
519.4770, 396.1716
520.6570, 417.4825
521.8360, 480.7882
523.0150, 502.1050
524.1940, 509.4006
525.3730, 525.7769
526.5510, 464.0715
527.7300, 534.3978
528.9080, 559.8342
530.0860, 555.1688
531.2640, 645.4890
532.4420, 576.8528
533.6200, 620.6450
534.7970, 714.0529
535.9740, 745.2783
537.1510, 793.6027
538.3280, 899.9958
539.5050, 995.9144
540.6810, 1143.370
541.8580, 1273.354
543.0340, 1507.149
544.2100, 1722.709
545.3860, 2111.342
546.5610, 2414.486
547.7370, 2871.407
548.9120, 3257.692
550.0870, 3740.124
551.2620, 4411.560
552.4370, 4896.323
553.6120, 5276.168
554.7860, 5525.726
555.9600, 5629.422
557.1340, 5412.339
558.3080, 5024.525
559.4820, 4484.746
560.6560, 3848.860
561.8290, 3345.558
563.0020, 2843.990
564.1750, 2347.312
565.3480, 1971.620
566.5210, 1654.779
567.6930, 1390.730
568.8660, 1190.302
570.0380, 1154.062
571.2100, 937.4089
572.3820, 874.4283
573.5530, 815.5547
574.7250, 703.3372
575.8960, 673.8010
577.0670, 691.0493
578.2380, 652.2988
579.4090, 674.6980
580.5800, 674.6012
581.7500, 697.2672
582.9210, 658.3975
584.0910, 658.2526
585.2610, 644.0859
586.4300, 568.4160
587.6000, 630.1562
588.7690, 631.0355
589.9390, 600.7256
591.1080, 677.7180
592.2770, 659.1108
593.4450, 810.2139
594.6140, 733.9055
595.7820, 858.5842
596.9500, 858.2202
598.1190, 861.3562
599.2860, 886.4377
600.4540, 818.0225
601.6220, 715.8838
602.7890, 680.4399
603.9560, 588.9816
605.1230, 546.5410
606.2900, 407.0536
607.4570, 352.5515
608.6230, 297.0350
609.7890, 290.5039
610.9560, 304.9581
612.1220, 193.3976
613.2870, 190.8221
614.4530, 253.2322
615.6180, 181.6273
616.7840, 256.0896
617.9490, 162.4551
619.1140, 152.8055
620.2790, 215.1411
621.4430, 227.4617
622.6080, 209.7673
623.7720, 251.0580
624.9360, 273.3336
626.1000, 311.5942
627.2640, 366.8397
628.4270, 345.0703
629.5910, 461.2856
630.7540, 412.5013
631.9170, 465.6865
633.0800, 470.8567
634.2430, 476.0118
635.4050, 388.1520
636.5680, 479.2769
637.7300, 323.4329
638.8920, 335.5972
640.0540, 247.6951
641.2150, 244.7595
642.3770, 246.8088
643.5380, 245.9462
644.7000, 214.9655
645.8610, 231.9694
647.0210, 157.6550
648.1820, 188.0768
649.3430, 186.5322
650.5030, 135.4757
651.6630, 154.4254
652.8230, 126.3385
653.9830, 113.2365
655.1430, 137.1191
656.3020, 104.9868
657.4620, 111.8394
658.6210, 124.6768
659.7800, 120.5742
660.9390, 123.3817
662.0970, 91.17395
663.2560, 115.9510
664.4140, 73.71313
665.5720, 91.45947
666.7300, 82.19067
667.8880, 59.90649
669.0460, 76.60608
670.2030, 78.29004
671.3600, 65.95862
672.5180, 34.61145
673.6740, 57.24438
674.8310, 0.1390380
675.9880, 16.44470
677.1440, 55.00366
678.3010, 3.546265
679.4570, 47.05872
680.6130, 14.44568
681.7690, 28.01074
682.9240, 24.55310
684.0800, 42.16089
685.2350, 50.82190
686.3900, 63.76123
687.5450, 22.32263
688.7000, 57.14661
689.8540, 10.03064
691.0090, 5.0659001E-02
692.1630, 1.897095
693.3170, 29.87476
694.4710, 0.8967290
695.6250, 36.94714
696.7780, 26.04480
697.9320, 59.18359
699.0850, 26.38062
700.2380, 4.617920
701.3910, 64.88379
702.5440, 0.2095950
703.6970, 64.56067
704.8490, 78.97070
706.0010, 28.55371
707.1530, 25.06506
708.3050, 4.565063
709.4570, 5.955566
710.6090, 37.49878
711.7600, 36.05957
712.9110, 61.34180
714.0620, 4.732544
715.2130, 26.10547
716.3640, 11.46948
717.5150, 29.17627
718.6650, 6.143921
719.8150, 4.459229
720.9650, 6.774902
722.1150, 15.08167
723.2650, 15.39050
724.4150, 46.70166
725.5640, 57.01831
726.7130, 41.32544
727.8630, 23.63586
729.0110, 25.93750
730.1600, 20.23328
731.3090, 6.530151
732.4570, 22.82080
733.6060, 21.10242
734.7540, 26.37524
735.9020, 24.63977
737.0490, 24.10120
738.1970, 58.13550
739.3440, 5.635376
740.4920, 26.58203
741.6390, 60.79224
742.7860, 9.994995
743.9320, 39.19031
745.0790, 54.37866
746.2250, 64.55994
747.3720, 66.32776
748.5180, 56.90271
749.6640, 61.06433
750.8100, 12.21960
751.9550, 22.36877
753.1010, 17.51196
754.2460, 3.350830
755.3910, 58.77930
756.5360, 89.90405
757.6810, 55.02307
758.8250, 38.13672
759.9700, 35.24536
761.1140, 83.34888
762.2580, 69.44739
763.4020, 54.54114
764.5460, 34.63037
765.6900, 40.71509
766.8330, 26.79541
767.9760, 0.1285400
769.1200, 12.94299
770.2620, 31.01086
771.4050, 62.07471
772.5480, 23.13513
773.6900, 22.19189
774.8330, 3.754761
775.9750, 5.705322
777.1170, 0.7059330
778.2590, 13.38208
779.4000, 20.42126
780.5420, 8.542236
781.6830, 3.490479
782.8240, 20.52051
783.9650, 33.45142
785.1060, 25.43250
786.2470, 27.42004
787.3870, 18.58545
788.5280, 1.410645
789.6680, 9.591187
790.8080, 40.59180
791.9480, 41.59131
793.0870, 10.58960
794.2270, 58.58704
795.3660, 53.58350
796.5060, 7.420410
797.6450, 24.57422
798.7830, 49.56836
799.9220, 81.54626
801.0610, 108.5402
802.1990, 79.44861
803.3370, 93.43311
804.4750, 133.3810
805.6130, 181.2141
806.7510, 238.1436
807.8890, 242.0830
809.0260, 244.9739
810.1630, 234.4312
811.3000, 270.2683
812.4370, 232.2827
813.5740, 280.1941
814.7110, 254.0320
815.8470, 263.3398
816.9830, 220.1064
818.1190, 302.3386
819.2550, 234.7571
820.3910, 252.4062
821.5270, 200.9773
822.6620, 181.0334
823.7970, 131.3074
824.9330, 182.2148
826.0670, 138.9700
827.2020, 136.7178
828.3370, 177.1343
829.4710, 160.4658
830.6060, 162.0791
831.7400, 162.5532
832.8740, 144.8062
834.0080, 132.7852
835.1410, 115.7268
836.2750, 166.7849
837.4080, 181.2600
838.5410, 215.9993
839.6740, 255.8650
840.8070, 250.7437
841.9400, 252.7722
843.0730, 361.7849
844.2050, 319.7859
845.3370, 413.2253
846.4690, 446.0720
847.6010, 503.2485
848.7330, 555.3276
849.8640, 633.6426
850.9960, 615.3894
852.1270, 647.6113
853.2580, 784.7019
854.3890, 929.5303
855.5200, 997.6030
856.6500, 1101.679
857.7810, 1226.899
858.9110, 1295.272
860.0410, 1384.684
861.1710, 1558.227
862.3010, 1574.792
863.4310, 1710.382
864.5600, 1623.948
865.6900, 1648.558
866.8190, 1636.178
867.9480, 1535.766
869.0770, 1515.448
870.2050, 1568.150
871.3340, 1514.907
872.4620, 1482.682
873.5900, 1544.000
874.7180, 1480.818
875.8460, 1598.358
876.9740, 1671.203
878.1010, 1790.061
879.2290, 1867.903
880.3560, 1981.799
881.4830, 2153.710
882.6100, 2149.634
883.7370, 2379.575
884.8630, 2555.529
885.9900, 2868.498
887.1160, 3089.025
888.2420, 3324.479
889.3680, 3662.491
890.4940, 4004.435
891.6200, 4417.474
892.7450, 4813.530
893.8700, 5253.598
894.9960, 5886.681
896.1210, 6458.780
897.2460, 7236.893
898.3700, 8000.019
899.4950, 8926.161
900.6190, 10282.32
901.7430, 11484.49
902.8670, 13384.67
903.9910, 15498.86
905.1150, 18227.08
906.2390, 21633.30
907.3620, 25431.55
908.4850, 30128.81
909.6080, 35780.09
910.7310, 41362.33
911.8540, 47598.57
912.9770, 53230.87
914.0990, 57923.20
915.2210, 61577.55
916.3440, 62351.82
917.4660, 61309.19
918.5870, 58436.59
919.7090, 53351.30
920.8310, 47062.29
921.9520, 40542.23
923.0730, 34453.69
924.1940, 28983.14
925.3150, 24247.63
926.4360, 20203.13
927.5560, 17238.66
928.6770, 14527.19
929.7970, 12339.74
930.9170, 10850.31
932.0370, 9351.816
933.1570, 8168.417
934.2760, 7115.031
935.3960, 6129.662
936.5150, 5593.309
937.6340, 4823.971
938.7530, 4378.650
939.8720, 3769.343
940.9910, 3390.055
942.1090, 3010.782
943.2280, 2735.526
944.3460, 2401.287
945.4640, 2260.065
946.5820, 2011.860
947.6990, 1795.680
948.8170, 1742.521
949.9340, 1546.379
951.0520, 1427.260
952.1690, 1331.159
953.2860, 1228.085
954.4030, 1238.031
955.5190, 1094.007
956.6360, 1125.018
957.7520, 1077.066
958.8680, 956.1558
959.9840, 922.2744
961.1000, 952.4316
962.2160, 850.6147
963.3310, 847.8213
964.4470, 829.0513
965.5620, 774.7913
966.6770, 802.3367
967.7920, 788.6873
968.9060, 758.0322
970.0210, 784.4724
971.1360, 805.0308
972.2500, 762.4834
973.3640, 736.4375
974.4780, 826.4370
975.5920, 850.6968
976.7050, 787.0986
977.8190, 787.7429
978.9320, 729.8855
980.0450, 758.8269
981.1580, 729.5276
982.2710, 744.0337
983.3840, 659.8564
984.4970, 614.6396
985.6090, 595.4414
986.7210, 612.5640
987.8330, 586.4990
988.9450, 570.1150
990.0570, 545.4331
991.1690, 484.6318
992.2800, 488.8555
993.3920, 466.2112
994.5030, 477.1443
995.6140, 443.3442
996.7250, 457.9238
997.8350, 498.5166
998.9460, 447.0383
1000.056, 504.1426
1001.167, 529.5569
1002.277, 462.7922
1003.387, 454.6648
1004.496, 476.4272
1005.606, 546.6948
1006.715, 544.1960
1007.825, 577.9089
1008.934, 568.8628
1010.043, 533.9551
1011.152, 500.9260
1012.260, 528.6560
1013.369, 593.1538
1014.477, 591.3101
1015.586, 672.3103
1016.694, 720.7368
1017.802, 686.7505
1018.909, 698.7705
1020.017, 758.0244
1021.124, 810.0896
1022.232, 844.1287
1023.339, 827.1743
1024.446, 859.2263
1025.553, 942.2844
1026.659, 958.3479
1027.766, 1042.417
1028.872, 1063.493
1029.979, 1054.573
1031.085, 1233.658
1032.191, 1251.749
1033.296, 1414.845
1034.402, 1380.946
1035.507, 1406.051
1036.613, 1559.162
1037.718, 1655.277
1038.823, 1596.396
1039.928, 1676.520
1041.032, 1705.648
1042.137, 1681.781
1043.241, 1500.919
1044.346, 1450.064
1045.450, 1373.213
1046.554, 1276.366
1047.657, 1194.522
1048.761, 1066.682
1049.864, 950.8462
1050.968, 828.0129
1052.071, 717.1836
1053.174, 624.0925
1054.277, 548.5430
1055.379, 461.7302
1056.482, 380.9209
1057.584, 326.1140
1058.687, 378.3110
1059.789, 287.5154
1060.891, 279.7214
1061.992, 289.9294
1063.094, 254.1399
1064.196, 220.3645
1065.297, 135.5989
1066.398, 140.0537
1067.499, 190.0762
1068.600, 136.3186
1069.701, 162.5625
1070.801, 193.8069
1071.902, 66.05225
1073.002, 88.30762
1074.102, 71.56348
1075.202, 90.82007
1076.302, 68.07642
1077.402, 79.33276
1078.501, 61.58862
1079.600, 76.84473
1080.700, 90.10010
1081.799, 43.35547
1082.898, 99.61377
1083.996, 46.87183
1085.095, 25.12915
1086.193, 30.55273
1087.292, 52.63867
1088.390, 7.890869
1089.488, 24.14087
1090.586, 18.38867
1091.683, 39.66089
1092.781, 11.90430
1093.878, 13.14502
1094.975, 4.979736
1096.073, 34.66602
1097.169, 11.09863
1098.266, 5.872314
1099.363, 1.349121
1100.459, 44.56860
1101.556, 50.21387
1102.652, 19.01733
1103.748, 9.163574
1104.844, 70.66064
1105.940, 6.529297
1107.035, 9.408691
1108.131, 10.30176
1109.226, 13.20459
1110.321, 36.12427
1111.416, 7.2754003E-02
1112.511, 11.96851
1113.605, 38.99756
1114.700, 26.99536
1115.794, 9.980225
1116.889, 10.94800
1117.983, 29.09204
1119.077, 41.16113
1120.170, 50.98511
1121.264, 61.33008
1122.357, 58.60547
1123.451, 45.84497
1124.544, 24.12476
1125.637, 18.56641
1126.730, 23.75171
1127.823, 29.10010
1128.915, 60.48096
1130.008, 42.74585
1131.100, 35.45044
1132.192, 7.886230
1133.284, 4.413818
1134.376, 13.96313
1135.467, 27.53955
1136.559, 3.150635
1137.650, 11.21606
1138.742, 7.568115
1139.833, 76.90283
1140.924, 30.22803
1142.014, 65.54224
1143.105, 17.84644
1144.195, 7.863281
1145.286, 30.40015
1146.376, 90.65161
1147.466, 20.89307
1148.556, 69.12012
1149.646, 75.33667
1150.735, 30.54321
1151.825, 61.73682
1152.914, 72.91943
1154.003, 123.0918
1155.092, 73.25342
1156.181, 120.4045
1157.270, 108.5447
1158.358, 142.6738
1159.447, 179.7920
1160.535, 143.8994
1161.623, 144.9956
1162.711, 229.0808
1163.799, 179.1545
1164.886, 236.2173
1165.974, 194.2686
1167.061, 298.3081
1168.148, 231.3364
1169.235, 252.3533
1170.322, 231.4006
1171.409, 283.4160
1172.496, 294.3979
1173.582, 308.0447
1174.669, 307.1978
1175.755, 284.2869
1176.841, 288.2371
1177.927, 189.1431
1179.012, 264.0530
1180.098, 250.0442
1181.183, 220.9294
1182.269, 291.8987
1183.354, 242.9199
1184.439, 256.8372
1185.524, 307.6729
1186.608, 265.6646
1187.693, 227.4751
1188.777, 293.7131
1189.862, 289.6233
1190.946, 217.3953
1192.030, 280.2197
1193.113, 323.1436
1194.197, 242.8271
1195.281, 270.4412
1196.364, 307.2141
1197.447, 239.8298
1198.530, 257.6292
1199.613, 215.4036
1200.696, 229.0547
1201.779, 226.8457
1202.861, 247.7100
1203.944, 225.3560
1205.026, 270.1611
1206.108, 241.7429
1207.190, 208.3108
1208.271, 154.8643
1209.353, 218.5566
1210.435, 170.1697
1211.516, 188.8325
1212.597, 247.1851
1213.678, 180.9109
1214.759, 207.4871
1215.840, 218.9958
1216.920, 204.4338
1218.001, 185.8577
1219.081, 163.3269
1220.161, 165.4075
1221.241, 113.1921
1222.321, 156.7886
1223.401, 150.1814
1224.480, 119.5701
1225.560, 113.9331
1226.639, 162.3079
1227.718, 211.2327
1228.797, 186.8723
1229.876, 194.7742
1230.955, 128.6221
1232.033, 154.3303
1233.112, 213.5896
1234.190, 164.8228
1235.268, 119.6211
1236.346, 135.4360
1237.424, 215.8640
1238.501, 192.3267
1239.579, 188.3975
1240.656, 192.0132
1241.733, 142.9529
1242.811, 211.9783
1243.888, 163.3057
1244.964, 159.2224
1246.041, 180.2769
1247.117, 166.2837
1248.194, 178.9023
1249.270, 179.4602
1250.346, 174.9871
1251.422, 186.4690
1252.498, 187.0488
1253.573, 202.3562
1254.649, 243.9790
1255.724, 208.7993
1256.800, 214.3516
1257.875, 256.5222
1258.950, 200.6782
1260.024, 252.3394
1261.099, 234.4036
1262.173, 228.7861
1263.248, 273.2935
1264.322, 193.1614
1265.396, 198.1379
1266.470, 230.6064
1267.544, 171.8704
1268.617, 151.8967
1269.691, 196.6794
1270.764, 184.3235
1271.837, 204.0859
1272.910, 212.4026
1273.983, 194.3176
1275.056, 143.8865
1276.129, 175.6091
1277.201, 209.9019
1278.273, 98.60449
1279.346, 162.2976
1280.418, 141.7539
1281.489, 214.3955
1282.561, 191.0598
1283.633, 181.7146
1284.704, 145.3596
1285.776, 116.9954
1286.847, 141.6221
1287.918, 116.2393
1288.989, 119.2441
1290.059, 151.4460
1291.130, 126.0354
1292.200, 127.6160
1293.271, 148.1873
1294.341, 73.75000
1295.411, 188.3035
1296.481, 94.84863
1297.551, 118.3853
1298.620, 50.91284
1299.690, 55.43188
1300.759, 116.9419
1301.828, 4.443848
1302.897, 21.93091
1303.966, 27.40845
1305.035, 78.87622
