##NAMES=Almandine
##RRUFFID=R050029
##IDEAL CHEMISTRY=Fe^2+^_3_Al_2_(SiO_4_)_3_
##LOCALITY=Barton Garnet mine, Gore Mountain, Warren County, New York, USA
##OWNER=RRUFF
##SOURCE=University of Arizona Mineral Museum
##DESCRIPTION=Reddish brown fragments
##STATUS=The identification of this mineral has been confirmed by X-ray diffraction and chemical analysis
##URL=rruff.info/R050029
##MEASURED CHEMISTRY=(Fe^2+^_1.34_Mg_1.26_Ca_0.37_Mn_0.03_)_Î£=3_Al_2.00_(Si_1.00_O_4_)_3_
##PIN_ID=L00523
##ORIENTATION=Laser parallel to a* (1 0 0). Fiducial mark perpendicular to laser is parallel to b [0 1 0]
87.858, 0.000
89.254, 26.969
90.650, 0.799
92.046, 70.240
93.442, 68.115
94.838, 51.773
96.233, 86.682
97.628, 41.119
99.023, 41.203
100.418, 65.019
101.812, 18.697
103.206, 28.578
104.600, 51.965
105.994, 102.240
107.387, 122.010
108.781, 117.571
110.174, 163.145
111.566, 226.231
112.959, 340.291
114.351, 294.375
115.744, 284.982
117.136, 231.063
118.527, 115.936
119.919, 43.681
121.310, 92.594
122.701, 90.382
124.092, 108.476
125.482, 89.617
126.873, 34.816
128.263, 89.760
129.653, 139.645
131.042, 228.221
132.432, 177.630
133.821, 153.512
135.210, 237.615
136.599, 317.730
137.987, 307.186
139.376, 356.444
140.764, 360.218
142.152, 344.016
143.539, 351.205
144.927, 334.956
146.314, 308.514
147.701, 312.635
149.088, 277.730
150.474, 269.794
151.861, 238.819
153.247, 274.802
154.633, 214.739
156.018, 237.631
157.404, 201.610
158.789, 184.009
160.174, 184.940
161.559, 123.703
162.943, 87.672
164.327, 79.721
165.711, 28.544
167.095, 17.185
168.479, 5.172
169.862, 34.337
171.246, 60.040
172.628, 48.420
174.011, 5.243
175.394, 42.141
176.776, 64.301
178.158, 39.738
179.540, 87.978
180.922, 8.921
182.303, 2.299
183.684, 0.375
185.065, 36.224
186.446, 19.674
187.826, 5.886
189.207, 57.200
190.587, 52.353
191.967, 89.471
193.346, 83.478
194.726, 149.461
196.105, 169.422
197.484, 178.357
198.862, 266.262
200.241, 305.136
201.619, 359.978
202.997, 435.789
204.375, 471.566
205.753, 504.310
207.130, 519.016
208.507, 528.678
209.884, 599.285
211.261, 569.792
212.638, 579.163
214.014, 559.395
215.390, 541.568
216.766, 484.695
218.141, 444.761
219.517, 401.761
220.892, 366.702
222.267, 313.593
223.642, 279.448
225.016, 256.694
226.391, 231.388
227.765, 217.880
229.139, 207.657
230.512, 182.420
231.886, 177.168
233.259, 191.901
234.632, 173.553
236.005, 170.326
237.377, 161.018
238.749, 158.697
240.122, 151.362
241.493, 172.014
242.865, 150.649
244.237, 139.269
245.608, 119.872
246.979, 135.458
248.350, 140.267
249.720, 175.156
251.090, 110.232
252.461, 102.464
253.830, 122.572
255.200, 151.558
256.570, 165.377
257.939, 137.326
259.308, 121.125
260.677, 121.796
262.045, 118.617
263.414, 125.592
264.782, 153.691
266.150, 133.390
267.517, 124.263
268.885, 151.321
270.252, 138.227
271.619, 176.093
272.986, 158.581
274.353, 134.445
275.719, 150.984
277.085, 154.386
278.451, 177.619
279.817, 185.211
281.182, 183.564
282.548, 219.909
283.913, 213.092
285.278, 189.449
286.642, 250.236
288.007, 243.530
289.371, 269.999
290.735, 241.279
292.099, 241.684
293.462, 246.246
294.826, 237.775
296.189, 293.436
297.552, 285.667
298.914, 320.708
300.277, 325.998
301.639, 336.272
303.001, 374.335
304.363, 367.337
305.724, 423.239
307.086, 459.002
308.447, 568.724
309.808, 601.434
311.168, 659.130
312.529, 734.812
313.889, 806.455
315.249, 837.056
316.609, 873.519
317.969, 924.124
319.328, 932.468
320.687, 923.900
322.046, 907.172
323.405, 897.359
324.764, 966.537
326.122, 970.386
327.480, 1027.925
328.838, 1125.374
330.196, 1207.018
331.553, 1380.540
332.910, 1487.828
334.267, 1658.298
335.624, 1766.166
336.981, 2004.774
338.337, 2230.103
339.693, 2510.000
341.049, 2747.198
342.405, 3227.042
343.760, 3611.457
345.116, 4239.567
346.471, 4797.390
347.826, 5696.102
349.180, 6470.852
350.535, 7556.267
351.889, 8381.593
353.243, 9193.620
354.597, 9795.577
355.950, 9657.903
357.304, 9420.168
358.657, 8692.843
360.010, 7737.592
361.362, 6762.366
362.715, 5855.458
364.067, 5180.538
365.419, 4504.606
366.771, 3966.664
368.123, 3577.709
369.474, 3194.753
370.825, 2876.790
372.176, 2629.828
373.527, 2429.864
374.877, 2164.890
376.228, 2102.914
377.578, 1859.934
378.928, 1635.952
380.277, 1585.964
381.627, 1370.979
382.976, 1258.991
384.325, 1100.006
385.674, 977.026
387.023, 875.026
388.371, 751.054
389.719, 687.006
391.067, 618.906
392.415, 540.766
393.762, 487.517
395.110, 388.248
396.457, 372.035
397.804, 348.753
399.150, 268.455
400.497, 278.114
401.843, 242.760
403.189, 213.373
404.535, 164.069
405.881, 135.671
407.226, 151.221
408.571, 123.685
409.916, 121.212
411.261, 102.752
412.605, 87.429
413.950, 91.828
415.294, 64.194
416.638, 50.611
417.981, 47.115
419.325, 19.644
420.668, 24.021
422.011, 24.311
423.354, 2.428
424.697, 9.217
426.039, 13.547
427.381, 24.732
428.723, 15.831
430.065, 0.085
431.406, 8.606
432.748, 10.454
434.089, 14.566
435.430, 4.837
436.770, 35.094
438.111, 7.865
439.451, 16.811
440.791, 8.172
442.131, 22.156
443.471, 6.191
444.810, 24.104
446.149, 2.910
447.488, 22.198
448.827, 27.906
450.166, 5.965
451.504, 7.026
452.842, 46.027
454.180, 55.012
455.518, 31.997
456.855, 24.928
458.193, 56.885
459.530, 61.824
460.867, 56.745
462.203, 81.206
463.540, 111.530
464.876, 114.396
466.212, 129.245
467.548, 156.077
468.883, 172.895
470.219, 209.697
471.554, 241.483
472.889, 247.255
474.224, 312.011
475.558, 347.752
476.892, 409.478
478.227, 506.189
479.561, 544.885
480.894, 641.567
482.228, 728.234
483.561, 797.887
484.894, 749.526
486.227, 696.152
487.559, 636.765
488.892, 593.367
490.224, 535.958
491.556, 523.541
492.888, 512.125
494.220, 539.708
495.551, 596.296
496.882, 772.897
498.213, 888.507
499.544, 1115.114
500.874, 1420.712
502.205, 1704.300
503.535, 2019.879
504.865, 2164.466
506.194, 2123.027
507.524, 1965.583
508.853, 1630.270
510.182, 1379.812
511.511, 1164.616
512.840, 1004.364
514.168, 861.974
515.496, 753.806
516.824, 714.524
518.152, 605.274
519.480, 660.080
520.807, 613.774
522.134, 609.495
523.461, 638.285
524.788, 608.092
526.114, 578.257
527.441, 641.996
528.767, 593.328
530.093, 626.784
531.418, 603.884
532.744, 638.488
534.069, 661.607
535.394, 691.110
536.719, 750.665
538.044, 802.639
539.368, 896.262
540.693, 951.705
542.017, 1068.976
543.340, 1177.208
544.664, 1336.152
545.987, 1501.112
547.311, 1681.155
548.634, 1968.354
549.956, 2324.144
551.279, 2662.461
552.601, 3227.490
553.923, 3775.807
555.245, 4429.288
556.567, 4888.675
557.889, 5242.963
559.210, 5307.661
560.531, 4901.833
561.852, 4369.857
563.173, 3629.607
564.493, 3008.338
565.813, 2468.055
567.133, 1956.630
568.453, 1647.511
569.773, 1362.175
571.092, 1126.914
572.412, 1005.529
573.731, 863.779
575.049, 782.468
576.368, 675.899
577.686, 614.286
579.005, 598.525
580.323, 541.960
581.640, 590.617
582.958, 530.442
584.275, 564.819
585.593, 599.150
586.909, 564.821
588.226, 581.940
589.543, 530.515
590.859, 462.463
592.175, 464.375
593.491, 399.837
594.807, 391.465
596.122, 359.188
597.438, 343.049
598.753, 352.112
600.068, 307.419
601.382, 282.993
602.697, 266.383
604.011, 289.677
605.325, 331.268
606.639, 268.651
607.952, 324.399
609.266, 274.968
610.579, 274.542
611.892, 285.397
613.205, 260.218
614.518, 223.929
615.830, 217.614
617.142, 250.400
618.454, 239.192
619.766, 191.949
621.078, 238.794
622.389, 232.751
623.700, 244.706
625.011, 289.710
626.322, 284.811
627.632, 366.921
628.943, 379.014
630.253, 473.092
631.563, 595.154
632.872, 652.200
634.182, 827.231
635.491, 944.247
636.800, 1054.247
638.109, 1181.232
639.418, 1199.201
640.726, 1129.155
642.035, 975.094
643.343, 864.017
644.651, 757.926
645.958, 694.819
647.266, 569.698
648.573, 485.561
649.880, 463.410
651.187, 408.243
652.494, 320.061
653.800, 320.865
655.106, 282.653
656.412, 239.426
657.718, 201.184
659.024, 196.928
660.329, 170.656
661.634, 117.369
662.939, 154.068
664.244, 137.751
665.549, 87.420
666.853, 137.073
668.157, 53.712
669.461, 65.334
670.765, 94.939
672.069, 38.529
673.372, 62.102
674.675, 50.659
675.978, 33.199
677.281, 55.722
678.583, 45.229
679.886, 23.719
681.188, 18.193
682.490, 6.649
683.792, 22.084
685.093, 29.498
686.394, 0.118
687.696, 42.763
688.997, 19.454
690.297, 3.822
691.598, 18.924
692.898, 14.702
694.198, 18.510
695.498, 5.350
696.798, 36.215
698.097, 18.121
699.397, 34.058
700.696, 46.033
701.995, 15.054
703.293, 1.103
704.592, 20.172
705.890, 30.272
707.188, 23.407
708.486, 3.574
709.784, 24.762
711.081, 4.019
712.378, 43.216
713.675, 10.492
714.972, 1.791
716.269, 10.108
717.565, 8.448
718.862, 4.808
720.158, 6.187
721.453, 8.585
722.749, 6.003
724.045, 13.438
725.340, 10.894
726.635, 12.631
727.930, 13.855
729.224, 40.360
730.519, 0.898
731.813, 12.552
733.107, 13.993
734.401, 4.425
735.694, 52.150
736.988, 7.762
738.281, 30.614
739.574, 14.016
740.867, 17.184
742.160, 1.845
743.452, 22.052
744.744, 14.596
746.036, 5.743
747.328, 13.077
748.620, 7.596
749.911, 10.726
751.202, 33.044
752.493, 1.366
753.784, 5.317
755.075, 38.992
756.365, 2.300
757.655, 24.608
758.945, 46.913
760.235, 26.221
761.525, 26.526
762.814, 23.167
764.103, 42.127
765.392, 19.418
766.681, 6.706
767.969, 26.989
769.258, 59.269
770.546, 9.545
771.834, 30.818
773.122, 33.088
774.409, 23.354
775.697, 33.617
776.984, 26.876
778.271, 29.132
779.558, 17.383
780.844, 35.630
782.131, 49.873
783.417, 52.112
784.703, 36.347
785.989, 38.577
787.274, 53.803
788.560, 25.026
789.845, 32.245
791.130, 50.460
792.415, 61.672
793.699, 83.880
794.983, 66.086
796.268, 96.288
797.552, 118.487
798.835, 115.683
800.119, 174.877
801.402, 139.069
802.686, 173.257
803.969, 177.444
805.251, 227.629
806.534, 271.811
807.816, 223.001
809.098, 285.189
810.380, 289.375
811.662, 315.565
812.944, 344.757
814.225, 357.948
815.506, 376.960
816.787, 404.324
818.068, 398.531
819.349, 399.737
820.629, 400.814
821.909, 419.030
823.189, 433.978
824.469, 415.978
825.749, 398.105
827.028, 405.000
828.307, 406.506
829.586, 460.961
830.865, 438.857
832.144, 461.865
833.422, 491.836
834.700, 489.732
835.978, 539.602
837.256, 575.109
838.534, 638.038
839.811, 709.364
841.088, 716.552
842.365, 838.092
843.642, 910.118
844.919, 993.619
846.195, 1179.729
847.472, 1274.127
848.748, 1461.316
850.023, 1594.355
851.299, 1797.493
852.575, 2067.803
853.850, 2335.138
855.125, 2722.762
856.400, 2966.364
857.674, 3181.876
858.949, 3594.221
860.223, 3608.963
861.497, 3651.168
862.771, 3601.649
864.045, 3402.832
865.318, 3230.839
866.591, 2910.929
867.864, 2804.106
869.137, 2609.865
870.410, 2418.136
871.682, 2350.547
872.955, 2241.221
874.227, 2143.846
875.499, 2114.357
876.770, 2051.066
878.042, 2144.347
879.313, 2196.825
880.584, 2153.144
881.855, 2372.512
883.126, 2350.257
884.396, 2545.440
885.667, 2730.816
886.937, 2882.214
888.207, 3164.586
889.476, 3324.793
890.746, 3731.774
892.015, 4017.302
893.284, 4255.010
894.553, 4680.513
895.822, 4981.967
897.090, 5336.525
898.359, 5829.337
899.627, 6327.858
900.895, 7040.425
902.163, 7599.689
903.430, 9062.279
904.698, 10350.982
905.965, 11789.562
907.232, 14238.010
908.499, 16726.766
909.765, 19965.404
911.032, 24004.152
912.298, 27732.939
913.564, 32781.719
914.830, 36740.531
916.095, 39458.375
917.361, 41057.203
918.626, 40386.027
919.891, 37624.832
921.156, 34513.684
922.420, 28982.562
923.685, 25501.416
924.949, 21040.314
926.213, 17839.221
927.477, 15128.140
928.740, 12527.070
930.004, 10996.009
931.267, 9134.964
932.530, 7987.927
933.793, 7053.904
935.056, 6030.892
936.318, 5314.891
937.581, 4724.904
938.843, 4130.927
940.104, 3720.962
941.366, 3264.010
942.628, 2957.069
943.889, 2609.139
945.150, 2398.224
946.411, 2204.320
947.672, 2020.428
948.932, 1873.547
950.193, 1735.680
951.453, 1597.824
952.713, 1508.981
953.973, 1470.151
955.232, 1308.332
956.491, 1285.543
957.751, 1169.749
959.010, 1182.919
960.268, 1124.150
961.527, 1023.394
962.785, 1001.680
964.044, 967.617
965.302, 952.923
966.559, 909.875
967.817, 903.854
969.075, 851.811
970.332, 870.139
971.589, 781.751
972.846, 802.248
974.102, 786.614
975.359, 743.992
976.615, 767.384
977.871, 717.787
979.127, 755.204
980.383, 745.875
981.638, 752.388
982.893, 759.637
984.149, 749.818
985.404, 733.085
986.658, 699.958
987.913, 679.325
989.167, 617.175
990.421, 584.504
991.675, 550.064
992.929, 534.081
994.183, 501.168
995.436, 521.448
996.689, 465.577
997.942, 535.235
999.195, 467.777
1000.448, 487.609
1001.700, 498.063
1002.952, 476.353
1004.204, 443.337
1005.456, 470.796
1006.708, 492.090
1007.959, 522.238
1009.210, 511.076
1010.461, 563.445
1011.712, 541.436
1012.963, 602.334
1014.213, 602.246
1015.464, 658.177
1016.714, 672.121
1017.964, 726.088
1019.214, 717.070
1020.463, 755.065
1021.712, 855.076
1022.962, 806.100
1024.210, 888.138
1025.459, 958.190
1026.708, 911.255
1027.956, 996.335
1029.204, 1044.430
1030.452, 1079.539
1031.700, 1159.659
1032.948, 1164.793
1034.195, 1262.948
1035.442, 1296.115
1036.689, 1359.291
1037.936, 1514.477
1039.183, 1552.674
1040.429, 1783.895
1041.676, 1873.130
1042.922, 1896.373
1044.168, 2045.639
1045.413, 2030.920
1046.659, 2126.210
1047.904, 2196.509
1049.149, 2040.822
1050.394, 2126.145
1051.639, 1962.479
1052.884, 1782.823
1054.128, 1590.188
1055.372, 1438.571
1056.616, 1301.961
1057.860, 1063.377
1059.104, 966.804
1060.347, 818.240
1061.590, 669.686
1062.833, 607.139
1064.076, 556.599
1065.319, 456.067
1066.561, 384.546
1067.803, 345.032
1069.046, 319.525
1070.287, 308.026
1071.529, 266.536
1072.771, 239.054
1074.012, 210.578
1075.253, 172.115
1076.494, 185.657
1077.735, 167.204
1078.975, 149.761
1080.216, 160.324
1081.456, 140.926
1082.696, 137.482
1083.936, 126.069
1085.175, 99.671
1086.415, 97.281
1087.654, 67.899
1088.893, 50.529
1090.132, 77.163
1091.371, 33.803
1092.609, 107.449
1093.847, 40.099
1095.085, 52.775
1096.323, 82.434
1097.561, 12.097
1098.799, 49.766
1100.036, 26.438
1101.273, 22.114
1102.510, 30.795
1103.747, 24.479
1104.983, 0.166
1106.220, 15.858
1107.456, 43.447
1108.692, 11.234
1109.928, 25.917
1111.163, 25.397
1112.399, 17.718
1113.634, 0.043
1114.869, 35.366
1116.104, 16.703
1117.339, 34.045
1118.573, 15.600
1119.808, 26.752
1121.042, 24.116
1122.276, 97.513
1123.509, 78.143
1124.743, 81.776
1125.976, 21.410
1127.210, 33.046
1128.443, 39.316
1129.675, 0.302
1130.908, 47.080
1132.141, 12.486
1133.373, 33.899
1134.605, 19.330
1135.837, 29.769
1137.068, 37.224
1138.300, 11.700
1139.531, 4.816
1140.762, 37.667
1141.993, 5.173
1143.224, 7.685
1144.455, 21.204
1145.685, 9.262
1146.915, 26.272
1148.145, 3.176
1149.375, 39.380
1150.605, 35.963
1151.834, 2.430
1153.063, 37.182
1154.292, 17.820
1155.521, 14.825
1156.750, 32.856
1157.978, 0.816
1159.207, 7.504
1160.435, 26.828
1161.663, 26.141
1162.891, 61.451
1164.118, 28.756
1165.345, 55.059
1166.573, 25.431
1167.800, 94.775
1169.026, 59.078
1170.253, 72.436
1171.480, 104.778
1172.706, 96.208
1173.932, 101.534
1175.158, 152.109
1176.383, 124.436
1177.609, 127.925
1178.834, 110.420
1180.059, 120.729
1181.284, 162.101
1182.509, 135.476
1183.734, 126.759
1184.958, 145.400
1186.182, 106.850
1187.406, 112.456
1188.630, 110.175
1189.854, 132.483
1191.077, 150.891
1192.301, 146.755
1193.524, 141.037
1194.747, 140.661
1195.969, 111.134
1197.192, 125.781
1198.414, 116.430
1199.636, 104.774
1200.858, 164.374
1202.080, 151.434
1203.302, 144.829
1204.523, 176.895
1205.744, 152.880
1206.966, 147.489
1208.186, 147.177
1209.407, 96.526
1210.628, 131.775
1211.848, 118.986
1213.068, 144.269
1214.288, 144.430
1215.508, 72.636
1216.727, 166.941
1217.947, 113.886
1219.166, 141.282
1220.385, 140.429
1221.604, 104.031
1222.822, 125.045
1224.041, 107.027
1225.259, 110.874
1226.477, 127.204
1227.695, 112.608
1228.913, 93.106
1230.130, 133.127
1231.348, 135.127
1232.565, 102.181
1233.782, 127.647
1234.999, 92.194
1236.215, 143.081
1237.432, 157.337
1238.648, 108.706
1239.864, 136.558
1241.080, 90.606
1242.296, 128.502
1243.511, 130.336
1244.726, 116.575
1245.942, 103.452
1247.156, 175.376
1248.371, 100.423
1249.586, 151.160
1250.800, 127.986
1252.014, 133.321
1253.228, 157.094
1254.442, 140.036
1255.656, 166.806
1256.869, 161.573
1258.083, 143.326
1259.296, 161.393
1260.509, 154.101
1261.722, 169.161
1262.934, 182.176
1264.147, 163.235
1265.359, 165.910
1266.571, 192.326
1267.783, 151.965
1268.994, 214.874
1270.206, 190.532
1271.417, 148.192
1272.628, 213.949
1273.839, 163.555
1275.050, 151.022
1276.260, 209.495
1277.471, 156.353
1278.681, 169.240
1279.891, 193.723
1281.101, 146.536
1282.310, 191.441
1283.520, 142.574
1284.729, 154.317
1285.938, 181.082
1287.147, 141.118
1288.356, 182.006
1289.564, 130.723
1290.773, 158.605
1291.981, 164.315
1293.189, 145.722
1294.397, 143.852
1295.604, 156.389
1296.812, 149.063
1298.019, 126.172
1299.226, 103.681
1300.433, 118.462
1301.640, 159.373
1302.846, 146.498
1304.053, 121.073
1305.259, 82.579
1306.465, 105.616
1307.671, 123.637
1308.876, 98.752
1310.082, 121.740
1311.287, 67.741
1312.492, 73.697
1313.697, 82.632
1314.902, 68.615
1316.106, 71.518
1317.310, 49.405
1318.515, 73.355
1319.719, 33.208
1320.922, 71.043
1322.126, 39.857
1323.329, 38.651
1324.533, 71.424
1325.736, 55.178
1326.939, 52.911
1328.141, 73.619
1329.344, 26.304
1330.546, 39.963
1331.748, 27.610
1332.950, 21.227
1334.152, 59.816
1335.354, 14.583
1336.555, 6.044
1337.757, 60.469
1338.958, 56.960
1340.159, 15.424
1341.359, 21.866
1342.560, 21.286
1343.760, 42.686
1344.960, 34.936
1346.160, 10.590
1347.360, 34.726
1348.560, 42.979
1349.759, 7.281
1350.959, 19.518
1352.158, 15.733
1353.357, 33.927
1354.555, 43.102
1355.754, 46.072
1356.952, 36.393
1358.151, 50.603
1359.349, 42.704
1360.546, 31.788
1361.744, 4.855
1362.941, 23.902
1364.139, 43.977
1365.336, 7.006
1366.533, 65.983
1367.730, 70.959
1368.926, 4.922
1370.123, 22.864
1371.319, 5.207
1372.515, 13.708
1373.711, 46.625
1374.906, 15.393
1376.102, 0.452
1377.297, 13.453
1378.492, 8.669
1379.687, 70.165
1380.882, 21.999
1382.077, 15.807
1383.271, 72.592
1384.465, 35.354
1385.659, 58.090
1386.853, 70.823
1388.047, 19.538
1389.240, 56.244
1390.434, 44.950
1391.627, 30.656
1392.820, 88.359
1394.013, 60.044
1395.205, 11.706
1396.398, 68.357
1397.590, 42.015
1398.782, 64.686
1399.974, 63.366
1401.166, 57.066
1402.357, 66.763
1403.549, 65.094
1404.740, 66.635
1405.931, 71.887
1407.122, 67.633
1408.313, 71.399
1409.503, 67.195
1410.693, 44.991
1411.883, 30.768
1413.073, 68.545
1414.263, 66.210
1415.453, 44.879
1416.642, 75.437
1417.831, 48.874
1419.020, 100.054
1420.209, 57.060
1421.398, 67.465
1422.587, 116.855
1423.775, 20.528
1424.963, 37.765
1426.151, 100.715
1427.339, 57.433
1428.526, 25.727
1429.714, 63.604
1430.901, 108.954
1432.088, 66.595
1433.275, 48.601
1434.462, 7.845
1435.648, 88.197
1436.835, 62.633
1438.021, 56.205
1439.207, 89.042
1440.393, 32.056
1441.579, 71.899
1442.764, 34.079
1443.949, 33.319
1445.135, 99.780
1446.320, 50.913
1447.504, 4.131
1448.689, 64.504
1449.873, 47.816
1451.058, 16.569
1452.242, 93.876
1453.426, 33.630
1454.609, 103.258
1455.793, 72.786
1456.976, 22.331
1458.159, 93.013
1459.342, 76.559
1460.525, 16.089
1461.708, 69.597
1462.890, 47.980
1464.073, 45.247
1465.255, 101.302
1466.437, 37.997
1467.619, 60.765
1468.800, 131.276
1469.982, 40.767
1471.163, 99.862
1472.344, 82.294
1473.525, 18.891
1474.706, 119.552
1475.886, 69.080
1477.066, 9.847
1478.247, 83.227
1479.427, 31.682
1480.607, 23.182
1481.786, 89.881
1482.966, 14.890
1484.145, 35.355
1485.324, 51.106
1486.503, 75.657
1487.682, 43.436
1488.860, 64.714
1490.039, 57.351
1491.217, 89.969
1492.395, 30.573
1493.573, 37.247
1494.751, 46.940
1495.928, 54.733
1497.106, 81.342
1498.283, 29.210
1499.460, 3.756
1500.637, 20.322
1501.814, 33.457
1502.990, 18.695
1504.166, 66.043
1505.342, 1.472
1506.518, 13.185
1507.694, 62.377
1508.870, 29.168
1510.045, 32.124
1511.221, 25.735
1512.396, 17.018
1513.571, 59.919
1514.745, 0.000
##END=



