##NAMES=Almandine
##RRUFFID=R060099
##IDEAL CHEMISTRY=Fe^2+^_3_Al_2_(SiO_4_)_3_
##LOCALITY=Alaska, USA
##OWNER=RRUFF
##SOURCE=Roland Boehne
##DESCRIPTION=Red cube shaped single crystal
##STATUS=The identification of this mineral is confirmed by single-crystal X-ray diffraction and chemical analysis.
##URL=rruff.info/R060099
##MEASURED CHEMISTRY=(Fe^2+^_1.63_Mg_0.57_Mn_0.56_Ca_0.24_)_Σ=3_(Al_1.98_Fe^3+^_0.02_)_Σ=2_(Si_1.00_O_4_)_3_
##PIN_ID=M00497
##ORIENTATION=Laser parallel to -a* (-1 0 0). Fiducial mark perpendicular to laser is parallel to c [0 0 1]
93.48000, 0.0000000E+00
94.71400, 52.03906
95.94800, 35.63306
97.18200, 61.21411
98.41600, 72.50464
99.64900, 66.45361
100.8830, 49.14355
102.1160, 5.146729
103.3490, 11.76758
104.5820, 100.0168
105.8150, 149.9998
107.0470, 303.0193
108.2800, 426.9463
109.5120, 440.6758
110.7440, 409.1208
111.9760, 549.2090
113.2080, 666.8760
114.4400, 622.0652
115.6710, 537.7263
116.9030, 408.8167
118.1340, 335.3025
119.3650, 235.0000
120.5960, 157.2720
121.8270, 99.86182
123.0580, 55.67285
124.2880, 92.76270
125.5190, 132.1138
126.7490, 85.71021
127.9790, 62.53711
129.2090, 134.5811
130.4390, 83.82861
131.6680, 186.2627
132.8980, 137.8660
134.1270, 93.62402
135.3560, 107.5269
136.5850, 163.5652
137.8140, 253.7341
139.0430, 242.0320
140.2710, 265.4600
141.5000, 264.0166
142.7280, 205.7007
143.9560, 165.5090
145.1840, 259.4390
146.4120, 189.4861
147.6390, 319.6450
148.8670, 333.9109
150.0940, 466.2776
151.3210, 593.7410
152.5490, 601.2959
153.7750, 699.9390
155.0020, 765.6653
156.2290, 794.4717
157.4550, 923.3550
158.6810, 1048.312
159.9080, 1049.339
161.1340, 1146.435
162.3590, 1245.595
163.5850, 1352.818
164.8110, 1261.102
166.0360, 1343.443
167.2610, 1305.821
168.4860, 1301.185
169.7110, 1241.544
170.9360, 1152.905
172.1610, 1000.267
173.3850, 902.6401
174.6100, 710.0344
175.8340, 582.4490
177.0580, 541.8860
178.2820, 345.3643
179.5050, 322.8792
180.7290, 190.4346
181.9520, 252.0605
183.1760, 221.7666
184.3990, 239.5923
185.6220, 262.4983
186.8450, 244.4741
188.0670, 342.5366
189.2900, 400.7002
190.5120, 434.7617
191.7340, 407.1628
192.9560, 523.4990
194.1780, 556.8813
195.4000, 576.3201
196.6220, 741.8242
197.8430, 860.3594
199.0640, 966.9099
200.2860, 1087.476
201.5070, 1167.066
202.7270, 1322.678
203.9480, 1406.305
205.1690, 1405.947
206.3890, 1526.604
207.6090, 1520.276
208.8290, 1579.963
210.0490, 1646.666
211.2690, 1608.146
212.4890, 1642.115
213.7080, 1525.862
214.9280, 1443.623
216.1470, 1334.398
217.3660, 1167.188
218.5850, 1071.991
219.8030, 945.8081
221.0220, 860.8164
222.2400, 767.4812
223.4590, 713.3374
224.6770, 638.2061
225.8950, 553.0869
227.1120, 464.9797
228.3300, 402.8845
229.5480, 452.8008
230.7650, 328.7285
231.9820, 437.6667
233.1990, 442.6160
234.4160, 349.5754
235.6330, 318.5454
236.8490, 269.5254
238.0660, 184.5149
239.2820, 233.5142
240.4980, 206.4941
241.7140, 184.6587
242.9300, 221.9502
244.1460, 212.3550
245.3610, 256.8057
246.5770, 96.36670
247.7920, 183.0259
249.0070, 151.5999
250.2220, 74.10352
251.4370, 91.00708
252.6510, 92.97974
253.8660, 59.76733
255.0800, 92.25903
256.2940, 59.41162
257.5080, 65.61670
258.7220, 125.8713
259.9360, 112.5110
261.1490, 123.3005
262.3630, 120.9949
263.5760, 120.6177
264.7890, 65.16626
266.0020, 76.36548
267.2150, 61.90479
268.4270, 72.29004
269.6400, 72.93506
270.8520, 68.83838
272.0640, 88.84741
273.2760, 65.51538
274.4880, 184.0667
275.7000, 97.10376
276.9120, 122.0818
278.1230, 102.0332
279.3340, 27.85498
280.5450, 105.0776
281.7560, 48.48706
282.9670, 73.05396
284.1780, 74.70093
285.3880, 82.63013
286.5980, 178.5784
287.8090, 59.54565
289.0190, 149.5703
290.2290, 194.5396
291.4380, 122.9590
292.6480, 163.3311
293.8570, 166.3823
295.0670, 211.4775
296.2760, 235.5615
297.4850, 257.2454
298.6930, 291.7549
299.9020, 342.8767
301.1110, 447.0115
302.3190, 587.1587
303.5270, 632.3174
304.7350, 678.4880
305.9430, 816.6694
307.1510, 1021.060
308.3580, 1079.103
309.5660, 1276.317
310.7730, 1382.540
311.9800, 1462.773
313.1870, 1384.016
314.3940, 1414.268
315.6010, 1299.529
316.8070, 1263.800
318.0130, 1283.080
319.2200, 1281.369
320.4260, 1328.668
321.6310, 1387.619
322.8370, 1365.293
324.0430, 1550.619
325.2480, 1697.953
326.4540, 1801.294
327.6590, 2159.645
328.8640, 2408.002
330.0680, 2698.367
331.2730, 3120.737
332.4780, 3699.114
333.6820, 4440.496
334.8860, 5377.884
336.0900, 6411.276
337.2940, 7619.675
338.4980, 9036.075
339.7010, 10371.48
340.9050, 11697.89
342.1080, 12973.30
343.3110, 13916.72
344.5140, 14375.14
345.7170, 14203.56
346.9200, 13359.98
348.1220, 12282.41
349.3240, 10682.84
350.5270, 9230.274
351.7290, 7606.710
352.9310, 6358.145
354.1320, 5376.584
355.3340, 4463.025
356.5350, 3656.467
357.7370, 3137.911
358.9380, 2720.357
360.1390, 2309.803
361.3400, 2126.253
362.5400, 1884.703
363.7410, 1705.154
364.9410, 1627.606
366.1410, 1473.060
367.3410, 1381.514
368.5410, 1269.969
369.7410, 1172.425
370.9400, 1069.558
372.1400, 913.3379
373.3390, 875.7952
374.5380, 773.2527
375.7370, 703.7104
376.9360, 499.1685
378.1350, 595.6260
379.3330, 406.0840
380.5310, 432.5410
381.7300, 399.9985
382.9280, 188.4556
384.1260, 217.9124
385.3230, 232.3796
386.5210, 228.8550
387.7180, 295.3411
388.9160, 265.2651
390.1130, 153.3335
391.3100, 244.8435
392.5060, 107.3621
393.7030, 100.8892
394.9000, 61.42505
396.0960, 78.96680
397.2920, 2.487061
398.4880, 40.06274
399.6840, 23.62012
400.8800, 107.1895
402.0750, 70.76514
403.2710, 97.35547
404.4660, 11.03418
405.6610, 5.426758
406.8560, 0.8212890
408.0510, 1.791504
409.2450, 9.623779
410.4400, 14.01855
411.6340, 28.34521
412.8280, 31.71045
414.0220, 18.07471
415.2160, 35.42725
416.4100, 76.78955
417.6030, 9.169434
418.7970, 16.55078
419.9900, 62.91211
421.1830, 13.31006
422.3760, 33.28320
423.5690, 64.10156
424.7610, 1.524902
425.9540, 51.94434
427.1460, 52.38770
428.3380, 19.13330
429.5300, 29.66943
430.7220, 80.20312
431.9140, 55.25732
433.1050, 21.75537
434.2970, 12.27393
435.4880, 10.79980
436.6790, 66.66016
437.8700, 36.87305
439.0610, 22.56543
440.2510, 28.99023
441.4420, 25.56055
442.6320, 82.84326
443.8220, 73.24170
445.0120, 51.65234
446.2020, 76.06152
447.3910, 32.46631
448.5810, 38.86572
449.7700, 17.25928
450.9600, 2.645020
452.1490, 94.01562
453.3370, 122.3955
454.5260, 180.7690
455.7150, 194.4717
456.9030, 181.5112
458.0910, 213.8721
459.2800, 185.2266
460.4670, 225.5737
461.6550, 307.9141
462.8430, 254.2471
464.0300, 438.5732
465.2180, 442.8921
466.4050, 507.2026
467.5920, 600.5059
468.7790, 723.8018
469.9650, 857.0894
471.1520, 904.3687
472.3380, 1139.645
473.5250, 1118.912
474.7110, 1259.171
475.8970, 1488.422
477.0820, 1300.664
478.2680, 1411.896
479.4540, 1254.121
480.6390, 1086.337
481.8240, 986.5430
483.0090, 788.7402
484.1940, 823.9316
485.3780, 880.1143
486.5630, 923.2871
487.7470, 1154.450
488.9320, 1268.604
490.1160, 1577.747
491.3000, 1952.880
492.4830, 2459.003
493.6670, 2893.117
494.8500, 3368.220
496.0340, 3737.319
497.2170, 4144.407
498.4000, 4313.487
499.5820, 4091.556
500.7650, 3663.626
501.9480, 3331.695
503.1300, 2792.753
504.3120, 2371.801
505.4940, 1915.838
506.6760, 1632.867
507.8580, 1425.884
509.0390, 1103.891
510.2210, 990.8857
511.4020, 893.8877
512.5830, 825.8774
513.7640, 764.2700
514.9450, 765.8208
516.1250, 701.7754
517.3060, 685.7173
518.4860, 698.6475
519.6660, 614.5654
520.8460, 631.4702
522.0260, 595.3633
523.2060, 681.2773
524.3850, 530.1445
525.5650, 632.1543
526.7440, 596.3003
527.9230, 717.1719
529.1020, 657.6748
530.2810, 675.4775
531.4590, 702.3701
532.6380, 723.1533
533.8160, 798.5103
534.9940, 773.9297
536.1720, 868.2456
537.3500, 1034.385
538.5270, 1013.250
539.7050, 1278.401
540.8820, 1302.113
542.0590, 1483.831
543.2360, 1737.315
544.4130, 2011.840
545.5900, 2326.557
546.7660, 2774.146
547.9430, 3174.708
549.1190, 3744.108
550.2950, 4100.578
551.4710, 4616.873
552.6470, 4923.190
553.8220, 5008.384
554.9980, 4812.491
556.1730, 4673.262
557.3480, 4199.276
558.5230, 3694.813
559.6980, 3269.185
560.8730, 2834.205
562.0470, 2476.790
563.2220, 2154.477
564.3960, 1861.208
565.5700, 1624.172
566.7440, 1402.667
567.9170, 1197.678
569.0910, 1065.346
570.2640, 978.6646
571.4380, 968.0156
572.6110, 968.3286
573.7840, 809.6519
574.9570, 884.2529
576.1290, 881.0190
577.3020, 986.3721
578.4740, 922.9844
579.6460, 1060.567
580.8180, 989.0078
581.9900, 975.4058
583.1620, 971.1621
584.3330, 942.2280
585.5040, 831.0952
586.6760, 726.5117
587.8470, 726.7881
589.0180, 528.7437
590.1880, 542.6812
591.3590, 433.4014
592.5290, 447.4595
593.7000, 434.6489
594.8700, 346.5581
596.0400, 346.7139
597.2090, 363.5337
598.3790, 379.3340
599.5490, 339.1152
600.7180, 344.2720
601.8870, 379.6182
603.0560, 319.3398
604.2250, 262.0420
605.3940, 266.7246
606.5620, 341.3872
607.7300, 307.0391
608.8990, 249.6626
610.0670, 375.2656
611.2350, 332.8486
612.4020, 368.2070
613.5700, 298.7510
614.7370, 411.2754
615.9050, 434.7954
617.0720, 435.2798
618.2390, 525.7446
619.4060, 639.1895
620.5720, 673.6143
621.7390, 762.0195
622.9050, 924.4043
624.0710, 1120.548
625.2370, 1154.894
626.4030, 1319.220
627.5690, 1355.525
628.7340, 1571.812
629.9000, 1564.078
631.0650, 1631.326
632.2300, 1545.553
633.3950, 1503.761
634.5600, 1209.948
635.7240, 1171.445
636.8890, 999.5942
638.0530, 913.0864
639.2170, 780.1958
640.3810, 753.5713
641.5450, 634.8281
642.7080, 590.8774
643.8720, 473.9087
645.0350, 552.4263
646.1980, 458.5205
647.3610, 489.4917
648.5240, 421.7007
649.6870, 478.6328
650.8490, 359.5195
652.0120, 362.4116
653.1740, 332.2842
654.3360, 288.1621
655.4980, 336.9951
656.6600, 228.8091
657.8210, 204.6025
658.9830, 229.3774
660.1440, 224.1318
661.3050, 187.8672
662.4660, 122.5830
663.6270, 145.2793
664.7870, 91.95654
665.9480, 72.61279
667.1080, 117.2476
668.2680, 46.86279
669.4280, 128.4521
670.5880, 100.0234
671.7480, 32.57471
672.9070, 48.09717
674.0670, 43.59619
675.2260, 47.06982
676.3850, 55.51953
677.5440, 80.94678
678.7030, 43.35498
679.8610, 26.73926
681.0200, 4.096680
682.1780, 31.41650
683.3360, 10.29004
684.4940, 30.03955
685.6520, 35.15674
686.8090, 49.33301
687.9670, 1.489258
689.1240, 21.61182
690.2810, 41.70752
691.4380, 60.21436
692.5950, 24.20312
693.7520, 43.23242
694.9080, 58.30957
696.0650, 16.44580
697.2210, 67.61426
698.3770, 0.1699220
699.5330, 98.07520
700.6880, 33.60205
701.8440, 14.27734
702.9990, 61.06592
704.1550, 24.52686
705.3100, 18.88135
706.4650, 14.32666
707.6190, 54.20654
708.7740, 42.26025
709.9290, 55.22168
711.0830, 12.31250
712.2370, 41.11963
713.3910, 19.55322
714.5450, 13.02295
715.6980, 11.20703
716.8520, 22.17041
718.0050, 10.10645
719.1580, 21.55127
720.3110, 31.24512
721.4640, 40.03223
722.6170, 55.30664
723.7700, 48.43262
724.9220, 5.780762
726.0740, 7.975586
727.2260, 67.15332
728.3780, 67.31934
729.5300, 142.4722
730.6810, 110.6147
731.8330, 45.25098
732.9840, 34.84277
734.1350, 15.07568
735.2860, 43.98096
736.4370, 129.0269
737.5880, 73.06299
738.7380, 54.08838
739.8880, 105.1030
741.0390, 83.10742
742.1890, 162.1021
743.3380, 99.08740
744.4880, 52.06396
745.6380, 23.03076
746.7870, 47.98828
747.9360, 161.9375
749.0850, 29.87793
750.2340, 18.18945
751.3830, 93.72559
752.5310, 32.63281
753.6800, 7.532715
754.8280, 79.42480
755.9760, 135.3096
757.1240, 42.18652
758.2720, 120.0566
759.4190, 3.919922
760.5670, 105.7769
761.7140, 24.37354
762.8610, 63.46240
764.0080, 87.29150
765.1550, 147.1147
766.3020, 48.93262
767.4480, 56.74463
768.5950, 50.55078
769.7410, 52.35205
770.8870, 41.14844
772.0330, 50.93994
773.1780, 42.27393
774.3240, 55.49512
775.4690, 18.74023
776.6140, 96.01562
777.7590, 62.23193
778.9040, 61.50488
780.0490, 10.19678
781.1940, 7.895508
782.3380, 25.40869
783.4820, 7.721680
784.6260, 35.96143
785.7700, 16.35889
786.9140, 34.31543
788.0580, 97.01318
789.2010, 50.62109
790.3450, 75.25293
791.4880, 1.116699
792.6310, 32.51172
793.7730, 77.13818
794.9160, 64.76367
796.0590, 13.38770
797.2010, 82.01123
798.3430, 49.63379
799.4850, 118.2563
800.6270, 133.8447
801.7690, 137.4668
802.9100, 120.9336
804.0520, 190.2529
805.1930, 210.8325
806.3340, 218.7690
807.4750, 177.3936
808.6160, 173.9150
809.7560, 184.6450
810.8970, 173.5513
812.0370, 229.5264
813.1770, 181.5767
814.3170, 229.7915
815.4570, 228.2676
816.5960, 265.3018
817.7360, 181.9087
818.8750, 257.4985
820.0140, 164.3096
821.1530, 186.0693
822.2920, 194.6250
823.4310, 184.6182
824.5690, 255.8999
825.7070, 223.5459
826.8460, 295.2305
827.9840, 278.4746
829.1220, 217.3809
830.2590, 375.5894
831.3970, 305.6450
832.5340, 221.7988
833.6710, 307.6436
834.8080, 425.3232
835.9450, 365.3047
837.0820, 352.1709
838.2190, 389.5474
839.3550, 452.4468
840.4910, 545.8076
841.6270, 643.1357
842.7630, 623.2524
843.8990, 729.7080
845.0350, 767.4399
846.1700, 969.2510
847.3060, 1003.022
848.4410, 1166.832
849.5760, 1363.584
850.7100, 1555.127
851.8450, 1715.073
852.9800, 1989.491
854.1140, 2265.979
855.2480, 2610.461
856.3820, 2801.105
857.5160, 3152.200
858.6500, 3280.119
859.7830, 3617.122
860.9170, 3607.327
862.0500, 3594.976
863.1830, 3608.760
864.3160, 3421.858
865.4480, 3282.989
866.5810, 2970.171
867.7130, 2715.383
868.8460, 2636.307
869.9780, 2403.533
871.1100, 2356.528
872.2410, 2182.877
873.3730, 2213.240
874.5050, 2171.634
875.6360, 2197.061
876.7670, 2214.506
877.8980, 2294.978
879.0290, 2461.476
880.1590, 2573.995
881.2900, 2724.217
882.4200, 2836.138
883.5500, 3057.743
884.6800, 3350.376
885.8100, 3571.046
886.9400, 3956.940
888.0690, 4317.376
889.1990, 4725.369
890.3280, 5186.093
891.4570, 5730.849
892.5860, 6256.625
893.7140, 6749.417
894.8430, 7472.227
895.9710, 7842.054
897.1000, 8438.897
898.2280, 9135.985
899.3560, 9985.863
900.4830, 11158.76
901.6110, 12305.68
902.7380, 13806.61
903.8660, 15788.56
904.9930, 18643.54
906.1200, 21674.52
907.2460, 25545.53
908.3730, 30172.55
909.5000, 34990.27
910.6260, 40003.33
911.7520, 44957.05
912.8780, 48914.14
914.0040, 51569.98
915.1290, 52306.93
916.2550, 51584.08
917.3800, 48610.27
918.5050, 44508.95
919.6300, 39324.06
920.7550, 33802.30
921.8800, 28976.29
923.0040, 24367.56
924.1290, 20580.88
925.2530, 17301.19
926.3770, 14528.52
927.5010, 12307.85
928.6250, 10695.22
929.7480, 9080.617
930.8720, 8040.027
931.9950, 6711.460
933.1180, 5970.914
934.2410, 5230.388
935.3640, 4644.880
936.4860, 4140.395
937.6090, 3645.930
938.7310, 3206.485
939.8530, 2795.062
940.9750, 2596.660
942.0970, 2335.282
943.2180, 2047.924
944.3400, 1895.587
945.4610, 1626.276
946.5820, 1532.988
947.7030, 1402.723
948.8240, 1289.481
949.9450, 1099.263
951.0650, 1173.066
952.1860, 953.8926
953.3060, 896.7446
954.4260, 1006.633
955.5460, 976.5464
956.6650, 846.4932
957.7850, 835.4785
958.9040, 845.4888
960.0230, 853.5205
961.1420, 648.9883
962.2610, 713.9844
963.3800, 704.0957
964.4990, 633.2534
965.6170, 683.4473
966.7350, 583.6821
967.8530, 568.0532
968.9710, 552.3662
970.0890, 645.7261
971.2070, 616.5142
972.3240, 600.9644
973.4410, 596.3115
974.5580, 626.1807
975.6750, 540.0024
976.7920, 611.5610
977.9090, 550.1514
979.0250, 614.7720
980.1410, 511.4126
981.2580, 586.2051
982.3740, 599.0742
983.4890, 484.8760
984.6050, 400.8896
985.7200, 513.5928
986.8360, 448.4438
987.9510, 384.2627
989.0660, 447.1113
990.1810, 497.9814
991.2950, 366.8813
992.4100, 366.8125
993.5240, 335.7632
994.6390, 447.1255
995.7530, 287.1299
996.8660, 516.1553
997.9800, 437.2002
999.0940, 416.3403
1000.207, 384.0142
1001.320, 493.1821
1002.433, 646.3643
1003.546, 562.5977
1004.659, 599.2183
1005.772, 572.3691
1006.884, 574.5688
1007.996, 562.8823
1009.108, 613.3491
1010.220, 476.0103
1011.332, 548.4561
1012.444, 655.0537
1013.555, 639.4854
1014.666, 764.5293
1015.777, 840.2051
1016.888, 775.5322
1017.999, 932.5850
1019.110, 926.6758
1020.220, 1074.271
1021.331, 1106.752
1022.441, 1236.146
1023.551, 1234.552
1024.661, 1439.971
1025.770, 1599.497
1026.880, 1596.938
1027.989, 1726.390
1029.098, 1903.854
1030.207, 2178.328
1031.316, 2352.815
1032.425, 2593.316
1033.533, 2702.828
1034.642, 2972.351
1035.750, 3260.884
1036.858, 3323.428
1037.966, 3467.982
1039.073, 3537.546
1040.181, 3567.120
1041.288, 3573.704
1042.396, 3477.298
1043.503, 3291.909
1044.610, 3129.528
1045.716, 2763.159
1046.823, 2628.800
1047.929, 2398.460
1049.036, 2024.140
1050.142, 1810.829
1051.248, 1563.526
1052.353, 1374.235
1053.459, 1165.953
1054.564, 983.5469
1055.670, 841.4146
1056.775, 668.1582
1057.880, 582.9282
1058.985, 481.7051
1060.089, 452.4897
1061.194, 371.2822
1062.298, 334.5767
1063.402, 284.9697
1064.506, 286.7026
1065.610, 211.5229
1066.713, 222.3506
1067.817, 232.1846
1068.920, 196.0259
1070.023, 188.8740
1071.126, 167.7275
1072.229, 141.0728
1073.332, 109.7778
1074.435, 100.3271
1075.537, 64.20801
1076.639, 61.10303
1077.741, 112.0059
1078.843, 121.9160
1079.945, 77.83154
1081.046, 210.7593
1082.148, 123.6958
1083.249, 198.6577
1084.350, 40.62646
1085.451, 97.60645
1086.551, 88.86523
1087.652, 103.8564
1088.752, 136.8511
1089.853, 59.84912
1090.953, 25.84961
1092.053, 74.85400
1093.152, 38.84570
1094.252, 47.85059
1095.351, 79.12842
1096.451, 104.1108
1097.550, 19.11475
1098.649, 22.11963
1099.748, 79.83203
1100.846, 4.137695
1101.945, 37.10840
1103.043, 11.81738
1104.141, 2.478027
1105.239, 56.09277
1106.337, 30.15918
1107.434, 7.132813
1108.532, 12.78711
1109.629, 17.55420
1110.726, 13.24805
1111.823, 10.54150
1112.920, 0.5434570
1114.017, 21.59229
1115.113, 1.319336
1116.210, 2.759766
1117.306, 31.82812
1118.402, 3.083008
1119.498, 27.98877
1120.593, 24.89209
1121.689, 32.79199
1122.784, 77.68896
1123.879, 49.58252
1124.974, 97.47217
1126.069, 16.64209
1127.164, 49.22559
1128.259, 67.08984
1129.353, 94.95410
1130.447, 56.18555
1131.541, 127.3667
1132.635, 38.62598
1133.729, 21.91895
1134.822, 85.23584
1135.916, 58.61133
1137.009, 66.03174
1138.102, 23.49854
1139.195, 34.97754
1140.288, 52.48633
1141.380, 9.960449
1142.473, 18.60303
1143.565, 20.19434
1144.657, 0.8120120
1145.749, 89.44873
1146.841, 3.150879
1147.932, 88.12744
1149.024, 23.60107
1150.115, 55.35889
1151.206, 21.83447
1152.297, 27.01807
1153.388, 68.19189
1154.479, 36.35840
1155.569, 64.51758
1156.659, 30.67432
1157.750, 127.8213
1158.839, 90.96094
1159.929, 115.0923
1161.019, 129.2153
1162.108, 144.3306
1163.198, 93.43701
1164.287, 195.5356
1165.376, 215.6250
1166.465, 158.7070
1167.553, 140.7793
1168.642, 122.8433
1169.730, 230.8984
1170.818, 130.9448
1171.906, 162.9819
1172.994, 113.0098
1174.082, 290.0288
1175.170, 183.0381
1176.257, 131.0381
1177.344, 298.0288
1178.431, 240.0103
1179.518, 245.9810
1180.605, 236.9424
1181.691, 296.8936
1182.778, 120.8345
1183.864, 151.7656
1184.950, 169.6870
1186.036, 247.5981
1187.122, 224.4985
1188.207, 268.3892
1189.292, 247.2686
1190.378, 241.1372
1191.463, 197.9951
1192.548, 181.8423
1193.632, 131.6787
1194.717, 181.5039
1195.801, 194.3184
1196.886, 81.12207
1197.970, 168.9146
1199.054, 151.9771
1200.137, 176.7798
1201.221, 132.5381
1202.305, 123.2876
1203.388, 101.0225
1204.471, 125.2231
1205.554, 117.2817
1206.637, 157.2114
1207.719, 120.3066
1208.802, 135.5718
1209.884, 111.2476
1210.966, 191.7271
1212.048, 121.1528
1213.130, 216.8838
1214.212, 189.9761
1215.293, 106.3716
1216.374, 34.97607
1217.456, 148.2510
1218.536, 203.7993
1219.617, 153.3633
1220.698, 216.8838
1221.778, 181.7275
1222.859, 74.22119
1223.939, 117.2944
1225.019, 109.8501
1226.099, 175.4790
1227.178, 106.5923
1228.258, 149.7354
1229.337, 101.2368
1230.417, 178.5386
1231.496, 118.0635
1232.574, 89.28369
1233.653, 72.23486
1234.732, 65.41650
1235.810, 93.92871
1236.888, 97.06836
1237.966, 179.0698
1239.044, 232.3433
1240.122, 269.6030
1241.199, 152.9756
1242.277, 145.2075
1243.354, 99.43945
1244.431, 243.5029
1245.508, 241.9517
1246.585, 267.6924
1247.661, 233.9199
1248.738, 295.0142
1249.814, 340.1504
1250.890, 281.2710
1251.966, 240.3774
1253.042, 250.4697
1254.117, 313.5488
1255.193, 329.6138
1256.268, 350.2705
1257.343, 311.3066
1258.418, 294.4956
1259.493, 240.5044
1260.567, 269.4224
1261.642, 304.8105
1262.716, 251.7080
1263.790, 231.5952
1264.864, 261.4507
1265.938, 214.9209
1267.011, 379.8711
1268.085, 314.7759
1269.158, 361.5703
1270.231, 272.2598
1271.304, 320.7129
1272.377, 355.3838
