##NAMES=Almandine
##RRUFFID=R040076
##IDEAL CHEMISTRY=Fe^2+^_3_Al_2_(SiO_4_)_3_
##LOCALITY=Barton Garnet mine, Gore Mountain, Warren County, New York, USA
##OWNER=RRUFF
##SOURCE=University of Arizona Mineral Museum
##DESCRIPTION=Red coarsely crystalline
##STATUS=The identification of this mineral has been confirmed by X-ray diffraction and chemical analysis
##URL=rruff.info/R040076
##MEASURED CHEMISTRY=(Fe^2+^_1.38_Mg_1.26_Ca_0.33_Mn_0.03_)_Î£=3_Al_2.00_(Si_1.00_O_4_)_3_; trace amounts of Ti
##PIN_ID=M00102
##ORIENTATION=Laser parallel to -a* (-1 0 0). Fiducial mark perpendicular to laser is parallel to b [0 1 0]
199.990, 0.000
201.366, 51.259
202.741, 74.470
204.116, 128.280
205.490, 247.452
206.865, 290.091
208.239, 396.339
209.613, 344.658
210.987, 476.635
212.361, 440.835
213.734, 392.667
215.107, 383.337
216.480, 337.316
217.853, 344.578
219.226, 281.911
220.598, 228.049
221.970, 178.132
223.342, 199.323
224.714, 119.034
226.085, 55.939
227.457, 75.468
228.828, 1.921
230.198, 29.596
231.569, 6.114
232.939, 27.198
234.309, 22.813
235.679, 17.438
237.049, 0.061
238.419, 24.799
239.788, 32.475
241.157, 51.317
242.526, 52.709
243.894, 57.724
245.263, 0.645
246.631, 56.088
247.999, 25.739
249.367, 7.486
250.734, 22.890
252.102, 22.299
253.469, 10.716
254.836, 26.326
256.202, 29.763
257.569, 50.490
258.935, 0.428
260.301, 23.526
261.667, 21.249
263.033, 10.873
264.398, 22.593
265.763, 58.949
267.128, 11.453
268.493, 27.223
269.857, 4.016
271.222, 7.826
272.586, 58.253
273.950, 36.257
275.313, 13.189
276.677, 12.949
278.040, 18.846
279.403, 15.424
280.766, 27.243
282.128, 23.866
283.491, 62.498
284.853, 66.027
286.215, 45.797
287.576, 73.459
288.938, 64.126
290.299, 62.794
291.660, 94.460
293.021, 101.120
294.382, 81.771
295.742, 104.411
297.102, 76.040
298.462, 131.648
299.822, 155.234
301.182, 182.788
302.541, 157.318
303.900, 215.826
305.259, 231.360
306.618, 300.289
307.976, 323.567
309.334, 393.016
310.692, 511.174
312.050, 576.344
313.408, 691.022
314.765, 845.330
316.123, 887.479
317.479, 916.523
318.836, 946.341
320.193, 956.295
321.549, 965.018
322.905, 940.151
324.261, 937.769
325.617, 976.881
326.972, 1014.362
328.328, 1052.927
329.683, 1156.047
331.037, 1256.545
332.392, 1359.762
333.747, 1458.512
335.101, 1611.946
336.455, 1856.203
337.808, 2069.383
339.162, 2391.553
340.515, 2578.710
341.868, 2887.854
343.221, 3332.982
344.574, 3792.095
345.927, 4347.190
347.279, 5067.269
348.631, 5867.332
349.983, 6947.374
351.334, 7937.399
352.686, 9360.407
354.037, 10313.398
355.388, 11126.369
356.739, 11449.322
358.089, 11242.262
359.440, 10275.187
360.790, 9408.095
362.140, 8170.999
363.489, 7093.865
364.839, 6072.865
366.188, 5337.904
367.537, 4688.952
368.886, 4151.981
370.235, 3835.981
371.583, 3487.951
372.932, 3179.871
374.280, 2987.748
375.627, 2715.578
376.975, 2508.363
378.322, 2337.110
379.669, 2109.784
381.016, 1889.391
382.363, 1742.916
383.710, 1564.389
385.056, 1345.823
386.402, 1235.199
387.748, 1086.541
389.094, 991.851
390.439, 868.125
391.784, 774.367
393.129, 630.540
394.474, 604.396
395.819, 522.306
397.163, 444.090
398.508, 433.781
399.852, 364.083
401.195, 301.753
402.539, 226.399
403.882, 193.103
405.225, 229.804
406.568, 178.514
407.911, 180.589
409.254, 169.260
410.596, 143.789
411.938, 139.127
413.280, 117.603
414.621, 106.063
415.963, 87.952
417.304, 102.865
418.645, 54.325
419.986, 7.855
421.327, 0.107
422.667, 0.249
424.007, 35.883
425.347, 32.151
426.687, 9.426
428.027, 9.624
429.366, 19.255
430.705, 13.127
432.044, 17.825
433.383, 4.115
434.721, 14.625
436.059, 7.511
437.398, 20.540
438.735, 15.313
440.073, 7.248
441.411, 5.102
442.748, 2.847
444.085, 3.740
445.422, 21.208
446.758, 15.825
448.095, 24.251
449.431, 8.247
450.767, 6.689
452.103, 5.592
453.438, 7.600
454.774, 10.598
456.109, 32.498
457.444, 49.449
458.778, 76.276
460.113, 62.185
461.447, 85.073
462.781, 94.940
464.115, 109.787
465.449, 157.615
466.782, 148.422
468.116, 179.208
469.449, 173.972
470.782, 209.712
472.114, 234.421
473.447, 274.090
474.779, 316.731
476.111, 356.338
477.443, 398.897
478.774, 514.426
480.106, 571.915
481.437, 719.365
482.768, 852.780
484.099, 922.164
485.429, 977.509
486.760, 983.809
488.090, 892.079
489.420, 721.320
490.749, 681.538
492.079, 599.735
493.408, 633.912
494.737, 629.072
496.066, 688.214
497.395, 746.341
498.723, 939.452
500.052, 1125.547
501.380, 1517.626
502.708, 1840.689
504.035, 2313.737
505.363, 2637.769
506.690, 2723.784
508.017, 2525.784
509.344, 2181.818
510.670, 1871.988
511.997, 1509.940
513.323, 1246.145
514.649, 1056.374
515.975, 959.494
517.300, 775.753
518.626, 772.887
519.951, 776.362
521.276, 724.210
522.600, 716.151
523.925, 737.570
525.249, 790.848
526.573, 708.513
527.897, 777.590
529.221, 731.831
530.545, 741.961
531.868, 719.119
533.191, 751.586
534.514, 737.628
535.837, 788.436
537.159, 795.768
538.481, 869.659
539.803, 971.087
541.125, 1013.538
542.447, 1122.951
543.768, 1281.898
545.090, 1321.429
546.411, 1485.192
547.731, 1751.042
549.052, 1991.172
550.372, 2277.837
551.693, 2643.352
553.013, 3113.463
554.332, 3763.740
555.652, 4518.500
556.971, 5200.441
558.291, 5854.235
559.609, 6137.080
560.928, 6219.426
562.247, 5691.364
563.565, 4870.486
564.883, 4015.158
566.201, 3278.369
567.519, 2713.568
568.837, 2134.621
570.154, 1721.662
571.471, 1450.726
572.788, 1258.233
574.105, 1050.994
575.421, 960.432
576.737, 833.808
578.053, 751.964
579.369, 723.635
580.685, 673.924
582.001, 653.959
583.316, 690.711
584.631, 677.904
585.946, 671.521
587.260, 698.199
588.575, 702.230
589.889, 652.597
591.203, 577.624
592.517, 552.061
593.831, 533.238
595.144, 488.674
596.457, 436.364
597.770, 411.869
599.083, 358.269
600.396, 317.941
601.708, 356.000
603.020, 338.289
604.332, 365.795
605.644, 343.201
606.956, 322.455
608.267, 339.887
609.578, 363.947
610.889, 321.916
612.200, 310.907
613.511, 302.950
614.821, 289.330
616.131, 281.211
617.441, 237.615
618.751, 254.286
620.061, 230.972
621.370, 198.675
622.679, 236.653
623.988, 260.572
625.297, 288.449
626.605, 332.411
627.914, 367.329
629.222, 484.279
630.530, 505.208
631.837, 563.115
633.145, 743.001
634.452, 879.865
635.759, 1064.709
637.066, 1181.531
638.373, 1371.333
639.680, 1429.114
640.986, 1441.874
642.292, 1341.614
643.598, 1212.333
644.904, 1031.033
646.209, 850.712
647.514, 743.372
648.819, 641.012
650.124, 538.632
651.429, 488.233
652.734, 434.814
654.038, 396.376
655.342, 355.919
656.646, 311.442
657.950, 294.946
659.253, 248.431
660.556, 225.897
661.859, 198.344
663.162, 172.772
664.465, 194.181
665.767, 136.572
667.070, 98.943
668.372, 156.294
669.674, 80.627
670.975, 69.939
672.277, 91.231
673.578, 52.503
674.879, 77.753
676.180, 22.983
677.480, 10.190
678.781, 7.370
680.081, 20.521
681.381, 26.650
682.681, 7.243
683.981, 46.830
685.280, 2.118
686.579, 17.096
687.878, 20.887
689.177, 24.150
690.476, 18.229
691.774, 15.346
693.073, 40.499
694.371, 31.300
695.669, 11.921
696.966, 2.827
698.264, 13.451
699.561, 38.761
700.858, 17.118
702.155, 69.507
703.451, 39.958
704.748, 29.454
706.044, 22.989
707.340, 21.559
708.636, 0.163
709.932, 19.691
711.227, 12.448
712.522, 48.135
713.817, 30.868
715.112, 32.637
716.407, 41.624
717.701, 4.291
718.995, 24.161
720.289, 18.061
721.583, 36.011
722.877, 32.069
724.170, 11.886
725.464, 19.135
726.757, 2.144
728.049, 9.862
729.342, 24.113
730.634, 12.923
731.927, 11.979
733.219, 14.054
734.511, 15.854
735.802, 7.755
737.094, 16.349
738.385, 30.466
739.676, 2.607
740.967, 9.243
742.257, 9.086
743.548, 11.923
744.838, 28.761
746.128, 7.401
747.418, 6.427
748.708, 28.251
749.997, 14.076
751.286, 36.896
752.575, 28.719
753.864, 1.538
755.153, 22.353
756.441, 40.166
757.730, 4.022
759.018, 67.786
760.306, 9.598
761.593, 46.406
762.881, 4.779
764.168, 15.035
765.455, 19.848
766.742, 36.659
768.028, 28.469
769.315, 67.277
770.601, 1.083
771.887, 73.884
773.173, 2.318
774.459, 25.475
775.744, 44.264
777.030, 10.951
778.315, 56.828
779.600, 0.602
780.884, 33.371
782.169, 9.136
783.453, 63.896
784.737, 30.652
786.021, 17.404
787.305, 71.152
788.588, 58.896
789.872, 78.636
791.155, 61.373
792.438, 42.105
793.720, 82.835
795.003, 59.562
796.285, 52.285
797.567, 69.006
798.849, 91.725
800.131, 126.441
801.412, 139.154
802.694, 134.866
803.975, 162.575
805.256, 212.283
806.537, 271.989
807.817, 519.696
809.098, 257.402
810.378, 256.106
811.658, 354.810
812.937, 595.513
814.217, 382.215
815.496, 397.917
816.775, 425.619
818.054, 444.320
819.333, 427.032
820.612, 434.700
821.890, 428.540
823.168, 427.968
824.446, 441.823
825.724, 447.035
827.002, 465.409
828.279, 472.787
829.556, 475.276
830.833, 485.425
832.110, 509.558
833.387, 529.852
834.663, 566.031
835.939, 594.789
837.216, 621.246
838.491, 634.731
839.767, 742.032
841.042, 757.424
842.318, 822.779
843.593, 946.819
844.868, 1082.266
846.142, 1098.945
847.417, 1292.087
848.691, 1455.660
849.965, 1636.681
851.239, 1866.667
852.513, 2045.683
853.786, 2317.146
855.059, 2617.009
856.333, 3045.642
857.605, 3416.173
858.878, 3880.404
860.151, 4146.085
861.423, 4473.898
862.695, 4437.104
863.967, 4363.127
865.239, 4165.649
866.510, 3883.977
867.782, 3699.435
869.053, 3319.830
870.324, 3069.708
871.595, 2930.979
872.865, 2722.053
874.136, 2627.560
875.406, 2571.514
876.676, 2394.471
877.945, 2429.519
879.215, 2430.457
880.484, 2452.338
881.754, 2619.670
883.023, 2613.684
884.292, 2725.929
885.560, 2880.283
886.829, 3138.565
888.097, 3345.620
889.365, 3641.660
890.633, 3943.064
891.900, 4258.752
893.168, 4608.401
894.435, 4970.526
895.702, 5322.670
896.969, 5695.847
898.236, 6286.113
899.502, 6725.068
900.769, 7428.282
902.035, 7760.607
903.301, 8878.895
904.566, 9837.295
905.832, 11345.683
907.097, 13553.975
908.362, 15692.377
909.627, 18860.854
910.892, 22479.121
912.157, 26327.625
913.421, 31696.057
914.685, 36764.590
915.949, 42252.930
917.213, 47131.438
918.476, 47799.992
919.740, 48738.582
921.003, 45407.184
922.266, 41055.789
923.529, 35654.336
924.792, 29892.975
926.054, 25171.533
927.316, 21400.193
928.578, 17288.869
929.840, 14877.323
931.102, 12486.024
932.363, 10694.724
933.625, 9373.453
934.886, 7932.199
936.147, 7126.958
937.407, 6248.730
938.668, 5440.517
939.928, 4815.318
941.188, 4275.132
942.448, 3895.961
943.708, 3415.805
944.967, 3074.662
946.227, 2842.534
947.486, 2504.420
948.745, 2248.321
950.004, 2106.235
951.262, 1999.164
952.521, 1933.108
953.779, 1689.066
955.037, 1661.039
956.295, 1517.026
957.552, 1452.027
958.810, 1411.472
960.067, 1293.503
961.324, 1280.548
962.581, 1195.608
963.838, 1194.682
965.094, 1120.771
966.350, 1045.954
967.607, 989.071
968.862, 996.204
970.118, 957.572
971.374, 955.959
972.629, 902.865
973.884, 927.056
975.139, 914.884
976.394, 834.739
977.649, 837.975
978.903, 893.225
980.157, 834.491
981.411, 858.280
982.665, 818.352
983.919, 830.609
985.172, 805.845
986.425, 844.562
987.678, 801.795
988.931, 754.229
990.184, 769.923
991.436, 690.857
992.689, 639.626
993.941, 627.484
995.193, 618.074
996.444, 573.819
997.696, 613.214
998.947, 559.215
1000.198, 518.931
1001.449, 530.431
1002.700, 536.715
1003.951, 541.400
1005.201, 548.783
1006.451, 565.387
1007.701, 578.450
1008.951, 591.184
1010.201, 609.151
1011.450, 639.008
1012.699, 648.875
1013.948, 680.688
1015.197, 704.521
1016.446, 716.372
1017.694, 768.250
1018.943, 829.149
1020.191, 900.071
1021.439, 913.016
1022.686, 950.977
1023.934, 962.956
1025.181, 1035.953
1026.428, 1034.960
1027.675, 1114.978
1028.922, 1165.013
1030.169, 1227.059
1031.415, 1241.116
1032.661, 1363.189
1033.907, 1443.273
1035.153, 1460.372
1036.399, 1622.484
1037.644, 1818.612
1038.890, 1854.754
1040.135, 1965.907
1041.380, 2175.074
1042.624, 2152.260
1043.869, 2402.458
1045.113, 2401.671
1046.357, 2597.906
1047.601, 2552.149
1048.845, 2508.410
1050.089, 2703.683
1051.332, 2554.966
1052.575, 2364.258
1053.818, 2267.557
1055.061, 2114.869
1056.304, 1883.187
1057.546, 1604.514
1058.788, 1280.861
1060.030, 1156.216
1061.272, 985.579
1062.514, 874.965
1063.756, 759.360
1064.997, 578.762
1066.238, 566.173
1067.479, 538.591
1068.720, 396.021
1069.960, 392.458
1071.201, 413.901
1072.441, 274.361
1073.681, 308.831
1074.921, 241.312
1076.160, 189.801
1077.400, 209.295
1078.639, 196.796
1079.878, 203.310
1081.117, 176.828
1082.356, 160.354
1083.594, 172.885
1084.832, 180.421
1086.071, 125.970
1087.308, 114.524
1088.546, 102.084
1089.784, 118.659
1091.021, 91.237
1092.258, 52.821
1093.495, 115.410
1094.732, 67.060
1095.969, 48.655
1097.205, 69.254
1098.441, 29.867
1099.678, 35.479
1100.913, 39.094
1102.149, 25.713
1103.385, 37.335
1104.620, 53.960
1105.855, 16.587
1107.090, 13.782
1108.325, 19.845
1109.559, 46.478
1110.794, 31.113
1112.028, 11.749
1113.262, 34.387
1114.496, 1.973
1115.730, 23.667
1116.963, 20.310
1118.196, 43.047
1119.429, 25.423
1120.662, 65.811
1121.895, 16.770
1123.127, 12.649
1124.360, 30.074
1125.592, 12.485
1126.824, 13.045
1128.056, 10.984
1129.287, 57.835
1130.519, 12.305
1131.750, 14.785
1132.981, 62.272
1134.212, 37.221
1135.443, 28.707
1136.673, 46.902
1137.903, 0.493
1139.133, 4.090
1140.363, 49.693
1141.593, 50.327
1142.823, 12.993
1144.052, 62.673
1145.281, 24.392
1146.510, 33.125
1147.739, 11.882
1148.968, 23.655
1150.196, 35.447
1151.424, 10.733
1152.653, 3.091
1153.880, 58.927
1155.108, 7.804
1156.336, 28.304
1157.563, 6.407
1158.790, 36.503
1160.017, 6.406
1161.244, 70.712
1162.471, 33.119
1163.697, 30.184
1164.923, 65.340
1166.149, 69.394
1167.375, 86.441
1168.601, 106.559
1169.826, 113.021
1171.052, 120.994
1172.277, 125.902
1173.502, 123.981
1174.726, 112.065
1175.951, 108.587
1177.175, 120.629
1178.400, 190.810
1179.624, 149.434
1180.847, 159.621
1182.071, 134.841
1183.295, 127.849
1184.518, 138.099
1185.741, 163.350
1186.964, 115.344
1188.187, 171.811
1189.409, 191.928
1190.631, 152.224
1191.854, 105.869
1193.076, 182.375
1194.297, 163.336
1195.519, 152.747
1196.741, 165.781
1197.962, 169.012
1199.183, 161.135
1200.404, 142.099
1201.625, 138.637
1202.845, 134.580
1204.065, 182.627
1205.286, 153.139
1206.506, 200.429
1207.725, 220.295
1208.945, 100.733
1210.164, 177.936
1211.384, 135.063
1212.603, 168.069
1213.822, 176.908
1215.040, 115.890
1216.259, 144.914
1217.477, 168.851
1218.695, 128.969
1219.913, 177.341
1221.131, 136.652
1222.349, 122.495
1223.566, 159.282
1224.783, 101.456
1226.000, 179.229
1227.217, 113.980
1228.434, 163.135
1229.650, 130.714
1230.867, 141.465
1232.083, 133.167
1233.299, 149.853
1234.515, 183.705
1235.730, 127.757
1236.946, 157.264
1238.161, 128.088
1239.376, 111.917
1240.591, 98.327
1241.806, 133.853
1243.020, 135.406
1244.234, 111.833
1245.449, 140.802
1246.662, 140.302
1247.876, 150.901
1249.090, 184.553
1250.303, 150.875
1251.516, 157.409
1252.730, 186.013
1253.942, 153.872
1255.155, 170.799
1256.368, 191.181
1257.580, 190.521
1258.792, 192.950
1260.004, 188.186
1261.216, 146.723
1262.427, 207.065
1263.639, 190.259
1264.850, 182.416
1266.061, 240.422
1267.272, 216.853
1268.483, 229.200
1269.693, 238.718
1270.904, 186.211
1272.114, 212.571
1273.324, 178.679
1274.533, 195.957
1275.743, 236.662
1276.952, 184.962
1278.162, 206.584
1279.371, 188.865
1280.580, 180.541
1281.788, 186.449
1282.997, 180.889
1284.205, 188.660
1285.413, 198.381
1286.621, 205.026
1287.829, 156.582
1289.037, 180.406
1290.244, 163.071
1291.452, 126.527
1292.659, 186.941
1293.866, 140.638
1295.072, 209.660
1296.279, 186.778
1297.485, 155.479
1298.691, 125.493
1299.897, 116.986
1301.103, 93.637
1302.309, 142.309
1303.514, 100.661
1304.720, 123.288
1305.925, 80.821
1307.130, 28.404
1308.334, 170.971
1309.539, 68.507
1310.743, 124.006
1311.947, 116.488
1313.151, 73.954
1314.355, 62.405
1315.559, 92.827
1316.762, 61.232
1317.966, 77.621
1319.169, 74.990
1320.372, 18.338
1321.575, 81.667
1322.777, 46.980
1323.980, 13.272
1325.182, 42.544
1326.384, 37.799
1327.586, 81.034
1328.787, 32.251
1329.989, 1.553
1331.190, 78.619
1332.391, 16.767
1333.592, 44.891
1334.793, 24.994
1335.994, 8.925
1337.194, 22.871
1338.394, 73.133
1339.595, 21.882
1340.794, 51.072
1341.994, 25.006
1343.194, 33.920
1344.393, 59.816
1345.592, 8.692
1346.791, 59.548
1347.990, 37.386
1349.189, 25.793
1350.387, 15.999
1351.585, 66.772
1352.784, 41.471
1353.982, 18.253
1355.179, 21.959
1356.377, 31.648
1357.574, 58.319
1358.772, 4.026
1359.969, 25.608
1361.165, 33.226
1362.362, 23.171
1363.559, 5.409
1364.755, 11.026
1365.951, 37.521
1367.147, 45.055
1368.343, 9.579
1369.539, 3.909
1370.734, 43.591
1371.929, 8.082
1373.124, 77.566
1374.319, 36.047
1375.514, 20.474
1376.709, 41.997
1377.903, 20.470
1379.097, 27.050
1380.291, 74.432
1381.485, 19.428
1382.679, 17.956
1383.872, 109.016
1385.065, 57.227
1386.259, 48.461
1387.452, 75.667
1388.644, 12.153
1389.837, 53.000
1391.029, 32.129
1392.222, 24.230
1393.414, 97.305
1394.606, 35.354
1395.797, 25.376
1396.989, 99.401
1398.180, 2.444
1399.371, 58.479
1400.562, 65.496
1401.753, 41.504
1402.944, 84.519
1404.134, 15.565
1405.325, 53.636
1406.515, 113.708
1407.705, 39.815
1408.895, 71.956
1410.084, 113.121
1411.274, 39.307
1412.463, 96.519
1413.652, 89.751
1414.841, 33.007
1416.030, 103.256
1417.218, 44.011
1418.407, 57.118
1419.595, 92.344
1420.783, 9.287
1421.971, 57.312
1423.158, 124.315
1424.346, 36.706
1425.533, 160.690
1426.720, 73.164
1427.907, 33.785
1429.094, 146.895
1430.281, 118.878
1431.467, 114.737
1432.653, 128.654
1433.839, 15.563
1435.025, 80.310
1436.211, 141.851
1437.396, 54.107
1438.582, 115.702
1439.767, 78.249
1440.952, 102.511
1442.137, 168.473
1443.322, 88.332
1444.506, 117.191
1445.690, 173.476
1446.875, 98.227
1448.059, 142.451
1449.242, 140.404
1450.426, 109.287
1451.609, 115.110
1452.793, 133.670
1453.976, 70.006
1455.159, 142.375
1456.342, 88.916
1457.524, 135.568
1458.706, 171.709
1459.889, 79.945
1461.071, 112.653
1462.253, 156.994
1463.434, 98.244
1464.616, 157.446
1465.797, 119.767
1466.978, 80.794
1468.159, 169.061
1469.340, 89.896
1470.521, 104.512
1471.701, 167.167
1472.882, 93.852
1474.062, 94.048
1475.242, 192.215
1476.422, 107.731
1477.601, 156.621
1478.781, 156.187
1479.960, 32.334
1481.139, 132.835
1482.318, 83.977
1483.497, 83.585
1484.675, 150.153
1485.854, 117.851
1487.032, 136.576
1488.210, 146.300
1489.388, 74.169
1490.565, 156.085
1491.743, 158.009
1492.920, 38.958
1494.097, 173.917
1495.274, 116.868
1496.451, 92.832
1497.628, 168.779
1498.804, 78.743
1499.981, 26.763
1501.157, 175.877
1502.333, 37.077
1503.509, 163.591
1504.684, 127.229
1505.860, 46.985
1507.035, 142.862
1508.210, 66.868
1509.385, 30.018
1510.560, 126.338
1511.734, 65.873
1512.909, 78.676
1514.083, 117.800
1515.257, 49.265
1516.431, 109.122
1517.604, 170.460
1518.778, 40.406
1519.951, 105.117
1521.125, 142.809
1522.298, 1.170
1523.470, 168.667
1524.643, 0.000
##END=



