##NAMES=Almandine
##RRUFFID=R060450
##IDEAL CHEMISTRY=Fe^2+^_3_Al_2_(SiO_4_)_3_
##LOCALITY=Canada
##OWNER=RRUFF
##SOURCE=Gemological Institute of America
##DESCRIPTION=Reddish-brown translucent fragment
##STATUS=The identification of this mineral has been confirmed by X-ray diffraction and chemical analysis
##URL=rruff.info/R060450
##MEASURED CHEMISTRY=(Fe^2+^_1.92_Mg_1.03_Ca_0.04_Mn_0.01_)_Î£=3_Al_2.00_(Si_1.00_O_4_)_3_
##PIN_ID=L00665
##ORIENTATION=Laser parallel to c* (0 0 1). Fiducial mark perpendicular to laser is parallel to a [1 0 0]
91.01200, 0.0000000E+00
92.24600, 2.198242
93.48000, 24.54932
94.71400, 55.53284
95.94800, 41.71838
97.18200, 78.83325
98.41600, 1.315063
99.64900, 64.39490
100.8830, 38.65173
102.1160, 27.74487
103.3490, 28.03723
104.5820, 80.85889
105.8150, 199.6050
107.0470, 330.1812
108.2800, 559.5083
109.5120, 721.5188
110.7440, 515.1528
111.9760, 177.3555
113.2080, 141.0759
114.4400, 229.2708
115.6710, 311.9009
116.9030, 340.9355
118.1340, 228.3481
119.3650, 183.1167
120.5960, 138.2209
121.8270, 214.6431
123.0580, 248.3652
124.2880, 251.3721
125.5190, 183.6489
126.7490, 155.1814
127.9790, 238.9573
129.2090, 329.9578
130.4390, 412.1628
131.6680, 425.5554
132.8980, 549.1218
134.1270, 611.8528
135.3560, 617.7383
136.5850, 758.7715
137.8140, 789.9460
139.0430, 879.2581
140.2710, 852.7068
141.5000, 946.2922
142.7280, 915.0137
143.9560, 936.8721
145.1840, 1053.867
146.4120, 981.9966
147.6390, 935.2559
148.8670, 839.6406
150.0940, 818.1450
151.3210, 741.9136
152.5490, 679.4971
153.7750, 630.3352
155.0020, 561.2769
156.2290, 534.3186
157.4550, 505.4568
158.6810, 501.6877
159.9080, 600.0093
161.1340, 571.4187
162.3590, 656.9128
163.5850, 652.4893
164.8110, 833.1255
166.0360, 820.7649
167.2610, 934.4072
168.4860, 929.0530
169.7110, 977.7073
170.9360, 1024.364
172.1610, 1075.046
173.3850, 1005.757
174.6100, 955.4990
175.8340, 872.2756
177.0580, 829.0891
178.2820, 650.9409
179.5050, 582.8318
180.7290, 508.7637
181.9520, 445.7368
183.1760, 404.7639
184.3990, 316.8354
185.6220, 361.9753
186.8450, 337.1919
188.0670, 373.4824
189.2900, 467.8755
190.5120, 463.3867
191.7340, 552.9707
192.9560, 572.6399
194.1780, 587.4194
195.4000, 698.2725
196.6220, 666.2144
197.8430, 665.2839
199.0640, 664.4082
200.2860, 873.5913
201.5070, 849.8115
202.7270, 951.0740
203.9480, 932.3794
205.1690, 800.7124
206.3890, 686.0737
207.6090, 676.4629
208.8290, 649.8801
210.0490, 719.3254
211.2690, 761.7981
212.4890, 787.2983
213.7080, 769.8264
214.9280, 706.3816
216.1470, 656.9639
217.3660, 451.5730
218.5850, 471.2087
219.8030, 403.8706
221.0220, 304.5586
222.2400, 291.2720
223.4590, 275.0112
224.6770, 170.7754
225.8950, 206.5642
227.1120, 177.3777
228.3300, 217.2151
229.5480, 122.0764
230.7650, 211.9612
231.9820, 191.8691
233.1990, 174.7998
234.4160, 221.7534
235.6330, 192.7285
236.8490, 180.7261
238.0660, 223.6775
239.2820, 228.6931
240.4980, 199.7393
241.7140, 217.7520
242.9300, 253.8623
244.1460, 206.9719
245.3610, 230.6646
246.5770, 189.9885
247.7920, 266.4082
249.0070, 168.8921
250.2220, 215.4849
251.4370, 277.1567
252.6510, 259.9031
253.8660, 286.7202
255.0800, 246.6047
256.2940, 266.5527
257.5080, 266.5623
258.7220, 333.6304
259.9360, 310.4478
261.1490, 307.1865
262.3630, 308.1626
263.5760, 256.4429
264.7890, 280.7710
266.0020, 250.1465
267.2150, 246.8508
268.4270, 248.1077
269.6400, 245.5371
270.8520, 253.0845
272.0640, 258.0127
273.2760, 284.2979
274.4880, 298.0073
275.7000, 375.1138
276.9120, 395.8491
278.1230, 405.8816
279.3340, 387.5852
280.5450, 404.7432
281.7560, 358.6133
282.9670, 333.5151
284.1780, 360.2373
285.3880, 393.4314
286.5980, 413.4248
287.8090, 421.5107
289.0190, 379.5615
290.2290, 448.2732
291.4380, 451.3789
292.6480, 456.8765
293.8570, 504.5508
295.0670, 490.6064
296.2760, 521.1562
297.4850, 537.5603
298.6930, 564.9043
299.9020, 586.7332
301.1110, 614.5806
302.3190, 675.5725
303.5270, 686.7051
304.7350, 710.5378
305.9430, 770.9182
307.1510, 837.6980
308.3580, 942.1167
309.5660, 1016.097
310.7730, 1073.947
311.9800, 1209.574
313.1870, 1292.692
314.3940, 1409.924
315.6010, 1490.058
316.8070, 1537.998
318.0130, 1620.561
319.2200, 1720.142
320.4260, 1746.741
321.6310, 1726.357
322.8370, 1690.992
324.0430, 1891.642
325.2480, 2121.310
326.4540, 2227.995
327.6590, 2442.696
328.8640, 2703.414
330.0680, 2861.146
331.2730, 3339.896
332.4780, 3643.661
333.6820, 4116.440
334.8860, 4330.233
336.0900, 4743.042
337.2940, 5176.863
338.4980, 5633.697
339.7010, 6327.546
340.9050, 7125.405
342.1080, 7983.278
343.3110, 8960.160
344.5140, 9996.056
345.7170, 11174.96
346.9200, 12168.87
348.1220, 13162.80
349.3240, 13599.73
350.5270, 13691.68
351.7290, 13349.63
352.9310, 12345.60
354.1320, 11004.57
355.3340, 9566.557
356.5350, 8198.548
357.7370, 7009.550
358.9380, 6002.560
360.1390, 5356.580
361.3400, 4806.606
362.5400, 4404.642
363.7410, 4177.687
364.9410, 3896.738
366.1410, 3900.798
367.3410, 3874.867
368.5410, 3911.943
369.7410, 4019.026
370.9400, 3986.117
372.1400, 3936.215
373.3390, 3879.319
374.5380, 3728.432
375.7370, 3493.552
376.9360, 3162.677
378.1350, 2707.811
379.3330, 2437.950
380.5310, 2162.097
381.7300, 1796.250
382.9280, 1474.420
384.1260, 1307.604
385.3230, 1096.805
386.5210, 852.0227
387.7180, 778.2556
388.9160, 676.5054
390.1130, 598.7720
391.3100, 513.0559
392.5060, 409.3550
393.7030, 405.6721
394.9000, 423.0142
396.0960, 285.3943
397.2920, 283.7905
398.4880, 331.2000
399.6840, 197.6206
400.8800, 229.0579
402.0750, 181.5171
403.2710, 128.0125
404.4660, 64.52222
405.6610, 113.0481
406.8560, 62.59375
408.0510, 96.16260
409.2450, 56.74341
410.4400, 88.33252
411.6340, 44.93652
412.8280, 87.55542
414.0220, 41.18164
415.2160, 38.82080
416.4100, 54.47754
417.6030, 0.8496090
418.7970, 33.15942
419.9900, 23.54053
421.1830, 47.26001
422.3760, 46.00073
423.5690, 29.26294
424.7610, 7.477783
425.9540, 6.230957
427.1460, 90.00220
428.3380, 44.26807
429.5300, 29.46021
430.7220, 109.8018
431.9140, 47.89160
433.1050, 49.40625
434.2970, 5.279053
435.4880, 25.02954
436.6790, 80.34619
437.8700, 51.69897
439.0610, 23.07495
440.2510, 19.45435
441.4420, 35.84302
442.6320, 6.247070
443.8220, 94.65308
445.0120, 62.10571
446.2020, 46.58936
447.3910, 3.096924
448.5810, 11.39673
449.7700, 38.10913
450.9600, 26.36523
452.1490, 8.840088
453.3370, 9.685059
454.5260, 5.789063
455.7150, 3.739014
456.9030, 5.272949
458.0910, 26.18530
459.2800, 30.64575
460.4670, 44.10205
461.6550, 71.57080
462.8430, 38.05127
464.0300, 55.53101
465.2180, 152.0103
466.4050, 39.48804
467.5920, 170.9646
468.7790, 178.4395
469.9650, 214.9126
471.1520, 153.3840
472.3380, 354.8535
473.5250, 275.3208
474.7110, 412.7859
475.8970, 424.2581
477.0820, 511.7280
478.2680, 502.1951
479.4540, 676.6592
480.6390, 602.1206
481.8240, 724.5786
483.0090, 692.0334
484.1940, 636.4846
485.3780, 592.9324
486.5630, 560.3765
487.7470, 477.8169
488.9320, 508.2534
490.1160, 506.6858
491.3000, 615.1138
492.4830, 674.5378
493.6670, 737.9570
494.8500, 814.3721
496.0340, 1064.782
497.2170, 1238.188
498.4000, 1369.588
499.5820, 1602.991
500.7650, 1798.398
501.9480, 1952.804
503.1300, 2005.213
504.3120, 1870.617
505.4940, 1733.016
506.6760, 1607.408
507.8580, 1265.794
509.0390, 1113.176
510.2210, 989.5530
511.4020, 795.9304
512.5830, 756.3015
513.7640, 690.6672
514.9450, 707.0259
516.1250, 577.3848
517.3060, 648.7454
518.4860, 587.0991
519.6660, 600.4583
520.8460, 622.0173
522.0260, 606.3721
523.2060, 630.7192
524.3850, 588.0854
525.5650, 524.4180
526.7440, 589.7422
527.9230, 629.2952
529.1020, 594.6089
530.2810, 645.2744
531.4590, 562.5652
532.6380, 645.5938
533.8160, 666.1372
534.9940, 674.5281
536.1720, 789.5950
537.3500, 759.8140
538.5270, 830.0693
539.7050, 878.6304
540.8820, 961.8550
542.0590, 1086.760
543.2360, 1197.267
544.4130, 1400.473
545.5900, 1592.734
546.7660, 1808.255
547.9430, 1945.958
549.1190, 2436.254
550.2950, 2672.150
551.4710, 3198.300
552.6470, 3646.896
553.8220, 4106.570
554.9980, 4583.668
556.1730, 5023.970
557.3480, 5205.362
558.5230, 5386.542
559.6980, 5135.213
560.8730, 4948.695
562.0470, 4440.809
563.2220, 3715.964
564.3960, 3157.682
565.5700, 2575.667
566.7440, 2189.204
567.9170, 1806.104
569.0910, 1532.193
570.2640, 1258.088
571.4380, 1172.199
572.6110, 1028.907
573.7840, 882.7632
574.9570, 822.6541
576.1290, 790.1526
577.3020, 744.9854
578.4740, 630.4077
579.6460, 671.3137
580.8180, 614.2124
581.9900, 720.7910
583.1620, 679.7332
584.3330, 629.3110
585.5040, 633.4658
586.6760, 630.0862
587.8470, 681.3164
589.0180, 662.5676
590.1880, 629.1824
591.3590, 605.5742
592.5290, 478.1584
593.7000, 461.7793
594.8700, 384.1736
596.0400, 362.5581
597.2090, 387.6396
598.3790, 320.4287
599.5490, 390.9817
600.7180, 386.1880
601.8870, 459.4055
603.0560, 435.4868
604.2250, 487.0469
605.3940, 507.4585
606.5620, 385.8535
607.7300, 400.2322
608.8990, 320.5947
610.0670, 356.9409
611.2350, 309.2705
612.4020, 317.5840
613.5700, 229.8809
614.7370, 254.1611
615.9050, 221.4858
617.0720, 186.7329
618.2390, 300.9634
619.4060, 277.1768
620.5720, 279.3738
621.7390, 317.5537
622.9050, 334.7168
624.0710, 308.8630
625.2370, 385.9927
626.4030, 433.1055
627.5690, 501.2012
628.7340, 565.8389
629.9000, 628.5686
631.0650, 696.3867
632.2300, 779.4146
633.3950, 849.0532
634.5600, 957.4192
635.7240, 945.3960
636.8890, 1027.356
638.0530, 1043.299
639.2170, 865.7437
640.3810, 794.5889
641.5450, 731.4548
642.7080, 743.0352
643.8720, 485.8921
645.0350, 388.7310
646.1980, 431.5525
647.3610, 429.3567
648.5240, 370.4402
649.6870, 363.3892
650.8490, 325.6997
652.0120, 301.5557
653.1740, 249.0493
654.3360, 258.7483
655.4980, 216.7583
656.6600, 192.2942
657.8210, 240.9399
658.9830, 168.3530
660.1440, 68.05078
661.3050, 163.5342
662.4660, 162.1301
663.6270, 94.68433
664.7870, 109.2202
665.9480, 106.7380
667.1080, 65.23804
668.2680, 98.71777
669.4280, 55.17969
670.5880, 111.6204
671.7480, 36.04272
672.9070, 60.44092
674.0670, 73.81836
675.2260, 8.822754
676.3850, 59.50659
677.5440, 24.74072
678.7030, 52.96094
679.8610, 94.16040
681.0200, 16.34229
682.1780, 9.505127
683.3360, 62.39404
684.4940, 19.64795
685.6520, 12.66235
686.8090, 8.352539
687.9670, 18.40771
689.1240, 26.49219
690.2810, 81.36816
691.4380, 7.226563
692.5950, 5.054443
693.7520, 81.85107
694.9080, 10.63037
696.0650, 8.618408
697.2210, 5.904541
698.3770, 15.22656
699.5330, 34.58862
700.6880, 22.99341
701.8440, 24.41333
702.9990, 20.81836
704.1550, 12.46021
705.3100, 1.015625
706.4650, 7.601807
707.6190, 8.778564
708.7740, 12.84497
709.9290, 2.506592
711.0830, 7.831299
712.2370, 5.158447
713.3910, 11.35596
714.5450, 10.75342
715.6980, 20.02515
716.8520, 36.28467
718.0050, 60.54858
719.1580, 6.189453
720.3110, 57.05078
721.4640, 19.28247
722.6170, 12.50684
723.7700, 53.71631
724.9220, 56.93579
726.0740, 63.15796
727.2260, 3.620850
728.3780, 64.57959
729.5300, 22.76636
730.6810, 77.94971
731.8330, 30.11987
732.9840, 16.72339
734.1350, 67.40967
735.2860, 15.53149
736.4370, 45.64233
737.5880, 30.74512
738.7380, 55.83521
739.8880, 32.08618
741.0390, 35.04175
742.1890, 13.96729
743.3380, 111.9641
744.4880, 50.94971
745.6380, 48.92456
746.7870, 65.88867
747.9360, 44.84253
749.0850, 89.78613
750.2340, 88.71997
751.3830, 79.64404
752.5310, 104.5581
753.6800, 32.53735
754.8280, 50.33936
755.9760, 28.20630
757.1240, 96.06445
758.2720, 26.91333
759.4190, 65.75391
760.5670, 29.58545
761.7140, 85.40845
762.8610, 23.22339
764.0080, 69.03003
765.1550, 14.82837
766.3020, 91.61865
767.4480, 64.40161
768.5950, 38.17627
769.7410, 51.94385
770.8870, 87.70386
772.0330, 29.45679
773.1780, 4.202637
774.3240, 53.94116
775.4690, 24.67334
776.6140, 36.60156
777.7590, 43.89795
778.9040, 29.21826
780.0490, 41.55542
781.1940, 12.08496
782.3380, 4.719482
783.4820, 32.34839
784.6260, 38.97144
785.7700, 15.41113
786.9140, 10.80225
788.0580, 41.20068
789.2010, 11.38184
790.3450, 5.040527
791.4880, 30.53149
792.6310, 42.90112
793.7730, 52.35107
794.9160, 45.17651
796.0590, 68.29956
797.2010, 6.805664
798.3430, 55.52271
799.4850, 1.054932
800.6270, 23.40845
801.7690, 42.84229
802.9100, 12.29907
804.0520, 57.75342
805.1930, 25.96826
806.3340, 45.72363
807.4750, 12.49243
808.6160, 75.93628
809.7560, 169.6323
810.8970, 199.8022
812.0370, 164.1147
813.1770, 139.7397
814.3170, 147.2021
815.4570, 140.1318
816.5960, 155.7163
817.7360, 176.1416
818.8750, 145.2886
820.0140, 176.9961
821.1530, 188.4077
822.2920, 217.7534
823.4310, 110.8291
824.5690, 241.7114
825.7070, 103.9912
826.8460, 159.6626
827.9840, 222.0703
829.1220, 109.0205
830.2590, 153.8838
831.3970, 177.3223
832.5340, 97.55078
833.6710, 137.6787
834.8080, 182.0112
835.9450, 168.7930
837.0820, 147.3965
838.2190, 191.7710
839.3550, 120.0981
840.4910, 191.6934
841.6270, 215.8535
842.7630, 244.7881
843.8990, 241.3506
845.0350, 363.9395
846.1700, 354.2920
847.3060, 366.6533
848.4410, 412.3442
849.5760, 536.9419
850.7100, 688.8633
851.8450, 632.8018
852.9800, 815.0322
854.1140, 799.5132
855.2480, 964.1475
856.3820, 1135.310
857.5160, 1237.955
858.6500, 1385.312
859.7830, 1642.562
860.9170, 1890.234
862.0500, 2074.932
863.1830, 2245.647
864.3160, 2427.278
865.4480, 2594.011
866.5810, 2758.580
867.7130, 2597.351
868.8460, 2504.040
869.9780, 2348.111
871.1100, 2258.933
872.2410, 2079.588
873.3730, 1977.443
874.5050, 1947.258
875.6360, 1766.152
876.7670, 1711.592
877.8980, 1680.904
879.0290, 1655.750
880.1590, 1650.743
881.2900, 1642.760
882.4200, 1708.802
883.5500, 1745.874
884.6800, 1865.979
885.8100, 1870.108
886.9400, 2049.256
888.0690, 2176.424
889.1990, 2381.604
890.3280, 2678.734
891.4570, 2827.945
892.5860, 3147.167
893.7140, 3313.401
894.8430, 3731.648
895.9710, 4061.908
897.1000, 4508.179
898.2280, 4927.463
899.3560, 5348.759
900.4830, 5798.068
901.6110, 6358.391
902.7380, 7161.726
903.8660, 7784.073
904.9930, 8600.435
906.1200, 10047.81
907.2460, 11255.20
908.3730, 13183.59
909.5000, 15248.01
910.6260, 18107.44
911.7520, 21229.88
912.8780, 25178.81
914.0040, 29656.34
915.1290, 34469.85
916.2550, 39478.64
917.3800, 44223.14
918.5050, 48201.67
919.6300, 50626.21
920.7550, 51548.76
921.8800, 49723.03
923.0040, 46354.43
924.1290, 41394.65
925.2530, 35668.25
926.3770, 30281.81
927.5010, 25345.44
928.6250, 21292.78
929.7480, 17722.58
930.8720, 14775.26
931.9950, 12363.18
933.1180, 10502.81
934.2410, 8950.647
935.3640, 7651.375
936.4860, 6579.142
937.6090, 5755.924
938.7310, 4969.721
939.8530, 4493.535
940.9750, 3913.367
942.0970, 3517.214
943.2180, 3112.448
944.3400, 2586.961
945.4610, 2496.863
946.5820, 2179.781
947.7030, 2051.718
948.8240, 1806.682
949.9450, 1681.689
951.0650, 1427.717
952.1860, 1458.764
953.3060, 1233.826
954.4260, 1178.912
955.5460, 1037.026
956.6650, 1036.183
957.7850, 962.3618
958.9040, 969.5630
960.0230, 930.7930
961.1420, 851.4604
962.2610, 796.7412
963.3800, 704.0391
964.4990, 728.3604
965.6170, 708.1206
966.7350, 764.0239
967.8530, 649.4082
968.9710, 687.8228
970.0890, 574.2607
971.2070, 686.7295
972.3240, 578.7339
973.4410, 520.8848
974.5580, 604.0459
975.6750, 634.6377
976.7920, 651.5229
977.9090, 616.1650
979.0250, 586.1353
980.1410, 660.3525
981.2580, 603.3501
982.3740, 610.0864
983.4890, 652.8423
984.6050, 614.6191
985.7200, 588.4141
986.8360, 643.2285
987.9510, 620.0591
989.0660, 589.9062
990.1810, 585.7686
991.2950, 545.6528
992.4100, 494.3862
993.5240, 479.4258
994.6390, 446.0552
995.7530, 432.3525
996.8660, 426.3169
997.9800, 423.2959
999.0940, 464.2954
1000.207, 463.3169
1001.320, 376.7373
1002.433, 476.7812
1003.546, 351.9028
1004.659, 393.9844
1005.772, 345.6172
1006.884, 455.5049
1007.996, 345.9609
1009.108, 351.6772
1010.220, 392.3555
1011.332, 428.1045
1012.444, 401.1309
1013.555, 470.1567
1014.666, 389.1401
1015.777, 467.5630
1016.888, 494.0776
1017.999, 504.4854
1019.110, 551.2100
1020.220, 555.5029
1021.331, 551.4536
1022.441, 615.7554
1023.551, 634.0674
1024.661, 662.4077
1025.770, 734.2246
1026.880, 742.5762
1027.989, 778.9497
1029.098, 869.3330
1030.207, 923.7261
1031.316, 952.1294
1032.425, 1064.542
1033.533, 1101.964
1034.642, 1112.396
1035.750, 1244.836
1036.858, 1246.286
1037.966, 1403.745
1039.073, 1414.213
1040.181, 1619.690
1041.288, 1653.176
1042.396, 1663.670
1043.503, 1911.173
1044.610, 1907.686
1045.716, 1970.206
1046.823, 2016.741
1047.929, 2068.294
1049.036, 1993.860
1050.142, 2021.442
1051.248, 1743.033
1052.353, 1693.631
1053.459, 1622.238
1054.564, 1561.852
1055.670, 1344.474
1056.775, 1182.105
1057.880, 994.7515
1058.985, 893.4043
1060.089, 813.0654
1061.194, 678.7339
1062.298, 612.4175
1063.402, 528.1167
1064.506, 429.8223
1065.610, 423.5483
1066.713, 423.2817
1067.817, 303.0366
1068.920, 280.7974
1070.023, 303.5645
1071.126, 240.3374
1072.229, 269.1162
1073.332, 233.9019
1074.435, 242.6997
1075.537, 197.5034
1076.639, 88.31201
1077.741, 126.1309
1078.843, 196.9551
1079.945, 103.7842
1081.046, 234.6191
1082.148, 184.4614
1083.249, 153.3140
1084.350, 142.1802
1085.451, 137.1924
1086.551, 171.9346
1087.652, 162.8306
1088.752, 161.7305
1089.853, 176.6338
1090.953, 108.5415
1092.053, 66.45312
1093.152, 14.63232
1094.252, 101.2832
1095.351, 70.20166
1096.451, 57.12402
1097.550, 52.95166
1098.649, 16.04688
1099.748, 3.854004
1100.846, 2.756348
1101.945, 25.66016
1103.043, 2.720215
1104.141, 33.04150
1105.239, 15.12109
1106.337, 14.23438
1107.434, 41.66455
1108.532, 59.43652
1109.629, 4.433594
1110.726, 58.64502
1111.823, 77.48438
1112.920, 4.684082
1114.017, 32.11084
1115.113, 36.90674
1116.210, 164.7012
1117.306, 41.49512
1118.402, 226.2881
1119.498, 219.0791
1120.593, 150.8706
1121.689, 202.6606
1122.784, 240.4492
1123.879, 246.2544
1124.974, 202.0586
1126.069, 140.9824
1127.164, 111.7847
1128.259, 145.5850
1129.353, 57.38428
1130.447, 63.18213
1131.541, 10.97705
1132.635, 63.23096
1133.729, 13.51904
1134.822, 72.73096
1135.916, 26.97217
1137.009, 31.32764
1138.102, 18.65479
1139.195, 11.00146
1140.288, 14.36523
1141.380, 76.73438
1142.473, 29.15576
1143.565, 48.60400
1144.657, 8.9844003E-02
1145.749, 30.58887
1146.841, 36.93359
1147.932, 53.67773
1149.024, 67.28076
1150.115, 23.93359
1151.206, 13.61230
1152.297, 13.31396
1153.388, 30.96289
1154.479, 38.69287
1155.569, 6.498047
1156.659, 57.74951
1157.750, 84.99268
1158.839, 45.85449
1159.929, 81.08594
1161.019, 64.50342
1162.108, 33.72412
1163.198, 109.9390
1164.287, 109.1479
1165.376, 143.3516
1166.465, 102.5493
1167.553, 65.73975
1168.642, 208.9253
1169.730, 123.1040
1170.818, 204.2769
1171.906, 74.44287
1172.994, 220.6025
1174.082, 147.7559
1175.170, 188.9023
1176.257, 225.0425
1177.344, 127.1758
1178.431, 139.3027
1179.518, 103.4224
1180.605, 148.5347
1181.691, 175.6396
1182.778, 194.7378
1183.864, 208.3281
1184.950, 222.9116
1186.036, 184.9878
1187.122, 214.0562
1188.207, 142.1367
1189.292, 108.2090
1190.378, 171.3354
1191.463, 167.6245
1192.548, 238.7817
1193.632, 191.8037
1194.717, 197.5947
1195.801, 166.9580
1196.886, 162.0566
1197.970, 151.3262
1199.054, 148.3076
1200.137, 156.2798
1201.221, 193.2437
1202.305, 151.1987
1203.388, 232.2222
1204.471, 191.8110
1205.554, 239.1694
1206.637, 223.8921
1207.719, 288.6616
1208.802, 200.5620
1209.884, 152.5010
1210.966, 170.5132
1212.048, 88.86523
1213.130, 199.0908
1214.212, 213.0093
1215.293, 152.0879
1216.374, 94.80273
1217.456, 188.5151
1218.536, 186.3726
1219.617, 154.1753
1220.698, 175.2480
1221.778, 110.0303
1222.859, 122.9258
1223.939, 171.9653
1225.019, 109.7153
1226.099, 117.7158
1227.178, 92.44385
1228.258, 189.7471
1229.337, 135.0571
1230.417, 166.7534
1231.496, 148.4370
1232.574, 77.11182
1233.653, 46.81006
1234.732, 77.95654
1235.810, 112.9761
1236.888, 104.1934
1237.966, 120.8101
1239.044, 115.1675
1240.122, 73.76270
1241.199, 49.04395
1242.277, 175.1187
1243.354, 114.3960
1244.431, 100.9458
1245.508, 126.4849
1246.585, 301.0137
1247.661, 89.53271
1248.738, 271.0405
1249.814, 104.6250
1250.890, 140.2432
1251.966, 141.7197
1253.042, 280.3081
1254.117, 181.9375
1255.193, 63.38379
1256.268, 176.1704
1257.343, 197.5933
1258.418, 89.28955
1259.493, 122.6914
1260.567, 146.0825
1261.642, 279.5068
1262.716, 165.4858
1263.790, 136.5786
1264.864, 285.8633
1265.938, 150.2021
1267.011, 161.9922
1268.085, 208.5322
1269.158, 165.5078
1270.231, 256.1416
1271.304, 189.9023
