##NAMES=Almandine
##RRUFFID=R050029
##IDEAL CHEMISTRY=Fe^2+^_3_Al_2_(SiO_4_)_3_
##LOCALITY=Barton Garnet mine, Gore Mountain, Warren County, New York, USA
##OWNER=RRUFF
##SOURCE=University of Arizona Mineral Museum
##DESCRIPTION=Reddish brown fragments
##STATUS=The identification of this mineral has been confirmed by X-ray diffraction and chemical analysis
##URL=rruff.info/R050029
##MEASURED CHEMISTRY=(Fe^2+^_1.34_Mg_1.26_Ca_0.37_Mn_0.03_)_Î£=3_Al_2.00_(Si_1.00_O_4_)_3_
##PIN_ID=L00523
##ORIENTATION=Laser parallel to a* (1 0 0). Fiducial mark perpendicular to laser is parallel to b [0 1 0]
83.667, 0.000
85.064, 63.281
86.461, 0.425
87.858, 22.526
89.254, 44.098
90.650, 43.880
92.046, 87.425
93.442, 111.248
94.838, 113.274
96.233, 99.647
97.628, 97.740
99.023, 90.884
100.418, 71.350
101.812, 24.204
103.206, 2.544
104.600, 64.968
105.994, 163.151
107.387, 120.591
108.781, 169.991
110.174, 208.636
111.566, 264.454
112.959, 376.896
114.351, 342.125
115.744, 348.509
117.136, 237.472
118.527, 182.568
119.919, 118.138
121.310, 139.185
122.701, 117.386
124.092, 159.688
125.482, 124.344
126.873, 123.977
128.263, 120.632
129.653, 103.382
131.042, 102.183
132.432, 110.801
133.821, 102.031
135.210, 124.956
136.599, 152.333
137.987, 167.777
139.376, 175.940
140.764, 167.209
142.152, 145.349
143.539, 176.222
144.927, 166.694
146.314, 110.461
147.701, 150.085
149.088, 98.672
150.474, 127.094
151.861, 90.293
153.247, 66.028
154.633, 73.184
156.018, 54.954
157.404, 4.747
158.789, 9.358
160.174, 8.046
161.559, 18.947
162.943, 30.833
164.327, 0.446
165.711, 18.921
167.095, 7.646
168.479, 68.353
169.862, 121.178
171.246, 197.110
172.628, 286.136
174.011, 388.250
175.394, 519.438
176.776, 553.682
178.158, 509.973
179.540, 470.316
180.922, 404.698
182.303, 337.112
183.684, 275.029
185.065, 200.120
186.446, 127.579
187.826, 79.111
189.207, 41.726
190.587, 5.853
191.967, 2.366
193.346, 1.098
194.726, 13.461
196.105, 5.048
197.484, 35.669
198.862, 32.331
200.241, 20.035
201.619, 4.212
202.997, 25.405
204.375, 15.524
205.753, 7.558
207.130, 15.514
208.507, 10.584
209.884, 1.195
211.261, 20.982
212.638, 21.748
214.014, 40.494
215.390, 74.219
216.766, 67.923
218.141, 102.602
219.517, 46.241
220.892, 57.819
222.267, 103.333
223.642, 62.771
225.016, 130.116
226.391, 135.407
227.765, 163.656
229.139, 152.864
230.512, 129.029
231.886, 138.159
233.259, 148.690
234.632, 177.342
236.005, 197.396
237.377, 205.429
238.749, 235.447
240.122, 219.449
241.493, 255.437
242.865, 233.412
244.237, 256.380
245.608, 248.339
246.979, 225.292
248.350, 265.239
249.720, 274.733
251.090, 282.710
252.461, 296.881
253.830, 275.744
255.200, 298.153
256.570, 301.424
257.939, 293.686
259.308, 308.779
260.677, 282.754
262.045, 317.694
263.414, 343.633
264.782, 337.335
266.150, 373.947
267.517, 343.060
268.885, 345.650
270.252, 348.747
271.619, 356.824
272.986, 409.192
274.353, 400.071
275.719, 405.844
277.085, 433.613
278.451, 417.140
279.817, 434.858
281.182, 420.196
282.548, 454.559
283.913, 433.391
285.278, 462.254
286.642, 473.493
288.007, 483.171
289.371, 513.259
290.735, 519.918
292.099, 494.302
293.462, 560.318
294.826, 579.186
296.189, 612.103
297.552, 557.708
298.914, 594.377
300.277, 571.005
301.639, 590.609
303.001, 628.318
304.363, 621.947
305.724, 681.227
307.086, 683.463
308.447, 742.465
309.808, 761.561
311.168, 769.235
312.529, 843.022
313.889, 828.443
315.249, 939.161
316.609, 940.372
317.969, 993.478
319.328, 1068.543
320.687, 1136.303
322.046, 1219.289
323.405, 1296.009
324.764, 1413.788
326.122, 1537.069
327.480, 1673.510
328.838, 1905.982
330.196, 2082.251
331.553, 2294.100
332.910, 2564.932
334.267, 2800.384
335.624, 3083.717
336.981, 3364.609
338.337, 3711.490
339.693, 4045.360
341.049, 4288.220
342.405, 4609.067
343.760, 5064.904
345.116, 5697.729
346.471, 6175.542
347.826, 7129.344
349.180, 7809.827
350.535, 8908.997
351.889, 9690.862
353.243, 10592.386
354.597, 10952.693
355.950, 10933.225
357.304, 10583.980
358.657, 9823.830
360.010, 9014.210
361.362, 8087.678
362.715, 7167.361
364.067, 6641.826
365.419, 5915.744
366.771, 5541.041
368.123, 5224.193
369.474, 4905.206
370.825, 4736.374
372.176, 4442.472
373.527, 4233.357
374.877, 4100.635
376.228, 3808.926
377.578, 3594.447
378.928, 3293.260
380.277, 3053.025
381.627, 2851.025
382.976, 2621.632
384.325, 2354.339
385.674, 2046.356
387.023, 1911.120
388.371, 1644.245
389.719, 1463.394
391.067, 1302.669
392.415, 1154.914
393.762, 1014.057
395.110, 894.242
396.457, 788.474
397.804, 728.829
399.150, 617.277
400.497, 546.757
401.843, 495.361
403.189, 391.895
404.535, 382.512
405.881, 327.105
407.226, 318.714
408.571, 295.008
409.916, 244.876
411.261, 257.471
412.605, 205.038
413.950, 178.579
415.294, 128.103
416.638, 139.599
417.981, 127.069
419.325, 107.516
420.668, 91.941
422.011, 85.347
423.354, 61.727
424.697, 32.084
426.039, 47.413
427.381, 15.719
428.723, 34.998
430.065, 10.254
431.406, 13.488
432.748, 11.703
434.089, 6.107
435.430, 32.062
436.770, 31.207
438.111, 8.329
439.451, 40.428
440.791, 4.495
442.131, 35.558
443.471, 40.411
444.810, 16.419
446.149, 0.547
447.488, 14.507
448.827, 28.585
450.166, 17.707
451.504, 15.826
452.842, 10.981
454.180, 1.157
455.518, 0.650
456.855, 3.560
458.193, 56.212
459.530, 21.970
460.867, 47.713
462.203, 66.441
463.540, 29.154
464.876, 28.851
466.212, 67.533
467.548, 18.205
468.883, 90.862
470.219, 44.508
471.554, 57.140
472.889, 75.762
474.224, 72.372
475.558, 52.972
476.892, 95.560
478.227, 65.140
479.561, 87.711
480.894, 110.274
482.228, 83.830
483.561, 103.382
484.894, 128.932
486.227, 108.479
487.559, 105.029
488.892, 123.574
490.224, 142.118
491.556, 129.665
492.888, 144.209
494.220, 163.746
495.551, 154.274
496.882, 178.792
498.213, 192.298
499.544, 221.791
500.874, 276.273
502.205, 297.743
503.535, 362.201
504.865, 383.647
506.194, 383.110
507.524, 384.568
508.853, 360.102
510.182, 371.640
511.511, 381.329
512.840, 355.045
514.168, 364.723
515.496, 361.421
516.824, 422.115
518.152, 429.765
519.480, 473.467
520.807, 518.094
522.134, 505.748
523.461, 552.811
524.788, 590.539
526.114, 575.243
527.441, 598.918
528.767, 603.771
530.093, 617.941
531.418, 651.992
532.744, 673.542
534.069, 704.332
535.394, 729.476
536.719, 778.925
538.044, 814.065
539.368, 874.319
540.693, 992.114
542.017, 1051.282
543.340, 1194.087
544.664, 1321.914
545.987, 1488.866
547.311, 1763.375
548.634, 1981.174
549.956, 2454.867
551.279, 2718.648
552.601, 3226.125
553.923, 3790.743
555.245, 4453.570
556.567, 4878.167
557.889, 5263.417
559.210, 5193.775
560.531, 4843.268
561.852, 4313.606
563.173, 3641.313
564.493, 2952.234
565.813, 2427.869
567.133, 1939.905
568.453, 1603.360
569.773, 1312.786
571.092, 1111.468
572.412, 904.003
573.731, 753.999
575.049, 718.049
576.368, 619.096
577.686, 572.777
579.005, 524.293
580.323, 503.778
581.640, 439.550
582.958, 448.634
584.275, 408.117
585.593, 419.837
586.909, 378.183
588.226, 394.650
589.543, 350.842
590.859, 351.246
592.175, 378.500
593.491, 337.399
594.807, 349.779
596.122, 368.021
597.438, 331.125
598.753, 365.354
600.068, 375.318
601.382, 368.539
602.697, 425.573
604.011, 407.418
605.325, 435.415
606.639, 438.901
607.952, 433.561
609.266, 450.015
610.579, 413.451
611.892, 403.032
613.205, 359.913
614.518, 338.815
615.830, 229.613
617.142, 216.730
618.454, 204.693
619.766, 192.751
621.078, 202.876
622.389, 160.833
623.700, 139.778
625.011, 153.330
626.322, 169.207
627.632, 193.376
628.943, 180.340
630.253, 219.346
631.563, 238.418
632.872, 212.465
634.182, 264.419
635.491, 278.540
636.800, 283.523
638.109, 295.588
639.418, 336.737
640.726, 292.765
642.035, 333.862
643.343, 338.045
644.651, 304.142
645.958, 263.212
647.266, 281.349
648.573, 245.480
649.880, 197.598
651.187, 209.702
652.494, 223.792
653.800, 206.870
655.106, 165.935
656.412, 191.987
657.718, 154.026
659.024, 137.052
660.329, 125.065
661.634, 130.066
662.939, 99.053
664.244, 97.028
665.549, 74.989
666.853, 70.937
668.157, 31.872
669.461, 22.791
670.765, 29.695
672.069, 23.584
673.372, 23.254
674.675, 32.317
675.978, 19.160
677.281, 35.989
678.583, 29.803
679.886, 5.603
681.188, 5.616
682.490, 16.140
683.792, 20.881
685.093, 8.393
686.394, 13.692
687.696, 28.020
688.997, 4.383
690.297, 20.769
691.598, 2.187
692.898, 19.626
694.198, 31.001
695.498, 17.267
696.798, 58.138
698.097, 16.724
699.397, 11.338
700.696, 43.977
701.995, 1.342
703.293, 17.642
704.592, 13.071
705.890, 27.810
707.188, 61.581
708.486, 9.597
709.784, 12.238
711.081, 16.097
712.378, 12.982
713.675, 39.891
714.972, 15.163
716.269, 3.204
717.565, 11.231
718.862, 1.755
720.158, 5.757
721.453, 1.778
722.749, 8.815
724.045, 0.129
725.340, 0.058
726.635, 5.026
727.930, 3.128
729.224, 27.245
730.519, 8.610
731.813, 16.455
733.107, 9.710
734.401, 8.893
735.694, 26.092
736.988, 9.685
738.281, 6.548
739.574, 16.207
740.867, 2.047
742.160, 23.689
743.452, 9.419
744.744, 50.141
746.036, 19.143
747.328, 23.556
748.620, 15.751
749.911, 4.929
751.202, 32.601
752.493, 42.268
753.784, 35.930
755.075, 24.586
756.365, 24.238
757.655, 44.885
758.945, 8.464
760.235, 27.180
761.525, 43.821
762.814, 8.459
764.103, 33.099
765.392, 14.737
766.681, 43.374
767.969, 48.009
769.258, 41.641
770.546, 65.269
771.834, 21.894
773.122, 36.515
774.409, 70.133
775.697, 47.746
776.984, 18.355
778.271, 65.961
779.558, 14.436
780.844, 23.157
782.131, 22.748
783.417, 56.335
784.703, 46.918
785.989, 10.498
787.274, 58.075
788.560, 39.648
789.845, 70.218
791.130, 72.784
792.415, 35.348
793.699, 71.908
794.983, 44.465
796.268, 90.019
797.552, 97.570
798.835, 104.119
800.119, 141.664
801.402, 156.207
802.686, 178.747
803.969, 196.283
805.251, 207.818
806.534, 248.349
807.816, 270.879
809.098, 268.411
810.380, 305.941
811.662, 298.469
812.944, 382.000
814.225, 327.536
815.506, 402.070
816.787, 411.602
818.068, 406.103
819.349, 363.598
820.629, 381.002
821.909, 380.391
823.189, 368.617
824.469, 405.806
825.749, 419.026
827.028, 432.223
828.307, 410.422
829.586, 433.667
830.865, 406.870
832.144, 417.155
833.422, 445.428
834.700, 440.525
835.978, 437.531
837.256, 467.785
838.534, 486.066
839.811, 506.175
841.088, 522.964
842.365, 566.866
843.642, 599.265
844.919, 612.659
846.195, 687.240
847.472, 740.449
848.748, 868.543
850.023, 913.224
851.299, 956.363
852.575, 1093.119
853.850, 1112.235
855.125, 1133.331
856.400, 1245.292
857.674, 1387.690
858.949, 1454.791
860.223, 1492.988
861.497, 1549.088
862.771, 1595.489
864.045, 1644.740
865.318, 1542.773
866.591, 1488.156
867.864, 1540.818
869.137, 1573.126
870.410, 1583.302
871.682, 1384.896
872.955, 1434.990
874.227, 1476.861
875.499, 1458.008
876.770, 1466.744
878.042, 1553.051
879.313, 1692.378
880.584, 1703.437
881.855, 1876.635
883.126, 1845.362
884.396, 2095.934
885.667, 2149.551
886.937, 2369.472
888.207, 2498.470
889.476, 2704.427
890.746, 2937.062
892.015, 3215.281
893.284, 3469.969
894.553, 3804.477
895.822, 4106.222
897.090, 4612.920
898.359, 5071.782
899.627, 5759.442
900.895, 6512.239
902.163, 7276.162
903.430, 8707.909
904.698, 10056.782
905.965, 11635.692
907.232, 14084.608
908.499, 16703.490
909.765, 19982.387
911.032, 24061.328
912.298, 27849.867
913.564, 32718.809
914.830, 36767.789
916.095, 39346.691
917.361, 40695.668
918.626, 40054.621
919.891, 37103.637
921.156, 34082.645
922.420, 28671.668
923.685, 25120.703
924.949, 20789.742
926.213, 17458.799
927.477, 14847.855
928.740, 12336.927
930.004, 10696.008
931.267, 9145.095
932.530, 7890.735
933.793, 6987.843
935.056, 5958.958
936.318, 5308.086
937.581, 4699.223
938.843, 4130.367
940.104, 3744.524
941.366, 3244.689
942.628, 2895.864
943.889, 2678.050
945.150, 2404.254
946.411, 2300.459
947.672, 2009.674
948.932, 1916.048
950.193, 1760.370
951.453, 1638.614
952.713, 1552.898
953.973, 1387.186
955.232, 1355.461
956.491, 1356.825
957.751, 1186.121
959.010, 1176.631
960.268, 1158.063
961.527, 1113.389
962.785, 1024.751
964.044, 997.443
965.302, 973.133
966.559, 983.621
967.817, 907.998
969.075, 832.385
970.332, 856.147
971.589, 885.555
972.846, 854.973
974.102, 804.402
975.359, 834.843
976.615, 787.295
977.871, 739.759
979.127, 783.685
980.383, 690.580
981.638, 773.276
982.893, 705.848
984.149, 723.132
985.404, 721.457
986.658, 669.540
987.913, 671.245
989.167, 644.657
990.421, 623.194
991.675, 596.165
992.929, 566.780
994.183, 527.667
995.436, 545.494
996.689, 486.645
997.942, 500.374
999.195, 449.074
1000.448, 474.865
1001.700, 436.002
1002.952, 451.769
1004.204, 467.157
1005.456, 477.905
1006.708, 471.729
1007.959, 489.564
1009.210, 491.814
1010.461, 493.675
1011.712, 555.555
1012.963, 583.570
1014.213, 527.488
1015.464, 599.420
1016.714, 583.368
1017.964, 683.331
1019.214, 694.315
1020.463, 661.308
1021.712, 695.312
1022.962, 699.116
1024.210, 729.348
1025.459, 757.384
1026.708, 714.430
1027.956, 783.490
1029.204, 761.560
1030.452, 722.640
1031.700, 828.731
1032.948, 724.833
1034.195, 765.955
1035.442, 782.087
1036.689, 739.228
1037.936, 780.380
1039.183, 761.544
1040.429, 803.723
1041.676, 838.911
1042.922, 816.110
1044.168, 894.319
1045.413, 842.538
1046.659, 853.768
1047.904, 851.008
1049.149, 809.256
1050.394, 789.486
1051.639, 733.792
1052.884, 695.080
1054.128, 642.381
1055.372, 567.690
1056.616, 548.011
1057.860, 423.342
1059.104, 408.683
1060.347, 375.031
1061.590, 310.387
1062.833, 289.752
1064.076, 251.123
1065.319, 190.501
1066.561, 182.885
1067.803, 189.278
1069.046, 148.678
1070.287, 163.085
1071.529, 120.503
1072.771, 163.931
1074.012, 140.366
1075.253, 121.809
1076.494, 112.258
1077.735, 114.715
1078.975, 83.178
1080.216, 100.647
1081.456, 79.122
1082.696, 77.615
1083.936, 47.114
1085.175, 27.620
1086.415, 68.131
1087.654, 65.657
1088.893, 57.192
1090.132, 64.731
1091.371, 62.276
1092.609, 51.825
1093.847, 0.379
1095.085, 53.941
1096.323, 67.508
1097.561, 6.921
1098.799, 4.347
1100.036, 20.238
1101.273, 1.173
1102.510, 0.576
1103.747, 5.025
1104.983, 3.371
1106.220, 34.235
1107.456, 7.155
1108.692, 26.544
1109.928, 5.059
1111.163, 0.334
1112.399, 29.725
1113.634, 29.125
1114.869, 3.534
1116.104, 4.058
1117.339, 3.031
1118.573, 8.748
1119.808, 9.849
1121.042, 16.448
1122.276, 46.910
1123.509, 43.227
1124.743, 65.260
1125.976, 37.870
1127.210, 8.519
1128.443, 25.911
1129.675, 38.313
1130.908, 35.733
1132.141, 46.478
1133.373, 30.631
1134.605, 42.106
1135.837, 37.601
1137.068, 11.116
1138.300, 47.637
1139.531, 4.182
1140.762, 7.270
1141.993, 1.278
1143.224, 33.828
1144.455, 22.396
1145.685, 4.022
1146.915, 8.439
1148.145, 3.857
1149.375, 19.727
1150.605, 9.675
1151.834, 5.923
1153.063, 27.528
1154.292, 26.848
1155.521, 10.224
1156.750, 1.402
1157.978, 12.967
1159.207, 28.335
1160.435, 12.299
1161.663, 36.055
1162.891, 27.407
1164.118, 59.757
1165.345, 55.105
1166.573, 45.450
1167.800, 66.871
1169.026, 88.211
1170.253, 59.547
1171.480, 109.911
1172.706, 114.242
1173.932, 108.569
1175.158, 126.996
1176.383, 143.317
1177.609, 152.634
1178.834, 159.128
1180.059, 145.420
1181.284, 143.425
1182.509, 142.133
1183.734, 90.462
1184.958, 143.845
1186.182, 96.134
1187.406, 161.482
1188.630, 106.904
1189.854, 74.370
1191.077, 147.024
1192.301, 126.748
1193.524, 143.647
1194.747, 115.577
1195.969, 120.225
1197.192, 130.063
1198.414, 135.583
1199.636, 130.111
1200.858, 134.320
1202.080, 119.537
1203.302, 134.531
1204.523, 102.607
1205.744, 108.482
1206.966, 132.011
1208.186, 100.503
1209.407, 107.777
1210.628, 145.093
1211.848, 118.377
1213.068, 98.573
1214.288, 123.653
1215.508, 67.944
1216.727, 128.344
1217.947, 124.690
1219.166, 102.916
1220.385, 115.484
1221.604, 78.304
1222.822, 132.485
1224.041, 117.178
1225.259, 89.659
1226.477, 123.771
1227.695, 113.223
1228.913, 89.963
1230.130, 135.208
1231.348, 57.677
1232.565, 105.118
1233.782, 116.461
1234.999, 72.458
1236.215, 110.562
1237.432, 103.938
1238.648, 102.021
1239.864, 110.071
1241.080, 98.238
1242.296, 80.392
1243.511, 106.497
1244.726, 96.519
1245.942, 105.396
1247.156, 119.451
1248.371, 116.580
1249.586, 123.021
1250.800, 117.794
1252.014, 127.728
1253.228, 119.654
1254.442, 126.416
1255.656, 143.313
1256.869, 110.292
1258.083, 163.292
1259.296, 115.933
1260.509, 173.584
1261.722, 137.660
1262.934, 124.531
1264.147, 97.482
1265.359, 133.125
1266.571, 141.977
1267.783, 141.891
1268.994, 163.724
1270.206, 136.744
1271.417, 165.831
1272.628, 209.652
1273.839, 170.115
1275.050, 161.596
1276.260, 161.199
1277.471, 150.977
1278.681, 176.113
1279.891, 198.100
1281.101, 167.586
1282.310, 154.067
1283.520, 146.203
1284.729, 158.993
1285.938, 139.367
1287.147, 131.086
1288.356, 152.820
1289.564, 137.331
1290.773, 115.580
1291.981, 144.230
1293.189, 104.878
1294.397, 125.445
1295.604, 136.664
1296.812, 134.267
1298.019, 184.256
1299.226, 105.876
1300.433, 73.427
1301.640, 139.020
1302.846, 90.143
1304.053, 104.808
1305.259, 120.343
1306.465, 83.686
1307.671, 99.120
1308.876, 71.541
1310.082, 70.942
1311.287, 76.358
1312.492, 42.718
1313.697, 83.053
1314.902, 85.377
1316.106, 54.689
1317.310, 89.990
1318.515, 82.277
1319.719, 37.552
1320.922, 67.812
1322.126, 68.057
1323.329, 35.290
1324.533, 51.507
1325.736, 5.709
1326.939, 14.893
1328.141, 55.061
1329.344, 41.213
1330.546, 63.348
1331.748, 47.466
1332.950, 32.569
1334.152, 27.653
1335.354, 15.757
1336.555, 12.524
1337.757, 6.802
1338.958, 5.816
1340.159, 14.811
1341.359, 7.787
1342.560, 20.745
1343.760, 5.313
1344.960, 0.069
1346.160, 8.512
1347.360, 4.600
1348.560, 1.269
1349.759, 5.121
1350.959, 16.956
1352.158, 18.636
1353.357, 38.581
1354.555, 31.372
1355.754, 34.150
1356.952, 51.914
1358.151, 0.289
1359.349, 30.447
1360.546, 20.171
1361.744, 5.117
1362.941, 3.420
1364.139, 10.262
1365.336, 2.932
1366.533, 39.591
1367.730, 5.242
1368.926, 11.880
1370.123, 49.520
1371.319, 12.146
1372.515, 29.232
1373.711, 23.378
1374.906, 9.990
1376.102, 10.609
1377.297, 23.749
1378.492, 2.403
1379.687, 35.923
1380.882, 12.232
1382.077, 38.515
1383.271, 44.782
1384.465, 5.983
1385.659, 25.224
1386.853, 30.415
1388.047, 22.591
1389.240, 19.238
1390.434, 34.923
1391.627, 8.913
1392.820, 36.234
1394.013, 30.368
1395.205, 38.484
1396.398, 57.582
1397.590, 46.142
1398.782, 33.757
1399.974, 39.881
1401.166, 30.036
1402.357, 35.216
1403.549, 34.421
1404.740, 13.615
1405.931, 68.829
1407.122, 38.040
1408.313, 28.250
1409.503, 59.461
1410.693, 42.689
1411.883, 24.909
1413.073, 73.122
1414.263, 18.341
1415.453, 63.552
1416.642, 35.649
1417.831, 40.847
1419.020, 89.998
1420.209, 49.038
1421.398, 34.220
1422.587, 69.158
1423.775, 18.688
1424.963, 60.654
1426.151, 38.701
1427.339, 71.326
1428.526, 56.141
1429.714, 77.175
1430.901, 15.668
1432.088, 96.168
1433.275, 39.691
1434.462, 40.168
1435.648, 47.406
1436.835, 47.646
1438.021, 57.111
1439.207, 62.315
1440.393, 54.471
1441.579, 49.119
1442.764, 77.776
1443.949, 30.275
1445.135, 76.211
1446.320, 9.010
1447.504, 24.440
1448.689, 52.602
1449.873, 33.947
1451.058, 30.472
1452.242, 52.258
1453.426, 20.948
1454.609, 38.431
1455.793, 60.361
1456.976, 40.925
1458.159, 60.739
1459.342, 32.341
1460.525, 39.749
1461.708, 54.104
1462.890, 42.065
1464.073, 54.145
1465.255, 48.521
1466.437, 52.601
1467.619, 42.314
1468.800, 25.128
1469.982, 30.212
1471.163, 25.598
1472.344, 33.198
1473.525, 34.930
1474.706, 53.760
1475.886, 68.704
1477.066, 70.214
1478.247, 67.983
1479.427, 37.753
1480.607, 10.506
1481.786, 41.079
1482.966, 35.201
1484.145, 50.860
1485.324, 37.800
1486.503, 27.641
1487.682, 53.751
1488.860, 29.870
1490.039, 45.945
1491.217, 70.000
1492.395, 46.045
1493.573, 11.086
1494.751, 25.143
1495.928, 67.230
1497.106, 67.368
1498.283, 28.598
1499.460, 3.110
1500.637, 29.251
1501.814, 46.746
1502.990, 11.330
1504.166, 30.991
1505.342, 50.743
1506.518, 44.616
1507.694, 54.646
1508.870, 21.863
1510.045, 18.586
1511.221, 0.830
1512.396, 25.037
1513.571, 60.265
1514.745, 10.056
1515.920, 59.270
1517.094, 50.006
1518.269, 0.000
##END=



