##NAMES=Almandine
##RRUFFID=R040168
##IDEAL CHEMISTRY=Fe^2+^_3_Al_2_(SiO_4_)_3_
##LOCALITY=Pocos Dos Cavatos, Ceara, Brazil
##OWNER=RRUFF
##SOURCE=University of Arizona Mineral Museum
##DESCRIPTION=Dark red etched single crystal
##STATUS=The identification of this mineral has been confirmed by X-ray diffraction and chemical analysis
##URL=rruff.info/R040168
##MEASURED CHEMISTRY=(Fe^2+^_1.48_Mn_1.47_Ca_0.05_)_Î£=3_Al_2.00_(Si_1.00_O_4_)_3_; trace amounts of Ti and Y
##PIN_ID=L00513
##ORIENTATION=Laser parallel to -a* (-1 0 0). Fiducial mark perpendicular to laser is parallel to -c [0 0 -1]
71.747, 0.000
73.144, 1.559
74.540, 95.190
75.937, 276.844
77.333, 181.062
78.729, 203.388
80.125, 100.404
81.521, 199.002
82.916, 252.018
84.311, 309.440
85.706, 204.010
87.101, 220.873
88.496, 240.401
89.890, 288.789
91.284, 298.390
92.678, 281.799
94.071, 337.524
95.465, 242.053
96.858, 182.881
98.251, 142.905
99.644, 160.776
101.036, 165.337
102.428, 136.491
103.820, 148.625
105.212, 231.252
106.604, 358.065
107.995, 330.223
109.387, 404.129
110.777, 471.204
112.168, 502.880
113.559, 481.559
114.949, 470.865
116.339, 405.685
117.729, 371.280
119.119, 280.390
120.508, 221.268
121.897, 212.928
123.286, 197.328
124.675, 113.109
126.063, 59.776
127.452, 14.268
128.840, 56.867
130.228, 13.442
131.615, 39.415
133.003, 107.945
134.390, 107.246
135.777, 163.438
137.164, 177.747
138.550, 191.005
139.937, 149.912
141.323, 142.947
142.709, 66.796
144.094, 35.460
145.480, 43.936
146.865, 21.779
148.250, 20.320
149.635, 5.240
151.019, 29.011
152.403, 68.863
153.788, 87.842
155.171, 141.734
156.555, 108.782
157.939, 250.202
159.322, 392.391
160.705, 594.620
162.088, 891.252
163.470, 1220.045
164.853, 1596.278
166.235, 1596.146
167.617, 1509.525
168.998, 1293.641
170.380, 1099.852
171.761, 921.675
173.142, 758.739
174.523, 644.833
175.904, 568.482
177.284, 560.199
178.664, 498.034
180.044, 363.661
181.424, 348.015
182.803, 274.105
184.183, 259.065
185.562, 154.855
186.940, 121.188
188.319, 73.303
189.698, 36.218
191.076, 9.011
192.454, 55.413
193.831, 64.997
195.209, 55.768
196.586, 43.655
197.963, 78.643
199.340, 78.699
200.717, 6.806
202.093, 9.965
203.470, 88.822
204.846, 127.553
206.221, 197.230
207.597, 348.848
208.972, 445.401
210.347, 661.877
211.722, 894.268
213.097, 1139.560
214.472, 1437.732
215.846, 1720.716
217.220, 1890.508
218.594, 1822.097
219.967, 1866.542
221.341, 1640.897
222.714, 1394.191
224.087, 1131.441
225.460, 949.657
226.832, 778.838
228.204, 642.985
229.577, 534.100
230.948, 407.181
232.320, 336.231
233.692, 253.249
235.063, 202.229
236.434, 161.162
237.805, 153.993
239.175, 137.060
240.545, 88.132
241.916, 63.987
243.286, 73.414
244.655, 83.584
246.025, 66.638
247.394, 83.206
248.763, 61.505
250.132, 60.600
251.501, 53.118
252.869, 46.437
254.237, 49.387
255.605, 38.990
256.973, 23.216
258.340, 81.387
259.708, 57.214
261.075, 18.709
262.442, 80.527
263.808, 53.807
265.175, 42.656
266.541, 52.000
267.907, 23.952
269.273, 35.626
270.639, 47.326
272.004, 63.221
273.369, 57.539
274.734, 71.852
276.099, 103.137
277.463, 98.562
278.828, 92.838
280.192, 112.112
281.556, 159.160
282.919, 173.056
284.283, 205.270
285.646, 172.201
287.009, 208.968
288.372, 185.529
289.734, 207.300
291.097, 278.354
292.459, 275.912
293.821, 266.654
295.183, 264.976
296.544, 306.794
297.905, 376.116
299.266, 446.684
300.627, 445.343
301.988, 611.669
303.348, 442.007
304.709, 532.948
306.069, 533.786
307.428, 648.509
308.788, 737.473
310.147, 854.690
311.507, 959.739
312.865, 1084.636
314.224, 1203.320
315.583, 1336.694
316.941, 1477.451
318.299, 1589.488
319.657, 1786.119
321.015, 1943.353
322.372, 2056.724
323.729, 2084.628
325.086, 2063.233
326.443, 2324.964
327.800, 1966.543
329.156, 1961.049
330.512, 2078.490
331.868, 2261.862
333.224, 2565.167
334.579, 2891.405
335.935, 3491.578
337.290, 4260.691
338.645, 5316.748
339.999, 6888.651
341.354, 8553.471
342.708, 10927.997
344.062, 13281.921
345.416, 14825.739
346.769, 15859.221
348.123, 14592.602
349.476, 12725.345
350.829, 10227.793
352.182, 7945.759
353.534, 6205.208
354.887, 4822.070
356.239, 3938.038
357.591, 3159.432
358.942, 2750.432
360.294, 2440.223
361.645, 2146.849
362.996, 2126.506
364.347, 2029.718
365.698, 2151.764
367.048, 2262.907
368.398, 2512.378
369.748, 2723.316
371.098, 2977.888
372.448, 3093.857
373.797, 2894.228
375.146, 2741.588
376.495, 2337.938
377.844, 2014.270
379.192, 1647.589
380.540, 1325.892
381.889, 1125.190
383.236, 920.475
384.584, 802.747
385.932, 694.010
387.279, 527.266
388.626, 511.508
389.973, 422.737
391.319, 415.954
392.666, 406.154
394.012, 328.925
395.358, 340.392
396.704, 291.503
398.049, 271.391
399.394, 233.097
400.740, 224.697
402.084, 218.155
403.429, 194.164
404.774, 216.899
406.118, 196.643
407.462, 138.402
408.806, 169.949
410.150, 151.567
411.493, 135.937
412.836, 136.235
414.179, 107.406
415.522, 102.464
416.865, 105.485
418.207, 118.360
419.549, 56.003
420.891, 64.121
422.233, 54.983
423.575, 67.412
424.916, 65.367
426.257, 58.051
427.598, 64.598
428.939, 38.181
430.279, 30.467
431.619, 28.836
432.959, 31.265
434.299, 45.788
435.639, 4.229
436.978, 7.245
438.318, 17.506
439.657, 16.811
440.996, 22.789
442.334, 5.487
443.673, 11.600
445.011, 9.311
446.349, 1.504
447.687, 2.373
449.024, 8.463
450.361, 6.417
451.699, 5.927
453.036, 21.705
454.372, 16.944
455.709, 33.130
457.045, 78.268
458.381, 52.571
459.717, 122.151
461.053, 156.018
462.388, 153.872
463.724, 193.769
465.059, 210.595
466.394, 282.461
467.728, 385.313
469.063, 500.155
470.397, 642.991
471.731, 803.820
473.065, 1076.654
474.398, 1138.483
475.732, 1165.312
477.065, 1069.146
478.398, 801.971
479.731, 670.785
481.063, 523.584
482.396, 456.371
483.728, 361.140
485.060, 397.890
486.391, 394.616
487.723, 399.320
489.054, 497.086
490.385, 551.933
491.716, 719.729
493.047, 945.653
494.377, 1323.648
495.708, 1838.642
497.038, 2372.835
498.368, 3377.328
499.697, 3160.195
501.027, 2997.988
502.356, 2567.236
503.685, 1949.080
505.014, 1502.022
506.342, 1151.818
507.671, 851.563
508.999, 685.323
510.327, 585.743
511.655, 507.453
512.982, 440.515
514.310, 382.521
515.637, 411.224
516.964, 461.621
518.291, 664.163
519.617, 681.991
520.944, 603.109
522.270, 652.685
523.596, 361.928
524.921, 368.930
526.247, 387.336
527.572, 357.495
528.897, 386.626
530.222, 376.373
531.547, 432.125
532.871, 458.617
534.196, 479.660
535.520, 545.193
536.844, 611.794
538.167, 661.286
539.491, 772.028
540.814, 889.803
542.137, 1089.867
543.460, 1252.948
544.783, 1573.645
546.105, 1804.611
547.427, 2363.513
548.749, 2776.967
550.071, 3411.912
551.393, 3998.734
552.714, 4380.488
554.035, 4511.247
555.356, 4336.604
556.677, 3862.744
557.998, 3257.803
559.318, 2676.997
560.638, 2152.239
561.958, 1752.074
563.278, 1464.010
564.597, 1219.856
565.917, 1004.511
567.236, 910.926
568.555, 757.454
569.874, 666.898
571.192, 595.342
572.511, 562.693
573.829, 549.497
575.147, 492.646
576.464, 490.803
577.782, 510.081
579.099, 467.083
580.416, 485.122
581.733, 446.058
583.050, 430.127
584.366, 380.104
585.683, 346.047
586.999, 355.017
588.315, 333.874
589.630, 329.767
590.946, 337.586
592.261, 362.413
593.576, 370.299
594.891, 343.011
596.206, 286.611
597.520, 250.373
598.834, 212.797
600.148, 226.575
601.462, 159.185
602.776, 161.697
604.089, 103.406
605.402, 136.048
606.715, 114.718
608.028, 116.408
609.341, 115.084
610.653, 124.753
611.965, 127.481
613.277, 126.184
614.589, 157.948
615.901, 176.896
617.212, 154.729
618.523, 201.847
619.834, 226.097
621.145, 227.330
622.456, 359.707
623.766, 406.069
625.076, 459.417
626.386, 607.751
627.696, 739.070
629.006, 877.375
630.315, 858.665
631.624, 793.941
632.933, 677.202
634.242, 531.449
635.551, 460.682
636.859, 351.900
638.167, 276.104
639.475, 206.293
640.783, 186.468
642.090, 155.629
643.398, 137.776
644.705, 132.909
646.012, 94.028
647.318, 68.132
648.625, 74.221
649.931, 37.295
651.237, 14.354
652.543, 9.708
653.849, 3.420
655.155, 2.576
656.460, 20.407
657.765, 32.374
659.070, 16.675
660.375, 10.248
661.679, 6.155
662.984, 9.956
664.288, 17.908
665.592, 10.757
666.895, 4.410
668.199, 9.599
669.502, 15.812
670.805, 15.052
672.108, 10.680
673.411, 21.603
674.713, 6.917
676.016, 28.253
677.318, 16.623
678.620, 40.020
679.921, 66.458
681.223, 30.948
682.524, 4.474
683.825, 34.021
685.126, 17.605
686.427, 44.215
687.727, 28.867
689.028, 40.552
690.328, 35.275
691.628, 43.034
692.927, 11.833
694.227, 27.654
695.526, 15.507
696.825, 49.384
698.124, 22.303
699.423, 23.250
700.721, 34.224
702.020, 39.231
703.318, 22.273
704.616, 15.341
705.913, 24.432
707.211, 5.550
708.508, 22.685
709.805, 5.845
711.102, 0.978
712.399, 7.788
713.695, 21.587
714.992, 0.624
716.288, 2.847
717.584, 12.917
718.879, 0.328
720.175, 3.415
721.470, 25.149
722.765, 20.875
724.060, 22.595
725.355, 21.308
726.649, 3.015
727.944, 22.714
729.238, 8.593
730.532, 41.089
731.825, 63.766
733.119, 13.438
734.412, 15.105
735.705, 11.768
736.998, 41.427
738.291, 4.083
739.584, 64.733
740.876, 33.381
742.168, 50.025
743.460, 60.666
744.752, 1.304
746.043, 48.939
747.334, 50.571
748.626, 45.200
749.916, 54.827
751.207, 39.452
752.498, 57.076
753.788, 32.698
755.078, 66.319
756.368, 58.939
757.658, 38.558
758.947, 72.176
760.237, 71.625
761.526, 71.214
762.815, 57.717
764.104, 55.229
765.392, 68.738
766.680, 52.290
767.969, 80.857
769.257, 82.421
770.544, 62.030
771.832, 91.637
773.119, 89.243
774.406, 91.846
775.693, 74.447
776.980, 89.045
778.267, 95.640
779.553, 112.231
780.839, 138.656
782.125, 168.406
783.411, 184.989
784.697, 197.571
785.982, 190.149
787.267, 210.726
788.552, 228.300
789.837, 210.872
791.122, 186.443
792.406, 175.011
793.690, 175.578
794.974, 168.144
796.258, 173.710
797.542, 148.276
798.825, 179.843
800.108, 187.420
801.391, 239.913
802.674, 223.312
803.957, 262.748
805.239, 291.038
806.522, 281.243
807.804, 362.429
809.085, 406.410
810.367, 424.075
811.649, 428.345
812.930, 441.682
814.211, 446.372
815.492, 488.825
816.772, 466.987
818.053, 469.280
819.333, 502.617
820.613, 465.928
821.893, 500.568
823.173, 497.908
824.452, 464.889
825.732, 472.922
827.011, 502.262
828.290, 527.922
829.568, 471.468
830.847, 489.745
832.125, 480.748
833.403, 516.328
834.681, 514.269
835.959, 541.457
837.236, 598.251
838.514, 625.291
839.791, 678.351
841.068, 753.784
842.345, 794.200
843.621, 899.910
844.898, 971.971
846.174, 1162.568
847.450, 1290.081
848.726, 1385.688
850.001, 1658.029
851.277, 1835.323
852.552, 2160.312
853.827, 2386.271
855.102, 2595.598
856.376, 2700.641
857.651, 2686.735
858.925, 2574.261
860.199, 2398.285
861.473, 2167.415
862.746, 2089.599
864.020, 1903.769
865.293, 1774.329
866.566, 1806.095
867.839, 1657.936
869.112, 1751.495
870.384, 1714.969
871.656, 1726.823
872.928, 1893.477
874.200, 1890.320
875.472, 2058.275
876.744, 2230.229
878.015, 2362.207
879.286, 2643.196
880.557, 2843.127
881.828, 3102.157
883.098, 3512.622
884.369, 3825.729
885.639, 4481.848
886.909, 4739.909
888.178, 5106.996
889.448, 5664.085
890.717, 5820.250
891.987, 6390.342
893.256, 6708.530
894.524, 7157.728
895.793, 8221.939
897.061, 9063.157
898.330, 10572.323
899.598, 12111.569
900.865, 14260.828
902.133, 17650.100
903.401, 20789.379
904.668, 25398.676
905.935, 31337.980
907.202, 36237.305
908.468, 43416.629
909.735, 46555.965
911.001, 48895.320
912.267, 48714.695
913.533, 44064.070
914.799, 39783.465
916.064, 33122.879
917.330, 27962.303
918.595, 23361.732
919.860, 18731.176
921.124, 15760.638
922.389, 13470.109
923.653, 10979.594
924.918, 9819.093
926.182, 7964.603
927.445, 6983.128
928.709, 6121.664
929.972, 5213.215
931.236, 4591.778
932.499, 3960.354
933.761, 3504.944
935.024, 3086.652
936.286, 2658.268
937.549, 2420.898
938.811, 2207.541
940.073, 1977.197
941.334, 1796.930
942.596, 1633.549
943.857, 1469.255
945.118, 1383.966
946.379, 1272.732
947.640, 1264.763
948.900, 1127.514
950.161, 1104.935
951.421, 1066.122
952.681, 989.114
953.940, 977.282
955.200, 910.197
956.459, 886.844
957.719, 852.252
958.978, 809.732
960.236, 832.013
961.495, 817.479
962.753, 771.966
964.012, 808.644
965.270, 766.911
966.527, 771.151
967.785, 763.623
969.043, 725.613
970.300, 767.242
971.557, 756.423
972.814, 694.458
974.071, 704.511
975.327, 662.583
976.583, 647.674
977.840, 622.062
979.095, 611.368
980.351, 574.083
981.607, 552.957
982.862, 570.404
984.117, 537.666
985.372, 484.592
986.627, 503.764
987.882, 492.480
989.136, 494.227
990.390, 481.552
991.644, 480.098
992.898, 461.267
994.152, 481.227
995.405, 472.644
996.659, 480.084
997.912, 520.548
999.165, 508.030
1000.417, 520.533
1001.670, 512.053
1002.922, 535.599
1004.174, 567.164
1005.426, 531.749
1006.678, 582.356
1007.930, 583.986
1009.181, 631.636
1010.432, 663.304
1011.683, 657.991
1012.934, 732.693
1014.185, 740.413
1015.435, 765.148
1016.685, 884.903
1017.935, 869.669
1019.185, 981.452
1020.435, 1038.248
1021.684, 1177.059
1022.934, 1260.881
1024.183, 1403.720
1025.432, 1555.572
1026.680, 1757.434
1027.929, 1952.307
1029.177, 2314.194
1030.425, 2434.091
1031.673, 2614.998
1032.921, 2792.921
1034.169, 2635.857
1035.416, 2570.803
1036.663, 2261.759
1037.911, 1983.727
1039.157, 1796.706
1040.404, 1401.696
1041.650, 1231.695
1042.897, 1088.712
1044.143, 855.737
1045.389, 732.771
1046.634, 621.819
1047.880, 602.879
1049.125, 523.950
1050.371, 441.033
1051.615, 392.125
1052.860, 383.230
1054.105, 308.345
1055.349, 307.468
1056.593, 269.607
1057.837, 213.755
1059.081, 240.914
1060.325, 161.083
1061.568, 184.260
1062.812, 150.445
1064.055, 131.638
1065.298, 159.838
1066.540, 101.045
1067.783, 117.260
1069.025, 118.484
1070.267, 113.718
1071.509, 153.959
1072.751, 86.207
1073.993, 51.462
1075.234, 70.724
1076.475, 61.993
1077.716, 71.270
1078.957, 30.555
1080.198, 26.848
1081.438, 66.150
1082.679, 31.458
1083.919, 5.227
1085.159, 33.094
1086.398, 11.423
1087.638, 47.758
1088.877, 12.098
1090.116, 32.444
1091.355, 43.796
1092.594, 1.153
1093.833, 13.514
1095.071, 1.121
1096.309, 8.750
1097.547, 16.620
1098.785, 16.006
1100.023, 48.630
1101.260, 5.273
1102.498, 46.914
1103.735, 41.573
1104.972, 17.247
1106.208, 30.926
1107.445, 12.615
1108.681, 61.308
1109.918, 11.028
1111.154, 10.751
1112.389, 49.478
1113.625, 42.226
1114.860, 40.993
1116.096, 26.780
1117.331, 15.422
1118.566, 28.374
1119.800, 0.183
1121.035, 33.007
1122.269, 112.198
1123.503, 118.391
1124.737, 46.587
1125.971, 1.218
1127.205, 0.976
1128.438, 40.833
1129.671, 8.663
1130.904, 18.501
1132.137, 47.351
1133.370, 25.228
1134.602, 11.120
1135.834, 20.022
1137.066, 19.938
1138.298, 17.132
1139.530, 18.200
1140.762, 13.268
1141.993, 20.667
1143.224, 23.383
1144.455, 17.431
1145.686, 15.477
1146.917, 73.520
1148.147, 22.561
1149.377, 103.599
1150.607, 120.634
1151.837, 72.667
1153.067, 102.722
1154.296, 124.775
1155.526, 140.928
1156.755, 162.267
1157.984, 164.426
1159.213, 178.129
1160.441, 182.729
1161.670, 177.894
1162.898, 189.059
1164.126, 158.692
1165.354, 200.947
1166.581, 175.433
1167.809, 179.666
1169.036, 199.914
1170.263, 200.478
1171.490, 207.552
1172.717, 190.847
1173.943, 179.026
1175.170, 190.102
1176.396, 201.116
1177.622, 206.212
1178.848, 199.448
1180.073, 202.601
1181.299, 196.792
1182.524, 205.946
1183.749, 187.346
1184.974, 277.635
1186.199, 232.015
1187.423, 210.929
1188.648, 206.729
1189.872, 143.555
1191.096, 151.606
1192.320, 185.702
1193.543, 127.777
1194.767, 164.583
1195.990, 168.000
1197.213, 141.898
1198.436, 166.045
1199.659, 169.103
1200.881, 133.418
1202.104, 164.375
1203.326, 140.339
1204.548, 156.335
1205.770, 142.339
1206.991, 121.480
1208.213, 169.708
1209.434, 133.864
1210.655, 147.699
1211.876, 138.627
1213.096, 81.538
1214.317, 121.529
1215.537, 124.934
1216.757, 100.527
1217.977, 126.307
1219.197, 115.413
1220.417, 85.230
1221.636, 147.140
1222.855, 129.390
1224.074, 140.336
1225.293, 130.828
1226.512, 104.808
1227.731, 118.315
1228.949, 105.320
1230.167, 137.446
1231.385, 150.206
1232.603, 134.996
1233.820, 164.633
1235.038, 187.247
1236.255, 168.331
1237.472, 194.028
1238.689, 151.842
1239.906, 195.514
1241.122, 193.106
1242.338, 199.973
1243.555, 194.222
1244.771, 229.767
1245.986, 184.561
1247.202, 170.834
1248.417, 208.149
1249.633, 190.396
1250.848, 228.875
1252.063, 246.534
1253.277, 188.713
1254.492, 229.461
1255.706, 217.688
1256.920, 224.571
1258.134, 241.324
1259.348, 207.112
1260.562, 215.232
1261.775, 197.263
1262.988, 223.149
1264.201, 224.421
1265.414, 190.171
1266.627, 221.387
1267.839, 231.716
1269.052, 209.074
1270.264, 247.624
1271.476, 209.816
1272.688, 192.790
1273.899, 229.826
1275.111, 216.568
1276.322, 187.021
1277.533, 215.872
1278.744, 166.940
1279.955, 168.415
1281.165, 187.672
1282.376, 154.362
1283.586, 178.957
1284.796, 148.979
1286.006, 110.995
1287.215, 148.980
1288.425, 91.377
1289.634, 98.379
1290.843, 98.304
1292.052, 92.207
1293.261, 90.083
1294.469, 83.444
1295.678, 80.410
1296.886, 71.636
1298.094, 65.444
1299.302, 65.234
1300.509, 41.004
1301.717, 19.756
1302.924, 38.575
1304.131, 34.361
1305.338, 44.047
1306.545, 34.725
1307.752, 34.364
1308.958, 11.013
1310.164, 24.583
1311.370, 8.840
1312.576, 25.712
1313.782, 24.247
1314.987, 7.755
1316.193, 2.669
1317.398, 19.796
1318.603, 28.241
1319.807, 24.665
1321.012, 0.070
1322.216, 36.453
1323.421, 21.818
1324.625, 4.838
1325.829, 24.482
1327.032, 26.779
1328.236, 11.057
1329.439, 16.312
1330.642, 3.549
1331.845, 13.762
1333.048, 22.954
1334.251, 16.874
1335.453, 32.272
1336.656, 26.399
1337.858, 5.493
1339.060, 1.409
1340.261, 6.653
1341.463, 3.305
1342.664, 18.713
1343.866, 6.289
1345.067, 8.686
1346.267, 33.641
1347.468, 21.422
1348.669, 26.489
1349.869, 6.620
1351.069, 14.249
1352.269, 9.100
1353.469, 11.931
1354.668, 42.745
1355.868, 26.541
1357.067, 27.321
1358.266, 19.083
1359.465, 0.829
1360.664, 2.444
1361.862, 39.264
1363.061, 8.956
1364.259, 29.632
1365.457, 19.293
1366.655, 1.939
1367.852, 14.569
1369.050, 2.815
1370.247, 10.785
1371.444, 3.629
1372.641, 7.987
1373.838, 2.547
1375.035, 14.095
1376.231, 9.247
1377.427, 34.275
1378.623, 36.791
1379.819, 1.384
1381.015, 21.683
1382.211, 12.106
1383.406, 21.505
1384.601, 30.882
1385.796, 5.235
1386.991, 36.588
1388.185, 33.949
1389.380, 6.687
1390.574, 16.683
1391.768, 35.057
1392.962, 21.449
1394.156, 24.862
1395.350, 39.272
1396.543, 9.671
1397.736, 61.049
1398.929, 16.407
1400.122, 35.764
1401.315, 64.131
1402.507, 22.527
1403.700, 32.933
1404.892, 63.347
1406.084, 43.745
1407.276, 69.147
1408.467, 43.535
1409.659, 40.909
1410.850, 50.270
1412.041, 41.550
1413.232, 16.302
1414.423, 78.219
1415.614, 60.141
1416.804, 62.014
1417.994, 33.871
1419.184, 66.354
1420.374, 95.182
1421.564, 66.538
1422.753, 50.959
1423.943, 49.377
1425.132, 54.265
1426.321, 71.205
1427.510, 74.554
1428.698, 67.431
1429.887, 81.100
1431.075, 73.715
1432.263, 50.128
1433.451, 74.693
1434.639, 63.603
1435.827, 61.475
1437.014, 78.686
1438.201, 48.806
1439.388, 51.447
1440.575, 71.239
1441.762, 73.951
1442.949, 78.564
1444.135, 73.839
1445.321, 29.555
1446.507, 30.604
1447.693, 75.388
1448.879, 42.669
1450.064, 90.759
1451.250, 52.408
1452.435, 62.860
1453.620, 126.720
1454.805, 58.400
1455.989, 111.779
1457.174, 94.756
1458.358, 15.699
1459.542, 93.643
1460.726, 65.276
1461.910, 50.766
1463.093, 69.567
1464.277, 117.449
1465.460, 118.389
1466.643, 110.912
1467.826, 63.379
1469.009, 76.484
1470.191, 116.080
1471.373, 49.442
1472.556, 106.233
1473.738, 111.523
1474.919, 57.081
1476.101, 126.767
1477.283, 54.484
1478.464, 86.032
1479.645, 107.807
1480.826, 66.534
1482.007, 74.254
1483.187, 97.005
1484.368, 60.422
1485.548, 56.898
1486.728, 58.663
1487.908, 65.480
1489.088, 80.302
1490.268, 60.136
1491.447, 83.595
1492.626, 60.451
1493.805, 93.312
1494.984, 43.173
1496.163, 65.072
1497.341, 22.012
1498.520, 65.986
1499.698, 57.002
1500.876, 57.052
1502.054, 100.136
1503.232, 43.256
1504.409, 19.448
1505.586, 34.698
1506.763, 17.002
1507.940, 41.398
1509.117, 26.874
1510.294, 21.444
1511.470, 21.120
1512.647, 38.919
1513.823, 0.865
1514.999, 36.984
1516.174, 61.311
1517.350, 1.108
1518.526, 21.282
1519.701, 78.983
1520.876, 0.542
1522.051, 0.000
##END=



