##NAMES=Almandine
##RRUFFID=R060099
##IDEAL CHEMISTRY=Fe^2+^_3_Al_2_(SiO_4_)_3_
##LOCALITY=Alaska, USA
##OWNER=RRUFF
##SOURCE=Roland Boehne
##DESCRIPTION=Red cube shaped single crystal
##STATUS=The identification of this mineral is confirmed by single-crystal X-ray diffraction and chemical analysis.
##URL=rruff.info/R060099
##MEASURED CHEMISTRY=(Fe^2+^_1.63_Mg_0.57_Mn_0.56_Ca_0.24_)_Σ=3_(Al_1.98_Fe^3+^_0.02_)_Σ=2_(Si_1.00_O_4_)_3_
##PIN_ID=M00497
##ORIENTATION=Laser parallel to -a* (-1 0 0). Fiducial mark perpendicular to laser is parallel to c [0 0 1]
93.48000, 0.0000000E+00
94.71400, 33.18506
95.94800, 2.938721
97.18200, 66.29175
98.41600, 70.41919
99.64900, 5.115479
100.8830, 63.40601
102.1160, 60.12036
103.3490, 62.64648
104.5820, 101.7195
105.8150, 164.3003
107.0470, 261.3496
108.2800, 263.2576
109.5120, 250.4402
110.7440, 289.1709
111.9760, 175.5515
113.2080, 161.2729
114.4400, 180.3057
115.6710, 238.6223
116.9030, 222.2002
118.1340, 181.0195
119.3650, 137.0654
120.5960, 108.9744
121.8270, 71.03369
123.0580, 45.44385
124.2880, 7.280273
125.5190, 7.710938
126.7490, 12.01611
127.9790, 12.21533
129.2090, 3.255127
130.4390, 19.86401
131.6680, 42.59985
132.8980, 73.45142
134.1270, 45.40967
135.3560, 21.46631
136.5850, 38.61572
137.8140, 114.8523
139.0430, 79.17383
140.2710, 118.5798
141.5000, 50.07520
142.7280, 64.65991
143.9560, 41.33496
145.1840, 60.09766
146.4120, 74.94800
147.6390, 103.8840
148.8670, 191.9011
150.0940, 273.9958
151.3210, 306.7581
152.5490, 355.4023
153.7750, 370.7070
155.0020, 445.3044
156.2290, 509.2756
157.4550, 583.9927
158.6810, 662.5369
159.9080, 726.1348
161.1340, 782.7847
162.3590, 919.4841
163.5850, 1030.232
164.8110, 1173.026
166.0360, 1299.864
167.2610, 1331.735
168.4860, 1174.604
169.7110, 1071.470
170.9360, 931.3340
172.1610, 744.2043
173.3850, 614.0854
174.6100, 454.9790
175.8340, 305.8870
177.0580, 246.8108
178.2820, 275.7520
179.5050, 161.7117
180.7290, 113.6912
181.9520, 105.6907
183.1760, 16.72656
184.3990, 101.8477
185.6220, 4.987549
186.8450, 149.2473
188.0670, 113.6335
189.2900, 184.0776
190.5120, 105.5586
191.7340, 216.1355
192.9560, 220.7610
194.1780, 262.4304
195.4000, 286.1216
196.6220, 347.8689
197.8430, 412.0498
199.0640, 460.5430
200.2860, 560.4370
201.5070, 618.3438
202.7270, 677.2612
203.9480, 595.1887
205.1690, 650.1260
206.3890, 569.0732
207.6090, 546.0308
208.8290, 728.9985
210.0490, 752.9761
211.2690, 749.9648
212.4890, 699.9639
213.7080, 761.9731
214.9280, 643.9927
216.1470, 624.0229
217.3660, 562.0635
218.5850, 439.1143
219.8030, 381.1750
221.0220, 391.2458
222.2400, 356.3267
223.4590, 283.4172
224.6770, 376.5168
225.8950, 260.6265
227.1120, 299.7451
228.3300, 203.8730
229.5480, 289.0098
230.7650, 309.1555
231.9820, 338.3098
233.1990, 192.4727
234.4160, 205.6443
235.6330, 219.8240
236.8490, 242.0115
238.0660, 281.2070
239.2820, 280.4104
240.4980, 227.5425
241.7140, 288.5645
242.9300, 251.8176
244.1460, 169.5220
245.3610, 230.6396
246.5770, 222.4453
247.7920, 206.6829
249.0070, 234.9722
250.2220, 184.3098
251.4370, 204.6936
252.6510, 261.1206
253.8660, 179.5886
255.0800, 165.0962
256.2940, 237.6372
257.5080, 239.2024
258.7220, 276.8025
259.9360, 369.4363
261.1490, 233.1023
262.3630, 223.7993
263.5760, 186.5264
264.7890, 208.2822
266.0020, 156.0657
267.2150, 248.8760
268.4270, 171.7122
269.6400, 210.5737
270.8520, 183.3711
272.0640, 263.1963
273.2760, 235.8413
274.4880, 181.6426
275.7000, 280.6182
276.9120, 351.6143
278.1230, 252.7524
279.3340, 244.0024
280.5450, 300.0181
281.7560, 369.0913
282.9670, 245.1826
284.1780, 326.2910
285.3880, 362.4170
286.5980, 377.7271
287.8090, 302.2144
289.0190, 355.6250
290.2290, 350.2124
291.4380, 374.3496
292.6480, 405.9717
293.8570, 422.5864
295.0670, 471.8311
296.2760, 529.0889
297.4850, 529.4858
298.6930, 527.1851
299.9020, 617.1953
301.1110, 657.5005
302.3190, 656.8169
303.5270, 804.1499
304.7350, 816.4873
305.9430, 926.3071
307.1510, 973.6641
308.3580, 1053.030
309.5660, 1192.410
310.7730, 1250.794
311.9800, 1390.187
313.1870, 1466.589
314.3940, 1571.999
315.6010, 1639.417
316.8070, 1710.844
318.0130, 1910.280
319.2200, 1953.724
320.4260, 2170.175
321.6310, 2318.636
322.8370, 2526.104
324.0430, 2768.581
325.2480, 2991.065
326.4540, 3212.558
327.6590, 3462.058
328.8640, 3620.565
330.0680, 3985.080
331.2730, 4290.602
332.4780, 4631.129
333.6820, 5189.662
334.8860, 5879.202
336.0900, 6697.746
337.2940, 7668.295
338.4980, 8851.849
339.7010, 10076.41
340.9050, 11370.97
342.1080, 12397.54
343.3110, 13111.10
344.5140, 13665.68
345.7170, 13644.26
346.9200, 12912.83
348.1220, 11714.42
349.3240, 10674.00
350.5270, 9120.590
351.7290, 7756.181
352.9310, 6657.775
354.1320, 5748.371
355.3340, 4951.970
356.5350, 4367.571
357.7370, 3847.174
358.9380, 3745.780
360.1390, 3540.389
361.3400, 3474.998
362.5400, 3454.611
363.7410, 3696.225
364.9410, 3755.841
366.1410, 3857.458
367.3410, 3961.078
368.5410, 3945.699
369.7410, 3957.322
370.9400, 3855.946
372.1400, 3669.572
373.3390, 3311.199
374.5380, 3107.827
375.7370, 2663.456
376.9360, 2301.086
378.1350, 1991.717
379.3330, 1655.350
380.5310, 1466.983
381.7300, 1183.617
382.9280, 978.2529
384.1260, 739.8901
385.3230, 734.5356
386.5210, 722.1875
387.7180, 548.8477
388.9160, 477.5127
390.1130, 439.1855
391.3100, 350.8745
392.5060, 341.5776
393.7030, 279.4106
394.9000, 294.0029
396.0960, 201.7236
397.2920, 187.4526
398.4880, 183.1875
399.6840, 223.9253
400.8800, 120.6704
402.0750, 165.4204
403.2710, 104.1851
404.4660, 95.97070
405.6610, 70.78027
406.8560, 91.60254
408.0510, 37.43848
409.2450, 79.28662
410.4400, 72.14844
411.6340, 46.03662
412.8280, 30.95068
414.0220, 15.12549
415.2160, 8.801758
416.4100, 77.23926
417.6030, 20.68164
418.7970, 97.62891
419.9900, 38.58252
421.1830, 79.44873
422.3760, 64.52539
423.5690, 91.93311
424.7610, 67.23096
425.9540, 43.90479
427.1460, 7.954590
428.3380, 79.81348
429.5300, 45.32520
430.7220, 47.49316
431.9140, 29.69287
433.1050, 1.087402
434.2970, 25.12598
435.4880, 0.6479490
436.6790, 14.58008
437.8700, 20.17773
439.0610, 19.93213
440.2510, 25.31543
441.4420, 29.57861
442.6320, 65.86523
443.8220, 43.80469
445.0120, 65.47070
446.2020, 18.13428
447.3910, 37.20557
448.5810, 3.424316
449.7700, 38.04492
450.9600, 106.6616
452.1490, 23.27490
453.3370, 45.88330
454.5260, 103.4883
455.7150, 86.08887
456.9030, 170.6855
458.0910, 172.2832
459.2800, 125.8760
460.4670, 168.4639
461.6550, 175.0488
462.8430, 249.6284
464.0300, 238.2036
465.2180, 272.9927
466.4050, 279.3369
467.5920, 304.8960
468.7790, 378.4502
469.9650, 378.9976
471.1520, 408.5400
472.3380, 506.0767
473.5250, 654.6079
474.7110, 648.1318
475.8970, 709.6499
477.0820, 697.1616
478.2680, 683.6709
479.4540, 629.1738
480.6390, 584.6689
481.8240, 489.1582
483.0090, 447.6406
484.1940, 452.1162
485.3780, 439.5942
486.5630, 510.0664
487.7470, 577.5303
488.9320, 675.9795
490.1160, 873.4370
491.3000, 970.8789
492.4830, 1194.313
493.6670, 1430.743
494.8500, 1574.165
496.0340, 1790.579
497.2170, 2029.005
498.4000, 2090.425
499.5820, 1938.835
500.7650, 1971.238
501.9480, 1605.632
503.1300, 1429.019
504.3120, 1292.396
505.4940, 972.7651
506.6760, 870.1265
507.8580, 737.4785
509.0390, 649.8262
510.2210, 664.1650
511.4020, 641.4946
512.5830, 583.8159
513.7640, 540.1279
514.9450, 539.4307
516.1250, 496.8506
517.3060, 530.0146
518.4860, 465.3057
519.6660, 502.5864
520.8460, 517.8867
522.0260, 519.2178
523.2060, 538.4727
524.3850, 643.9224
525.5650, 513.2778
526.7440, 611.1328
527.9230, 549.4800
529.1020, 577.8262
530.2810, 639.0161
531.4590, 661.6436
532.6380, 768.7607
533.8160, 691.0132
534.9940, 757.6855
536.1720, 866.9448
537.3500, 853.4595
538.5270, 1004.413
539.7050, 1093.075
540.8820, 1187.201
542.0590, 1364.086
543.2360, 1573.643
544.4130, 1802.404
545.5900, 2092.447
546.7660, 2489.647
547.9430, 2851.993
549.1190, 3316.621
550.2950, 3770.967
551.4710, 4097.538
552.6470, 4390.535
553.8220, 4414.067
554.9980, 4547.875
556.1730, 4179.567
557.3480, 3787.796
558.5230, 3323.426
559.6980, 2989.241
560.8730, 2597.402
562.0470, 2142.617
563.2220, 1879.315
564.3960, 1544.286
565.5700, 1415.768
566.7440, 1210.649
567.9170, 1107.949
569.0910, 1052.688
570.2640, 915.3438
571.4380, 841.9043
572.6110, 802.3008
573.7840, 731.1050
574.9570, 745.2808
576.1290, 760.5952
577.3020, 721.0654
578.4740, 762.4307
579.6460, 778.0405
580.8180, 743.6143
581.9900, 620.6772
583.1620, 689.9492
584.3330, 547.8613
585.5040, 547.4170
586.6760, 519.9741
587.8470, 565.5435
589.0180, 555.0239
590.1880, 585.0352
591.3590, 485.4614
592.5290, 561.8721
593.7000, 536.2612
594.8700, 582.6392
596.0400, 561.0010
597.2090, 507.5078
598.3790, 505.8257
599.5490, 515.1377
600.7180, 477.4336
601.8870, 484.8774
603.0560, 400.1401
604.2250, 371.4253
605.3940, 276.7002
606.5620, 260.9131
607.7300, 321.1089
608.8990, 304.2881
610.0670, 284.4507
611.2350, 236.6558
612.4020, 219.7954
613.5700, 198.9077
614.7370, 314.0039
615.9050, 310.0830
617.0720, 347.1450
618.2390, 321.8218
619.4060, 386.8501
620.5720, 374.8623
621.7390, 402.8569
622.9050, 531.8354
624.0710, 601.7964
625.2370, 653.9341
626.4030, 729.8618
627.5690, 805.7725
628.7340, 793.6665
629.9000, 908.5435
631.0650, 884.4033
632.2300, 850.2456
633.3950, 793.7104
634.5600, 733.5195
635.7240, 667.1562
636.8890, 570.4126
638.0530, 534.3857
639.2170, 453.1270
640.3810, 416.8511
641.5450, 410.5581
642.7080, 398.2480
643.8720, 348.9209
645.0350, 321.7573
646.1980, 353.3960
647.3610, 343.0176
648.5240, 316.4316
649.6870, 323.0195
650.8490, 290.9351
652.0120, 306.2222
653.1740, 237.7593
654.3360, 221.3545
655.4980, 191.8579
656.6600, 247.5210
657.8210, 175.0918
658.9830, 184.5439
660.1440, 111.9800
661.3050, 101.3989
662.4660, 116.7998
663.6270, 72.84131
664.7870, 86.54980
665.9480, 40.89746
667.1080, 82.22266
668.2680, 79.52979
669.4280, 119.8193
670.5880, 48.09229
671.7480, 4.344727
672.9070, 1.562988
674.0670, 41.74512
675.2260, 79.90674
676.3850, 48.05029
677.5440, 27.17480
678.7030, 37.27539
679.8610, 97.35400
681.0200, 26.41699
682.1780, 38.45605
683.3360, 11.52490
684.4940, 32.54688
685.6520, 51.61865
686.8090, 6.752441
687.9670, 11.92188
689.1240, 8.130371
690.2810, 12.37598
691.4380, 67.66064
692.5950, 61.01221
693.7520, 2.427734
694.9080, 15.87549
696.0650, 90.35742
697.2210, 22.08203
698.3770, 69.47656
699.5330, 3.897949
700.6880, 29.75439
701.8440, 135.5493
702.9990, 0.8613280
704.1550, 67.83594
705.3100, 53.43066
706.4650, 67.31836
707.6190, 89.88525
708.7740, 5.075195
709.9290, 68.24268
711.0830, 63.41113
712.2370, 17.58105
713.3910, 28.25439
714.5450, 10.09180
715.6980, 4.018066
716.8520, 31.06836
718.0050, 58.14844
719.1580, 114.2163
720.3110, 12.72852
721.4640, 24.30957
722.6170, 31.34570
723.7700, 43.39014
724.9220, 37.42236
726.0740, 27.44336
727.2260, 44.66504
728.3780, 38.46289
729.5300, 84.46484
730.6810, 87.45654
731.8330, 137.4375
732.9840, 105.4082
734.1350, 91.36865
735.2860, 4.318848
736.4370, 11.74316
737.5880, 111.1758
738.7380, 38.08447
739.8880, 0.9838870
741.0390, 98.87207
742.1890, 18.75049
743.3380, 15.62109
744.4880, 44.48193
745.6380, 113.3350
746.7870, 74.17969
747.9360, 48.01660
749.0850, 3.846191
750.2340, 13.66699
751.3830, 125.4805
752.5310, 54.28613
753.6800, 198.0854
754.8280, 77.87695
755.9760, 17.33740
757.1240, 88.43457
758.2720, 102.1992
759.4190, 48.95850
760.5670, 29.71143
761.7140, 63.45850
762.8610, 46.80078
764.0080, 25.91406
765.1550, 103.6235
766.3020, 44.32715
767.4480, 100.0259
768.5950, 135.7192
769.7410, 74.40820
770.8870, 23.90820
772.0330, 28.76416
773.1780, 77.43213
774.3240, 87.90381
775.4690, 12.28271
776.6140, 74.33154
777.7590, 36.94238
778.9040, 91.54883
780.0490, 48.15234
781.1940, 89.75195
782.3380, 11.65137
783.4820, 8.940430
784.6260, 37.52832
785.7700, 33.88623
786.9140, 93.68848
788.0580, 44.26123
789.2010, 6.167969
790.3450, 87.39844
791.4880, 6.036133
792.6310, 32.52588
793.7730, 45.91357
794.9160, 65.36621
796.0590, 46.15967
797.2010, 109.6846
798.3430, 82.17920
799.4850, 131.6313
800.6270, 20.15039
801.7690, 79.46436
802.9100, 124.8613
804.0520, 132.7500
805.1930, 214.1348
806.3340, 298.5112
807.4750, 268.0366
808.6160, 166.1143
809.7560, 202.6919
810.8970, 224.1245
812.0370, 283.1279
813.1770, 268.5337
814.3170, 207.6748
815.4570, 239.3682
816.5960, 195.3418
817.7360, 159.8428
818.8750, 143.5752
820.0140, 247.6255
821.1530, 177.4624
822.2920, 242.0088
823.4310, 185.3872
824.5690, 126.6128
825.7070, 209.5464
826.8460, 253.7510
827.9840, 190.7236
829.1220, 194.2617
830.2590, 253.2544
831.3970, 127.9634
832.5340, 256.8677
833.6710, 252.1533
834.8080, 121.1631
835.9450, 260.8579
837.0820, 311.1992
838.2190, 349.4775
839.3550, 327.1504
840.4910, 339.4575
841.6270, 315.5059
842.7630, 358.3018
843.8990, 457.3154
845.0350, 473.0679
846.1700, 593.9048
847.3060, 717.6626
848.4410, 786.4404
849.5760, 887.8975
850.7100, 950.8794
851.8450, 1064.053
852.9800, 1234.658
854.1140, 1453.386
855.2480, 1555.248
856.3820, 1722.144
857.5160, 1970.419
858.6500, 2033.190
859.7830, 2208.016
860.9170, 2207.911
862.0500, 2194.799
863.1830, 2112.664
864.3160, 2006.619
865.4480, 1964.568
866.5810, 1958.578
867.7130, 1766.604
868.8460, 1723.644
869.9780, 1614.694
871.1100, 1600.771
872.2410, 1547.697
873.3730, 1592.824
874.5050, 1640.977
875.6360, 1671.171
876.7670, 1718.601
877.8980, 1754.488
879.0290, 1802.734
880.1590, 1915.014
881.2900, 1965.353
882.4200, 2200.707
883.5500, 2354.075
884.6800, 2546.458
885.8100, 2689.820
886.9400, 3027.245
888.0690, 3282.694
889.1990, 3622.158
890.3280, 3923.646
891.4570, 4396.158
892.5860, 4703.052
893.7140, 5260.592
894.8430, 5662.147
895.9710, 6288.717
897.1000, 6710.302
898.2280, 7527.902
899.3560, 8256.326
900.4830, 9296.954
901.6110, 10647.60
902.7380, 12028.26
903.8660, 13892.94
904.9930, 16381.63
906.1200, 19130.34
907.2460, 22741.43
908.3730, 26776.17
909.5000, 30912.93
910.6260, 35879.37
911.7520, 40021.95
912.8780, 43731.75
914.0040, 46581.57
915.1290, 47359.41
916.2550, 46660.25
917.3800, 44090.13
918.5050, 40107.84
919.6300, 35333.74
920.7550, 30446.66
921.8800, 26283.79
923.0040, 21956.74
924.1290, 18449.71
925.2530, 15712.62
926.3770, 13290.63
927.5010, 11148.58
928.6250, 9550.619
929.7480, 8258.497
930.8720, 7188.472
931.9950, 6366.563
933.1180, 5506.673
934.2410, 4833.800
935.3640, 4227.945
936.4860, 3780.107
937.6090, 3257.289
938.7310, 2976.488
939.8530, 2651.709
940.9750, 2318.947
942.0970, 2130.802
943.2180, 1810.077
944.3400, 1626.431
945.4610, 1561.752
946.5820, 1336.101
947.7030, 1311.470
948.8240, 1109.858
949.9450, 974.2656
951.0650, 1156.695
952.1860, 962.1455
953.3060, 956.6138
954.4260, 887.1035
955.5460, 819.6143
956.6650, 785.1548
957.7850, 714.7310
958.9040, 711.3481
960.0230, 727.9932
961.1420, 606.6685
962.2610, 658.3721
963.3800, 646.1050
964.4990, 511.9023
965.6170, 552.7412
966.7350, 579.6074
967.8530, 552.6460
968.9710, 533.5913
970.0890, 595.1431
971.2070, 612.1523
972.3240, 609.1855
973.4410, 589.3540
974.5580, 436.0972
975.6750, 518.4600
976.7920, 563.9194
977.9090, 653.0859
979.0250, 469.2930
980.1410, 544.3198
981.2580, 468.5645
982.3740, 529.3975
983.4890, 436.6753
984.6050, 473.9712
985.7200, 426.2964
986.8360, 457.6445
987.9510, 470.0986
989.0660, 396.8628
990.1810, 347.7612
991.2950, 254.1812
992.4100, 294.6240
993.5240, 367.0835
994.6390, 300.5596
995.7530, 365.0508
996.8660, 367.5581
997.9800, 417.0811
999.0940, 442.9995
1000.207, 493.9844
1001.320, 471.2480
1002.433, 500.8325
1003.546, 459.4321
1004.659, 547.6440
1005.772, 353.2729
1006.884, 428.2554
1007.996, 524.2920
1009.108, 349.5625
1010.220, 411.1147
1011.332, 294.9014
1012.444, 517.3560
1013.555, 513.5518
1014.666, 487.6216
1015.777, 641.3774
1016.888, 483.1450
1017.999, 624.3730
1019.110, 681.4292
1020.220, 742.2319
1021.331, 815.0527
1022.441, 889.8779
1023.551, 938.6792
1024.661, 899.4658
1025.770, 1005.324
1026.880, 1008.195
1027.989, 1146.078
1029.098, 1331.971
1030.207, 1351.874
1031.316, 1382.788
1032.425, 1607.711
1033.533, 1638.655
1034.642, 1846.610
1035.750, 1877.573
1036.858, 1870.546
1037.966, 1980.530
1039.073, 2005.522
1040.181, 2031.524
1041.288, 1990.540
1042.396, 1952.563
1043.503, 1896.597
1044.610, 1729.658
1045.716, 1671.730
1046.823, 1403.812
1047.929, 1294.901
1049.036, 1060.999
1050.142, 1052.105
1051.248, 877.2212
1052.353, 733.3457
1053.459, 609.4780
1054.564, 595.6191
1055.670, 411.7715
1056.775, 405.9326
1057.880, 508.1006
1058.985, 313.2773
1060.089, 192.4609
1061.194, 261.6528
1062.298, 185.8525
1063.402, 158.0645
1064.506, 277.2939
1065.610, 215.5298
1066.713, 195.7725
1067.817, 104.0225
1068.920, 165.2783
1070.023, 129.5410
1071.126, 32.81006
1072.229, 132.0850
1073.332, 82.36621
1074.435, 25.34668
1075.537, 82.93994
1076.639, 3.754883
1077.741, 20.55469
1078.843, 148.8696
1079.945, 64.18994
1081.046, 140.5156
1082.148, 207.8457
1083.249, 107.1807
1084.350, 66.52100
1085.451, 6.866211
1086.551, 56.21582
1087.652, 22.71387
1088.752, 82.93066
1089.853, 49.29590
1090.953, 23.66455
1092.053, 75.03760
1093.152, 23.41357
1094.252, 3.792969
1095.351, 68.18311
1096.451, 45.03516
1097.550, 70.43018
1098.649, 8.833496
1099.748, 60.76123
1100.846, 3.617188
1101.945, 50.00293
1103.043, 4.354980
1104.141, 51.81885
1105.239, 21.82080
1106.337, 31.47119
1107.434, 23.47021
1108.532, 41.39990
1109.629, 35.48389
1110.726, 4.813965
1111.823, 30.88965
1112.920, 49.38916
1114.017, 90.29980
1115.113, 23.96191
1116.210, 19.23242
1117.306, 71.50195
1118.402, 29.77100
1119.498, 5.045898
1120.593, 0.6821290
1121.689, 2.416016
1122.784, 26.84229
1123.879, 87.09912
1124.974, 83.35449
1126.069, 54.60791
1127.164, 135.8735
1128.259, 39.13770
1129.353, 35.40088
1130.447, 108.6621
1131.541, 20.07910
1132.635, 0.8374020
1133.729, 51.39453
1134.822, 60.62354
1135.916, 30.14990
1137.009, 71.05176
1138.102, 40.74951
1139.195, 72.58447
1140.288, 91.46875
1141.380, 47.41357
1142.473, 50.39600
1143.565, 44.41797
1144.657, 71.47705
1145.749, 13.41211
1146.841, 33.29395
1147.932, 126.1719
1149.024, 12.04590
1150.115, 66.08936
1151.206, 77.72510
1152.297, 30.53564
1153.388, 111.3413
1154.479, 11.85742
1155.569, 11.06006
1156.659, 149.7144
1157.750, 132.4839
1158.839, 98.24951
1159.929, 120.0103
1161.019, 144.7656
1162.108, 159.5161
1163.198, 209.2617
1164.287, 161.0024
1165.376, 302.7378
1166.465, 173.4683
1167.553, 88.19287
1168.642, 118.9121
1169.730, 208.6265
1170.818, 185.3379
1171.906, 112.0439
1172.994, 240.7441
1174.082, 161.4385
1175.170, 236.1274
1176.257, 253.8105
1177.344, 204.4873
1178.431, 204.1582
1179.518, 220.8228
1180.605, 243.4814
1181.691, 167.1328
1182.778, 204.7778
1183.864, 206.4175
1184.950, 155.0503
1186.036, 176.6758
1187.122, 274.2959
1188.207, 206.9092
1189.292, 229.5146
1190.378, 205.1143
1191.463, 143.7070
1192.548, 188.2930
1193.632, 107.8721
1194.717, 180.4443
1195.801, 173.0093
1196.886, 183.5669
1197.970, 185.1182
1199.054, 297.6621
1200.137, 118.1982
1201.221, 267.7280
1202.305, 70.24902
1203.388, 199.7632
1204.471, 147.2705
1205.554, 88.17285
1206.637, 160.4751
1207.719, 105.9004
1208.802, 200.3770
1209.884, 259.8452
1210.966, 189.3062
1212.048, 290.7588
1213.130, 169.2148
1214.212, 163.6519
1215.293, 177.1738
1216.374, 100.5947
1217.456, 118.0078
1218.536, 147.9780
1219.617, 126.3745
1220.698, 94.76758
1221.778, 145.1470
1222.859, 169.5176
1223.939, 188.8794
1225.019, 78.96338
1226.099, 31.69189
1227.178, 96.60449
1228.258, 181.1626
1229.337, 146.4409
1230.417, 127.5679
1231.496, 106.9390
1232.574, 108.9995
1233.653, 57.92676
1234.732, 139.1797
1235.810, 153.3013
1236.888, 181.8574
1237.966, 148.0103
1239.044, 195.8984
1240.122, 187.2695
1241.199, 148.2690
1242.277, 191.6748
1243.354, 186.3433
1244.431, 165.9282
1245.508, 205.0972
1246.585, 261.2358
1247.661, 245.3667
1248.738, 243.0698
1249.814, 199.1001
1250.890, 316.8296
1251.966, 268.4312
1253.042, 269.5190
1254.117, 205.5996
1255.193, 262.6709
1256.268, 237.9683
1257.343, 167.0234
1258.418, 314.3018
1259.493, 303.3389
1260.567, 239.3682
1261.642, 290.0981
1262.716, 158.4160
1263.790, 333.4194
1264.864, 218.4146
1265.938, 291.1187
1267.011, 243.0967
1268.085, 218.7285
1269.158, 273.3179
1270.231, 202.6792
1271.304, 275.7651
1272.377, 181.6240
