##NAMES=Almandine
##RRUFFID=R040079
##IDEAL CHEMISTRY=Fe^2+^_3_Al_2_(SiO_4_)_3_
##LOCALITY=Ontario, Canada
##OWNER=RRUFF
##SOURCE=University of Arizona Mineral Museum
##DESCRIPTION=Dark red dodecahedral crystal
##STATUS=The identification of this mineral has been confirmed by X-ray diffraction and chemical analysis
##URL=rruff.info/R040079
##MEASURED CHEMISTRY=(Fe^2+^_2.29_Mg_0.53_Ca_0.18_)_Î£=3_Al_2.00_(Si_1.00_O_4_)_3_
##PIN_ID=M00037
##ORIENTATION=Laser parallel to a* (1 0 0). Fiducial mark perpendicular to laser is parallel to b [0 1 0]
129.495, 24.325
130.886, 76.025
132.278, 57.345
133.669, 116.097
135.060, 138.544
136.451, 99.980
137.841, 163.608
139.231, 207.430
140.621, 195.529
142.011, 274.453
143.401, 146.100
144.790, 174.691
146.179, 158.836
147.568, 39.637
148.957, 2.882
150.345, 3.933
151.733, 56.233
153.121, 43.449
154.509, 155.113
155.896, 101.700
157.284, 254.864
158.671, 240.711
160.058, 301.583
161.444, 333.602
162.830, 411.008
164.217, 492.543
165.602, 520.087
166.988, 563.554
168.374, 687.148
169.759, 775.102
171.144, 795.045
172.528, 681.092
173.913, 590.122
175.297, 369.290
176.681, 265.021
178.065, 192.973
179.449, 24.174
180.832, 114.122
182.215, 89.994
183.598, 25.251
184.981, 21.732
186.363, 1.328
187.745, 37.808
189.127, 1.935
190.509, 33.912
191.891, 28.992
193.272, 48.323
194.653, 23.984
196.034, 95.854
197.414, 97.126
198.795, 190.761
200.175, 200.808
201.555, 268.462
202.935, 259.585
204.314, 325.515
205.693, 373.333
207.072, 438.943
208.451, 484.799
209.830, 574.296
211.208, 539.456
212.586, 542.867
213.964, 601.206
215.342, 585.290
216.719, 517.894
218.096, 494.621
219.473, 428.471
220.850, 324.256
222.226, 321.544
223.603, 227.544
224.979, 177.090
226.355, 74.798
227.730, 117.493
229.105, 32.120
230.481, 41.651
231.856, 48.614
233.230, 42.688
234.605, 32.186
235.979, 75.828
237.353, 1.167
238.727, 2.905
240.100, 5.986
241.474, 24.529
242.847, 23.981
244.220, 0.028
245.592, 51.868
246.965, 21.370
248.337, 11.169
249.709, 6.972
251.080, 30.930
252.452, 22.565
253.823, 45.231
255.194, 80.604
256.565, 34.286
257.936, 37.684
259.306, 46.150
260.676, 65.311
262.046, 46.421
263.416, 25.050
264.785, 17.807
266.155, 72.169
267.524, 49.742
268.892, 44.496
270.261, 78.018
271.629, 75.054
272.997, 61.499
274.365, 69.818
275.733, 54.250
277.100, 68.209
278.468, 121.161
279.835, 131.803
281.201, 104.939
282.568, 120.961
283.934, 110.427
285.300, 133.033
286.666, 118.629
288.032, 99.979
289.397, 104.238
290.762, 104.333
292.127, 67.707
293.492, 42.056
294.857, 27.740
296.221, 41.299
297.585, 52.131
298.949, 17.688
300.312, 11.085
301.676, 60.067
303.039, 98.831
304.402, 47.268
305.765, 63.970
307.127, 66.321
308.489, 78.264
309.851, 50.258
311.213, 143.082
312.575, 154.109
313.936, 292.653
315.297, 330.589
316.658, 376.865
318.019, 280.705
319.379, 234.575
320.740, 16.918
322.100, 74.680
323.460, 68.713
324.819, 20.349
326.178, 17.824
327.538, 4.843
328.897, 79.455
330.255, 157.883
331.614, 236.712
332.972, 411.384
334.330, 456.840
335.688, 678.323
337.045, 878.082
338.403, 1190.336
339.760, 1586.124
341.117, 2129.495
342.473, 2837.196
343.830, 3729.570
345.186, 4835.747
346.542, 5973.726
347.898, 6911.552
349.253, 7517.761
350.609, 7107.856
351.964, 6661.922
353.319, 5313.046
354.673, 4223.545
356.028, 3032.520
357.382, 2276.010
358.736, 1609.075
360.090, 1131.410
361.443, 754.874
362.797, 551.553
364.150, 333.217
365.503, 248.684
366.856, 289.215
368.208, 286.421
369.560, 302.427
370.912, 446.162
372.264, 452.445
373.616, 444.564
374.967, 460.108
376.318, 366.298
377.669, 369.973
379.020, 224.822
380.370, 173.307
381.720, 132.242
383.070, 37.663
384.420, 19.990
385.770, 4.655
387.119, 41.455
388.468, 26.184
389.817, 44.225
391.166, 19.630
392.514, 22.170
393.863, 12.473
395.211, 42.081
396.558, 37.559
397.906, 38.084
399.253, 34.712
400.600, 78.449
401.947, 106.971
403.294, 76.697
404.641, 126.013
405.987, 139.653
407.333, 169.291
408.679, 170.744
410.024, 162.194
411.370, 145.352
412.715, 168.684
414.060, 188.765
415.405, 133.886
416.749, 155.238
418.093, 147.796
419.437, 129.285
420.781, 101.379
422.125, 76.814
423.468, 129.855
424.811, 81.890
426.154, 93.732
427.497, 86.441
428.840, 14.894
430.182, 125.036
431.524, 110.410
432.866, 61.949
434.208, 100.928
435.549, 46.946
436.890, 83.001
438.231, 101.828
439.572, 77.512
440.913, 58.584
442.253, 58.544
443.593, 51.386
444.933, 59.408
446.273, 96.216
447.612, 20.278
448.951, 29.496
450.290, 43.208
451.629, 3.603
452.968, 20.565
454.306, 0.442
455.644, 19.626
456.982, 36.479
458.320, 15.906
459.657, 7.857
460.995, 4.622
462.332, 35.104
463.668, 0.194
465.005, 19.286
466.341, 3.028
467.678, 17.293
469.014, 11.422
470.349, 41.835
471.685, 53.910
473.020, 67.967
474.355, 93.677
475.690, 206.729
477.025, 246.945
478.359, 353.691
479.693, 377.675
481.027, 464.559
482.361, 434.751
483.695, 350.514
485.028, 253.404
486.361, 139.762
487.694, 55.730
489.027, 80.611
490.359, 67.383
491.692, 79.217
493.024, 99.438
494.356, 229.083
495.687, 362.417
497.019, 571.180
498.350, 899.284
499.681, 1233.709
501.012, 1658.777
502.342, 2041.745
503.672, 2036.448
505.002, 1766.407
506.332, 1275.618
507.662, 970.758
508.992, 742.139
510.321, 520.176
511.650, 343.216
512.979, 230.988
514.307, 197.083
515.636, 115.535
516.964, 39.573
518.292, 36.542
519.619, 34.427
520.947, 8.217
522.274, 1.119
523.601, 13.204
524.928, 31.391
526.255, 38.437
527.581, 11.662
528.907, 33.514
530.233, 1.779
531.559, 36.500
532.885, 5.944
534.210, 96.594
535.535, 16.563
536.860, 7.562
538.185, 26.651
539.509, 35.718
540.834, 94.785
542.158, 113.848
543.482, 134.370
544.805, 203.605
546.129, 277.960
547.452, 399.994
548.775, 518.430
550.098, 699.567
551.420, 923.649
552.742, 1169.256
554.065, 1597.572
555.386, 2011.062
556.708, 2413.172
558.030, 2656.507
559.351, 2739.251
560.672, 2485.566
561.993, 2035.467
563.313, 1649.971
564.634, 1239.191
565.954, 876.029
567.274, 688.489
568.594, 478.576
569.913, 383.592
571.233, 235.918
572.552, 156.016
573.871, 45.820
575.189, 6.314
576.508, 6.391
577.826, 1.111
579.144, 22.835
580.462, 51.239
581.780, 155.049
583.097, 163.223
584.414, 229.730
585.731, 275.533
587.048, 255.597
588.365, 202.888
589.681, 137.370
590.997, 71.352
592.313, 46.058
593.629, 25.608
594.944, 0.697
596.260, 48.494
597.575, 41.505
598.890, 51.404
600.204, 35.014
601.519, 17.690
602.833, 40.817
604.147, 37.637
605.461, 28.127
606.774, 40.267
608.088, 35.038
609.401, 44.422
610.714, 15.405
612.026, 37.868
613.339, 10.906
614.651, 9.309
615.963, 3.090
617.275, 0.922
618.587, 8.040
619.898, 2.590
621.210, 12.578
622.521, 53.207
623.832, 49.520
625.142, 80.523
626.453, 154.229
627.763, 216.691
629.073, 255.886
630.383, 296.829
631.692, 428.186
633.001, 533.690
634.311, 637.198
635.619, 709.998
636.928, 692.946
638.237, 618.975
639.545, 511.729
640.853, 487.484
642.161, 333.929
643.469, 258.003
644.776, 242.998
646.083, 144.030
647.390, 138.145
648.697, 155.297
650.004, 115.528
651.310, 75.925
652.616, 65.462
653.922, 78.093
655.228, 23.923
656.534, 22.431
657.839, 26.757
659.144, 2.595
660.449, 11.291
661.754, 25.670
663.058, 0.999
664.362, 35.060
665.666, 24.137
666.970, 4.619
668.274, 34.744
669.577, 14.230
670.881, 39.945
672.184, 23.167
673.487, 22.342
674.789, 45.457
676.092, 3.502
677.394, 66.419
678.696, 22.716
679.997, 35.330
681.299, 7.731
682.600, 10.044
683.901, 26.432
685.202, 30.849
686.503, 26.708
687.804, 20.734
689.104, 17.583
690.404, 4.514
691.704, 36.761
693.004, 77.790
694.303, 87.600
695.602, 59.189
696.901, 28.096
698.200, 14.240
699.499, 24.128
700.797, 41.548
702.095, 37.279
703.393, 71.018
704.691, 54.199
705.989, 2.792
707.286, 33.773
708.583, 38.026
709.880, 5.001
711.177, 40.438
712.473, 21.211
713.770, 63.867
715.066, 49.416
716.362, 48.866
717.658, 27.171
718.953, 32.914
720.248, 20.945
721.543, 55.756
722.838, 75.955
724.133, 56.348
725.427, 44.699
726.722, 7.403
728.016, 30.795
729.310, 57.193
730.603, 12.307
731.897, 41.836
733.190, 48.400
734.483, 27.002
735.776, 39.649
737.068, 57.349
738.361, 30.108
739.653, 28.944
740.945, 8.153
742.236, 2.077
743.528, 53.492
744.819, 17.406
746.110, 35.438
747.401, 49.084
748.692, 40.506
749.983, 19.969
751.273, 9.722
752.563, 21.506
753.853, 29.316
755.143, 45.155
756.432, 49.131
757.721, 52.801
759.010, 57.265
760.299, 44.301
761.588, 39.764
762.876, 16.251
764.165, 9.241
765.453, 56.046
766.740, 3.743
768.028, 90.668
769.315, 35.365
770.603, 49.016
771.890, 50.535
773.176, 18.940
774.463, 31.484
775.749, 63.526
777.036, 33.107
778.322, 43.991
779.607, 45.619
780.893, 42.468
782.178, 9.902
783.463, 36.164
784.748, 2.323
786.033, 17.136
787.318, 6.559
788.602, 33.122
789.886, 2.582
791.170, 74.438
792.454, 44.011
793.737, 18.439
795.020, 10.246
796.303, 8.312
797.586, 37.645
798.869, 29.141
800.151, 15.340
801.434, 31.776
802.716, 33.404
803.998, 24.889
805.279, 58.501
806.561, 23.519
807.842, 10.042
809.123, 15.195
810.404, 10.784
811.685, 19.779
812.965, 21.204
814.245, 19.942
815.525, 31.966
816.805, 42.010
818.085, 17.489
819.364, 48.543
820.643, 25.097
821.922, 3.516
823.201, 28.664
824.480, 30.390
825.758, 40.449
827.036, 44.207
828.314, 32.306
829.592, 51.209
830.869, 66.646
832.147, 18.232
833.424, 58.268
834.701, 56.671
835.978, 61.841
837.254, 93.304
838.531, 16.285
839.807, 69.391
841.083, 39.756
842.358, 0.543
843.634, 37.856
844.909, 20.747
846.184, 107.595
847.459, 118.341
848.734, 100.533
850.008, 171.773
851.283, 240.013
852.557, 221.721
853.831, 334.378
855.104, 353.497
856.378, 479.142
857.651, 556.182
858.924, 677.682
860.197, 862.441
861.470, 1045.182
862.742, 1287.009
864.015, 1421.208
865.287, 1462.563
866.559, 1547.453
867.830, 1456.403
869.102, 1314.889
870.373, 1116.577
871.644, 936.603
872.915, 787.192
874.185, 599.591
875.456, 541.938
876.726, 337.396
877.996, 234.948
879.266, 246.595
880.536, 46.698
881.805, 15.940
883.074, 14.599
884.343, 108.424
885.612, 15.356
886.881, 155.444
888.149, 119.569
889.418, 63.574
890.686, 145.035
891.953, 112.283
893.221, 123.363
894.488, 253.776
895.756, 535.084
897.023, 624.665
898.290, 1039.116
899.556, 1300.776
900.823, 1327.608
902.089, 1726.718
903.355, 1929.341
904.621, 2344.515
905.886, 2973.837
907.152, 3782.306
908.417, 4888.831
909.682, 6364.132
910.947, 8291.206
912.211, 11240.828
913.476, 13691.737
914.740, 18073.791
916.004, 21566.020
917.268, 25118.729
918.531, 28682.172
919.795, 29125.645
921.058, 28220.666
922.321, 25247.076
923.584, 20894.369
924.846, 17375.615
926.109, 13155.749
927.371, 10373.318
928.633, 7919.312
929.895, 5838.636
931.156, 4574.631
932.418, 3418.943
933.679, 2649.321
934.940, 1988.933
936.201, 1337.664
937.461, 1016.647
938.722, 732.731
939.982, 418.164
941.242, 197.663
942.502, 60.267
943.761, 16.896
945.021, 4.698
946.280, 110.114
947.539, 83.126
948.798, 145.343
950.056, 66.073
951.315, 86.275
952.573, 37.395
953.831, 65.329
955.089, 86.038
956.346, 122.921
957.604, 223.342
958.861, 221.654
960.118, 280.327
961.375, 317.292
962.631, 320.379
963.888, 380.796
965.144, 416.552
966.400, 440.541
967.656, 462.278
968.911, 439.499
970.167, 438.421
971.422, 385.011
972.677, 384.997
973.932, 372.558
975.186, 363.405
976.441, 377.076
977.695, 381.487
978.949, 359.131
980.203, 356.919
981.456, 350.698
982.710, 324.995
983.963, 277.365
985.216, 249.587
986.469, 265.052
987.721, 272.717
988.974, 261.691
990.226, 172.362
991.478, 146.195
992.730, 174.318
993.982, 107.859
995.233, 108.062
996.484, 116.969
997.735, 36.679
998.986, 75.445
1000.237, 94.024
1001.487, 52.373
1002.738, 75.694
1003.988, 12.010
1005.237, 24.072
1006.487, 55.224
1007.737, 11.568
1008.986, 24.150
1010.235, 12.463
1011.484, 55.496
1012.732, 11.802
1013.981, 20.177
1015.229, 3.390
1016.477, 38.975
1017.725, 32.773
1018.973, 80.111
1020.220, 81.619
1021.468, 72.733
1022.715, 160.267
1023.962, 135.135
1025.208, 132.613
1026.455, 261.068
1027.701, 221.265
1028.947, 292.232
1030.193, 375.042
1031.439, 370.940
1032.684, 489.938
1033.930, 539.008
1035.175, 627.447
1036.420, 817.428
1037.665, 949.911
1038.909, 1092.527
1040.154, 1112.291
1041.398, 1349.271
1042.642, 1363.733
1043.885, 1397.422
1045.129, 1525.211
1046.372, 1409.073
1047.615, 1351.253
1048.858, 1269.504
1050.101, 1109.753
1051.344, 960.777
1052.586, 807.637
1053.828, 665.274
1055.070, 567.730
1056.312, 385.869
1057.554, 323.945
1058.795, 226.379
1060.036, 100.288
1061.277, 128.741
1062.518, 35.670
1063.759, 39.847
1064.999, 57.270
1066.240, 10.820
1067.480, 7.660
1068.719, 4.277
1069.959, 25.151
1071.199, 27.876
1072.438, 47.525
1073.677, 46.280
1074.916, 27.114
1076.154, 2.719
1077.393, 15.450
1078.631, 15.254
1079.869, 4.622
1081.107, 53.354
1082.345, 51.711
1083.582, 60.214
1084.820, 67.388
1086.057, 41.087
1087.294, 123.286
1088.530, 72.107
1089.767, 53.942
1091.003, 107.325
1092.239, 63.032
1093.475, 36.312
1094.711, 79.490
1095.947, 12.329
1097.182, 45.487
1098.417, 9.254
1099.652, 0.225
1100.887, 46.531
1102.122, 0.416
1103.356, 49.793
1104.590, 24.781
1105.824, 16.445
1107.058, 7.961
1108.292, 14.101
1109.525, 9.424
1110.758, 12.538
1111.991, 6.723
1113.224, 25.660
1114.457, 13.656
1115.689, 28.774
1116.922, 17.555
1118.154, 41.244
1119.385, 35.163
1120.617, 33.601
1121.849, 36.701
1123.080, 24.291
1124.311, 44.889
1125.542, 41.550
1126.773, 55.781
1128.003, 11.127
1129.234, 25.112
1130.464, 21.095
1131.694, 52.675
1132.923, 90.603
1134.153, 47.062
1135.382, 46.893
1136.612, 74.207
1137.841, 25.509
1139.069, 83.677
1140.298, 15.654
1141.526, 38.473
1142.755, 10.890
1143.983, 42.000
1145.210, 76.730
1146.438, 33.314
1147.665, 12.704
1148.893, 25.749
1150.120, 57.945
1151.347, 26.405
1152.573, 27.745
1153.800, 3.983
1155.026, 56.106
1156.252, 20.137
1157.478, 52.919
1158.704, 54.802
1159.929, 55.176
1161.155, 37.955
1162.380, 32.035
1163.605, 56.895
1164.829, 36.702
1166.054, 23.540
1167.278, 43.500
1168.503, 66.487
1169.727, 13.580
1170.950, 25.777
1172.174, 35.086
1173.397, 0.297
1174.621, 18.115
1175.844, 5.674
1177.066, 12.641
1178.289, 44.768
1179.512, 25.075
1180.734, 42.022
1181.956, 77.507
1183.178, 49.691
1184.399, 36.051
1185.621, 32.638
1186.842, 4.700
1188.063, 16.934
1189.284, 7.339
1190.505, 32.909
1191.726, 73.641
1192.946, 44.533
1194.166, 23.927
1195.386, 90.122
1196.606, 45.626
1197.826, 101.247
1199.045, 31.976
1200.264, 5.197
1201.483, 24.736
1202.702, 21.666
1203.921, 18.152
1205.139, 10.201
1206.357, 20.271
1207.575, 55.350
1208.793, 9.430
1210.011, 7.499
1211.228, 47.547
1212.446, 7.041
1213.663, 23.703
1214.880, 59.927
1216.097, 27.540
1217.313, 32.066
1218.529, 23.496
1219.746, 0.043
1220.962, 27.823
1222.177, 2.519
1223.393, 40.402
1224.608, 29.158
1225.824, 29.783
1227.039, 14.275
1228.254, 85.631
1229.468, 50.849
1230.683, 9.928
1231.897, 41.506
1233.111, 6.710
1234.325, 24.579
1235.539, 21.744
1236.752, 11.789
1237.965, 75.130
1239.179, 5.874
1240.392, 5.552
1241.604, 34.599
1242.817, 50.026
1244.029, 34.369
1245.241, 30.635
1246.453, 58.831
1247.665, 24.964
1248.877, 82.042
1250.088, 34.678
1251.300, 45.786
1252.511, 43.332
1253.722, 11.407
1254.932, 29.486
1256.143, 12.423
1257.353, 39.385
1258.563, 26.652
1259.773, 40.013
1260.983, 26.059
1262.192, 48.374
1263.402, 39.751
1264.611, 76.195
1265.820, 81.711
1267.029, 67.306
1268.237, 12.987
1269.446, 53.771
1270.654, 8.644
1271.862, 58.803
1273.070, 40.057
1274.278, 51.409
1275.485, 37.449
1276.692, 63.016
1277.900, 24.720
1279.106, 29.560
1280.313, 85.921
1281.520, 29.964
1282.726, 52.093
1283.932, 73.306
1285.138, 30.681
1286.344, 35.137
1287.550, 19.673
1288.755, 21.285
1289.960, 65.120
1291.165, 0.890
1292.370, 65.722
1293.575, 71.603
1294.779, 17.678
1295.984, 40.823
1297.188, 25.997
1298.392, 14.808
1299.595, 34.102
1300.799, 34.889
1302.002, 56.686
1303.206, 56.279
1304.409, 44.679
1305.611, 25.609
1306.814, 32.511
1308.016, 2.219
1309.219, 17.031
1310.421, 20.037
1311.623, 9.744
1312.824, 23.392
1314.026, 33.944
1315.227, 18.444
1316.428, 27.543
1317.629, 3.780
1318.830, 12.031
1320.031, 13.429
1321.231, 3.439
1322.431, 8.449
1323.631, 16.409
1324.831, 46.137
1326.031, 2.756
1327.230, 50.080
1328.429, 11.413
1329.628, 39.613
1330.827, 72.753
1332.026, 2.717
1333.225, 41.598
1334.423, 59.358
1335.621, 80.996
1336.819, 75.708
1338.017, 15.207
1339.214, 41.655
1340.412, 26.686
1341.609, 7.178
1342.806, 65.714
1344.003, 54.372
1345.200, 24.072
1346.396, 31.508
1347.592, 21.784
1348.788, 18.621
1349.984, 27.930
1351.180, 25.017
1352.376, 37.933
1353.571, 43.749
1354.766, 71.470
1355.961, 24.096
1357.156, 1.476
1358.351, 55.917
1359.545, 61.352
1360.739, 1.459
1361.933, 61.750
1363.127, 27.901
1364.321, 18.026
1365.515, 81.116
1366.708, 25.206
1367.901, 108.209
1369.094, 6.755
1370.287, 48.083
1371.479, 26.903
1372.672, 93.709
1373.864, 26.502
1375.056, 34.213
1376.248, 46.019
1377.440, 40.792
1378.631, 9.560
1379.822, 48.378
1381.014, 27.316
1382.205, 26.259
1383.395, 39.660
1384.586, 55.697
1385.776, 5.102
1386.966, 50.509
1388.157, 20.867
1389.346, 52.277
1390.536, 12.692
1391.725, 46.110
1392.915, 5.471
1394.104, 11.808
1395.293, 59.120
1396.482, 4.429
1397.670, 87.735
1398.858, 50.072
1400.047, 13.396
1401.235, 59.430
1402.422, 6.680
1403.610, 64.821
1404.798, 25.899
1405.985, 47.914
1407.172, 64.969
1408.359, 59.959
1409.546, 53.885
1410.732, 67.755
1411.918, 60.645
1413.105, 54.412
1414.291, 79.130
1415.476, 58.799
1416.662, 24.422
1417.848, 84.997
1419.033, 22.474
1420.218, 75.103
1421.403, 53.008
1422.587, 33.513
1423.772, 58.991
1424.956, 26.448
1426.140, 34.884
1427.324, 24.308
1428.508, 29.726
1429.692, 63.696
1430.875, 42.461
1432.059, 43.232
1433.242, 26.015
1434.425, 50.813
1435.607, 40.164
1436.790, 5.473
1437.972, 28.621
1439.154, 5.571
1440.336, 10.629
1441.518, 26.773
1442.700, 56.009
1443.881, 8.341
1445.062, 62.813
1446.243, 56.695
1447.424, 8.346
1448.605, 16.077
1449.786, 36.888
1450.966, 43.781
1452.146, 69.759
1453.326, 34.824
1454.506, 58.979
1455.685, 22.225
1456.865, 48.018
1458.044, 54.904
1459.223, 72.881
1460.402, 41.948
1461.581, 18.106
1462.759, 53.486
1463.938, 18.183
1465.116, 42.674
1466.294, 71.615
1467.472, 46.641
1468.649, 79.750
1469.827, 79.944
1471.004, 70.231
1472.181, 128.602
1473.358, 58.056
1474.535, 57.594
1475.711, 73.201
1476.887, 19.876
1478.064, 39.620
1479.240, 98.453
1480.415, 1.645
1481.591, 75.240
1482.767, 44.890
1483.942, 62.941
1485.117, 2.143
1486.292, 2.382
1487.467, 56.705
1488.641, 45.366
1489.815, 68.859
1490.990, 53.441
1492.164, 72.112
1493.337, 47.875
1494.511, 28.734
1495.685, 25.689
1496.858, 5.345
1498.031, 86.484
1499.204, 22.598
1500.377, 1.961
1501.549, 107.601
1502.722, 57.045
1503.894, 52.051
1505.066, 20.603
1506.238, 1.729
1507.409, 25.077
1508.581, 65.023
1509.752, 75.080
1510.923, 45.312
1512.094, 82.751
1513.265, 66.194
1514.436, 0.669
1515.606, 51.195
1516.776, 20.274
1517.946, 41.554
1519.116, 98.444
1520.286, 0.000
1521.455, 0.000
##END=



