##NAMES=Almandine
##RRUFFID=R040076
##IDEAL CHEMISTRY=Fe^2+^_3_Al_2_(SiO_4_)_3_
##LOCALITY=Barton Garnet mine, Gore Mountain, Warren County, New York, USA
##OWNER=RRUFF
##SOURCE=University of Arizona Mineral Museum
##DESCRIPTION=Red coarsely crystalline
##STATUS=The identification of this mineral has been confirmed by X-ray diffraction and chemical analysis
##URL=rruff.info/R040076
##MEASURED CHEMISTRY=(Fe^2+^_1.38_Mg_1.26_Ca_0.33_Mn_0.03_)_Î£=3_Al_2.00_(Si_1.00_O_4_)_3_; trace amounts of Ti
##PIN_ID=M00102
##ORIENTATION=Laser parallel to -a* (-1 0 0). Fiducial mark perpendicular to laser is parallel to b [0 1 0]
199.990, 0.000
201.366, 26.464
202.741, 24.254
204.116, 6.437
205.490, 44.021
206.865, 41.422
208.239, 58.961
209.613, 79.678
210.987, 66.427
212.361, 24.808
213.734, 10.333
215.107, 40.939
216.480, 37.578
217.853, 22.559
219.226, 45.851
220.598, 40.423
221.970, 15.757
223.342, 35.282
224.714, 73.514
226.085, 100.918
227.457, 19.473
228.828, 68.165
230.198, 51.990
231.569, 58.962
232.939, 52.099
234.309, 90.399
235.679, 86.163
237.049, 144.400
238.419, 97.061
239.788, 152.806
241.157, 150.622
242.526, 189.499
243.894, 152.427
245.263, 147.400
246.631, 219.410
247.999, 193.453
249.367, 238.525
250.734, 137.624
252.102, 211.747
253.469, 181.892
254.836, 211.057
256.202, 162.245
257.569, 211.485
258.935, 179.784
260.301, 277.305
261.667, 185.983
263.033, 271.861
264.398, 212.938
265.763, 261.217
267.128, 240.503
268.493, 245.768
269.857, 243.001
271.222, 281.201
272.586, 255.352
273.950, 291.456
275.313, 302.228
276.677, 292.525
278.040, 327.494
279.403, 319.421
280.766, 311.309
282.128, 294.162
283.491, 337.990
284.853, 308.794
286.215, 359.576
287.576, 368.335
288.938, 358.066
290.299, 353.773
291.660, 377.464
293.021, 370.139
294.382, 395.797
295.742, 409.447
297.102, 427.089
298.462, 461.725
299.822, 470.319
301.182, 498.982
302.541, 499.605
303.900, 512.224
305.259, 524.839
306.618, 563.451
307.976, 573.061
309.334, 651.667
310.692, 669.327
312.050, 712.070
313.408, 680.635
314.765, 786.097
316.123, 806.413
317.479, 902.369
318.836, 971.434
320.193, 990.621
321.549, 1090.219
322.905, 1162.562
324.261, 1235.511
325.617, 1346.464
326.972, 1551.505
328.328, 1647.965
329.683, 1873.026
331.037, 2100.447
332.392, 2317.175
333.747, 2653.028
335.101, 2834.855
336.455, 3201.355
337.808, 3499.969
339.162, 3921.393
340.515, 4166.879
341.868, 4528.939
343.221, 4930.881
344.574, 5397.775
345.927, 5886.659
347.279, 6559.535
348.631, 7361.400
349.983, 8463.256
351.334, 9516.102
352.686, 10808.933
354.037, 11941.757
355.388, 12804.567
356.739, 13097.368
358.089, 12870.163
359.440, 12102.947
360.790, 11145.727
362.140, 9958.502
363.489, 8901.691
364.839, 7744.904
366.188, 7072.119
367.537, 6517.323
368.886, 6070.522
370.235, 5877.638
371.583, 5526.779
372.932, 5230.938
374.280, 5038.078
375.627, 4885.244
376.975, 4596.537
378.322, 4419.749
379.669, 4065.984
381.016, 3730.245
382.363, 3416.531
383.710, 3135.836
385.056, 2788.539
386.402, 2533.881
387.748, 2224.243
389.094, 2006.625
390.439, 1717.022
391.784, 1510.434
393.129, 1336.860
394.474, 1198.301
395.819, 1036.755
397.163, 904.220
398.508, 799.695
399.852, 696.176
401.195, 634.662
402.539, 550.145
403.882, 467.628
405.225, 460.117
406.568, 387.606
407.911, 396.104
409.254, 318.596
410.596, 310.085
411.938, 280.576
413.280, 223.062
414.621, 188.549
415.963, 164.031
417.304, 128.700
418.645, 117.671
419.986, 80.436
421.327, 89.896
422.667, 68.347
424.007, 36.789
425.347, 11.220
426.687, 52.639
428.027, 12.045
429.366, 38.436
430.705, 29.813
432.044, 6.177
433.383, 14.525
434.721, 36.140
436.059, 25.831
437.398, 1.543
438.735, 26.728
440.073, 29.014
441.411, 19.219
442.748, 10.561
444.085, 8.359
445.422, 8.177
446.758, 6.014
448.095, 35.870
449.431, 27.751
450.767, 19.657
452.103, 4.414
453.438, 5.530
454.774, 28.494
456.109, 34.482
457.444, 20.496
458.778, 11.534
460.113, 2.408
461.447, 38.333
462.781, 50.339
464.115, 21.139
465.449, 66.021
466.782, 72.889
468.116, 20.743
469.449, 62.582
470.782, 61.406
472.114, 51.216
473.447, 49.010
474.779, 70.785
476.111, 67.542
477.443, 42.281
478.774, 89.999
480.106, 128.670
481.437, 90.319
482.768, 131.936
484.099, 114.522
485.429, 159.079
486.760, 138.588
488.090, 130.068
489.420, 130.512
490.749, 135.098
492.079, 136.286
493.408, 160.644
494.737, 184.986
496.066, 195.312
497.395, 198.624
498.723, 272.921
500.052, 246.203
501.380, 300.470
502.708, 377.724
504.035, 367.966
505.363, 454.195
506.690, 492.424
508.017, 458.628
509.344, 465.825
510.670, 484.074
511.997, 431.524
513.323, 395.861
514.649, 397.196
515.975, 442.646
517.300, 424.970
518.626, 478.291
519.951, 495.154
521.276, 559.760
522.600, 586.016
523.925, 649.398
525.249, 694.318
526.573, 665.387
527.897, 736.222
529.221, 698.837
530.545, 777.592
531.868, 762.076
533.191, 783.705
534.514, 741.198
535.837, 806.368
537.159, 862.289
538.481, 898.705
539.803, 916.807
541.125, 1054.535
542.447, 1068.503
543.768, 1267.601
545.090, 1384.826
546.411, 1583.498
547.731, 1762.861
549.052, 2013.289
550.372, 2217.976
551.693, 2669.610
553.013, 3102.633
554.332, 3804.370
555.652, 4462.992
556.971, 5274.241
558.291, 5961.818
559.609, 6272.163
560.928, 6249.113
562.247, 5758.493
563.565, 5003.340
564.883, 4106.892
566.201, 3382.602
567.519, 2677.206
568.837, 2159.144
570.154, 1772.302
571.471, 1443.990
572.788, 1214.268
574.105, 1072.809
575.421, 880.353
576.737, 769.862
578.053, 686.403
579.369, 638.986
580.685, 624.421
582.001, 563.614
583.316, 556.965
584.631, 539.977
585.946, 488.148
587.260, 485.964
588.575, 464.937
589.889, 437.896
591.203, 426.541
592.517, 385.397
593.831, 387.034
595.144, 441.573
596.457, 392.656
597.770, 426.345
599.083, 445.690
600.396, 435.489
601.708, 411.821
603.020, 480.255
604.332, 484.662
605.644, 498.206
606.956, 551.802
608.267, 518.872
609.578, 559.414
610.889, 533.383
612.200, 489.742
613.511, 421.624
614.821, 357.096
616.131, 296.412
617.441, 287.257
618.751, 276.941
620.061, 202.205
621.370, 256.638
622.679, 182.738
623.988, 203.080
625.297, 187.429
626.605, 230.413
627.914, 210.673
629.222, 215.907
630.530, 222.076
631.837, 248.214
633.145, 263.420
634.452, 299.592
635.759, 354.604
637.066, 355.826
638.373, 410.160
639.680, 380.341
640.986, 395.637
642.292, 410.877
643.598, 335.136
644.904, 357.377
646.209, 343.599
647.514, 287.802
648.819, 328.988
650.124, 301.156
651.429, 256.306
652.734, 224.438
654.038, 220.552
655.342, 267.648
656.646, 218.727
657.950, 217.789
659.253, 202.833
660.556, 132.859
661.859, 155.869
663.162, 127.860
664.465, 130.835
665.767, 127.792
667.070, 111.613
668.372, 59.655
669.674, 82.559
670.975, 79.444
672.277, 48.311
673.578, 74.158
674.879, 70.987
676.180, 14.797
677.480, 24.584
678.781, 4.350
680.081, 42.088
681.381, 9.808
682.681, 10.497
683.981, 10.164
685.280, 15.801
686.579, 10.417
687.878, 19.010
689.177, 11.979
690.476, 4.867
691.774, 0.345
693.073, 12.851
694.371, 21.390
695.669, 32.966
696.966, 43.586
698.264, 16.254
699.561, 34.955
700.858, 21.700
702.155, 45.481
703.451, 41.310
704.748, 27.185
706.044, 32.098
707.340, 32.051
708.636, 39.043
709.932, 35.336
711.227, 34.333
712.522, 29.270
713.817, 19.422
715.112, 16.605
716.407, 7.183
717.701, 3.046
718.995, 27.296
720.289, 7.580
721.583, 42.886
722.877, 45.767
724.170, 0.594
725.464, 20.972
726.757, 6.622
728.049, 24.799
729.342, 27.752
730.634, 20.289
731.927, 21.813
733.219, 7.324
734.511, 19.178
735.802, 18.297
737.094, 46.759
738.385, 3.790
739.676, 0.353
740.967, 13.074
742.257, 24.489
743.548, 30.895
744.838, 13.292
746.128, 17.678
747.418, 1.944
748.708, 13.424
749.997, 11.204
751.286, 36.162
752.575, 22.525
753.864, 17.879
755.153, 6.764
756.441, 38.582
757.730, 38.927
759.018, 40.271
760.306, 23.613
761.593, 37.953
762.881, 55.299
764.168, 36.650
765.455, 55.002
766.742, 46.352
768.028, 33.700
769.315, 26.053
770.601, 49.414
771.887, 72.779
773.173, 21.145
774.459, 48.508
775.744, 3.132
777.030, 1.220
778.315, 39.569
779.600, 12.912
780.884, 3.251
782.169, 45.586
783.453, 46.917
784.737, 33.244
786.021, 45.566
787.305, 38.885
788.588, 57.201
789.872, 67.512
791.155, 83.575
792.438, 81.185
793.720, 105.426
795.003, 92.723
796.285, 57.017
797.567, 104.307
798.849, 92.593
800.131, 128.876
801.412, 135.155
802.694, 188.432
803.975, 169.705
805.256, 208.976
806.537, 229.249
807.817, 230.520
809.098, 275.792
810.378, 273.062
811.658, 350.330
812.937, 375.602
814.217, 376.872
815.496, 373.152
816.775, 446.431
818.054, 413.697
819.333, 407.978
820.612, 423.257
821.890, 362.473
823.168, 443.480
824.446, 383.587
825.724, 402.699
827.002, 448.682
828.279, 400.778
829.556, 457.875
830.833, 463.421
832.110, 441.222
833.387, 487.369
834.663, 425.384
835.939, 413.857
837.216, 467.174
838.491, 503.719
839.767, 502.481
841.042, 565.098
842.318, 557.978
843.593, 626.706
844.868, 714.564
846.142, 707.741
847.417, 767.166
848.691, 838.086
849.965, 909.310
851.239, 969.895
852.513, 1060.225
853.786, 1113.412
855.059, 1243.463
856.333, 1311.054
857.605, 1535.940
858.878, 1615.760
860.151, 1802.311
861.423, 1880.901
862.695, 1891.089
863.967, 1937.549
865.239, 1889.113
866.510, 1904.034
867.782, 1868.615
869.053, 1828.667
870.324, 1750.602
871.595, 1738.341
872.865, 1696.602
874.136, 1645.146
875.406, 1706.518
876.676, 1749.981
877.945, 1795.100
879.215, 1812.986
880.484, 1921.329
881.754, 2010.070
883.023, 2136.536
884.292, 2255.985
885.560, 2366.458
886.829, 2527.886
888.097, 2686.222
889.365, 2918.729
890.633, 3114.373
891.900, 3417.711
893.168, 3654.163
894.435, 4015.716
895.702, 4293.334
896.969, 4772.997
898.236, 5335.602
899.502, 5713.246
900.769, 6600.777
902.035, 7248.438
903.301, 8422.735
904.566, 9521.525
905.832, 11040.276
907.097, 13249.028
908.362, 15507.565
909.627, 18716.434
910.892, 22655.312
912.157, 26654.205
913.421, 31843.066
914.685, 37081.980
915.949, 42690.906
917.213, 47479.844
918.476, 48408.785
919.740, 49477.742
921.003, 46416.723
922.266, 41905.695
923.529, 36384.695
924.792, 30743.703
926.054, 25752.727
927.316, 22131.756
928.578, 17730.686
929.840, 15239.683
931.102, 12838.751
932.363, 11017.828
933.625, 9606.900
934.886, 8356.002
936.147, 7345.118
937.407, 6314.245
938.668, 5545.384
939.928, 5084.536
941.188, 4343.701
942.448, 3993.877
943.708, 3513.068
944.967, 3194.270
946.227, 2932.484
947.486, 2630.712
948.745, 2392.951
950.004, 2203.205
951.262, 2045.470
952.521, 1907.748
953.779, 1840.040
955.037, 1705.343
956.295, 1637.660
957.552, 1554.179
958.810, 1442.522
960.067, 1387.538
961.324, 1332.906
962.581, 1297.288
963.838, 1262.059
965.094, 1202.466
966.350, 1138.312
967.607, 1116.964
968.862, 1042.409
970.118, 1006.629
971.374, 968.343
972.629, 1007.857
973.884, 975.008
975.139, 926.518
976.394, 923.509
977.649, 865.046
978.903, 882.597
980.157, 918.193
981.411, 911.130
982.665, 909.533
983.919, 890.496
985.172, 877.718
986.425, 876.553
987.678, 799.593
988.931, 787.184
990.184, 741.150
991.436, 724.738
992.689, 682.487
993.941, 633.878
995.193, 622.034
996.444, 619.880
997.696, 651.292
998.947, 541.227
1000.198, 581.431
1001.449, 500.279
1002.700, 544.155
1003.951, 507.242
1005.201, 554.162
1006.451, 527.103
1007.701, 569.093
1008.951, 549.057
1010.201, 551.566
1011.450, 525.605
1012.699, 597.667
1013.948, 629.754
1015.197, 667.864
1016.446, 671.997
1017.694, 762.152
1018.943, 826.637
1020.191, 1205.828
1021.439, 1345.030
1022.686, 1319.247
1023.934, 1381.483
1025.181, 1308.735
1026.428, 1123.010
1027.675, 1113.296
1028.922, 921.594
1030.169, 913.910
1031.415, 916.237
1032.661, 936.582
1033.907, 1168.936
1035.153, 1256.301
1036.399, 1238.676
1037.644, 952.061
1038.890, 1002.464
1040.135, 978.879
1041.380, 963.304
1042.624, 1009.741
1043.869, 1077.188
1045.113, 1122.647
1046.357, 1125.115
1047.601, 1138.024
1048.845, 1108.774
1050.089, 1086.596
1051.332, 1019.114
1052.575, 940.643
1053.818, 888.184
1055.061, 778.735
1056.304, 736.295
1057.546, 684.863
1058.788, 537.448
1060.030, 517.041
1061.272, 441.644
1062.514, 423.264
1063.756, 356.892
1064.997, 286.528
1066.238, 267.176
1067.479, 249.833
1068.720, 211.508
1069.960, 214.191
1071.201, 205.881
1072.441, 182.558
1073.681, 189.302
1074.921, 151.023
1076.160, 147.751
1077.400, 138.486
1078.639, 97.239
1079.878, 119.000
1081.117, 174.771
1082.356, 100.550
1083.594, 107.336
1084.832, 123.129
1086.071, 90.927
1087.308, 79.730
1088.546, 105.539
1089.784, 43.358
1091.021, 64.183
1092.258, 71.012
1093.495, 57.848
1094.732, 60.394
1095.969, 55.238
1097.205, 36.386
1098.441, 52.242
1099.678, 34.104
1100.913, 46.475
1102.149, 30.841
1103.385, 30.716
1104.620, 9.594
1105.855, 29.522
1107.090, 37.354
1108.325, 17.765
1109.559, 21.113
1110.794, 41.993
1112.028, 31.122
1113.262, 6.759
1114.496, 48.357
1115.730, 5.492
1116.963, 8.374
1118.196, 16.758
1119.429, 25.884
1120.662, 0.970
1121.895, 32.175
1123.127, 27.668
1124.360, 60.486
1125.592, 4.332
1126.824, 7.153
1128.056, 36.024
1129.287, 24.217
1130.519, 31.421
1131.750, 39.640
1132.981, 26.879
1134.212, 36.132
1135.443, 22.404
1136.673, 30.717
1137.903, 35.990
1139.133, 29.311
1140.363, 14.649
1141.593, 24.840
1142.823, 20.359
1144.052, 30.735
1145.281, 23.131
1146.510, 14.542
1147.739, 0.965
1148.968, 15.607
1150.196, 20.660
1151.424, 3.749
1152.653, 21.315
1153.880, 36.880
1155.108, 10.444
1156.336, 40.995
1157.563, 0.463
1158.790, 54.061
1160.017, 28.582
1161.244, 76.101
1162.471, 72.626
1163.697, 82.139
1164.923, 98.708
1166.149, 5.212
1167.375, 83.710
1168.601, 149.230
1169.826, 51.780
1171.052, 145.266
1172.277, 117.061
1173.502, 127.538
1174.726, 128.171
1175.951, 119.778
1177.175, 168.240
1178.400, 211.875
1179.624, 152.426
1180.847, 189.912
1182.071, 198.549
1183.295, 169.984
1184.518, 164.480
1185.741, 174.827
1186.964, 135.676
1188.187, 196.227
1189.409, 143.108
1190.631, 175.734
1191.854, 144.561
1193.076, 120.126
1194.297, 160.643
1195.519, 173.834
1196.741, 171.209
1197.962, 189.232
1199.183, 136.252
1200.404, 163.006
1201.625, 178.647
1202.845, 133.342
1204.065, 193.839
1205.286, 159.927
1206.506, 127.462
1207.725, 156.522
1208.945, 109.011
1210.164, 144.411
1211.384, 204.204
1212.603, 143.471
1213.822, 143.318
1215.040, 137.433
1216.259, 154.942
1217.477, 156.399
1218.695, 129.121
1219.913, 156.463
1221.131, 158.991
1222.349, 115.374
1223.566, 135.018
1224.783, 140.771
1226.000, 110.372
1227.217, 138.867
1228.434, 145.357
1229.650, 125.957
1230.867, 140.387
1232.083, 114.624
1233.299, 142.839
1234.515, 124.026
1235.730, 146.427
1236.946, 144.647
1238.161, 82.850
1239.376, 121.392
1240.591, 118.472
1241.806, 85.926
1243.020, 136.150
1244.234, 91.253
1245.449, 121.838
1246.662, 131.037
1247.876, 149.149
1249.090, 174.356
1250.303, 172.347
1251.516, 128.582
1252.730, 147.756
1253.942, 162.856
1255.155, 96.395
1256.368, 183.386
1257.580, 149.448
1258.792, 192.573
1260.004, 206.627
1261.216, 140.231
1262.427, 235.290
1263.639, 189.161
1264.850, 90.547
1266.061, 255.152
1267.272, 201.092
1268.483, 202.439
1269.693, 204.743
1270.904, 172.225
1272.114, 207.557
1273.324, 171.504
1274.533, 163.474
1275.743, 237.127
1276.952, 165.207
1278.162, 264.780
1279.371, 223.041
1280.580, 163.580
1281.788, 190.005
1282.997, 194.806
1284.205, 197.405
1285.413, 167.388
1286.621, 171.068
1287.829, 151.082
1289.037, 158.396
1290.244, 165.965
1291.452, 141.959
1292.659, 180.432
1293.866, 123.644
1295.072, 175.342
1296.279, 107.901
1297.485, 154.352
1298.691, 120.956
1299.897, 117.452
1301.103, 124.895
1302.309, 132.360
1303.514, 129.290
1304.720, 118.697
1305.925, 118.071
1307.130, 71.422
1308.334, 141.779
1309.539, 60.101
1310.743, 90.401
1311.947, 113.460
1313.151, 68.731
1314.355, 60.986
1315.559, 87.223
1316.762, 21.446
1317.966, 121.654
1319.169, 37.844
1320.372, 43.017
1321.575, 109.175
1322.777, 35.303
1323.980, 53.412
1325.182, 67.504
1326.384, 33.582
1327.586, 93.637
1328.787, 61.670
1329.989, 1.685
1331.190, 15.676
1332.391, 44.646
1333.592, 13.598
1334.793, 30.530
1335.994, 15.442
1337.194, 36.333
1338.394, 45.208
1339.595, 28.937
1340.794, 75.888
1341.994, 6.693
1343.194, 6.477
1344.393, 16.242
1345.592, 22.989
1346.791, 18.718
1347.990, 36.429
1349.189, 12.877
1350.387, 29.792
1351.585, 3.445
1352.784, 19.923
1353.982, 48.684
1355.179, 10.275
1356.377, 1.152
1357.574, 7.401
1358.772, 31.064
1359.969, 24.444
1361.165, 28.947
1362.362, 25.575
1363.559, 43.878
1364.755, 19.317
1365.951, 32.742
1367.147, 11.154
1368.343, 27.376
1369.539, 11.999
1370.734, 7.876
1371.929, 16.771
1373.124, 10.106
1374.319, 19.490
1375.514, 42.806
1376.709, 45.111
1377.903, 49.396
1379.097, 8.276
1380.291, 35.993
1381.485, 37.639
1382.679, 7.892
1383.872, 60.751
1385.065, 10.860
1386.259, 28.946
1387.452, 50.007
1388.644, 4.046
1389.837, 29.062
1391.029, 42.066
1392.222, 26.054
1393.414, 67.021
1394.606, 20.976
1395.797, 10.923
1396.989, 34.852
1398.180, 21.786
1399.371, 56.720
1400.562, 37.646
1401.753, 14.423
1402.944, 35.525
1404.134, 39.494
1405.325, 11.482
1406.515, 73.496
1407.705, 20.524
1408.895, 75.572
1410.084, 44.642
1411.274, 35.710
1412.463, 7.765
1413.652, 44.808
1414.841, 5.856
1416.030, 41.917
1417.218, 31.956
1418.407, 29.919
1419.595, 50.953
1420.783, 39.866
1421.971, 54.456
1423.158, 98.241
1424.346, 62.043
1425.533, 91.641
1426.720, 43.282
1427.907, 43.155
1429.094, 76.132
1430.281, 99.152
1431.467, 67.076
1432.653, 125.495
1433.839, 81.025
1435.025, 86.772
1436.211, 82.440
1437.396, 50.351
1438.582, 126.856
1439.767, 45.689
1440.952, 51.265
1442.137, 108.185
1443.322, 73.367
1444.506, 84.097
1445.690, 72.703
1446.875, 70.927
1448.059, 108.792
1449.242, 116.938
1450.426, 49.698
1451.609, 58.426
1452.793, 145.838
1453.976, 32.367
1455.159, 139.374
1456.342, 109.128
1457.524, 72.711
1458.706, 135.929
1459.889, 63.250
1461.071, 89.554
1462.253, 118.346
1463.434, 54.534
1464.616, 113.076
1465.797, 79.274
1466.978, 72.974
1468.159, 162.981
1469.340, 49.594
1470.521, 50.032
1471.701, 126.092
1472.882, 95.056
1474.062, 81.103
1475.242, 76.593
1476.422, 74.740
1477.601, 70.706
1478.781, 93.948
1479.960, 79.340
1481.139, 67.731
1482.318, 86.692
1483.497, 70.419
1484.675, 120.841
1485.854, 42.374
1487.032, 51.924
1488.210, 153.489
1489.388, 37.117
1490.565, 47.380
1491.743, 106.961
1492.920, 42.501
1494.097, 124.026
1495.274, 69.573
1496.451, 52.191
1497.628, 114.806
1498.804, 69.503
1499.981, 54.260
1501.157, 103.055
1502.333, 21.919
1503.509, 47.832
1504.684, 122.841
1505.860, 33.931
1507.035, 65.081
1508.210, 50.306
1509.385, 7.626
1510.560, 80.057
1511.734, 51.616
1512.909, 11.318
1514.083, 91.063
1515.257, 14.105
1516.431, 61.361
1517.604, 62.566
1518.778, 26.165
1519.951, 61.408
1521.125, 67.178
1522.298, 0.677
1523.470, 69.558
1524.643, 0.000
##END=



