##NAMES=Almandine
##RRUFFID=R040076
##IDEAL CHEMISTRY=Fe^2+^_3_Al_2_(SiO_4_)_3_
##LOCALITY=Barton Garnet mine, Gore Mountain, Warren County, New York, USA
##OWNER=RRUFF
##SOURCE=University of Arizona Mineral Museum
##DESCRIPTION=Red coarsely crystalline
##STATUS=The identification of this mineral has been confirmed by X-ray diffraction and chemical analysis
##URL=rruff.info/R040076
##MEASURED CHEMISTRY=(Fe^2+^_1.38_Mg_1.26_Ca_0.33_Mn_0.03_)_Î£=3_Al_2.00_(Si_1.00_O_4_)_3_; trace amounts of Ti
##PIN_ID=M00102
##ORIENTATION=Laser parallel to -a* (-1 0 0). Fiducial mark perpendicular to laser is parallel to b [0 1 0]
199.990, 0.000
201.366, 17.270
202.741, 0.157
204.116, 12.637
205.490, 14.591
206.865, 74.077
208.239, 67.941
209.613, 126.742
210.987, 80.151
212.361, 62.162
213.734, 4.918
215.107, 4.571
216.480, 0.330
217.853, 48.343
219.226, 29.593
220.598, 29.059
221.970, 9.284
223.342, 28.543
224.714, 27.522
226.085, 3.366
227.457, 40.867
228.828, 46.207
230.198, 137.652
231.569, 45.218
232.939, 136.925
234.309, 99.767
235.679, 154.725
237.049, 162.781
238.419, 185.920
239.788, 129.129
241.157, 143.396
242.526, 159.712
243.894, 178.071
245.263, 197.467
246.631, 189.893
247.999, 224.347
249.367, 201.827
250.734, 226.329
252.102, 215.852
253.469, 235.394
254.836, 228.954
256.202, 237.531
257.569, 232.138
258.935, 229.797
260.301, 241.659
261.667, 208.663
263.033, 237.845
264.398, 261.279
265.763, 233.813
267.128, 273.340
268.493, 260.844
269.857, 282.318
271.222, 259.758
272.586, 295.160
273.950, 307.522
275.313, 337.846
276.677, 331.133
278.040, 341.386
279.403, 351.604
280.766, 346.341
282.128, 347.947
283.491, 332.082
284.853, 342.194
286.215, 312.287
287.576, 330.362
288.938, 395.418
290.299, 368.458
291.660, 402.486
293.021, 390.503
294.382, 479.511
295.742, 408.512
297.102, 469.508
298.462, 443.501
299.822, 462.491
301.182, 537.479
302.541, 493.465
303.900, 551.450
305.259, 532.433
306.618, 587.414
307.976, 630.394
309.334, 618.373
310.692, 656.350
312.050, 729.325
313.408, 737.601
314.765, 801.267
316.123, 883.833
317.479, 932.983
318.836, 955.440
320.193, 1056.310
321.549, 1060.686
322.905, 1186.627
324.261, 1350.389
325.617, 1430.035
326.972, 1596.668
328.328, 1751.488
329.683, 1945.136
331.037, 2254.069
332.392, 2474.102
333.747, 2762.622
335.101, 2977.516
336.455, 3331.160
337.808, 3701.152
339.162, 4068.727
340.515, 4315.463
341.868, 4686.053
343.221, 5083.506
344.574, 5550.902
345.927, 6057.290
347.279, 6831.670
348.631, 7552.043
349.983, 8574.406
351.334, 9646.762
352.686, 10939.107
354.037, 11951.441
355.388, 12793.771
356.739, 12966.089
358.089, 12618.399
359.440, 11870.705
360.790, 10843.009
362.140, 9585.318
363.489, 8588.079
364.839, 7565.643
366.188, 6861.049
367.537, 6357.617
368.886, 5896.215
370.235, 5655.797
371.583, 5470.406
372.932, 5172.036
374.280, 5014.666
375.627, 4854.315
376.975, 4543.611
378.322, 4283.309
379.669, 3962.013
381.016, 3667.750
382.363, 3425.511
383.710, 3029.289
385.056, 2750.828
386.402, 2437.647
387.748, 2184.489
389.094, 1931.300
390.439, 1683.164
391.784, 1494.051
393.129, 1338.948
394.474, 1149.862
395.819, 1038.782
397.163, 910.711
398.508, 777.646
399.852, 671.588
401.195, 626.531
402.539, 472.479
403.882, 489.424
405.225, 417.375
406.568, 378.324
407.911, 306.269
409.254, 358.212
410.596, 237.151
411.938, 245.091
413.280, 255.027
414.621, 211.961
415.963, 155.901
417.304, 177.835
418.645, 144.764
419.986, 121.688
421.327, 89.609
422.667, 89.524
424.007, 94.430
425.347, 33.330
426.687, 20.219
428.027, 38.096
429.366, 36.961
430.705, 32.174
432.044, 2.657
433.383, 20.486
434.721, 7.696
436.059, 21.895
437.398, 22.114
438.735, 24.406
440.073, 4.612
441.411, 0.888
442.748, 11.822
444.085, 13.890
445.422, 37.797
446.758, 4.863
448.095, 10.490
449.431, 34.862
450.767, 20.257
452.103, 25.673
453.438, 51.110
454.774, 10.577
456.109, 14.938
457.444, 4.559
458.778, 5.926
460.113, 14.397
461.447, 50.855
462.781, 43.301
464.115, 44.734
465.449, 9.154
466.782, 52.561
468.116, 67.954
469.449, 74.335
470.782, 96.703
472.114, 48.060
473.447, 53.403
474.779, 76.732
476.111, 118.045
477.443, 90.344
478.774, 63.624
480.106, 72.871
481.437, 129.078
482.768, 167.262
484.099, 101.429
485.429, 156.561
486.760, 134.656
488.090, 143.713
489.420, 116.727
490.749, 141.721
492.079, 176.697
493.408, 186.658
494.737, 195.605
496.066, 200.538
497.395, 193.459
498.723, 200.367
500.052, 250.263
501.380, 313.146
502.708, 369.016
504.035, 423.875
505.363, 447.747
506.690, 463.438
508.017, 456.442
509.344, 453.327
510.670, 439.224
511.997, 416.150
513.323, 402.166
514.649, 392.144
515.975, 423.184
517.300, 447.388
518.626, 470.781
519.951, 523.756
521.276, 521.204
522.600, 592.504
523.925, 607.617
525.249, 678.614
526.573, 650.549
527.897, 703.609
529.221, 675.116
530.545, 714.384
531.868, 683.978
533.191, 752.885
534.514, 776.998
535.837, 776.870
537.159, 782.950
538.481, 872.226
539.803, 969.963
541.125, 1085.530
542.447, 1194.382
543.768, 1266.914
545.090, 1443.547
546.411, 1591.398
547.731, 1736.577
549.052, 2015.847
550.372, 2287.908
551.693, 2753.615
553.013, 3188.484
554.332, 3917.317
555.652, 4642.687
556.971, 5361.529
558.291, 6061.974
559.609, 6350.827
560.928, 6321.785
562.247, 5733.351
563.565, 4945.708
564.883, 3965.087
566.201, 3289.546
567.519, 2633.099
568.837, 2078.466
570.154, 1674.856
571.471, 1483.210
572.788, 1185.944
574.105, 993.485
575.421, 867.678
576.737, 811.919
578.053, 717.056
579.369, 597.984
580.685, 594.061
582.001, 537.046
583.316, 549.394
584.631, 516.191
585.946, 493.909
587.260, 506.730
588.575, 464.447
589.889, 488.072
591.203, 421.352
592.517, 412.062
593.831, 404.670
595.144, 436.339
596.457, 423.867
597.770, 435.238
599.083, 404.793
600.396, 459.567
601.708, 414.724
603.020, 462.983
604.332, 465.361
605.644, 536.270
606.956, 565.246
608.267, 567.659
609.578, 581.955
610.889, 547.877
612.200, 510.170
613.511, 467.292
614.821, 416.355
616.131, 334.006
617.441, 333.674
618.751, 244.501
620.061, 268.591
621.370, 219.649
622.679, 233.673
623.988, 201.291
625.297, 193.301
626.605, 193.354
627.914, 207.412
629.222, 240.543
630.530, 249.448
631.837, 228.355
633.145, 253.338
634.452, 303.437
635.759, 372.435
637.066, 356.300
638.373, 411.183
639.680, 363.207
640.986, 405.213
642.292, 398.154
643.598, 361.123
644.904, 354.075
646.209, 318.008
647.514, 297.924
648.819, 313.822
650.124, 236.703
651.429, 210.566
652.734, 300.411
654.038, 209.240
655.342, 235.051
656.646, 195.845
657.950, 167.622
659.253, 164.382
660.556, 167.125
661.859, 123.850
663.162, 120.559
664.465, 133.250
665.767, 109.925
667.070, 103.582
668.372, 93.222
669.674, 67.844
670.975, 73.448
672.277, 55.034
673.578, 30.600
674.879, 18.147
676.180, 2.925
677.480, 14.167
678.781, 3.359
680.081, 0.916
681.381, 0.372
682.681, 15.117
683.981, 1.767
685.280, 9.446
686.579, 22.158
687.878, 4.092
689.177, 1.683
690.476, 15.515
691.774, 18.307
693.073, 38.165
694.371, 10.069
695.669, 34.003
696.966, 31.980
698.264, 27.998
699.561, 42.056
700.858, 35.159
702.155, 55.305
703.451, 13.503
704.748, 15.731
706.044, 60.991
707.340, 24.304
708.636, 43.652
709.932, 12.044
711.227, 21.464
712.522, 13.916
713.817, 24.395
715.112, 0.094
716.407, 18.438
717.701, 6.003
718.995, 26.573
720.289, 28.819
721.583, 7.197
722.877, 0.439
724.170, 12.907
725.464, 15.761
726.757, 4.547
728.049, 7.160
729.342, 36.885
730.634, 22.356
731.927, 4.584
733.219, 22.798
734.511, 14.999
735.802, 24.182
737.094, 39.352
738.385, 7.490
739.676, 20.653
740.967, 12.785
742.257, 4.907
743.548, 21.018
744.838, 31.120
746.128, 30.211
747.418, 4.704
748.708, 21.369
749.997, 22.437
751.286, 49.505
752.575, 35.574
753.864, 53.644
755.153, 32.710
756.441, 30.772
757.730, 4.827
759.018, 21.733
760.306, 35.927
761.593, 43.976
762.881, 61.023
764.168, 48.076
765.455, 44.132
766.742, 38.191
768.028, 42.260
769.315, 32.331
770.601, 24.396
771.887, 40.460
773.173, 51.521
774.459, 26.578
775.744, 7.630
777.030, 10.676
778.315, 25.717
779.600, 41.755
780.884, 53.789
782.169, 50.818
783.453, 40.842
784.737, 44.542
786.021, 35.875
787.305, 33.886
788.588, 31.893
789.872, 33.615
791.155, 41.304
792.438, 48.888
793.720, 59.879
795.003, 81.866
796.285, 87.849
797.567, 102.828
798.849, 140.804
800.131, 124.777
801.412, 151.746
802.694, 147.711
803.975, 175.674
805.256, 205.635
806.537, 247.601
807.817, 297.565
809.098, 312.527
810.378, 331.488
811.658, 356.451
812.937, 364.413
814.217, 384.373
815.496, 362.333
816.775, 423.276
818.054, 382.206
819.333, 386.175
820.612, 391.074
821.890, 427.955
823.168, 412.806
824.446, 405.554
825.724, 434.333
827.002, 435.047
828.279, 392.583
829.556, 427.924
830.833, 492.674
832.110, 451.940
833.387, 483.350
834.663, 455.947
835.939, 435.663
837.216, 477.437
838.491, 503.089
839.767, 511.282
841.042, 550.713
842.318, 593.760
843.593, 656.597
844.868, 695.163
846.142, 721.969
847.417, 755.561
848.691, 831.944
849.965, 915.866
851.239, 1029.945
852.513, 1067.310
853.786, 1181.825
855.059, 1240.805
856.333, 1376.557
857.605, 1524.977
858.878, 1639.294
860.151, 1776.812
861.423, 1882.669
862.695, 1951.353
863.967, 1949.062
865.239, 1901.220
866.510, 1919.896
867.782, 1793.956
869.053, 1759.595
870.324, 1778.117
871.595, 1696.022
872.865, 1661.122
874.136, 1679.188
875.406, 1729.162
876.676, 1754.032
877.945, 1765.076
879.215, 1792.084
880.484, 1880.118
881.754, 1955.760
883.023, 2137.584
884.292, 2166.745
885.560, 2296.847
886.829, 2582.042
888.097, 2660.434
889.365, 2919.667
890.633, 3131.980
891.900, 3401.921
893.168, 3647.189
894.435, 4050.442
895.702, 4300.679
896.969, 4737.001
898.236, 5351.383
899.502, 5901.777
900.769, 6555.963
902.035, 7229.356
903.301, 8496.772
904.566, 9585.291
905.832, 11293.798
907.097, 13502.335
908.362, 15800.864
909.627, 19059.404
910.892, 22857.852
912.157, 26746.391
913.421, 32254.984
914.685, 37493.594
915.949, 43042.223
917.213, 47710.855
918.476, 48299.492
919.740, 49248.133
921.003, 45826.809
922.266, 41335.488
923.529, 35604.176
924.792, 29932.875
926.054, 25211.586
927.316, 21280.311
928.578, 17399.027
929.840, 14967.768
931.102, 12616.529
932.363, 10815.301
933.625, 9384.085
934.886, 8112.880
936.147, 7215.690
937.407, 6143.510
938.668, 5459.344
939.928, 4938.188
941.188, 4278.044
942.448, 3917.915
943.708, 3415.797
944.967, 3113.692
946.227, 2865.600
947.486, 2640.520
948.745, 2394.453
950.004, 2188.398
951.262, 2066.356
952.521, 1930.328
953.779, 1764.311
955.037, 1723.344
956.295, 1526.354
957.552, 1558.389
958.810, 1438.424
960.067, 1364.472
961.324, 1364.773
962.581, 1258.894
963.838, 1245.980
965.094, 1183.104
966.350, 1116.454
967.607, 1092.463
968.862, 1043.601
970.118, 1032.708
971.374, 998.871
972.629, 1003.191
973.884, 927.121
975.139, 932.323
976.394, 889.463
977.649, 929.685
978.903, 886.927
980.157, 878.092
981.411, 915.166
982.665, 872.536
983.919, 891.599
985.172, 848.621
986.425, 832.858
987.678, 831.802
988.931, 786.900
990.184, 772.193
991.436, 734.128
992.689, 714.051
993.941, 667.743
995.193, 620.218
996.444, 625.458
997.696, 573.822
998.947, 499.358
1000.198, 543.374
1001.449, 550.953
1002.700, 492.376
1003.951, 529.001
1005.201, 551.652
1006.451, 566.344
1007.701, 565.940
1008.951, 546.727
1010.201, 537.980
1011.450, 597.751
1012.699, 602.543
1013.948, 666.359
1015.197, 648.194
1016.446, 703.046
1017.694, 684.917
1018.943, 780.807
1020.191, 754.710
1021.439, 783.632
1022.686, 837.564
1023.934, 867.516
1025.181, 887.479
1026.428, 840.453
1027.675, 918.438
1028.922, 840.435
1030.169, 910.448
1031.415, 867.474
1032.661, 962.515
1033.907, 919.576
1035.153, 894.647
1036.399, 955.729
1037.644, 901.822
1038.890, 912.929
1040.135, 1023.046
1041.380, 928.172
1042.624, 1006.310
1043.869, 1022.457
1045.113, 1049.614
1046.357, 1092.781
1047.601, 1106.964
1048.845, 1088.121
1050.089, 1063.371
1051.332, 1013.599
1052.575, 977.835
1053.818, 918.080
1055.061, 812.336
1056.304, 756.602
1057.546, 652.877
1058.788, 552.161
1060.030, 525.454
1061.272, 425.755
1062.514, 366.068
1063.756, 377.392
1064.997, 291.723
1066.238, 219.061
1067.479, 278.408
1068.720, 190.771
1069.960, 143.146
1071.201, 179.528
1072.441, 180.919
1073.681, 165.316
1074.921, 166.720
1076.160, 92.137
1077.400, 120.561
1078.639, 114.990
1079.878, 140.425
1081.117, 151.868
1082.356, 124.322
1083.594, 103.781
1084.832, 81.246
1086.071, 64.719
1087.308, 89.201
1088.546, 119.689
1089.784, 104.415
1091.021, 71.682
1092.258, 82.195
1093.495, 69.715
1094.732, 29.240
1095.969, 52.770
1097.205, 14.305
1098.441, 38.849
1099.678, 47.397
1100.913, 27.950
1102.149, 30.506
1103.385, 0.934
1104.620, 49.630
1105.855, 44.799
1107.090, 4.758
1108.325, 50.317
1109.559, 7.120
1110.794, 24.557
1112.028, 29.000
1113.262, 0.559
1114.496, 5.879
1115.730, 38.317
1116.963, 7.230
1118.196, 20.220
1119.429, 20.677
1120.662, 23.142
1121.895, 49.615
1123.127, 20.890
1124.360, 17.602
1125.592, 36.101
1126.824, 21.383
1128.056, 16.132
1129.287, 13.654
1130.519, 1.818
1131.750, 29.710
1132.981, 44.253
1134.212, 62.820
1135.443, 25.421
1136.673, 59.036
1137.903, 20.317
1139.133, 37.331
1140.363, 22.000
1141.593, 33.682
1142.823, 12.615
1144.052, 41.088
1145.281, 9.817
1146.510, 26.446
1147.739, 35.292
1148.968, 43.946
1150.196, 7.816
1151.424, 12.413
1152.653, 16.640
1153.880, 10.865
1155.108, 23.912
1156.336, 9.292
1157.563, 0.509
1158.790, 33.683
1160.017, 27.871
1161.244, 29.057
1162.471, 28.286
1163.697, 39.527
1164.923, 31.839
1166.149, 43.099
1167.375, 92.364
1168.601, 89.626
1169.826, 117.786
1171.052, 142.088
1172.277, 100.420
1173.502, 183.594
1174.726, 110.844
1175.951, 132.044
1177.175, 136.547
1178.400, 133.232
1179.624, 141.485
1180.847, 132.023
1182.071, 142.352
1183.295, 126.715
1184.518, 130.029
1185.741, 153.432
1186.964, 208.667
1188.187, 164.956
1189.409, 217.094
1190.631, 180.368
1191.854, 143.767
1193.076, 174.992
1194.297, 132.746
1195.519, 155.641
1196.741, 207.791
1197.962, 193.347
1199.183, 158.547
1200.404, 186.752
1201.625, 178.493
1202.845, 124.990
1204.065, 133.584
1205.286, 183.783
1206.506, 171.266
1207.725, 187.544
1208.945, 107.415
1210.164, 149.185
1211.384, 135.448
1212.603, 141.608
1213.822, 127.968
1215.040, 132.106
1216.259, 168.145
1217.477, 158.575
1218.695, 122.983
1219.913, 149.984
1221.131, 139.981
1222.349, 153.686
1223.566, 129.564
1224.783, 144.474
1226.000, 114.323
1227.217, 126.978
1228.434, 173.797
1229.650, 151.774
1230.867, 122.722
1232.083, 148.219
1233.299, 178.006
1234.515, 149.026
1235.730, 127.845
1236.946, 103.196
1238.161, 97.892
1239.376, 135.250
1240.591, 107.044
1241.806, 134.172
1243.020, 127.081
1244.234, 131.767
1245.449, 152.764
1246.662, 116.455
1247.876, 100.193
1249.090, 117.826
1250.303, 122.921
1251.516, 143.432
1252.730, 157.204
1253.942, 168.865
1255.155, 145.606
1256.368, 167.125
1257.580, 111.839
1258.792, 172.396
1260.004, 183.280
1261.216, 148.715
1262.427, 203.361
1263.639, 193.045
1264.850, 190.818
1266.061, 193.392
1267.272, 152.959
1268.483, 169.615
1269.693, 251.653
1270.904, 198.300
1272.114, 201.906
1273.324, 249.365
1274.533, 189.040
1275.743, 231.853
1276.952, 182.409
1278.162, 207.143
1279.371, 190.862
1280.580, 202.375
1281.788, 168.190
1282.997, 160.863
1284.205, 182.250
1285.413, 175.232
1286.621, 171.170
1287.829, 160.398
1289.037, 157.733
1290.244, 146.305
1291.452, 154.754
1292.659, 131.093
1293.866, 140.887
1295.072, 126.446
1296.279, 138.852
1297.485, 157.108
1298.691, 106.357
1299.897, 168.520
1301.103, 119.806
1302.309, 134.875
1303.514, 104.479
1304.720, 83.667
1305.925, 76.748
1307.130, 55.819
1308.334, 52.519
1309.539, 34.935
1310.743, 46.945
1311.947, 44.941
1313.151, 44.906
1314.355, 70.853
1315.559, 33.784
1316.762, 28.692
1317.966, 62.600
1319.169, 43.480
1320.372, 54.337
1321.575, 15.181
1322.777, 8.008
1323.980, 5.817
1325.182, 57.609
1326.384, 50.385
1327.586, 22.146
1328.787, 25.886
1329.989, 18.611
1331.190, 35.318
1332.391, 26.943
1333.592, 55.679
1334.793, 27.337
1335.994, 16.978
1337.194, 31.601
1338.394, 12.794
1339.595, 15.212
1340.794, 43.345
1341.994, 26.118
1343.194, 30.391
1344.393, 28.883
1345.592, 2.359
1346.791, 8.815
1347.990, 5.253
1349.189, 25.673
1350.387, 8.078
1351.585, 17.466
1352.784, 1.163
1353.982, 0.191
1355.179, 16.527
1356.377, 23.848
1357.574, 10.154
1358.772, 22.555
1359.969, 5.288
1361.165, 5.961
1362.362, 6.194
1363.559, 39.413
1364.755, 37.619
1365.951, 17.188
1367.147, 60.986
1368.343, 51.148
1369.539, 63.300
1370.734, 1.558
1371.929, 4.429
1373.124, 27.687
1374.319, 29.793
1375.514, 0.107
1376.709, 5.018
1377.903, 18.062
1379.097, 49.138
1380.291, 1.212
1381.485, 20.531
1382.679, 0.535
1383.872, 44.915
1385.065, 6.932
1386.259, 20.585
1387.452, 5.663
1388.644, 12.063
1389.837, 57.768
1391.029, 44.448
1392.222, 13.122
1393.414, 39.776
1394.606, 5.579
1395.797, 27.045
1396.989, 52.669
1398.180, 31.286
1399.371, 26.911
1400.562, 25.532
1401.753, 80.159
1402.944, 9.779
1404.134, 37.394
1405.325, 84.047
1406.515, 30.738
1407.705, 23.445
1408.895, 53.176
1410.084, 23.918
1411.274, 25.671
1412.463, 18.436
1413.652, 47.197
1414.841, 38.945
1416.030, 75.705
1417.218, 39.462
1418.407, 30.148
1419.595, 26.625
1420.783, 56.107
1421.971, 96.689
1423.158, 86.951
1424.346, 74.458
1425.533, 89.540
1426.720, 68.539
1427.907, 65.990
1429.094, 56.948
1430.281, 43.904
1431.467, 84.114
1432.653, 145.905
1433.839, 78.669
1435.025, 55.214
1436.211, 88.537
1437.396, 8.527
1438.582, 74.196
1439.767, 53.419
1440.952, 49.793
1442.137, 89.241
1443.322, 58.435
1444.506, 90.027
1445.690, 67.411
1446.875, 36.136
1448.059, 77.969
1449.242, 86.907
1450.426, 42.629
1451.609, 80.036
1452.793, 68.783
1453.976, 87.101
1455.159, 101.018
1456.342, 64.417
1457.524, 71.902
1458.706, 93.919
1459.889, 37.340
1461.071, 91.085
1462.253, 42.227
1463.434, 76.281
1464.616, 104.929
1465.797, 72.541
1466.978, 78.599
1468.159, 108.013
1469.340, 95.557
1470.521, 96.560
1471.701, 74.027
1472.882, 74.640
1474.062, 69.705
1475.242, 81.591
1476.422, 62.787
1477.601, 109.368
1478.781, 100.663
1479.960, 88.780
1481.139, 107.189
1482.318, 91.484
1483.497, 74.951
1484.675, 119.062
1485.854, 118.427
1487.032, 102.933
1488.210, 119.132
1489.388, 73.499
1490.565, 72.017
1491.743, 120.598
1492.920, 73.252
1494.097, 103.899
1495.274, 61.609
1496.451, 72.334
1497.628, 124.055
1498.804, 98.781
1499.981, 71.543
1501.157, 90.333
1502.333, 68.154
1503.509, 88.998
1504.684, 71.900
1505.860, 88.885
1507.035, 53.976
1508.210, 103.146
1509.385, 55.413
1510.560, 45.765
1511.734, 58.208
1512.909, 46.751
1514.083, 102.420
1515.257, 49.237
1516.431, 30.232
1517.604, 85.432
1518.778, 39.864
1519.951, 69.571
1521.125, 68.620
1522.298, 0.902
1523.470, 86.119
1524.643, 0.148
1525.816, 52.667
1526.988, 0.000
##END=



