##NAMES=Almandine
##RRUFFID=R040168
##IDEAL CHEMISTRY=Fe^2+^_3_Al_2_(SiO_4_)_3_
##LOCALITY=Pocos Dos Cavatos, Ceara, Brazil
##OWNER=RRUFF
##SOURCE=University of Arizona Mineral Museum
##DESCRIPTION=Dark red etched single crystal
##STATUS=The identification of this mineral has been confirmed by X-ray diffraction and chemical analysis
##URL=rruff.info/R040168
##MEASURED CHEMISTRY=(Fe^2+^_1.48_Mn_1.47_Ca_0.05_)_Î£=3_Al_2.00_(Si_1.00_O_4_)_3_; trace amounts of Ti and Y
##PIN_ID=L00513
##ORIENTATION=Laser parallel to -a* (-1 0 0). Fiducial mark perpendicular to laser is parallel to -c [0 0 -1]
67.554, 0.000
68.952, 83.400
70.349, 146.497
71.747, 3.653
73.144, 8.922
74.540, 25.817
75.937, 262.642
77.333, 348.375
78.729, 245.560
80.125, 274.637
81.521, 368.992
82.916, 270.338
84.311, 302.274
85.706, 281.548
87.101, 207.703
88.496, 197.721
89.890, 152.774
91.284, 199.201
92.678, 210.009
94.071, 263.905
95.465, 252.279
96.858, 226.380
98.251, 183.784
99.644, 188.902
101.036, 215.151
102.428, 187.966
103.820, 165.695
105.212, 284.614
106.604, 331.248
107.995, 475.273
109.387, 393.393
110.777, 410.420
112.168, 432.956
113.559, 405.638
114.949, 432.169
116.339, 437.702
117.729, 265.284
119.119, 286.969
120.508, 216.815
121.897, 92.473
123.286, 75.512
124.675, 114.949
126.063, 111.297
127.452, 105.159
128.840, 111.015
130.228, 169.107
131.615, 160.978
133.003, 209.635
134.390, 184.485
135.777, 273.687
137.164, 241.423
138.550, 311.268
139.937, 272.875
141.323, 215.148
142.709, 204.842
144.094, 216.405
145.480, 161.673
146.865, 132.104
148.250, 192.151
149.635, 152.142
151.019, 169.824
152.403, 223.030
153.788, 231.370
155.171, 261.359
156.555, 336.984
157.939, 412.129
159.322, 668.363
160.705, 1078.084
162.088, 1581.591
163.470, 2380.845
164.853, 3099.480
166.235, 2870.970
167.617, 2033.320
168.998, 1254.299
170.380, 724.368
171.761, 443.023
173.142, 289.677
174.523, 229.999
175.904, 150.780
177.284, 122.516
178.664, 84.179
180.044, 3.756
181.424, 10.233
182.803, 33.603
184.183, 11.857
185.562, 10.009
186.940, 33.991
188.319, 28.102
189.698, 2.654
191.076, 32.735
192.454, 52.265
193.831, 43.924
195.209, 69.695
196.586, 47.556
197.963, 38.481
199.340, 76.471
200.717, 20.524
202.093, 28.645
203.470, 33.854
204.846, 49.175
206.221, 37.625
207.597, 27.764
208.972, 33.998
210.347, 90.050
211.722, 104.915
213.097, 130.590
214.472, 141.054
215.846, 206.316
217.220, 245.383
218.594, 236.288
219.967, 280.021
221.341, 259.615
222.714, 232.177
224.087, 215.643
225.460, 200.050
226.832, 162.405
228.204, 160.710
229.577, 166.964
230.948, 193.164
232.320, 171.312
233.692, 181.720
235.063, 202.616
236.434, 230.027
237.805, 202.449
239.175, 221.955
240.545, 246.243
241.916, 230.007
243.286, 275.350
244.655, 256.248
246.025, 286.734
247.394, 313.840
248.763, 296.546
250.132, 296.853
251.501, 339.756
252.869, 322.960
254.237, 315.929
255.605, 374.262
256.973, 379.510
258.340, 341.527
259.708, 386.433
261.075, 417.065
262.442, 388.173
263.808, 429.702
265.175, 425.954
266.541, 403.064
267.907, 410.750
269.273, 461.006
270.639, 408.486
272.004, 437.693
273.369, 463.178
274.734, 432.015
276.099, 528.714
277.463, 505.272
278.828, 534.651
280.192, 538.912
281.556, 606.148
282.919, 620.609
284.283, 633.921
285.646, 700.743
287.009, 692.549
288.372, 758.008
289.734, 810.339
291.097, 874.448
292.459, 943.588
293.821, 1013.679
295.183, 1086.739
296.544, 1165.562
297.905, 1239.384
299.266, 1310.595
300.627, 1427.215
301.988, 1404.218
303.348, 1410.697
304.709, 1419.753
306.069, 1347.242
307.428, 1412.654
308.788, 1444.920
310.147, 1627.699
311.507, 1814.897
312.865, 2059.700
314.224, 2395.873
315.583, 2806.228
316.941, 3461.193
318.299, 4074.154
319.657, 4749.400
321.015, 5421.132
322.372, 5729.137
323.729, 5810.275
325.086, 5440.608
326.443, 5010.881
327.800, 4483.064
329.156, 3973.208
330.512, 3832.358
331.868, 3704.316
333.224, 3810.086
334.579, 4063.798
335.935, 4546.333
337.290, 5299.205
338.645, 6240.669
339.999, 7822.458
341.354, 9465.929
342.708, 11905.914
344.062, 14163.803
345.416, 15872.064
346.769, 16851.125
348.123, 15339.515
349.476, 13786.683
350.829, 11072.377
352.182, 8788.477
353.534, 7082.537
354.887, 5707.413
356.239, 4971.098
357.591, 4295.347
358.942, 4022.018
360.294, 3915.120
361.645, 3883.837
362.996, 4039.210
364.347, 4400.137
365.698, 5141.598
367.048, 5853.781
368.398, 6857.047
369.748, 7960.094
371.098, 8910.398
372.448, 9459.835
373.797, 9050.064
375.146, 8439.472
376.495, 7071.106
377.844, 5867.846
379.192, 4796.127
380.540, 3875.066
381.889, 3047.002
383.236, 2459.620
384.584, 2052.159
385.932, 1693.589
387.279, 1392.954
388.626, 1235.259
389.973, 1074.333
391.319, 938.412
392.666, 849.559
394.012, 756.866
395.358, 703.082
396.704, 618.261
398.049, 571.453
399.394, 488.690
400.740, 453.756
402.084, 426.840
403.429, 355.968
404.774, 384.963
406.118, 384.083
407.462, 315.063
408.806, 305.112
410.150, 288.215
411.493, 285.192
412.836, 253.114
414.179, 247.316
415.522, 203.092
416.865, 220.942
418.207, 202.990
419.549, 186.014
420.891, 182.833
422.233, 137.796
423.575, 143.843
424.916, 142.728
426.257, 120.748
427.598, 87.715
428.939, 73.548
430.279, 72.747
431.619, 53.385
432.959, 83.138
434.299, 79.981
435.639, 77.897
436.978, 64.652
438.318, 67.097
439.657, 39.783
440.996, 58.880
442.334, 36.966
443.673, 17.171
445.011, 43.344
446.349, 51.487
447.687, 36.601
449.024, 19.690
450.361, 60.756
451.699, 39.800
453.036, 29.822
454.372, 49.824
455.709, 48.808
457.045, 44.774
458.381, 47.817
459.717, 48.761
461.053, 54.681
462.388, 57.137
463.724, 53.479
465.059, 58.356
466.394, 62.221
467.728, 49.076
469.063, 96.920
470.397, 69.756
471.731, 112.584
473.065, 128.408
474.398, 163.225
475.732, 168.040
477.065, 123.850
478.398, 132.654
479.731, 115.450
481.063, 96.238
482.396, 95.014
483.728, 69.779
485.060, 78.526
486.391, 79.472
487.723, 89.389
489.054, 86.295
490.385, 73.139
491.716, 106.930
493.047, 140.798
494.377, 197.573
495.708, 276.476
497.038, 322.867
498.368, 367.755
499.697, 399.643
501.027, 354.454
502.356, 326.331
503.685, 292.333
505.014, 267.406
506.342, 240.541
507.671, 219.311
508.999, 197.339
510.327, 192.659
511.655, 185.061
512.982, 195.925
514.310, 222.880
515.637, 210.234
516.964, 237.999
518.291, 263.096
519.617, 280.822
520.944, 335.293
522.270, 343.859
523.596, 383.413
524.921, 412.879
526.247, 377.820
527.572, 406.737
528.897, 386.204
530.222, 425.654
531.547, 469.732
532.871, 459.418
534.196, 504.513
535.520, 564.486
536.844, 636.570
538.167, 704.495
539.491, 762.322
540.814, 930.356
542.137, 1057.742
543.460, 1296.469
544.783, 1519.199
546.105, 1835.121
547.427, 2335.758
548.749, 2841.547
550.071, 3475.786
551.393, 4084.293
552.714, 4470.600
554.035, 4662.381
555.356, 4373.922
556.677, 3892.044
557.998, 3345.654
559.318, 2661.462
560.638, 2234.254
561.958, 1764.412
563.278, 1509.133
564.597, 1225.967
565.917, 971.823
567.236, 888.639
568.555, 739.400
569.874, 705.333
571.192, 603.994
572.511, 578.650
573.829, 533.273
575.147, 434.709
576.464, 464.220
577.782, 437.654
579.099, 405.016
580.416, 433.364
581.733, 380.523
583.050, 383.705
584.366, 383.882
585.683, 360.966
586.999, 451.910
588.315, 493.794
589.630, 595.674
590.946, 706.472
592.261, 752.393
593.576, 780.301
594.891, 694.198
596.206, 555.040
597.520, 474.890
598.834, 392.624
600.148, 290.436
601.462, 244.153
602.776, 217.786
604.089, 173.526
605.402, 166.297
606.715, 145.004
608.028, 132.306
609.341, 124.294
610.653, 123.155
611.965, 114.825
613.277, 116.577
614.589, 126.322
615.901, 89.049
617.212, 107.786
618.523, 121.524
619.834, 123.286
621.145, 157.056
622.456, 144.809
623.766, 133.580
625.076, 155.221
626.386, 170.095
627.696, 182.022
629.006, 206.834
630.315, 231.823
631.624, 240.876
632.933, 213.073
634.242, 187.279
635.551, 175.307
636.859, 133.370
638.167, 133.360
639.475, 119.266
640.783, 104.166
642.090, 101.957
643.398, 42.784
644.705, 44.610
646.012, 42.475
647.318, 52.323
648.625, 60.113
649.931, 37.041
651.237, 55.108
652.543, 20.181
653.849, 5.757
655.155, 18.289
656.460, 16.325
657.765, 33.351
659.070, 16.366
660.375, 2.372
661.679, 17.635
662.984, 3.663
664.288, 11.707
665.592, 12.770
666.895, 2.852
668.199, 3.948
669.502, 12.061
670.805, 11.807
672.108, 2.018
673.411, 26.492
674.713, 14.677
676.016, 24.882
677.318, 37.113
678.620, 21.378
679.921, 20.666
681.223, 35.980
682.524, 43.325
683.825, 42.707
685.126, 67.124
686.427, 34.590
687.727, 11.088
689.028, 38.606
690.328, 61.157
691.628, 26.754
692.927, 45.378
694.227, 43.039
695.526, 41.736
696.825, 11.467
698.124, 51.218
699.423, 24.009
700.721, 6.825
702.020, 10.658
703.318, 5.750
704.616, 26.377
705.913, 17.270
707.211, 22.185
708.508, 19.124
709.805, 10.084
711.102, 6.062
712.399, 17.056
713.695, 8.069
714.992, 12.099
716.288, 26.854
717.584, 19.201
718.879, 36.723
720.175, 6.640
721.470, 4.549
722.765, 5.448
724.060, 13.339
725.355, 1.222
726.649, 53.095
727.944, 26.961
729.238, 62.821
730.532, 27.674
731.825, 40.522
733.119, 64.365
734.412, 52.202
735.705, 30.034
736.998, 56.861
738.291, 54.684
739.584, 63.504
740.876, 68.789
742.168, 80.131
743.460, 67.939
744.752, 53.745
746.043, 47.549
747.334, 51.350
748.626, 45.149
749.916, 43.946
751.207, 40.740
752.498, 45.057
753.788, 45.063
755.078, 57.109
756.368, 56.896
757.658, 62.765
758.947, 66.206
760.237, 76.247
761.526, 64.029
762.815, 58.809
764.104, 43.588
765.392, 51.366
766.680, 53.143
767.969, 58.920
769.257, 66.692
770.544, 80.469
771.832, 81.150
773.119, 84.912
774.406, 88.684
775.693, 91.455
776.980, 104.538
778.267, 83.996
779.553, 131.765
780.839, 161.534
782.125, 175.302
783.411, 163.070
784.697, 198.837
785.982, 201.602
787.267, 176.366
788.552, 241.133
789.837, 195.899
791.122, 194.663
792.406, 185.429
793.690, 187.194
794.974, 181.959
796.258, 188.730
797.542, 184.505
798.825, 172.066
800.108, 218.640
801.391, 192.207
802.674, 225.822
803.957, 269.482
805.239, 291.050
806.522, 332.700
807.804, 357.217
809.085, 365.244
810.367, 443.776
811.649, 466.306
812.930, 438.921
814.211, 508.479
815.492, 522.924
816.772, 500.321
818.053, 518.478
819.333, 477.200
820.613, 484.339
821.893, 455.062
823.173, 482.198
824.452, 472.889
825.732, 476.499
827.011, 455.730
828.290, 440.574
829.568, 423.112
830.847, 430.833
832.125, 429.578
833.403, 457.439
834.681, 457.641
835.959, 476.947
837.236, 505.804
838.514, 519.649
839.791, 544.043
841.068, 569.496
842.345, 601.290
843.621, 635.482
844.898, 680.301
846.174, 703.175
847.450, 755.972
848.726, 789.929
850.001, 807.980
851.277, 851.822
852.552, 962.309
853.827, 1054.451
855.102, 1102.587
856.376, 1148.529
857.651, 1196.753
858.925, 1215.822
860.199, 1184.443
861.473, 1164.793
862.746, 1201.343
864.020, 1127.417
865.293, 1159.729
866.566, 1136.459
867.839, 1222.701
869.112, 1255.744
870.384, 1296.801
871.656, 1334.493
872.928, 1465.620
874.200, 1522.636
875.472, 1676.629
876.744, 1844.662
878.015, 1924.781
879.286, 2109.088
880.557, 2180.854
881.828, 2422.045
883.098, 2646.252
884.369, 2798.470
885.639, 3265.697
886.909, 3481.935
888.178, 3770.182
889.448, 4283.440
890.717, 4580.707
891.987, 5228.985
893.256, 5801.272
894.524, 6468.570
895.793, 7635.880
897.061, 8603.201
898.330, 10272.527
899.598, 12041.869
900.865, 14281.220
902.133, 17880.580
903.401, 20959.957
904.668, 25879.334
905.935, 31848.730
907.202, 36968.133
908.468, 44407.559
909.735, 47476.980
911.001, 49996.418
912.267, 49735.867
913.533, 45025.324
914.799, 40614.797
916.064, 33854.277
917.330, 28473.775
918.595, 23933.283
919.860, 19122.793
921.124, 16342.322
922.389, 13921.865
923.653, 11381.416
924.918, 10130.979
926.182, 8255.551
927.445, 7160.139
928.709, 6212.737
929.972, 5394.346
931.236, 4764.967
932.499, 4060.601
933.761, 3615.244
935.024, 3240.901
936.286, 2789.569
937.549, 2579.250
938.811, 2258.942
940.073, 2022.723
941.334, 1964.438
942.596, 1688.234
943.857, 1622.372
945.118, 1468.124
946.379, 1295.001
947.640, 1355.144
948.900, 1189.526
950.161, 1148.173
951.421, 1088.053
952.681, 1006.879
953.940, 1038.169
955.200, 935.177
956.459, 896.039
957.719, 913.994
958.978, 842.053
960.236, 866.966
961.495, 800.683
962.753, 767.182
964.012, 844.804
965.270, 770.902
966.527, 793.136
967.785, 760.151
969.043, 780.537
970.300, 785.688
971.557, 807.700
972.814, 735.744
974.071, 742.802
975.327, 729.875
976.583, 650.964
977.840, 619.065
979.095, 589.179
980.351, 580.189
981.607, 525.169
982.862, 551.296
984.117, 507.171
985.372, 480.963
986.627, 486.203
987.882, 455.285
989.136, 492.565
990.390, 458.697
991.644, 497.868
992.898, 461.220
994.152, 470.798
995.405, 393.188
996.659, 476.605
997.912, 436.042
999.165, 463.503
1000.417, 465.901
1001.670, 519.495
1002.922, 455.017
1004.174, 466.565
1005.426, 475.131
1006.678, 521.711
1007.930, 493.305
1009.181, 522.914
1010.432, 507.541
1011.683, 537.186
1012.934, 555.849
1014.185, 525.529
1015.435, 544.224
1016.685, 567.933
1017.935, 511.658
1019.185, 579.399
1020.435, 599.156
1021.684, 601.923
1022.934, 623.708
1024.183, 682.503
1025.432, 671.308
1026.680, 773.124
1027.929, 756.949
1029.177, 897.790
1030.425, 928.642
1031.673, 968.510
1032.921, 1012.388
1034.169, 967.276
1035.416, 941.183
1036.663, 843.099
1037.911, 760.025
1039.157, 663.959
1040.404, 577.902
1041.650, 531.853
1042.897, 483.819
1044.143, 390.794
1045.389, 364.780
1046.634, 281.779
1047.880, 251.788
1049.125, 283.809
1050.371, 245.839
1051.615, 239.880
1052.860, 218.929
1054.105, 145.991
1055.349, 166.061
1056.593, 98.140
1057.837, 149.226
1059.081, 122.321
1060.325, 113.428
1061.568, 136.542
1062.812, 75.662
1064.055, 87.789
1065.298, 110.923
1066.540, 80.066
1067.783, 88.215
1069.025, 86.374
1070.267, 56.547
1071.509, 80.727
1072.751, 88.913
1073.993, 47.106
1075.234, 56.305
1076.475, 33.510
1077.716, 53.722
1078.957, 8.941
1080.198, 26.166
1081.438, 46.397
1082.679, 15.635
1083.919, 36.878
1085.159, 27.126
1086.398, 5.382
1087.638, 37.653
1088.877, 26.071
1090.116, 30.208
1091.355, 2.508
1092.594, 11.220
1093.833, 10.071
1095.071, 3.633
1096.309, 29.334
1097.547, 14.044
1098.785, 18.755
1100.023, 1.471
1101.260, 5.816
1102.498, 9.894
1103.735, 41.604
1104.972, 2.669
1106.208, 21.055
1107.445, 40.784
1108.681, 37.529
1109.918, 33.289
1111.154, 10.062
1112.389, 47.838
1113.625, 38.635
1114.860, 40.449
1116.096, 52.282
1117.331, 5.138
1118.566, 18.997
1119.800, 15.864
1121.035, 34.261
1122.269, 79.389
1123.503, 116.519
1124.737, 70.651
1125.971, 35.784
1127.205, 18.919
1128.438, 11.944
1129.671, 10.815
1130.904, 30.693
1132.137, 7.586
1133.370, 5.486
1134.602, 7.609
1135.834, 27.295
1137.066, 8.785
1138.298, 9.136
1139.530, 9.065
1140.762, 38.999
1141.993, 3.062
1143.224, 52.121
1144.455, 46.180
1145.686, 39.238
1146.917, 68.295
1148.147, 34.350
1149.377, 96.404
1150.607, 117.456
1151.837, 104.507
1153.067, 166.555
1154.296, 142.602
1155.526, 145.691
1156.755, 171.830
1157.984, 140.869
1159.213, 211.173
1160.441, 204.443
1161.670, 158.698
1162.898, 255.868
1164.126, 202.978
1165.354, 224.244
1166.581, 218.757
1167.809, 166.148
1169.036, 218.497
1170.263, 246.982
1171.490, 198.080
1172.717, 225.392
1173.943, 249.451
1175.170, 200.532
1176.396, 227.856
1177.622, 182.165
1178.848, 240.823
1180.073, 202.421
1181.299, 207.546
1182.524, 253.866
1183.749, 210.287
1184.974, 235.418
1186.199, 223.586
1187.423, 195.616
1188.648, 203.063
1189.872, 216.120
1191.096, 179.531
1192.320, 169.229
1193.543, 139.323
1194.767, 176.604
1195.990, 174.680
1197.213, 148.088
1198.436, 179.658
1199.659, 133.835
1200.881, 166.071
1202.104, 158.049
1203.326, 153.375
1204.548, 153.450
1205.770, 153.762
1206.991, 157.761
1208.213, 129.664
1209.434, 119.510
1210.655, 111.504
1211.876, 151.438
1213.096, 131.686
1214.317, 156.742
1215.537, 145.157
1216.757, 100.984
1217.977, 118.959
1219.197, 108.795
1220.417, 100.731
1221.636, 151.642
1222.855, 99.553
1224.074, 89.745
1225.293, 131.679
1226.512, 79.705
1227.731, 143.638
1228.949, 89.570
1230.167, 114.465
1231.385, 139.359
1232.603, 136.462
1233.820, 167.784
1235.038, 180.496
1236.255, 143.069
1237.472, 182.760
1238.689, 183.642
1239.906, 156.755
1241.122, 222.420
1242.338, 198.033
1243.555, 193.423
1244.771, 218.562
1245.986, 192.435
1247.202, 235.974
1248.417, 230.600
1249.633, 190.662
1250.848, 221.121
1252.063, 250.727
1253.277, 219.563
1254.492, 212.118
1255.706, 226.654
1256.920, 258.393
1258.134, 252.428
1259.348, 230.286
1260.562, 227.597
1261.775, 206.828
1262.988, 216.360
1264.201, 246.406
1265.414, 243.711
1266.627, 261.155
1267.839, 238.703
1269.052, 224.281
1270.264, 224.685
1271.476, 216.209
1272.688, 209.596
1273.899, 244.004
1275.111, 185.497
1276.322, 218.196
1277.533, 225.633
1278.744, 188.340
1279.955, 204.316
1281.165, 177.609
1282.376, 160.152
1283.586, 130.430
1284.796, 147.073
1286.006, 122.479
1287.215, 115.705
1288.425, 99.761
1289.634, 106.962
1290.843, 114.132
1292.052, 107.283
1293.261, 92.481
1294.469, 96.606
1295.678, 83.713
1296.886, 90.878
1298.094, 74.962
1299.302, 85.034
1300.509, 48.076
1301.717, 36.106
1302.924, 65.124
1304.131, 20.127
1305.338, 22.114
1306.545, 23.087
1307.752, 30.044
1308.958, 39.966
1310.164, 21.860
1311.370, 9.731
1312.576, 14.587
1313.782, 16.427
1314.987, 10.252
1316.193, 38.063
1317.398, 17.860
1318.603, 45.637
1319.807, 39.401
1321.012, 6.851
1322.216, 16.879
1323.421, 12.407
1324.625, 5.286
1325.829, 28.959
1327.032, 23.384
1328.236, 10.248
1329.439, 26.862
1330.642, 23.459
1331.845, 39.037
1333.048, 28.753
1334.251, 9.859
1335.453, 8.662
1336.656, 1.166
1337.858, 5.349
1339.060, 13.116
1340.261, 5.437
1341.463, 6.991
1342.664, 2.401
1343.866, 16.794
1345.067, 8.829
1346.267, 32.528
1347.468, 7.871
1348.669, 21.198
1349.869, 7.511
1351.069, 6.191
1352.269, 39.088
1353.469, 50.354
1354.668, 23.606
1355.868, 28.844
1357.067, 7.069
1358.266, 16.280
1359.465, 1.478
1360.664, 21.338
1361.862, 19.825
1363.061, 34.977
1364.259, 21.118
1365.457, 22.248
1366.655, 21.236
1367.852, 4.478
1369.050, 17.578
1370.247, 10.670
1371.444, 15.754
1372.641, 14.831
1373.838, 16.904
1375.035, 15.973
1376.231, 4.040
1377.427, 32.892
1378.623, 32.171
1379.819, 22.641
1381.015, 32.332
1382.211, 8.102
1383.406, 5.151
1384.601, 33.586
1385.796, 23.319
1386.991, 19.040
1388.185, 20.759
1389.380, 21.474
1390.574, 39.204
1391.768, 32.947
1392.962, 58.713
1394.156, 32.510
1395.350, 33.318
1396.543, 5.127
1397.736, 16.921
1398.929, 42.699
1400.122, 43.467
1401.315, 28.244
1402.507, 41.027
1403.700, 82.810
1404.892, 47.594
1406.084, 30.379
1407.276, 73.156
1408.467, 56.922
1409.659, 59.677
1410.850, 30.422
1412.041, 26.157
1413.232, 77.697
1414.423, 31.061
1415.614, 86.153
1416.804, 54.532
1417.994, 67.204
1419.184, 25.879
1420.374, 49.718
1421.564, 48.803
1422.753, 17.381
1423.943, 73.072
1425.132, 37.460
1426.321, 49.821
1427.510, 13.665
1428.698, 63.718
1429.887, 77.128
1431.075, 34.461
1432.263, 44.349
1433.451, 68.721
1434.639, 46.290
1435.827, 29.536
1437.014, 77.561
1438.201, 58.633
1439.388, 25.385
1440.575, 58.473
1441.762, 38.962
1442.949, 82.978
1444.135, 69.452
1445.321, 48.744
1446.507, 64.375
1447.693, 43.201
1448.879, 67.163
1450.064, 90.681
1451.250, 35.042
1452.435, 72.522
1453.620, 62.559
1454.805, 50.630
1455.989, 64.365
1457.174, 65.319
1458.358, 56.551
1459.542, 96.478
1460.726, 63.317
1461.910, 51.255
1463.093, 74.925
1464.277, 68.899
1465.460, 68.615
1466.643, 75.502
1467.826, 70.593
1469.009, 81.016
1470.191, 101.620
1471.373, 59.780
1472.556, 85.062
1473.738, 69.926
1474.919, 48.176
1476.101, 66.016
1477.283, 50.335
1478.464, 67.836
1479.645, 102.202
1480.826, 39.742
1482.007, 45.011
1483.187, 104.521
1484.368, 49.042
1485.548, 88.539
1486.728, 79.014
1487.908, 58.678
1489.088, 81.451
1490.268, 101.213
1491.447, 51.947
1492.626, 79.705
1493.805, 47.455
1494.984, 44.196
1496.163, 42.967
1497.341, 53.765
1498.520, 56.624
1499.698, 53.736
1500.876, 56.573
1502.054, 42.644
1503.232, 19.790
1504.409, 4.012
1505.586, 35.322
1506.763, 53.707
1507.940, 32.182
1509.117, 33.771
1510.294, 39.501
1511.470, 7.393
1512.647, 25.469
1513.823, 26.760
1514.999, 52.310
1516.174, 54.188
1517.350, 1.483
1518.526, 54.328
1519.701, 46.936
