##NAMES=Amblygonite
##RRUFFID=R040006
##IDEAL CHEMISTRY=LiAlPO_4_F
##LOCALITY=Pala, San Diego County, California, USA
##OWNER=RRUFF
##SOURCE=University of Arizona Mineral Museum
##DESCRIPTION=Light gray coarsely crystalline massive
##STATUS=The identification of this mineral has been confirmed by X-ray diffraction and chemical analysis
##URL=rruff.info/R040006
##MEASURED CHEMISTRY=LiAl_1.00_(P_1.00_O_4_)(F_0.73_(OH)_0.27_)_Î£=1_; Li assumed by stoichiometry; OH estimated by charge balance
##PIN_ID=l00485
##ORIENTATION=Laser parallel to -a* (-1 0 0). Fiducial mark perpendicular to laser is parallel to -b [0 -1 0]
110.603, 0.000
111.996, 18.936
113.388, 284.445
114.780, 380.776
116.172, 682.102
117.564, 840.425
118.956, 994.900
120.347, 1040.168
121.738, 1299.388
123.129, 1489.545
124.519, 1811.866
125.910, 2101.517
127.300, 2286.032
128.690, 2354.859
130.080, 2287.384
131.469, 2306.850
132.858, 1814.333
134.248, 1527.567
135.636, 1211.171
137.025, 750.803
138.413, 579.637
139.801, 399.819
141.189, 327.464
142.577, 158.668
143.964, 139.694
145.352, 130.622
146.739, 20.553
148.125, 12.088
149.512, 20.672
150.898, 82.508
152.284, 36.242
153.670, 39.575
155.056, 73.574
156.441, 96.903
157.827, 130.183
159.212, 184.739
160.596, 177.239
161.981, 249.932
163.365, 138.810
164.749, 230.861
166.133, 141.079
167.517, 174.456
168.900, 160.984
170.283, 143.657
171.666, 121.469
173.049, 85.413
174.431, 115.479
175.813, 33.659
177.195, 47.939
178.577, 25.323
179.959, 21.805
181.340, 40.391
182.721, 13.081
184.102, 47.878
185.483, 15.219
186.863, 66.790
188.244, 23.099
189.624, 44.112
191.003, 29.420
192.383, 20.176
193.762, 10.700
195.141, 55.815
196.520, 34.604
197.899, 86.947
199.277, 147.211
200.656, 139.394
202.034, 46.497
203.411, 56.478
204.789, 109.475
206.166, 34.357
207.543, 37.171
208.920, 9.081
210.297, 122.395
211.673, 96.767
213.049, 326.189
214.425, 259.655
215.801, 251.164
217.176, 355.716
218.552, 339.309
219.927, 361.941
221.302, 263.615
222.676, 399.328
224.051, 304.083
225.425, 403.879
226.799, 336.715
228.173, 378.588
229.546, 348.498
230.919, 353.437
232.292, 307.396
233.665, 355.387
235.038, 376.394
236.410, 309.424
237.782, 265.383
239.154, 299.242
240.526, 270.103
241.898, 267.946
243.269, 238.836
244.640, 217.785
246.011, 195.782
247.381, 270.838
248.752, 216.996
250.122, 218.256
251.492, 404.616
252.861, 231.072
254.231, 308.609
255.600, 409.291
256.969, 402.032
258.338, 507.828
259.707, 598.660
261.075, 750.550
262.443, 923.485
263.811, 1014.457
265.179, 1200.463
266.546, 1459.507
267.914, 1677.584
269.281, 1813.698
270.647, 1935.847
272.014, 2146.031
273.380, 2092.249
274.747, 2140.504
276.113, 1929.738
277.478, 1929.744
278.844, 1815.185
280.209, 1818.915
281.574, 1852.852
282.939, 1854.943
284.304, 1943.152
285.668, 1961.452
287.032, 2292.819
288.396, 2482.239
289.760, 2871.702
291.123, 3421.203
292.487, 4080.736
293.850, 5370.280
295.212, 6519.825
296.575, 8749.348
297.937, 11018.886
299.300, 13798.425
300.662, 16957.957
302.023, 19017.488
303.385, 20807.023
304.746, 19976.574
306.107, 18406.127
307.468, 15845.694
308.829, 12935.273
310.189, 11104.855
311.549, 8794.052
312.909, 7543.629
314.269, 6482.675
315.629, 5542.256
316.988, 5020.550
318.347, 4130.089
319.706, 3619.448
321.065, 2938.678
322.423, 2567.854
323.781, 2167.005
325.139, 1714.195
326.497, 1595.421
327.855, 1340.683
329.212, 1242.979
330.569, 1055.311
331.926, 972.676
333.283, 913.074
334.639, 759.504
335.995, 846.966
337.351, 708.459
338.707, 589.983
340.063, 622.498
341.418, 524.082
342.773, 517.566
344.128, 367.035
345.483, 389.704
346.837, 279.043
348.192, 285.768
349.546, 304.979
350.899, 182.756
352.253, 241.727
353.606, 136.554
354.960, 239.406
356.313, 214.741
357.665, 118.596
359.018, 243.521
360.370, 125.337
361.722, 200.488
363.074, 136.373
364.426, 115.791
365.777, 49.258
367.128, 31.320
368.479, 140.574
369.830, 69.821
371.181, 114.980
372.531, 258.129
373.881, 150.976
375.231, 156.166
376.581, 200.377
377.930, 151.607
379.280, 151.918
380.629, 163.037
381.977, 139.326
383.326, 228.522
384.674, 207.195
386.023, 164.858
387.370, 181.286
388.718, 173.669
390.066, 242.095
391.413, 330.517
392.760, 240.966
394.107, 371.441
395.454, 364.141
396.800, 362.104
398.146, 448.842
399.492, 435.387
400.838, 579.943
402.184, 519.540
403.529, 611.152
404.874, 656.799
406.219, 643.447
407.564, 893.885
408.908, 841.903
410.252, 1203.378
411.596, 1258.195
412.940, 1554.982
414.284, 2065.803
415.627, 2466.636
416.970, 3607.587
418.313, 4678.464
419.656, 6879.354
420.999, 9610.292
422.341, 13501.245
423.683, 18542.227
425.025, 21883.244
426.367, 24654.271
427.708, 22575.342
429.049, 18276.430
430.390, 13797.549
431.731, 9448.688
433.072, 6849.834
434.412, 4691.015
435.752, 3482.205
437.092, 2633.420
438.432, 1914.653
439.772, 1565.903
441.111, 1197.167
442.450, 1106.443
443.789, 898.733
445.127, 621.044
446.466, 729.362
447.804, 479.700
449.142, 506.049
450.480, 448.407
451.817, 414.789
453.155, 536.176
454.492, 455.599
455.829, 511.026
457.166, 343.464
458.502, 382.922
459.838, 563.386
461.175, 549.854
462.510, 776.328
463.846, 706.816
465.181, 972.350
466.517, 1073.888
467.852, 1005.468
469.186, 1507.051
470.521, 1648.642
471.855, 2050.240
473.190, 2371.844
474.523, 2783.452
475.857, 3335.077
477.191, 3756.707
478.524, 4528.351
479.857, 5039.996
481.190, 5441.645
482.523, 5863.299
483.855, 5974.956
485.187, 6236.617
486.519, 5948.282
487.851, 6209.952
489.183, 5921.624
490.514, 5583.299
491.845, 5674.979
493.176, 5116.658
494.507, 4948.341
495.837, 4720.025
497.168, 4111.713
498.498, 4133.398
499.828, 3585.088
501.157, 3426.777
502.487, 2888.468
503.816, 2690.158
505.145, 2491.852
506.474, 2043.546
507.802, 1845.243
509.131, 1486.940
510.459, 1368.642
511.787, 1180.343
513.115, 852.052
514.442, 863.759
515.770, 695.464
517.097, 542.174
518.424, 597.887
519.750, 389.596
521.077, 303.312
522.403, 233.047
523.729, 342.812
525.055, 74.623
526.381, 100.442
527.706, 177.256
529.031, 38.095
530.356, 18.937
531.681, 49.796
533.006, 30.350
534.330, 120.483
535.654, 28.312
536.978, 15.133
538.302, 2.949
539.625, 13.229
540.949, 28.578
542.272, 77.606
543.595, 2.841
544.917, 83.088
546.240, 8.679
547.562, 58.398
548.884, 171.924
550.206, 32.654
551.527, 53.521
552.849, 34.417
554.170, 123.936
555.491, 95.462
556.812, 9.952
558.132, 62.348
559.453, 53.283
560.773, 394.414
562.093, 42.745
563.412, 30.978
564.732, 64.285
566.051, 11.466
567.370, 19.804
568.689, 8.267
570.008, 41.580
571.326, 216.660
572.644, 106.417
573.963, 235.634
575.280, 44.364
576.598, 231.536
577.915, 222.684
579.233, 151.312
580.550, 307.429
581.866, 188.237
583.183, 310.396
584.499, 261.484
585.815, 430.740
587.131, 463.113
588.447, 419.455
589.763, 462.339
591.078, 473.404
592.393, 580.726
593.708, 601.771
595.022, 576.198
596.337, 777.635
597.651, 958.751
598.965, 1020.477
600.279, 1131.469
601.593, 1433.646
602.906, 1566.953
604.219, 1467.920
605.532, 1561.491
606.845, 1392.822
608.158, 1464.508
609.470, 1309.115
610.782, 1269.854
612.094, 1357.253
613.406, 1377.885
614.718, 1459.491
616.029, 1573.557
617.340, 1584.227
618.651, 1804.763
619.962, 1735.327
621.272, 2058.108
622.582, 2217.941
623.892, 2498.460
625.202, 2817.352
626.512, 3048.014
627.821, 3628.718
629.131, 4099.955
630.440, 4700.266
631.749, 5670.562
633.057, 6243.517
634.366, 7453.838
635.674, 8544.630
636.982, 10534.807
638.290, 13264.955
639.597, 16655.084
640.905, 22595.176
642.212, 29655.240
643.519, 37785.285
644.825, 47485.301
646.132, 51005.281
647.438, 52695.234
648.744, 46675.164
650.050, 38025.059
651.356, 30114.939
652.662, 21654.779
653.967, 17144.598
655.272, 12744.386
656.577, 10054.145
657.882, 8123.875
659.186, 6293.576
660.490, 5333.248
661.794, 4442.893
663.098, 3633.190
664.402, 3432.775
665.705, 2632.333
667.009, 2511.861
668.312, 2141.360
669.614, 1840.875
670.917, 1730.315
672.219, 1379.727
673.522, 1439.106
674.824, 1178.458
676.125, 1067.780
677.427, 1007.073
678.728, 846.336
680.030, 845.569
681.331, 818.166
682.631, 557.339
683.932, 656.480
685.232, 586.299
686.532, 525.380
687.832, 547.223
689.132, 456.242
690.432, 443.554
691.731, 422.711
693.030, 391.637
694.329, 420.532
695.628, 322.319
696.926, 430.303
698.224, 212.995
699.522, 336.880
700.820, 295.274
702.118, 168.666
703.415, 177.281
704.713, 95.928
706.010, 223.515
707.307, 42.093
708.603, 40.620
709.900, 149.098
711.196, 169.909
712.492, 71.872
713.788, 210.043
715.083, 0.912
716.379, 103.396
717.674, 151.649
718.969, 69.874
720.264, 148.049
721.558, 83.159
722.853, 183.161
724.147, 9.114
725.441, 58.123
726.735, 65.999
728.028, 16.112
729.322, 131.707
730.615, 39.500
731.908, 7.151
733.201, 174.849
734.493, 97.482
735.785, 190.077
737.078, 22.389
738.370, 43.663
739.661, 123.722
740.953, 78.920
742.244, 38.342
743.535, 34.436
744.826, 22.713
746.117, 99.819
747.407, 53.102
748.698, 93.896
749.988, 9.134
751.278, 57.780
752.567, 74.663
753.857, 41.519
755.146, 78.341
756.435, 25.136
757.724, 1.893
759.013, 68.603
760.301, 4.714
761.590, 41.919
762.878, 28.522
764.165, 24.908
765.453, 71.603
766.741, 71.910
768.028, 84.493
769.315, 20.875
770.602, 22.777
771.888, 53.517
773.175, 79.786
774.461, 56.033
775.747, 7.743
777.033, 121.561
778.319, 44.518
779.604, 109.428
780.889, 26.534
782.174, 22.470
783.459, 8.381
784.744, 74.261
786.028, 40.121
787.312, 24.039
788.596, 21.755
789.880, 7.528
791.164, 73.274
792.447, 49.001
793.730, 84.709
795.013, 50.397
796.296, 26.069
797.579, 81.723
798.861, 187.357
800.143, 92.975
801.425, 128.574
802.707, 134.158
803.989, 99.725
805.270, 155.274
806.551, 60.807
807.832, 196.324
809.113, 121.825
810.394, 147.312
811.674, 232.782
812.954, 98.237
814.234, 163.679
815.514, 189.106
816.794, 15.481
818.073, 129.909
819.352, 185.287
820.631, 260.651
821.910, 6.003
823.189, 1.343
824.467, 196.667
825.745, 71.980
827.023, 117.281
828.301, 62.571
829.578, 87.851
830.856, 153.118
832.133, 108.375
833.410, 63.622
834.687, 81.140
835.963, 34.057
837.240, 149.244
838.516, 25.579
839.792, 129.582
841.068, 75.264
842.343, 69.855
843.618, 134.968
844.894, 9.918
846.169, 195.185
847.443, 80.282
848.718, 84.627
849.992, 140.431
851.266, 104.512
852.540, 10.505
853.814, 75.537
855.088, 20.569
856.361, 105.552
857.634, 50.568
858.907, 74.618
860.180, 79.706
861.453, 92.495
862.725, 215.242
863.997, 29.772
865.269, 35.338
866.541, 259.471
867.812, 35.389
869.084, 95.765
870.355, 170.562
871.626, 75.717
872.897, 189.965
874.167, 34.874
875.438, 221.332
876.708, 116.532
877.978, 187.528
879.248, 141.660
880.517, 46.019
881.787, 206.688
883.056, 51.892
884.325, 65.572
885.594, 287.802
886.862, 223.059
888.130, 188.827
889.399, 174.098
890.667, 65.331
891.934, 113.877
893.202, 269.147
894.469, 276.242
895.737, 240.212
897.004, 80.212
898.270, 233.662
899.537, 148.925
900.803, 167.925
902.070, 383.196
903.336, 265.079
904.601, 199.945
905.867, 395.126
907.132, 109.691
908.398, 224.985
909.663, 89.088
910.928, 272.057
912.192, 187.358
913.457, 40.052
914.721, 294.981
915.985, 169.551
917.249, 271.191
918.512, 186.700
919.776, 15.542
921.039, 281.148
922.302, 65.775
923.565, 267.938
924.827, 83.493
926.090, 109.178
927.352, 204.831
928.614, 168.268
929.876, 114.645
931.138, 340.336
932.399, 177.651
933.660, 233.191
934.922, 308.688
936.182, 183.651
937.443, 239.541
938.704, 205.443
939.964, 268.687
941.224, 394.563
942.484, 289.965
943.744, 415.980
945.003, 272.022
946.262, 268.092
947.521, 424.187
948.780, 400.309
950.039, 526.457
951.298, 572.634
952.556, 378.838
953.814, 685.069
955.072, 441.327
956.330, 627.615
957.587, 643.931
958.845, 610.274
960.102, 776.648
961.359, 653.050
962.615, 789.482
963.872, 1015.943
965.128, 762.434
966.384, 1038.954
967.640, 815.505
968.896, 1031.403
970.152, 1248.016
971.407, 1004.712
972.662, 1301.439
973.917, 1348.199
975.172, 1404.945
976.427, 1521.768
977.681, 1548.626
978.935, 1755.516
980.189, 2072.438
981.443, 1979.394
982.697, 2436.383
983.950, 2673.405
985.203, 2770.459
986.456, 3514.152
987.709, 3461.297
988.962, 4188.477
990.214, 4704.980
991.467, 5262.260
992.719, 6416.778
993.971, 7244.127
995.222, 8521.510
996.474, 9878.729
997.725, 10996.207
998.976, 13283.727
1000.227, 14278.300
1001.478, 16565.891
1002.728, 19359.656
1003.978, 20807.338
1005.229, 24375.088
1006.479, 25762.869
1007.728, 28040.705
1008.978, 30588.561
1010.227, 30246.467
1011.476, 31734.410
1012.725, 30492.400
1013.974, 28450.438
1015.223, 28097.947
1016.471, 24596.898
1017.719, 22965.062
1018.967, 20672.648
1020.215, 17991.488
1021.462, 17069.885
1022.710, 14728.793
1023.957, 13507.267
1025.204, 13065.172
1026.451, 11651.113
1027.697, 11719.758
1028.944, 11168.509
1030.190, 11007.548
1031.436, 12026.386
1032.682, 12185.276
1033.928, 13344.207
1035.173, 14723.195
1036.418, 15074.591
1037.663, 17253.668
1038.908, 17762.848
1040.153, 19102.070
1041.398, 20530.088
1042.642, 20929.467
1043.886, 22028.883
1045.130, 22338.402
1046.374, 21638.863
1047.617, 22528.496
1048.860, 21428.203
1050.104, 21297.949
1051.347, 21197.752
1052.589, 19897.607
1053.832, 20197.514
1055.074, 19507.461
1056.316, 19017.434
1057.558, 20117.457
1058.800, 19757.533
1060.042, 20097.656
1061.283, 21317.824
1062.524, 20738.035
1063.765, 21308.299
1065.006, 19308.602
1066.247, 17528.947
1067.487, 16129.340
1068.728, 12959.770
1069.968, 11440.265
1071.208, 9960.796
1072.447, 8311.386
1073.687, 7532.027
1074.926, 6442.703
1076.165, 5603.416
1077.404, 5394.160
1078.643, 4444.951
1079.881, 4325.814
1081.120, 3936.712
1082.358, 3317.720
1083.596, 3298.763
1084.834, 2859.842
1086.071, 2931.773
1087.309, 3652.949
1088.546, 2214.162
1089.783, 2375.443
1091.020, 2036.757
1092.256, 1698.105
1093.493, 1839.487
1094.729, 1750.900
1095.965, 1552.343
1097.201, 1523.818
1098.436, 1165.324
1099.672, 1356.866
1100.907, 1128.438
1102.142, 960.042
1103.377, 1161.676
1104.612, 953.340
1105.846, 975.035
1107.081, 1006.760
1108.315, 918.514
1109.549, 1020.326
1110.782, 942.141
1112.016, 803.983
1113.249, 995.856
1114.483, 987.758
1115.716, 859.688
1116.948, 1051.650
1118.181, 823.644
1119.413, 1138.432
1120.646, 1160.479
1121.878, 1132.553
1123.110, 1364.786
1124.341, 1076.943
1125.573, 1099.768
1126.804, 991.979
1128.035, 724.214
1129.266, 1086.793
1130.497, 809.078
1131.727, 851.391
1132.957, 873.725
1134.188, 546.081
1135.418, 843.829
1136.647, 756.264
1137.877, 498.717
1139.106, 828.777
1140.335, 551.276
1141.564, 593.810
1142.793, 566.571
1144.022, 169.146
1145.250, 507.875
1146.479, 261.657
1147.707, 384.290
1148.934, 438.137
1150.162, 0.819
1151.390, 187.039
1152.617, 387.029
1153.844, 89.789
1155.071, 333.230
1156.298, 56.522
1157.524, 159.327
1158.751, 342.548
1159.977, 25.382
1161.203, 18.261
1162.428, 263.550
1163.654, 53.575
1164.879, 459.773
1166.105, 21.779
1167.330, 35.316
1168.555, 184.202
1169.779, 32.722
1171.004, 40.203
1172.228, 248.570
1173.452, 208.485
1174.676, 364.403
1175.900, 98.642
1177.123, 18.456
1178.346, 195.294
1179.570, 58.541
1180.793, 101.455
1182.015, 257.867
1183.238, 89.210
1184.460, 233.695
1185.683, 155.269
1186.905, 158.177
1188.126, 271.435
1189.348, 262.596
1190.569, 165.516
1191.791, 296.831
1193.012, 39.621
1194.233, 303.493
1195.453, 285.689
1196.674, 68.593
1197.894, 281.725
1199.114, 156.718
1200.334, 99.611
1201.554, 322.501
1202.774, 15.386
1203.993, 468.266
1205.212, 326.824
1206.431, 99.692
1207.650, 322.556
1208.869, 108.997
1210.087, 101.845
1211.305, 194.687
1212.524, 7.722
1213.741, 300.548
1214.959, 73.364
1216.177, 37.277
1217.394, 400.076
1218.611, 137.972
1219.828, 200.753
1221.045, 283.619
1222.261, 127.287
1223.478, 380.039
1224.694, 162.780
1225.910, 165.685
1227.126, 158.408
1228.342, 90.973
1229.557, 263.691
1230.772, 346.409
1231.987, 14.243
1233.202, 388.477
1234.417, 302.383
1235.631, 30.399
1236.846, 333.125
1238.060, 55.852
1239.274, 358.579
1240.488, 201.308
1241.701, 24.037
1242.915, 326.811
1244.128, 99.538
1245.341, 143.374
1246.554, 286.101
1247.767, 78.763
1248.979, 291.422
1250.191, 344.073
1251.403, 66.940
1252.615, 179.583
1253.827, 272.222
1255.039, 45.069
1256.250, 207.669
1257.461, 200.223
1258.672, 122.828
1259.883, 405.333
1261.094, 208.140
1262.304, 321.360
1263.514, 383.766
1264.724, 173.842
1265.934, 388.482
1267.144, 280.794
1268.354, 70.006
1269.563, 322.279
1270.772, 34.427
1271.981, 187.100
1273.190, 339.141
1274.398, 51.511
1275.607, 373.451
1276.815, 115.369
1278.023, 297.517
1279.231, 309.380
1280.439, 38.830
1281.646, 276.430
1282.853, 338.045
1284.060, 70.365
1285.267, 311.229
1286.474, 162.665
1287.681, 94.227
1288.887, 255.988
1290.093, 42.685
1291.299, 48.564
1292.505, 309.786
1293.711, 50.982
1294.916, 252.490
1296.121, 3.562
1297.327, 55.388
1298.531, 377.882
1299.736, 78.840
1300.941, 89.685
1302.145, 220.498
1303.349, 101.223
1304.553, 241.855
1305.757, 172.455
1306.961, 33.019
1308.164, 253.534
1309.367, 103.168
1310.570, 236.403
1311.773, 523.906
1312.976, 36.331
1314.178, 153.864
1315.381, 383.550
1316.583, 16.339
1317.785, 303.693
1318.987, 356.356
1320.188, 113.697
1321.390, 396.071
1322.591, 85.541
1323.792, 125.205
1324.993, 464.823
1326.193, 14.391
1327.394, 223.848
1328.594, 360.902
1329.794, 69.729
1330.994, 309.546
1332.194, 128.778
1333.394, 62.038
1334.593, 357.059
1335.792, 63.932
1336.991, 104.992
1338.190, 152.968
1339.389, 78.202
1340.587, 260.542
1341.786, 149.240
1342.984, 47.892
1344.182, 206.487
1345.379, 255.034
1346.577, 723.535
1347.774, 361.994
1348.972, 19.589
1350.169, 318.763
1351.365, 357.076
1352.562, 15.353
1353.759, 273.578
1354.955, 211.834
1356.151, 160.000
1357.347, 228.138
1358.543, 296.255
1359.738, 84.352
1360.934, 372.432
1362.129, 9.500
1363.324, 338.547
1364.519, 186.592
1365.713, 94.656
1366.908, 292.744
1368.102, 270.926
1369.296, 169.139
1370.490, 257.457
1371.684, 84.031
1372.877, 227.615
1374.071, 238.406
1375.264, 30.068
1376.457, 331.371
1377.650, 92.781
1378.843, 5.840
1380.035, 305.506
1381.227, 306.807
1382.419, 248.076
1383.611, 489.309
1384.803, 250.506
1385.995, 231.637
1387.186, 402.760
1388.377, 113.846
1389.568, 614.887
1390.759, 411.156
1391.950, 251.830
1393.140, 471.791
1394.331, 192.463
1395.521, 332.711
1396.711, 593.293
1397.900, 187.283
1399.090, 497.695
1400.279, 368.586
1401.469, 228.568
1402.658, 430.928
1403.847, 169.504
1405.035, 127.990
1406.224, 483.764
1407.412, 272.639
1408.600, 271.680
1409.788, 480.811
1410.976, 32.947
1412.164, 485.971
1413.351, 348.486
1414.538, 108.010
1415.725, 589.197
1416.912, 128.172
1418.099, 240.324
1419.285, 477.305
1420.472, 120.691
1421.658, 439.311
1422.844, 544.383
1424.030, 10.807
1425.215, 313.920
1426.401, 500.545
1427.586, 103.180
1428.771, 526.986
1429.956, 94.596
1431.141, 62.164
1432.325, 489.785
1433.510, 180.791
1434.694, 298.016
1435.878, 544.830
1437.062, 49.922
1438.245, 477.379
1439.429, 274.066
1440.612, 10.883
1441.795, 585.506
1442.978, 412.373
1444.161, 368.537
1445.343, 440.732
1446.526, 252.549
1447.708, 417.588
1448.890, 482.383
1450.072, 306.822
1451.253, 528.566
1452.435, 432.654
1453.616, 76.615
1454.797, 519.777
1455.978, 322.635
1457.159, 265.943
1458.340, 468.986
1459.520, 249.221
1460.700, 432.217
1461.880, 694.926
1463.060, 197.928
1464.240, 538.686
1465.420, 570.062
1466.599, 252.527
1467.778, 554.000
1468.957, 245.109
1470.136, 277.547
1471.315, 629.766
1472.493, 290.346
1473.671, 352.750
1474.849, 544.949
1476.027, 235.723
1477.205, 538.707
1478.383, 330.375
1479.560, 172.311
1480.737, 454.746
1481.914, 336.992
1483.091, 89.168
1484.268, 571.201
1485.444, 243.133
1486.621, 195.014
1487.797, 556.848
1488.973, 199.621
1490.149, 412.510
1491.324, 365.807
1492.500, 69.525
1493.675, 523.510
1494.850, 297.740
1496.025, 7.023
1497.200, 638.664
1498.374, 134.857
1499.548, 151.727
1500.723, 629.488
1501.897, 68.266
1503.071, 208.232
1504.244, 459.658
1505.418, 41.705
1506.591, 426.887
1507.764, 534.895
1508.937, 3.309
1510.110, 494.514
1511.282, 438.414
1512.455, 0.000
##END=



