##NAMES=Amblygonite
##RRUFFID=R040006
##IDEAL CHEMISTRY=LiAlPO_4_F
##LOCALITY=Pala, San Diego County, California, USA
##OWNER=RRUFF
##SOURCE=University of Arizona Mineral Museum
##DESCRIPTION=Light gray coarsely crystalline massive
##STATUS=The identification of this mineral has been confirmed by X-ray diffraction and chemical analysis
##URL=rruff.info/R040006
##MEASURED CHEMISTRY=LiAl_1.00_(P_1.00_O_4_)(F_0.73_(OH)_0.27_)_Î£=1_; Li assumed by stoichiometry; OH estimated by charge balance
##PIN_ID=l00314
##ORIENTATION=Laser parallel to -c* (0 0 -1). Fiducial mark perpendicular to laser is parallel to -a [-1 0 0]
116.172, 0.000
117.564, 14.754
118.956, 137.490
120.347, 56.776
121.738, 148.234
123.129, 204.551
124.519, 432.506
125.910, 376.387
127.300, 460.980
128.690, 537.918
130.080, 517.963
131.469, 510.031
132.858, 513.977
134.248, 569.304
135.636, 405.096
137.025, 218.970
138.413, 321.045
139.801, 203.091
141.189, 138.126
142.577, 106.166
143.964, 51.222
145.352, 18.698
146.739, 49.584
148.125, 35.261
149.512, 19.260
150.898, 107.944
152.284, 146.522
153.670, 320.023
155.056, 509.471
156.441, 847.882
157.827, 1258.503
159.212, 1778.272
160.596, 2453.871
161.981, 3105.525
163.365, 3633.236
164.749, 4391.004
166.133, 4718.824
167.517, 4996.697
168.900, 5094.620
170.283, 5052.594
171.666, 4830.624
173.049, 4438.705
174.431, 4336.838
175.813, 3745.028
177.195, 3493.271
178.577, 3181.566
179.959, 2874.950
181.340, 2514.162
182.721, 2354.498
184.102, 2100.358
185.483, 1834.248
186.863, 1707.241
188.244, 1418.339
189.624, 1161.541
191.003, 928.839
192.383, 673.230
193.762, 472.709
195.141, 365.273
196.520, 103.921
197.899, 58.649
199.277, 89.549
200.656, 25.683
202.034, 5.247
203.411, 181.240
204.789, 214.289
206.166, 347.392
207.543, 494.538
208.920, 575.723
210.297, 585.948
211.673, 766.212
213.049, 785.517
214.425, 832.797
215.801, 664.044
217.176, 813.335
218.552, 737.668
219.927, 757.042
221.302, 550.458
222.676, 645.913
224.051, 618.406
225.425, 455.939
226.799, 431.510
228.173, 392.121
229.546, 353.770
230.919, 416.456
232.292, 333.177
233.665, 172.934
235.038, 221.723
236.410, 122.547
237.782, 99.404
239.154, 64.295
240.526, 79.188
241.898, 77.932
243.269, 1.017
244.640, 32.064
246.011, 134.066
247.381, 22.018
248.752, 112.840
250.122, 17.499
251.492, 0.951
252.861, 76.742
254.231, 205.517
255.600, 238.353
256.969, 396.324
258.338, 569.375
259.707, 892.476
261.075, 1169.619
262.443, 1511.760
263.811, 1897.893
265.179, 2535.988
266.546, 2957.084
267.914, 3448.200
269.281, 4099.339
270.647, 4520.500
272.014, 4881.682
273.380, 4932.885
274.747, 5084.111
276.113, 5055.358
277.478, 4846.628
278.844, 4767.920
280.209, 4709.232
281.574, 4640.251
282.939, 4431.428
284.304, 4742.666
285.668, 4893.927
287.032, 5215.184
288.396, 5706.435
289.760, 6327.631
291.123, 7148.789
292.487, 8389.926
293.850, 10041.052
295.212, 11922.177
296.575, 14553.019
297.937, 17843.750
299.300, 21464.529
300.662, 24895.344
302.023, 27586.188
303.385, 28467.066
304.746, 27717.969
306.107, 25508.902
307.468, 22669.863
308.829, 19580.844
310.189, 17409.582
311.549, 15306.511
312.909, 13594.465
314.269, 12175.468
315.629, 10406.577
316.988, 9127.704
318.347, 7388.854
319.706, 6140.023
321.065, 4931.213
322.423, 4102.332
323.781, 3563.448
325.139, 3004.588
326.497, 2725.752
327.855, 2526.940
329.212, 2278.152
330.569, 2059.387
331.926, 1860.645
333.283, 1821.926
334.639, 1541.228
335.995, 1468.553
337.351, 1342.899
338.707, 1087.268
340.063, 1131.656
341.418, 1106.065
342.773, 1059.495
344.128, 1037.988
345.483, 1016.273
346.837, 953.600
348.192, 993.947
349.546, 1002.316
350.899, 1099.708
352.253, 1168.120
353.606, 1175.552
354.960, 1194.004
356.313, 1352.475
357.665, 1413.966
359.018, 1498.475
360.370, 1514.001
361.722, 1661.545
363.074, 1767.688
364.426, 1877.935
365.777, 1909.749
367.128, 2101.430
368.479, 2093.055
369.830, 2304.695
371.181, 2256.715
372.531, 2229.028
373.881, 2191.325
375.231, 2143.444
376.581, 2026.299
377.930, 1875.161
379.280, 1678.862
380.629, 1679.173
381.977, 1474.523
383.326, 1351.011
384.674, 1236.880
386.023, 1171.685
387.370, 1070.312
388.718, 946.975
390.066, 952.224
391.413, 848.508
392.760, 749.632
394.107, 737.658
395.454, 755.122
396.800, 590.572
398.146, 578.650
399.492, 491.780
400.838, 529.608
402.184, 497.949
403.529, 375.368
404.874, 426.937
406.219, 350.047
407.564, 386.548
408.908, 275.925
410.252, 296.741
411.596, 264.338
412.940, 145.592
414.284, 189.970
415.627, 216.269
416.970, 326.576
418.313, 394.894
419.656, 712.226
420.999, 945.571
422.341, 1392.935
423.683, 2185.310
425.025, 2567.704
426.367, 2930.105
427.708, 2882.513
429.049, 2504.949
430.390, 1797.403
431.731, 1399.881
433.072, 1024.368
434.412, 689.859
435.752, 546.369
437.092, 412.884
438.432, 388.410
439.772, 250.954
441.111, 278.495
442.450, 314.037
443.789, 285.579
445.127, 293.123
446.466, 276.666
447.804, 270.223
449.142, 240.778
450.480, 365.332
451.817, 348.884
453.155, 356.433
454.492, 335.986
455.829, 476.536
457.166, 450.082
458.502, 531.626
459.838, 609.167
461.175, 643.705
462.510, 686.241
463.846, 795.773
465.181, 877.103
466.517, 1001.050
467.852, 1128.345
469.186, 1310.859
470.521, 1493.369
471.855, 1725.884
473.190, 1948.940
474.523, 2183.234
475.857, 2483.472
477.191, 2695.993
478.524, 3048.507
479.857, 3351.014
481.190, 3623.514
482.523, 3746.005
483.855, 3738.488
485.187, 3710.963
486.519, 3503.431
487.851, 3456.551
489.183, 3458.340
490.514, 3170.780
491.845, 3073.211
493.176, 2845.633
494.507, 2708.044
495.837, 2550.443
497.168, 2321.153
498.498, 2095.212
499.828, 1887.579
501.157, 1699.936
502.487, 1492.279
503.816, 1334.611
505.145, 1256.931
506.474, 1019.237
507.802, 1021.530
509.131, 779.813
510.459, 709.080
511.787, 592.335
513.115, 514.576
514.442, 439.657
515.770, 485.017
517.097, 338.215
518.424, 303.399
519.750, 340.567
521.077, 203.720
522.403, 215.856
523.729, 332.001
525.055, 90.137
526.381, 128.254
527.706, 253.353
529.031, 179.435
530.356, 63.499
531.681, 18.578
533.006, 23.598
534.330, 55.594
535.654, 6.433
536.978, 103.038
538.302, 19.924
539.625, 124.322
540.949, 60.359
542.272, 157.319
543.595, 130.768
544.917, 65.314
546.240, 29.928
547.562, 29.763
548.884, 22.504
550.206, 71.715
551.527, 50.948
552.849, 79.302
554.170, 66.785
555.491, 17.923
556.812, 15.457
558.132, 13.891
559.453, 19.260
560.773, 134.195
562.093, 10.012
563.412, 158.825
564.732, 193.861
566.051, 39.639
567.370, 156.150
568.689, 261.143
570.008, 237.073
571.326, 414.171
572.644, 221.156
573.963, 421.052
575.280, 333.238
576.598, 533.773
577.915, 567.491
579.233, 611.379
580.550, 885.990
581.866, 739.285
583.183, 944.590
584.499, 896.780
585.815, 1028.795
587.131, 1135.991
588.447, 1250.969
589.763, 1436.688
591.078, 1609.733
592.393, 2051.377
593.708, 2396.567
595.022, 2878.109
596.337, 3932.185
597.651, 5116.453
598.965, 6766.969
600.279, 8768.080
601.593, 11018.744
602.906, 13129.555
604.219, 13029.979
605.532, 12554.002
606.845, 10804.246
608.158, 9085.014
609.470, 7605.054
610.782, 6425.092
612.094, 5606.624
613.406, 5116.542
614.718, 4756.421
616.029, 4646.516
617.340, 4626.314
618.651, 4716.073
619.962, 4865.793
621.272, 5285.468
622.582, 5635.104
623.892, 6294.701
625.202, 7104.254
626.512, 7953.767
627.821, 9423.241
629.131, 10892.672
630.440, 12692.062
631.749, 14341.406
633.057, 15140.713
634.366, 15409.976
635.674, 15089.193
636.982, 14408.372
638.290, 13837.507
639.597, 14046.602
640.905, 15235.654
642.212, 17594.658
643.519, 20743.623
644.825, 25192.549
646.132, 27671.418
647.438, 27540.260
648.744, 25399.051
650.050, 20737.793
651.356, 16486.500
652.662, 12415.161
653.967, 9883.778
655.272, 7472.352
656.577, 6110.883
657.882, 4939.367
659.186, 4077.809
660.490, 3466.206
661.794, 2904.560
663.098, 2442.867
664.402, 2101.083
665.705, 1919.354
667.009, 1637.529
668.312, 1585.662
669.614, 1493.748
670.917, 1331.791
672.219, 1179.790
673.522, 987.743
674.824, 925.651
676.125, 883.517
677.427, 721.336
678.728, 679.111
680.030, 726.842
681.331, 684.528
682.631, 561.947
683.932, 529.473
685.232, 327.023
686.532, 434.529
687.832, 311.629
689.132, 408.404
690.432, 365.163
691.731, 362.072
693.030, 208.212
694.329, 248.314
695.628, 153.545
696.926, 242.132
698.224, 204.646
699.522, 460.993
700.820, 301.927
702.118, 530.894
703.415, 115.007
704.713, 179.050
706.010, 133.473
707.307, 89.827
708.603, 7.697
709.900, 57.176
711.196, 43.846
712.492, 12.161
713.788, 123.150
715.083, 20.421
716.379, 13.775
717.674, 82.132
718.969, 39.526
720.264, 175.417
721.558, 110.399
722.853, 4.467
724.147, 97.267
725.441, 1.551
726.735, 1.990
728.028, 61.466
729.322, 83.868
730.615, 72.820
731.908, 60.734
733.201, 32.426
734.493, 28.833
735.785, 16.985
737.078, 44.451
738.370, 9.601
739.661, 84.700
740.953, 92.610
742.244, 19.595
743.535, 17.394
744.826, 7.035
746.117, 65.918
747.407, 110.413
748.698, 18.928
749.988, 113.325
751.278, 37.636
752.567, 32.840
753.857, 197.005
755.146, 122.730
756.435, 146.981
757.724, 131.163
759.013, 175.151
760.301, 29.101
761.590, 192.976
762.878, 116.812
764.165, 280.604
765.453, 204.358
766.741, 78.074
768.028, 301.741
769.315, 235.370
770.602, 138.964
771.888, 352.519
773.175, 276.037
774.461, 299.521
775.747, 402.970
777.033, 296.385
778.319, 509.765
779.604, 503.111
780.889, 486.424
782.174, 649.702
783.459, 632.948
784.744, 876.162
786.028, 1009.343
787.312, 1132.490
788.596, 1245.607
789.880, 1478.693
791.164, 1701.747
792.447, 1984.771
793.730, 2157.765
795.013, 2640.728
796.296, 2953.661
797.579, 3116.566
798.861, 3649.440
800.143, 3592.287
801.425, 3975.105
802.707, 4397.896
803.989, 4530.658
805.270, 4803.395
806.551, 4946.102
807.832, 5248.785
809.113, 5101.441
810.394, 5164.072
811.674, 5236.677
812.954, 5019.258
814.234, 5121.812
815.514, 5154.345
816.794, 4836.853
818.073, 4879.340
819.352, 4561.801
820.631, 4584.240
821.910, 4026.658
823.189, 3939.056
824.467, 3711.430
825.745, 3263.784
827.023, 3176.120
828.301, 2868.435
829.578, 2620.729
830.856, 2373.006
832.133, 2045.264
833.410, 1857.502
834.687, 1579.724
835.963, 1301.928
837.240, 1374.116
838.516, 926.287
839.792, 988.443
841.068, 720.585
842.343, 682.675
843.618, 704.791
844.894, 496.894
846.169, 478.985
847.443, 420.619
848.718, 252.469
849.992, 283.790
851.266, 215.682
852.540, 187.445
853.814, 239.618
855.088, 111.819
856.361, 204.034
857.634, 105.426
858.907, 117.297
860.180, 118.932
861.453, 180.036
862.725, 187.781
863.997, 172.270
865.269, 33.018
866.541, 130.878
867.812, 17.350
869.084, 60.034
870.355, 37.619
871.626, 51.118
872.897, 129.101
874.167, 158.920
875.438, 82.256
876.708, 59.331
877.978, 32.588
879.248, 89.459
880.517, 111.693
881.787, 82.133
883.056, 86.977
884.325, 66.418
885.594, 146.247
886.862, 47.312
888.130, 118.580
889.399, 19.381
890.667, 221.366
891.934, 4.191
893.202, 83.929
894.469, 83.527
895.737, 68.345
897.004, 130.979
898.270, 117.970
899.537, 14.812
900.803, 114.597
902.070, 2.407
903.336, 53.037
904.601, 38.888
905.867, 13.856
907.132, 59.444
908.398, 8.481
909.663, 7.090
910.928, 14.128
912.192, 75.717
913.457, 113.685
914.721, 85.412
915.985, 86.597
917.249, 88.496
918.512, 70.375
919.776, 111.892
921.039, 112.703
922.302, 154.688
923.565, 126.438
924.827, 58.468
926.090, 10.520
927.352, 72.597
928.614, 114.698
929.876, 166.824
931.138, 172.914
932.399, 184.779
933.660, 183.352
934.922, 165.581
936.182, 197.837
937.443, 180.120
938.704, 292.429
939.964, 285.438
941.224, 277.135
942.484, 319.532
943.744, 261.975
945.003, 234.448
946.262, 236.952
947.521, 389.489
948.780, 442.057
950.039, 334.655
951.298, 597.285
952.556, 429.948
953.814, 662.643
955.072, 615.385
956.330, 588.158
957.587, 760.965
958.845, 683.820
960.102, 696.711
961.359, 849.671
962.615, 902.668
963.872, 1275.699
965.128, 1058.766
966.384, 1271.868
967.640, 1225.008
968.896, 1278.182
970.152, 1661.395
971.407, 1474.695
972.662, 1858.033
973.917, 2051.409
975.172, 2024.869
976.427, 2248.365
977.681, 2571.901
978.935, 2535.477
980.189, 3099.090
981.443, 3122.749
982.697, 3526.449
983.950, 4010.188
985.203, 4073.975
986.456, 4817.820
987.709, 5171.733
988.962, 5845.695
990.214, 6809.699
991.467, 7423.766
992.719, 8977.878
993.971, 10152.028
995.222, 11726.242
996.474, 13790.513
997.725, 15334.846
998.976, 17909.264
1000.227, 19913.727
1001.478, 22168.238
1002.728, 25802.801
1003.978, 28297.410
1005.229, 31202.117
1006.479, 33916.867
1007.728, 35971.668
1008.978, 38726.539
1010.227, 39071.461
1011.476, 38806.438
1012.725, 38101.465
1013.974, 34926.551
1015.223, 33241.742
1016.471, 29786.979
1017.719, 26322.279
1018.967, 23466.473
1020.215, 20378.764
1021.462, 18234.289
1022.710, 15957.295
1023.957, 14032.959
1025.204, 13060.521
1026.451, 11666.367
1027.697, 10969.582
1028.944, 10465.638
1030.190, 10127.840
1031.436, 10269.063
1032.682, 10465.351
1033.928, 10938.142
1035.173, 11861.975
1036.418, 11892.039
1037.663, 13036.878
1038.908, 13758.625
1040.153, 14295.335
1041.398, 15161.972
1042.642, 15998.678
1043.886, 16042.575
1045.130, 16906.594
1046.374, 16881.420
1047.617, 17383.582
1048.860, 17476.488
1050.104, 17573.795
1051.347, 17777.082
1052.589, 17644.486
1053.832, 17991.979
1055.074, 18628.574
1056.316, 18736.213
1057.558, 19892.307
1058.800, 21129.871
1060.042, 21467.531
1061.283, 23595.383
1062.524, 23773.293
1063.765, 23721.279
1065.006, 22689.311
1066.247, 20297.391
1067.487, 18315.533
1068.728, 15213.729
1069.968, 12671.986
1071.208, 11050.293
1072.447, 8968.648
1073.687, 7537.061
1074.926, 6405.521
1076.165, 5334.055
1077.404, 5102.641
1078.643, 4301.274
1079.881, 3879.966
1081.120, 3698.720
1082.358, 3057.557
1083.596, 2956.447
1084.834, 2915.387
1086.071, 2584.394
1087.309, 2683.450
1088.546, 2562.561
1089.783, 2681.727
1091.020, 2669.121
1092.256, 2434.010
1093.493, 2703.350
1094.729, 2722.737
1095.965, 2732.610
1097.201, 3002.092
1098.436, 2961.619
1099.672, 3271.197
1100.907, 3530.820
1102.142, 3850.530
1103.377, 4352.719
1104.612, 4492.487
1105.846, 4882.299
1107.081, 5635.053
1108.315, 5984.955
1109.549, 6523.271
1110.782, 7093.262
1112.016, 7203.297
1113.249, 8053.376
1114.483, 8403.497
1115.716, 8563.671
1116.948, 9363.893
1118.181, 9254.154
1119.413, 9886.256
1120.646, 10156.600
1121.878, 9976.986
1123.110, 10377.807
1124.341, 9968.283
1125.573, 9898.800
1126.804, 10069.358
1128.035, 9109.956
1129.266, 9731.544
1130.497, 9072.217
1131.727, 8673.046
1132.957, 8425.314
1134.188, 7878.879
1135.418, 7526.259
1136.647, 7178.657
1137.877, 6209.566
1139.106, 6255.202
1140.335, 5216.416
1141.564, 4867.506
1142.793, 4512.078
1144.022, 3556.662
1145.250, 3521.945
1146.479, 2772.320
1147.707, 2543.478
1148.934, 2385.350
1150.162, 1896.923
1151.390, 1778.959
1152.617, 1823.461
1153.844, 1544.830
1155.071, 1386.367
1156.298, 1324.809
1157.524, 1186.553
1158.751, 1319.085
1159.977, 1130.911
1161.203, 832.609
1162.428, 1148.402
1163.654, 779.911
1164.879, 991.442
1166.105, 953.211
1167.330, 794.793
1168.555, 836.988
1169.779, 765.363
1171.004, 707.033
1172.228, 718.239
1173.452, 652.088
1174.676, 673.448
1175.900, 628.163
1177.123, 599.970
1178.346, 672.188
1179.570, 607.313
1180.793, 469.324
1182.015, 683.593
1183.238, 406.134
1184.460, 558.122
1185.683, 390.957
1186.905, 475.337
1188.126, 497.403
1189.348, 697.015
1190.569, 649.223
1191.791, 722.021
1193.012, 438.397
1194.233, 780.577
1195.453, 893.201
1196.674, 607.150
1197.894, 860.054
1199.114, 933.017
1200.334, 865.356
1201.554, 998.013
1202.774, 802.971
1203.993, 1105.256
1205.212, 1137.822
1206.431, 900.989
1207.650, 1293.288
1208.869, 1046.004
1210.087, 949.208
1211.305, 1101.508
1212.524, 874.283
1213.741, 1157.836
1214.959, 1100.355
1216.177, 894.074
1217.394, 916.367
1218.611, 888.939
1219.828, 681.807
1221.045, 694.416
1222.261, 592.468
1223.478, 704.857
1224.694, 617.306
1225.910, 431.562
1227.126, 357.018
1228.342, 287.367
1229.557, 250.668
1230.772, 333.156
1231.987, 49.807
1233.202, 352.490
1234.417, 266.049
1235.631, 50.291
1236.846, 222.533
1238.060, 104.869
1239.274, 114.307
1240.488, 86.553
1241.701, 21.207
1242.915, 251.244
1244.128, 53.482
1245.341, 66.420
1246.554, 148.629
1247.767, 1.365
1248.979, 65.512
1250.191, 66.641
1251.403, 38.744
1252.615, 69.148
1253.827, 222.945
1255.039, 154.922
1256.250, 17.117
1257.461, 79.197
1258.672, 91.701
1259.883, 233.650
1261.094, 5.600
1262.304, 170.344
1263.514, 152.199
1264.724, 195.990
1265.934, 195.975
1267.144, 127.643
1268.354, 168.732
1269.563, 163.346
1270.772, 64.865
1271.981, 137.494
1273.190, 98.934
1274.398, 9.396
1275.607, 81.906
1276.815, 33.189
1278.023, 15.621
1279.231, 34.295
1280.439, 93.197
1281.646, 11.836
1282.853, 79.451
1284.060, 59.684
1285.267, 31.205
1286.474, 71.977
1287.681, 37.250
1288.887, 35.609
1290.093, 44.965
1291.299, 124.383
1292.505, 156.531
1293.711, 17.016
1294.916, 37.541
1296.121, 17.949
1297.327, 181.684
1298.531, 119.314
1299.736, 89.562
1300.941, 80.264
1302.145, 59.828
1303.349, 19.797
1304.553, 59.717
1305.757, 99.559
1306.961, 30.662
1308.164, 429.057
1309.367, 198.678
1310.570, 121.744
1311.773, 257.744
1312.976, 57.184
1314.178, 63.430
1315.381, 225.885
1316.583, 124.848
1317.785, 74.330
1318.987, 313.453
1320.188, 157.504
1321.390, 261.439
1322.591, 110.330
1323.792, 0.857
1324.993, 177.875
1326.193, 16.559
1327.394, 85.180
1328.594, 323.750
1329.794, 117.736
1330.994, 20.682
1332.194, 219.035
1333.394, 62.668
1334.593, 205.543
1335.792, 93.695
1336.991, 8.209
1338.190, 259.807
1339.389, 137.768
1340.587, 45.672
1341.786, 103.520
1342.984, 101.314
1344.182, 229.055
1345.379, 157.000
1346.577, 24.643
1347.774, 312.223
1348.972, 189.756
1350.169, 97.240
1351.365, 284.674
1352.562, 162.064
1353.759, 99.408
1354.955, 416.867
1356.151, 154.123
1357.347, 81.338
1358.543, 218.510
1359.738, 75.643
1360.934, 412.736
1362.129, 209.885
1363.324, 146.904
1364.519, 203.898
1365.713, 19.137
1366.908, 257.775
1368.102, 244.707
1369.296, 61.586
1370.490, 28.443
1371.684, 52.750
1372.877, 114.062
1374.071, 240.893
1375.264, 8.152
1376.457, 192.646
1377.650, 103.756
1378.843, 74.809
1380.035, 311.889
1381.227, 232.318
1382.419, 26.844
1383.611, 423.947
1384.803, 382.031
1385.995, 282.705
1387.186, 560.207
1388.377, 171.635
1389.568, 372.068
1390.759, 212.447
1391.950, 162.762
1393.140, 349.670
1394.331, 497.881
1395.521, 407.797
1396.711, 417.654
1397.900, 326.342
1399.090, 454.146
1400.279, 312.613
1401.469, 210.248
1402.658, 403.623
1403.847, 328.461
1405.035, 38.059
1406.224, 315.459
1407.412, 383.051
1408.600, 243.801
1409.788, 342.061
1410.976, 50.789
1412.164, 187.166
1413.351, 399.352
1414.538, 107.557
1415.725, 471.598
1416.912, 229.316
1418.099, 301.945
1419.285, 378.746
1420.472, 277.506
1421.658, 229.385
1422.844, 342.801
1424.030, 198.879
1425.215, 175.742
1426.401, 530.740
1427.586, 235.949
1428.771, 385.582
1429.956, 238.316
1431.141, 62.139
1432.325, 437.332
1433.510, 328.725
1434.694, 152.521
1435.878, 517.449
1437.062, 231.436
1438.245, 343.842
1439.429, 306.232
1440.612, 90.947
1441.795, 344.418
1442.978, 618.379
1444.161, 249.016
1445.343, 391.701
1446.526, 493.299
1447.708, 257.525
1448.890, 484.369
1450.072, 416.932
1451.253, 375.254
1452.435, 547.291
1453.616, 197.980
1454.797, 428.838
1455.978, 478.570
1457.159, 200.346
1458.340, 331.678
1459.520, 422.729
1460.700, 272.570
1461.880, 596.320
1463.060, 277.137
1464.240, 437.332
1465.420, 471.369
1466.599, 308.777
1467.778, 288.467
1468.957, 459.084
1470.136, 389.355
1471.315, 379.041
1472.493, 528.938
1473.671, 349.645
1474.849, 507.221
1476.027, 547.771
1477.205, 386.746
1478.383, 366.566
1479.560, 333.824
1480.737, 363.514
1481.914, 453.547
1483.091, 213.920
1484.268, 424.484
1485.444, 355.424
1486.621, 76.338
1487.797, 547.264
1488.973, 248.133
1490.149, 249.180
1491.324, 390.400
1492.500, 142.049
1493.675, 423.898
1494.850, 305.885
1496.025, 98.051
1497.200, 460.527
1498.374, 433.320
1499.548, 146.625
1500.723, 460.334
1501.897, 234.443
1503.071, 126.580
1504.244, 411.465
1505.418, 176.938
1506.591, 343.051
1507.764, 497.650
1508.937, 165.109
1510.110, 433.463
1511.282, 461.254
1512.455, 7.951
1513.627, 413.633
