##NAMES=Amblygonite
##RRUFFID=R040006
##IDEAL CHEMISTRY=LiAlPO_4_F
##LOCALITY=Pala, San Diego County, California, USA
##OWNER=RRUFF
##SOURCE=University of Arizona Mineral Museum
##DESCRIPTION=Light gray coarsely crystalline massive
##STATUS=The identification of this mineral has been confirmed by X-ray diffraction and chemical analysis
##URL=rruff.info/R040006
##MEASURED CHEMISTRY=LiAl_1.00_(P_1.00_O_4_)(F_0.73_(OH)_0.27_)_Î£=1_; Li assumed by stoichiometry; OH estimated by charge balance
##PIN_ID=l00058
##ORIENTATION=Laser parallel to (0 1 1). Fiducial mark perpendicular to laser is parallel to a [1 0 0]
114.780, 0.000
116.172, 105.793
117.564, 8.311
118.956, 213.306
120.347, 199.505
121.738, 266.265
123.129, 393.510
124.519, 662.439
125.910, 787.652
127.300, 929.944
128.690, 1170.712
130.080, 1090.247
131.469, 1062.607
132.858, 967.508
134.248, 994.364
135.636, 882.749
137.025, 792.351
138.413, 772.940
139.801, 914.345
141.189, 886.436
142.577, 839.187
143.964, 1013.145
145.352, 968.770
146.739, 1006.749
148.125, 1266.552
149.512, 1356.637
150.898, 1586.388
152.284, 1805.865
153.670, 2085.120
155.056, 2464.191
156.441, 2873.115
157.827, 3261.912
159.212, 3660.601
160.596, 4029.199
161.981, 4467.729
163.365, 4636.201
164.749, 4674.637
166.133, 4603.047
167.517, 4221.441
168.900, 3999.831
170.283, 3500.544
171.666, 3207.936
173.049, 2652.203
174.431, 2508.528
175.813, 2180.226
177.195, 2006.672
178.577, 1870.693
179.959, 1599.594
181.340, 1384.187
182.721, 1285.105
184.102, 1210.984
185.483, 1107.023
186.863, 1046.558
188.244, 976.771
189.624, 936.039
191.003, 852.648
192.383, 814.592
193.762, 742.627
195.141, 723.208
196.520, 640.292
197.899, 547.458
199.277, 474.632
200.656, 341.846
202.034, 419.120
203.411, 406.467
204.789, 293.894
206.166, 241.405
207.543, 359.002
208.920, 206.688
210.297, 244.459
211.673, 262.317
213.049, 240.262
214.425, 188.290
215.801, 196.398
217.176, 114.587
218.552, 152.851
219.927, 41.189
221.302, 49.600
222.676, 88.081
224.051, 106.632
225.425, 14.752
226.799, 66.071
228.173, 2.668
229.546, 48.539
230.919, 30.301
232.292, 19.185
233.665, 141.887
235.038, 47.085
236.410, 113.899
237.782, 114.843
239.154, 125.742
240.526, 36.602
241.898, 187.418
243.269, 148.191
244.640, 48.907
246.011, 119.575
247.381, 50.189
248.752, 50.697
250.122, 39.009
251.492, 128.874
252.861, 108.799
254.231, 258.747
255.600, 268.783
256.969, 328.886
258.338, 498.983
259.707, 649.042
261.075, 799.085
262.443, 1019.094
263.811, 1339.084
265.179, 1499.078
266.546, 1829.111
267.914, 1989.178
269.281, 2259.274
270.647, 2409.400
272.014, 2379.559
273.380, 2419.743
274.747, 2289.956
276.113, 2190.199
277.478, 1960.471
278.844, 1900.769
280.209, 1728.137
281.574, 1765.942
282.939, 1784.017
284.304, 1542.729
285.668, 1711.755
287.032, 1761.035
288.396, 1990.529
289.760, 2290.207
291.123, 2690.043
292.487, 3300.014
293.850, 4140.107
295.212, 5110.307
296.575, 6690.600
297.937, 8120.976
299.300, 10001.424
300.662, 11411.936
302.023, 12392.507
303.385, 12263.135
304.746, 11473.810
306.107, 10504.532
307.468, 8975.299
308.829, 7816.102
310.189, 6726.936
311.549, 5927.788
312.909, 5328.653
314.269, 4639.524
315.629, 3940.408
316.988, 3441.304
318.347, 2822.211
319.706, 2303.134
321.065, 1924.068
322.423, 1475.017
323.781, 1425.980
325.139, 1046.960
326.497, 937.954
327.855, 878.964
329.212, 829.988
330.569, 744.849
331.926, 672.083
333.283, 613.154
334.639, 514.228
335.995, 455.272
337.351, 456.304
338.707, 337.271
340.063, 468.195
341.418, 319.010
342.773, 379.726
344.128, 250.362
345.483, 390.941
346.837, 191.521
348.192, 362.127
349.546, 232.759
350.899, 283.413
352.253, 354.091
353.606, 214.791
354.960, 255.512
356.313, 226.256
357.665, 237.020
359.018, 327.805
360.370, 178.606
361.722, 239.430
363.074, 390.270
364.426, 311.130
365.777, 342.009
367.128, 402.993
368.479, 373.911
369.830, 369.438
371.181, 337.147
372.531, 298.170
373.881, 229.180
375.231, 191.210
376.581, 142.231
377.930, 124.741
379.280, 96.797
380.629, 56.755
381.977, 56.664
383.326, 84.646
384.674, 162.600
386.023, 87.187
387.370, 78.521
388.718, 121.661
390.066, 71.318
391.413, 122.399
392.760, 108.372
394.107, 22.070
395.454, 178.040
396.800, 84.807
398.146, 97.107
399.492, 163.970
400.838, 253.248
402.184, 109.796
403.529, 133.373
404.874, 136.045
406.219, 184.664
407.564, 147.243
408.908, 234.139
410.252, 303.471
411.596, 193.223
412.940, 444.793
414.284, 467.136
415.627, 638.626
416.970, 860.427
418.313, 1121.928
419.656, 1673.429
420.999, 2284.983
422.341, 3416.539
423.683, 4468.109
425.025, 4919.712
426.367, 5091.313
427.708, 4402.926
429.049, 3434.539
430.390, 2456.184
431.731, 1857.830
433.072, 1379.476
434.412, 951.121
435.752, 802.772
437.092, 644.422
438.432, 696.070
439.772, 497.723
441.111, 399.372
442.450, 671.034
443.789, 562.709
445.127, 484.393
446.466, 546.080
447.804, 507.772
449.142, 409.471
450.480, 721.190
451.817, 572.911
453.155, 694.632
454.492, 546.355
455.829, 748.076
457.166, 719.801
458.502, 851.522
459.838, 903.239
461.175, 954.953
462.510, 1086.663
463.846, 1138.368
465.181, 1220.066
466.517, 1461.759
467.852, 1593.446
469.186, 1935.126
470.521, 2176.798
471.855, 2598.461
473.190, 2990.116
474.523, 3261.760
475.857, 3703.395
477.191, 4195.020
478.524, 4696.636
479.857, 4998.239
481.190, 5249.832
482.523, 5501.414
483.855, 5502.986
485.187, 5544.545
486.519, 4996.092
487.851, 5237.627
489.183, 4839.150
490.514, 4660.662
491.845, 4442.159
493.176, 4133.646
494.507, 3815.116
495.837, 3726.575
497.168, 3238.020
498.498, 3029.453
499.828, 2780.871
501.157, 2632.274
502.487, 2213.666
503.816, 2135.044
505.145, 1936.409
506.474, 1677.762
507.802, 1579.103
509.131, 1320.429
510.459, 1111.742
511.787, 993.041
513.115, 804.326
514.442, 645.597
515.770, 536.854
517.097, 440.834
518.424, 419.325
519.750, 340.536
521.077, 291.730
522.403, 282.909
523.729, 414.070
525.055, 165.538
526.381, 57.043
527.706, 278.460
529.031, 39.956
530.356, 1.364
531.681, 62.705
533.006, 84.856
534.330, 6.070
535.654, 137.104
536.978, 1.868
538.302, 9.559
539.625, 119.028
540.949, 117.473
542.272, 86.134
543.595, 85.037
544.917, 29.236
546.240, 71.480
547.562, 17.561
548.884, 3.324
550.206, 113.857
551.527, 82.577
552.849, 11.094
554.170, 44.566
555.491, 3.498
556.812, 27.044
558.132, 37.695
559.453, 19.267
560.773, 30.005
562.093, 27.977
563.412, 80.202
564.732, 29.476
566.051, 12.606
567.370, 49.620
568.689, 225.928
570.008, 86.640
571.326, 148.066
572.644, 68.043
573.963, 228.402
575.280, 119.604
576.598, 220.508
577.915, 270.529
579.233, 223.271
580.550, 253.273
581.866, 236.668
583.183, 343.959
584.499, 374.003
585.815, 475.871
587.131, 446.330
588.447, 633.505
589.763, 623.594
591.078, 683.910
592.393, 953.759
593.708, 975.093
595.022, 1395.131
596.337, 1794.942
597.651, 2276.025
598.965, 3045.567
600.279, 3735.346
601.593, 4475.734
602.906, 4815.470
604.219, 4334.939
605.532, 3824.818
606.845, 3075.303
608.158, 2629.169
609.470, 2208.896
610.782, 1828.688
612.094, 1659.286
613.406, 1588.473
614.718, 1399.323
616.029, 1338.980
617.340, 1398.055
618.651, 1297.920
619.962, 1357.271
621.272, 1716.439
622.582, 1645.922
623.892, 2014.886
625.202, 2194.480
626.512, 2413.296
627.821, 2832.457
629.131, 3161.197
630.440, 3589.898
631.749, 4058.559
633.057, 4007.180
634.366, 4255.762
635.674, 4124.305
636.982, 4382.807
638.290, 4741.271
639.597, 5659.693
640.905, 6868.078
642.212, 8666.422
643.519, 10434.725
644.825, 12392.986
646.132, 12891.213
647.438, 12179.396
648.744, 10357.535
650.050, 8535.641
651.356, 6443.701
652.662, 4781.721
653.967, 3939.701
655.272, 2917.641
656.577, 2425.539
657.882, 2063.395
659.186, 1621.211
660.490, 1368.988
661.794, 1236.721
663.098, 844.412
664.402, 1032.064
665.705, 849.674
667.009, 697.242
668.312, 774.770
669.614, 702.256
670.917, 739.699
672.219, 327.102
673.522, 544.463
674.824, 311.781
676.125, 529.059
677.427, 366.293
678.728, 383.488
680.030, 390.639
681.331, 237.746
682.631, 224.811
683.932, 241.744
685.232, 218.719
686.532, 235.465
687.832, 243.664
689.132, 128.293
690.432, 265.100
691.731, 300.820
693.030, 297.521
694.329, 192.707
695.628, 188.312
696.926, 115.990
698.224, 245.986
699.522, 190.842
700.820, 9.578
702.118, 246.047
703.415, 182.162
704.713, 165.725
706.010, 320.441
707.307, 26.965
708.603, 96.123
709.900, 30.311
711.196, 110.930
712.492, 194.789
713.788, 159.629
715.083, 24.645
716.379, 117.164
717.674, 191.938
718.969, 64.816
720.264, 210.432
721.558, 42.893
722.853, 39.285
724.147, 36.266
725.441, 109.012
726.735, 63.816
728.028, 90.781
729.322, 173.422
730.615, 92.664
731.908, 108.650
733.201, 266.760
734.493, 127.160
735.785, 257.568
737.078, 22.258
738.370, 43.121
739.661, 221.393
740.953, 55.865
742.244, 120.283
743.535, 45.348
744.826, 183.016
746.117, 127.242
747.407, 221.426
748.698, 67.539
749.988, 161.629
751.278, 205.674
752.567, 72.398
753.857, 256.352
755.146, 190.268
756.435, 94.143
757.724, 195.602
759.013, 249.389
760.301, 144.779
761.590, 92.152
762.878, 5.811
764.165, 160.738
765.453, 134.275
766.741, 77.775
768.028, 283.199
769.315, 66.609
770.602, 128.100
771.888, 363.285
773.175, 98.053
774.461, 171.289
775.747, 204.488
777.033, 117.648
778.319, 230.768
779.604, 93.852
780.889, 287.371
782.174, 150.377
783.459, 253.346
784.744, 446.279
786.028, 389.178
787.312, 512.041
788.596, 394.873
789.880, 587.672
791.164, 470.436
792.447, 593.166
793.730, 835.865
795.013, 848.529
796.296, 901.160
797.579, 983.762
798.861, 1030.439
800.143, 1198.869
801.425, 1161.373
802.707, 1323.848
803.989, 1376.289
805.270, 1388.701
806.551, 1501.086
807.832, 1613.436
809.113, 1465.758
810.394, 1608.051
811.674, 1730.312
812.954, 1582.545
814.234, 1554.750
815.514, 1646.926
816.794, 1319.074
818.073, 1581.193
819.352, 1523.283
820.631, 1475.348
821.910, 1017.385
823.189, 1119.395
824.467, 1021.379
825.745, 883.336
827.023, 915.266
828.301, 907.172
829.578, 689.045
830.856, 710.898
832.133, 672.729
833.410, 634.535
834.687, 356.314
835.963, 437.750
837.240, 589.107
838.516, 330.512
839.792, 381.797
841.068, 53.131
842.343, 344.484
843.618, 114.988
844.894, 146.385
846.169, 257.922
847.443, 159.426
848.718, 180.480
849.992, 241.506
851.266, 18.098
852.540, 66.742
853.814, 304.352
855.088, 29.328
856.361, 172.012
857.634, 73.070
858.907, 154.064
860.180, 15.561
861.453, 243.895
862.725, 194.250
863.997, 217.535
865.269, 40.180
866.541, 281.354
867.812, 82.373
869.084, 130.990
870.355, 31.777
871.626, 17.061
872.897, 56.318
874.167, 92.445
875.438, 182.197
876.708, 51.441
877.978, 256.588
879.248, 47.305
880.517, 182.721
881.787, 198.623
883.056, 250.455
884.325, 30.475
885.594, 70.234
886.862, 29.168
888.130, 89.143
889.399, 50.154
890.667, 113.395
891.934, 21.400
893.202, 112.270
894.469, 181.281
895.737, 91.672
897.004, 104.689
898.270, 135.984
899.537, 56.396
900.803, 62.756
902.070, 96.564
903.336, 27.150
904.601, 82.072
905.867, 117.391
907.132, 148.361
908.398, 9.064
909.663, 180.871
910.928, 109.779
912.192, 59.334
913.457, 108.896
914.721, 140.885
915.985, 52.744
917.249, 287.725
918.512, 88.102
919.776, 72.361
921.039, 288.551
922.302, 27.766
923.565, 198.145
924.827, 60.922
926.090, 119.182
927.352, 99.770
928.614, 120.514
929.876, 140.910
931.138, 301.799
932.399, 27.977
933.660, 262.996
934.922, 163.598
936.182, 324.592
937.443, 75.596
938.704, 126.611
939.964, 197.641
941.224, 168.680
942.484, 99.729
943.744, 240.793
945.003, 141.871
946.262, 252.963
947.521, 134.068
948.780, 155.188
950.039, 396.320
951.298, 467.469
952.556, 258.633
953.814, 389.811
955.072, 391.004
956.330, 452.213
957.587, 446.967
958.845, 374.678
960.102, 405.934
961.359, 417.207
962.615, 428.496
963.872, 599.801
965.128, 271.121
966.384, 792.459
967.640, 483.816
968.896, 565.191
970.152, 836.584
971.407, 378.021
972.662, 959.479
973.917, 610.957
975.172, 732.459
976.427, 943.979
977.681, 795.521
978.935, 1117.082
980.189, 1188.664
981.443, 1350.270
982.697, 1461.896
983.950, 1623.584
985.203, 1535.289
986.456, 2357.023
987.709, 2038.857
988.962, 2690.711
990.214, 2862.598
991.467, 3184.518
992.719, 4066.137
993.971, 4508.158
995.222, 5430.170
996.474, 6392.246
997.725, 6984.391
998.976, 8406.570
1000.227, 9158.779
1001.478, 10341.035
1002.728, 12093.344
1003.978, 13410.439
1005.229, 14952.832
1006.479, 15882.549
1007.728, 17185.078
1008.978, 18387.557
1010.227, 18410.160
1011.476, 18502.428
1012.725, 17835.107
1013.974, 16347.832
1015.223, 15860.605
1016.471, 13733.293
1017.719, 12616.199
1018.967, 11169.191
1020.215, 9792.223
1021.462, 9025.230
1022.710, 7716.953
1023.957, 7000.139
1025.204, 6568.082
1026.451, 5921.379
1027.697, 5724.707
1028.944, 5398.100
1030.190, 5231.520
1031.436, 5174.623
1032.682, 5148.139
1033.928, 5387.457
1035.173, 5889.738
1036.418, 5720.188
1037.663, 6282.648
1038.908, 6406.418
1040.153, 6920.209
1041.398, 7034.055
1042.642, 7687.959
1043.886, 8001.891
1045.130, 8245.934
1046.374, 8440.002
1047.617, 8920.035
1048.860, 9254.195
1050.104, 10058.381
1051.347, 10410.723
1052.589, 11205.074
1053.832, 12499.449
1055.074, 13371.141
1056.316, 14865.580
1057.558, 17290.037
1058.800, 19374.529
1060.042, 21181.412
1061.283, 23795.959
1062.524, 24968.881
1063.765, 25409.807
1065.006, 23454.434
1066.247, 21127.752
1067.487, 18412.447
1068.728, 14477.174
1069.968, 12309.949
1071.208, 9944.727
1072.447, 8009.539
1073.687, 6704.375
1074.926, 5257.750
1076.165, 4542.635
1077.404, 4167.547
1078.643, 3072.490
1079.881, 3157.457
1081.120, 2492.477
1082.358, 2117.070
1083.596, 2062.164
1084.834, 1727.287
1086.071, 1602.438
1087.309, 1477.611
1088.546, 1332.816
1089.783, 1243.240
1091.020, 1135.508
1092.256, 1139.066
1093.493, 994.354
1094.729, 1110.248
1095.965, 1135.576
1097.201, 890.922
1098.436, 817.029
1099.672, 1222.414
1100.907, 887.818
1102.142, 923.973
1103.377, 1259.420
1104.612, 955.145
1105.846, 1440.797
1107.081, 1346.299
1108.315, 1542.398
1109.549, 1647.936
1110.782, 1523.488
1112.016, 1689.254
1113.249, 1674.842
1114.483, 1890.969
1115.716, 1847.088
1116.948, 1802.746
1118.181, 1828.422
1119.413, 2160.684
1120.646, 2096.385
1121.878, 2003.275
1123.110, 1819.789
1124.341, 1826.062
1125.573, 1972.809
1126.804, 1708.611
1128.035, 1414.875
1129.266, 1881.529
1130.497, 1357.732
1131.727, 1653.398
1132.957, 1329.266
1134.188, 1236.502
1135.418, 1440.613
1136.647, 1056.500
1137.877, 775.127
1139.106, 1322.855
1140.335, 689.627
1141.564, 1038.414
1142.793, 675.029
1144.022, 352.086
1145.250, 879.512
1146.479, 67.301
1147.707, 665.529
1148.934, 546.613
1150.162, 127.209
1151.390, 422.623
1152.617, 309.908
1153.844, 367.115
1155.071, 426.957
1156.298, 375.197
1157.524, 405.670
1158.751, 356.764
1159.977, 222.676
1161.203, 190.367
1162.428, 527.252
1163.654, 143.924
1164.879, 529.000
1166.105, 30.355
1167.330, 316.436
1168.555, 342.883
1169.779, 79.848
1171.004, 466.342
1172.228, 549.863
1173.452, 85.693
1174.676, 752.320
1175.900, 450.879
1177.123, 527.195
1178.346, 604.387
1179.570, 450.186
1180.793, 516.484
1182.015, 630.283
1183.238, 747.094
1184.460, 913.490
1185.683, 685.814
1186.905, 1141.586
1188.126, 860.018
1189.348, 1187.367
1190.569, 1413.086
1191.791, 1018.062
1193.012, 1104.008
1194.233, 1670.441
1195.453, 1417.836
1196.674, 1423.434
1197.894, 1463.668
1199.114, 1621.123
1200.334, 1596.930
1201.554, 1414.070
1202.774, 1349.857
1203.993, 1815.303
1205.212, 1461.684
1206.431, 1557.068
1207.650, 1603.283
1208.869, 1318.641
1210.087, 1314.490
1211.305, 1180.512
1212.524, 1005.791
1213.741, 1443.510
1214.959, 1119.230
1216.177, 1194.416
1217.394, 879.584
1218.611, 1156.432
1219.828, 1001.525
1221.045, 718.098
1222.261, 883.428
1223.478, 858.420
1224.694, 805.539
1225.910, 710.457
1227.126, 403.783
1228.342, 474.324
1229.557, 719.496
1230.772, 316.352
1231.987, 322.949
1233.202, 558.252
1234.417, 385.674
1235.631, 350.629
1236.846, 515.742
1238.060, 161.266
1239.274, 636.236
1240.488, 150.881
1241.701, 385.957
1242.915, 740.562
1244.128, 125.246
1245.341, 420.041
1246.554, 394.588
1247.767, 141.170
1248.979, 365.643
1250.191, 260.088
1251.403, 285.012
1252.615, 329.404
1253.827, 193.973
1255.039, 398.264
1256.250, 372.432
1257.461, 296.869
1258.672, 520.957
1259.883, 224.949
1261.094, 245.535
1262.304, 529.459
1263.514, 393.514
1264.724, 62.762
1265.934, 640.758
1267.144, 104.209
1268.354, 205.938
1269.563, 269.268
1270.772, 163.900
1271.981, 607.260
1273.190, 290.193
1274.398, 205.500
1275.607, 318.295
1276.815, 98.975
1278.023, 535.723
1279.231, 118.270
1280.439, 229.244
1281.646, 763.465
1282.853, 25.717
1284.060, 77.779
1285.267, 219.783
1286.474, 138.273
1287.681, 263.379
1288.887, 164.969
1290.093, 113.504
1291.299, 87.918
1292.505, 59.275
1293.711, 9.438
1294.916, 382.320
1296.121, 148.877
1297.327, 152.500
1298.531, 163.432
1299.736, 145.699
1300.941, 345.037
1302.145, 24.408
1303.349, 3.963
1304.553, 486.379
1305.757, 116.631
1306.961, 226.797
1308.164, 276.891
1309.367, 223.090
1310.570, 163.229
1311.773, 416.479
1312.976, 83.893
1314.178, 205.607
1315.381, 315.023
1316.583, 35.643
1317.785, 483.580
1318.987, 282.648
1320.188, 71.631
1321.390, 350.520
1322.591, 179.230
1323.792, 487.834
1324.993, 356.330
1326.193, 35.258
1327.394, 243.012
1328.594, 341.188
1329.794, 10.721
1330.994, 547.262
1332.194, 85.164
1333.394, 162.975
1334.593, 480.699
1335.792, 211.668
1336.991, 415.795
1338.190, 293.168
1339.389, 150.455
1340.587, 607.656
1341.786, 295.229
1342.984, 141.701
1344.182, 418.539
1345.379, 165.291
1346.577, 411.951
1347.774, 488.527
1348.972, 255.025
1350.169, 541.441
1351.365, 287.785
1352.562, 484.051
1353.759, 360.246
1354.955, 316.371
1356.151, 662.420
1357.347, 108.666
1358.543, 364.572
1359.738, 490.412
1360.934, 516.645
1362.129, 162.367
1363.324, 568.027
1364.519, 183.639
1365.713, 409.195
1366.908, 524.684
1368.102, 130.336
1369.296, 505.684
1370.490, 29.020
1371.684, 16.146
1372.877, 391.229
1374.071, 136.287
1375.264, 157.928
1376.457, 349.480
1377.650, 110.955
1378.843, 431.828
1380.035, 392.545
1381.227, 293.016
1382.419, 424.191
1383.611, 664.502
1384.803, 395.051
1385.995, 655.344
1387.186, 486.193
1388.377, 456.754
1389.568, 786.301
1390.759, 176.855
1391.950, 589.824
1393.140, 727.902
1394.331, 396.367
1395.521, 725.902
1396.711, 474.457
1397.900, 702.547
1399.090, 918.457
1400.279, 424.477
1401.469, 510.398
1402.658, 762.562
1403.847, 5.477
1405.035, 458.805
1406.224, 410.336
1407.412, 448.809
1408.600, 526.891
1409.788, 585.586
1410.976, 33.727
1412.164, 780.027
1413.351, 149.848
1414.538, 324.930
1415.725, 685.051
1416.912, 59.508
1418.099, 564.531
1419.285, 445.809
1420.472, 79.660
1421.658, 622.750
1422.844, 425.953
1424.030, 271.391
1425.215, 529.973
1426.401, 384.543
1427.586, 457.438
1428.771, 465.602
1429.956, 386.004
1431.141, 320.207
1432.325, 483.262
1433.510, 365.070
1434.694, 666.965
1435.878, 528.023
1437.062, 146.688
1438.245, 868.695
1439.429, 188.293
1440.612, 338.062
1441.795, 869.953
1442.978, 528.094
1444.161, 762.309
1445.343, 528.941
1446.526, 455.195
1447.708, 839.809
1448.890, 297.359
1450.072, 756.473
1451.253, 834.832
1452.435, 653.000
1453.616, 616.746
1454.797, 784.766
1455.978, 421.133
1457.159, 567.828
1458.340, 704.359
1459.520, 521.402
1460.700, 821.109
1461.880, 946.891
1463.060, 403.789
1464.240, 1097.562
1465.420, 479.184
1466.599, 698.906
1467.778, 715.297
1468.957, 115.250
1470.136, 769.914
1471.315, 945.945
1472.493, 171.988
1473.671, 998.875
1474.849, 505.426
1476.027, 561.645
1477.205, 1085.512
1478.383, 199.676
1479.560, 854.863
1480.737, 690.688
1481.914, 436.488
1483.091, 542.148
1484.268, 647.566
1485.444, 252.914
1486.621, 508.105
1487.797, 653.133
1488.973, 428.770
1490.149, 774.828
1491.324, 251.781
1492.500, 199.086
1493.675, 1106.719
1494.850, 104.449
1496.025, 202.266
1497.200, 810.430
1498.374, 11.047
1499.548, 497.793
1500.723, 557.074
1501.897, 13.039
1503.071, 487.535
1504.244, 298.730
1505.418, 50.578
1506.591, 873.223
1507.764, 301.980
1508.937, 4.004
1510.110, 478.512
1511.282, 400.504
1512.455, 62.461
1513.627, 481.238
1514.799, 0.000
##END=



