##NAMES=Amblygonite
##RRUFFID=R040006
##IDEAL CHEMISTRY=LiAlPO_4_F
##LOCALITY=Pala, San Diego County, California, USA
##OWNER=RRUFF
##SOURCE=University of Arizona Mineral Museum
##DESCRIPTION=Light gray coarsely crystalline massive
##STATUS=The identification of this mineral has been confirmed by X-ray diffraction and chemical analysis
##URL=rruff.info/R040006
##MEASURED CHEMISTRY=LiAl_1.00_(P_1.00_O_4_)(F_0.73_(OH)_0.27_)_Î£=1_; Li assumed by stoichiometry; OH estimated by charge balance
##PIN_ID=l00112
##ORIENTATION=Laser parallel to (1 1 0). Fiducial mark perpendicular to laser is parallel to c [0 0 1]
114.780, 0.000
116.172, 4.797
117.564, 23.004
118.956, 249.677
120.347, 327.843
121.738, 487.235
123.129, 845.165
124.519, 1249.811
125.910, 1439.912
127.300, 1714.594
128.690, 2003.113
130.080, 2144.891
131.469, 2089.477
132.858, 1656.521
134.248, 1485.734
135.636, 1226.887
137.025, 880.009
138.413, 754.818
139.801, 590.993
141.189, 538.397
142.577, 366.929
143.964, 266.495
145.352, 277.019
146.739, 178.433
148.125, 230.689
149.512, 243.740
150.898, 137.534
152.284, 142.031
153.670, 247.192
155.056, 122.983
156.441, 119.370
157.827, 29.369
159.212, 71.556
160.596, 177.180
161.981, 185.687
163.365, 184.251
164.749, 243.206
166.133, 272.534
167.517, 192.218
168.900, 222.241
170.283, 182.591
171.666, 293.256
173.049, 94.225
174.431, 265.485
175.813, 137.030
177.195, 138.860
178.577, 321.089
179.959, 153.628
181.340, 156.473
182.721, 269.562
184.102, 292.898
185.483, 316.479
186.863, 290.306
188.244, 264.375
189.624, 128.683
191.003, 253.219
192.383, 217.980
193.762, 22.958
195.141, 248.146
196.520, 53.537
197.899, 119.078
199.277, 75.443
200.656, 70.031
202.034, 105.529
203.411, 28.929
204.789, 46.672
206.166, 57.658
207.543, 108.090
208.920, 16.076
210.297, 209.850
211.673, 245.870
213.049, 391.987
214.425, 348.209
215.801, 254.531
217.176, 440.959
218.552, 377.493
219.927, 414.136
221.302, 320.883
222.676, 467.735
224.051, 334.695
225.425, 391.762
226.799, 478.935
228.173, 336.212
229.546, 343.597
230.919, 321.084
232.292, 328.675
233.665, 376.367
235.038, 394.162
236.410, 262.058
237.782, 290.052
239.154, 349.025
240.526, 460.367
241.898, 192.523
243.269, 300.805
244.640, 330.703
246.011, 151.248
247.381, 310.091
248.752, 139.127
250.122, 318.324
251.492, 337.763
252.861, 367.287
254.231, 277.014
255.600, 266.854
256.969, 356.933
258.338, 377.108
259.707, 487.477
261.075, 557.946
262.443, 658.480
263.811, 794.967
265.179, 1009.734
266.546, 1130.469
267.914, 1221.278
269.281, 1492.146
270.647, 1683.077
272.014, 1704.070
273.380, 1505.122
274.747, 1616.230
276.113, 1827.395
277.478, 1528.614
278.844, 1529.890
280.209, 1396.114
281.574, 1488.988
282.939, 1494.262
284.304, 1580.155
285.668, 1776.455
287.032, 2033.108
288.396, 2180.071
289.760, 2597.314
291.123, 3184.812
292.487, 4092.543
293.850, 5430.486
295.212, 6868.633
296.575, 8896.963
297.937, 11205.469
299.300, 13764.140
300.662, 15692.967
302.023, 16971.938
303.385, 16421.055
304.746, 15220.300
306.107, 12979.671
307.468, 10709.162
308.829, 8768.775
310.189, 7288.500
311.549, 6228.332
312.909, 5258.268
314.269, 4598.305
315.629, 3718.440
316.988, 3558.670
318.347, 2848.990
319.706, 2659.398
321.065, 2019.895
322.423, 1750.459
323.781, 1481.099
325.139, 1161.811
326.497, 1012.597
327.855, 873.459
329.212, 744.395
330.569, 663.433
331.926, 556.482
333.283, 517.631
334.639, 468.846
335.995, 370.126
337.351, 461.472
338.707, 272.880
340.063, 374.352
341.418, 245.882
342.773, 327.472
344.128, 99.119
345.483, 150.821
346.837, 152.578
348.192, 164.389
349.546, 66.251
350.899, 58.165
352.253, 20.130
353.606, 52.145
354.960, 54.205
356.313, 46.312
357.665, 98.467
359.018, 10.664
360.370, 37.094
361.722, 14.811
363.074, 89.965
364.426, 50.934
365.777, 138.535
367.128, 13.688
368.479, 66.160
369.830, 128.215
371.181, 68.430
372.531, 142.238
373.881, 79.496
375.231, 231.555
376.581, 104.951
377.930, 98.021
379.280, 220.805
380.629, 82.969
381.977, 75.826
383.326, 304.172
384.674, 98.910
386.023, 222.824
387.370, 85.820
388.718, 249.584
390.066, 344.326
391.413, 257.422
392.760, 390.551
394.107, 282.078
395.454, 505.318
396.800, 323.043
398.146, 456.621
399.492, 579.938
400.838, 626.207
402.184, 499.654
403.529, 516.516
404.874, 720.070
406.219, 533.604
407.564, 887.256
408.908, 1020.842
410.252, 1054.461
411.596, 1278.105
412.940, 1601.770
414.284, 1946.926
415.627, 2690.658
416.970, 3545.705
418.313, 4829.479
419.656, 7053.270
420.999, 10257.152
422.341, 14401.051
423.683, 19155.719
425.025, 22139.660
426.367, 22633.613
427.708, 19847.586
429.049, 15391.594
430.390, 10695.633
431.731, 7659.684
433.072, 5233.746
434.412, 3877.848
435.752, 2671.955
437.092, 2036.074
438.432, 1890.207
439.772, 1344.348
441.111, 1008.498
442.450, 1072.678
443.789, 926.906
445.127, 741.199
446.466, 505.525
447.804, 599.891
449.142, 364.289
450.480, 658.715
451.817, 443.164
453.155, 547.641
454.492, 572.201
455.829, 286.787
457.166, 401.393
458.502, 286.039
459.838, 580.705
461.175, 525.389
462.510, 460.092
463.846, 674.807
465.181, 489.592
466.517, 964.389
467.852, 819.203
469.186, 1184.031
470.521, 1408.871
471.855, 1493.754
473.190, 1848.648
474.523, 2183.555
475.857, 2508.469
477.191, 2913.395
478.524, 3238.328
479.857, 3606.854
481.190, 3938.223
482.523, 4213.186
483.855, 4448.154
485.187, 4493.129
486.519, 4358.111
487.851, 4673.094
489.183, 4438.084
490.514, 4153.074
491.845, 4228.072
493.176, 3853.070
494.507, 3768.072
495.837, 3683.072
497.168, 3178.078
498.498, 3033.082
499.828, 2868.088
501.157, 2463.096
502.487, 2268.098
503.816, 2053.104
505.145, 1918.105
506.474, 1593.107
507.802, 1318.105
509.131, 1233.104
510.459, 1038.096
511.787, 973.088
513.115, 638.074
514.442, 653.057
515.770, 588.035
517.097, 353.006
518.424, 467.975
519.750, 252.938
521.077, 197.393
522.403, 252.176
523.729, 345.465
525.055, 300.514
526.381, 261.564
527.706, 286.453
529.031, 61.373
530.356, 36.285
531.681, 99.984
533.006, 55.170
534.330, 101.922
535.654, 42.750
536.978, 132.311
538.302, 202.240
539.625, 112.922
540.949, 151.549
542.272, 43.982
543.595, 149.311
544.917, 45.004
546.240, 159.279
547.562, 54.035
548.884, 141.721
550.206, 212.410
551.527, 176.525
552.849, 82.441
554.170, 108.428
555.491, 14.520
556.812, 82.607
558.132, 216.441
559.453, 140.264
560.773, 153.426
562.093, 17.129
563.412, 121.324
564.732, 154.928
566.051, 123.418
567.370, 146.982
568.689, 173.043
570.008, 197.510
571.326, 311.018
572.644, 81.217
573.963, 444.668
575.280, 88.098
576.598, 363.586
577.915, 466.961
579.233, 179.064
580.550, 402.396
581.866, 125.703
583.183, 413.359
584.499, 386.613
585.815, 292.672
587.131, 567.887
588.447, 457.379
589.763, 320.979
591.078, 534.117
592.393, 483.582
593.708, 526.670
595.022, 519.732
596.337, 904.031
597.651, 827.043
598.965, 990.023
600.279, 1163.014
601.593, 1215.945
602.906, 1271.348
604.219, 1368.924
605.532, 1233.346
606.845, 1227.389
608.158, 1160.182
609.470, 1302.943
610.782, 1105.678
612.094, 1173.371
613.406, 1266.055
614.718, 1048.707
616.029, 1376.393
617.340, 1358.984
618.651, 1271.545
619.962, 1544.117
621.272, 1756.613
622.582, 1980.672
623.892, 1973.104
625.202, 2215.971
626.512, 2618.338
627.821, 2810.670
629.131, 3250.461
630.440, 3652.729
631.749, 4334.963
633.057, 4937.162
634.366, 5709.324
635.674, 7041.930
636.982, 8844.023
638.290, 11346.086
639.597, 14778.916
640.905, 20450.908
642.212, 27572.861
643.519, 33284.789
644.825, 39526.672
646.132, 41138.527
647.438, 38300.352
648.744, 32972.129
650.050, 25823.877
651.356, 20025.594
652.662, 14587.268
653.967, 11648.908
655.272, 8610.512
656.577, 6992.082
657.882, 5763.617
659.186, 4585.117
660.490, 3806.578
661.794, 3268.006
663.098, 2429.398
664.402, 2730.754
665.705, 1982.074
667.009, 1773.357
668.312, 1774.607
669.614, 1425.820
670.917, 1476.998
672.219, 1148.139
673.522, 1029.244
674.824, 1040.314
676.125, 931.350
677.427, 732.348
678.728, 793.314
680.030, 744.246
681.331, 775.148
682.631, 566.020
683.932, 606.867
685.232, 447.682
686.532, 558.377
687.832, 498.320
689.132, 370.859
690.432, 435.902
691.731, 558.393
693.030, 238.316
694.329, 498.570
695.628, 234.314
696.926, 525.482
698.224, 298.016
699.522, 223.598
700.820, 242.195
702.118, 251.621
703.415, 191.965
704.713, 371.541
706.010, 230.143
707.307, 290.387
708.603, 0.600
709.900, 312.381
711.196, 242.451
712.492, 58.031
713.788, 417.746
715.083, 212.277
716.379, 254.656
717.674, 184.408
718.969, 79.273
720.264, 340.287
721.558, 9.867
722.853, 339.293
724.147, 58.771
725.441, 108.205
726.735, 337.602
728.028, 23.029
729.322, 304.812
730.615, 244.070
731.908, 62.004
733.201, 411.191
734.493, 219.643
735.785, 399.336
737.078, 208.289
738.370, 6.463
739.661, 285.330
740.953, 34.172
742.244, 52.963
743.535, 28.289
744.826, 111.533
746.117, 280.176
747.407, 31.205
748.698, 217.332
749.988, 205.850
751.278, 64.342
752.567, 172.803
753.857, 161.240
755.146, 129.867
756.435, 168.260
757.724, 53.367
759.013, 294.922
760.301, 43.186
761.590, 51.416
762.878, 299.615
764.165, 247.793
765.453, 355.949
766.741, 185.912
768.028, 203.898
769.315, 141.871
770.602, 30.178
771.888, 387.709
773.175, 105.580
774.461, 93.430
775.747, 301.264
777.033, 140.922
778.319, 136.777
779.604, 54.457
780.889, 272.111
782.174, 139.754
783.459, 82.621
784.744, 414.922
786.028, 232.451
787.312, 209.963
788.596, 287.463
789.880, 34.947
791.164, 152.410
792.447, 279.861
793.730, 17.301
795.013, 404.717
796.296, 152.119
797.579, 289.510
798.861, 376.889
800.143, 294.256
801.425, 171.609
802.707, 258.955
803.989, 166.289
805.270, 493.611
806.551, 360.926
807.832, 418.229
809.113, 265.523
810.394, 272.809
811.674, 450.086
812.954, 167.354
814.234, 464.615
815.514, 501.865
816.794, 99.111
818.073, 546.350
819.352, 493.580
820.631, 570.805
821.910, 68.025
823.189, 165.238
824.467, 172.445
825.745, 29.648
827.023, 396.850
828.301, 154.043
829.578, 121.234
830.856, 308.420
832.133, 245.605
833.410, 352.789
834.687, 179.965
835.963, 7.143
837.240, 394.318
838.516, 151.488
839.792, 288.664
841.068, 85.836
842.343, 253.012
843.618, 260.223
844.894, 12.539
846.169, 204.734
847.443, 391.723
848.718, 120.953
849.992, 336.053
851.266, 66.627
852.540, 29.320
853.814, 337.752
855.088, 65.117
856.361, 292.518
857.634, 159.430
858.907, 86.842
860.180, 314.303
861.453, 181.777
862.725, 242.320
863.997, 149.844
865.269, 107.414
866.541, 431.773
867.812, 149.416
869.084, 287.602
870.355, 285.330
871.626, 63.033
872.897, 550.238
874.167, 38.027
875.438, 360.918
876.708, 18.822
877.978, 284.221
879.248, 411.205
880.517, 39.145
881.787, 440.383
883.056, 38.355
884.325, 126.342
885.594, 232.260
886.862, 240.281
888.130, 59.568
889.399, 357.623
890.667, 15.693
891.934, 299.406
893.202, 237.516
894.469, 232.812
895.737, 288.947
897.004, 69.197
898.270, 298.535
899.537, 96.727
900.803, 178.584
902.070, 436.814
903.336, 55.066
904.601, 232.076
905.867, 490.373
907.132, 21.309
908.398, 216.996
909.663, 55.357
910.928, 276.543
912.192, 504.953
913.457, 251.811
914.721, 349.041
915.985, 167.521
917.249, 386.029
918.512, 254.561
919.776, 101.871
921.039, 556.697
922.302, 175.289
923.565, 228.850
924.827, 257.502
926.090, 436.180
927.352, 164.846
928.614, 333.582
929.876, 60.756
931.138, 170.883
932.399, 157.916
933.660, 286.773
934.922, 355.666
936.182, 267.096
937.443, 396.096
938.704, 355.131
939.964, 184.199
941.224, 633.297
942.484, 321.961
943.744, 431.125
945.003, 330.326
946.262, 258.754
947.521, 548.021
948.780, 457.322
950.039, 636.654
951.298, 696.023
952.556, 145.426
953.814, 804.863
955.072, 454.336
956.330, 683.842
957.587, 893.385
958.845, 642.963
960.102, 782.578
961.359, 652.230
962.615, 571.916
963.872, 1221.641
965.128, 561.400
966.384, 1011.197
967.640, 881.035
968.896, 760.908
970.152, 1350.822
971.407, 590.799
972.662, 1140.816
973.917, 1260.869
975.172, 1160.963
976.427, 1151.096
977.681, 1301.266
978.935, 1421.473
980.189, 1921.723
981.443, 1652.010
982.697, 1972.340
983.950, 2572.705
985.203, 2043.111
986.456, 3113.561
987.709, 2944.049
988.962, 3584.576
990.214, 4225.146
991.467, 4315.756
992.719, 5576.408
993.971, 6277.098
995.222, 7057.832
996.474, 8598.381
997.725, 9179.191
998.976, 10930.049
1000.227, 12045.750
1001.478, 13636.691
1002.728, 16166.578
1003.978, 17647.016
1005.229, 20078.090
1006.479, 21741.133
1007.728, 23182.289
1008.978, 25183.504
1010.227, 25034.746
1011.476, 25446.031
1012.725, 24927.357
1013.974, 22578.754
1015.223, 21980.188
1016.471, 19690.129
1017.719, 17491.662
1018.967, 15975.320
1020.215, 14097.033
1021.462, 12788.766
1022.710, 11413.961
1023.957, 10255.820
1025.204, 9705.719
1026.451, 9281.305
1027.697, 9093.307
1028.944, 9045.363
1030.190, 9057.465
1031.436, 9569.605
1032.682, 10071.914
1033.928, 10614.172
1035.173, 12136.469
1036.418, 12278.820
1037.663, 13671.215
1038.908, 14383.734
1040.153, 15256.293
1041.398, 16528.898
1042.642, 17291.568
1043.886, 17454.279
1045.130, 18287.045
1046.374, 17729.875
1047.617, 18031.615
1048.860, 17674.559
1050.104, 16807.549
1051.347, 16810.607
1052.589, 16173.717
1053.832, 16166.863
1055.074, 15900.070
1056.316, 15483.320
1057.558, 16476.404
1058.800, 16719.750
1060.042, 15973.139
1061.283, 17036.604
1062.524, 16000.113
1063.765, 15563.684
1065.006, 14227.305
1066.247, 12040.977
1067.487, 11294.695
1068.728, 8848.457
1069.968, 7470.516
1071.208, 6804.441
1072.447, 5928.414
1073.687, 5382.457
1074.926, 4826.551
1076.165, 3930.695
1077.404, 4174.887
1078.643, 3179.127
1079.881, 3393.469
1081.120, 3137.850
1082.358, 2522.283
1083.596, 2776.748
1084.834, 2421.266
1086.071, 2106.801
1087.309, 2331.451
1088.546, 1736.072
1089.783, 2120.723
1091.020, 1625.387
1092.256, 1300.105
1093.493, 1504.660
1094.729, 1449.262
1095.965, 1163.914
1097.201, 1328.609
1098.436, 743.352
1099.672, 1208.141
1100.907, 1012.977
1102.142, 767.855
1103.377, 1192.785
1104.612, 647.762
1105.846, 772.781
1107.081, 1107.844
1108.315, 932.957
1109.549, 1118.113
1110.782, 763.320
1112.016, 748.570
1113.249, 1103.867
1114.483, 799.207
1115.716, 864.594
1116.948, 890.027
1118.181, 725.504
1119.413, 887.203
1120.646, 952.770
1121.878, 638.379
1123.110, 913.836
1124.341, 739.332
1125.573, 864.867
1126.804, 870.445
1128.035, 296.078
1129.266, 991.754
1130.497, 487.480
1131.727, 663.254
1132.957, 659.078
1134.188, 374.949
1135.418, 710.863
1136.647, 786.828
1137.877, 112.840
1139.106, 938.773
1140.335, 324.652
1141.564, 580.578
1142.793, 476.551
1144.022, 12.566
1145.250, 938.625
1146.479, 74.723
1147.707, 410.852
1148.934, 607.047
1150.162, 46.703
1151.390, 389.629
1152.617, 377.512
1153.844, 76.016
1155.071, 560.887
1156.298, 167.359
1157.524, 162.434
1158.751, 448.449
1159.977, 34.543
1161.203, 10.676
1162.428, 636.840
1163.654, 216.926
1164.879, 599.348
1166.105, 74.398
1167.330, 1.828
1168.555, 478.129
1169.779, 105.504
1171.004, 250.941
1172.228, 437.457
1173.452, 425.957
1174.676, 510.703
1175.900, 7.434
1177.123, 64.246
1178.346, 531.129
1179.570, 1.922
1180.793, 315.102
1182.015, 572.195
1183.238, 49.359
1184.460, 536.594
1185.683, 343.898
1186.905, 301.273
1188.126, 408.734
1189.348, 486.262
1190.569, 473.859
1191.791, 571.523
1193.012, 509.844
1194.233, 647.051
1195.453, 474.852
1196.674, 362.645
1197.894, 510.504
1199.114, 478.430
1200.334, 386.426
1201.554, 504.492
1202.774, 142.625
1203.993, 900.828
1205.212, 559.098
1206.431, 167.438
1207.650, 985.848
1208.869, 294.324
1210.087, 232.871
1211.305, 611.480
1212.524, 110.082
1213.741, 888.754
1214.959, 447.492
1216.177, 166.301
1217.394, 725.184
1218.611, 484.145
1219.828, 363.176
1221.045, 462.277
1222.261, 361.461
1223.478, 770.723
1224.694, 600.059
1225.910, 609.477
1227.126, 627.145
1228.342, 216.684
1229.557, 612.484
1230.772, 492.113
1231.987, 158.148
1233.202, 891.688
1234.417, 653.738
1235.631, 198.930
1236.846, 701.195
1238.060, 60.918
1239.274, 771.523
1240.488, 360.484
1241.701, 59.273
1242.915, 658.344
1244.128, 317.457
1245.341, 136.621
1246.554, 695.824
1247.767, 185.066
1248.979, 534.344
1250.191, 493.652
1251.403, 492.996
1252.615, 342.363
1253.827, 491.754
1255.039, 341.156
1256.250, 510.570
1257.461, 399.980
1258.672, 539.391
1259.883, 538.789
1261.094, 228.160
1262.304, 817.500
1263.514, 626.789
1264.724, 73.984
1265.934, 805.234
1267.144, 354.508
1268.354, 97.828
1269.563, 535.988
1270.772, 284.363
1271.981, 524.539
1273.190, 614.750
1274.398, 84.969
1275.607, 655.188
1276.815, 315.391
1278.023, 595.574
1279.231, 445.730
1280.439, 125.844
1281.646, 575.914
1282.853, 485.926
1284.060, 28.258
1285.267, 334.867
1286.474, 424.453
1287.681, 73.961
1288.887, 383.105
1290.093, 101.777
1291.299, 89.816
1292.505, 497.004
1293.711, 245.008
1294.916, 527.730
1296.121, 100.996
1297.327, 4.527
1298.531, 612.738
1299.736, 71.910
1300.941, 25.289
1302.145, 0.000
##END=



