##NAMES=Amblygonite
##RRUFFID=R040006
##IDEAL CHEMISTRY=LiAlPO_4_F
##LOCALITY=Pala, San Diego County, California, USA
##OWNER=RRUFF
##SOURCE=University of Arizona Mineral Museum
##DESCRIPTION=Light gray coarsely crystalline massive
##STATUS=The identification of this mineral has been confirmed by X-ray diffraction and chemical analysis
##URL=rruff.info/R040006
##MEASURED CHEMISTRY=LiAl_1.00_(P_1.00_O_4_)(F_0.73_(OH)_0.27_)_Î£=1_; Li assumed by stoichiometry; OH estimated by charge balance
##PIN_ID=l00499
##ORIENTATION=Laser parallel to (1 0 1). Fiducial mark perpendicular to laser is parallel to -b [0 -1 0]
109.210, 0.000
110.603, 3.763
111.996, 98.882
113.388, 210.181
114.780, 267.657
116.172, 296.983
117.564, 280.244
118.956, 377.191
120.347, 442.944
121.738, 658.964
123.129, 767.972
124.519, 1077.454
125.910, 1178.166
127.300, 1464.938
128.690, 1821.670
130.080, 2115.020
131.469, 2287.643
132.858, 2194.173
134.248, 2069.256
135.636, 1829.930
137.025, 1421.145
138.413, 1236.369
139.801, 993.160
141.189, 877.191
142.577, 654.159
143.964, 482.769
145.352, 408.879
146.739, 247.467
148.125, 300.700
149.512, 258.855
150.898, 135.956
152.284, 159.105
153.670, 105.030
155.056, 76.113
156.441, 177.764
157.827, 24.147
159.212, 51.103
160.596, 120.190
161.981, 83.914
163.365, 160.662
164.749, 274.781
166.133, 267.821
167.517, 418.020
168.900, 415.000
170.283, 459.219
171.666, 567.914
173.049, 574.997
174.431, 590.707
175.813, 593.859
177.195, 654.370
178.577, 670.122
179.959, 642.545
181.340, 574.056
182.721, 559.897
184.102, 593.798
185.483, 534.143
186.863, 603.915
188.244, 464.766
189.624, 521.126
191.003, 440.324
192.383, 436.532
193.762, 320.829
195.141, 293.226
196.520, 279.724
197.899, 186.325
199.277, 102.023
200.656, 30.815
202.034, 4.662
203.411, 9.645
204.789, 17.332
206.166, 5.248
207.543, 55.892
208.920, 24.079
210.297, 19.693
211.673, 16.571
213.049, 99.865
214.425, 25.185
215.801, 161.525
217.176, 108.878
218.552, 96.238
219.927, 111.603
221.302, 10.032
222.676, 73.331
224.051, 1.316
225.425, 52.027
226.799, 0.645
228.173, 24.336
229.546, 63.948
230.919, 65.794
232.292, 47.437
233.665, 36.358
235.038, 8.824
236.410, 40.983
237.782, 8.893
239.154, 18.829
240.526, 56.159
241.898, 3.105
243.269, 80.014
244.640, 42.145
246.011, 44.260
247.381, 14.374
248.752, 28.526
250.122, 40.712
251.492, 46.893
252.861, 64.131
254.231, 59.666
255.600, 32.746
256.969, 53.143
258.338, 24.573
259.707, 21.109
261.075, 6.731
262.443, 107.568
263.811, 21.767
265.179, 153.861
266.546, 203.868
267.914, 195.815
269.281, 292.739
270.647, 379.649
272.014, 496.554
273.380, 522.456
274.747, 565.310
276.113, 626.393
277.478, 649.682
278.844, 777.120
280.209, 839.887
281.574, 872.448
282.939, 982.035
284.304, 1253.042
285.668, 1263.730
287.032, 1596.374
288.396, 1847.394
289.760, 2283.955
291.123, 2682.805
292.487, 3314.272
293.850, 4216.942
295.212, 5332.295
296.575, 6699.759
297.937, 8257.066
299.300, 10124.218
300.662, 12091.301
302.023, 13228.506
303.385, 13955.452
304.746, 13312.332
306.107, 12499.144
307.468, 11185.878
308.829, 10012.541
310.189, 9359.127
311.549, 8495.638
312.909, 7832.066
314.269, 7058.423
315.629, 6134.714
316.988, 5490.939
318.347, 4587.102
319.706, 4024.178
321.065, 3370.129
322.423, 2954.940
323.781, 2733.674
325.139, 2435.295
326.497, 2359.853
327.855, 2094.364
329.212, 2014.829
330.569, 1858.191
331.926, 1712.991
333.283, 1612.746
334.639, 1484.853
335.995, 1425.875
337.351, 1342.843
338.707, 1221.726
340.063, 1238.559
341.418, 1112.252
342.773, 1208.850
344.128, 1041.350
345.483, 1062.730
346.837, 989.008
348.192, 1077.195
349.546, 1025.321
350.899, 1110.427
352.253, 1026.523
353.606, 1029.614
354.960, 1048.700
356.313, 1129.898
357.665, 1142.971
359.018, 1204.051
360.370, 1196.454
361.722, 1213.403
363.074, 1256.688
364.426, 1242.975
365.777, 1359.077
367.128, 1409.440
368.479, 1529.264
369.830, 1547.520
371.181, 1494.971
372.531, 1512.940
373.881, 1450.854
375.231, 1405.577
376.581, 1365.497
377.930, 1343.264
379.280, 1272.367
380.629, 1213.703
381.977, 1141.277
383.326, 1079.275
384.674, 1049.880
386.023, 881.611
387.370, 821.243
388.718, 827.750
390.066, 742.631
391.413, 715.843
392.760, 644.004
394.107, 588.035
395.454, 586.277
396.800, 520.945
398.146, 494.429
399.492, 484.444
400.838, 442.556
402.184, 357.044
403.529, 386.644
404.874, 446.545
406.219, 335.648
407.564, 347.156
408.908, 344.579
410.252, 327.635
411.596, 238.876
412.940, 309.174
414.284, 253.260
415.627, 194.118
416.970, 256.253
418.313, 229.987
419.656, 256.432
420.999, 372.854
422.341, 397.274
423.683, 498.943
425.025, 631.104
426.367, 791.531
427.708, 684.897
429.049, 654.482
430.390, 526.045
431.731, 461.691
433.072, 337.333
434.412, 250.984
435.752, 185.638
437.092, 130.274
438.432, 224.903
439.772, 160.531
441.111, 102.138
442.450, 197.723
443.789, 176.286
445.127, 64.833
446.466, 139.355
447.804, 145.858
449.142, 49.351
450.480, 150.818
451.817, 72.283
453.155, 152.723
454.492, 92.143
455.829, 152.538
457.166, 117.910
458.502, 138.258
459.838, 191.584
461.175, 180.894
462.510, 114.182
463.846, 252.447
465.181, 161.691
466.517, 225.915
467.852, 260.122
469.186, 224.308
470.521, 264.472
471.855, 303.617
473.190, 394.742
474.523, 381.847
475.857, 404.933
477.191, 488.999
478.524, 593.045
479.857, 598.074
481.190, 648.083
482.523, 722.074
483.855, 701.048
485.187, 707.004
486.519, 670.944
487.851, 700.277
489.183, 745.772
490.514, 759.662
491.845, 740.535
493.176, 783.393
494.507, 702.234
495.837, 784.061
497.168, 668.872
498.498, 658.669
499.828, 579.452
501.157, 564.220
502.487, 525.975
503.816, 477.715
505.145, 449.443
506.474, 430.159
507.802, 383.862
509.131, 335.553
510.459, 253.232
511.787, 281.900
513.115, 206.556
514.442, 209.200
515.770, 112.833
517.097, 147.452
518.424, 137.060
519.750, 57.656
521.077, 123.236
522.403, 125.806
523.729, 71.364
525.055, 3.086
526.381, 80.457
527.706, 65.993
529.031, 7.469
530.356, 48.059
531.681, 46.575
533.006, 21.174
534.330, 58.796
535.654, 21.294
536.978, 59.042
538.302, 28.399
539.625, 55.040
540.949, 81.397
542.272, 17.991
543.595, 11.414
544.917, 7.061
546.240, 9.431
547.562, 9.064
548.884, 76.478
550.206, 41.739
551.527, 92.142
552.849, 17.432
554.170, 47.268
555.491, 60.011
556.812, 38.301
558.132, 56.582
559.453, 127.876
560.773, 128.170
562.093, 20.535
563.412, 114.882
564.732, 19.147
566.051, 15.812
567.370, 10.094
568.689, 55.608
570.008, 37.951
571.326, 80.234
572.644, 37.739
573.963, 72.866
575.280, 74.000
576.598, 97.345
577.915, 99.764
579.233, 68.561
580.550, 121.890
581.866, 46.349
583.183, 186.225
584.499, 164.995
585.815, 251.444
587.131, 195.093
588.447, 301.376
589.763, 340.671
591.078, 272.429
592.393, 292.215
593.708, 423.575
595.022, 454.934
596.337, 513.878
597.651, 642.806
598.965, 865.085
600.279, 1048.322
601.593, 1275.513
602.906, 1512.521
604.219, 1467.214
605.532, 1450.447
606.845, 1262.092
608.158, 1252.434
609.470, 1046.042
610.782, 979.804
612.094, 1009.569
613.406, 992.271
614.718, 1029.212
616.029, 1128.186
617.340, 1226.038
618.651, 1349.389
619.962, 1391.234
621.272, 1697.942
622.582, 1916.820
623.892, 2220.834
625.202, 2626.418
626.512, 3100.352
627.821, 3687.062
629.131, 4298.861
630.440, 4970.646
631.749, 5742.412
633.057, 5814.162
634.366, 6055.898
635.674, 5727.619
636.982, 5489.322
638.290, 5551.011
639.597, 5702.685
640.905, 6694.341
642.212, 7975.984
643.519, 9727.608
644.825, 12389.222
646.132, 13360.817
647.438, 13732.399
648.744, 12343.964
650.050, 10135.514
651.356, 8067.049
652.662, 5798.568
653.967, 4690.072
655.272, 3521.562
656.577, 2745.036
657.882, 2275.495
659.186, 1789.938
660.490, 1515.367
661.794, 1322.781
663.098, 1059.180
664.402, 1038.563
665.705, 815.932
667.009, 737.286
668.312, 626.625
669.614, 564.949
670.917, 487.258
672.219, 397.552
673.522, 421.712
674.824, 420.977
676.125, 413.213
677.427, 391.104
678.728, 273.257
680.030, 240.408
681.331, 249.319
682.631, 158.689
683.932, 233.613
685.232, 173.464
686.532, 179.638
687.832, 140.389
689.132, 99.121
690.432, 92.711
691.731, 133.477
693.030, 76.044
694.329, 127.932
695.628, 89.463
696.926, 104.574
698.224, 71.580
699.522, 114.654
700.820, 55.065
702.118, 87.199
703.415, 86.099
704.713, 94.665
706.010, 134.987
707.307, 125.967
708.603, 191.995
709.900, 198.401
711.196, 225.568
712.492, 266.551
713.788, 295.006
715.083, 183.052
716.379, 213.846
717.674, 146.625
718.969, 73.656
720.264, 180.370
721.558, 40.657
722.853, 108.900
724.147, 50.083
725.441, 89.493
726.735, 125.816
728.028, 50.426
729.322, 56.722
730.615, 34.289
731.908, 17.703
733.201, 74.191
734.493, 72.325
735.785, 140.936
737.078, 19.594
738.370, 5.510
739.661, 7.350
740.953, 20.264
742.244, 23.918
743.535, 18.617
744.826, 33.340
746.117, 30.446
747.407, 26.361
748.698, 4.214
749.988, 49.901
751.278, 16.999
752.567, 46.937
753.857, 50.070
755.146, 31.062
756.435, 64.040
757.724, 2.942
759.013, 78.991
760.301, 6.913
761.590, 16.189
762.878, 15.674
764.165, 48.482
765.453, 40.310
766.741, 13.091
768.028, 78.852
769.315, 65.602
770.602, 28.340
771.888, 99.065
773.175, 3.780
774.461, 24.472
775.747, 87.149
777.033, 59.816
778.319, 25.473
779.604, 8.117
780.889, 77.742
782.174, 97.356
783.459, 97.961
784.744, 197.555
786.028, 134.139
787.312, 201.713
788.596, 194.276
789.880, 305.830
791.164, 201.375
792.447, 407.910
793.730, 350.436
795.013, 503.952
796.296, 378.220
797.579, 459.402
798.861, 516.639
800.143, 551.240
801.425, 495.446
802.707, 556.362
803.989, 708.323
805.270, 748.772
806.551, 703.213
807.832, 727.833
809.113, 722.737
810.394, 748.489
811.674, 718.899
812.954, 693.303
814.234, 692.698
815.514, 657.516
816.794, 612.473
818.073, 622.849
819.352, 601.219
820.631, 620.583
821.910, 404.941
823.189, 446.293
824.467, 391.640
825.745, 415.980
827.023, 335.315
828.301, 326.646
829.578, 266.973
830.856, 258.292
832.133, 216.609
833.410, 217.923
834.687, 212.231
835.963, 156.536
837.240, 194.841
838.516, 125.144
839.792, 90.442
841.068, 12.743
842.343, 13.462
843.618, 18.245
844.894, 3.425
846.169, 55.717
847.443, 29.830
848.718, 74.862
849.992, 33.292
851.266, 112.459
852.540, 15.426
853.814, 88.792
855.088, 39.235
856.361, 49.853
857.634, 40.055
858.907, 26.943
860.180, 3.729
861.453, 8.503
862.725, 0.720
863.997, 79.058
865.269, 35.853
866.541, 42.341
867.812, 110.465
869.084, 15.684
870.355, 53.832
871.626, 32.980
872.897, 73.993
874.167, 68.225
875.438, 98.931
876.708, 48.101
877.978, 57.046
879.248, 8.163
880.517, 5.656
881.787, 139.311
883.056, 6.688
884.325, 67.027
885.594, 123.192
886.862, 65.289
888.130, 39.021
889.399, 34.633
890.667, 28.522
891.934, 20.032
893.202, 68.727
894.469, 36.802
895.737, 68.670
897.004, 77.102
898.270, 17.096
899.537, 30.822
900.803, 37.512
902.070, 145.620
903.336, 83.720
904.601, 29.085
905.867, 153.602
907.132, 49.757
908.398, 68.704
909.663, 5.054
910.928, 105.366
912.192, 122.684
913.457, 52.769
914.721, 187.462
915.985, 71.051
917.249, 96.793
918.512, 51.050
919.776, 11.636
921.039, 136.025
922.302, 59.426
923.565, 156.647
924.827, 114.071
926.090, 117.373
927.352, 57.596
928.614, 163.058
929.876, 60.531
931.138, 195.863
932.399, 101.625
933.660, 200.136
934.922, 87.659
936.182, 91.196
937.443, 159.748
938.704, 160.312
939.964, 186.890
941.224, 239.481
942.484, 172.087
943.744, 270.727
945.003, 129.380
946.262, 174.047
947.521, 306.729
948.780, 262.425
950.039, 302.137
951.298, 381.862
952.556, 263.604
953.814, 432.367
955.072, 369.146
956.330, 427.941
957.587, 421.752
958.845, 346.583
960.102, 412.431
961.359, 432.293
962.615, 441.173
963.872, 630.068
965.128, 469.979
966.384, 649.907
967.640, 649.861
968.896, 599.833
970.152, 799.821
971.407, 699.840
972.662, 889.874
973.917, 819.926
975.172, 979.995
976.427, 1070.082
977.681, 1210.187
978.935, 1240.307
980.189, 1460.445
981.443, 1450.602
982.697, 1690.777
983.950, 1850.970
985.203, 1971.180
986.456, 2441.408
987.709, 2451.654
988.962, 3011.918
990.214, 3422.200
991.467, 3732.528
992.719, 4632.873
993.971, 5293.243
995.222, 6343.634
996.474, 7434.033
997.725, 8164.480
998.976, 9904.949
1000.227, 10871.494
1001.478, 12472.024
1002.728, 14546.354
1003.978, 15906.260
1005.229, 18436.869
1006.479, 19975.725
1007.728, 21276.377
1008.978, 23395.299
1010.227, 23194.900
1011.476, 24255.494
1012.725, 23565.955
1013.974, 21436.715
1015.223, 21223.824
1016.471, 18163.260
1017.719, 16194.140
1018.967, 14519.540
1020.215, 12330.491
1021.462, 11181.460
1022.710, 9362.458
1023.957, 7883.470
1025.204, 7424.541
1026.451, 6096.081
1027.697, 5717.197
1028.944, 5058.355
1030.190, 4539.540
1031.436, 4250.623
1032.682, 4061.853
1033.928, 3812.967
1035.173, 3964.247
1036.418, 3745.556
1037.663, 4006.885
1038.908, 4088.262
1040.153, 4139.661
1041.398, 4481.096
1042.642, 4582.141
1043.886, 4803.638
1045.130, 5175.185
1046.374, 5247.567
1047.617, 5686.594
1048.860, 5748.249
1050.104, 5999.928
1051.347, 6511.652
1052.589, 6813.410
1053.832, 7485.186
1055.074, 8156.996
1056.316, 8731.399
1057.558, 10163.271
1058.800, 11125.169
1060.042, 12057.062
1061.283, 13749.035
1062.524, 13891.028
1063.765, 14513.049
1065.006, 13425.096
1066.247, 11827.186
1067.487, 10579.303
1068.728, 8161.438
1069.968, 6953.621
1071.208, 5795.828
1072.447, 4588.055
1073.687, 3930.305
1074.926, 3212.573
1076.165, 2574.942
1077.404, 2447.259
1078.643, 1919.593
1079.881, 1751.956
1081.120, 1724.339
1082.358, 1336.753
1083.596, 1229.205
1084.834, 1131.676
1086.071, 974.174
1087.309, 926.690
1088.546, 809.227
1089.783, 768.083
1091.020, 704.356
1092.256, 721.324
1093.493, 703.938
1094.729, 696.570
1095.965, 599.227
1097.201, 701.900
1098.436, 614.593
1099.672, 717.304
1100.907, 640.033
1102.142, 634.440
1103.377, 867.205
1104.612, 799.987
1105.846, 1022.787
1107.081, 1086.589
1108.315, 1109.424
1109.549, 1132.336
1110.782, 1265.204
1112.016, 1248.090
1113.249, 1250.993
1114.483, 1343.914
1115.716, 1359.133
1116.948, 1452.088
1118.181, 1615.060
1119.413, 1571.097
1120.646, 1544.102
1121.878, 1667.121
1123.110, 1830.255
1124.341, 1693.324
1125.573, 1566.408
1126.804, 1529.506
1128.035, 1282.618
1129.266, 1395.743
1130.497, 1128.883
1131.727, 1242.083
1132.957, 1115.248
1134.188, 928.507
1135.418, 1111.699
1136.647, 1024.904
1137.877, 708.122
1139.106, 877.469
1140.335, 600.713
1141.564, 675.406
1142.793, 568.674
1144.022, 352.365
1145.250, 539.815
1146.479, 283.195
1147.707, 306.508
1148.934, 345.501
1150.162, 88.917
1151.390, 222.448
1152.617, 270.502
1153.844, 173.914
1155.071, 207.559
1156.298, 145.280
1157.524, 128.734
1158.751, 185.004
1159.977, 188.480
1161.203, 92.408
1162.428, 293.402
1163.654, 47.227
1164.879, 210.756
1166.105, 61.487
1167.330, 105.055
1168.555, 198.906
1169.779, 72.491
1171.004, 16.073
1172.228, 218.258
1173.452, 27.941
1174.676, 235.649
1175.900, 84.448
1177.123, 48.606
1178.346, 192.405
1179.570, 47.014
1180.793, 70.688
1182.015, 225.242
1183.238, 179.525
1184.460, 143.140
1185.683, 6.755
1186.905, 120.371
1188.126, 104.128
1189.348, 109.670
1190.569, 93.291
1191.791, 229.922
1193.012, 36.023
1194.233, 127.635
1195.453, 141.590
1196.674, 55.213
1197.894, 100.466
1199.114, 144.776
1200.334, 18.395
1201.554, 152.009
1202.774, 74.379
1203.993, 209.206
1205.212, 183.912
1206.431, 43.087
1207.650, 206.664
1208.869, 20.236
1210.087, 113.805
1211.305, 107.370
1212.524, 1.083
1213.741, 214.832
1214.959, 228.385
1216.177, 57.842
1217.394, 151.383
1218.611, 155.684
1219.828, 59.215
1221.045, 142.890
1222.261, 3.221
1223.478, 170.398
1224.694, 93.916
1225.910, 69.289
1227.126, 112.991
1228.342, 68.217
1229.557, 106.166
1230.772, 169.739
1231.987, 15.206
1233.202, 198.725
1234.417, 162.244
1235.631, 26.002
1236.846, 139.516
1238.060, 76.529
1239.274, 167.312
1240.488, 110.802
1241.701, 55.506
1242.915, 148.985
1244.128, 72.465
1245.341, 26.062
1246.554, 189.655
1247.767, 26.884
1248.979, 66.735
1250.191, 100.188
1251.403, 73.637
1252.615, 12.916
1253.827, 160.524
1255.039, 23.961
1256.250, 67.354
1257.461, 101.007
1258.672, 164.482
1259.883, 57.981
1261.094, 28.155
1262.304, 165.321
1263.514, 188.566
1264.724, 38.212
1265.934, 165.425
1267.144, 98.570
1268.354, 46.249
1269.563, 109.591
1270.772, 102.614
1271.981, 135.805
1273.190, 138.771
1274.398, 81.721
1275.607, 117.185
1276.815, 67.572
1278.023, 140.501
1279.231, 63.384
1280.439, 86.235
1281.646, 139.072
1282.853, 142.051
1284.060, 75.154
1285.267, 107.846
1286.474, 0.591
1287.681, 103.524
1288.887, 26.313
1290.093, 41.040
1291.299, 81.744
1292.505, 154.293
1293.711, 63.179
1294.916, 89.409
1296.121, 71.878
1297.327, 45.686
1298.531, 177.026
1299.736, 59.352
1300.941, 38.361
1302.145, 123.975
1303.349, 13.803
1304.553, 138.383
1305.757, 40.534
1306.961, 87.340
1308.164, 54.730
1309.367, 126.773
1310.570, 81.209
1311.773, 250.833
1312.976, 62.766
1314.178, 124.669
1315.381, 226.536
1316.583, 101.622
1317.785, 80.152
1318.987, 191.395
1320.188, 46.946
1321.390, 44.663
1322.591, 86.244
1323.792, 27.798
1324.993, 119.319
1326.193, 30.811
1327.394, 42.266
1328.594, 473.685
1329.794, 385.072
1330.994, 436.432
1332.194, 107.761
1333.394, 9.056
1334.593, 240.313
1335.792, 8.456
1336.991, 62.733
1338.190, 133.093
1339.389, 74.225
1340.587, 205.326
1341.786, 16.398
1342.984, 47.437
1344.182, 308.447
1345.379, 579.433
1346.577, 370.396
1347.774, 188.786
1348.972, 29.704
1350.169, 49.405
1351.365, 301.441
1352.562, 152.270
1353.759, 183.080
1354.955, 213.874
1356.151, 114.654
1357.347, 105.412
1358.543, 206.427
1359.738, 52.822
1360.934, 407.901
1362.129, 48.628
1363.324, 179.319
1364.519, 120.535
1365.713, 81.225
1366.908, 131.313
1368.102, 164.305
1369.296, 17.265
1370.490, 120.172
1371.684, 23.036
1372.877, 24.126
1374.071, 158.691
1375.264, 16.842
1376.457, 229.569
1377.650, 202.273
1378.843, 114.955
1380.035, 195.784
1381.227, 88.406
1382.419, 99.903
1383.611, 292.402
1384.803, 44.947
1385.995, 244.831
1387.186, 317.298
1388.377, 146.150
1389.568, 148.416
1390.759, 230.730
1391.950, 143.021
1393.140, 215.294
1394.331, 267.488
1395.521, 249.620
1396.711, 211.832
1397.900, 176.205
1399.090, 196.433
1400.279, 112.505
1401.469, 154.359
1402.658, 134.962
1403.847, 74.015
1405.035, 125.454
1406.224, 261.244
1407.412, 228.948
1408.600, 69.271
1409.788, 310.230
1410.976, 38.817
1412.164, 91.987
1413.351, 160.423
1414.538, 101.128
1415.725, 353.350
1416.912, 192.356
1418.099, 151.589
1419.285, 341.295
1420.472, 132.023
1421.658, 179.378
1422.844, 185.052
1424.030, 134.803
1425.215, 94.763
1426.401, 291.256
1427.586, 71.665
1428.771, 212.070
1429.956, 60.404
1431.141, 90.604
1432.325, 270.773
1433.510, 80.269
1434.694, 149.069
1435.878, 207.474
1437.062, 87.006
1438.245, 195.839
1439.429, 141.724
1440.612, 37.307
1441.795, 307.151
1442.978, 272.008
1444.161, 70.322
1445.343, 168.046
1446.526, 225.803
1447.708, 191.394
1448.890, 199.317
1450.072, 147.096
1451.253, 144.587
1452.435, 242.286
1453.616, 59.783
1454.797, 226.596
1455.978, 263.320
1457.159, 218.718
1458.340, 266.183
1459.520, 222.383
1460.700, 185.733
1461.880, 282.619
1463.060, 100.095
1464.240, 227.466
1465.420, 274.640
1466.599, 221.882
1467.778, 288.471
1468.957, 194.562
1470.136, 200.236
1471.315, 266.441
1472.493, 153.467
1473.671, 279.940
1474.849, 355.438
1476.027, 272.584
1477.205, 239.305
1478.383, 156.397
1479.560, 243.461
1480.737, 310.463
1481.914, 262.233
1483.091, 153.967
1484.268, 190.959
1485.444, 158.673
1486.621, 36.413
1487.797, 324.189
1488.973, 102.080
1490.149, 200.204
1491.324, 198.498
1492.500, 247.078
1493.675, 245.883
1494.850, 194.945
1496.025, 74.391
1497.200, 314.248
1498.374, 234.516
1499.548, 4.701
1500.723, 306.694
1501.897, 148.826
1503.071, 71.861
1504.244, 187.299
1505.418, 0.628
1506.591, 311.470
1507.764, 0.000
##END=



