##NAMES=Amblygonite
##RRUFFID=R040006
##IDEAL CHEMISTRY=LiAlPO_4_F
##LOCALITY=Pala, San Diego County, California, USA
##OWNER=RRUFF
##SOURCE=University of Arizona Mineral Museum
##DESCRIPTION=Light gray coarsely crystalline massive
##STATUS=The identification of this mineral has been confirmed by X-ray diffraction and chemical analysis
##URL=rruff.info/R040006
##MEASURED CHEMISTRY=LiAl_1.00_(P_1.00_O_4_)(F_0.73_(OH)_0.27_)_Î£=1_; Li assumed by stoichiometry; OH estimated by charge balance
##PIN_ID=l00112
##ORIENTATION=Laser parallel to (1 1 0). Fiducial mark perpendicular to laser is parallel to c [0 0 1]
114.780, 0.000
116.172, 6.219
117.564, 36.259
118.956, 473.200
120.347, 256.080
121.738, 650.078
123.129, 702.337
124.519, 1181.028
125.910, 1264.753
127.300, 1682.451
128.690, 2023.422
130.080, 1947.457
131.469, 2434.143
132.858, 1853.004
134.248, 2113.615
135.636, 1515.642
137.025, 1258.834
138.413, 1163.002
139.801, 748.005
141.189, 843.872
142.577, 561.557
143.964, 631.178
145.352, 592.095
146.739, 473.304
148.125, 504.934
149.512, 346.926
150.898, 518.854
152.284, 520.895
153.670, 802.906
155.056, 684.909
156.441, 786.918
157.827, 978.946
159.212, 921.010
160.596, 1253.114
161.981, 1125.271
163.365, 1357.483
164.749, 1479.752
166.133, 1302.519
167.517, 1448.271
168.900, 1229.286
170.283, 1336.962
171.666, 1166.244
173.049, 1000.730
174.431, 1029.168
175.813, 822.307
177.195, 763.347
178.577, 615.634
179.959, 670.605
181.340, 522.923
182.721, 568.369
184.102, 509.702
185.483, 421.169
186.863, 448.795
188.244, 418.049
189.624, 519.818
191.003, 381.711
192.383, 573.714
193.762, 515.820
195.141, 608.029
196.520, 540.335
197.899, 432.768
199.277, 375.252
200.656, 377.877
202.034, 480.676
203.411, 323.515
204.789, 256.439
206.166, 319.493
207.543, 52.642
208.920, 175.847
210.297, 59.109
211.673, 232.431
213.049, 285.812
214.425, 29.250
215.801, 182.744
217.176, 3.706
218.552, 69.898
219.927, 36.442
221.302, 82.733
222.676, 71.028
224.051, 165.161
225.425, 61.298
226.799, 77.395
228.173, 56.551
229.546, 159.442
230.919, 55.376
232.292, 38.724
233.665, 77.122
235.038, 157.075
236.410, 118.683
237.782, 25.588
239.154, 49.891
240.526, 15.763
241.898, 48.649
243.269, 46.891
244.640, 137.636
246.011, 117.793
247.381, 76.807
248.752, 41.505
250.122, 53.756
251.492, 100.996
252.861, 15.702
254.231, 90.497
255.600, 95.252
256.969, 70.042
258.338, 144.830
259.707, 50.375
261.075, 154.449
262.443, 9.293
263.811, 184.127
265.179, 219.410
266.546, 224.280
267.914, 279.180
269.281, 292.427
270.647, 349.043
272.014, 354.007
273.380, 258.996
274.747, 314.011
276.113, 239.049
277.478, 424.113
278.844, 479.199
280.209, 668.424
281.574, 629.744
282.939, 714.622
284.304, 953.927
285.668, 927.486
287.032, 1529.802
288.396, 1563.823
289.760, 2238.026
291.123, 2722.383
292.487, 3486.877
293.850, 4725.787
295.212, 5630.506
296.575, 7880.191
297.937, 9825.087
299.300, 12460.054
300.662, 14665.092
302.023, 16130.187
303.385, 16775.338
304.746, 15780.545
306.107, 14665.798
307.468, 12891.090
308.829, 11446.413
310.189, 10221.760
311.549, 9337.129
312.909, 8512.523
314.269, 7387.933
315.629, 6533.363
316.988, 5708.812
318.347, 4634.281
319.706, 4149.767
321.065, 3215.271
322.423, 3120.793
323.781, 2666.334
325.139, 2321.891
326.497, 2417.467
327.855, 1993.059
329.212, 2198.668
330.569, 2014.289
331.926, 1959.910
333.283, 1725.656
334.639, 1661.154
335.995, 1736.641
337.351, 1392.041
338.707, 1387.428
340.063, 1392.895
341.418, 1288.271
342.773, 1377.359
344.128, 1112.752
345.483, 1428.115
346.837, 983.479
348.192, 1358.859
349.546, 1025.848
350.899, 1101.264
352.253, 1076.682
353.606, 843.967
354.960, 1199.418
356.313, 944.885
357.665, 1150.365
359.018, 1215.859
360.370, 801.371
361.722, 1236.893
363.074, 1113.750
364.426, 909.299
365.777, 967.676
367.128, 873.244
368.479, 1158.826
369.830, 988.064
371.181, 1133.676
372.531, 852.287
373.881, 817.922
375.231, 933.684
376.581, 799.531
377.930, 905.191
379.280, 757.545
380.629, 863.770
381.977, 759.518
383.326, 587.441
384.674, 840.402
386.023, 647.742
387.370, 787.016
388.718, 541.326
390.066, 684.109
391.413, 820.070
392.760, 620.502
394.107, 694.809
395.454, 483.438
396.800, 507.576
398.146, 523.730
399.492, 535.611
400.838, 475.926
402.184, 247.975
403.529, 344.318
404.874, 310.516
406.219, 275.727
407.564, 431.930
408.908, 204.324
410.252, 440.568
411.596, 3.186
412.940, 171.469
414.284, 177.748
415.627, 54.021
416.970, 420.309
418.313, 176.592
419.656, 512.867
420.999, 579.178
422.341, 1003.885
423.683, 1580.201
425.025, 1496.514
426.367, 1962.822
427.708, 1629.119
429.049, 1605.414
430.390, 961.740
431.731, 738.064
433.072, 734.379
434.412, 270.689
435.752, 266.992
437.092, 263.287
438.432, 219.574
439.772, 175.857
441.111, 97.869
442.450, 318.350
443.789, 25.393
445.127, 89.150
446.466, 87.037
447.804, 126.775
449.142, 149.334
450.480, 85.449
451.817, 71.561
453.155, 257.664
454.492, 56.229
455.829, 389.834
457.166, 64.113
458.502, 191.887
459.838, 247.879
461.175, 283.859
462.510, 239.832
463.846, 175.811
465.181, 361.777
466.517, 337.734
467.852, 263.699
469.186, 519.650
470.521, 365.645
471.855, 781.629
473.190, 567.598
474.523, 663.555
475.857, 679.498
477.191, 775.426
478.524, 1001.338
479.857, 857.238
481.190, 963.125
482.523, 928.996
483.855, 794.852
485.187, 920.691
486.519, 306.516
487.851, 1022.322
489.183, 538.115
490.514, 463.910
491.845, 599.686
493.176, 45.445
494.507, 361.188
495.837, 256.910
497.168, 82.619
498.498, 288.311
499.828, 53.984
501.157, 359.641
502.487, 24.721
503.816, 270.867
505.145, 346.438
506.474, 171.992
507.802, 347.529
509.131, 13.047
510.459, 238.533
511.787, 224.002
513.115, 9.453
514.442, 334.867
515.770, 170.262
517.097, 345.637
518.424, 270.994
519.750, 146.330
521.077, 241.648
522.403, 26.947
523.729, 502.211
525.055, 2.414
526.381, 222.783
527.706, 497.961
529.031, 13.633
530.356, 381.471
531.681, 2.373
533.006, 202.658
534.330, 88.164
535.654, 83.156
536.978, 288.117
538.302, 53.332
539.625, 73.094
540.949, 169.193
542.272, 8.912
543.595, 223.668
544.917, 67.090
546.240, 221.795
547.562, 120.699
548.884, 79.848
550.206, 534.742
551.527, 116.250
552.849, 398.957
554.170, 57.826
555.491, 144.891
556.812, 409.350
558.132, 185.586
559.453, 352.617
560.773, 449.574
562.093, 155.262
563.412, 329.939
564.732, 165.844
566.051, 400.576
567.370, 154.836
568.689, 479.561
570.008, 373.736
571.326, 237.332
572.644, 421.449
573.963, 325.535
575.280, 512.488
576.598, 596.506
577.915, 320.490
579.233, 742.330
580.550, 556.244
581.866, 683.615
583.183, 877.469
584.499, 781.289
585.815, 1095.072
587.131, 938.820
588.447, 1361.666
589.763, 1295.340
591.078, 1528.982
592.393, 2102.588
593.708, 1676.158
595.022, 2639.695
596.337, 3343.193
597.651, 4096.730
598.965, 5380.156
600.279, 6457.090
601.593, 8347.152
602.906, 8758.459
604.219, 8225.691
605.532, 7618.938
606.845, 5633.643
608.158, 4898.578
609.470, 3631.719
610.782, 2994.820
612.094, 2659.701
613.406, 2148.438
614.718, 2101.434
616.029, 1769.529
617.340, 1812.463
618.651, 1875.363
619.962, 1728.232
621.272, 2284.871
622.582, 1967.666
623.892, 2620.430
625.202, 2867.031
626.512, 2859.723
627.821, 3245.092
629.131, 2697.707
630.440, 2840.289
631.749, 2952.834
633.057, 2675.340
634.366, 3077.814
635.674, 2710.250
636.982, 3752.648
638.290, 4415.008
639.597, 5017.340
640.905, 6859.629
642.212, 8741.887
643.519, 11064.109
644.825, 13746.291
646.132, 14278.443
647.438, 14593.885
648.744, 12495.961
650.050, 10558.000
651.356, 8359.852
652.662, 5991.822
653.967, 5643.752
655.272, 3715.648
656.577, 3657.508
657.882, 2669.223
659.186, 2161.010
660.490, 2089.064
661.794, 1510.781
663.098, 1252.473
664.402, 1444.129
665.705, 845.750
667.009, 1145.750
668.312, 677.303
669.614, 1008.820
670.917, 708.455
672.219, 449.902
673.522, 791.316
674.824, 262.697
676.125, 824.043
677.427, 375.357
678.728, 286.637
680.030, 476.559
681.331, 217.771
682.631, 436.131
683.932, 317.275
685.232, 48.387
686.532, 465.801
687.832, 116.818
689.132, 274.809
690.432, 145.752
691.731, 226.541
693.030, 317.221
694.329, 131.936
695.628, 82.129
696.926, 92.150
698.224, 157.242
699.522, 380.016
700.820, 219.566
702.118, 249.230
703.415, 9.432
704.713, 0.807
706.010, 259.789
707.307, 200.178
708.603, 61.078
709.900, 1.320
711.196, 134.162
712.492, 204.771
713.788, 44.301
715.083, 23.609
716.379, 23.045
717.674, 52.428
718.969, 91.195
720.264, 40.510
721.558, 79.316
722.853, 138.557
724.147, 112.861
725.441, 536.240
726.735, 104.682
728.028, 174.189
729.322, 403.137
730.615, 2.062
731.908, 440.934
733.201, 269.785
734.493, 81.387
735.785, 467.352
737.078, 13.934
738.370, 334.725
739.661, 143.367
740.953, 141.984
742.244, 290.584
743.535, 110.838
744.826, 487.641
746.117, 216.100
747.407, 244.539
748.698, 282.959
749.988, 101.365
751.278, 539.748
752.567, 48.119
753.857, 436.469
755.146, 274.801
756.435, 86.855
757.724, 421.412
759.013, 149.674
760.301, 177.945
761.590, 286.203
762.878, 15.516
764.165, 432.730
765.453, 160.959
766.741, 20.787
768.028, 507.398
769.315, 175.588
770.602, 325.621
771.888, 323.809
773.175, 132.934
774.461, 341.096
775.747, 60.752
777.033, 97.707
778.319, 45.799
779.604, 66.119
780.889, 461.914
782.174, 210.061
783.459, 327.842
784.744, 285.736
786.028, 173.621
787.312, 571.496
788.596, 79.363
789.880, 707.225
791.164, 295.078
792.447, 192.924
793.730, 771.561
795.013, 219.395
796.296, 407.223
797.579, 405.047
798.861, 392.863
800.143, 640.678
801.425, 81.516
802.707, 426.258
803.989, 444.027
805.270, 371.793
806.551, 709.557
807.832, 317.318
809.113, 495.078
810.394, 492.836
811.674, 250.596
812.954, 658.354
814.234, 306.109
815.514, 633.885
816.794, 583.531
818.073, 331.305
819.352, 1099.080
820.631, 626.857
821.910, 344.645
823.189, 742.434
824.467, 260.225
825.745, 658.029
827.023, 395.838
828.301, 403.646
829.578, 801.463
830.856, 199.281
832.133, 807.102
833.410, 534.930
834.687, 422.771
835.963, 670.488
837.240, 368.354
838.516, 586.223
839.792, 680.854
841.068, 178.756
842.343, 1145.594
843.618, 233.527
844.894, 830.975
846.169, 1088.922
847.443, 536.885
848.718, 811.273
849.992, 787.746
851.266, 574.531
852.540, 917.729
853.814, 705.859
855.088, 1245.328
856.361, 1033.494
857.634, 1127.480
858.907, 1720.979
860.180, 1199.301
861.453, 1950.695
862.725, 1550.916
863.997, 804.973
865.269, 1460.812
866.541, 759.256
867.812, 945.916
869.084, 741.848
870.355, 657.842
871.626, 1045.100
872.897, 653.371
874.167, 500.412
875.438, 1038.623
876.708, 277.295
877.978, 1055.516
879.248, 334.303
880.517, 383.271
881.787, 1012.113
883.056, 160.980
884.325, 766.979
885.594, 405.904
886.862, 444.859
888.130, 815.955
889.399, 344.971
890.667, 600.531
891.934, 579.607
893.202, 458.719
894.469, 977.859
895.737, 167.033
897.004, 577.109
898.270, 806.350
899.537, 125.625
900.803, 864.932
902.070, 604.275
903.336, 603.652
904.601, 703.068
905.867, 542.441
907.132, 811.926
908.398, 291.449
909.663, 294.301
910.928, 833.895
912.192, 263.529
913.457, 633.197
914.721, 672.908
915.985, 280.895
917.249, 720.676
918.512, 0.496
919.776, 268.545
921.039, 418.445
922.302, 111.617
923.565, 628.340
924.827, 71.666
926.090, 348.363
927.352, 538.428
928.614, 35.273
929.876, 374.867
931.138, 605.049
932.399, 41.395
933.660, 691.658
934.922, 139.250
936.182, 749.613
937.443, 320.020
938.704, 290.469
939.964, 580.959
941.224, 101.492
942.484, 532.068
943.744, 542.693
945.003, 66.639
946.262, 684.076
947.521, 124.832
948.780, 415.631
950.039, 786.482
951.298, 517.377
952.556, 588.314
953.814, 615.971
955.072, 396.996
956.330, 1008.072
957.587, 119.191
958.845, 610.355
960.102, 561.564
961.359, 262.818
962.615, 754.121
963.872, 525.471
965.128, 506.863
966.384, 898.314
967.640, 120.193
968.896, 861.309
970.152, 732.854
971.407, 154.443
972.662, 1136.076
973.917, 337.754
975.172, 809.479
976.427, 651.250
977.681, 493.064
978.935, 1264.928
980.189, 916.838
981.443, 1098.797
982.697, 1440.801
983.950, 1502.855
985.203, 1884.959
986.456, 2267.109
987.709, 1989.311
988.962, 3031.561
990.214, 2773.861
991.467, 3436.223
992.719, 4218.637
993.971, 4551.105
995.222, 5893.621
996.474, 6436.191
997.725, 7548.814
998.976, 9527.600
1000.227, 10150.377
1001.478, 12853.217
1002.728, 14724.309
1003.978, 16187.316
1005.229, 18610.385
1006.479, 18473.576
1007.728, 20836.822
1008.978, 22134.857
1010.227, 22178.246
1011.476, 23641.691
1012.725, 22357.227
1013.974, 21150.885
1015.223, 21004.613
1016.471, 17618.453
1017.719, 17242.342
1018.967, 14778.730
1020.215, 13092.750
1021.462, 12576.832
1022.710, 9924.469
1023.957, 9598.672
1025.204, 8742.938
1026.451, 7117.262
1027.697, 7221.639
1028.944, 5671.715
1030.190, 5516.250
1031.436, 5270.885
1032.682, 4245.576
1033.928, 4870.324
1035.173, 4575.348
1036.418, 4010.219
1037.663, 4605.148
1038.908, 3900.170
1040.153, 4585.250
1041.398, 4490.404
1042.642, 4545.615
1043.886, 5330.883
1045.130, 5216.213
1046.374, 5831.602
1047.617, 6657.088
1048.860, 6862.637
1050.104, 8648.242
1051.347, 9443.914
1052.589, 10519.646
1053.832, 13225.438
1055.074, 14221.295
1056.316, 17027.213
1057.558, 20623.195
1058.800, 23369.170
1060.042, 27205.246
1061.283, 30261.281
1062.524, 31927.385
1063.765, 31571.033
1065.006, 29989.689
1066.247, 27045.779
1067.487, 23321.922
1068.728, 17878.383
1069.968, 15584.486
1071.208, 12060.594
1072.447, 9984.898
1073.687, 8371.021
1074.926, 6296.809
1076.165, 5823.035
1077.404, 4879.305
1078.643, 3745.281
1079.881, 4071.660
1081.120, 3228.578
1082.358, 3095.170
1083.596, 3081.699
1084.834, 2272.404
1086.071, 2719.068
1087.309, 1935.771
1088.546, 1792.506
1089.783, 2429.279
1091.020, 1256.092
1092.256, 1814.104
1093.493, 1530.988
1094.729, 1199.285
1095.965, 1766.270
1097.201, 923.289
1098.436, 771.332
1099.672, 1558.445
1100.907, 855.609
1102.142, 1362.836
1103.377, 1269.945
1104.612, 687.098
1105.846, 1684.230
1107.081, 1321.262
1108.315, 1868.852
1109.549, 1955.816
1110.782, 1363.258
1112.016, 1910.961
1113.249, 1667.781
1114.483, 1677.445
1115.716, 2214.070
1116.948, 1494.875
1118.181, 1971.891
1119.413, 2159.000
1120.646, 1796.199
1121.878, 2153.492
1123.110, 1730.879
1124.341, 1958.363
1125.573, 2455.938
1126.804, 1473.609
1128.035, 1501.379
1129.266, 1929.242
1130.497, 1097.203
1131.727, 1915.258
1132.957, 1133.355
1134.188, 1121.504
1135.418, 1579.707
1136.647, 778.004
1137.877, 1046.242
1139.106, 1414.559
1140.335, 302.949
1141.564, 1321.430
1142.793, 459.863
1144.022, 288.359
1145.250, 1176.914
1146.479, 164.445
1147.707, 834.211
1148.934, 562.945
1150.162, 198.246
1151.390, 740.641
1152.617, 179.602
1153.844, 518.633
1155.071, 497.742
1156.298, 293.074
1157.524, 656.180
1158.751, 515.504
1159.977, 55.098
1161.203, 574.363
1162.428, 183.898
1163.654, 93.504
1164.879, 553.184
1166.105, 237.066
1167.330, 722.758
1168.555, 212.676
1169.779, 77.309
1171.004, 822.797
1172.228, 272.992
1173.452, 133.262
1174.676, 763.586
1175.900, 106.039
1177.123, 744.418
1178.346, 164.945
1179.570, 145.543
1180.793, 746.211
1182.015, 16.957
1183.238, 347.781
1184.460, 658.691
1185.683, 149.699
1186.905, 920.801
1188.126, 471.988
1189.348, 703.258
1190.569, 954.684
1191.791, 356.281
1193.012, 408.012
1194.233, 729.867
1195.453, 301.852
1196.674, 823.965
1197.894, 226.203
1199.114, 698.562
1200.334, 941.051
1201.554, 243.676
1202.774, 566.438
1203.993, 1059.336
1205.212, 287.004
1206.431, 719.863
1207.650, 631.336
1208.869, 393.984
1210.087, 746.328
1211.305, 98.258
1212.524, 274.613
1213.741, 706.555
1214.959, 40.930
1216.177, 632.008
1217.394, 481.969
1218.611, 472.719
1219.828, 714.605
1221.045, 24.723
1222.261, 474.738
1223.478, 563.879
1224.694, 213.609
1225.910, 673.160
1227.126, 72.512
1228.342, 171.617
1229.557, 1050.426
1230.772, 41.121
1231.987, 366.918
1233.202, 894.465
1234.417, 271.781
1235.631, 679.332
1236.846, 717.766
1238.060, 15.273
1239.274, 1322.242
1240.488, 7.117
1241.701, 554.266
1242.915, 852.168
1244.128, 74.031
1245.341, 771.938
1246.554, 702.902
1247.767, 236.035
1248.979, 1095.309
1250.191, 294.598
1251.403, 699.270
1252.615, 815.910
1253.827, 152.328
1255.039, 838.770
1256.250, 192.758
1257.461, 135.305
1258.672, 1071.512
1259.883, 1.691
1261.094, 279.309
1262.304, 0.000
##END=



