##NAMES=Amblygonite
##RRUFFID=R040006
##IDEAL CHEMISTRY=LiAlPO_4_F
##LOCALITY=Pala, San Diego County, California, USA
##OWNER=RRUFF
##SOURCE=University of Arizona Mineral Museum
##DESCRIPTION=Light gray coarsely crystalline massive
##STATUS=The identification of this mineral has been confirmed by X-ray diffraction and chemical analysis
##URL=rruff.info/R040006
##MEASURED CHEMISTRY=LiAl_1.00_(P_1.00_O_4_)(F_0.73_(OH)_0.27_)_Î£=1_; Li assumed by stoichiometry; OH estimated by charge balance
##PIN_ID=l00499
##ORIENTATION=Laser parallel to (1 0 1). Fiducial mark perpendicular to laser is parallel to -b [0 -1 0]
96.663, 0.000
98.058, 4.033
99.453, 65.844
100.848, 82.126
102.242, 24.888
103.636, 99.940
105.030, 187.244
106.423, 357.615
107.817, 452.307
109.210, 486.601
110.603, 460.898
111.996, 552.756
113.388, 648.000
114.780, 789.776
116.172, 953.073
117.564, 887.496
118.956, 1003.688
120.347, 956.401
121.738, 1134.462
123.129, 1224.752
124.519, 1364.185
125.910, 1474.751
127.300, 1547.609
128.690, 1731.051
130.080, 1743.997
131.469, 1769.493
132.858, 1744.673
134.248, 1619.555
135.636, 1470.020
137.025, 1252.813
138.413, 1231.966
139.801, 1191.543
141.189, 1106.606
142.577, 1113.210
143.964, 1064.402
145.352, 1082.227
146.739, 1066.719
148.125, 1131.913
149.512, 1123.836
150.898, 1247.515
152.284, 1173.969
153.670, 1274.218
155.056, 1367.867
156.441, 1441.877
157.827, 1526.475
159.212, 1546.691
160.596, 1650.880
161.981, 1607.888
163.365, 1650.981
164.749, 1597.299
166.133, 1454.038
167.517, 1325.085
168.900, 1167.415
170.283, 1069.033
171.666, 889.074
173.049, 732.595
174.431, 624.409
175.813, 477.590
177.195, 381.763
178.577, 335.957
179.959, 322.176
181.340, 197.433
182.721, 229.747
184.102, 182.125
185.483, 176.246
186.863, 158.243
188.244, 207.676
189.624, 129.328
191.003, 153.044
192.383, 189.822
193.762, 140.658
195.141, 142.549
196.520, 137.493
197.899, 119.485
199.277, 74.522
200.656, 113.601
202.034, 106.717
203.411, 65.867
204.789, 103.050
206.166, 95.262
207.543, 99.501
208.920, 64.767
210.297, 75.057
211.673, 12.366
213.049, 86.692
214.425, 1.972
215.801, 28.368
217.176, 92.708
218.552, 72.045
219.927, 10.619
221.302, 15.715
222.676, 38.048
224.051, 73.621
225.425, 0.291
226.799, 105.931
228.173, 24.388
229.546, 50.939
230.919, 81.614
232.292, 33.960
233.665, 130.640
235.038, 35.318
236.410, 111.924
237.782, 85.607
239.154, 33.276
240.526, 49.948
241.898, 58.633
243.269, 67.299
244.640, 4.995
246.011, 57.774
247.381, 9.358
248.752, 19.404
250.122, 4.365
251.492, 22.283
252.861, 79.137
254.231, 55.981
255.600, 64.811
256.969, 129.643
258.338, 310.486
259.707, 328.340
261.075, 454.204
262.443, 488.726
263.811, 673.148
265.179, 960.102
266.546, 1108.260
267.914, 1381.572
269.281, 1497.002
270.647, 1716.525
272.014, 1874.122
273.380, 1843.774
274.747, 1969.470
276.113, 1824.200
277.478, 1758.957
278.844, 1645.732
280.209, 1529.520
281.574, 1441.312
282.939, 1322.104
284.304, 1421.891
285.668, 1273.670
287.032, 1352.441
288.396, 1438.202
289.760, 1670.952
291.123, 1889.690
292.487, 2162.413
293.850, 2781.122
295.212, 3153.807
296.575, 4279.461
297.937, 5326.078
299.300, 6716.656
300.662, 8233.194
302.023, 9099.695
303.385, 9736.164
304.746, 9182.602
306.107, 8139.010
307.468, 6845.391
308.829, 5491.749
310.189, 4755.083
311.549, 3810.394
312.909, 3335.685
314.269, 2889.956
315.629, 2365.209
316.988, 2128.444
318.347, 1753.662
319.706, 1611.855
321.065, 1361.013
322.423, 1206.156
323.781, 1175.258
325.139, 913.282
326.497, 896.197
327.855, 834.029
329.212, 810.755
330.569, 716.349
331.926, 670.797
333.283, 612.174
334.639, 478.457
335.995, 489.686
337.351, 409.913
338.707, 343.136
340.063, 412.363
341.418, 317.595
342.773, 294.832
344.128, 199.074
345.483, 217.319
346.837, 150.569
348.192, 205.823
349.546, 156.080
350.899, 157.341
352.253, 150.604
353.606, 106.870
354.960, 96.137
356.313, 88.101
357.665, 74.677
359.018, 90.948
360.370, 89.220
361.722, 112.493
363.074, 138.766
364.426, 63.039
365.777, 76.311
367.128, 108.583
368.479, 113.854
369.830, 126.125
371.181, 153.496
372.531, 114.871
373.881, 88.143
375.231, 139.072
376.581, 149.440
377.930, 101.225
379.280, 188.770
380.629, 143.371
381.977, 120.685
383.326, 127.742
384.674, 161.864
386.023, 168.899
387.370, 130.639
388.718, 163.128
390.066, 93.706
391.413, 94.398
392.760, 178.586
394.107, 156.057
395.454, 156.613
396.800, 163.978
398.146, 203.442
399.492, 173.526
400.838, 191.179
402.184, 187.535
403.529, 143.899
404.874, 185.800
406.219, 161.015
407.564, 179.557
408.908, 182.271
410.252, 220.357
411.596, 165.509
412.940, 170.283
414.284, 229.699
415.627, 198.201
416.970, 257.696
418.313, 298.166
419.656, 416.480
420.999, 458.822
422.341, 679.156
423.683, 927.506
425.025, 1118.867
426.367, 1152.438
427.708, 1115.814
429.049, 977.193
430.390, 774.575
431.731, 678.955
433.072, 580.335
434.412, 483.712
435.752, 408.090
437.092, 409.462
438.432, 380.826
439.772, 380.181
441.111, 387.529
442.450, 362.869
443.789, 421.200
445.127, 342.523
446.466, 411.838
447.804, 397.150
449.142, 323.464
450.480, 485.772
451.817, 486.073
453.155, 514.372
454.492, 558.687
455.829, 680.992
457.166, 571.288
458.502, 665.604
459.838, 841.909
461.175, 869.218
462.510, 1014.518
463.846, 1032.810
465.181, 1161.100
466.517, 1521.381
467.852, 1519.660
469.186, 1899.930
470.521, 2081.191
471.855, 2433.443
473.190, 2836.687
474.523, 3254.921
475.857, 3885.146
477.191, 4204.363
478.524, 5005.572
479.857, 5450.770
481.190, 5695.960
482.523, 6001.141
483.855, 5996.313
485.187, 6071.477
486.519, 5626.631
487.851, 5661.777
489.183, 5316.916
490.514, 4872.048
491.845, 4837.173
493.176, 4220.291
494.507, 3951.402
495.837, 3881.509
497.168, 3311.609
498.498, 3167.704
499.828, 2824.793
501.157, 2612.876
502.487, 2281.953
503.816, 1939.024
505.145, 1787.088
506.474, 1531.146
507.802, 1440.198
509.131, 1182.244
510.459, 988.282
511.787, 991.314
513.115, 685.340
514.442, 664.358
515.770, 543.345
517.097, 444.292
518.424, 402.175
519.750, 324.119
521.077, 255.048
522.403, 276.023
523.729, 195.990
525.055, 195.786
526.381, 158.629
527.706, 111.083
529.031, 77.509
530.356, 53.436
531.681, 52.364
533.006, 77.282
534.330, 24.135
535.654, 54.041
536.978, 27.062
538.302, 1.190
539.625, 8.679
540.949, 66.536
542.272, 5.598
543.595, 21.270
544.917, 42.873
546.240, 63.936
547.562, 8.877
548.884, 29.312
550.206, 70.494
551.527, 34.315
552.849, 5.162
554.170, 0.011
555.491, 33.122
556.812, 1.888
558.132, 9.235
559.453, 55.313
560.773, 39.575
562.093, 30.241
563.412, 18.853
564.732, 49.954
566.051, 66.554
567.370, 80.399
568.689, 26.845
570.008, 54.891
571.326, 65.991
572.644, 26.472
573.963, 45.365
575.280, 55.229
576.598, 67.094
577.915, 134.046
579.233, 107.301
580.550, 140.098
581.866, 129.361
583.183, 227.002
584.499, 64.735
585.815, 184.415
587.131, 204.842
588.447, 178.736
589.763, 239.487
591.078, 213.849
592.393, 210.575
593.708, 275.188
595.022, 371.321
596.337, 443.108
597.651, 533.837
598.965, 659.817
600.279, 796.582
601.593, 981.326
602.906, 1163.271
604.219, 1132.815
605.532, 1146.039
606.845, 1016.000
608.158, 1005.424
609.470, 918.279
610.782, 867.424
612.094, 1024.773
613.406, 985.383
614.718, 940.812
616.029, 1166.958
617.340, 1077.397
618.651, 1221.233
619.962, 1289.101
621.272, 1493.446
622.582, 1545.353
623.892, 1720.712
625.202, 2011.424
626.512, 2231.790
627.821, 2661.049
629.131, 3086.303
630.440, 3511.527
631.749, 4114.749
633.057, 4490.938
634.366, 5165.110
635.674, 5729.265
636.982, 6633.401
638.290, 8177.521
639.597, 9751.621
640.905, 12925.704
642.212, 17059.771
643.519, 21713.822
644.825, 28467.852
646.132, 31581.857
647.438, 33205.852
648.744, 30259.832
650.050, 24213.791
651.356, 19377.732
652.662, 13961.653
653.967, 10935.559
655.272, 8159.445
656.577, 6273.313
657.882, 5057.163
659.186, 3891.995
660.490, 3295.808
661.794, 2661.604
663.098, 2228.382
664.402, 2083.140
665.705, 1680.880
667.009, 1479.603
668.312, 1270.307
669.614, 1095.992
670.917, 992.659
672.219, 830.307
673.522, 758.938
674.824, 712.549
676.125, 679.143
677.427, 637.718
678.728, 499.275
680.030, 544.814
681.331, 449.334
682.631, 422.836
683.932, 420.321
685.232, 463.787
686.532, 387.233
687.832, 353.322
689.132, 317.625
690.432, 280.698
691.731, 286.843
693.030, 189.093
694.329, 277.581
695.628, 201.015
696.926, 263.971
698.224, 169.207
699.522, 257.500
700.820, 189.494
702.118, 127.723
703.415, 202.709
704.713, 184.460
706.010, 178.576
707.307, 154.878
708.603, 144.214
709.900, 168.057
711.196, 230.702
712.492, 115.424
713.788, 193.021
715.083, 143.625
716.379, 222.912
717.674, 81.773
718.969, 90.711
720.264, 90.031
721.558, 58.311
722.853, 114.658
724.147, 20.512
725.441, 91.216
726.735, 26.099
728.028, 32.441
729.322, 33.939
730.615, 54.149
731.908, 35.286
733.201, 91.780
734.493, 29.661
735.785, 123.833
737.078, 14.685
738.370, 5.054
739.661, 131.558
740.953, 38.287
742.244, 15.019
743.535, 5.291
744.826, 35.452
746.117, 18.657
747.407, 34.255
748.698, 12.103
749.988, 54.208
751.278, 83.292
752.567, 92.354
753.857, 57.398
755.146, 76.600
756.435, 76.602
757.724, 55.871
759.013, 116.831
760.301, 14.810
761.590, 0.934
762.878, 33.414
764.165, 53.488
765.453, 14.308
766.741, 54.725
768.028, 67.678
769.315, 130.378
770.602, 68.939
771.888, 91.669
773.175, 1.741
774.461, 40.811
775.747, 134.340
777.033, 11.852
778.319, 82.393
779.604, 13.857
780.889, 69.292
782.174, 88.709
783.459, 84.110
784.744, 145.496
786.028, 79.865
787.312, 139.219
788.596, 174.556
789.880, 171.878
791.164, 246.186
792.447, 237.478
793.730, 341.754
795.013, 387.017
796.296, 317.263
797.579, 425.496
798.861, 431.714
800.143, 509.917
801.425, 460.107
802.707, 504.283
803.989, 616.445
805.270, 631.594
806.551, 564.729
807.832, 629.851
809.113, 538.959
810.394, 702.055
811.674, 574.138
812.954, 628.207
814.234, 642.265
815.514, 526.309
816.794, 498.342
818.073, 614.363
819.352, 595.371
820.631, 647.368
821.910, 598.867
823.189, 460.328
824.467, 474.292
825.745, 356.243
827.023, 327.185
828.301, 331.115
829.578, 283.035
830.856, 271.945
832.133, 203.845
833.410, 232.735
834.687, 208.615
835.963, 128.485
837.240, 215.347
838.516, 131.199
839.792, 141.043
841.068, 23.121
842.343, 157.689
843.618, 5.508
844.894, 56.279
846.169, 18.060
847.443, 73.833
848.718, 5.392
849.992, 31.372
851.266, 64.871
852.540, 27.155
853.814, 22.541
855.088, 32.768
856.361, 42.809
857.634, 15.499
858.907, 17.819
860.180, 0.146
861.453, 5.480
862.725, 1.163
863.997, 73.185
865.269, 11.427
866.541, 84.913
867.812, 49.470
869.084, 2.106
870.355, 1.713
871.626, 2.977
872.897, 23.122
874.167, 27.190
875.438, 33.815
876.708, 18.332
877.978, 1.636
879.248, 61.783
880.517, 26.136
881.787, 119.099
883.056, 38.362
884.325, 0.186
885.594, 2.270
886.862, 50.151
888.130, 66.269
889.399, 43.835
890.667, 9.078
891.934, 10.381
893.202, 54.211
894.469, 105.846
895.737, 15.721
897.004, 118.881
898.270, 5.628
899.537, 91.516
900.803, 7.971
902.070, 167.645
903.336, 3.730
904.601, 58.152
905.867, 137.623
907.132, 44.167
908.398, 89.245
909.663, 16.333
910.928, 41.878
912.192, 2.519
913.457, 13.604
914.721, 29.435
915.985, 14.742
917.249, 8.511
918.512, 12.534
919.776, 33.791
921.039, 53.681
922.302, 25.326
923.565, 35.020
924.827, 4.865
926.090, 44.081
927.352, 20.259
928.614, 53.953
929.876, 5.922
931.138, 80.744
932.399, 25.051
933.660, 17.700
934.922, 101.447
936.182, 3.196
937.443, 93.968
938.704, 66.737
939.964, 144.534
941.224, 71.343
942.484, 84.165
943.744, 133.002
945.003, 74.852
946.262, 85.716
947.521, 238.597
948.780, 102.493
950.039, 86.402
951.298, 275.326
952.556, 196.264
953.814, 272.216
955.072, 193.184
956.330, 263.166
957.587, 206.163
958.845, 318.180
960.102, 231.211
961.359, 207.259
962.615, 339.322
963.872, 376.400
965.128, 294.496
966.384, 373.607
967.640, 420.738
968.896, 379.886
970.152, 535.049
971.407, 444.245
972.662, 618.458
973.917, 656.687
975.172, 672.935
976.427, 756.200
977.681, 731.482
978.935, 832.783
980.189, 1037.102
981.443, 972.456
982.697, 1165.827
983.950, 1297.225
985.203, 1290.641
986.456, 1740.098
987.709, 1620.598
988.962, 2083.116
990.214, 2394.653
991.467, 2586.224
992.719, 3216.052
993.971, 3627.666
995.222, 4368.622
996.474, 4980.289
997.725, 5391.979
998.976, 6693.696
1000.227, 7164.845
1001.478, 8166.612
1002.728, 9824.391
1003.978, 10684.572
1005.229, 12466.431
1006.479, 13436.420
1007.728, 14448.324
1008.978, 16129.338
1010.227, 15830.280
1011.476, 17082.057
1012.725, 16673.656
1013.974, 15375.549
1015.223, 15453.572
1016.471, 13345.651
1017.719, 12347.756
1018.967, 11317.489
1020.215, 9669.633
1021.462, 9081.800
1022.710, 7973.850
1023.957, 7146.123
1025.204, 6967.267
1026.451, 6079.611
1027.697, 6001.980
1028.944, 5864.271
1030.190, 5536.699
1031.436, 6109.170
1032.682, 6231.686
1033.928, 6702.780
1035.173, 7405.361
1036.418, 7587.938
1037.663, 8610.608
1038.908, 9113.343
1040.153, 9536.102
1041.398, 10798.703
1042.642, 10761.332
1043.886, 11504.207
1045.130, 11917.146
1046.374, 11610.117
1047.617, 12168.193
1048.860, 11901.241
1050.104, 11714.319
1051.347, 12037.298
1052.589, 11480.462
1053.832, 11823.648
1055.074, 11816.864
1056.316, 11460.105
1057.558, 12592.196
1058.800, 12895.489
1060.042, 13298.523
1061.283, 14581.871
1062.524, 14095.205
1063.765, 14698.392
1065.006, 13471.218
1066.247, 11924.459
1067.487, 11067.955
1068.728, 8761.304
1069.968, 7434.199
1071.208, 6377.803
1072.447, 5171.431
1073.687, 4545.109
1074.926, 3848.815
1076.165, 3092.557
1077.404, 3016.324
1078.643, 2400.114
1079.881, 2293.878
1081.120, 2037.724
1082.358, 1701.617
1083.596, 1685.536
1084.834, 1469.482
1086.071, 1393.454
1087.309, 1377.449
1088.546, 1095.473
1089.783, 1166.539
1091.020, 1067.630
1092.256, 899.075
1093.493, 965.214
1094.729, 950.374
1095.965, 843.458
1097.201, 893.669
1098.436, 820.902
1099.672, 848.161
1100.907, 824.442
1102.142, 718.748
1103.377, 991.078
1104.612, 791.430
1105.846, 902.805
1107.081, 997.048
1108.315, 1044.467
1109.549, 1086.909
1110.782, 1184.373
1112.016, 1196.859
1113.249, 1359.369
1114.483, 1353.899
1115.716, 1448.947
1116.948, 1553.522
1118.181, 1594.481
1119.413, 1606.020
1120.646, 1730.658
1121.878, 1745.318
1123.110, 1786.595
1124.341, 1854.766
1125.573, 1659.527
1126.804, 1644.297
1128.035, 1409.087
1129.266, 1667.648
1130.497, 1342.477
1131.727, 1428.818
1132.957, 1383.687
1134.188, 1146.637
1135.418, 1313.831
1136.647, 1052.754
1137.877, 981.692
1139.106, 1181.673
1140.335, 772.689
1141.564, 884.709
1142.793, 826.011
1144.022, 599.235
1145.250, 768.021
1146.479, 464.250
1147.707, 495.372
1148.934, 579.237
1150.162, 350.889
1151.390, 453.291
1152.617, 431.699
1153.844, 346.997
1155.071, 500.586
1156.298, 333.596
1157.524, 386.029
1158.751, 360.356
1159.977, 382.764
1161.203, 317.398
1162.428, 503.215
1163.654, 327.565
1164.879, 480.959
1166.105, 418.134
1167.330, 457.530
1168.555, 556.146
1169.779, 420.462
1171.004, 612.895
1172.228, 744.104
1173.452, 523.572
1174.676, 707.041
1175.900, 625.847
1177.123, 676.335
1178.346, 865.944
1179.570, 734.731
1180.793, 817.611
1182.015, 910.008
1183.238, 913.255
1184.460, 1062.801
1185.683, 999.072
1186.905, 1188.631
1188.126, 1174.234
1189.348, 1314.196
1190.569, 1339.775
1191.791, 1469.142
1193.012, 1314.801
1194.233, 1510.395
1195.453, 1419.492
1196.674, 1405.155
1197.894, 1541.185
1199.114, 1421.511
1200.334, 1427.146
1201.554, 1472.967
1202.774, 1139.372
1203.993, 1455.014
1205.212, 1281.258
1206.431, 1076.909
1207.650, 1252.564
1208.869, 988.225
1210.087, 984.028
1211.305, 979.812
1212.524, 689.220
1213.741, 910.067
1214.959, 675.731
1216.177, 589.734
1217.394, 583.401
1218.611, 521.112
1219.828, 460.778
1221.045, 405.443
1222.261, 304.420
1223.478, 395.082
1224.694, 297.746
1225.910, 233.466
1227.126, 152.126
1228.342, 248.942
1229.557, 164.921
1230.772, 221.337
1231.987, 6.522
1233.202, 205.178
1234.417, 119.973
1235.631, 26.213
1236.846, 142.016
1238.060, 17.312
1239.274, 108.626
1240.488, 115.309
1241.701, 32.495
1242.915, 81.619
1244.128, 69.307
1245.341, 13.415
1246.554, 78.112
1247.767, 131.090
1248.979, 49.000
1250.191, 124.689
1251.403, 18.380
1252.615, 26.925
1253.827, 70.748
1255.039, 22.537
1256.250, 102.179
1257.461, 75.794
1258.672, 98.779
1259.883, 62.373
1261.094, 14.774
1262.304, 86.129
1263.514, 79.682
1264.724, 59.795
1265.934, 129.743
1267.144, 125.227
1268.354, 60.660
1269.563, 9.128
1270.772, 11.589
1271.981, 88.812
1273.190, 23.184
1274.398, 58.339
1275.607, 150.973
1276.815, 20.729
1278.023, 85.729
1279.231, 75.998
1280.439, 78.789
1281.646, 76.360
1282.853, 49.502
1284.060, 40.395
1285.267, 31.990
1286.474, 6.987
1287.681, 10.455
1288.887, 7.688
1290.093, 0.245
1291.299, 5.840
1292.505, 49.060
1293.711, 14.054
1294.916, 6.806
1296.121, 52.348
1297.327, 19.536
1298.531, 41.397
1299.736, 15.171
1300.941, 5.932
1302.145, 29.708
1303.349, 2.399
1304.553, 46.060
1305.757, 22.694
1306.961, 18.729
1308.164, 80.816
1309.367, 73.339
1310.570, 165.160
1311.773, 181.267
1312.976, 40.668
1314.178, 12.050
1315.381, 196.404
1316.583, 50.263
1317.785, 90.024
1318.987, 140.286
1320.188, 6.522
1321.390, 115.730
1322.591, 71.847
1323.792, 44.940
1324.993, 39.997
1326.193, 15.971
1327.394, 12.980
1328.594, 124.975
1329.794, 44.095
1330.994, 129.787
1332.194, 99.639
1333.394, 37.561
1334.593, 216.196
1335.792, 27.071
1336.991, 96.618
1338.190, 126.279
1339.389, 21.088
1340.587, 107.503
1341.786, 51.066
1342.984, 39.397
1344.182, 120.092
1345.379, 76.555
1346.577, 35.991
1347.774, 279.395
1348.972, 44.772
1350.169, 140.122
1351.365, 135.554
1352.562, 124.856
1353.759, 92.135
1354.955, 98.483
1356.151, 41.716
1357.347, 85.925
1358.543, 194.113
1359.738, 68.282
1360.934, 220.432
1362.129, 122.564
1363.324, 223.682
1364.519, 203.779
1365.713, 74.860
1366.908, 142.928
1368.102, 188.904
1369.296, 124.957
1370.490, 145.008
1371.684, 22.914
1372.877, 78.944
1374.071, 50.688
1375.264, 63.338
1376.457, 162.605
1377.650, 39.829
1378.843, 26.322
1380.035, 119.846
1381.227, 183.056
1382.419, 99.172
1383.611, 285.270
1384.803, 79.346
1385.995, 86.489
1387.186, 209.519
1388.377, 91.529
1389.568, 259.519
1390.759, 109.930
1391.950, 115.157
1393.140, 190.044
1394.331, 274.837
1395.521, 259.605
1396.711, 229.948
1397.900, 142.870
1399.090, 191.445
1400.279, 219.607
1401.469, 91.396
1402.658, 253.516
1403.847, 104.823
1405.035, 96.778
1406.224, 168.783
1407.412, 186.862
1408.600, 147.973
1409.788, 250.558
1410.976, 49.038
1412.164, 206.365
1413.351, 156.933
1414.538, 44.503
1415.725, 207.922
1416.912, 120.334
1418.099, 157.141
1419.285, 218.755
1420.472, 102.081
1421.658, 214.583
1422.844, 189.629
1424.030, 155.745
1425.215, 228.870
1426.401, 265.171
1427.586, 62.118
1428.771, 249.475
1429.956, 41.593
1431.141, 3.353
1432.325, 237.720
1433.510, 169.318
1434.694, 141.880
1435.878, 254.146
1437.062, 165.100
1438.245, 347.212
1439.429, 188.998
1440.612, 81.280
1441.795, 283.021
1442.978, 255.299
1444.161, 107.422
1445.343, 230.768
1446.526, 240.171
1447.708, 179.726
1448.890, 191.653
1450.072, 182.519
1451.253, 232.686
1452.435, 272.848
1453.616, 152.847
1454.797, 362.487
1455.978, 233.124
1457.159, 243.628
1458.340, 363.806
1459.520, 213.382
1460.700, 263.135
1461.880, 362.635
1463.060, 212.904
1464.240, 307.202
1465.420, 207.002
1466.599, 124.690
1467.778, 464.304
1468.957, 203.674
1470.136, 213.492
1471.315, 293.427
1472.493, 152.407
1473.671, 220.765
1474.849, 224.797
1476.027, 204.646
1477.205, 314.352
1478.383, 183.921
1479.560, 242.780
1480.737, 311.834
1481.914, 261.164
1483.091, 100.612
1484.268, 280.126
1485.444, 159.585
1486.621, 158.992
1487.797, 378.305
1488.973, 217.568
1490.149, 256.777
1491.324, 256.640
1492.500, 6.603
1493.675, 316.593
1494.850, 226.599
1496.025, 6.890
1497.200, 337.401
1498.374, 228.031
1499.548, 68.849
1500.723, 229.844
1501.897, 41.048
1503.071, 232.538
1504.244, 264.382
1505.418, 75.237
1506.591, 106.377
1507.764, 269.076
1508.937, 7.771
1510.110, 195.909
1511.282, 340.306
1512.455, 46.010
1513.627, 169.270
1514.799, 47.151
1515.971, 0.000
##END=



