##NAMES=Amblygonite
##RRUFFID=R040006
##IDEAL CHEMISTRY=LiAlPO_4_F
##LOCALITY=Pala, San Diego County, California, USA
##OWNER=RRUFF
##SOURCE=University of Arizona Mineral Museum
##DESCRIPTION=Light gray coarsely crystalline massive
##STATUS=The identification of this mineral has been confirmed by X-ray diffraction and chemical analysis
##URL=rruff.info/R040006
##MEASURED CHEMISTRY=LiAl_1.00_(P_1.00_O_4_)(F_0.73_(OH)_0.27_)_Î£=1_; Li assumed by stoichiometry; OH estimated by charge balance
##PIN_ID=l00204
##ORIENTATION=Laser parallel to b* (0 1 0). Fiducial mark perpendicular to laser is parallel to c [0 0 1]
109.210, 0.000
110.603, 5.095
111.996, 4.732
113.388, 42.341
114.780, 20.474
116.172, 98.953
117.564, 49.545
118.956, 46.996
120.347, 59.247
121.738, 148.431
123.129, 157.901
124.519, 268.475
125.910, 260.240
127.300, 398.868
128.690, 359.854
130.080, 390.842
131.469, 458.583
132.858, 457.902
134.248, 497.672
135.636, 440.802
137.025, 494.281
138.413, 537.468
139.801, 638.519
141.189, 766.298
142.577, 744.053
143.964, 915.660
145.352, 1184.768
146.739, 1331.448
148.125, 1766.762
149.512, 2145.757
150.898, 2607.481
152.284, 3167.967
153.670, 3966.242
155.056, 4788.338
156.441, 5946.277
157.827, 7005.085
159.212, 8261.781
160.596, 9818.379
161.981, 10804.896
163.365, 11871.447
164.749, 12588.785
166.133, 12482.388
167.517, 12421.381
168.900, 11722.680
170.283, 11051.041
171.666, 10038.896
173.049, 8909.791
174.431, 8121.335
175.813, 7238.022
177.195, 6422.607
178.577, 5796.024
179.959, 5202.545
181.340, 4716.167
182.721, 4319.884
184.102, 3993.693
185.483, 3635.591
186.863, 3341.768
188.244, 2966.663
189.624, 2782.834
191.003, 2568.095
192.383, 2288.424
193.762, 1910.783
195.141, 1676.193
196.520, 1464.667
197.899, 1166.212
199.277, 987.831
200.656, 780.526
202.034, 593.297
203.411, 470.143
204.789, 349.064
206.166, 265.058
207.543, 229.123
208.920, 218.257
210.297, 148.456
211.673, 94.718
213.049, 110.041
214.425, 65.422
215.801, 53.860
217.176, 20.353
218.552, 49.899
219.927, 7.496
221.302, 97.859
222.676, 6.828
224.051, 41.448
225.425, 97.692
226.799, 59.906
228.173, 36.090
229.546, 47.244
230.919, 104.368
232.292, 78.461
233.665, 78.525
235.038, 57.559
236.410, 57.939
237.782, 75.538
239.154, 50.484
240.526, 53.400
241.898, 28.288
243.269, 18.147
244.640, 18.029
246.011, 60.594
247.381, 96.466
248.752, 174.679
250.122, 232.914
251.492, 315.177
252.861, 428.443
254.231, 510.729
255.600, 736.029
256.969, 835.346
258.338, 1117.683
259.707, 1333.071
261.075, 1715.563
262.443, 2022.129
263.811, 2385.761
265.179, 2800.430
266.546, 3205.158
267.914, 3603.925
269.281, 3833.737
270.647, 4107.588
272.014, 4268.465
273.380, 4150.363
274.747, 4123.583
276.113, 3842.149
277.478, 3692.022
278.844, 3403.252
280.209, 3240.695
281.574, 3242.311
282.939, 3197.069
284.304, 3210.947
285.668, 3335.927
287.032, 3789.993
288.396, 4086.136
289.760, 4659.345
291.123, 5552.610
292.487, 6580.921
293.850, 8318.272
295.212, 10045.659
296.575, 12893.078
297.937, 15880.525
299.300, 19477.998
300.662, 23115.498
302.023, 25273.016
303.385, 26260.553
304.746, 24898.098
306.107, 22875.639
307.468, 19573.174
308.829, 16360.702
310.189, 14038.228
311.549, 11945.750
312.909, 10373.273
314.269, 8890.799
315.629, 7648.325
316.988, 6445.854
318.347, 5352.391
319.706, 4565.931
321.065, 3697.476
322.423, 3231.027
323.781, 2847.586
325.139, 2456.152
326.497, 2336.726
327.855, 2120.305
329.212, 2031.885
330.569, 1827.395
331.926, 1678.812
333.283, 1594.169
334.639, 1369.434
335.995, 1426.611
337.351, 1249.730
338.707, 1183.788
340.063, 1138.812
341.418, 1056.843
342.773, 1043.894
344.128, 998.135
345.483, 976.057
346.837, 933.168
348.192, 893.297
349.546, 840.445
350.899, 883.611
352.253, 899.795
353.606, 828.995
354.960, 913.212
356.313, 908.445
357.665, 925.694
359.018, 913.959
360.370, 955.239
361.722, 950.034
363.074, 966.758
364.426, 981.168
365.777, 998.505
367.128, 1057.856
368.479, 1085.221
369.830, 1064.597
371.181, 1028.985
372.531, 998.386
373.881, 955.798
375.231, 926.222
376.581, 787.098
377.930, 760.673
379.280, 722.130
380.629, 643.724
381.977, 610.237
383.326, 526.936
384.674, 508.763
386.023, 431.595
387.370, 467.130
388.718, 336.845
390.066, 377.934
391.413, 338.450
392.760, 261.910
394.107, 302.777
395.454, 320.798
396.800, 216.753
398.146, 295.729
399.492, 289.679
400.838, 283.976
402.184, 191.895
403.529, 285.578
404.874, 240.673
406.219, 236.697
407.564, 290.337
408.908, 297.476
410.252, 345.455
411.596, 261.745
412.940, 368.770
414.284, 462.429
415.627, 623.630
416.970, 741.282
418.313, 930.271
419.656, 1335.467
420.999, 1782.499
422.341, 2338.880
423.683, 3164.110
425.025, 3598.112
426.367, 3898.409
427.708, 3599.446
429.049, 2873.359
430.390, 2183.636
431.731, 1614.796
433.072, 1288.792
434.412, 935.671
435.752, 791.739
437.092, 631.629
438.432, 622.523
439.772, 591.422
441.111, 502.323
442.450, 562.225
443.789, 565.132
445.127, 463.041
446.466, 496.958
447.804, 506.875
449.142, 581.790
450.480, 603.700
451.817, 646.608
453.155, 711.511
454.492, 711.410
455.829, 814.304
457.166, 861.822
458.502, 844.077
459.838, 1004.956
461.175, 1045.828
462.510, 1121.694
463.846, 1284.554
465.181, 1357.407
466.517, 1605.254
467.852, 1737.096
469.186, 2014.930
470.521, 2222.757
471.855, 2702.578
473.190, 3029.391
474.523, 3468.196
475.857, 3959.995
477.191, 4488.785
478.524, 5045.568
479.857, 5527.343
481.190, 5925.110
482.523, 6262.870
483.855, 6320.619
485.187, 6448.362
486.519, 6176.095
487.851, 6333.821
489.183, 6021.535
490.514, 5819.240
491.845, 5776.940
493.176, 5474.630
494.507, 5244.310
495.837, 5054.983
497.168, 4695.648
498.498, 4582.306
499.828, 4219.957
501.157, 3874.599
502.487, 3550.233
503.816, 3224.860
505.145, 3044.479
506.474, 2705.090
507.802, 2437.691
509.131, 2080.285
510.459, 1900.870
511.787, 1679.445
513.115, 1380.011
514.442, 1313.568
515.770, 1062.115
517.097, 1019.652
518.424, 849.180
519.750, 746.696
521.077, 630.202
522.403, 516.697
523.729, 516.182
525.055, 410.655
526.381, 295.117
527.706, 331.567
529.031, 228.007
530.356, 232.434
531.681, 127.850
533.006, 167.252
534.330, 164.644
535.654, 13.361
536.978, 41.768
538.302, 86.269
539.625, 40.092
540.949, 68.467
542.272, 12.359
543.595, 74.669
544.917, 27.736
546.240, 27.301
547.562, 13.781
548.884, 81.620
550.206, 4.234
551.527, 27.307
552.849, 18.375
554.170, 45.225
555.491, 106.996
556.812, 8.682
558.132, 19.533
559.453, 59.574
560.773, 15.444
562.093, 29.209
563.412, 3.232
564.732, 3.500
566.051, 57.446
567.370, 33.054
568.689, 43.527
570.008, 0.276
571.326, 10.664
572.644, 20.312
573.963, 50.383
575.280, 26.569
576.598, 14.734
577.915, 9.144
579.233, 19.124
580.550, 53.665
581.866, 13.322
583.183, 100.846
584.499, 21.437
585.815, 105.921
587.131, 138.488
588.447, 81.413
589.763, 95.930
591.078, 127.375
592.393, 195.926
593.708, 111.429
595.022, 190.597
596.337, 235.854
597.651, 334.089
598.965, 469.688
600.279, 540.880
601.593, 605.060
602.906, 630.025
604.219, 620.772
605.532, 596.792
606.845, 518.048
608.158, 444.141
609.470, 330.187
610.782, 246.271
612.094, 355.303
613.406, 233.298
614.718, 308.340
616.029, 228.288
617.340, 274.212
618.651, 305.113
619.962, 275.989
621.272, 379.842
622.582, 371.732
623.892, 362.539
625.202, 438.479
626.512, 452.237
627.821, 587.971
629.131, 624.680
630.440, 726.365
631.749, 785.025
633.057, 862.661
634.366, 1151.272
635.674, 1179.859
636.982, 1552.420
638.290, 1862.957
639.597, 2325.469
640.905, 3138.956
642.212, 4139.417
643.519, 5242.854
644.825, 6598.267
646.132, 7133.654
647.438, 7189.017
648.744, 6224.353
650.050, 5199.664
651.356, 4111.951
652.662, 3070.213
653.967, 2452.449
655.272, 1871.659
656.577, 1590.845
657.882, 1243.005
659.186, 1072.140
660.490, 881.249
661.794, 752.333
663.098, 661.392
664.402, 679.424
665.705, 498.432
667.009, 514.413
668.312, 495.370
669.614, 394.300
670.917, 391.206
672.219, 380.085
673.522, 313.939
674.824, 347.767
676.125, 318.570
677.427, 269.347
678.728, 191.098
680.030, 249.824
681.331, 207.524
682.631, 214.199
683.932, 228.028
685.232, 205.471
686.532, 237.068
687.832, 179.640
689.132, 175.187
690.432, 207.708
691.731, 106.203
693.030, 161.229
694.329, 134.541
695.628, 90.954
696.926, 157.180
698.224, 82.504
699.522, 164.302
700.820, 17.588
702.118, 125.221
703.415, 104.833
704.713, 58.392
706.010, 110.421
707.307, 63.262
708.603, 59.663
709.900, 47.567
711.196, 47.159
712.492, 96.183
713.788, 108.525
715.083, 55.183
716.379, 118.225
717.674, 90.988
718.969, 28.160
720.264, 77.521
721.558, 36.729
722.853, 59.520
724.147, 50.344
725.441, 70.042
726.735, 3.571
728.028, 51.031
729.322, 33.662
730.615, 15.979
731.908, 0.400
733.201, 51.811
734.493, 51.777
735.785, 110.812
737.078, 77.143
738.370, 8.735
739.661, 64.319
740.953, 55.716
742.244, 26.771
743.535, 17.045
744.826, 70.690
746.117, 78.568
747.407, 62.205
748.698, 63.181
749.988, 32.946
751.278, 104.871
752.567, 134.904
753.857, 48.789
755.146, 125.764
756.435, 26.604
757.724, 30.284
759.013, 5.067
760.301, 42.812
761.590, 54.532
762.878, 76.230
764.165, 81.946
765.453, 65.375
766.741, 71.267
768.028, 90.833
769.315, 66.434
770.602, 81.317
771.888, 85.579
773.175, 84.126
774.461, 83.652
775.747, 75.160
777.033, 57.716
778.319, 153.609
779.604, 47.063
780.889, 171.496
782.174, 125.912
783.459, 126.310
784.744, 284.691
786.028, 201.056
787.312, 292.404
788.596, 213.734
789.880, 334.048
791.164, 372.347
792.447, 361.628
793.730, 446.894
795.013, 533.145
796.296, 575.378
797.579, 647.598
798.861, 764.802
800.143, 811.992
801.425, 882.166
802.707, 892.326
803.989, 968.471
805.270, 1050.602
806.551, 1043.720
807.832, 1066.823
809.113, 1121.914
810.394, 1141.990
811.674, 1105.054
812.954, 1152.104
814.234, 1115.142
815.514, 1117.167
816.794, 1106.488
818.073, 1072.180
819.352, 1016.168
820.631, 970.145
821.910, 902.404
823.189, 841.063
824.467, 755.006
825.745, 736.937
827.023, 663.858
828.301, 567.768
829.578, 552.668
830.856, 554.558
832.133, 362.438
833.410, 395.309
834.687, 284.170
835.963, 304.022
837.240, 299.866
838.516, 167.701
839.792, 245.527
841.068, 133.345
842.343, 230.156
843.618, 122.958
844.894, 78.754
846.169, 129.202
847.443, 98.940
848.718, 47.563
849.992, 81.845
851.266, 60.555
852.540, 63.729
853.814, 15.465
855.088, 52.920
856.361, 108.508
857.634, 15.009
858.907, 11.175
860.180, 11.599
861.453, 38.415
862.725, 74.407
863.997, 109.823
865.269, 10.175
866.541, 37.352
867.812, 60.034
869.084, 28.882
870.355, 26.541
871.626, 17.079
872.897, 28.393
874.167, 38.135
875.438, 38.523
876.708, 75.196
877.978, 28.758
879.248, 48.764
880.517, 4.825
881.787, 103.345
883.056, 4.858
884.325, 8.425
885.594, 29.711
886.862, 9.984
888.130, 12.853
889.399, 16.022
890.667, 32.645
891.934, 11.471
893.202, 32.941
894.469, 42.029
895.737, 4.352
897.004, 32.650
898.270, 4.958
899.537, 24.619
900.803, 15.998
902.070, 33.647
903.336, 16.615
904.601, 5.520
905.867, 89.350
907.132, 5.158
908.398, 27.726
909.663, 30.393
910.928, 65.620
912.192, 13.499
913.457, 11.959
914.721, 75.703
915.985, 27.404
917.249, 5.480
918.512, 12.611
919.776, 142.703
921.039, 14.201
922.302, 27.047
923.565, 43.973
924.827, 2.909
926.090, 69.857
927.352, 61.816
928.614, 4.213
929.876, 21.293
931.138, 84.696
932.399, 11.540
933.660, 65.553
934.922, 24.579
936.182, 72.618
937.443, 65.670
938.704, 77.736
939.964, 113.177
941.224, 197.909
942.484, 108.017
943.744, 151.139
945.003, 12.276
946.262, 126.427
947.521, 98.601
948.780, 164.790
950.039, 164.995
951.298, 131.216
952.556, 166.453
953.814, 247.722
955.072, 149.006
956.330, 235.307
957.587, 209.624
958.845, 290.958
960.102, 322.308
961.359, 207.675
962.615, 375.060
963.872, 396.462
965.128, 333.882
966.384, 388.320
967.640, 412.775
968.896, 399.249
970.152, 575.741
971.407, 354.263
972.662, 611.803
973.917, 601.363
975.172, 546.941
976.427, 754.540
977.681, 700.156
978.935, 812.793
980.189, 1026.449
981.443, 931.135
982.697, 1123.841
983.950, 1200.593
985.203, 1216.364
986.456, 1560.157
987.709, 1524.997
988.962, 1882.858
990.214, 2011.740
991.467, 2166.644
992.719, 2786.569
993.971, 3069.519
995.222, 3678.496
996.474, 4201.495
997.725, 4694.539
998.976, 5647.609
1000.227, 6140.700
1001.478, 7063.815
1002.728, 8226.953
1003.978, 9120.138
1005.229, 10453.352
1006.479, 11146.604
1007.728, 12239.901
1008.978, 13232.079
1010.227, 13094.496
1011.476, 13646.942
1012.725, 13210.356
1013.974, 12483.794
1015.223, 12180.829
1016.471, 10743.522
1017.719, 10007.062
1018.967, 9167.337
1020.215, 8170.950
1021.462, 7774.602
1022.710, 6708.276
1023.957, 6191.996
1025.204, 6013.777
1026.451, 5357.556
1027.697, 5357.497
1028.944, 5111.351
1030.190, 5102.899
1031.436, 5216.512
1032.682, 5340.467
1033.928, 5634.155
1035.173, 6158.181
1036.418, 6192.242
1037.663, 6965.899
1038.908, 7299.562
1040.153, 7813.141
1041.398, 8476.086
1042.642, 9010.330
1043.886, 9823.374
1045.130, 10406.170
1046.374, 10940.397
1047.617, 11993.720
1048.860, 12748.018
1050.104, 14381.725
1051.347, 15476.213
1052.589, 17000.725
1053.832, 19515.271
1055.074, 21649.721
1056.316, 24604.328
1057.558, 29028.844
1058.800, 32613.521
1060.042, 37117.363
1061.283, 42082.094
1062.524, 44496.859
1063.765, 44707.293
1065.006, 43856.492
1066.247, 40150.645
1067.487, 35275.414
1068.728, 27990.059
1069.968, 23629.039
1071.208, 18913.994
1072.447, 14978.973
1073.687, 12473.978
1074.926, 9859.006
1076.165, 8204.061
1077.404, 7199.139
1078.643, 5724.178
1079.881, 5218.888
1081.120, 4304.042
1082.358, 3799.239
1083.596, 3434.459
1084.834, 2879.719
1086.071, 2725.026
1087.309, 2485.359
1088.546, 2137.730
1089.783, 2163.129
1091.020, 1793.552
1092.256, 1689.013
1093.493, 1677.498
1094.729, 1626.007
1095.965, 1554.292
1097.201, 1355.752
1098.436, 1367.348
1099.672, 1329.109
1100.907, 1115.754
1102.142, 1159.733
1103.377, 1339.425
1104.612, 1203.141
1105.846, 1301.883
1107.081, 1318.649
1108.315, 1397.438
1109.549, 1512.259
1110.782, 1518.777
1112.016, 1415.968
1113.249, 1598.860
1114.483, 1613.773
1115.716, 1689.553
1116.948, 1763.684
1118.181, 1711.667
1119.413, 1962.131
1120.646, 1846.165
1121.878, 1971.221
1123.110, 2017.312
1124.341, 1900.425
1125.573, 1894.559
1126.804, 1822.715
1128.035, 1655.892
1129.266, 1689.315
1130.497, 1553.534
1131.727, 1568.493
1132.957, 1462.753
1134.188, 1309.033
1135.418, 1393.804
1136.647, 1209.126
1137.877, 1006.466
1139.106, 1160.950
1140.335, 819.329
1141.564, 853.044
1142.793, 662.107
1144.022, 511.545
1145.250, 679.651
1146.479, 374.930
1147.707, 442.422
1148.934, 409.931
1150.162, 185.458
1151.390, 244.824
1152.617, 298.955
1153.844, 198.532
1155.071, 244.463
1156.298, 105.719
1157.524, 228.574
1158.751, 237.386
1159.977, 188.056
1161.203, 179.848
1162.428, 255.991
1163.654, 15.732
1164.879, 275.362
1166.105, 145.533
1167.330, 245.333
1168.555, 252.273
1169.779, 133.098
1171.004, 251.036
1172.228, 282.341
1173.452, 194.209
1174.676, 312.137
1175.900, 206.124
1177.123, 315.043
1178.346, 425.360
1179.570, 370.312
1180.793, 483.273
1182.015, 426.761
1183.238, 415.743
1184.460, 568.884
1185.683, 532.271
1186.905, 651.283
1188.126, 775.756
1189.348, 826.208
1190.569, 904.252
1191.791, 1063.447
1193.012, 926.608
1194.233, 1107.741
1195.453, 1020.083
1196.674, 1102.180
1197.894, 1215.858
1199.114, 1191.048
1200.334, 1333.164
1201.554, 1282.096
1202.774, 1156.287
1203.993, 1349.417
1205.212, 1242.078
1206.431, 1272.216
1207.650, 1344.431
1208.869, 1184.429
1210.087, 1295.611
1211.305, 1172.785
1212.524, 990.948
1213.741, 1228.212
1214.959, 964.514
1216.177, 941.896
1217.394, 952.280
1218.611, 828.688
1219.828, 800.978
1221.045, 701.293
1222.261, 542.493
1223.478, 510.521
1224.694, 501.265
1225.910, 375.712
1227.126, 311.917
1228.342, 254.207
1229.557, 408.523
1230.772, 316.007
1231.987, 88.848
1233.202, 312.181
1234.417, 155.520
1235.631, 99.618
1236.846, 207.812
1238.060, 42.133
1239.274, 174.321
1240.488, 43.516
1241.701, 46.848
1242.915, 200.344
1244.128, 47.526
1245.341, 7.711
1246.554, 140.481
1247.767, 73.181
1248.979, 134.044
1250.191, 72.238
1251.403, 51.083
1252.615, 46.423
1253.827, 96.824
1255.039, 39.615
1256.250, 70.817
1257.461, 29.386
1258.672, 77.873
1259.883, 53.043
1261.094, 1.602
1262.304, 87.913
1263.514, 13.051
1264.724, 47.206
1265.934, 201.883
1267.144, 3.974
1268.354, 34.187
1269.563, 85.236
1270.772, 45.491
1271.981, 43.606
1273.190, 45.602
1274.398, 36.407
1275.607, 144.518
1276.815, 90.579
1278.023, 138.818
1279.231, 48.680
1280.439, 100.301
1281.646, 144.029
1282.853, 68.834
1284.060, 3.718
1285.267, 86.589
1286.474, 1.349
1287.681, 19.030
1288.887, 104.740
1290.093, 65.562
1291.299, 3.602
1292.505, 46.053
1293.711, 144.683
1294.916, 307.474
1296.121, 64.947
1297.327, 28.403
1298.531, 172.257
1299.736, 71.230
1300.941, 4.247
1302.145, 16.789
1303.349, 18.761
1304.553, 100.667
1305.757, 36.083
1306.961, 13.461
1308.164, 173.753
1309.367, 42.994
1310.570, 66.780
1311.773, 190.370
1312.976, 29.525
1314.178, 128.550
1315.381, 51.605
1316.583, 1.358
1317.785, 93.646
1318.987, 69.631
1320.188, 63.581
1321.390, 222.504
1322.591, 13.598
1323.792, 148.269
1324.993, 155.098
1326.193, 25.871
1327.394, 138.618
1328.594, 57.341
1329.794, 26.957
1330.994, 202.701
1332.194, 33.335
1333.394, 35.939
1334.593, 231.515
1335.792, 20.944
1336.991, 81.557
1338.190, 16.030
1339.389, 53.470
1340.587, 202.883
1341.786, 34.269
1342.984, 90.623
1344.182, 157.949
1345.379, 12.753
1346.577, 97.506
1347.774, 195.739
1348.972, 39.053
1350.169, 160.110
1351.365, 101.248
1352.562, 29.360
1353.759, 112.483
1354.955, 116.542
1356.151, 120.577
1357.347, 98.668
1358.543, 91.655
1359.738, 75.620
1360.934, 80.854
1362.129, 77.675
1363.324, 106.471
1364.519, 101.347
1365.713, 132.204
1366.908, 183.042
1368.102, 64.489
1369.296, 79.289
1370.490, 192.069
1371.684, 10.166
1372.877, 109.568
1374.071, 12.711
1375.264, 50.014
1376.457, 107.590
1377.650, 9.632
1378.843, 39.918
1380.035, 166.445
1381.227, 8.545
1382.419, 144.273
1383.611, 171.088
1384.803, 12.795
1385.995, 159.803
1387.186, 197.100
1388.377, 61.776
1389.568, 254.428
1390.759, 121.055
1391.950, 147.655
1393.140, 214.232
1394.331, 65.776
1395.521, 124.604
1396.711, 113.083
1397.900, 28.513
1399.090, 313.920
1400.279, 92.763
1401.469, 95.503
1402.658, 271.761
1403.847, 80.377
1405.035, 120.366
1406.224, 211.099
1407.412, 23.187
1408.600, 182.538
1409.788, 193.482
1410.976, 10.630
1412.164, 202.956
1413.351, 93.084
1414.538, 121.913
1415.725, 173.893
1416.912, 173.147
1418.099, 147.327
1419.285, 153.501
1420.472, 52.686
1421.658, 209.972
1422.844, 104.045
1424.030, 51.906
1425.215, 289.065
1426.401, 122.455
1427.586, 115.375
1428.771, 331.725
1429.956, 29.086
1431.141, 125.127
1432.325, 291.980
1433.510, 73.904
1434.694, 220.566
1435.878, 136.712
1437.062, 83.028
1438.245, 368.468
1439.429, 171.522
1440.612, 99.961
1441.795, 358.005
1442.978, 214.726
1444.161, 115.579
1445.343, 247.726
1446.526, 178.376
1447.708, 257.207
1448.890, 254.442
1450.072, 137.516
1451.253, 243.981
1452.435, 176.883
1453.616, 126.214
1454.797, 325.603
1455.978, 147.824
1457.159, 235.728
1458.340, 276.302
1459.520, 233.683
1460.700, 284.559
1461.880, 305.435
1463.060, 97.209
1464.240, 379.550
1465.420, 305.373
1466.599, 159.583
1467.778, 350.727
1468.957, 174.058
1470.136, 207.679
1471.315, 332.584
1472.493, 132.130
1473.671, 307.509
1474.849, 236.743
1476.027, 180.787
1477.205, 325.646
1478.383, 162.879
1479.560, 138.205
1480.737, 308.808
1481.914, 133.993
1483.091, 156.526
1484.268, 296.055
1485.444, 161.651
1486.621, 137.123
1487.797, 273.130
1488.973, 135.227
1490.149, 212.515
1491.324, 131.711
1492.500, 75.850
1493.675, 343.062
1494.850, 40.256
1496.025, 55.711
1497.200, 289.320
1498.374, 28.924
1499.548, 127.583
1500.723, 189.365
1501.897, 24.279
1503.071, 168.314
1504.244, 213.490
1505.418, 58.855
1506.591, 214.395
1507.764, 189.099
1508.937, 11.988
1510.110, 241.749
1511.282, 144.208
1512.455, 73.775
1513.627, 250.329
1514.799, 93.389
1515.971, 158.794
1517.143, 191.979
1518.314, 14.431
1519.486, 170.115
1520.657, 199.882
1521.828, 0.399
1522.999, 0.000
##END=



