##NAMES=Amblygonite
##RRUFFID=R040006
##IDEAL CHEMISTRY=LiAlPO_4_F
##LOCALITY=Pala, San Diego County, California, USA
##OWNER=RRUFF
##SOURCE=University of Arizona Mineral Museum
##DESCRIPTION=Light gray coarsely crystalline massive
##STATUS=The identification of this mineral has been confirmed by X-ray diffraction and chemical analysis
##URL=rruff.info/R040006
##MEASURED CHEMISTRY=LiAl_1.00_(P_1.00_O_4_)(F_0.73_(OH)_0.27_)_Î£=1_; Li assumed by stoichiometry; OH estimated by charge balance
##PIN_ID=l00314
##ORIENTATION=Laser parallel to -c* (0 0 -1). Fiducial mark perpendicular to laser is parallel to -a [-1 0 0]
110.603, 0.000
111.996, 3.004
113.388, 86.232
114.780, 2.753
116.172, 67.658
117.564, 211.298
118.956, 442.622
120.347, 694.262
121.738, 980.933
123.129, 1380.424
124.519, 1827.676
125.910, 2283.728
127.300, 2833.456
128.690, 3227.701
130.080, 3412.862
131.469, 3448.485
132.858, 3155.091
134.248, 2895.418
135.636, 2371.374
137.025, 1946.390
138.413, 1722.370
139.801, 1391.684
141.189, 1287.403
142.577, 1041.719
143.964, 962.547
145.352, 1064.461
146.739, 984.216
148.125, 988.777
149.512, 1059.278
150.898, 1181.835
152.284, 1276.548
153.670, 1445.382
155.056, 1612.295
156.441, 1840.215
157.827, 2116.526
159.212, 2415.004
160.596, 2690.083
161.981, 2902.321
163.365, 2962.919
164.749, 3133.350
166.133, 3154.615
167.517, 3016.304
168.900, 2822.739
170.283, 2590.882
171.666, 2418.821
173.049, 1983.232
174.431, 1921.289
175.813, 1596.334
177.195, 1504.854
178.577, 1358.761
179.959, 1168.218
181.340, 1073.923
182.721, 925.069
184.102, 882.730
185.483, 710.719
186.863, 703.755
188.244, 649.835
189.624, 533.958
191.003, 473.124
192.383, 327.333
193.762, 230.594
195.141, 200.940
196.520, 66.392
197.899, 21.046
199.277, 23.627
200.656, 64.588
202.034, 16.699
203.411, 41.709
204.789, 39.625
206.166, 21.485
207.543, 9.707
208.920, 11.136
210.297, 46.539
211.673, 95.006
213.049, 125.531
214.425, 148.204
215.801, 147.739
217.176, 161.407
218.552, 121.105
219.927, 77.832
221.302, 80.585
222.676, 61.363
224.051, 50.163
225.425, 4.021
226.799, 33.802
228.173, 17.372
229.546, 1.542
230.919, 57.708
232.292, 31.869
233.665, 63.026
235.038, 69.176
236.410, 114.323
237.782, 57.524
239.154, 76.822
240.526, 69.213
241.898, 96.678
243.269, 89.167
244.640, 66.610
246.011, 5.918
247.381, 9.484
248.752, 1.832
250.122, 17.929
251.492, 152.763
252.861, 111.624
254.231, 274.451
255.600, 323.299
256.969, 415.054
258.338, 592.737
259.707, 683.315
261.075, 918.833
262.443, 1033.351
263.811, 1271.880
265.179, 1579.433
266.546, 1800.008
267.914, 2051.606
269.281, 2308.228
270.647, 2375.872
272.014, 2733.542
273.380, 2601.234
274.747, 2508.950
276.113, 2598.042
277.478, 2357.200
278.844, 2206.882
280.209, 2176.772
281.574, 2106.841
282.939, 2177.025
284.304, 2267.291
285.668, 2317.613
287.032, 2577.975
288.396, 2758.357
289.760, 3198.749
291.123, 3769.138
292.487, 4389.519
293.850, 5289.883
295.212, 6300.225
296.575, 7880.543
297.937, 9750.832
299.300, 11801.074
300.662, 13781.266
302.023, 15421.404
303.385, 16191.498
304.746, 15861.551
306.107, 14851.556
307.468, 13331.514
308.829, 11681.409
310.189, 10561.244
311.549, 9491.027
312.909, 8260.758
314.269, 7250.447
315.629, 6270.094
316.988, 5369.703
318.347, 4479.271
319.706, 3898.716
321.065, 3297.971
322.423, 2937.055
323.781, 2776.023
325.139, 2404.951
326.497, 2373.871
327.855, 2142.785
329.212, 1981.693
330.569, 1900.594
331.926, 1689.483
333.283, 1570.338
334.639, 1450.136
335.995, 1369.832
337.351, 1278.403
338.707, 1098.831
340.063, 1079.140
341.418, 1016.312
342.773, 1028.436
344.128, 937.543
345.483, 858.661
346.837, 819.794
348.192, 847.943
349.546, 877.105
350.899, 798.283
352.253, 788.474
353.606, 772.679
354.960, 766.896
356.313, 864.128
357.665, 894.373
359.018, 955.629
360.370, 907.403
361.722, 996.549
363.074, 1068.350
364.426, 985.938
365.777, 1126.617
367.128, 1114.810
368.479, 1143.209
369.830, 1159.822
371.181, 1074.248
372.531, 1068.001
373.881, 1026.875
375.231, 999.773
376.581, 998.203
377.930, 903.986
379.280, 868.972
380.629, 775.246
381.977, 740.953
383.326, 666.312
384.674, 605.954
386.023, 610.680
387.370, 520.733
388.718, 413.152
390.066, 559.088
391.413, 449.036
392.760, 589.431
394.107, 430.232
395.454, 401.987
396.800, 455.956
398.146, 430.549
399.492, 400.019
400.838, 493.612
402.184, 322.405
403.529, 263.086
404.874, 371.735
406.219, 333.006
407.564, 327.941
408.908, 320.256
410.252, 296.881
411.596, 215.692
412.940, 321.049
414.284, 400.842
415.627, 411.645
416.970, 598.467
418.313, 788.328
419.656, 1120.198
420.999, 1529.098
422.341, 2248.008
423.683, 3056.931
425.025, 3735.885
426.367, 4334.846
427.708, 4053.830
429.049, 3442.846
430.390, 2501.873
431.731, 1970.926
433.072, 1459.989
434.412, 1099.092
435.752, 868.204
437.092, 727.329
438.432, 696.452
439.772, 715.578
441.111, 514.701
442.450, 601.821
443.789, 472.938
445.127, 509.049
446.466, 562.159
447.804, 565.266
449.142, 531.364
450.480, 648.466
451.817, 567.561
453.155, 656.645
454.492, 575.730
455.829, 754.805
457.166, 723.868
458.502, 752.942
459.838, 942.004
461.175, 1001.060
462.510, 980.108
463.846, 1169.147
465.181, 1268.182
466.517, 1527.205
467.852, 1566.220
469.186, 1955.224
470.521, 2124.217
471.855, 2453.201
473.190, 2772.176
474.523, 3231.141
475.857, 3580.096
477.191, 4139.041
478.524, 4577.979
479.857, 5006.902
481.190, 5205.819
482.523, 5514.728
483.855, 5483.627
485.187, 5562.520
486.519, 5291.404
487.851, 5420.282
489.183, 5129.152
490.514, 4718.016
491.845, 4706.868
493.176, 4375.714
494.507, 4174.551
495.837, 4023.379
497.168, 3652.201
498.498, 3511.016
499.828, 3249.823
501.157, 2958.624
502.487, 2617.420
503.816, 2396.208
505.145, 2294.991
506.474, 1983.768
507.802, 1882.537
509.131, 1461.301
510.459, 1320.057
511.787, 1218.806
513.115, 987.547
514.442, 886.281
515.770, 725.006
517.097, 783.724
518.424, 682.433
519.750, 501.133
521.077, 319.827
522.403, 198.530
523.729, 467.231
525.055, 295.952
526.381, 254.811
527.706, 333.551
529.031, 262.303
530.356, 201.061
531.681, 149.933
533.006, 99.501
534.330, 11.647
535.654, 87.084
536.978, 6.526
538.302, 25.470
539.625, 44.272
540.949, 34.830
542.272, 22.493
543.595, 93.470
544.917, 63.535
546.240, 101.346
547.562, 35.844
548.884, 116.605
550.206, 7.900
551.527, 32.562
552.849, 47.264
554.170, 57.330
555.491, 138.554
556.812, 0.561
558.132, 59.010
559.453, 58.743
560.773, 100.353
562.093, 19.031
563.412, 111.725
564.732, 90.386
566.051, 53.732
567.370, 92.332
568.689, 65.759
570.008, 215.927
571.326, 165.222
572.644, 235.305
573.963, 255.024
575.280, 196.975
576.598, 333.491
577.915, 352.869
579.233, 286.878
580.550, 426.240
581.866, 366.582
583.183, 480.888
584.499, 449.458
585.815, 541.957
587.131, 706.661
588.447, 656.249
589.763, 809.125
591.078, 869.029
592.393, 1105.167
593.708, 1305.100
595.022, 1644.875
596.337, 2203.074
597.651, 2942.290
598.965, 3770.952
600.279, 4819.271
601.593, 6118.369
602.906, 7197.109
604.219, 7236.205
605.532, 6955.457
606.845, 5843.609
608.158, 4954.016
609.470, 4042.605
610.782, 3520.483
612.094, 2980.382
613.406, 2758.084
614.718, 2436.027
616.029, 2447.866
617.340, 2275.541
618.651, 2283.576
619.962, 2351.943
621.272, 2569.465
622.582, 2618.152
623.892, 2985.612
625.202, 3233.038
626.512, 3680.435
627.821, 4197.797
629.131, 4805.173
630.440, 5652.472
631.749, 6279.737
633.057, 6616.971
634.366, 6934.171
635.674, 7041.340
636.982, 7178.475
638.290, 7585.576
639.597, 8422.645
640.905, 10099.680
642.212, 12406.683
643.519, 15213.653
644.825, 18820.592
646.132, 21057.490
647.438, 21064.359
648.744, 19441.193
650.050, 15747.990
651.356, 12504.757
652.662, 9411.487
653.967, 7418.185
655.272, 5494.849
656.577, 4391.477
657.882, 3518.070
659.186, 2854.630
660.490, 2341.154
661.794, 2207.644
663.098, 1694.099
664.402, 1530.519
665.705, 1266.903
667.009, 1113.252
668.312, 919.566
669.614, 975.845
670.917, 922.087
672.219, 648.294
673.522, 684.465
674.824, 490.602
676.125, 646.701
677.427, 502.765
678.728, 458.794
680.030, 414.785
681.331, 340.740
682.631, 226.659
683.932, 382.541
685.232, 388.386
686.532, 264.193
687.832, 229.965
689.132, 105.696
690.432, 231.385
691.731, 316.377
693.030, 111.941
694.329, 197.121
695.628, 62.637
696.926, 145.986
698.224, 1.799
699.522, 156.433
700.820, 66.410
702.118, 129.935
703.415, 189.275
704.713, 92.945
706.010, 151.203
707.307, 54.372
708.603, 48.837
709.900, 56.504
711.196, 117.842
712.492, 77.506
713.788, 184.795
715.083, 0.697
716.379, 91.770
717.674, 146.259
718.969, 7.151
720.264, 157.250
721.558, 15.391
722.853, 178.623
724.147, 17.245
725.441, 46.673
726.735, 80.890
728.028, 123.846
729.322, 60.185
730.615, 6.055
731.908, 62.464
733.201, 84.992
734.493, 21.256
735.785, 86.252
737.078, 49.902
738.370, 22.636
739.661, 152.694
740.953, 6.122
742.244, 28.124
743.535, 75.133
744.826, 1.869
746.117, 64.995
747.407, 51.933
748.698, 63.691
749.988, 66.721
751.278, 193.647
752.567, 86.490
753.857, 109.260
755.146, 145.575
756.435, 88.261
757.724, 100.898
759.013, 83.491
760.301, 76.035
761.590, 138.531
762.878, 40.987
764.165, 93.384
765.453, 175.736
766.741, 48.361
768.028, 211.190
769.315, 134.514
770.602, 6.699
771.888, 178.813
773.175, 100.907
774.461, 82.944
775.747, 184.939
777.033, 66.898
778.319, 338.813
779.604, 220.693
780.889, 262.540
782.174, 324.354
783.459, 156.134
784.744, 407.880
786.028, 309.594
787.312, 481.274
788.596, 622.922
789.880, 554.539
791.164, 666.125
792.447, 727.677
793.730, 759.200
795.013, 930.690
796.296, 992.151
797.579, 1003.581
798.861, 1254.980
800.143, 1296.350
801.425, 1367.690
802.707, 1559.001
803.989, 1620.282
805.270, 1861.534
806.551, 1732.758
807.832, 1883.953
809.113, 1905.121
810.394, 1756.261
811.674, 1967.373
812.954, 1848.458
814.234, 1899.517
815.514, 1840.549
816.794, 1561.554
818.073, 1812.533
819.352, 1733.487
820.631, 1794.416
821.910, 1445.319
823.189, 1446.197
824.467, 1417.052
825.745, 1147.882
827.023, 1148.688
828.301, 999.470
829.578, 940.229
830.856, 1000.965
832.133, 841.678
833.410, 672.369
834.687, 653.038
835.963, 453.686
837.240, 584.180
838.516, 434.784
839.792, 465.368
841.068, 285.932
842.343, 416.365
843.618, 336.080
844.894, 306.482
846.169, 206.973
847.443, 306.723
848.718, 16.939
849.992, 205.811
851.266, 5.797
852.540, 12.174
853.814, 202.167
855.088, 18.801
856.361, 101.095
857.634, 11.283
858.907, 210.878
860.180, 110.950
861.453, 154.369
862.725, 93.271
863.997, 53.413
865.269, 63.509
866.541, 57.087
867.812, 173.842
869.084, 27.519
870.355, 61.927
871.626, 48.213
872.897, 127.619
874.167, 62.512
875.438, 92.662
876.708, 12.578
877.978, 87.646
879.248, 45.954
880.517, 24.880
881.787, 143.467
883.056, 47.847
884.325, 161.423
885.594, 89.622
886.862, 149.280
888.130, 96.474
889.399, 2.378
890.667, 99.771
891.934, 55.925
893.202, 43.628
894.469, 70.770
895.737, 52.596
897.004, 98.943
898.270, 66.192
899.537, 34.279
900.803, 83.888
902.070, 5.881
903.336, 117.739
904.601, 1.942
905.867, 150.586
907.132, 110.234
908.398, 119.253
909.663, 37.942
910.928, 86.973
912.192, 105.625
913.457, 84.107
914.721, 163.670
915.985, 140.962
917.249, 60.052
918.512, 20.160
919.776, 32.414
921.039, 52.399
922.302, 37.171
923.565, 22.921
924.827, 2.821
926.090, 152.343
927.352, 71.521
928.614, 81.526
929.876, 30.352
931.138, 160.393
932.399, 50.451
933.660, 150.528
934.922, 170.624
936.182, 40.693
937.443, 20.828
938.704, 180.984
939.964, 81.159
941.224, 201.354
942.484, 111.571
943.744, 181.811
945.003, 102.070
946.262, 112.353
947.521, 362.658
948.780, 222.985
950.039, 183.338
951.298, 313.731
952.556, 194.151
953.814, 284.594
955.072, 345.062
956.330, 405.556
957.587, 446.074
958.845, 366.619
960.102, 377.189
961.359, 617.790
962.615, 528.418
963.872, 769.071
965.128, 519.753
966.384, 770.462
967.640, 841.197
968.896, 761.963
970.152, 1042.756
971.407, 813.578
972.662, 1184.429
973.917, 1205.310
975.172, 1276.221
976.427, 1417.160
977.681, 1548.131
978.935, 1729.133
980.189, 2000.165
981.443, 1991.229
982.697, 2142.325
983.950, 2443.453
985.203, 2364.612
986.456, 3005.807
987.709, 2997.041
988.962, 3588.314
990.214, 4029.622
991.467, 4211.012
992.719, 5212.433
993.971, 6003.891
995.222, 6695.400
996.474, 8066.946
997.725, 8708.546
998.976, 10360.240
1000.227, 11411.668
1001.478, 13033.439
1002.728, 15214.613
1003.978, 16736.156
1005.229, 18828.150
1006.479, 20508.439
1007.728, 22130.514
1008.978, 24042.412
1010.227, 24404.641
1011.476, 24606.906
1012.725, 24599.236
1013.974, 22741.633
1015.223, 21941.084
1016.471, 19850.109
1017.719, 17749.543
1018.967, 16012.176
1020.215, 14033.340
1021.462, 12776.133
1022.710, 11016.504
1023.957, 9659.434
1025.204, 8969.350
1026.451, 8142.428
1027.697, 7565.545
1028.944, 7378.752
1030.190, 6732.004
1031.436, 6784.213
1032.682, 6957.645
1033.928, 6769.234
1035.173, 7385.211
1036.418, 7365.219
1037.663, 7808.926
1038.908, 8058.900
1040.153, 8532.730
1041.398, 9012.740
1042.642, 9454.920
1043.886, 9599.002
1045.130, 10330.797
1046.374, 10365.066
1047.617, 10895.855
1048.860, 11470.242
1050.104, 11644.678
1051.347, 12376.539
1052.589, 12840.996
1053.832, 13821.557
1055.074, 14876.207
1056.316, 16020.936
1057.558, 18142.113
1058.800, 20436.938
1060.042, 21751.807
1061.283, 25226.721
1062.524, 26541.697
1063.765, 27586.727
1065.006, 27031.797
1066.247, 24206.916
1067.487, 22112.090
1068.728, 18006.992
1069.968, 14761.730
1071.208, 12585.984
1072.447, 9991.383
1073.687, 8296.846
1074.926, 6952.334
1076.165, 5637.889
1077.404, 5093.492
1078.643, 4089.137
1079.881, 3674.830
1081.120, 3400.574
1082.358, 2816.367
1083.596, 2642.230
1084.834, 2468.137
1086.071, 2184.113
1087.309, 2080.131
1088.546, 2096.189
1089.783, 2062.293
1091.020, 2013.527
1092.256, 1969.027
1093.493, 1920.867
1094.729, 1877.152
1095.965, 1783.480
1097.201, 1829.850
1098.436, 1746.260
1099.672, 2037.012
1100.907, 2223.510
1102.142, 2150.049
1103.377, 2426.635
1104.612, 2483.260
1105.846, 2829.924
1107.081, 3136.646
1108.315, 3323.393
1109.549, 3490.793
1110.782, 3747.617
1112.016, 4014.484
1113.249, 4301.391
1114.483, 4482.807
1115.716, 4706.975
1116.948, 4862.355
1118.181, 5059.424
1119.413, 5286.531
1120.646, 5433.680
1121.878, 5320.863
1123.110, 5648.125
1124.341, 5445.410
1125.573, 5432.713
1126.804, 5490.062
1128.035, 4717.449
1129.266, 5165.016
1130.497, 4622.477
1131.727, 4729.965
1132.957, 4487.549
1134.188, 4175.277
1135.418, 4084.400
1136.647, 3913.152
1137.877, 3400.812
1139.106, 3489.463
1140.335, 3077.477
1141.564, 2745.297
1142.793, 2445.906
1144.022, 2003.965
1145.250, 2056.332
1146.479, 1516.496
1147.707, 1594.398
1148.934, 1412.762
1150.162, 1096.189
1151.390, 1076.760
1152.617, 1117.025
1153.844, 955.074
1155.071, 943.508
1156.298, 827.744
1157.524, 806.797
1158.751, 1005.303
1159.977, 743.482
1161.203, 555.076
1162.428, 1050.734
1163.654, 619.451
1164.879, 877.748
1166.105, 723.152
1167.330, 711.547
1168.555, 791.461
1169.779, 717.807
1171.004, 796.271
1172.228, 875.145
1173.452, 839.645
1174.676, 992.873
1175.900, 897.086
1177.123, 745.643
1178.346, 874.725
1179.570, 832.449
1180.793, 931.053
1182.015, 1042.564
1183.238, 809.477
1184.460, 1038.176
1185.683, 966.428
1186.905, 1075.205
1188.126, 1114.023
1189.348, 1325.887
1190.569, 1204.670
1191.791, 1555.385
1193.012, 1145.223
1194.233, 1494.037
1195.453, 1723.494
1196.674, 1302.332
1197.894, 1572.145
1199.114, 1502.613
1200.334, 1801.982
1201.554, 1831.111
1202.774, 1450.525
1203.993, 1619.410
1205.212, 1468.918
1206.431, 1278.406
1207.650, 1587.309
1208.869, 1398.229
1210.087, 1147.141
1211.305, 1436.047
1212.524, 1095.189
1213.741, 1194.092
1214.959, 1222.994
1216.177, 810.777
1217.394, 1089.678
1218.611, 859.867
1219.828, 779.033
1221.045, 768.355
1222.261, 558.064
1223.478, 636.949
1224.694, 665.830
1225.910, 475.266
1227.126, 455.285
1228.342, 388.928
1229.557, 521.514
1230.772, 390.436
1231.987, 115.328
1233.202, 354.162
1234.417, 433.307
1235.631, 22.613
1236.846, 381.621
1238.060, 50.793
1239.274, 282.086
1240.488, 241.629
1241.701, 100.883
1242.915, 179.977
1244.128, 169.014
1245.341, 101.596
1246.554, 107.598
1247.767, 6.824
1248.979, 6.094
1250.191, 125.111
1251.403, 34.420
1252.615, 3.480
1253.827, 252.389
1255.039, 18.699
1256.250, 180.213
1257.461, 149.113
1258.672, 138.297
1259.883, 197.137
1261.094, 156.740
1262.304, 226.299
1263.514, 285.205
1264.724, 218.637
1265.934, 233.135
1267.144, 141.732
1268.354, 42.135
1269.563, 51.031
1270.772, 59.447
1271.981, 139.865
1273.190, 228.164
1274.398, 36.793
1275.607, 195.137
1276.815, 133.277
1278.023, 71.506
1279.231, 49.787
1280.439, 12.225
1281.646, 4.016
1282.853, 223.896
1284.060, 158.383
1285.267, 39.746
1286.474, 97.295
1287.681, 25.057
1288.887, 62.961
1290.093, 49.596
1291.299, 172.197
1292.505, 135.117
1293.711, 32.395
1294.916, 59.908
1296.121, 12.707
1297.327, 165.609
1298.531, 151.885
1299.736, 68.861
1300.941, 224.197
1302.145, 22.748
1303.349, 79.527
1304.553, 246.219
1305.757, 17.172
1306.961, 80.615
1308.164, 65.869
1309.367, 212.287
1310.570, 231.336
1311.773, 315.061
1312.976, 21.275
1314.178, 82.566
1315.381, 413.508
1316.583, 120.461
1317.785, 55.477
1318.987, 321.359
1320.188, 42.826
1321.390, 222.916
1322.591, 88.600
1323.792, 95.791
1324.993, 329.705
1326.193, 5.148
1327.394, 79.473
1328.594, 395.818
1329.794, 98.941
1330.994, 216.209
1332.194, 211.311
1333.394, 153.645
1334.593, 281.299
1335.792, 133.803
1336.991, 60.988
1338.190, 245.723
1339.389, 100.408
1340.587, 315.043
1341.786, 69.631
1342.984, 44.168
1344.182, 128.656
1345.379, 193.113
1346.577, 127.502
1347.774, 291.844
1348.972, 116.145
1350.169, 120.398
1351.365, 364.609
1352.562, 38.785
1353.759, 262.912
1354.955, 278.416
1356.151, 212.475
1357.347, 286.502
1358.543, 280.762
1359.738, 75.271
1360.934, 538.633
1362.129, 72.633
1363.324, 216.490
1364.519, 180.330
1365.713, 114.158
1366.908, 327.893
1368.102, 312.070
1369.296, 155.766
1370.490, 89.439
1371.684, 53.656
1372.877, 32.742
1374.071, 280.836
1375.264, 23.156
1376.457, 347.537
1377.650, 235.379
1378.843, 203.182
1380.035, 280.941
1381.227, 248.652
1382.419, 56.326
1383.611, 167.475
1384.803, 237.910
1385.995, 282.201
1387.186, 301.709
1388.377, 221.820
1389.568, 270.016
1390.759, 267.098
1391.950, 262.014
1393.140, 327.984
1394.331, 262.854
1395.521, 327.576
1396.711, 389.320
1397.900, 386.186
1399.090, 403.121
1400.279, 498.049
1401.469, 313.596
1402.658, 476.670
1403.847, 199.777
1405.035, 200.436
1406.224, 321.412
1407.412, 430.199
1408.600, 197.256
1409.788, 482.754
1410.976, 66.160
1412.164, 241.324
1413.351, 422.293
1414.538, 57.053
1415.725, 518.807
1416.912, 210.695
1418.099, 250.836
1419.285, 444.475
1420.472, 260.828
1421.658, 221.111
1422.844, 451.027
1424.030, 202.744
1425.215, 242.045
1426.401, 595.404
1427.586, 100.133
1428.771, 481.551
1429.956, 203.523
1431.141, 102.225
1432.325, 463.760
1433.510, 525.578
1434.694, 386.184
1435.878, 575.258
1437.062, 127.650
1438.245, 339.564
1439.429, 505.861
1440.612, 105.461
1441.795, 556.006
1442.978, 406.197
1444.161, 196.744
1445.343, 392.217
1446.526, 310.461
1447.708, 379.316
1448.890, 498.367
1450.072, 317.727
1451.253, 441.227
1452.435, 529.611
1453.616, 157.529
1454.797, 425.057
1455.978, 622.527
1457.159, 269.441
1458.340, 377.260
1459.520, 384.707
1460.700, 371.244
1461.880, 644.467
1463.060, 361.115
1464.240, 466.660
1465.420, 647.744
1466.599, 459.350
1467.778, 485.551
1468.957, 452.471
1470.136, 428.783
1471.315, 635.434
1472.493, 813.168
1473.671, 650.312
1474.849, 806.018
1476.027, 404.092
1477.205, 402.002
1478.383, 378.086
1479.560, 314.178
1480.737, 281.826
1481.914, 528.943
1483.091, 186.963
1484.268, 575.070
1485.444, 463.307
1486.621, 130.928
1487.797, 579.189
1488.973, 397.492
1490.149, 325.982
1491.324, 504.717
1492.500, 324.037
1493.675, 473.730
1494.850, 443.717
1496.025, 36.037
1497.200, 674.570
1498.374, 355.508
1499.548, 86.973
1500.723, 638.930
1501.897, 261.389
1503.071, 134.309
1504.244, 528.133
1505.418, 262.799
1506.591, 368.373
1507.764, 495.180
1508.937, 76.230
1510.110, 401.580
1511.282, 494.742
1512.455, 89.820
1513.627, 473.754
1514.799, 261.016
