##NAMES=Amblygonite
##RRUFFID=R040006
##IDEAL CHEMISTRY=LiAlPO_4_F
##LOCALITY=Pala, San Diego County, California, USA
##OWNER=RRUFF
##SOURCE=University of Arizona Mineral Museum
##DESCRIPTION=Light gray coarsely crystalline massive
##STATUS=The identification of this mineral has been confirmed by X-ray diffraction and chemical analysis
##URL=rruff.info/R040006
##MEASURED CHEMISTRY=LiAl_1.00_(P_1.00_O_4_)(F_0.73_(OH)_0.27_)_Î£=1_; Li assumed by stoichiometry; OH estimated by charge balance
##PIN_ID=l00058
##ORIENTATION=Laser parallel to (0 1 1). Fiducial mark perpendicular to laser is parallel to a [1 0 0]
116.172, 0.000
117.564, 6.797
118.956, 118.681
120.347, 70.689
121.738, 210.875
123.129, 296.913
124.519, 392.738
125.910, 433.418
127.300, 570.356
128.690, 604.339
130.080, 689.624
131.469, 765.241
132.858, 598.795
134.248, 776.604
135.636, 756.079
137.025, 734.817
138.413, 801.537
139.801, 852.029
141.189, 921.175
142.577, 1063.990
143.964, 1271.463
145.352, 1471.809
146.739, 1539.515
148.125, 1816.793
149.512, 2210.257
150.898, 2510.185
152.284, 2995.661
153.670, 3560.756
155.056, 4015.530
156.441, 4750.032
157.827, 5364.308
159.212, 6108.383
160.596, 6762.286
161.981, 7276.040
163.365, 7449.675
164.749, 7493.209
166.133, 7197.018
167.517, 6630.396
168.900, 6208.040
170.283, 5451.836
171.666, 5065.072
173.049, 4213.818
174.431, 3685.876
175.813, 3162.946
177.195, 2739.864
178.577, 2453.945
179.959, 2135.699
181.340, 1833.326
182.721, 1713.291
184.102, 1546.405
185.483, 1327.666
186.863, 1191.063
188.244, 1006.593
189.624, 869.253
191.003, 769.039
192.383, 675.945
193.762, 615.969
195.141, 593.108
196.520, 379.358
197.899, 465.716
199.277, 304.154
200.656, 250.608
202.034, 208.115
203.411, 202.693
204.789, 138.354
206.166, 127.048
207.543, 116.938
208.920, 80.867
210.297, 51.886
211.673, 21.296
213.049, 149.192
214.425, 5.476
215.801, 49.841
217.176, 81.284
218.552, 20.804
219.927, 49.398
221.302, 28.937
222.676, 27.203
224.051, 113.401
225.425, 122.534
226.799, 155.608
228.173, 76.632
229.546, 120.608
230.919, 87.543
232.292, 73.437
233.665, 68.292
235.038, 64.105
236.410, 27.942
237.782, 105.617
239.154, 13.685
240.526, 34.974
241.898, 89.595
243.269, 94.177
244.640, 122.279
246.011, 53.228
247.381, 139.305
248.752, 72.906
250.122, 163.621
251.492, 288.435
252.861, 470.279
254.231, 519.104
255.600, 615.911
256.969, 807.729
258.338, 966.609
259.707, 1248.559
261.075, 1542.578
262.443, 1806.623
263.811, 2190.700
265.179, 2474.807
266.546, 2898.956
267.914, 3043.153
269.281, 3297.379
270.647, 3451.635
272.014, 3485.916
273.380, 3320.227
274.747, 3174.565
276.113, 3108.930
277.478, 2763.320
278.844, 2597.735
280.209, 2432.177
281.574, 2274.500
282.939, 2326.396
284.304, 2399.356
285.668, 2362.703
287.032, 2636.351
288.396, 2740.242
289.760, 3284.334
291.123, 3708.594
292.487, 4672.992
293.850, 5587.514
295.212, 7042.141
296.575, 8966.858
297.937, 11041.649
299.300, 13236.505
300.662, 15081.418
302.023, 16166.380
303.385, 15741.388
304.746, 14716.437
306.107, 13001.522
307.468, 11056.646
308.829, 9331.785
310.189, 8016.938
311.549, 7062.096
312.909, 6047.250
314.269, 5202.403
315.629, 4437.557
316.988, 3722.717
318.347, 3007.879
319.706, 2583.047
321.065, 2078.224
322.423, 1773.407
323.781, 1548.601
325.139, 1323.803
326.497, 1229.016
327.855, 1094.238
329.212, 1079.474
330.569, 1014.715
331.926, 899.968
333.283, 785.213
334.639, 680.375
335.995, 695.372
337.351, 670.267
338.707, 485.089
340.063, 589.856
341.418, 424.574
342.773, 489.297
344.128, 373.949
345.483, 358.600
346.837, 323.277
348.192, 407.980
349.546, 332.710
350.899, 307.463
352.253, 432.239
353.606, 327.039
354.960, 331.863
356.313, 346.707
357.665, 381.573
359.018, 336.460
360.370, 311.366
361.722, 316.292
363.074, 321.237
364.426, 326.201
365.777, 301.185
367.128, 316.186
368.479, 334.626
369.830, 406.245
371.181, 371.302
372.531, 416.376
373.881, 391.469
375.231, 388.258
376.581, 261.815
377.930, 354.713
379.280, 275.402
380.629, 216.612
381.977, 243.135
383.326, 193.755
384.674, 238.926
386.023, 175.718
387.370, 167.312
388.718, 181.812
390.066, 175.682
391.413, 237.435
392.760, 208.062
394.107, 252.000
395.454, 240.079
396.800, 318.135
398.146, 211.414
399.492, 350.096
400.838, 299.046
402.184, 194.520
403.529, 244.449
404.874, 376.740
406.219, 373.274
407.564, 519.433
408.908, 462.949
410.252, 569.377
411.596, 604.916
412.940, 881.154
414.284, 937.766
415.627, 1214.565
416.970, 1600.199
418.313, 2085.730
419.656, 3031.267
420.999, 4076.996
422.341, 5562.578
423.683, 7038.166
425.025, 7573.781
426.367, 7379.538
427.708, 6255.168
429.049, 4910.802
430.390, 3606.441
431.731, 2692.082
433.072, 2117.725
434.412, 1553.368
435.752, 1349.013
437.092, 1204.675
438.432, 1230.336
439.772, 1056.014
441.111, 921.697
442.450, 1117.383
443.789, 953.092
445.127, 958.816
446.466, 984.560
447.804, 970.316
449.142, 976.085
450.480, 1003.806
451.817, 1030.528
453.155, 1083.402
454.492, 1129.211
455.829, 1225.018
457.166, 1300.828
458.502, 1436.641
459.838, 1542.450
461.175, 1638.255
462.510, 1824.059
463.846, 1998.575
465.181, 2105.648
466.517, 2471.436
467.852, 2747.216
469.186, 3082.992
470.521, 3528.762
471.855, 4054.523
473.190, 4710.279
474.523, 5406.029
475.857, 5941.771
477.191, 6777.505
478.524, 7343.232
479.857, 7958.951
481.190, 8234.664
482.523, 8450.370
483.855, 8366.066
485.187, 8071.753
486.519, 7687.433
487.851, 7463.184
489.183, 7238.765
490.514, 6764.418
491.845, 6640.062
493.176, 6175.696
494.507, 5791.322
495.837, 5516.938
497.168, 4912.544
498.498, 4628.145
499.828, 4303.734
501.157, 3869.320
502.487, 3384.895
503.816, 3230.462
505.145, 2816.021
506.474, 2461.573
507.802, 2287.116
509.131, 2002.651
510.459, 1778.177
511.787, 1563.693
513.115, 1331.500
514.442, 1104.698
515.770, 950.186
517.097, 805.663
518.424, 701.132
519.750, 726.589
521.077, 462.035
522.403, 367.471
523.729, 462.895
525.055, 258.307
526.381, 223.707
527.706, 369.530
529.031, 204.907
530.356, 140.477
531.681, 96.065
533.006, 171.844
534.330, 38.237
535.654, 113.717
536.978, 30.827
538.302, 14.667
539.625, 79.773
540.949, 4.454
542.272, 69.126
543.595, 3.897
544.917, 27.583
546.240, 11.087
547.562, 64.041
548.884, 25.733
550.206, 36.740
551.527, 1.967
552.849, 22.456
554.170, 76.188
555.491, 70.890
556.812, 14.841
558.132, 49.730
559.453, 111.635
560.773, 83.640
562.093, 71.296
563.412, 13.997
564.732, 61.095
566.051, 30.147
567.370, 54.817
568.689, 22.088
570.008, 107.369
571.326, 32.789
572.644, 18.654
573.963, 13.200
575.280, 98.199
576.598, 185.447
577.915, 150.171
579.233, 103.413
580.550, 257.911
581.866, 163.425
583.183, 233.917
584.499, 119.100
585.815, 174.719
587.131, 199.324
588.447, 254.570
589.763, 189.204
591.078, 303.807
592.393, 258.212
593.708, 362.545
595.022, 620.505
596.337, 734.736
597.651, 922.570
598.965, 1258.284
600.279, 1482.915
601.593, 1869.921
602.906, 2055.154
604.219, 1901.507
605.532, 1627.809
606.845, 1493.614
608.158, 1307.884
609.470, 1137.385
610.782, 956.414
612.094, 878.619
613.406, 752.560
614.718, 677.694
616.029, 692.784
617.340, 636.602
618.651, 630.660
619.962, 804.601
621.272, 878.334
622.582, 892.080
623.892, 985.756
625.202, 1039.519
626.512, 1143.135
627.821, 1316.724
629.131, 1420.281
630.440, 1723.811
631.749, 1957.312
633.057, 2200.783
634.366, 2524.225
635.674, 2747.636
636.982, 3521.018
638.290, 4154.367
639.597, 5367.691
640.905, 7070.983
642.212, 9374.244
643.519, 11387.479
644.825, 13380.678
646.132, 13763.851
647.438, 12806.991
648.744, 10750.103
650.050, 8563.182
651.356, 6456.232
652.662, 4709.251
653.967, 3872.237
655.272, 2895.195
656.577, 2508.120
657.882, 2011.016
659.186, 1553.880
660.490, 1376.713
661.794, 1129.515
663.098, 862.286
664.402, 1025.026
665.705, 737.734
667.009, 720.411
668.312, 623.059
669.614, 595.672
670.917, 558.257
672.219, 450.808
673.522, 453.327
674.824, 335.816
676.125, 448.273
677.427, 350.699
678.728, 293.092
680.030, 345.453
681.331, 267.784
682.631, 240.083
683.932, 132.350
685.232, 244.580
686.532, 176.779
687.832, 168.945
689.132, 131.078
690.432, 83.174
691.731, 185.122
693.030, 187.144
694.329, 166.219
695.628, 150.200
696.926, 186.083
698.224, 177.104
699.522, 186.247
700.820, 66.721
702.118, 55.636
703.415, 35.514
704.713, 157.663
706.010, 216.478
707.307, 84.544
708.603, 94.977
709.900, 53.816
711.196, 115.336
712.492, 71.003
713.788, 89.336
715.083, 1.268
716.379, 84.121
717.674, 105.349
718.969, 70.621
720.264, 118.258
721.558, 57.603
722.853, 162.814
724.147, 7.247
725.441, 67.335
726.735, 58.283
728.028, 44.970
729.322, 224.787
730.615, 90.416
731.908, 13.331
733.201, 136.491
734.493, 82.734
735.785, 177.783
737.078, 58.529
738.370, 40.869
739.661, 70.024
740.953, 50.374
742.244, 120.816
743.535, 61.227
744.826, 102.642
746.117, 102.983
747.407, 143.323
748.698, 153.604
749.988, 6.146
751.278, 164.045
752.567, 5.794
753.857, 34.307
755.146, 77.091
756.435, 7.116
757.724, 49.631
759.013, 20.299
760.301, 21.046
761.590, 30.882
762.878, 100.674
764.165, 140.437
765.453, 70.170
766.741, 80.098
768.028, 151.888
769.315, 41.463
770.602, 41.003
771.888, 270.501
773.175, 89.973
774.461, 109.469
775.747, 178.885
777.033, 138.274
778.319, 197.637
779.604, 116.976
780.889, 176.287
782.174, 175.572
783.459, 244.834
784.744, 474.255
786.028, 303.467
787.312, 402.653
788.596, 341.816
789.880, 570.954
791.164, 510.068
792.447, 639.159
793.730, 728.368
795.013, 817.411
796.296, 766.433
797.579, 855.430
798.861, 899.784
800.143, 1103.356
801.425, 1032.286
802.707, 1241.194
803.989, 1340.080
805.270, 1378.944
806.551, 1257.787
807.832, 1256.609
809.113, 1345.409
810.394, 1334.188
811.674, 1412.947
812.954, 1321.685
814.234, 1330.402
815.514, 1419.101
816.794, 1207.778
818.073, 1386.438
819.352, 1385.077
820.631, 1323.696
821.910, 962.298
823.189, 1070.881
824.467, 899.445
825.745, 767.991
827.023, 696.518
828.301, 735.027
829.578, 653.521
830.856, 651.997
832.133, 490.455
833.410, 558.896
834.687, 337.322
835.963, 375.731
837.240, 404.125
838.516, 272.068
839.792, 230.432
841.068, 188.574
842.343, 276.670
843.618, 74.550
844.894, 311.787
846.169, 189.910
847.443, 128.030
848.718, 33.926
849.992, 204.010
851.266, 2.133
852.540, 39.789
853.814, 158.325
855.088, 95.326
856.361, 102.111
857.634, 91.662
858.907, 26.314
860.180, 64.512
861.453, 131.967
862.725, 79.578
863.997, 103.523
865.269, 74.283
866.541, 221.621
867.812, 50.754
869.084, 44.150
870.355, 171.836
871.626, 39.709
872.897, 87.311
874.167, 104.713
875.438, 296.873
876.708, 74.994
877.978, 250.508
879.248, 117.969
880.517, 124.730
881.787, 202.068
883.056, 119.842
884.325, 52.260
885.594, 56.965
886.862, 100.824
888.130, 30.072
889.399, 1.961
890.667, 44.969
891.934, 13.105
893.202, 24.111
894.469, 150.865
895.737, 28.613
897.004, 34.303
898.270, 93.365
899.537, 1.045
900.803, 38.898
902.070, 66.807
903.336, 51.064
904.601, 29.031
905.867, 51.926
907.132, 80.182
908.398, 97.309
909.663, 77.592
910.928, 30.756
912.192, 35.059
913.457, 140.660
914.721, 176.859
915.985, 54.570
917.249, 262.465
918.512, 0.051
919.776, 80.334
921.039, 107.621
922.302, 4.359
923.565, 181.123
924.827, 19.141
926.090, 3.100
927.352, 94.758
928.614, 32.803
929.876, 150.816
931.138, 258.881
932.399, 66.842
933.660, 34.930
934.922, 53.031
936.182, 13.730
937.443, 149.260
938.704, 57.393
939.964, 95.535
941.224, 283.693
942.484, 241.863
943.744, 160.047
945.003, 11.756
946.262, 106.453
947.521, 194.676
948.780, 182.912
950.039, 221.162
951.298, 319.426
952.556, 107.705
953.814, 266.000
955.072, 194.311
956.330, 342.633
957.587, 330.975
958.845, 469.330
960.102, 327.703
961.359, 256.092
962.615, 354.498
963.872, 522.920
965.128, 251.357
966.384, 559.812
967.640, 318.289
968.896, 496.781
970.152, 705.289
971.407, 413.816
972.662, 782.361
973.917, 610.926
975.172, 779.508
976.427, 708.109
977.681, 696.730
978.935, 905.369
980.189, 1164.029
981.443, 1092.709
982.697, 1201.408
983.950, 1560.160
985.203, 1358.930
986.456, 1867.730
987.709, 1836.611
988.962, 2275.514
990.214, 2564.439
991.467, 2873.408
992.719, 3322.398
993.971, 3841.414
995.222, 4470.453
996.474, 5299.523
997.725, 5798.648
998.976, 6867.799
1000.227, 7474.469
1001.478, 8543.664
1002.728, 9972.418
1003.978, 11078.957
1005.229, 12598.256
1006.479, 13407.594
1007.728, 14347.027
1008.978, 15080.812
1010.227, 15350.332
1011.476, 15559.889
1012.725, 14809.473
1013.974, 13709.135
1015.223, 13302.711
1016.471, 11682.441
1017.719, 10702.250
1018.967, 9449.393
1020.215, 8509.324
1021.462, 7849.334
1022.710, 6779.369
1023.957, 6199.426
1025.204, 5913.859
1026.451, 5414.027
1027.697, 5380.561
1028.944, 4820.803
1030.190, 4941.070
1031.436, 4984.904
1032.682, 5085.234
1033.928, 5489.561
1035.173, 5707.809
1036.418, 5865.916
1037.663, 6636.402
1038.908, 6416.984
1040.153, 7167.482
1041.398, 7468.119
1042.642, 8158.436
1043.886, 8359.152
1045.130, 8939.949
1046.374, 9220.766
1047.617, 9990.578
1048.860, 10481.457
1050.104, 11122.332
1051.347, 12023.320
1052.589, 12884.328
1053.832, 14385.375
1055.074, 15746.453
1056.316, 17537.570
1057.558, 20185.988
1058.800, 22957.162
1060.042, 25025.830
1061.283, 28156.332
1062.524, 29156.742
1063.765, 29498.047
1065.006, 27509.385
1066.247, 24340.752
1067.487, 21172.145
1068.728, 16723.529
1069.968, 13942.619
1071.208, 11214.115
1072.447, 9255.641
1073.687, 7597.197
1074.926, 6198.779
1076.165, 5180.332
1077.404, 4541.965
1078.643, 3463.615
1079.881, 3275.287
1081.120, 2836.986
1082.358, 2358.738
1083.596, 2300.514
1084.834, 1902.314
1086.071, 1713.959
1087.309, 1515.812
1088.546, 1334.201
1089.783, 1233.092
1091.020, 1151.637
1092.256, 1083.627
1093.493, 1095.635
1094.729, 1077.520
1095.965, 969.570
1097.201, 891.639
1098.436, 853.740
1099.672, 1075.855
1100.907, 747.986
1102.142, 820.143
1103.377, 912.316
1104.612, 664.510
1105.846, 916.791
1107.081, 1119.180
1108.315, 1101.506
1109.549, 1133.816
1110.782, 956.107
1112.016, 1008.420
1113.249, 1110.750
1114.483, 1173.609
1115.716, 1056.195
1116.948, 1238.590
1118.181, 1131.000
1119.413, 1333.428
1120.646, 1275.873
1121.878, 1438.334
1123.110, 1261.385
1124.341, 1294.248
1125.573, 1207.006
1126.804, 1049.537
1128.035, 712.336
1129.266, 1195.025
1130.497, 847.602
1131.727, 1037.609
1132.957, 740.213
1134.188, 635.176
1135.418, 812.064
1136.647, 764.703
1137.877, 367.936
1139.106, 765.416
1140.335, 428.387
1141.564, 702.025
1142.793, 445.238
1144.022, 88.750
1145.250, 629.449
1146.479, 133.080
1147.707, 406.227
1148.934, 209.188
1150.162, 72.455
1151.390, 226.318
1152.617, 205.342
1153.844, 181.090
1155.071, 299.615
1156.298, 42.963
1157.524, 322.201
1158.751, 308.982
1159.977, 51.799
1161.203, 177.488
1162.428, 313.203
1163.654, 146.844
1164.879, 322.145
1166.105, 109.406
1167.330, 412.262
1168.555, 456.564
1169.779, 270.469
1171.004, 363.783
1172.228, 584.580
1173.452, 247.514
1174.676, 610.494
1175.900, 536.613
1177.123, 529.787
1178.346, 663.504
1179.570, 806.928
1180.793, 780.521
1182.015, 712.898
1183.238, 976.738
1184.460, 1040.266
1185.683, 1061.152
1186.905, 1194.141
1188.126, 1357.883
1189.348, 1491.504
1190.569, 1684.711
1191.791, 1698.791
1193.012, 1591.617
1194.233, 1915.426
1195.453, 1769.084
1196.674, 1742.133
1197.894, 1958.219
1199.114, 2011.518
1200.334, 2014.268
1201.554, 1747.906
1202.774, 1790.699
1203.993, 2283.404
1205.212, 1907.262
1206.431, 1719.947
1207.650, 2003.178
1208.869, 1655.865
1210.087, 1618.555
1211.305, 1672.326
1212.524, 1515.051
1213.741, 1490.742
1214.959, 1470.914
1216.177, 1353.479
1217.394, 1306.037
1218.611, 1299.814
1219.828, 1082.451
1221.045, 1056.586
1222.261, 928.768
1223.478, 861.270
1224.694, 713.895
1225.910, 596.320
1227.126, 539.678
1228.342, 559.629
1229.557, 622.789
1230.772, 405.652
1231.987, 150.098
1233.202, 653.154
1234.417, 345.812
1235.631, 158.887
1236.846, 511.795
1238.060, 214.625
1239.274, 617.037
1240.488, 339.291
1241.701, 152.008
1242.915, 274.248
1244.128, 136.676
1245.341, 169.824
1246.554, 392.041
1247.767, 214.896
1248.979, 207.094
1250.191, 229.326
1251.403, 141.506
1252.615, 123.674
1253.827, 146.740
1255.039, 158.883
1256.250, 291.014
1257.461, 173.432
1258.672, 455.688
1259.883, 58.082
1261.094, 131.520
1262.304, 333.750
1263.514, 225.594
1264.724, 264.615
1265.934, 349.564
1267.144, 201.312
1268.354, 64.494
1269.563, 116.061
1270.772, 148.027
1271.981, 399.955
1273.190, 151.270
1274.398, 183.482
1275.607, 404.596
1276.815, 84.369
1278.023, 297.004
1279.231, 2.064
1280.439, 191.176
1281.646, 410.033
1282.853, 90.732
1284.060, 38.650
1285.267, 161.910
1286.474, 32.361
1287.681, 112.773
1288.887, 53.609
1290.093, 86.148
1291.299, 44.023
1292.505, 144.160
1293.711, 194.254
1294.916, 124.562
1296.121, 34.574
1297.327, 55.152
1298.531, 2.385
1299.736, 205.395
1300.941, 124.344
1302.145, 55.959
1303.349, 16.322
1304.553, 343.188
1305.757, 157.354
1306.961, 1.990
1308.164, 81.182
1309.367, 149.680
1310.570, 180.643
1311.773, 338.285
1312.976, 132.844
1314.178, 56.096
1315.381, 164.809
1316.583, 76.527
1317.785, 262.043
1318.987, 250.551
1320.188, 0.998
1321.390, 207.365
1322.591, 85.676
1323.792, 153.920
1324.993, 112.090
1326.193, 99.809
1327.394, 78.191
1328.594, 136.137
1329.794, 75.973
1330.994, 261.824
1332.194, 89.574
1333.394, 107.270
1334.593, 204.908
1335.792, 127.504
1336.991, 359.990
1338.190, 77.432
1339.389, 94.818
1340.587, 232.152
1341.786, 160.566
1342.984, 166.615
1344.182, 313.744
1345.379, 90.832
1346.577, 277.873
1347.774, 334.867
1348.972, 61.818
1350.169, 298.727
1351.365, 165.596
1352.562, 292.426
1353.759, 289.221
1354.955, 65.986
1356.151, 272.715
1357.347, 179.418
1358.543, 256.090
1359.738, 412.742
1360.934, 379.520
1362.129, 56.135
1363.324, 272.732
1364.519, 49.320
1365.713, 335.904
1366.908, 292.490
1368.102, 259.594
1369.296, 306.209
1370.490, 92.842
1371.684, 70.490
1372.877, 116.197
1374.071, 182.895
1375.264, 19.668
1376.457, 130.145
1377.650, 113.361
1378.843, 120.744
1380.035, 161.062
1381.227, 181.328
1382.419, 281.555
1383.611, 501.723
1384.803, 211.854
1385.995, 451.938
1387.186, 281.902
1388.377, 121.645
1389.568, 571.545
1390.759, 181.432
1391.950, 350.467
1393.140, 330.234
1394.331, 359.955
1395.521, 638.977
1396.711, 137.891
1397.900, 527.150
1399.090, 466.502
1400.279, 267.225
1401.469, 266.807
1402.658, 233.020
1403.847, 58.035
1405.035, 255.158
1406.224, 383.137
1407.412, 380.188
1408.600, 247.922
1409.788, 397.146
1410.976, 31.461
1412.164, 520.533
1413.351, 193.359
1414.538, 160.275
1415.725, 520.080
1416.912, 37.848
1418.099, 377.764
1419.285, 352.934
1420.472, 139.418
1421.658, 351.033
1422.844, 255.604
1424.030, 107.170
1425.215, 271.129
1426.401, 475.160
1427.586, 258.693
1428.771, 386.750
1429.956, 377.855
1431.141, 84.684
1432.325, 407.996
1433.510, 291.686
1434.694, 386.641
1435.878, 379.727
1437.062, 113.688
1438.245, 476.529
1439.429, 100.230
1440.612, 194.588
1441.795, 476.963
1442.978, 248.814
1444.161, 423.123
1445.343, 237.076
1446.526, 254.992
1447.708, 506.293
1448.890, 214.328
1450.072, 355.373
1451.253, 525.773
1452.435, 397.996
1453.616, 239.268
1454.797, 558.812
1455.978, 79.000
1457.159, 500.176
1458.340, 331.115
1459.520, 429.611
1460.700, 489.119
1461.880, 647.857
1463.060, 303.512
1464.240, 733.496
1465.420, 332.354
1466.599, 548.361
1467.778, 385.898
1468.957, 213.746
1470.136, 624.766
1471.315, 584.582
1472.493, 364.129
1473.671, 655.162
1474.849, 456.393
1476.027, 536.207
1477.205, 637.881
1478.383, 289.400
1479.560, 479.922
1480.737, 630.066
1481.914, 351.146
1483.091, 292.053
1484.268, 583.334
1485.444, 175.078
1486.621, 357.219
1487.797, 669.428
1488.973, 291.018
1490.149, 573.475
1491.324, 216.201
1492.500, 129.365
1493.675, 642.939
1494.850, 247.090
1496.025, 201.633
1497.200, 536.613
1498.374, 222.010
1499.548, 287.855
1500.723, 564.285
1501.897, 51.396
1503.071, 469.256
1504.244, 247.904
1505.418, 237.539
1506.591, 628.266
1507.764, 260.219
1508.937, 13.564
1510.110, 558.566
1511.282, 313.234
1512.455, 362.309
1513.627, 694.273
1514.799, 486.361
1515.971, 483.162
1517.143, 704.137
1518.314, 3.154
1519.486, 0.000
##END=



