##NAMES=Amblygonite
##RRUFFID=R040006
##IDEAL CHEMISTRY=LiAlPO_4_F
##LOCALITY=Pala, San Diego County, California, USA
##OWNER=RRUFF
##SOURCE=University of Arizona Mineral Museum
##DESCRIPTION=Light gray coarsely crystalline massive
##STATUS=The identification of this mineral has been confirmed by X-ray diffraction and chemical analysis
##URL=rruff.info/R040006
##MEASURED CHEMISTRY=LiAl_1.00_(P_1.00_O_4_)(F_0.73_(OH)_0.27_)_Î£=1_; Li assumed by stoichiometry; OH estimated by charge balance
##PIN_ID=l00204
##ORIENTATION=Laser parallel to b* (0 1 0). Fiducial mark perpendicular to laser is parallel to c [0 0 1]
110.603, 0.000
111.996, 6.016
113.388, 67.265
114.780, 33.820
116.172, 102.739
117.564, 144.356
118.956, 268.800
120.347, 449.929
121.738, 692.969
123.129, 970.457
124.519, 1414.365
125.910, 1702.448
127.300, 2011.763
128.690, 2317.919
130.080, 2346.061
131.469, 2300.556
132.858, 2060.976
134.248, 1878.025
135.636, 1502.501
137.025, 1212.262
138.413, 1021.335
139.801, 840.429
141.189, 767.988
142.577, 712.099
143.964, 672.313
145.352, 767.552
146.739, 828.683
148.125, 967.741
149.512, 1087.854
150.898, 1359.129
152.284, 1529.656
153.670, 1897.518
155.056, 2233.786
156.441, 2730.528
157.827, 3242.806
159.212, 3935.670
160.596, 4542.166
161.981, 5083.336
163.365, 5479.212
164.749, 5661.073
166.133, 5867.265
167.517, 5687.543
168.900, 5501.847
170.283, 5251.532
171.666, 4830.209
173.049, 4244.083
174.431, 3909.063
175.813, 3523.652
177.195, 3292.813
178.577, 3096.551
179.959, 2789.102
181.340, 2561.752
182.721, 2463.499
184.102, 2277.334
185.483, 2146.245
186.863, 2059.228
188.244, 1891.279
189.624, 1844.398
191.003, 1657.585
192.383, 1621.837
193.762, 1390.144
195.141, 1404.505
196.520, 1238.953
197.899, 1077.504
199.277, 958.165
200.656, 810.263
202.034, 653.821
203.411, 553.814
204.789, 425.913
206.166, 302.112
207.543, 222.409
208.920, 204.797
210.297, 144.272
211.673, 129.827
213.049, 146.456
214.425, 73.153
215.801, 50.916
217.176, 11.261
218.552, 1.620
219.927, 60.446
221.302, 2.461
222.676, 17.435
224.051, 59.373
225.425, 29.286
226.799, 90.183
228.173, 40.068
229.546, 32.941
230.919, 78.803
232.292, 107.653
233.665, 80.490
235.038, 94.315
236.410, 123.127
237.782, 130.926
239.154, 126.376
240.526, 62.484
241.898, 83.244
243.269, 73.989
244.640, 9.717
246.011, 39.424
247.381, 8.144
248.752, 19.131
250.122, 97.431
251.492, 120.686
252.861, 108.906
254.231, 254.109
255.600, 315.270
256.969, 402.320
258.338, 536.282
259.707, 727.206
261.075, 955.134
262.443, 1128.067
263.811, 1387.040
265.179, 1620.054
266.546, 1965.094
267.914, 2120.164
269.281, 2341.260
270.647, 2448.381
272.014, 2596.521
273.380, 2572.680
274.747, 2395.856
276.113, 2324.476
277.478, 2227.649
278.844, 2117.510
280.209, 1973.756
281.574, 1938.288
282.939, 1949.041
284.304, 1961.966
285.668, 2053.027
287.032, 2272.195
288.396, 2488.448
289.760, 2915.769
291.123, 3390.144
292.487, 4156.558
293.850, 5172.993
295.212, 6424.443
296.575, 8322.899
297.937, 10361.363
299.300, 12909.822
300.662, 15148.280
302.023, 16916.732
303.385, 17395.180
304.746, 16663.602
306.107, 15121.992
307.468, 12860.339
308.829, 10938.636
310.189, 9266.873
311.549, 7835.068
312.909, 6833.218
314.269, 5841.327
315.629, 5007.400
316.988, 4393.443
318.347, 3725.453
319.706, 3120.438
321.065, 2624.396
322.423, 2221.333
323.781, 1975.248
325.139, 1672.144
326.497, 1532.020
327.855, 1428.880
329.212, 1298.673
330.569, 1168.361
331.926, 1119.942
333.283, 1020.391
334.639, 873.746
335.995, 927.936
337.351, 806.974
338.707, 833.814
340.063, 742.511
341.418, 695.090
342.773, 715.624
344.128, 626.150
345.483, 622.692
346.837, 624.249
348.192, 577.819
349.546, 578.402
350.899, 608.999
352.253, 598.608
353.606, 603.229
354.960, 607.863
356.313, 598.508
357.665, 572.165
359.018, 643.832
360.370, 601.510
361.722, 596.198
363.074, 685.895
364.426, 646.601
365.777, 648.315
367.128, 647.038
368.479, 637.767
369.830, 648.503
371.181, 599.246
372.531, 655.021
373.881, 619.938
375.231, 494.797
376.581, 537.834
377.930, 575.984
379.280, 437.266
380.629, 440.364
381.977, 378.028
383.326, 448.325
384.674, 409.124
386.023, 418.396
387.370, 356.535
388.718, 353.014
390.066, 368.052
391.413, 389.286
392.760, 343.726
394.107, 328.725
395.454, 387.586
396.800, 410.935
398.146, 377.037
399.492, 453.654
400.838, 420.200
402.184, 373.777
403.529, 436.926
404.874, 509.289
406.219, 523.282
407.564, 673.366
408.908, 791.736
410.252, 864.066
411.596, 1016.210
412.940, 1296.511
414.284, 1568.232
415.627, 2130.108
416.970, 2870.585
418.313, 3957.803
419.656, 5698.108
420.999, 8165.588
422.341, 11323.256
423.683, 14850.629
425.025, 17057.986
426.367, 17425.186
427.708, 15332.369
429.049, 12219.381
430.390, 8826.488
431.731, 6333.515
433.072, 4597.542
434.412, 3381.579
435.752, 2604.614
437.092, 2142.668
438.432, 1823.726
439.772, 1536.793
441.111, 1354.856
442.450, 1309.914
443.789, 1230.968
445.127, 1116.018
446.466, 1101.058
447.804, 932.091
449.142, 1029.114
450.480, 940.136
451.817, 894.146
453.155, 1052.148
454.492, 960.140
455.829, 1025.118
457.166, 1026.083
458.502, 1101.037
459.838, 1158.984
461.175, 1235.917
462.510, 1293.838
463.846, 1375.746
465.181, 1552.639
466.517, 1769.517
467.852, 1843.381
469.186, 2160.231
470.521, 2372.067
471.855, 2727.889
473.190, 3139.698
474.523, 3563.492
475.857, 3924.272
477.191, 4417.039
478.524, 4924.792
479.857, 5373.532
481.190, 5640.258
482.523, 5736.971
483.855, 5943.670
485.187, 5800.355
486.519, 5407.027
487.851, 5593.684
489.183, 5300.329
490.514, 4980.960
491.845, 4811.577
493.176, 4520.181
494.507, 4339.773
495.837, 4063.354
497.168, 3714.924
498.498, 3518.482
499.828, 3310.029
501.157, 2966.568
502.487, 2704.097
503.816, 2492.617
505.145, 2218.128
506.474, 1993.630
507.802, 1734.122
509.131, 1532.604
510.459, 1458.077
511.787, 1238.540
513.115, 1075.993
514.442, 896.435
515.770, 755.866
517.097, 665.287
518.424, 576.697
519.750, 480.096
521.077, 452.483
522.403, 345.859
523.729, 334.224
525.055, 224.577
526.381, 244.918
527.706, 262.247
529.031, 115.564
530.356, 119.868
531.681, 89.160
533.006, 57.439
534.330, 72.817
535.654, 36.105
536.978, 23.479
538.302, 13.760
539.625, 24.226
540.949, 59.783
542.272, 44.922
543.595, 27.980
544.917, 80.847
546.240, 45.938
547.562, 14.428
548.884, 35.849
550.206, 4.257
551.527, 31.774
552.849, 85.962
554.170, 16.544
555.491, 76.324
556.812, 22.028
558.132, 19.906
559.453, 62.950
560.773, 9.028
562.093, 1.521
563.412, 39.483
564.732, 23.769
566.051, 25.444
567.370, 12.329
568.689, 9.835
570.008, 3.113
571.326, 45.321
572.644, 7.504
573.963, 12.044
575.280, 36.894
576.598, 69.289
577.915, 59.367
579.233, 44.641
580.550, 31.343
581.866, 63.752
583.183, 68.506
584.499, 98.096
585.815, 106.974
587.131, 186.127
588.447, 133.645
589.763, 200.525
591.078, 171.253
592.393, 193.249
593.708, 236.030
595.022, 253.289
596.337, 312.722
597.651, 403.882
598.965, 456.421
600.279, 572.049
601.593, 702.164
602.906, 722.680
604.219, 693.100
605.532, 703.110
606.845, 605.794
608.158, 573.518
609.470, 538.898
610.782, 509.233
612.094, 495.355
613.406, 505.083
614.718, 510.285
616.029, 562.963
617.340, 652.628
618.651, 599.801
619.962, 696.176
621.272, 803.244
622.582, 812.337
623.892, 1007.358
625.202, 1083.355
626.512, 1231.330
627.821, 1471.281
629.131, 1707.208
630.440, 1976.111
631.749, 2307.989
633.057, 2493.845
634.366, 2911.676
635.674, 3144.483
636.982, 3787.267
638.290, 4558.025
639.597, 5679.759
640.905, 7574.469
642.212, 9829.155
643.519, 12303.818
644.825, 14958.457
646.132, 16023.071
647.438, 15677.659
648.744, 13712.226
650.050, 11006.766
651.356, 8401.284
652.662, 6175.775
653.967, 4980.244
655.272, 3692.688
656.577, 3016.107
657.882, 2429.503
659.186, 1963.874
660.490, 1662.220
661.794, 1339.542
663.098, 1100.840
664.402, 1069.112
665.705, 923.361
667.009, 757.585
668.312, 713.785
669.614, 620.959
670.917, 548.109
672.219, 474.235
673.522, 522.336
674.824, 425.413
676.125, 437.464
677.427, 369.492
678.728, 296.494
680.030, 313.472
681.331, 259.426
682.631, 263.354
683.932, 263.258
685.232, 269.138
686.532, 186.993
687.832, 234.823
689.132, 182.601
690.432, 147.220
691.731, 164.874
693.030, 140.331
694.329, 157.653
695.628, 108.823
696.926, 94.092
698.224, 144.548
699.522, 58.745
700.820, 171.825
702.118, 56.554
703.415, 65.830
704.713, 67.757
706.010, 63.190
707.307, 70.190
708.603, 46.178
709.900, 62.345
711.196, 84.832
712.492, 63.735
713.788, 26.805
715.083, 32.457
716.379, 31.237
717.674, 40.365
718.969, 31.970
720.264, 29.445
721.558, 53.462
722.853, 27.669
724.147, 38.728
725.441, 80.837
726.735, 38.314
728.028, 19.343
729.322, 5.681
730.615, 20.715
731.908, 25.076
733.201, 50.246
734.493, 7.666
735.785, 119.523
737.078, 57.576
738.370, 1.358
739.661, 26.655
740.953, 0.613
742.244, 19.625
743.535, 28.757
744.826, 15.247
746.117, 71.053
747.407, 1.727
748.698, 56.227
749.988, 38.563
751.278, 69.584
752.567, 3.291
753.857, 79.790
755.146, 53.921
756.435, 33.141
757.724, 21.150
759.013, 83.127
760.301, 32.084
761.590, 43.765
762.878, 3.328
764.165, 69.479
765.453, 21.321
766.741, 41.459
768.028, 78.269
769.315, 84.037
770.602, 34.295
771.888, 10.019
773.175, 69.709
774.461, 39.600
775.747, 178.280
777.033, 66.910
778.319, 138.521
779.604, 172.113
780.889, 166.934
782.174, 232.431
783.459, 219.027
784.744, 317.548
786.028, 364.051
787.312, 407.536
788.596, 379.004
789.880, 472.455
791.164, 491.889
792.447, 581.306
793.730, 731.707
795.013, 810.091
796.296, 877.459
797.579, 914.812
798.861, 1033.147
800.143, 1130.468
801.425, 1094.773
802.707, 1301.063
803.989, 1284.338
805.270, 1431.598
806.551, 1475.843
807.832, 1418.074
809.113, 1522.291
810.394, 1498.493
811.674, 1517.682
812.954, 1474.855
814.234, 1468.016
815.514, 1448.333
816.794, 1409.299
818.073, 1401.420
819.352, 1362.528
820.631, 1340.625
821.910, 1136.708
823.189, 1121.780
824.467, 1091.839
825.745, 943.887
827.023, 954.923
828.301, 776.948
829.578, 674.962
830.856, 600.964
832.133, 506.957
833.410, 509.938
834.687, 480.910
835.963, 395.873
837.240, 436.824
838.516, 311.767
839.792, 237.700
841.068, 190.625
842.343, 244.540
843.618, 197.447
844.894, 201.232
846.169, 145.086
847.443, 120.833
848.718, 44.649
849.992, 34.024
851.266, 33.765
852.540, 6.518
853.814, 66.611
855.088, 75.488
856.361, 63.678
857.634, 6.021
858.907, 56.405
860.180, 23.773
861.453, 88.240
862.725, 89.362
863.997, 80.694
865.269, 1.560
866.541, 71.167
867.812, 30.137
869.084, 35.915
870.355, 20.915
871.626, 55.658
872.897, 83.225
874.167, 110.577
875.438, 10.982
876.708, 20.930
877.978, 1.414
879.248, 21.198
880.517, 42.424
881.787, 13.187
883.056, 3.604
884.325, 4.282
885.594, 23.397
886.862, 3.217
888.130, 46.383
889.399, 8.561
890.667, 47.223
891.934, 33.376
893.202, 15.391
894.469, 69.712
895.737, 36.661
897.004, 49.346
898.270, 79.261
899.537, 30.998
900.803, 25.543
902.070, 16.107
903.336, 21.264
904.601, 49.025
905.867, 120.456
907.132, 3.714
908.398, 40.987
909.663, 28.232
910.928, 45.035
912.192, 32.920
913.457, 56.801
914.721, 2.783
915.985, 36.686
917.249, 56.169
918.512, 16.944
919.776, 0.332
921.039, 4.605
922.302, 24.417
923.565, 37.069
924.827, 13.722
926.090, 13.479
927.352, 1.728
928.614, 48.315
929.876, 6.323
931.138, 47.391
932.399, 15.530
933.660, 95.559
934.922, 49.661
936.182, 50.775
937.443, 94.903
938.704, 99.043
939.964, 103.198
941.224, 114.365
942.484, 179.547
943.744, 98.743
945.003, 123.953
946.262, 151.178
947.521, 76.417
948.780, 233.671
950.039, 183.940
951.298, 220.233
952.556, 123.542
953.814, 226.866
955.072, 286.206
956.330, 220.562
957.587, 254.935
958.845, 324.323
960.102, 373.728
961.359, 298.148
962.615, 350.586
963.872, 444.042
965.128, 416.515
966.384, 525.004
967.640, 468.512
968.896, 497.037
970.152, 545.580
971.407, 471.144
972.662, 609.726
973.917, 711.332
975.172, 756.970
976.427, 749.625
977.681, 914.299
978.935, 985.993
980.189, 993.706
981.443, 1146.438
982.697, 1255.190
983.950, 1311.981
985.203, 1366.792
986.456, 1858.628
987.709, 1802.500
988.962, 2224.390
990.214, 2479.311
991.467, 2671.252
992.719, 3363.214
993.971, 3855.203
995.222, 4447.215
996.474, 5129.264
997.725, 5851.361
998.976, 6843.490
1000.227, 7645.645
1001.478, 8627.846
1002.728, 10060.071
1003.978, 11292.188
1005.229, 12544.482
1006.479, 13596.799
1007.728, 14749.142
1008.978, 15821.409
1010.227, 15703.813
1011.476, 16286.239
1012.725, 15618.693
1013.974, 14611.191
1015.223, 14093.719
1016.471, 12676.062
1017.719, 11658.636
1018.967, 10391.288
1020.215, 9273.977
1021.462, 8516.718
1022.710, 7486.774
1023.957, 6819.581
1025.204, 6406.766
1026.451, 5869.637
1027.697, 5711.601
1028.944, 5484.461
1030.190, 5397.421
1031.436, 5648.546
1032.682, 5841.568
1033.928, 6234.427
1035.173, 6697.511
1036.418, 6869.742
1037.663, 7562.888
1038.908, 8004.229
1040.153, 8867.438
1041.398, 9478.915
1042.642, 9761.048
1043.886, 10333.905
1045.130, 10814.547
1046.374, 11107.966
1047.617, 11679.678
1048.860, 11963.170
1050.104, 12845.743
1051.347, 13498.570
1052.589, 14282.146
1053.832, 15605.768
1055.074, 16959.426
1056.316, 18693.127
1057.558, 21466.773
1058.800, 23899.348
1060.042, 26513.139
1061.283, 29886.957
1062.524, 31420.797
1063.765, 32552.912
1065.006, 30556.803
1066.247, 27779.785
1067.487, 24493.738
1068.728, 19527.398
1069.968, 16341.384
1071.208, 13305.417
1072.447, 10838.977
1073.687, 8993.075
1074.926, 7297.203
1076.165, 6141.134
1077.404, 5375.281
1078.643, 4449.489
1079.881, 3943.721
1081.120, 3417.977
1082.358, 2972.032
1083.596, 2756.360
1084.834, 2410.717
1086.071, 2145.101
1087.309, 1929.507
1088.546, 1774.945
1089.783, 1704.409
1091.020, 1518.896
1092.256, 1351.407
1093.493, 1313.945
1094.729, 1101.504
1095.965, 1133.086
1097.201, 1096.689
1098.436, 1024.315
1099.672, 1069.887
1100.907, 955.559
1102.142, 878.253
1103.377, 983.970
1104.612, 939.707
1105.846, 953.467
1107.081, 943.249
1108.315, 940.581
1109.549, 978.831
1110.782, 982.722
1112.016, 1048.660
1113.249, 1140.551
1114.483, 1161.463
1115.716, 1188.705
1116.948, 1162.357
1118.181, 1191.336
1119.413, 1232.843
1120.646, 1236.862
1121.878, 1330.108
1123.110, 1396.906
1124.341, 1224.993
1125.573, 1214.100
1126.804, 1264.237
1128.035, 993.395
1129.266, 1184.662
1130.497, 949.860
1131.727, 996.595
1132.957, 906.830
1134.188, 818.174
1135.418, 784.687
1136.647, 734.974
1137.877, 651.306
1139.106, 612.205
1140.335, 503.014
1141.564, 504.954
1142.793, 394.449
1144.022, 343.669
1145.250, 387.190
1146.479, 261.928
1147.707, 294.804
1148.934, 182.272
1150.162, 55.780
1151.390, 234.840
1152.617, 268.872
1153.844, 226.372
1155.071, 225.075
1156.298, 177.065
1157.524, 155.816
1158.751, 280.712
1159.977, 183.325
1161.203, 185.734
1162.428, 273.861
1163.654, 169.459
1164.879, 293.617
1166.105, 180.865
1167.330, 318.496
1168.555, 287.464
1169.779, 249.688
1171.004, 319.511
1172.228, 374.514
1173.452, 304.225
1174.676, 435.944
1175.900, 403.567
1177.123, 402.308
1178.346, 561.188
1179.570, 525.156
1180.793, 592.926
1182.015, 592.087
1183.238, 713.048
1184.460, 723.842
1185.683, 768.297
1186.905, 937.118
1188.126, 883.282
1189.348, 1062.113
1190.569, 1110.012
1191.791, 1211.948
1193.012, 1179.903
1194.233, 1393.115
1195.453, 1331.349
1196.674, 1334.483
1197.894, 1429.518
1199.114, 1535.819
1200.334, 1531.780
1201.554, 1531.514
1202.774, 1392.547
1203.993, 1623.444
1205.212, 1449.797
1206.431, 1456.710
1207.650, 1494.615
1208.869, 1341.519
1210.087, 1397.633
1211.305, 1240.782
1212.524, 1174.692
1213.741, 1202.869
1214.959, 1048.918
1216.177, 1096.014
1217.394, 916.925
1218.611, 951.396
1219.828, 772.307
1221.045, 818.701
1222.261, 684.648
1223.478, 598.677
1224.694, 515.080
1225.910, 403.979
1227.126, 341.489
1228.342, 402.794
1229.557, 320.296
1230.772, 256.262
1231.987, 138.328
1233.202, 259.203
1234.417, 252.312
1235.631, 121.778
1236.846, 206.879
1238.060, 141.253
1239.274, 203.920
1240.488, 42.775
1241.701, 62.747
1242.915, 31.608
1244.128, 81.466
1245.341, 46.182
1246.554, 163.673
1247.767, 35.700
1248.979, 96.679
1250.191, 103.540
1251.403, 33.406
1252.615, 65.268
1253.827, 27.124
1255.039, 130.242
1256.250, 13.086
1257.461, 1.518
1258.672, 101.431
1259.883, 137.245
1261.094, 66.979
1262.304, 85.011
1263.514, 126.785
1264.724, 9.256
1265.934, 113.555
1267.144, 20.782
1268.354, 44.269
1269.563, 75.478
1270.772, 68.204
1271.981, 60.728
1273.190, 105.276
1274.398, 6.934
1275.607, 121.568
1276.815, 66.808
1278.023, 64.755
1279.231, 10.858
1280.439, 44.504
1281.646, 95.828
1282.853, 23.850
1284.060, 32.556
1285.267, 79.838
1286.474, 14.893
1287.681, 20.354
1288.887, 49.444
1290.093, 85.274
1291.299, 24.144
1292.505, 6.962
1293.711, 81.974
1294.916, 50.202
1296.121, 6.194
1297.327, 56.738
1298.531, 91.201
1299.736, 24.126
1300.941, 21.964
1302.145, 23.894
1303.349, 17.733
1304.553, 64.543
1305.757, 57.665
1306.961, 14.041
1308.164, 92.711
1309.367, 15.345
1310.570, 164.050
1311.773, 200.479
1312.976, 15.012
1314.178, 17.468
1315.381, 53.922
1316.583, 29.648
1317.785, 176.746
1318.987, 99.119
1320.188, 21.533
1321.390, 113.772
1322.591, 67.045
1323.792, 51.291
1324.993, 164.510
1326.193, 33.686
1327.394, 61.832
1328.594, 124.921
1329.794, 0.971
1330.994, 105.984
1332.194, 40.975
1333.394, 14.938
1334.593, 97.873
1335.792, 52.220
1336.991, 91.641
1338.190, 45.475
1339.389, 45.279
1340.587, 58.056
1341.786, 82.804
1342.984, 43.523
1344.182, 104.215
1345.379, 30.119
1346.577, 89.505
1347.774, 229.102
1348.972, 23.326
1350.169, 123.205
1351.365, 180.713
1352.562, 168.193
1353.759, 77.647
1354.955, 72.078
1356.151, 144.482
1357.347, 68.867
1358.543, 99.227
1359.738, 88.565
1360.934, 193.884
1362.129, 22.819
1363.324, 187.444
1364.519, 49.825
1365.713, 126.050
1366.908, 107.258
1368.102, 12.666
1369.296, 197.839
1370.490, 44.000
1371.684, 50.850
1372.877, 45.269
1374.071, 25.371
1375.264, 22.465
1376.457, 157.535
1377.650, 0.745
1378.843, 48.811
1380.035, 88.886
1381.227, 56.923
1382.419, 38.999
1383.611, 168.188
1384.803, 125.359
1385.995, 150.541
1387.186, 190.652
1388.377, 65.744
1389.568, 181.814
1390.759, 119.863
1391.950, 133.813
1393.140, 176.812
1394.331, 165.779
1395.521, 222.163
1396.711, 220.736
1397.900, 102.535
1399.090, 174.331
1400.279, 72.985
1401.469, 138.493
1402.658, 175.873
1403.847, 43.671
1405.035, 108.757
1406.224, 200.360
1407.412, 116.023
1408.600, 132.071
1409.788, 197.326
1410.976, 2.690
1412.164, 117.068
1413.351, 115.719
1414.538, 17.020
1415.725, 272.550
1416.912, 14.687
1418.099, 92.247
1419.285, 88.714
1420.472, 96.267
1421.658, 232.181
1422.844, 135.568
1424.030, 160.730
1425.215, 131.755
1426.401, 104.230
1427.586, 139.053
1428.771, 136.332
1429.956, 154.343
1431.141, 150.512
1432.325, 205.412
1433.510, 161.725
1434.694, 210.873
1435.878, 262.366
1437.062, 73.502
1438.245, 226.135
1439.429, 93.396
1440.612, 128.572
1441.795, 336.429
1442.978, 175.608
1444.161, 176.765
1445.343, 224.146
1446.526, 116.462
1447.708, 212.518
1448.890, 187.316
1450.072, 216.900
1451.253, 217.353
1452.435, 171.373
1453.616, 118.289
1454.797, 234.489
1455.978, 235.794
1457.159, 171.925
1458.340, 186.301
1459.520, 187.125
1460.700, 217.819
1461.880, 177.796
1463.060, 118.689
1464.240, 344.857
1465.420, 274.536
1466.599, 144.074
1467.778, 309.812
1468.957, 139.438
1470.136, 271.993
1471.315, 278.746
1472.493, 228.086
1473.671, 278.323
1474.849, 168.456
1476.027, 168.173
1477.205, 208.087
1478.383, 148.072
1479.560, 197.932
1480.737, 167.317
1481.914, 166.867
1483.091, 166.577
1484.268, 246.228
1485.444, 85.878
1486.621, 195.628
1487.797, 275.638
1488.973, 175.707
1490.149, 185.726
1491.324, 155.702
1492.500, 65.616
1493.675, 175.525
1494.850, 105.524
1496.025, 45.636
1497.200, 156.034
1498.374, 66.809
1499.548, 47.646
1500.723, 208.567
1501.897, 59.582
1503.071, 90.747
1504.244, 122.078
1505.418, 13.604
1506.591, 215.323
1507.764, 207.267
1508.937, 0.498
1510.110, 152.088
1511.282, 145.041
1512.455, 58.380
1513.627, 162.190
1514.799, 74.410
1515.971, 109.150
1517.143, 179.973
1518.314, 45.292
1519.486, 101.386
1520.657, 189.200
1521.828, 0.866
1522.999, 0.000
##END=



