##NAMES=Amblygonite
##RRUFFID=R040006
##IDEAL CHEMISTRY=LiAlPO_4_F
##LOCALITY=Pala, San Diego County, California, USA
##OWNER=RRUFF
##SOURCE=University of Arizona Mineral Museum
##DESCRIPTION=Light gray coarsely crystalline massive
##STATUS=The identification of this mineral has been confirmed by X-ray diffraction and chemical analysis
##URL=rruff.info/R040006
##MEASURED CHEMISTRY=LiAl_1.00_(P_1.00_O_4_)(F_0.73_(OH)_0.27_)_Î£=1_; Li assumed by stoichiometry; OH estimated by charge balance
##PIN_ID=l00314
##ORIENTATION=Laser parallel to -c* (0 0 -1). Fiducial mark perpendicular to laser is parallel to -a [-1 0 0]
116.172, 0.000
117.564, 7.419
118.956, 202.664
120.347, 235.156
121.738, 459.758
123.129, 938.239
124.519, 1319.118
125.910, 1729.897
127.300, 2214.627
128.690, 2470.137
130.080, 2734.609
131.469, 2698.184
132.858, 2570.400
134.248, 2362.486
135.636, 1891.061
137.025, 1386.301
138.413, 1285.198
139.801, 978.191
141.189, 849.500
142.577, 707.157
143.964, 653.739
145.352, 649.801
146.739, 574.577
148.125, 782.835
149.512, 739.355
150.898, 843.864
152.284, 1052.327
153.670, 1206.588
155.056, 1372.113
156.441, 1687.872
157.827, 1901.863
159.212, 2273.416
160.596, 2619.192
161.981, 2869.526
163.365, 2969.671
164.749, 3015.920
166.133, 3001.128
167.517, 2863.407
168.900, 2653.590
170.283, 2435.872
171.666, 2137.201
173.049, 1823.746
174.431, 1632.891
175.813, 1424.355
177.195, 1178.800
178.577, 1083.654
179.959, 968.290
181.340, 896.188
182.721, 761.630
184.102, 693.442
185.483, 544.678
186.863, 564.459
188.244, 472.284
189.624, 431.148
191.003, 312.045
192.383, 172.972
193.762, 95.930
195.141, 84.917
196.520, 49.937
197.899, 52.013
199.277, 53.898
200.656, 112.634
202.034, 63.196
203.411, 82.583
204.789, 65.799
206.166, 29.147
207.543, 16.755
208.920, 51.483
210.297, 11.148
211.673, 82.338
213.049, 175.929
214.425, 18.615
215.801, 69.384
217.176, 60.229
218.552, 82.140
219.927, 70.106
221.302, 4.110
222.676, 86.138
224.051, 38.186
225.425, 29.751
226.799, 38.676
228.173, 55.352
229.546, 25.517
230.919, 43.446
232.292, 63.388
233.665, 55.340
235.038, 76.832
236.410, 49.276
237.782, 89.275
239.154, 25.317
240.526, 0.498
241.898, 95.885
243.269, 4.551
244.640, 32.095
246.011, 66.792
247.381, 49.492
248.752, 13.760
250.122, 40.030
251.492, 102.329
252.861, 186.680
254.231, 245.010
255.600, 254.279
256.969, 392.523
258.338, 455.704
259.707, 584.800
261.075, 790.863
262.443, 966.868
263.811, 1084.828
265.179, 1321.768
266.546, 1600.712
267.914, 1769.674
269.281, 1948.658
270.647, 2107.665
272.014, 2167.181
273.380, 2198.747
274.747, 2189.823
276.113, 2171.921
277.478, 2054.043
278.844, 2028.187
280.209, 1877.355
281.574, 1924.738
282.939, 1944.426
284.304, 2001.090
285.668, 2078.981
287.032, 2395.013
288.396, 2586.126
289.760, 2986.278
291.123, 3556.441
292.487, 4161.587
293.850, 5086.696
295.212, 6151.749
296.575, 7686.739
297.937, 9411.658
299.300, 11426.496
300.662, 13591.255
302.023, 15065.917
303.385, 15790.458
304.746, 15674.869
306.107, 14649.161
307.468, 13203.336
308.829, 11577.399
310.189, 10391.352
311.549, 9335.182
312.909, 8268.900
314.269, 7262.505
315.629, 6206.006
316.988, 5469.412
318.347, 4552.729
319.706, 3965.928
321.065, 3438.997
322.423, 3010.758
323.781, 2903.168
325.139, 2502.282
326.497, 2500.268
327.855, 2297.148
329.212, 2169.985
330.569, 2000.759
331.926, 1867.487
333.283, 1743.152
334.639, 1573.774
335.995, 1616.268
337.351, 1352.630
338.707, 1208.853
340.063, 1244.926
341.418, 1192.854
342.773, 1178.722
344.128, 1045.492
345.483, 1027.165
346.837, 979.826
348.192, 1038.481
349.546, 947.146
350.899, 893.823
352.253, 943.511
353.606, 919.210
354.960, 953.776
356.313, 1057.786
357.665, 1015.193
359.018, 1138.512
360.370, 970.351
361.722, 1033.043
363.074, 1023.725
364.426, 1019.825
365.777, 1137.129
367.128, 1098.313
368.479, 1097.644
369.830, 1208.483
371.181, 1221.069
372.531, 1139.548
373.881, 990.860
375.231, 1024.857
376.581, 833.299
377.930, 865.458
379.280, 869.554
380.629, 765.101
381.977, 736.282
383.326, 730.231
384.674, 714.331
386.023, 636.846
387.370, 554.781
388.718, 570.924
390.066, 573.146
391.413, 577.642
392.760, 481.419
394.107, 471.787
395.454, 495.297
396.800, 450.271
398.146, 474.305
399.492, 345.605
400.838, 420.895
402.184, 373.932
403.529, 347.697
404.874, 403.203
406.219, 316.056
407.564, 381.979
408.908, 387.751
410.252, 297.944
411.596, 358.753
412.940, 390.938
414.284, 431.479
415.627, 534.388
416.970, 672.554
418.313, 754.747
419.656, 1173.946
420.999, 1702.181
422.341, 2517.422
423.683, 3478.685
425.025, 4079.971
426.367, 4591.262
427.708, 4292.568
429.049, 3553.898
430.390, 2715.238
431.731, 2012.599
433.072, 1521.964
434.412, 1142.339
435.752, 890.728
437.092, 806.129
438.432, 668.552
439.772, 599.006
441.111, 525.482
442.450, 538.968
443.789, 543.447
445.127, 519.936
446.466, 563.413
447.804, 481.879
449.142, 546.343
450.480, 607.801
451.817, 509.257
453.155, 517.694
454.492, 691.123
455.829, 690.535
457.166, 680.929
458.502, 783.311
459.838, 877.673
461.175, 935.018
462.510, 977.344
463.846, 1125.650
465.181, 1068.946
466.517, 1403.224
467.852, 1428.484
469.186, 1688.727
470.521, 1884.953
471.855, 2188.163
473.190, 2519.347
474.523, 2820.534
475.857, 3281.696
477.191, 3732.843
478.524, 4183.976
479.857, 4535.094
481.190, 4886.197
482.523, 5007.287
483.855, 5038.364
485.187, 5019.431
486.519, 4810.486
487.851, 4764.573
489.183, 4692.571
490.514, 4373.600
491.845, 4354.619
493.176, 3915.629
494.507, 3786.630
495.837, 3737.623
497.168, 3218.607
498.498, 3209.582
499.828, 2940.552
501.157, 2771.514
502.487, 2412.469
503.816, 2173.418
505.145, 2094.361
506.474, 1735.299
507.802, 1701.230
509.131, 1508.155
510.459, 1324.074
511.787, 1161.988
513.115, 969.894
514.442, 893.794
515.770, 697.688
517.097, 701.577
518.424, 577.465
519.750, 416.352
521.077, 334.238
522.403, 299.148
523.729, 384.081
525.055, 228.051
526.381, 179.046
527.706, 356.069
529.031, 118.116
530.356, 134.397
531.681, 61.537
533.006, 44.904
534.330, 32.962
535.654, 68.019
536.978, 36.576
538.302, 2.751
539.625, 21.996
540.949, 16.283
542.272, 69.812
543.595, 38.392
544.917, 107.187
546.240, 0.362
547.562, 37.220
548.884, 97.672
550.206, 23.613
551.527, 12.076
552.849, 53.141
554.170, 121.686
555.491, 6.520
556.812, 20.284
558.132, 6.924
559.453, 56.704
560.773, 2.900
562.093, 49.865
563.412, 69.596
564.732, 42.308
566.051, 18.765
567.370, 29.524
568.689, 118.271
570.008, 173.429
571.326, 126.661
572.644, 192.816
573.963, 178.712
575.280, 234.529
576.598, 256.489
577.915, 304.701
579.233, 336.114
580.550, 341.178
581.866, 369.806
583.183, 409.425
584.499, 431.685
585.815, 502.610
587.131, 569.568
588.447, 639.564
589.763, 765.456
591.078, 882.659
592.393, 1074.347
593.708, 1309.160
595.022, 1591.669
596.337, 2146.390
597.651, 2963.189
598.965, 3848.306
600.279, 4950.112
601.593, 6312.370
602.906, 7417.406
604.219, 7308.835
605.532, 6830.658
606.845, 6004.454
608.158, 4937.874
609.470, 3991.799
610.782, 3282.383
612.094, 2915.272
613.406, 2526.068
614.718, 2286.520
616.029, 2218.473
617.340, 2098.660
618.651, 2099.102
619.962, 2129.359
621.272, 2219.475
622.582, 2310.850
623.892, 2460.912
625.202, 2790.945
626.512, 3140.951
627.821, 3550.928
629.131, 4090.877
630.440, 4630.797
631.749, 5270.691
633.057, 5590.555
634.366, 6010.391
635.674, 6120.197
636.982, 6399.977
638.290, 6829.727
639.597, 7789.446
640.905, 9259.139
642.212, 11658.802
643.519, 14318.436
644.825, 17848.045
646.132, 20027.613
647.438, 20087.162
648.744, 18696.678
650.050, 15076.167
651.356, 11955.622
652.662, 8955.053
653.967, 7034.447
655.272, 5273.816
656.577, 4233.155
657.882, 3352.464
659.186, 2681.741
660.490, 2240.988
661.794, 1970.207
663.098, 1609.394
664.402, 1458.552
665.705, 1197.678
667.009, 1096.774
668.312, 995.839
669.614, 944.874
670.917, 743.878
672.219, 742.851
673.522, 661.792
674.824, 478.703
676.125, 600.584
677.427, 431.432
678.728, 433.249
680.030, 399.036
681.331, 422.789
682.631, 358.511
683.932, 327.201
685.232, 312.859
686.532, 170.484
687.832, 206.075
689.132, 150.492
690.432, 245.803
691.731, 223.029
693.030, 162.366
694.329, 129.535
695.628, 169.517
696.926, 158.954
698.224, 72.926
699.522, 113.240
700.820, 159.980
702.118, 82.597
703.415, 41.317
704.713, 80.117
706.010, 102.130
707.307, 97.843
708.603, 53.164
709.900, 32.784
711.196, 39.650
712.492, 101.930
713.788, 108.830
715.083, 50.094
716.379, 55.224
717.674, 111.902
718.969, 83.692
720.264, 66.541
721.558, 80.526
722.853, 68.310
724.147, 39.522
725.441, 7.670
726.735, 9.697
728.028, 0.866
729.322, 115.894
730.615, 75.766
731.908, 17.342
733.201, 121.492
734.493, 58.476
735.785, 177.377
737.078, 4.072
738.370, 1.202
739.661, 158.494
740.953, 37.146
742.244, 0.613
743.535, 58.010
744.826, 11.359
746.117, 90.646
747.407, 66.892
748.698, 33.096
749.988, 39.246
751.278, 3.803
752.567, 37.773
753.857, 11.831
755.146, 55.631
756.435, 41.454
757.724, 9.799
759.013, 66.196
760.301, 51.856
761.590, 8.408
762.878, 13.960
764.165, 3.982
765.453, 104.881
766.741, 20.274
768.028, 76.951
769.315, 112.253
770.602, 37.522
771.888, 222.743
773.175, 89.165
774.461, 124.323
775.747, 149.741
777.033, 44.838
778.319, 191.292
779.604, 156.316
780.889, 231.310
782.174, 166.274
783.459, 220.380
784.744, 286.116
786.028, 301.148
787.312, 305.998
788.596, 360.819
789.880, 475.612
791.164, 490.377
792.447, 505.113
793.730, 699.823
795.013, 644.505
796.296, 809.162
797.579, 863.791
798.861, 1018.393
800.143, 992.970
801.425, 1147.519
802.707, 1252.044
803.989, 1216.542
805.270, 1371.017
806.551, 1405.466
807.832, 1539.890
809.113, 1434.287
810.394, 1518.662
811.674, 1573.013
812.954, 1437.340
814.234, 1481.643
815.514, 1515.923
816.794, 1370.182
818.073, 1554.415
819.352, 1368.629
820.631, 1402.817
821.910, 1136.987
823.189, 1191.134
824.467, 1175.260
825.745, 1059.365
827.023, 1063.449
828.301, 897.514
829.578, 741.558
830.856, 825.581
832.133, 619.587
833.410, 463.572
834.687, 507.539
835.963, 391.488
837.240, 455.418
838.516, 319.332
839.792, 343.228
841.068, 236.873
842.343, 180.650
843.618, 124.184
844.894, 108.016
846.169, 111.826
847.443, 175.371
848.718, 98.768
849.992, 152.320
851.266, 35.825
852.540, 11.319
853.814, 161.980
855.088, 65.477
856.361, 108.584
857.634, 10.801
858.907, 83.876
860.180, 97.188
861.453, 30.477
862.725, 103.131
863.997, 64.746
865.269, 12.376
866.541, 90.919
867.812, 135.755
869.084, 71.371
870.355, 158.263
871.626, 88.481
872.897, 86.501
874.167, 100.755
875.438, 94.209
876.708, 133.138
877.978, 48.505
879.248, 11.281
880.517, 122.156
881.787, 97.382
883.056, 49.594
884.325, 27.140
885.594, 28.853
886.862, 5.841
888.130, 60.168
889.399, 23.059
890.667, 2.872
891.934, 38.197
893.202, 5.040
894.469, 26.129
895.737, 5.463
897.004, 31.346
898.270, 77.462
899.537, 70.283
900.803, 12.605
902.070, 83.782
903.336, 34.751
904.601, 14.481
905.867, 71.619
907.132, 59.575
908.398, 82.517
909.663, 95.857
910.928, 17.040
912.192, 55.369
913.457, 42.633
914.721, 127.375
915.985, 87.741
917.249, 67.592
918.512, 10.769
919.776, 58.375
921.039, 44.557
922.302, 137.818
923.565, 49.567
924.827, 56.931
926.090, 16.296
927.352, 20.303
928.614, 103.228
929.876, 64.515
931.138, 119.039
932.399, 32.610
933.660, 56.199
934.922, 89.806
936.182, 123.432
937.443, 12.923
938.704, 110.738
939.964, 84.420
941.224, 68.123
942.484, 191.847
943.744, 145.592
945.003, 89.357
946.262, 133.143
947.521, 166.950
948.780, 230.779
950.039, 194.632
951.298, 248.505
952.556, 172.401
953.814, 276.321
955.072, 230.264
956.330, 254.229
957.587, 298.221
958.845, 272.235
960.102, 436.273
961.359, 550.337
962.615, 344.425
963.872, 668.537
965.128, 432.677
966.384, 696.841
967.640, 661.038
968.896, 735.261
970.152, 969.511
971.407, 693.835
972.662, 1008.186
973.917, 1122.564
975.172, 1186.982
976.427, 1261.428
977.681, 1475.902
978.935, 1410.406
980.189, 1774.939
981.443, 1739.507
982.697, 1994.104
983.950, 2158.730
985.203, 2073.404
986.456, 2798.109
987.709, 2772.900
988.962, 3267.722
990.214, 3632.574
991.467, 3907.518
992.719, 4742.508
993.971, 5507.533
995.222, 6252.591
996.474, 7317.695
997.725, 8122.833
998.976, 9718.045
1000.227, 10803.289
1001.478, 12168.589
1002.728, 14333.933
1003.978, 15838.080
1005.229, 17763.529
1006.479, 19589.012
1007.728, 20814.547
1008.978, 22929.955
1010.227, 23395.572
1011.476, 23871.234
1012.725, 23646.934
1013.974, 22012.678
1015.223, 21284.863
1016.471, 19139.736
1017.719, 17305.633
1018.967, 15733.944
1020.215, 13710.014
1021.462, 12296.151
1022.710, 10777.919
1023.957, 9514.193
1025.204, 8875.664
1026.451, 7872.083
1027.697, 7262.165
1028.944, 6858.703
1030.190, 6434.828
1031.436, 6415.930
1032.682, 6392.631
1033.928, 6347.491
1035.173, 6603.332
1036.418, 6740.471
1037.663, 7095.915
1038.908, 7330.789
1040.153, 7697.828
1041.398, 8134.824
1042.642, 8380.859
1043.886, 8727.944
1045.130, 9405.224
1046.374, 9662.559
1047.617, 9889.938
1048.860, 10597.374
1050.104, 11104.852
1051.347, 11892.395
1052.589, 12599.987
1053.832, 13646.778
1055.074, 14984.476
1056.316, 16192.245
1057.558, 18498.486
1058.800, 21156.359
1060.042, 22881.316
1061.283, 26479.016
1062.524, 28187.051
1063.765, 29104.193
1065.006, 28622.332
1066.247, 25930.521
1067.487, 23268.766
1068.728, 19097.059
1069.968, 15574.060
1071.208, 13172.447
1072.447, 10550.874
1073.687, 8619.352
1074.926, 7126.633
1076.165, 5805.188
1077.404, 5183.496
1078.643, 4272.134
1079.881, 3709.420
1081.120, 3428.150
1082.358, 2896.932
1083.596, 2635.770
1084.834, 2414.654
1086.071, 1993.591
1087.309, 2052.412
1088.546, 1891.429
1089.783, 1950.971
1091.020, 1740.065
1092.256, 1619.199
1093.493, 1628.379
1094.729, 1727.598
1095.965, 1546.852
1097.201, 1666.145
1098.436, 1615.475
1099.672, 1864.844
1100.907, 1924.251
1102.142, 1973.695
1103.377, 2133.182
1104.612, 2192.704
1105.846, 2362.264
1107.081, 2821.858
1108.315, 2961.489
1109.549, 3211.157
1110.782, 3520.862
1112.016, 3530.602
1113.249, 3880.378
1114.483, 4220.189
1115.716, 4041.114
1116.948, 4491.006
1118.181, 4470.932
1119.413, 4761.631
1120.646, 4891.625
1121.878, 4741.652
1123.110, 5183.878
1124.341, 5044.024
1125.573, 4864.285
1126.804, 4824.497
1128.035, 4639.223
1129.266, 4509.134
1130.497, 4336.245
1131.727, 4206.762
1132.957, 4040.571
1134.188, 3881.128
1135.418, 3724.475
1136.647, 3501.553
1137.877, 3115.423
1139.106, 3119.563
1140.335, 2713.730
1141.564, 2644.568
1142.793, 2295.193
1144.022, 1738.893
1145.250, 1969.763
1146.479, 1509.267
1147.707, 1489.972
1148.934, 1275.232
1150.162, 958.068
1151.390, 1008.955
1152.617, 1156.989
1153.844, 937.828
1155.071, 912.221
1156.298, 833.562
1157.524, 804.507
1158.751, 857.924
1159.977, 699.200
1161.203, 601.140
1162.428, 947.366
1163.654, 559.971
1164.879, 851.452
1166.105, 679.320
1167.330, 690.436
1168.555, 742.599
1169.779, 678.899
1171.004, 720.084
1172.228, 915.387
1173.452, 539.578
1174.676, 960.829
1175.900, 739.688
1177.123, 801.050
1178.346, 832.605
1179.570, 894.256
1180.793, 775.629
1182.015, 927.021
1183.238, 871.082
1184.460, 952.504
1185.683, 1060.628
1186.905, 1042.693
1188.126, 1174.156
1189.348, 1241.485
1190.569, 1203.729
1191.791, 1376.814
1193.012, 1248.641
1194.233, 1450.364
1195.453, 1512.066
1196.674, 1214.284
1197.894, 1430.240
1199.114, 1481.795
1200.334, 1413.323
1201.554, 1495.088
1202.774, 1258.126
1203.993, 1449.666
1205.212, 1481.748
1206.431, 1204.309
1207.650, 1385.875
1208.869, 1178.229
1210.087, 1080.100
1211.305, 1251.673
1212.524, 933.455
1213.741, 1065.295
1214.959, 1046.864
1216.177, 700.146
1217.394, 931.716
1218.611, 813.678
1219.828, 755.431
1221.045, 606.992
1222.261, 548.696
1223.478, 581.750
1224.694, 443.313
1225.910, 345.713
1227.126, 398.554
1228.342, 282.752
1229.557, 368.729
1230.772, 282.346
1231.987, 96.743
1233.202, 198.572
1234.417, 301.262
1235.631, 26.752
1236.846, 204.822
1238.060, 96.585
1239.274, 130.333
1240.488, 191.874
1241.701, 83.422
1242.915, 115.018
1244.128, 66.580
1245.341, 28.651
1246.554, 140.227
1247.767, 42.112
1248.979, 44.717
1250.191, 96.303
1251.403, 137.839
1252.615, 104.498
1253.827, 160.898
1255.039, 92.433
1256.250, 113.119
1257.461, 35.589
1258.672, 67.232
1259.883, 88.679
1261.094, 29.968
1262.304, 103.808
1263.514, 175.151
1264.724, 183.576
1265.934, 77.960
1267.144, 159.100
1268.354, 37.245
1269.563, 73.882
1270.772, 14.950
1271.981, 146.658
1273.190, 207.660
1274.398, 11.150
1275.607, 100.358
1276.815, 11.166
1278.023, 48.035
1279.231, 22.666
1280.439, 196.648
1281.646, 74.303
1282.853, 105.116
1284.060, 204.360
1285.267, 43.879
1286.474, 16.483
1287.681, 77.148
1288.887, 31.750
1290.093, 38.504
1291.299, 121.263
1292.505, 109.108
1293.711, 50.757
1294.916, 10.665
1296.121, 79.393
1297.327, 90.573
1298.531, 110.379
1299.736, 29.678
1300.941, 30.228
1302.145, 110.094
1303.349, 10.068
1304.553, 49.701
1305.757, 19.389
1306.961, 50.979
1308.164, 8.586
1309.367, 48.113
1310.570, 232.408
1311.773, 297.277
1312.976, 26.617
1314.178, 44.084
1315.381, 265.146
1316.583, 25.656
1317.785, 6.515
1318.987, 162.576
1320.188, 78.372
1321.390, 150.585
1322.591, 109.504
1323.792, 98.382
1324.993, 267.082
1326.193, 335.733
1327.394, 4.342
1328.594, 272.892
1329.794, 58.600
1330.994, 69.837
1332.194, 288.228
1333.394, 43.421
1334.593, 64.849
1335.792, 33.074
1336.991, 111.249
1338.190, 139.379
1339.389, 147.450
1340.587, 75.477
1341.786, 16.545
1342.984, 191.370
1344.182, 279.240
1345.379, 147.067
1346.577, 44.844
1347.774, 262.568
1348.972, 100.247
1350.169, 67.878
1351.365, 215.459
1352.562, 82.998
1353.759, 140.494
1354.955, 238.032
1356.151, 165.448
1357.347, 152.826
1358.543, 270.164
1359.738, 47.464
1360.934, 284.724
1362.129, 131.947
1363.324, 179.139
1364.519, 326.297
1365.713, 193.429
1366.908, 60.532
1368.102, 259.161
1369.296, 96.210
1370.490, 73.236
1371.684, 30.242
1372.877, 2.771
1374.071, 46.853
1375.264, 27.100
1376.457, 167.478
1377.650, 84.512
1378.843, 140.518
1380.035, 230.641
1381.227, 191.211
1382.419, 51.742
1383.611, 372.246
1384.803, 272.713
1385.995, 253.141
1387.186, 413.535
1388.377, 163.893
1389.568, 344.219
1390.759, 204.512
1391.950, 123.578
1393.140, 323.770
1394.331, 311.875
1395.521, 289.432
1396.711, 349.168
1397.900, 318.955
1399.090, 257.637
1400.279, 323.082
1401.469, 227.158
1402.658, 466.590
1403.847, 265.059
1405.035, 43.846
1406.224, 258.869
1407.412, 276.840
1408.600, 167.330
1409.788, 396.684
1410.976, 139.314
1412.164, 238.508
1413.351, 283.213
1414.538, 113.262
1415.725, 408.750
1416.912, 153.943
1418.099, 93.238
1419.285, 445.195
1420.472, 208.594
1421.658, 225.168
1422.844, 421.705
1424.030, 128.943
1425.215, 152.193
1426.401, 508.311
1427.586, 176.297
1428.771, 349.410
1429.956, 115.199
1431.141, 60.363
1432.325, 369.707
1433.510, 365.693
1434.694, 139.523
1435.878, 423.158
1437.062, 187.949
1438.245, 303.480
1439.429, 288.631
1440.612, 41.514
1441.795, 416.625
1442.978, 542.031
1444.161, 284.689
1445.343, 468.658
1446.526, 396.623
1447.708, 209.266
1448.890, 388.020
1450.072, 239.547
1451.253, 303.533
1452.435, 473.283
1453.616, 87.227
1454.797, 299.922
1455.978, 462.742
1457.159, 313.682
1458.340, 506.844
1459.520, 399.752
1460.700, 302.164
1461.880, 604.439
1463.060, 411.352
1464.240, 504.016
1465.420, 555.959
1466.599, 245.711
1467.778, 285.846
1468.957, 397.111
1470.136, 457.555
1471.315, 509.805
1472.493, 547.182
1473.671, 362.482
1474.849, 554.578
1476.027, 383.193
1477.205, 325.223
1478.383, 296.412
1479.560, 318.092
1480.737, 436.062
1481.914, 437.219
1483.091, 248.201
1484.268, 379.369
1485.444, 490.758
1486.621, 102.068
1487.797, 421.920
1488.973, 132.973
1490.149, 373.891
1491.324, 244.662
1492.500, 195.514
1493.675, 446.959
1494.850, 359.197
1496.025, 41.520
1497.200, 383.895
1498.374, 266.381
1499.548, 129.010
1500.723, 421.850
1501.897, 154.980
1503.071, 148.338
1504.244, 412.000
1505.418, 186.072
1506.591, 270.643
1507.764, 375.715
1508.937, 19.791
1510.110, 226.230
1511.282, 392.936
1512.455, 110.459
1513.627, 368.947
1514.799, 357.242
1515.971, 36.742
1517.143, 268.715
1518.314, 0.506
1519.486, 0.000
##END=



