##NAMES=Amblygonite
##RRUFFID=R040006
##IDEAL CHEMISTRY=LiAlPO_4_F
##LOCALITY=Pala, San Diego County, California, USA
##OWNER=RRUFF
##SOURCE=University of Arizona Mineral Museum
##DESCRIPTION=Light gray coarsely crystalline massive
##STATUS=The identification of this mineral has been confirmed by X-ray diffraction and chemical analysis
##URL=rruff.info/R040006
##MEASURED CHEMISTRY=LiAl_1.00_(P_1.00_O_4_)(F_0.73_(OH)_0.27_)_Î£=1_; Li assumed by stoichiometry; OH estimated by charge balance
##PIN_ID=l00499
##ORIENTATION=Laser parallel to (1 0 1). Fiducial mark perpendicular to laser is parallel to -b [0 -1 0]
109.210, 0.000
110.603, 35.928
111.996, 72.192
113.388, 187.957
114.780, 217.527
116.172, 249.585
117.564, 331.373
118.956, 581.064
120.347, 685.698
121.738, 944.817
123.129, 1288.356
124.519, 1764.756
125.910, 2152.969
127.300, 2702.529
128.690, 3223.180
130.080, 3514.321
131.469, 3875.793
132.858, 3501.502
134.248, 3352.221
135.636, 2754.940
137.025, 2086.269
138.413, 1795.661
139.801, 1493.483
141.189, 1120.529
142.577, 767.344
143.964, 642.785
145.352, 539.671
146.739, 386.647
148.125, 345.596
149.512, 211.366
150.898, 268.986
152.284, 104.021
153.670, 131.156
155.056, 118.482
156.441, 131.649
157.827, 190.311
159.212, 347.945
160.596, 292.413
161.981, 381.076
163.365, 352.983
164.749, 504.646
166.133, 507.375
167.517, 570.640
168.900, 665.252
170.283, 712.327
171.666, 775.426
173.049, 752.602
174.431, 765.743
175.813, 707.591
177.195, 756.805
178.577, 741.395
179.959, 777.315
181.340, 796.504
182.721, 853.164
184.102, 908.630
185.483, 876.461
186.863, 769.954
188.244, 768.065
189.624, 641.304
191.003, 535.507
192.383, 499.729
193.762, 424.152
195.141, 381.800
196.520, 241.669
197.899, 156.752
199.277, 13.959
200.656, 24.473
202.034, 24.816
203.411, 130.010
204.789, 78.069
206.166, 29.013
207.543, 63.854
208.920, 88.606
210.297, 10.929
211.673, 82.898
213.049, 72.541
214.425, 79.023
215.801, 4.534
217.176, 116.055
218.552, 143.568
219.927, 116.067
221.302, 177.548
222.676, 124.007
224.051, 122.439
225.425, 121.837
226.799, 31.195
228.173, 134.507
229.546, 154.765
230.919, 51.966
232.292, 70.110
233.665, 18.801
235.038, 19.229
236.410, 35.813
237.782, 13.018
239.154, 16.442
240.526, 29.110
241.898, 1.981
243.269, 55.015
244.640, 46.869
246.011, 59.268
247.381, 9.633
248.752, 116.479
250.122, 46.634
251.492, 97.821
252.861, 26.051
254.231, 82.349
255.600, 63.704
256.969, 70.230
258.338, 8.455
259.707, 88.297
261.075, 94.988
262.443, 115.178
263.811, 80.380
265.179, 230.923
266.546, 470.414
267.914, 624.788
269.281, 620.124
270.647, 770.438
272.014, 942.740
273.380, 929.035
274.747, 985.887
276.113, 1153.501
277.478, 1121.506
278.844, 1230.023
280.209, 1299.033
281.574, 1377.433
282.939, 1556.252
284.304, 1585.043
285.668, 1803.448
287.032, 2122.282
288.396, 2511.147
289.760, 2939.738
291.123, 3528.337
292.487, 4306.396
293.850, 5494.240
295.212, 6551.798
296.575, 8609.458
297.937, 10546.731
299.300, 13013.827
300.662, 15220.738
302.023, 16777.467
303.385, 17354.025
304.746, 16590.424
306.107, 15746.660
307.468, 14022.733
308.829, 12628.648
310.189, 11674.398
311.549, 10619.986
312.909, 9645.417
314.269, 8610.695
315.629, 7815.835
316.988, 6910.831
318.347, 5965.665
319.706, 5290.190
321.065, 4654.882
322.423, 4168.127
323.781, 3741.582
325.139, 3374.758
326.497, 3157.808
327.855, 2890.717
329.212, 2713.529
330.569, 2466.251
331.926, 2258.879
333.283, 2181.403
334.639, 1893.836
335.995, 1826.136
337.351, 1768.283
338.707, 1620.278
340.063, 1552.126
341.418, 1523.838
342.773, 1405.401
344.128, 1266.758
345.483, 1357.936
346.837, 1278.931
348.192, 1289.798
349.546, 1290.547
350.899, 1251.254
352.253, 1265.067
353.606, 1222.609
354.960, 1283.269
356.313, 1293.916
357.665, 1354.323
359.018, 1384.546
360.370, 1324.198
361.722, 1493.314
363.074, 1628.125
364.426, 1602.303
365.777, 1699.631
367.128, 1594.503
368.479, 1725.764
369.830, 1650.541
371.181, 1633.189
372.531, 1724.342
373.881, 1650.127
375.231, 1645.159
376.581, 1554.011
377.930, 1488.437
379.280, 1393.262
380.629, 1316.705
381.977, 1230.266
383.326, 1123.940
384.674, 1104.571
386.023, 944.025
387.370, 1013.118
388.718, 843.593
390.066, 794.200
391.413, 802.935
392.760, 693.464
394.107, 631.666
395.454, 580.250
396.800, 467.812
398.146, 534.909
399.492, 399.031
400.838, 514.549
402.184, 459.694
403.529, 324.557
404.874, 441.729
406.219, 394.636
407.564, 382.479
408.908, 345.122
410.252, 372.312
411.596, 344.905
412.940, 328.154
414.284, 315.354
415.627, 289.610
416.970, 240.868
418.313, 223.051
419.656, 374.598
420.999, 561.681
422.341, 802.157
423.683, 1060.262
425.025, 1388.600
426.367, 1436.620
427.708, 1375.484
429.049, 1285.228
430.390, 974.988
431.731, 714.747
433.072, 574.498
434.412, 414.267
435.752, 334.035
437.092, 353.769
438.432, 343.467
439.772, 233.137
441.111, 142.760
442.450, 302.332
443.789, 201.865
445.127, 201.360
446.466, 280.809
447.804, 160.234
449.142, 129.624
450.480, 168.968
451.817, 138.268
453.155, 237.532
454.492, 256.785
455.829, 355.992
457.166, 235.154
458.502, 294.307
459.838, 303.413
461.175, 412.478
462.510, 321.501
463.846, 400.481
465.181, 439.421
466.517, 608.324
467.852, 557.188
469.186, 736.011
470.521, 874.796
471.855, 973.544
473.190, 1122.253
474.523, 1250.926
475.857, 1389.561
477.191, 1558.160
478.524, 1696.723
479.857, 1878.491
481.190, 2233.745
482.523, 2192.207
483.855, 2380.638
485.187, 2429.039
486.519, 2277.410
487.851, 2555.755
489.183, 2364.072
490.514, 2272.359
491.845, 2390.622
493.176, 2178.857
494.507, 2217.065
495.837, 2245.248
497.168, 2013.404
498.498, 1851.535
499.828, 1809.642
501.157, 1677.725
502.487, 1435.781
503.816, 1363.817
505.145, 1331.830
506.474, 1039.821
507.802, 1087.791
509.131, 835.740
510.459, 753.670
511.787, 661.578
513.115, 529.467
514.442, 469.465
515.770, 435.184
517.097, 323.010
518.424, 303.488
519.750, 238.606
521.077, 226.379
522.403, 264.138
523.729, 301.899
525.055, 240.779
526.381, 137.446
527.706, 145.253
529.031, 43.419
530.356, 31.479
531.681, 19.312
533.006, 77.162
534.330, 64.992
535.654, 42.837
536.978, 30.929
538.302, 61.231
539.625, 73.144
540.949, 71.671
542.272, 77.426
543.595, 19.771
544.917, 7.854
546.240, 75.455
547.562, 26.963
548.884, 49.414
550.206, 168.125
551.527, 24.352
552.849, 63.152
554.170, 30.648
555.491, 41.872
556.812, 135.603
558.132, 73.067
559.453, 80.493
560.773, 117.954
562.093, 5.413
563.412, 17.198
564.732, 80.240
566.051, 98.002
567.370, 85.634
568.689, 23.854
570.008, 61.598
571.326, 89.661
572.644, 47.473
573.963, 215.571
575.280, 83.130
576.598, 158.376
577.915, 235.647
579.233, 81.995
580.550, 299.600
581.866, 187.640
583.183, 179.926
584.499, 190.662
585.815, 252.359
587.131, 325.008
588.447, 408.604
589.763, 418.676
591.078, 516.708
592.393, 540.491
593.708, 670.843
595.022, 778.526
596.337, 1087.447
597.651, 1378.152
598.965, 1675.585
600.279, 2132.484
601.593, 2661.006
602.906, 2930.791
604.219, 2818.231
605.532, 2760.922
606.845, 2544.982
608.158, 2408.577
609.470, 1977.017
610.782, 1806.772
612.094, 1781.699
613.406, 1688.676
614.718, 1885.968
616.029, 1880.623
617.340, 2057.569
618.651, 2104.541
619.962, 2411.504
621.272, 2788.369
622.582, 3065.232
623.892, 3532.884
625.202, 4139.771
626.512, 4816.529
627.821, 5973.261
629.131, 6890.125
630.440, 8226.804
631.749, 9163.455
633.057, 9480.080
634.366, 9666.679
635.674, 9223.251
636.982, 8899.798
638.290, 8696.315
639.597, 9072.812
640.905, 10319.279
642.212, 12345.721
643.519, 14922.135
644.825, 18248.523
646.132, 20014.889
647.438, 20411.221
648.744, 18227.535
650.050, 14913.821
651.356, 11850.082
652.662, 8776.315
653.967, 7032.525
655.272, 5078.707
656.577, 4274.863
657.882, 3260.995
659.186, 2757.100
660.490, 2303.181
661.794, 1979.234
663.098, 1525.262
664.402, 1441.264
665.705, 1077.241
667.009, 1093.193
668.312, 899.119
669.614, 925.021
670.917, 760.896
672.219, 646.744
673.522, 642.568
674.824, 548.367
676.125, 584.142
677.427, 489.864
678.728, 355.515
680.030, 441.213
681.331, 436.885
682.631, 242.530
683.932, 367.726
685.232, 142.931
686.532, 167.684
687.832, 232.365
689.132, 266.970
690.432, 281.797
691.731, 282.840
693.030, 147.478
694.329, 202.041
695.628, 137.342
696.926, 277.759
698.224, 136.324
699.522, 301.817
700.820, 245.422
702.118, 229.712
703.415, 244.301
704.713, 377.461
706.010, 416.146
707.307, 441.059
708.603, 357.326
709.900, 473.476
711.196, 452.687
712.492, 524.249
713.788, 538.916
715.083, 313.299
716.379, 407.692
717.674, 282.219
718.969, 146.215
720.264, 339.593
721.558, 125.666
722.853, 150.017
724.147, 54.293
725.441, 118.277
726.735, 62.396
728.028, 76.601
729.322, 57.734
730.615, 117.313
731.908, 78.591
733.201, 135.698
734.493, 89.800
735.785, 166.220
737.078, 70.593
738.370, 22.743
739.661, 1.345
740.953, 14.586
742.244, 30.432
743.535, 46.350
744.826, 15.458
746.117, 70.236
747.407, 45.844
748.698, 9.948
749.988, 103.734
751.278, 37.490
752.567, 1.206
753.857, 74.866
755.146, 98.814
756.435, 42.422
757.724, 5.990
759.013, 59.509
760.301, 37.002
761.590, 3.587
762.878, 39.948
764.165, 23.277
765.453, 3.433
766.741, 80.196
768.028, 129.136
769.315, 82.255
770.602, 74.650
771.888, 158.353
773.175, 131.366
774.461, 124.322
775.747, 167.255
777.033, 130.165
778.319, 43.052
779.604, 105.908
780.889, 138.741
782.174, 171.553
783.459, 84.344
784.744, 297.110
786.028, 159.856
787.312, 262.582
788.596, 285.286
789.880, 397.971
791.164, 360.636
792.447, 483.278
793.730, 575.902
795.013, 598.508
796.296, 481.093
797.579, 703.658
798.861, 956.204
800.143, 788.731
801.425, 811.241
802.707, 1053.731
803.989, 976.203
805.270, 1018.658
806.551, 1071.096
807.832, 1043.516
809.113, 1082.978
810.394, 1108.304
811.674, 1100.673
812.954, 1053.025
814.234, 1045.362
815.514, 1037.941
816.794, 1008.105
818.073, 1032.274
819.352, 954.546
820.631, 936.805
821.910, 877.849
823.189, 751.277
824.467, 663.492
825.745, 595.692
827.023, 537.881
828.301, 600.054
829.578, 422.215
830.856, 504.362
832.133, 436.497
833.410, 388.620
834.687, 330.730
835.963, 162.829
837.240, 304.916
838.516, 126.994
839.792, 148.720
841.068, 150.548
842.343, 122.601
843.618, 44.648
844.894, 116.688
846.169, 178.737
847.443, 130.500
848.718, 67.511
849.992, 94.182
851.266, 133.795
852.540, 92.143
853.814, 79.789
855.088, 51.721
856.361, 153.650
857.634, 25.576
858.907, 122.496
860.180, 99.380
861.453, 58.749
862.725, 36.902
863.997, 14.922
865.269, 83.254
866.541, 68.538
867.812, 40.329
869.084, 12.118
870.355, 83.906
871.626, 105.692
872.897, 127.251
874.167, 40.957
875.438, 90.510
876.708, 12.084
877.978, 52.948
879.248, 34.405
880.517, 15.490
881.787, 176.788
883.056, 52.201
884.325, 99.254
885.594, 32.865
886.862, 144.417
888.130, 62.640
889.399, 49.028
890.667, 69.718
891.934, 27.263
893.202, 115.780
894.469, 33.325
895.737, 159.902
897.004, 184.488
898.270, 35.407
899.537, 115.691
900.803, 68.982
902.070, 239.750
903.336, 41.134
904.601, 41.260
905.867, 189.586
907.132, 19.123
908.398, 142.306
909.663, 42.763
910.928, 141.529
912.192, 142.627
913.457, 68.794
914.721, 12.893
915.985, 87.684
917.249, 237.601
918.512, 116.063
919.776, 180.239
921.039, 141.451
922.302, 22.971
923.565, 256.875
924.827, 1.284
926.090, 120.519
927.352, 41.800
928.614, 195.218
929.876, 288.397
931.138, 323.801
932.399, 132.247
933.660, 240.964
934.922, 122.938
936.182, 334.772
937.443, 176.785
938.704, 318.817
939.964, 150.869
941.224, 332.939
942.484, 285.030
943.744, 247.141
945.003, 279.272
946.262, 341.424
947.521, 463.595
948.780, 405.789
950.039, 358.004
951.298, 680.239
952.556, 342.497
953.814, 564.775
955.072, 407.078
956.330, 549.401
957.587, 611.748
958.845, 494.123
960.102, 556.521
961.359, 618.942
962.615, 531.388
963.872, 763.857
965.128, 486.351
966.384, 698.867
967.640, 741.408
968.896, 863.976
970.152, 986.567
971.407, 1040.282
972.662, 1171.945
973.917, 1214.673
975.172, 1157.427
976.427, 1300.206
977.681, 1463.012
978.935, 1505.844
980.189, 1918.702
981.443, 1991.600
982.697, 2234.523
983.950, 2387.477
985.203, 2480.455
986.456, 3293.461
987.709, 3226.498
988.962, 3889.559
990.214, 4532.650
991.467, 5035.781
992.719, 6238.939
993.971, 6922.131
995.222, 8435.363
996.474, 9588.625
997.725, 10881.922
998.976, 13095.273
1000.227, 14184.551
1001.478, 16177.975
1002.728, 18863.365
1003.978, 21221.471
1005.229, 23875.066
1006.479, 25798.693
1007.728, 28082.377
1008.978, 30276.096
1010.227, 30562.883
1011.476, 31566.682
1012.725, 30477.488
1013.974, 28499.459
1015.223, 27233.369
1016.471, 23923.051
1017.719, 21807.029
1018.967, 18911.115
1020.215, 16465.234
1021.462, 14819.396
1022.710, 12573.621
1023.957, 10837.871
1025.204, 10070.418
1026.451, 8544.768
1027.697, 7809.152
1028.944, 7003.646
1030.190, 6508.174
1031.436, 6252.738
1032.682, 5967.342
1033.928, 5929.922
1035.173, 6034.645
1036.418, 5909.443
1037.663, 6294.277
1038.908, 6387.000
1040.153, 6731.965
1041.398, 7194.502
1042.642, 7419.559
1043.886, 7904.660
1045.130, 8339.852
1046.374, 8385.102
1047.617, 8822.605
1048.860, 9137.148
1050.104, 9522.559
1051.347, 9866.086
1052.589, 10311.621
1053.832, 11277.193
1055.074, 11952.809
1056.316, 12838.477
1057.558, 14663.863
1058.800, 15959.602
1060.042, 17265.406
1061.283, 19331.254
1062.524, 19837.162
1063.765, 20563.125
1065.006, 19138.963
1066.247, 16925.021
1067.487, 15081.117
1068.728, 12087.262
1069.968, 10077.289
1071.208, 8403.535
1072.447, 6789.820
1073.687, 5636.172
1074.926, 4632.521
1076.165, 3768.941
1077.404, 3575.393
1078.643, 2851.877
1079.881, 2668.393
1081.120, 2434.953
1082.358, 1991.568
1083.596, 1978.250
1084.834, 1664.980
1086.071, 1461.910
1087.309, 1388.729
1088.546, 1295.578
1089.783, 1182.320
1091.020, 1049.375
1092.256, 1046.328
1093.493, 1123.307
1094.729, 1130.314
1095.965, 997.355
1097.201, 1124.426
1098.436, 1061.531
1099.672, 1228.670
1100.907, 1305.844
1102.142, 1113.045
1103.377, 1520.281
1104.612, 1447.549
1105.846, 1674.848
1107.081, 1903.242
1108.315, 2030.600
1109.549, 2127.986
1110.782, 2375.404
1112.016, 2412.852
1113.249, 2770.328
1114.483, 2737.832
1115.716, 2735.469
1116.948, 2983.033
1118.181, 2920.625
1119.413, 2982.236
1120.646, 3239.885
1121.878, 3207.559
1123.110, 3555.496
1124.341, 3333.234
1125.573, 3121.002
1126.804, 2938.805
1128.035, 2496.631
1129.266, 2877.188
1130.497, 2285.064
1131.727, 2383.041
1132.957, 2310.967
1134.188, 2118.992
1135.418, 2017.062
1136.647, 1945.057
1137.877, 1473.074
1139.106, 1702.984
1140.335, 1271.363
1141.564, 1310.086
1142.793, 1100.115
1144.022, 799.449
1145.250, 977.920
1146.479, 692.471
1147.707, 730.654
1148.934, 691.355
1150.162, 332.949
1151.390, 332.963
1152.617, 535.195
1153.844, 363.549
1155.071, 436.285
1156.298, 376.795
1157.524, 405.238
1158.751, 347.605
1159.977, 226.070
1161.203, 115.197
1162.428, 447.199
1163.654, 16.139
1164.879, 414.922
1166.105, 231.641
1167.330, 230.219
1168.555, 211.852
1169.779, 216.305
1171.004, 244.912
1172.228, 329.982
1173.452, 301.584
1174.676, 537.533
1175.900, 373.607
1177.123, 172.264
1178.346, 331.338
1179.570, 300.469
1180.793, 229.145
1182.015, 289.340
1183.238, 339.992
1184.460, 218.689
1185.683, 253.000
1186.905, 192.008
1188.126, 441.045
1189.348, 290.438
1190.569, 369.168
1191.791, 465.242
1193.012, 204.982
1194.233, 424.918
1195.453, 395.541
1196.674, 424.518
1197.894, 487.408
1199.114, 406.984
1200.334, 395.756
1201.554, 444.795
1202.774, 204.723
1203.993, 583.600
1205.212, 272.543
1206.431, 166.795
1207.650, 495.545
1208.869, 398.674
1210.087, 227.703
1211.305, 396.436
1212.524, 135.160
1213.741, 304.309
1214.959, 303.023
1216.177, 132.100
1217.394, 320.975
1218.611, 360.176
1219.828, 268.887
1221.045, 207.711
1222.261, 146.514
1223.478, 155.205
1224.694, 273.887
1225.910, 162.799
1227.126, 103.068
1228.342, 246.920
1229.557, 193.018
1230.772, 245.916
1231.987, 10.768
1233.202, 298.445
1234.417, 277.174
1235.631, 5.980
1236.846, 224.715
1238.060, 3.455
1239.274, 262.211
1240.488, 120.951
1241.701, 189.693
1242.915, 218.436
1244.128, 107.184
1245.341, 37.357
1246.554, 126.037
1247.767, 64.713
1248.979, 114.139
1250.191, 122.799
1251.403, 131.477
1252.615, 29.865
1253.827, 148.785
1255.039, 37.418
1256.250, 136.045
1257.461, 224.646
1258.672, 173.209
1259.883, 171.750
1261.094, 20.254
1262.304, 308.830
1263.514, 247.203
1264.724, 224.322
1265.934, 294.109
1267.144, 122.346
1268.354, 13.410
1269.563, 221.494
1270.772, 129.742
1271.981, 200.191
1273.190, 108.049
1274.398, 33.676
1275.607, 114.139
1276.815, 71.844
1278.023, 129.492
1279.231, 77.357
1280.439, 74.965
1281.646, 142.488
1282.853, 171.152
1284.060, 11.416
1285.267, 35.980
1286.474, 13.346
1287.681, 9.094
1288.887, 3.334
1290.093, 45.393
1291.299, 77.088
1292.505, 150.031
1293.711, 12.881
1294.916, 25.834
1296.121, 1.172
1297.327, 191.857
1298.531, 195.012
1299.736, 38.260
1300.941, 1.664
1302.145, 134.883
1303.349, 28.605
1304.553, 147.852
1305.757, 44.273
1306.961, 19.350
1308.164, 66.955
1309.367, 103.213
1310.570, 250.578
1311.773, 445.512
1312.976, 8.443
1314.178, 52.459
1315.381, 223.451
1316.583, 60.684
1317.785, 135.102
1318.987, 140.803
1320.188, 233.545
1321.390, 291.955
1322.591, 87.402
1323.792, 82.803
1324.993, 198.152
1326.193, 136.561
1327.394, 18.635
1328.594, 313.768
1329.794, 41.146
1330.994, 113.865
1332.194, 108.830
1333.394, 73.742
1334.593, 218.605
1335.792, 66.576
1336.991, 55.986
1338.190, 47.949
1339.389, 27.502
1340.587, 142.094
1341.786, 13.359
1342.984, 71.125
1344.182, 195.562
1345.379, 129.959
1346.577, 54.316
1347.774, 168.633
1348.972, 152.914
1350.169, 32.840
1351.365, 231.354
1352.562, 14.486
1353.759, 129.631
1354.955, 263.721
1356.151, 267.791
1357.347, 111.846
1358.543, 255.887
1359.738, 119.922
1360.934, 167.168
1362.129, 108.000
1363.324, 222.062
1364.519, 176.373
1365.713, 180.523
1366.908, 304.676
1368.102, 308.885
1369.296, 156.742
1370.490, 54.533
1371.684, 17.803
1372.877, 52.375
1374.071, 0.037
1375.264, 5.348
1376.457, 132.127
1377.650, 259.570
1378.843, 216.969
1380.035, 334.332
1381.227, 361.650
1382.419, 237.748
1383.611, 504.984
1384.803, 302.186
1385.995, 289.350
1387.186, 436.357
1388.377, 77.133
1389.568, 394.023
1390.759, 310.580
1391.950, 127.352
1393.140, 420.791
1394.331, 247.352
1395.521, 383.871
1396.711, 380.332
1397.900, 394.508
1399.090, 529.770
1400.279, 522.162
1401.469, 259.766
1402.658, 402.732
1403.847, 302.129
1405.035, 199.436
1406.224, 436.389
1407.412, 196.605
1408.600, 191.303
1409.788, 561.330
1410.976, 10.490
1412.164, 301.197
1413.351, 147.648
1414.538, 12.748
1415.725, 461.107
1416.912, 84.854
1418.099, 168.471
1419.285, 421.721
1420.472, 206.812
1421.658, 89.633
1422.844, 442.311
1424.030, 162.244
1425.215, 10.596
1426.401, 506.600
1427.586, 168.420
1428.771, 449.047
1429.956, 71.561
1431.141, 44.672
1432.325, 498.930
1433.510, 151.533
1434.694, 193.273
1435.878, 384.754
1437.062, 196.203
1438.245, 418.057
1439.429, 310.264
1440.612, 138.621
1441.795, 284.316
1442.978, 316.812
1444.161, 186.236
1445.343, 246.256
1446.526, 236.113
1447.708, 295.730
1448.890, 355.033
1450.072, 270.791
1451.253, 407.900
1452.435, 536.461
1453.616, 470.314
1454.797, 422.668
1455.978, 470.451
1457.159, 328.107
1458.340, 415.566
1459.520, 462.480
1460.700, 391.803
1461.880, 528.961
1463.060, 457.818
1464.240, 526.143
1465.420, 474.395
1466.599, 291.713
1467.778, 435.988
1468.957, 354.123
1470.136, 281.246
1471.315, 527.898
1472.493, 385.734
1473.671, 443.305
1474.849, 460.566
1476.027, 418.084
1477.205, 336.537
1478.383, 314.873
1479.560, 253.096
1480.737, 301.648
1481.914, 334.680
1483.091, 347.539
1484.268, 341.346
1485.444, 259.152
1486.621, 276.018
1487.797, 253.801
1488.973, 213.932
1490.149, 244.215
1491.324, 284.885
1492.500, 245.953
1493.675, 497.484
1494.850, 409.482
1496.025, 52.064
1497.200, 445.387
1498.374, 239.586
1499.548, 4.746
1500.723, 501.049
1501.897, 118.734
1503.071, 108.164
1504.244, 409.820
1505.418, 5.607
1506.591, 442.998
1507.764, 450.137
1508.937, 0.000
##END=



