##NAMES=Amblygonite
##RRUFFID=R040006
##IDEAL CHEMISTRY=LiAlPO_4_F
##LOCALITY=Pala, San Diego County, California, USA
##OWNER=RRUFF
##SOURCE=University of Arizona Mineral Museum
##DESCRIPTION=Light gray coarsely crystalline massive
##STATUS=The identification of this mineral has been confirmed by X-ray diffraction and chemical analysis
##URL=rruff.info/R040006
##MEASURED CHEMISTRY=LiAl_1.00_(P_1.00_O_4_)(F_0.73_(OH)_0.27_)_Î£=1_; Li assumed by stoichiometry; OH estimated by charge balance
##PIN_ID=l00204
##ORIENTATION=Laser parallel to b* (0 1 0). Fiducial mark perpendicular to laser is parallel to c [0 0 1]
110.603, 0.000
111.996, 37.063
113.388, 65.784
114.780, 210.393
116.172, 247.429
117.564, 307.643
118.956, 476.063
120.347, 553.066
121.738, 626.306
123.129, 882.776
124.519, 1128.072
125.910, 1285.024
127.300, 1484.868
128.690, 1516.752
130.080, 1561.210
131.469, 1427.046
132.858, 1249.844
134.248, 1066.801
135.636, 796.042
137.025, 606.217
138.413, 495.195
139.801, 382.655
141.189, 220.558
142.577, 215.874
143.964, 102.576
145.352, 136.639
146.739, 38.042
148.125, 19.767
149.512, 43.203
150.898, 38.661
152.284, 16.714
153.670, 12.432
155.056, 11.342
156.441, 19.032
157.827, 21.951
159.212, 19.802
160.596, 19.905
161.981, 12.833
163.365, 21.597
164.749, 22.793
166.133, 114.333
167.517, 134.014
168.900, 107.833
170.283, 175.784
171.666, 182.865
173.049, 228.071
174.431, 250.418
175.813, 281.425
177.195, 316.503
178.577, 338.215
179.959, 314.041
181.340, 315.982
182.721, 370.042
184.102, 350.219
185.483, 375.513
186.863, 397.920
188.244, 367.438
189.624, 400.062
191.003, 385.790
192.383, 357.617
193.762, 302.515
195.141, 311.420
196.520, 233.350
197.899, 133.314
199.277, 104.318
200.656, 74.364
202.034, 43.588
203.411, 93.588
204.789, 63.766
206.166, 80.986
207.543, 169.248
208.920, 94.553
210.297, 125.903
211.673, 141.300
213.049, 212.730
214.425, 167.172
215.801, 213.652
217.176, 299.163
218.552, 268.705
219.927, 254.283
221.302, 243.907
222.676, 256.583
224.051, 216.312
225.425, 320.090
226.799, 219.920
228.173, 388.800
229.546, 200.730
230.919, 252.710
232.292, 284.738
233.665, 240.816
235.038, 237.941
236.410, 193.542
237.782, 182.433
239.154, 188.167
240.526, 182.462
241.898, 132.805
243.269, 121.203
244.640, 142.667
246.011, 94.251
247.381, 150.934
248.752, 139.688
250.122, 120.557
251.492, 98.559
252.861, 113.659
254.231, 154.812
255.600, 107.045
256.969, 177.380
258.338, 263.764
259.707, 280.179
261.075, 377.629
262.443, 452.108
263.811, 484.624
265.179, 646.174
266.546, 772.753
267.914, 794.359
269.281, 974.993
270.647, 1085.654
272.014, 1164.342
273.380, 1145.058
274.747, 1150.800
276.113, 1075.705
277.478, 1036.099
278.844, 1070.787
280.209, 1024.683
281.574, 1083.623
282.939, 1132.282
284.304, 1238.191
285.668, 1346.558
287.032, 1515.990
288.396, 1779.479
289.760, 2091.020
291.123, 2590.612
292.487, 3266.260
293.850, 4298.961
295.212, 5643.197
296.575, 7083.333
297.937, 9287.044
299.300, 11800.763
300.662, 14564.505
302.023, 16768.273
303.385, 17832.098
304.746, 17075.977
306.107, 15499.915
307.468, 13193.900
308.829, 10917.938
310.189, 9242.023
311.549, 7596.158
312.909, 6560.335
314.269, 5782.684
315.629, 5045.312
316.988, 4587.619
318.347, 3758.448
319.706, 3283.387
321.065, 2711.109
322.423, 2170.790
323.781, 1811.618
325.139, 1336.507
326.497, 1226.691
327.855, 984.637
329.212, 878.272
330.569, 780.940
331.926, 713.640
333.283, 597.371
334.639, 531.133
335.995, 488.924
337.351, 513.745
338.707, 378.595
340.063, 412.473
341.418, 356.378
342.773, 296.310
344.128, 253.269
345.483, 228.253
346.837, 180.940
348.192, 158.490
349.546, 115.355
350.899, 118.438
352.253, 100.542
353.606, 99.669
354.960, 51.819
356.313, 54.654
357.665, 26.182
359.018, 39.395
360.370, 26.371
361.722, 35.511
363.074, 40.153
364.426, 28.556
365.777, 27.754
367.128, 56.083
368.479, 66.432
369.830, 68.799
371.181, 3.329
372.531, 46.735
373.881, 10.778
375.231, 103.220
376.581, 71.787
377.930, 83.036
379.280, 68.036
380.629, 92.435
381.977, 121.438
383.326, 135.484
384.674, 136.046
386.023, 168.246
387.370, 159.175
388.718, 205.526
390.066, 224.430
391.413, 226.736
392.760, 246.223
394.107, 244.915
395.454, 282.455
396.800, 271.483
398.146, 328.229
399.492, 451.975
400.838, 530.901
402.184, 413.450
403.529, 568.248
404.874, 609.066
406.219, 665.210
407.564, 799.433
408.908, 880.288
410.252, 1187.173
411.596, 1259.067
412.940, 1645.972
414.284, 2071.420
415.627, 2762.356
416.970, 3676.312
418.313, 5100.277
419.656, 7416.245
420.999, 10562.246
422.341, 15038.250
423.683, 20684.270
425.025, 24910.324
426.367, 26616.377
427.708, 23522.432
429.049, 18858.512
430.390, 13514.623
431.731, 9590.751
433.072, 6696.893
434.412, 4733.045
435.752, 3438.202
437.092, 2651.364
438.432, 2079.549
439.772, 1631.758
441.111, 1247.980
442.450, 1161.219
443.789, 943.472
445.127, 796.749
446.466, 735.036
447.804, 553.333
449.142, 596.640
450.480, 567.969
451.817, 522.306
453.155, 567.669
454.492, 539.059
455.829, 689.455
457.166, 768.272
458.502, 873.287
459.838, 1049.716
461.175, 1159.167
462.510, 1326.633
463.846, 1312.103
465.181, 1308.591
466.517, 1209.083
467.852, 1214.581
469.186, 1240.081
470.521, 1452.584
471.855, 1654.090
473.190, 1930.597
474.523, 2254.107
475.857, 2580.626
477.191, 2946.154
478.524, 3448.682
479.857, 3888.212
481.190, 4264.746
482.523, 4523.282
483.855, 4749.822
485.187, 4866.365
486.519, 4862.909
487.851, 4949.454
489.183, 4725.999
490.514, 4502.544
491.845, 4699.087
493.176, 4331.626
494.507, 4076.163
495.837, 4006.696
497.168, 3636.227
498.498, 3376.754
499.828, 3244.277
501.157, 2790.797
502.487, 2479.312
503.816, 2175.823
505.145, 2103.328
506.474, 1720.829
507.802, 1539.325
509.131, 1251.814
510.459, 1165.299
511.787, 936.777
513.115, 800.250
514.442, 715.715
515.770, 658.174
517.097, 496.625
518.424, 455.071
519.750, 352.508
521.077, 173.609
522.403, 247.509
523.729, 213.923
525.055, 56.953
526.381, 42.351
527.706, 24.740
529.031, 72.119
530.356, 15.490
531.681, 27.849
533.006, 13.801
534.330, 58.524
535.654, 20.160
536.978, 77.874
538.302, 8.352
539.625, 62.439
540.949, 10.716
542.272, 23.135
543.595, 41.970
544.917, 78.634
546.240, 27.564
547.562, 56.206
548.884, 80.149
550.206, 22.062
551.527, 9.666
552.849, 59.870
554.170, 21.905
555.491, 28.977
556.812, 68.417
558.132, 70.856
559.453, 8.737
560.773, 17.904
562.093, 56.512
563.412, 64.238
564.732, 36.217
566.051, 34.783
567.370, 71.546
568.689, 149.918
570.008, 90.537
571.326, 130.855
572.644, 10.412
573.963, 91.023
575.280, 94.206
576.598, 157.016
577.915, 156.491
579.233, 191.869
580.550, 213.608
581.866, 246.647
583.183, 255.961
584.499, 293.336
585.815, 223.649
587.131, 284.128
588.447, 277.027
589.763, 376.121
591.078, 375.811
592.393, 424.013
593.708, 455.348
595.022, 474.654
596.337, 607.007
597.651, 585.834
598.965, 779.336
600.279, 867.412
601.593, 1017.621
602.906, 1134.222
604.219, 1123.221
605.532, 1189.940
606.845, 1015.435
608.158, 967.889
609.470, 965.920
610.782, 925.219
612.094, 955.068
613.406, 960.103
614.718, 920.933
616.029, 1084.301
617.340, 1169.065
618.651, 1162.735
619.962, 1205.266
621.272, 1418.048
622.582, 1507.763
623.892, 1669.613
625.202, 1838.354
626.512, 2135.940
627.821, 2347.598
629.131, 2633.204
630.440, 3069.713
631.749, 3595.194
633.057, 4094.650
634.366, 4909.081
635.674, 5833.483
636.982, 7177.860
638.290, 9272.210
639.597, 12567.333
640.905, 15950.828
642.212, 21455.098
643.519, 27619.344
644.825, 34323.555
646.132, 37747.742
647.438, 37071.898
648.744, 32496.037
650.050, 26120.139
651.356, 20094.217
652.662, 14738.269
653.967, 11532.291
655.272, 8496.289
656.577, 6790.256
657.882, 5434.195
659.186, 4418.109
660.490, 3624.993
661.794, 2992.851
663.098, 2474.679
664.402, 2295.481
665.705, 1899.255
667.009, 1703.001
668.312, 1436.719
669.614, 1373.409
670.917, 1161.070
672.219, 1018.705
673.522, 935.311
674.824, 793.889
676.125, 720.196
677.427, 595.961
678.728, 599.458
680.030, 598.929
681.331, 604.371
682.631, 509.787
683.932, 492.175
685.232, 447.536
686.532, 432.869
687.832, 324.031
689.132, 297.308
690.432, 289.238
691.731, 308.459
693.030, 266.546
694.329, 222.940
695.628, 214.575
696.926, 224.800
698.224, 171.411
699.522, 245.969
700.820, 116.000
702.118, 154.942
703.415, 49.024
704.713, 129.959
706.010, 110.542
707.307, 4.920
708.603, 41.175
709.900, 14.417
711.196, 112.491
712.492, 65.941
713.788, 144.632
715.083, 6.307
716.379, 42.489
717.674, 143.314
718.969, 10.877
720.264, 71.398
721.558, 39.578
722.853, 85.661
724.147, 34.792
725.441, 102.577
726.735, 43.922
728.028, 23.765
729.322, 86.973
730.615, 3.797
731.908, 62.386
733.201, 102.542
734.493, 54.325
735.785, 50.734
737.078, 5.234
738.370, 42.249
739.661, 99.672
740.953, 26.569
742.244, 0.434
743.535, 86.742
744.826, 27.007
746.117, 11.673
747.407, 1.317
748.698, 68.922
749.988, 16.504
751.278, 14.053
752.567, 12.430
753.857, 41.042
755.146, 16.489
756.435, 11.905
757.724, 28.710
759.013, 98.622
760.301, 19.934
761.590, 26.219
762.878, 30.521
764.165, 57.689
765.453, 46.123
766.741, 55.993
768.028, 41.074
769.315, 6.120
770.602, 19.863
771.888, 77.112
773.175, 42.932
774.461, 10.028
775.747, 47.839
777.033, 31.312
778.319, 24.491
779.604, 33.275
780.889, 93.040
782.174, 36.787
783.459, 40.517
784.744, 133.229
786.028, 81.924
787.312, 134.603
788.596, 60.265
789.880, 55.912
791.164, 63.542
792.447, 85.157
793.730, 92.154
795.013, 185.340
796.296, 146.909
797.579, 172.463
798.861, 249.002
800.143, 200.527
801.425, 230.038
802.707, 322.534
803.989, 359.016
805.270, 357.485
806.551, 315.940
807.832, 339.383
809.113, 301.813
810.394, 343.230
811.674, 386.634
812.954, 371.026
814.234, 363.406
815.514, 424.774
816.794, 298.130
818.073, 291.476
819.352, 364.810
820.631, 355.132
821.910, 251.444
823.189, 270.745
824.467, 236.037
825.745, 166.318
827.023, 191.588
828.301, 206.850
829.578, 161.102
830.856, 200.345
832.133, 103.579
833.410, 99.804
834.687, 97.020
835.963, 54.229
837.240, 104.430
838.516, 42.622
839.792, 107.808
841.068, 38.986
842.343, 69.159
843.618, 15.675
844.894, 10.489
846.169, 57.647
847.443, 93.809
848.718, 94.995
849.992, 68.178
851.266, 86.587
852.540, 76.153
853.814, 92.787
855.088, 39.692
856.361, 57.883
857.634, 33.245
858.907, 65.104
860.180, 11.046
861.453, 48.636
862.725, 24.499
863.997, 10.908
865.269, 1.786
866.541, 37.864
867.812, 31.165
869.084, 34.959
870.355, 30.369
871.626, 66.711
872.897, 96.922
874.167, 2.867
875.438, 51.206
876.708, 9.663
877.978, 82.843
879.248, 63.089
880.517, 5.620
881.787, 171.899
883.056, 13.102
884.325, 68.720
885.594, 79.695
886.862, 103.992
888.130, 98.533
889.399, 111.483
890.667, 100.911
891.934, 115.476
893.202, 86.806
894.469, 81.185
895.737, 107.383
897.004, 7.151
898.270, 209.711
899.537, 137.662
900.803, 98.087
902.070, 237.368
903.336, 126.665
904.601, 113.904
905.867, 166.655
907.132, 154.720
908.398, 97.198
909.663, 135.532
910.928, 176.462
912.192, 152.981
913.457, 48.769
914.721, 139.770
915.985, 101.799
917.249, 143.240
918.512, 127.401
919.776, 59.000
921.039, 133.403
922.302, 188.999
923.565, 160.045
924.827, 97.685
926.090, 197.406
927.352, 121.258
928.614, 143.846
929.876, 78.490
931.138, 95.344
932.399, 93.583
933.660, 178.324
934.922, 172.983
936.182, 208.876
937.443, 241.855
938.704, 269.276
939.964, 242.097
941.224, 288.934
942.484, 192.786
943.744, 280.656
945.003, 164.543
946.262, 331.445
947.521, 338.365
948.780, 332.303
950.039, 416.258
951.298, 430.229
952.556, 381.219
953.814, 493.248
955.072, 444.296
956.330, 571.361
957.587, 538.445
958.845, 563.547
960.102, 542.668
961.359, 668.808
962.615, 741.965
963.872, 792.142
965.128, 701.338
966.384, 897.553
967.640, 784.787
968.896, 931.042
970.152, 1040.315
971.407, 945.608
972.662, 1249.922
973.917, 1279.254
975.172, 1284.607
976.427, 1368.980
977.681, 1493.384
978.935, 1658.808
980.189, 1810.253
981.443, 1861.718
982.697, 2113.205
983.950, 2394.733
985.203, 2486.283
986.456, 3007.854
987.709, 3189.461
988.962, 3751.093
990.214, 4292.747
991.467, 4884.449
992.719, 5746.174
993.971, 6577.921
995.222, 7869.392
996.474, 8961.208
997.725, 10023.071
998.976, 11895.811
1000.227, 13217.763
1001.478, 14849.738
1002.728, 17293.211
1003.978, 19235.229
1005.229, 21677.273
1006.479, 23419.346
1007.728, 25321.447
1008.978, 27043.967
1010.227, 27394.176
1011.476, 27766.209
1012.725, 26888.371
1013.974, 25020.178
1015.223, 24072.318
1016.471, 21239.570
1017.719, 19671.912
1018.967, 17235.893
1020.215, 15308.094
1021.462, 13980.514
1022.710, 12083.318
1023.957, 10855.790
1025.204, 10178.315
1026.451, 9081.539
1027.697, 8793.998
1028.944, 8246.638
1030.190, 8119.297
1031.436, 8321.982
1032.682, 8524.709
1033.928, 8997.456
1035.173, 9790.240
1036.418, 10123.062
1037.663, 11025.906
1038.908, 11578.816
1040.153, 12431.751
1041.398, 13174.734
1042.642, 13847.763
1043.886, 14090.812
1045.130, 14443.908
1046.374, 14527.036
1047.617, 14680.222
1048.860, 14243.452
1050.104, 14376.716
1051.347, 14110.028
1052.589, 13773.372
1053.832, 13916.745
1055.074, 13790.146
1056.316, 13883.579
1057.558, 14407.037
1058.800, 14890.526
1060.042, 15184.042
1061.283, 16127.596
1062.524, 16121.169
1063.765, 16204.771
1065.006, 14998.392
1066.247, 13612.051
1067.487, 12025.732
1068.728, 9869.450
1069.968, 8573.213
1071.208, 7336.998
1072.447, 6270.807
1073.687, 5334.650
1074.926, 4618.511
1076.165, 4102.410
1077.404, 3756.339
1078.643, 3280.287
1079.881, 3054.270
1081.120, 2788.272
1082.358, 2492.303
1083.596, 2246.354
1084.834, 2120.425
1086.071, 2014.779
1087.309, 1758.889
1088.546, 1553.019
1089.783, 1457.247
1091.020, 1331.334
1092.256, 1275.521
1093.493, 1239.726
1094.729, 1223.950
1095.965, 1068.192
1097.201, 962.454
1098.436, 812.733
1099.672, 861.031
1100.907, 728.347
1102.142, 616.769
1103.377, 639.118
1104.612, 553.486
1105.846, 574.871
1107.081, 609.274
1108.315, 540.694
1109.549, 475.131
1110.782, 465.585
1112.016, 386.070
1113.249, 399.559
1114.483, 432.063
1115.716, 354.626
1116.948, 469.166
1118.181, 399.722
1119.413, 434.294
1120.646, 422.882
1121.878, 453.485
1123.110, 571.115
1124.341, 382.759
1125.573, 344.566
1126.804, 331.246
1128.035, 155.024
1129.266, 307.764
1130.497, 154.491
1131.727, 297.115
1132.957, 238.871
1134.188, 130.659
1135.418, 216.460
1136.647, 163.465
1137.877, 94.271
1139.106, 229.244
1140.335, 65.141
1141.564, 215.232
1142.793, 115.233
1144.022, 33.393
1145.250, 209.725
1146.479, 38.850
1147.707, 56.120
1148.934, 133.057
1150.162, 56.704
1151.390, 26.236
1152.617, 27.856
1153.844, 107.776
1155.071, 78.156
1156.298, 44.749
1157.524, 69.303
1158.751, 66.407
1159.977, 45.633
1161.203, 50.057
1162.428, 128.254
1163.654, 128.667
1164.879, 182.491
1166.105, 55.516
1167.330, 23.578
1168.555, 56.362
1169.779, 17.511
1171.004, 17.436
1172.228, 70.675
1173.452, 26.368
1174.676, 139.585
1175.900, 36.638
1177.123, 72.601
1178.346, 126.767
1179.570, 42.759
1180.793, 4.731
1182.015, 181.921
1183.238, 111.687
1184.460, 149.665
1185.683, 70.704
1186.905, 55.866
1188.126, 126.557
1189.348, 173.744
1190.569, 213.965
1191.791, 263.396
1193.012, 172.662
1194.233, 336.647
1195.453, 353.318
1196.674, 256.299
1197.894, 302.774
1199.114, 285.395
1200.334, 306.368
1201.554, 368.913
1202.774, 238.081
1203.993, 374.046
1205.212, 290.168
1206.431, 210.391
1207.650, 417.347
1208.869, 264.542
1210.087, 332.489
1211.305, 204.492
1212.524, 146.432
1213.741, 340.367
1214.959, 236.299
1216.177, 172.461
1217.394, 299.383
1218.611, 280.479
1219.828, 351.389
1221.045, 185.542
1222.261, 55.473
1223.478, 189.365
1224.694, 134.252
1225.910, 276.133
1227.126, 111.007
1228.342, 51.681
1229.557, 186.740
1230.772, 100.700
1231.987, 2.762
1233.202, 192.598
1234.417, 116.435
1235.631, 146.264
1236.846, 203.247
1238.060, 360.089
1239.274, 234.071
1240.488, 187.894
1241.701, 23.696
1242.915, 153.685
1244.128, 59.462
1245.341, 70.236
1246.554, 117.011
1247.767, 70.217
1248.979, 44.529
1250.191, 90.275
1251.403, 33.018
1252.615, 40.758
1253.827, 76.495
1255.039, 59.291
1256.250, 112.017
1257.461, 38.731
1258.672, 159.505
1259.883, 109.349
1261.094, 39.826
1262.304, 111.443
1263.514, 132.055
1264.724, 110.470
1265.934, 171.138
1267.144, 135.614
1268.354, 81.815
1269.563, 165.271
1270.772, 10.061
1271.981, 73.699
1273.190, 51.083
1274.398, 67.729
1275.607, 125.092
1276.815, 50.561
1278.023, 91.211
1279.231, 76.481
1280.439, 19.219
1281.646, 10.988
1282.853, 102.177
1284.060, 67.669
1285.267, 74.422
1286.474, 39.476
1287.681, 57.683
1288.887, 52.113
1290.093, 70.174
1291.299, 55.190
1292.505, 32.208
1293.711, 90.568
1294.916, 41.516
1296.121, 91.768
1297.327, 28.486
1298.531, 141.187
1299.736, 21.130
1300.941, 68.522
1302.145, 79.034
1303.349, 18.651
1304.553, 128.246
1305.757, 6.644
1306.961, 17.183
1308.164, 87.696
1309.367, 56.229
1310.570, 98.347
1311.773, 171.546
1312.976, 164.466
1314.178, 67.886
1315.381, 140.928
1316.583, 68.691
1317.785, 117.643
1318.987, 140.288
1320.188, 49.418
1321.390, 176.830
1322.591, 70.048
1323.792, 113.243
1324.993, 156.418
1326.193, 69.545
1327.394, 27.354
1328.594, 185.694
1329.794, 31.292
1330.994, 81.677
1332.194, 25.379
1333.394, 77.529
1334.593, 70.415
1335.792, 36.723
1336.991, 66.098
1338.190, 128.896
1339.389, 8.327
1340.587, 164.418
1341.786, 52.854
1342.984, 9.831
1344.182, 152.488
1345.379, 45.127
1346.577, 87.743
1347.774, 200.340
1348.972, 22.916
1350.169, 75.470
1351.365, 178.001
1352.562, 80.514
1353.759, 173.007
1354.955, 125.482
1356.151, 217.940
1357.347, 180.384
1358.543, 183.063
1359.738, 85.480
1360.934, 187.883
1362.129, 100.274
1363.324, 192.654
1364.519, 85.025
1365.713, 137.385
1366.908, 159.738
1368.102, 212.085
1369.296, 194.428
1370.490, 186.811
1371.684, 9.100
1372.877, 101.423
1374.071, 123.771
1375.264, 98.615
1376.457, 150.478
1377.650, 181.815
1378.843, 190.561
1380.035, 115.019
1381.227, 148.146
1382.419, 136.658
1383.611, 126.098
1384.803, 176.255
1385.995, 114.454
1387.186, 158.346
1388.377, 163.127
1389.568, 188.156
1390.759, 169.273
1391.950, 163.901
1393.140, 202.442
1394.331, 216.590
1395.521, 192.538
1396.711, 218.712
1397.900, 155.059
1399.090, 167.726
1400.279, 216.620
1401.469, 146.402
1402.658, 129.389
1403.847, 48.178
1405.035, 164.166
1406.224, 207.000
1407.412, 193.580
1408.600, 161.975
1409.788, 159.803
1410.976, 17.802
1412.164, 154.143
1413.351, 82.333
1414.538, 3.441
1415.725, 363.897
1416.912, 4.815
1418.099, 137.146
1419.285, 249.831
1420.472, 52.251
1421.658, 146.211
1422.844, 111.624
1424.030, 183.767
1425.215, 211.880
1426.401, 205.132
1427.586, 199.031
1428.771, 205.442
1429.956, 76.863
1431.141, 61.714
1432.325, 279.496
1433.510, 72.760
1434.694, 131.872
1435.878, 212.282
1437.062, 51.996
1438.245, 153.104
1439.429, 174.202
1440.612, 145.564
1441.795, 266.989
1442.978, 207.965
1444.161, 198.991
1445.343, 129.793
1446.526, 211.049
1447.708, 262.264
1448.890, 219.667
1450.072, 130.121
1451.253, 311.125
1452.435, 241.743
1453.616, 142.432
1454.797, 342.968
1455.978, 183.296
1457.159, 193.937
1458.340, 234.454
1459.520, 214.846
1460.700, 385.105
1461.880, 365.101
1463.060, 114.992
1464.240, 352.722
1465.420, 302.804
1466.599, 183.055
1467.778, 276.585
1468.957, 256.194
1470.136, 272.839
1471.315, 289.474
1472.493, 148.108
1473.671, 307.930
1474.849, 297.911
1476.027, 247.993
1477.205, 367.687
1478.383, 207.384
1479.560, 307.570
1480.737, 327.527
1481.914, 228.089
1483.091, 208.597
1484.268, 299.060
1485.444, 189.480
1486.621, 209.904
1487.797, 290.360
1488.973, 170.786
1490.149, 241.195
1491.324, 221.588
1492.500, 131.969
1493.675, 352.368
1494.850, 232.887
1496.025, 83.568
1497.200, 394.546
1498.374, 135.880
1499.548, 7.371
1500.723, 329.006
1501.897, 120.817
1503.071, 172.794
1504.244, 294.925
1505.418, 77.247
1506.591, 359.797
1507.764, 232.632
1508.937, 115.819
1510.110, 289.418
1511.282, 213.452
1512.455, 204.822
1513.627, 279.478
1514.799, 94.676
1515.971, 220.517
1517.143, 347.078
1518.314, 5.235
1519.486, 293.345
1520.657, 344.119
1521.828, 27.001
1522.999, 0.000
##END=



