##NAMES=Amblygonite
##RRUFFID=R040006
##IDEAL CHEMISTRY=LiAlPO_4_F
##LOCALITY=Pala, San Diego County, California, USA
##OWNER=RRUFF
##SOURCE=University of Arizona Mineral Museum
##DESCRIPTION=Light gray coarsely crystalline massive
##STATUS=The identification of this mineral has been confirmed by X-ray diffraction and chemical analysis
##URL=rruff.info/R040006
##MEASURED CHEMISTRY=LiAl_1.00_(P_1.00_O_4_)(F_0.73_(OH)_0.27_)_Î£=1_; Li assumed by stoichiometry; OH estimated by charge balance
##PIN_ID=l00485
##ORIENTATION=Laser parallel to -a* (-1 0 0). Fiducial mark perpendicular to laser is parallel to -b [0 -1 0]
100.848, 0.000
102.242, 24.253
103.636, 11.482
105.030, 104.985
106.423, 337.243
107.817, 514.022
109.210, 650.629
110.603, 752.066
111.996, 1003.045
113.388, 1398.816
114.780, 1531.386
116.172, 1836.614
117.564, 1990.676
118.956, 2430.742
120.347, 2729.202
121.738, 3085.499
123.129, 3457.193
124.519, 4169.966
125.910, 4523.586
127.300, 4888.583
128.690, 5198.066
130.080, 5120.134
131.469, 4912.814
132.858, 4215.944
134.248, 3759.309
135.636, 3132.257
137.025, 2616.199
138.413, 2352.364
139.801, 1891.208
141.189, 1726.555
142.577, 1462.469
143.964, 1356.001
145.352, 1342.195
146.739, 1223.096
148.125, 1221.745
149.512, 1106.175
150.898, 1076.420
152.284, 1119.506
153.670, 1163.352
155.056, 1154.466
156.441, 1052.215
157.827, 1100.641
159.212, 995.954
160.596, 984.667
161.981, 956.255
163.365, 835.514
164.749, 896.311
166.133, 686.734
167.517, 729.587
168.900, 617.807
170.283, 697.652
171.666, 694.046
173.049, 701.196
174.431, 816.994
175.813, 630.735
177.195, 757.248
178.577, 765.884
179.959, 756.638
181.340, 825.504
182.721, 791.479
184.102, 885.532
185.483, 848.605
186.863, 910.743
188.244, 826.974
189.624, 877.310
191.003, 852.759
192.383, 762.325
193.762, 758.007
195.141, 644.804
196.520, 628.714
197.899, 451.734
199.277, 365.861
200.656, 301.088
202.034, 224.412
203.411, 104.826
204.789, 83.671
206.166, 36.084
207.543, 77.418
208.920, 186.675
210.297, 56.858
211.673, 148.979
213.049, 38.044
214.425, 132.061
215.801, 81.032
217.176, 13.039
218.552, 69.848
219.927, 15.303
221.302, 26.509
222.676, 83.715
224.051, 41.027
225.425, 30.733
226.799, 70.404
228.173, 28.958
229.546, 13.645
230.919, 60.214
232.292, 15.250
233.665, 26.747
235.038, 8.705
236.410, 73.830
237.782, 5.713
239.154, 48.644
240.526, 16.983
241.898, 44.615
243.269, 63.127
244.640, 3.470
246.011, 61.894
247.381, 17.741
248.752, 32.407
250.122, 97.843
251.492, 53.955
252.861, 93.800
254.231, 40.730
255.600, 110.647
256.969, 28.562
258.338, 155.478
259.707, 115.417
261.075, 252.385
262.443, 332.379
263.811, 363.400
265.179, 529.450
266.546, 578.717
267.914, 787.771
269.281, 803.301
270.647, 830.628
272.014, 1001.367
273.380, 850.432
274.747, 943.761
276.113, 1026.305
277.478, 973.028
278.844, 1077.901
280.209, 992.901
281.574, 1110.005
282.939, 1105.196
284.304, 1193.458
285.668, 1373.778
287.032, 1677.150
288.396, 1816.564
289.760, 2167.019
291.123, 2717.506
292.487, 3308.021
293.850, 4198.542
295.212, 5049.057
296.575, 6479.566
297.937, 8010.064
299.300, 9930.548
300.662, 11931.021
302.023, 13361.485
303.385, 14231.935
304.746, 14012.372
306.107, 13132.803
307.468, 11533.226
308.829, 10233.646
310.189, 8954.057
311.549, 7944.472
312.909, 7074.885
314.269, 6505.295
315.629, 5735.707
316.988, 5526.121
318.347, 4856.422
319.706, 4586.519
321.065, 4086.460
322.423, 3616.282
323.781, 3336.051
325.139, 2775.779
326.497, 2675.500
327.855, 2235.178
329.212, 2224.823
330.569, 1914.430
331.926, 1744.055
333.283, 1673.686
334.639, 1270.325
335.995, 1294.953
337.351, 1144.555
338.707, 1006.139
340.063, 1011.690
341.418, 826.264
342.773, 911.855
344.128, 702.471
345.483, 710.103
346.837, 665.756
348.192, 598.427
349.546, 514.117
350.899, 582.824
352.253, 571.549
353.606, 496.292
354.960, 386.052
356.313, 567.828
357.665, 437.618
359.018, 488.424
360.370, 387.245
361.722, 417.078
363.074, 475.925
364.426, 409.784
365.777, 485.656
367.128, 453.941
368.479, 454.475
369.830, 395.162
371.181, 427.821
372.531, 423.798
373.881, 351.298
375.231, 458.418
376.581, 428.406
377.930, 303.440
379.280, 262.535
380.629, 308.796
381.977, 399.435
383.326, 154.928
384.674, 273.750
386.023, 233.110
387.370, 150.961
388.718, 225.718
390.066, 104.690
391.413, 212.737
392.760, 128.746
394.107, 180.482
395.454, 182.102
396.800, 185.950
398.146, 202.878
399.492, 199.920
400.838, 247.028
402.184, 251.666
403.529, 333.257
404.874, 350.387
406.219, 350.843
407.564, 421.382
408.908, 410.137
410.252, 421.470
411.596, 454.702
412.940, 624.406
414.284, 927.841
415.627, 1078.206
416.970, 1638.544
418.313, 2258.811
419.656, 3209.079
420.999, 4629.370
422.341, 6469.664
423.683, 9010.344
425.025, 10510.685
426.367, 11621.030
427.708, 10931.377
429.049, 8901.741
430.390, 6712.131
431.731, 4762.525
433.072, 3392.922
434.412, 2323.326
435.752, 1513.729
437.092, 1254.146
438.432, 1004.558
439.772, 804.974
441.111, 537.392
442.450, 555.805
443.789, 460.214
445.127, 300.628
446.466, 314.035
447.804, 202.481
449.142, 185.920
450.480, 333.354
451.817, 150.781
453.155, 254.198
454.492, 175.608
455.829, 256.010
457.166, 172.402
458.502, 99.787
459.838, 393.162
461.175, 293.541
462.510, 403.909
463.846, 426.270
465.181, 481.639
466.517, 642.996
467.852, 583.354
469.186, 843.702
470.521, 954.041
471.855, 1164.408
473.190, 1394.766
474.523, 1565.113
475.857, 1865.450
477.191, 2135.774
478.524, 2486.091
479.857, 2946.395
481.190, 3016.689
482.523, 3356.977
483.855, 3347.252
485.187, 3557.520
486.519, 3387.779
487.851, 3658.030
489.183, 3608.271
490.514, 3278.505
491.845, 3528.729
493.176, 3308.945
494.507, 3089.150
495.837, 3079.347
497.168, 2659.535
498.498, 2669.714
499.828, 2239.883
501.157, 2380.044
502.487, 1960.192
503.816, 1650.334
505.145, 1650.464
506.474, 1340.584
507.802, 1320.693
509.131, 1100.793
510.459, 930.880
511.787, 900.956
513.115, 561.022
514.442, 611.076
515.770, 501.119
517.097, 281.149
518.424, 381.167
519.750, 251.172
521.077, 261.163
522.403, 151.143
523.729, 261.109
525.055, 131.062
526.381, 36.998
527.706, 280.896
529.031, 5.196
530.356, 20.695
531.681, 90.599
533.006, 40.876
534.330, 10.812
535.654, 9.208
536.978, 89.250
538.302, 29.328
539.625, 148.236
540.949, 90.562
542.272, 133.535
543.595, 8.794
544.917, 79.078
546.240, 30.899
547.562, 9.204
548.884, 5.845
550.206, 100.956
551.527, 29.400
552.849, 53.539
554.170, 65.508
555.491, 34.225
556.812, 25.306
558.132, 24.774
559.453, 9.690
560.773, 159.731
562.093, 90.683
563.412, 39.811
564.732, 69.117
566.051, 18.485
567.370, 97.790
568.689, 110.806
570.008, 170.086
571.326, 149.630
572.644, 2.010
573.963, 121.269
575.280, 132.331
576.598, 271.942
577.915, 211.137
579.233, 195.355
580.550, 354.505
581.866, 95.134
583.183, 333.883
584.499, 312.958
585.815, 323.052
587.131, 293.210
588.447, 444.461
589.763, 433.479
591.078, 472.443
592.393, 582.203
593.708, 511.231
595.022, 692.936
596.337, 821.984
597.651, 852.010
598.965, 1002.462
600.279, 1141.437
601.593, 1230.487
602.906, 1349.046
604.219, 1330.633
605.532, 1520.114
606.845, 1439.100
608.158, 1458.088
609.470, 1526.854
610.782, 1495.526
612.094, 1684.316
613.406, 1603.052
614.718, 1771.775
616.029, 2010.541
617.340, 1958.978
618.651, 2290.049
619.962, 2368.471
621.272, 2876.878
622.582, 3199.470
623.892, 3767.762
625.202, 4247.898
626.512, 4897.241
627.821, 5674.556
629.131, 6491.807
630.440, 7429.953
631.749, 8598.213
633.057, 8866.297
634.366, 9554.352
635.674, 9632.487
636.982, 10110.480
638.290, 11008.444
639.597, 12226.379
640.905, 15094.280
642.212, 18842.156
643.519, 23049.996
644.825, 28227.807
646.132, 30015.584
647.438, 30293.336
648.744, 27071.059
650.050, 22008.750
651.356, 17576.402
652.662, 12744.031
653.967, 10191.627
655.272, 7559.191
656.577, 6086.727
657.882, 4964.227
659.186, 3991.699
660.490, 3289.139
661.794, 2866.548
663.098, 2183.927
664.402, 2251.273
665.705, 1718.588
667.009, 1705.872
668.312, 1463.125
669.614, 1180.346
670.917, 1197.536
672.219, 894.696
673.522, 921.822
674.824, 688.918
676.125, 705.982
677.427, 763.016
678.728, 630.017
680.030, 616.987
681.331, 583.926
682.631, 440.832
683.932, 544.307
685.232, 431.593
686.532, 326.964
687.832, 355.249
689.132, 161.999
690.432, 448.407
691.731, 330.615
693.030, 275.467
694.329, 365.916
695.628, 189.910
696.926, 365.867
698.224, 90.740
699.522, 307.501
700.820, 222.038
702.118, 149.166
703.415, 164.920
704.713, 185.872
706.010, 111.195
707.307, 247.237
708.603, 10.153
709.900, 65.969
711.196, 48.598
712.492, 200.946
713.788, 306.103
715.083, 34.938
716.379, 228.627
717.674, 164.550
718.969, 62.929
720.264, 238.007
721.558, 98.547
722.853, 235.738
724.147, 1.582
725.441, 227.071
726.735, 132.654
728.028, 16.832
729.322, 210.141
730.615, 45.502
731.908, 121.505
733.201, 206.888
734.493, 17.762
735.785, 237.518
737.078, 52.766
738.370, 92.376
739.661, 222.717
740.953, 67.779
742.244, 62.804
743.535, 27.789
744.826, 185.160
746.117, 280.065
747.407, 74.943
748.698, 159.784
749.988, 14.596
751.278, 139.354
752.567, 54.082
753.857, 38.771
755.146, 133.416
756.435, 108.033
757.724, 12.788
759.013, 187.322
760.301, 118.171
761.590, 96.216
762.878, 90.572
764.165, 124.899
765.453, 139.198
766.741, 102.069
768.028, 108.832
769.315, 103.047
770.602, 87.234
771.888, 261.394
773.175, 5.526
774.461, 139.608
775.747, 133.666
777.033, 22.302
778.319, 271.666
779.604, 15.610
780.889, 119.512
782.174, 103.388
783.459, 102.761
784.744, 260.989
786.028, 94.714
787.312, 188.415
788.596, 152.093
789.880, 95.748
791.164, 249.379
792.447, 152.989
793.730, 296.576
795.013, 350.143
796.296, 213.687
797.579, 387.210
798.861, 340.712
800.143, 324.193
801.425, 317.655
802.707, 501.096
803.989, 554.516
805.270, 607.917
806.551, 671.298
807.832, 604.660
809.113, 568.004
810.394, 631.327
811.674, 724.634
812.954, 547.922
814.234, 661.190
815.514, 674.441
816.794, 537.675
818.073, 610.891
819.352, 544.090
820.631, 727.271
821.910, 350.438
823.189, 633.589
824.467, 486.723
825.745, 399.841
827.023, 472.943
828.301, 376.031
829.578, 279.104
830.856, 322.162
832.133, 95.205
833.410, 368.234
834.687, 121.251
835.963, 184.253
837.240, 227.242
838.516, 0.234
839.792, 83.206
841.068, 33.826
842.343, 169.112
843.618, 111.698
844.894, 105.385
846.169, 247.466
847.443, 9.684
848.718, 6.822
849.992, 295.850
851.266, 141.255
852.540, 20.493
853.814, 83.338
855.088, 123.816
856.361, 218.685
857.634, 118.750
858.907, 83.828
860.180, 65.895
861.453, 118.625
862.725, 278.026
863.997, 50.596
865.269, 120.395
866.541, 223.110
867.812, 84.134
869.084, 72.509
870.355, 45.234
871.626, 57.774
872.897, 139.352
874.167, 157.898
875.438, 304.748
876.708, 12.566
877.978, 26.400
879.248, 179.080
880.517, 178.525
881.787, 200.998
883.056, 3.609
884.325, 25.605
885.594, 126.603
886.862, 19.209
888.130, 146.768
889.399, 119.376
890.667, 0.486
891.934, 173.450
893.202, 66.067
894.469, 167.647
895.737, 179.142
897.004, 80.477
898.270, 202.107
899.537, 34.724
900.803, 56.527
902.070, 249.042
903.336, 108.862
904.601, 211.317
905.867, 312.779
907.132, 93.798
908.398, 306.277
909.663, 11.338
910.928, 278.638
912.192, 221.327
913.457, 23.227
914.721, 315.604
915.985, 147.960
917.249, 270.522
918.512, 133.164
919.776, 54.330
921.039, 268.208
922.302, 50.742
923.565, 133.216
924.827, 166.005
926.090, 56.141
927.352, 158.913
928.614, 171.682
929.876, 140.254
931.138, 403.108
932.399, 124.105
933.660, 176.909
934.922, 329.669
936.182, 213.506
937.443, 306.469
938.704, 179.303
939.964, 232.299
941.224, 325.313
942.484, 398.235
943.744, 431.304
945.003, 204.389
946.262, 187.492
947.521, 430.614
948.780, 303.755
950.039, 546.913
951.298, 560.099
952.556, 303.304
953.814, 586.550
955.072, 389.816
956.330, 493.103
957.587, 556.408
958.845, 579.734
960.102, 583.080
961.359, 586.445
962.615, 589.832
963.872, 853.239
965.128, 466.667
966.384, 1030.118
967.640, 723.589
968.896, 737.081
970.152, 1100.595
971.407, 644.180
972.662, 1147.787
973.917, 1161.415
975.172, 1125.069
976.427, 1248.745
977.681, 1282.444
978.935, 1506.168
980.189, 1699.915
981.443, 1583.686
982.697, 2407.480
983.950, 2751.299
985.203, 2615.141
986.456, 3139.009
987.709, 2862.925
988.962, 3916.865
990.214, 4188.569
991.467, 5334.422
992.719, 5566.348
993.971, 5990.432
995.222, 7194.547
996.474, 8272.260
997.725, 9256.460
998.976, 11170.008
1000.227, 12163.748
1001.478, 13808.034
1002.728, 16393.996
1003.978, 17728.338
1005.229, 20542.732
1006.479, 21580.102
1007.728, 23294.576
1008.978, 25582.473
1010.227, 25267.006
1011.476, 26121.566
1012.725, 25536.188
1013.974, 23550.824
1015.223, 23043.334
1016.471, 20350.990
1017.719, 18695.734
1018.967, 16836.717
1020.215, 14651.613
1021.462, 13636.551
1022.710, 11761.521
1023.957, 10616.521
1025.204, 10183.594
1026.451, 8949.488
1027.697, 8874.297
1028.944, 8399.507
1030.190, 8194.746
1031.436, 8681.391
1032.682, 8786.708
1033.928, 9352.043
1035.173, 10356.812
1036.418, 10292.269
1037.663, 11357.762
1038.908, 11863.343
1040.153, 12398.957
1041.398, 13604.577
1042.642, 13720.312
1043.886, 14216.083
1045.130, 14761.950
1046.374, 14257.852
1047.617, 14761.358
1048.860, 14377.342
1050.104, 14603.354
1051.347, 14569.403
1052.589, 14165.487
1053.832, 14661.611
1055.074, 14687.768
1056.316, 14614.765
1057.558, 16130.993
1058.800, 16717.277
1060.042, 17223.428
1061.283, 19029.789
1062.524, 19076.178
1063.765, 19582.646
1065.006, 18469.143
1066.247, 16726.062
1067.487, 15502.620
1068.728, 12289.206
1069.968, 10754.700
1071.208, 9101.346
1072.447, 7418.047
1073.687, 6624.775
1074.926, 5521.533
1076.165, 4628.347
1077.404, 4675.188
1078.643, 3662.060
1079.881, 3368.979
1081.120, 3155.924
1082.358, 2532.955
1083.596, 2600.016
1084.834, 2317.104
1086.071, 2141.758
1087.309, 1998.982
1088.546, 1656.240
1089.783, 1873.879
1091.020, 1541.189
1092.256, 1322.324
1093.493, 1519.689
1094.729, 1367.080
1095.965, 1144.713
1097.201, 1192.158
1098.436, 879.629
1099.672, 1168.699
1100.907, 976.227
1102.142, 848.805
1103.377, 1116.383
1104.612, 643.986
1105.846, 1021.615
1107.081, 1079.270
1108.315, 1066.947
1109.549, 1134.650
1110.782, 1153.609
1112.016, 880.129
1113.249, 1187.906
1114.483, 1125.709
1115.716, 1083.537
1116.948, 1271.391
1118.181, 1149.266
1119.413, 1468.242
1120.646, 1346.162
1121.878, 1394.105
1123.110, 1662.484
1124.341, 1340.500
1125.573, 1568.711
1126.804, 1306.789
1128.035, 1074.889
1129.266, 1513.158
1130.497, 1071.303
1131.727, 1249.463
1132.957, 1207.648
1134.188, 955.852
1135.418, 1159.539
1136.647, 927.779
1137.877, 706.037
1139.106, 1144.811
1140.335, 683.109
1141.564, 871.539
1142.793, 740.055
1144.022, 338.426
1145.250, 745.125
1146.479, 353.867
1147.707, 352.316
1148.934, 541.461
1150.162, 49.945
1151.390, 348.791
1152.617, 353.207
1153.844, 151.770
1155.071, 374.219
1156.298, 103.516
1157.524, 322.174
1158.751, 371.801
1159.977, 0.480
1161.203, 119.172
1162.428, 529.164
1163.654, 122.115
1164.879, 486.982
1166.105, 63.217
1167.330, 181.955
1168.555, 642.791
1169.779, 52.217
1171.004, 210.977
1172.228, 424.213
1173.452, 46.979
1174.676, 411.828
1175.900, 133.561
1177.123, 172.379
1178.346, 361.949
1179.570, 81.027
1180.793, 309.896
1182.015, 369.379
1183.238, 38.254
1184.460, 417.133
1185.683, 155.686
1186.905, 194.564
1188.126, 313.830
1189.348, 286.465
1190.569, 315.342
1191.791, 429.297
1193.012, 378.191
1194.233, 497.045
1195.453, 448.553
1196.674, 247.430
1197.894, 476.768
1199.114, 226.973
1200.334, 405.838
1201.554, 344.861
1202.774, 36.094
1203.993, 602.746
1205.212, 237.979
1206.431, 6.807
1207.650, 475.629
1208.869, 55.117
1210.087, 263.924
1211.305, 372.723
1212.524, 18.484
1213.741, 330.295
1214.959, 169.064
1216.177, 118.182
1217.394, 366.938
1218.611, 121.205
1219.828, 169.945
1221.045, 238.676
1222.261, 121.016
1223.478, 339.727
1224.694, 158.561
1225.910, 147.260
1227.126, 295.945
1228.342, 86.369
1229.557, 195.049
1230.772, 293.707
1231.987, 127.502
1233.202, 471.115
1234.417, 310.602
1235.631, 0.564
1236.846, 448.037
1238.060, 63.133
1239.274, 335.420
1240.488, 253.977
1241.701, 12.920
1242.915, 371.475
1244.128, 170.027
1245.341, 20.166
1246.554, 398.377
1247.767, 73.139
1248.979, 215.322
1250.191, 363.779
1251.403, 132.650
1252.615, 271.102
1253.827, 269.545
1255.039, 128.162
1256.250, 436.570
1257.461, 134.916
1258.672, 303.848
1259.883, 372.135
1261.094, 131.299
1262.304, 479.936
1263.514, 408.158
1264.724, 153.387
1265.934, 434.746
1267.144, 242.861
1268.354, 47.613
1269.563, 435.699
1270.772, 103.668
1271.981, 396.623
1273.190, 414.521
1274.398, 123.139
1275.607, 371.072
1276.815, 218.908
1278.023, 257.348
1279.231, 335.084
1280.439, 47.260
1281.646, 440.406
1282.853, 207.873
1284.060, 124.678
1285.267, 323.471
1286.474, 160.805
1287.681, 150.744
1288.887, 358.037
1290.093, 84.738
1291.299, 122.807
1292.505, 469.945
1293.711, 67.064
1294.916, 304.689
1296.121, 131.713
1297.327, 41.289
1298.531, 585.631
1299.736, 7.477
1300.941, 79.271
1302.145, 345.992
1303.349, 62.594
1304.553, 379.152
1305.757, 225.650
1306.961, 52.143
1308.164, 418.596
1309.367, 132.055
1310.570, 221.576
1311.773, 724.684
1312.976, 30.902
1314.178, 97.074
1315.381, 493.203
1316.583, 10.709
1317.785, 455.303
1318.987, 350.502
1320.188, 16.434
1321.390, 562.229
1322.591, 97.922
1323.792, 193.557
1324.993, 509.146
1326.193, 105.318
1327.394, 360.129
1328.594, 375.531
1329.794, 89.119
1330.994, 416.105
1332.194, 161.277
1333.394, 6.402
1334.593, 481.453
1335.792, 173.541
1336.991, 281.354
1338.190, 356.203
1339.389, 31.010
1340.587, 565.760
1341.786, 150.465
1342.984, 75.123
1344.182, 469.729
1345.379, 224.285
1346.577, 218.799
1347.774, 592.465
1348.972, 33.104
1350.169, 501.262
1351.365, 435.631
1352.562, 129.924
1353.759, 434.182
1354.955, 348.412
1356.151, 382.615
1357.347, 386.396
1358.543, 280.551
1359.738, 184.691
1360.934, 488.814
1362.129, 17.074
1363.324, 527.014
1364.519, 321.119
1365.713, 15.225
1366.908, 489.336
1368.102, 244.857
1369.296, 319.064
1370.490, 502.883
1371.684, 113.645
1372.877, 284.047
1374.071, 274.086
1375.264, 88.434
1376.457, 558.650
1377.650, 122.107
1378.843, 229.234
1380.035, 506.551
1381.227, 232.150
1382.419, 293.947
1383.611, 511.098
1384.803, 198.215
1385.995, 415.297
1387.186, 592.344
1388.377, 109.352
1389.568, 766.322
1390.759, 350.465
1391.950, 296.762
1393.140, 703.225
1394.331, 199.809
1395.521, 526.172
1396.711, 632.672
1397.900, 252.439
1399.090, 608.801
1400.279, 461.992
1401.469, 167.793
1402.658, 793.285
1403.847, 128.816
1405.035, 203.822
1406.224, 491.502
1407.412, 222.090
1408.600, 286.799
1409.788, 781.078
1410.976, 35.170
1412.164, 579.785
1413.351, 360.496
1414.538, 18.291
1415.725, 700.322
1416.912, 125.299
1418.099, 245.920
1419.285, 679.342
1420.472, 118.006
1421.658, 362.594
1422.844, 562.043
1424.030, 219.822
1425.215, 319.850
1426.401, 463.705
1427.586, 73.195
1428.771, 813.912
1429.956, 2.723
1431.141, 310.562
1432.325, 572.982
1433.510, 115.176
1434.694, 388.502
1435.878, 611.793
1437.062, 94.389
1438.245, 707.215
1439.429, 250.215
1440.612, 246.131
1441.795, 768.635
1442.978, 377.734
1444.161, 309.930
1445.343, 720.939
1446.526, 330.182
1447.708, 591.025
1448.890, 602.260
1450.072, 282.385
1451.253, 630.262
1452.435, 580.807
1453.616, 201.232
1454.797, 760.379
1455.978, 389.811
1457.159, 379.662
1458.340, 847.969
1459.520, 394.326
1460.700, 553.166
1461.880, 852.502
1463.060, 172.896
1464.240, 827.441
1465.420, 543.822
1466.599, 141.855
1467.778, 638.082
1468.957, 336.301
1470.136, 445.203
1471.315, 711.354
1472.493, 410.729
1473.671, 597.598
1474.849, 695.479
1476.027, 281.160
1477.205, 708.732
1478.383, 386.477
1479.560, 224.678
1480.737, 733.098
1481.914, 251.312
1483.091, 229.438
1484.268, 757.373
1485.444, 355.156
1486.621, 332.881
1487.797, 840.525
1488.973, 159.305
1490.149, 448.580
1491.324, 458.053
1492.500, 7.654
1493.675, 668.068
1494.850, 238.871
1496.025, 50.127
1497.200, 721.787
1498.374, 173.928
1499.548, 256.715
1500.723, 800.377
1501.897, 64.979
1503.071, 440.059
1504.244, 556.854
1505.418, 45.068
1506.591, 525.084
1507.764, 497.330
1508.937, 7.422
1510.110, 851.016
1511.282, 405.756
