##NAMES=Amesite
##RRUFFID=R070132
##IDEAL CHEMISTRY=Mg_2_Al(AlSiO_5_)(OH)_4_
##LOCALITY=Saranovskii mine, Saranovskaya Village, Gornozavodskii area, Permskaya Oblast', Middle Urals, Russia
##OWNER=RRUFF
##SOURCE=Michael Scott
##DESCRIPTION=Purple transparent hexagonal prisms, polytype 2H2
##STATUS=The identification of this mineral is confirmed by single-crystal X-ray diffraction and chemical analysis.
##URL=rruff.info/R070132
##MEASURED CHEMISTRY=(Mg_1.87_[box]_0.05_Cr_0.05_Fe^2+^_0.03_)_Σ=2_(Al_0.98_Cr_0.02_)_Σ=1_(Si_1.05_Al_0.95_)O_5_(OH)_4_ ; OH estimated by difference
##PIN_ID=M00194
111.7130, 0.0000000E+00
112.9490, 42.03638
114.1850, 186.0413
115.4200, 432.7756
116.6560, 579.7346
117.8910, 549.7332
119.1260, 453.4238
120.3610, 233.2078
121.5960, 147.4573
122.8300, 138.0552
124.0640, 73.90503
125.2990, 171.8906
126.5330, 150.8918
127.7670, 219.3857
129.0000, 386.0967
130.2340, 495.3066
131.4670, 609.2473
132.7000, 719.7271
133.9330, 792.5930
135.1660, 802.2083
136.3990, 845.8606
137.6310, 763.0728
138.8640, 631.2803
140.0960, 598.5630
141.3280, 377.6738
142.5600, 293.3982
143.7910, 337.9067
145.0230, 371.6279
146.2540, 364.4653
147.4850, 431.5295
148.7160, 438.3538
149.9470, 395.8135
151.1780, 391.8281
152.4080, 400.3022
153.6380, 345.1714
154.8690, 292.4280
156.0980, 243.0627
157.3280, 240.0654
158.5580, 167.4248
159.7870, 107.1292
161.0170, 64.17578
162.2460, 127.5508
163.4750, 91.23779
164.7030, 146.2268
165.9320, 56.50415
167.1600, 35.05542
168.3890, 26.87354
169.6170, 36.96387
170.8450, 19.33228
172.0730, 14.98486
173.3000, 92.07275
174.5280, 60.83569
175.7550, 97.29858
176.9820, 116.4570
178.2090, 67.30737
179.4350, 187.8457
180.6620, 165.0688
181.8880, 149.9741
183.1150, 216.5593
184.3410, 128.8218
185.5670, 180.7744
186.7920, 93.45386
188.0180, 53.86426
189.2430, 15.01489
190.4690, 184.0835
191.6940, 277.4199
192.9180, 479.9832
194.1430, 582.7632
195.3680, 663.7488
196.5920, 672.9304
197.8160, 614.2996
199.0400, 627.8455
200.2640, 692.5630
201.4880, 796.4434
202.7110, 894.4751
203.9350, 880.6455
205.1580, 800.9497
206.3810, 760.3943
207.6040, 639.9780
208.8270, 557.5818
210.0490, 465.5823
211.2710, 362.7322
212.4940, 260.7749
213.7160, 191.9290
214.9370, 87.76172
216.1590, 99.61890
217.3810, 18.07373
218.6020, 66.58618
219.8230, 171.1179
221.0440, 121.6777
222.2650, 99.30151
223.4860, 257.0735
224.7060, 242.0737
225.9260, 438.3169
227.1470, 572.8054
228.3670, 762.5405
229.5860, 979.5242
230.8060, 1490.757
232.0260, 1978.240
233.2450, 2589.973
234.4640, 3570.958
235.6830, 5576.192
236.9020, 6308.678
238.1200, 8762.414
239.3390, 12718.40
240.5570, 18762.63
241.7750, 27116.11
242.9930, 35791.84
244.2110, 41715.82
245.4290, 41712.04
246.6460, 35378.51
247.8630, 26207.22
249.0810, 18562.17
250.2980, 13281.36
251.5140, 10441.79
252.7310, 8477.460
253.9470, 7587.369
255.1640, 7415.513
256.3800, 7600.891
257.5960, 8135.507
258.8120, 8946.088
260.0270, 9916.924
261.2430, 10547.89
262.4580, 12002.94
263.6730, 13945.04
264.8880, 17020.18
266.1030, 20462.34
267.3170, 24961.51
268.5320, 30454.68
269.7460, 36524.86
270.9600, 43377.02
272.1740, 49526.18
273.3880, 53571.33
274.6010, 54674.47
275.8150, 52422.59
277.0280, 49539.68
278.2410, 45413.73
279.4540, 42297.79
280.6670, 39531.85
281.8790, 37484.90
283.0920, 35891.84
284.3040, 33420.78
285.5160, 29754.77
286.7280, 25435.74
287.9400, 21223.76
289.1510, 17114.71
290.3630, 13503.57
291.5740, 10423.37
292.7850, 7881.980
293.9960, 5680.445
295.2070, 4130.867
296.4170, 3001.379
297.6280, 2041.083
298.8380, 1365.969
300.0480, 959.0356
301.2580, 461.1792
302.4680, 317.1167
303.6770, 86.49365
304.8870, 47.96045
306.0960, 13.89258
307.3050, 3.811523
308.5140, 220.4858
309.7230, 370.3042
310.9310, 695.9976
312.1400, 1029.923
313.3480, 1374.656
314.5560, 1565.747
315.7640, 1721.071
316.9720, 1792.297
318.1790, 1964.975
319.3870, 2039.255
320.5940, 2454.154
321.8010, 3275.673
323.0080, 4704.800
324.2150, 5981.381
325.4210, 7163.792
326.6280, 7737.251
327.8340, 7703.276
329.0400, 7329.143
330.2460, 6948.504
331.4510, 6212.708
332.6570, 5259.687
333.8620, 4238.460
335.0680, 3367.446
336.2730, 2796.886
337.4780, 2859.519
338.6820, 3293.337
339.8870, 3889.374
341.0910, 4750.610
342.2950, 4938.050
343.5000, 5069.682
344.7030, 5002.492
345.9070, 4858.490
347.1110, 4639.673
348.3140, 4303.032
349.5170, 3725.586
350.7200, 2799.312
351.9230, 1901.199
353.1260, 1152.249
354.3290, 861.4570
355.5310, 553.8413
356.7330, 520.3916
357.9350, 504.1016
359.1370, 577.9712
360.3390, 576.9888
361.5400, 504.1611
362.7420, 771.4780
363.9430, 966.9404
365.1440, 1126.550
366.3450, 1752.303
367.5460, 2341.201
368.7460, 3212.242
369.9470, 4228.426
371.1470, 5567.751
372.3470, 7423.217
373.5470, 10324.82
374.7460, 13561.57
375.9460, 16875.45
377.1450, 19694.47
378.3450, 21004.63
379.5440, 20566.92
380.7430, 18712.34
381.9410, 16475.90
383.1400, 14726.59
384.3380, 13696.41
385.5370, 12945.36
386.7350, 12643.43
387.9320, 12068.64
389.1300, 11705.97
390.3280, 11690.46
391.5250, 11488.01
392.7220, 11783.71
393.9190, 11946.54
395.1160, 12019.49
396.3130, 12077.55
397.5100, 12087.74
398.7060, 12815.04
399.9020, 14579.46
401.0980, 17529.00
402.2940, 22138.65
403.4900, 28191.43
404.6860, 35064.33
405.8810, 40953.33
407.0760, 44010.47
408.2710, 44412.71
409.4660, 43439.09
410.6610, 43160.57
411.8550, 43597.17
413.0500, 42536.90
414.2440, 38420.74
415.4380, 32225.70
416.6320, 25906.77
417.8260, 19760.97
419.0190, 15105.28
420.2130, 11539.71
421.4060, 9643.267
422.5990, 6555.938
423.7920, 5020.728
424.9850, 3940.637
426.1770, 3083.663
427.3700, 2438.811
428.5620, 2044.077
429.7540, 1596.463
430.9460, 1423.967
432.1380, 1232.592
433.3290, 1190.334
434.5210, 1126.196
435.7120, 1136.179
436.9030, 1298.282
438.0940, 1606.506
439.2850, 1890.852
440.4750, 1979.317
441.6660, 2208.903
442.8560, 2374.607
444.0460, 2532.432
445.2360, 2758.372
446.4260, 3123.431
447.6160, 3290.606
448.8050, 3294.904
449.9940, 3351.190
451.1830, 3352.219
452.3720, 3142.454
453.5610, 3106.637
454.7500, 2962.315
455.9380, 2964.711
457.1260, 3170.425
458.3150, 3260.160
459.5020, 3096.104
460.6900, 3283.806
461.8780, 3151.359
463.0650, 3080.809
464.2530, 2914.011
465.4400, 2945.430
466.6270, 3081.389
467.8130, 3374.154
469.0000, 4176.782
470.1870, 5102.069
471.3730, 6448.212
472.5590, 8248.541
473.7450, 9996.360
474.9310, 11588.47
476.1160, 12938.93
477.3020, 13342.08
478.4870, 13279.15
479.6720, 12507.58
480.8570, 11120.71
482.0420, 10285.78
483.2270, 9239.847
484.4110, 8307.713
485.5960, 7628.699
486.7800, 7141.952
487.9640, 6692.186
489.1480, 6217.331
490.3310, 5968.882
491.5150, 5877.994
492.6980, 5376.974
493.8810, 4902.694
495.0640, 4277.504
496.2470, 3386.081
497.4300, 2778.117
498.6120, 2080.206
499.7950, 1635.139
500.9770, 1203.359
502.1590, 964.0801
503.3410, 752.3828
504.5220, 587.8086
505.7040, 600.2634
506.8850, 528.1401
508.0660, 617.6504
509.2470, 491.2007
510.4280, 548.7910
511.6090, 644.4194
512.7890, 804.0852
513.9700, 820.7881
515.1500, 1164.526
516.3300, 1302.300
517.5100, 1469.107
518.6900, 1822.947
519.8690, 2352.820
521.0490, 2740.724
522.2280, 3400.658
523.4070, 4171.621
524.5860, 5173.613
525.7640, 6155.632
526.9430, 6983.680
528.1210, 7882.753
529.3000, 8494.850
530.4780, 8786.971
531.6560, 8920.118
532.8330, 8638.285
534.0110, 8187.473
535.1880, 7646.685
536.3650, 7010.915
537.5430, 6328.165
538.7190, 5864.432
539.8960, 5398.717
541.0730, 5075.017
542.2490, 4481.335
543.4250, 4192.668
544.6020, 3943.013
545.7780, 3948.373
546.9530, 3730.745
548.1290, 3723.128
549.3040, 3706.523
550.4800, 3738.927
551.6550, 3549.340
552.8300, 3504.761
554.0040, 3148.190
555.1790, 3061.626
556.3540, 2648.068
557.5280, 2349.513
558.7020, 2097.962
559.8760, 1729.416
561.0500, 1588.871
562.2230, 1529.328
563.3970, 1364.785
564.5700, 1430.242
565.7430, 1479.698
566.9160, 1615.152
568.0890, 1705.603
569.2620, 1863.051
570.4340, 1896.494
571.6070, 1828.931
572.7790, 1704.363
573.9510, 1442.787
575.1230, 1126.204
576.2940, 881.6108
577.4660, 661.0090
578.6370, 658.3965
579.8080, 559.7722
580.9790, 548.1360
582.1500, 409.4868
583.3210, 429.8232
584.4910, 332.1453
585.6620, 347.4514
586.8320, 214.7412
588.0020, 145.0134
589.1720, 151.2673
590.3410, 132.5027
591.5110, 7.281250
592.6800, 5.096924
593.8500, 139.9463
595.0190, 74.89893
596.1880, 194.9241
597.3560, 162.0874
598.5250, 172.3743
599.6930, 201.7935
600.8620, 144.3625
602.0300, 216.0549
603.1970, 351.9026
604.3650, 246.7410
605.5330, 180.8423
606.7000, 152.0815
607.8680, 271.1926
609.0350, 199.7444
610.2020, 204.9182
611.3680, 213.4099
612.5350, 115.6404
613.7010, 214.1438
614.8680, 118.3840
616.0340, 167.2759
617.2000, 221.9399
618.3660, 120.9175
619.5310, 59.12158
620.6970, 34.46069
621.8620, 157.0869
623.0270, 89.64893
624.1920, 98.79614
625.3570, 65.25488
626.5220, 2.289795
627.6860, 46.41357
628.8500, 25.64380
630.0140, 3.020752
631.1780, 66.40820
632.3420, 19.02734
633.5060, 68.37427
634.6700, 70.65527
635.8330, 80.86230
636.9960, 2.002930
638.1590, 54.02661
639.3220, 84.97461
640.4850, 81.84790
641.6470, 176.6497
642.8100, 116.3979
643.9720, 223.0774
645.1340, 230.7107
646.2960, 193.2942
647.4570, 251.8232
648.6190, 303.3027
649.7800, 376.7327
650.9420, 407.1133
652.1030, 398.4436
653.2640, 401.7234
654.4240, 358.9529
655.5850, 504.1313
656.7450, 503.2585
657.9060, 570.3340
659.0660, 693.3582
660.2260, 772.3301
661.3850, 767.2500
662.5450, 879.1172
663.7040, 901.9319
664.8640, 1083.693
666.0230, 1177.401
667.1820, 1267.056
668.3410, 1404.656
669.4990, 1523.203
670.6580, 1810.696
671.8160, 1993.135
672.9740, 2374.518
674.1320, 2700.847
675.2900, 3152.121
676.4480, 3680.340
677.6050, 4260.503
678.7630, 5089.612
679.9200, 5992.664
681.0770, 7112.661
682.2340, 7853.599
683.3900, 8865.483
684.5470, 9063.313
685.7030, 9017.085
686.8590, 8463.798
688.0150, 7701.455
689.1710, 7005.057
690.3270, 6386.601
691.4830, 6245.086
692.6380, 6193.517
693.7930, 6387.889
694.9480, 6668.204
696.1030, 7086.461
697.2580, 7914.659
698.4130, 8705.801
699.5670, 9771.885
700.7210, 11163.91
701.8750, 12718.88
703.0290, 14765.79
704.1830, 16621.64
705.3370, 18095.43
706.4900, 19186.17
707.6430, 19614.85
708.7970, 18910.47
709.9490, 17454.03
711.1020, 15660.53
712.2550, 13692.97
713.4070, 11658.36
714.5600, 10057.69
715.7120, 8567.960
716.8640, 7426.171
718.0160, 6441.326
719.1670, 5459.420
720.3190, 4761.456
721.4700, 4116.436
722.6210, 3604.356
723.7720, 3115.218
724.9230, 2771.022
726.0740, 2434.768
727.2250, 2189.456
728.3750, 1950.086
729.5250, 1749.658
730.6750, 1522.604
731.8250, 1379.495
732.9750, 1199.500
734.1240, 1144.062
735.2740, 1028.969
736.4230, 1007.617
737.5720, 886.3066
738.7210, 858.8411
739.8700, 795.6772
741.0190, 700.7146
742.1670, 625.9331
743.3150, 589.4673
744.4630, 521.8591
745.6110, 475.7837
746.7590, 481.9648
747.9070, 419.3699
749.0540, 397.9062
750.2020, 288.2397
751.3490, 320.1782
752.4960, 258.6968
753.6430, 182.9941
754.7890, 219.9963
755.9360, 147.3472
757.0820, 135.8313
758.2280, 217.9761
759.3740, 86.39624
760.5200, 154.8552
761.6660, 158.8550
762.8120, 131.8918
763.9570, 114.1936
765.1020, 100.6353
766.2470, 182.7102
767.3920, 272.1934
768.5370, 176.7671
769.6810, 252.0476
770.8260, 206.1675
771.9700, 227.1909
773.1140, 349.3799
774.2580, 422.8101
775.4020, 476.1382
776.5460, 528.9858
777.6890, 640.1333
778.8320, 748.2485
779.9750, 802.6553
781.1180, 887.2634
782.2610, 855.7703
783.4040, 973.5073
784.5460, 955.8428
785.6890, 910.5635
786.8310, 953.2632
787.9730, 885.9412
789.1150, 903.5981
790.2560, 932.2341
791.3980, 786.8499
792.5390, 848.4453
793.6810, 830.0208
794.8220, 841.5767
795.9630, 760.1135
797.1030, 864.6311
798.2440, 798.1294
799.3840, 846.6096
800.5240, 867.0718
801.6650, 916.5159
802.8040, 828.9426
803.9440, 962.3518
805.0840, 982.7441
806.2230, 1025.120
807.3630, 1256.479
808.5020, 1429.822
809.6410, 1492.149
810.7790, 1673.461
811.9180, 1852.757
813.0570, 1961.039
814.1950, 2181.307
815.3330, 2363.559
816.4710, 2552.799
817.6090, 2669.024
818.7470, 2866.236
819.8840, 2877.435
821.0220, 2973.621
822.1590, 3128.795
823.2960, 3139.957
824.4330, 3115.107
825.5690, 3050.246
826.7060, 2917.373
827.8420, 2824.490
828.9790, 2642.597
830.1150, 2514.693
831.2510, 2224.779
832.3860, 2056.856
833.5220, 1957.924
834.6570, 1823.983
835.7930, 1715.033
836.9280, 1697.076
838.0630, 1534.115
839.1980, 1443.146
840.3320, 1313.171
841.4670, 1298.195
842.6010, 1287.213
843.7350, 1250.225
844.8690, 1076.231
846.0030, 948.2310
847.1370, 838.2256
848.2700, 772.2161
849.4040, 631.2017
850.5370, 651.1829
851.6700, 488.1602
852.8030, 479.1340
853.9360, 380.1045
855.0680, 375.0725
856.2000, 316.0376
857.3330, 224.0005
858.4650, 231.9614
859.5970, 198.9209
860.7290, 144.8792
861.8600, 115.8362
862.9920, 152.7927
864.1230, 139.7490
865.2540, 138.7102
866.3850, 169.6831
867.5160, 99.66260
868.6460, 147.6560
869.7770, 142.7036
870.9070, 171.7773
872.0370, 195.9106
873.1670, 255.1013
874.2970, 258.3477
875.4270, 309.6594
876.5570, 298.0222
877.6860, 353.4565
878.8150, 307.0039
879.9440, 326.6372
881.0730, 270.3391
882.2020, 252.1123
883.3300, 98.98267
884.4590, 179.9309
885.5870, 86.96924
886.7150, 155.0942
887.8430, 144.2798
888.9710, 36.54712
890.0990, 59.87061
891.2260, 92.28101
892.3530, 3.740723
893.4810, 12.26855
894.6080, 73.11377
895.7340, 52.01807
896.8610, 41.32373
897.9880, 96.57520
899.1140, 44.80273
900.2400, 52.99390
901.3660, 84.16699
902.4920, 50.32373
903.6180, 38.45312
904.7430, 18.55688
905.8690, 36.60522
906.9940, 50.63110
908.1190, 2.349854
909.2440, 28.35449
910.3690, 40.60889
911.4930, 29.54297
912.6180, 11.54272
913.7420, 38.34204
914.8660, 40.79761
915.9900, 16.95386
917.1140, 19.86816
918.2380, 52.31445
919.3610, 61.51123
920.4850, 44.72144
921.6080, 109.9419
922.7310, 59.18481
923.8540, 68.43872
924.9760, 155.7034
926.0990, 227.9810
927.2210, 168.2698
928.3440, 231.5754
929.4660, 247.8960
930.5880, 339.2295
931.7090, 398.5747
932.8310, 401.9316
933.9520, 453.3020
935.0740, 536.6841
936.1950, 604.0837
937.3160, 658.4954
938.4360, 845.9219
939.5570, 947.3608
940.6780, 1158.813
941.7980, 1338.277
942.9180, 1534.755
944.0380, 1933.247
945.1580, 2399.751
946.2780, 2803.268
947.3970, 3599.797
948.5170, 4438.338
949.6360, 5536.895
950.7550, 6599.464
951.8740, 7980.046
952.9930, 8885.639
954.1110, 9158.812
955.2300, 9106.914
956.3480, 8899.509
957.4660, 7937.158
958.5840, 6894.820
959.7020, 6186.500
960.8190, 5298.189
961.9370, 4604.894
963.0540, 4028.612
964.1710, 3732.343
965.2880, 3336.088
966.4050, 3074.846
967.5220, 2837.619
968.6380, 2757.405
969.7550, 2715.205
970.8710, 2727.019
971.9870, 2672.959
973.1030, 2723.660
974.2190, 2616.515
975.3340, 2560.899
976.4500, 2511.781
977.5650, 2603.678
978.6800, 2588.588
979.7950, 2688.512
980.9100, 2801.449
982.0250, 2624.401
983.1390, 2709.367
984.2530, 2396.347
985.3680, 2260.341
986.4820, 1978.347
987.5950, 1708.368
988.7090, 1518.402
989.8230, 1449.450
990.9360, 1233.512
992.0490, 1137.587
993.1620, 1037.677
994.2750, 919.7793
995.3880, 921.8982
996.5010, 910.6226
997.6130, 946.1707
998.7250, 1028.263
999.8370, 1071.127
1000.949, 1205.312
1002.061, 1306.947
1003.173, 1511.979
1004.284, 1789.251
1005.396, 2067.532
1006.507, 2283.099
1007.618, 2718.365
1008.729, 3034.655
1009.839, 3249.026
1010.950, 3352.322
1012.060, 3469.775
1013.171, 3297.932
1014.281, 3203.856
1015.391, 3008.994
1016.500, 2612.521
1017.610, 2386.688
1018.719, 2092.135
1019.829, 1844.095
1020.938, 1638.636
1022.047, 1247.037
1023.156, 1117.934
1024.264, 979.7915
1025.373, 925.1929
1026.481, 745.2810
1027.589, 784.1521
1028.697, 633.4167
1029.805, 712.9595
1030.913, 681.6960
1032.020, 650.3218
1033.128, 639.2168
1034.235, 653.0647
1035.342, 739.7593
1036.449, 717.5811
1037.556, 732.0583
1038.663, 789.1682
1039.769, 780.5903
1040.875, 823.2585
1041.981, 829.8027
1043.087, 771.3281
1044.193, 763.5029
1045.299, 780.0898
1046.404, 741.7598
1047.510, 673.6104
1048.615, 624.8950
1049.720, 584.6084
1050.825, 569.5581
1051.930, 475.6416
1053.034, 453.1169
1054.139, 394.5933
1055.243, 320.6946
1056.347, 319.2708
1057.451, 282.3650
1058.555, 297.6309
1059.658, 264.1099
1060.762, 306.9351
1061.865, 306.1191
1062.968, 299.9746
1064.071, 339.4548
1065.174, 310.0881
1066.277, 333.9268
1067.380, 318.4060
1068.482, 331.1724
1069.584, 423.6816
1070.686, 366.7563
1071.788, 390.3826
1072.890, 461.9082
1073.992, 462.6196
1075.093, 416.2488
1076.194, 485.0210
1077.295, 474.4910
1078.396, 496.9597
1079.497, 492.5439
1080.598, 458.0093
1081.698, 381.5879
1082.799, 362.1443
1083.899, 347.7329
1084.999, 245.2996
1086.099, 253.9067
1087.199, 173.3621
1088.298, 145.8408
1089.398, 162.6265
1090.497, 146.1189
1091.596, 104.7104
1092.695, 59.15039
1093.794, 61.59619
1094.892, 61.06885
1095.991, 54.52759
1097.089, 77.03003
1098.187, 13.49268
1099.285, 13.03687
1100.383, 38.47852
1101.481, 6.913330
1102.579, 66.32666
1103.676, 17.23511
1104.773, 28.23730
1105.870, 6.629150
1106.967, 24.98364
1108.064, 8.484131
1109.161, 22.84888
1110.257, 7.209473
1111.353, 38.56494
1112.449, 14.91602
1113.545, 75.45166
1114.641, 28.80835
1115.737, 84.14429
1116.832, 80.47485
1117.928, 72.80127
1119.023, 70.12305
1120.118, 82.12842
1121.213, 87.33374
1122.308, 108.0588
1123.402, 112.3599
1124.497, 115.6750
1125.591, 123.9658
1126.685, 100.4863
1127.779, 43.59033
1128.873, 49.86426
1129.967, 9.868164
1131.060, 37.61572
1132.153, 46.69702
1133.247, 17.08667
1134.340, 38.88989
1135.433, 15.38989
1136.525, 17.56836
1137.618, 14.25415
1138.710, 28.87671
1139.802, 27.00049
1140.895, 11.74951
1141.987, 60.28418
1143.078, 10.41260
1144.170, 5.328857
1145.261, 1.260986
1146.353, 36.18872
1147.444, 10.16650
1148.535, 4.121338
1149.626, 40.13379
1150.716, 16.14526
1151.807, 9.214355
1152.897, 37.69702
1153.988, 14.36719
1155.078, 13.48560
1156.168, 45.37476
1157.257, 32.77344
1158.347, 3.047607
1159.436, 18.04614
1160.526, 65.79492
1161.615, 32.34863
1162.704, 5.537109
1163.793, 60.31763
1164.881, 32.09644
1165.970, 71.87500
1167.058, 18.66089
1168.147, 10.44458
1169.235, 6.776367
1170.323, 23.02881
1171.410, 58.79639
1172.498, 31.56494
1173.585, 20.67603
1174.673, 47.05640
1175.760, 60.78760
1176.847, 6.484863
1177.934, 28.77637
1179.020, 8.7890001E-03
1180.107, 17.67505
1181.193, 91.33081
1182.279, 4.133301
1183.365, 76.76611
1184.451, 65.38940
1185.537, 27.99536
1186.623, 41.59155
1187.708, 89.16895
1188.793, 11.73779
1189.878, 69.40454
1190.963, 7.006104
1192.048, 3.607422
1193.133, 14.11304
1194.217, 84.80615
1195.302, 34.28784
1196.386, 15.75854
1197.470, 88.21509
1198.554, 5.337158
1199.638, 65.09009
1200.721, 7.507080
1201.805, 37.90942
1202.888, 62.30103
1203.971, 27.68213
1205.054, 38.05151
1206.137, 22.50806
1207.219, 139.8857
1208.302, 83.33228
1209.384, 49.65698
1210.466, 123.9695
1211.548, 51.27148
1212.630, 56.56299
1213.712, 48.84497
1214.794, 54.12036
1215.875, 44.38428
1216.956, 80.64307
1218.037, 75.05908
1219.118, 23.31787
1220.199, 71.53564
1221.280, 47.97827
1222.360, 88.17358
1223.441, 82.57837
1224.521, 75.78882
1225.601, 78.95361
1226.681, 68.30566
1227.760, 77.58447
1228.840, 57.71509
1229.919, 81.88867
1230.999, 83.02222
1232.078, 90.37109
1233.157, 81.48828
1234.236, 69.61035
1235.314, 94.67261
1236.393, 94.78320
1237.471, 64.35278
1238.549, 98.40015
1239.627, 105.4675
1240.705, 188.4734
1241.783, 107.4722
1242.860, 44.45557
1243.938, 86.48193
1245.015, 151.4409
1246.092, 111.4216
1247.169, 110.5554
1248.246, 144.7876
1249.323, 93.70215
1250.399, 132.9580
1251.475, 141.9807
1252.552, 124.8828
1253.628, 88.87964
1254.703, 151.9587
1255.779, 80.10278
1256.855, 129.1702
1257.930, 106.0735
1259.005, 147.8958
1260.080, 96.86572
1261.155, 70.97803
1262.230, 132.0371
1263.305, 141.5713
1264.379, 62.52612
1265.454, 85.27979
1266.528, 83.98828
1267.602, 156.4146
1268.676, 98.24072
1269.750, 75.94556
1270.823, 123.6592
1271.897, 42.61792
1272.970, 115.3630
1274.043, 179.2842
1275.116, 85.34790
1276.189, 134.3396
1277.261, 76.86035
1278.334, 117.7737
1279.406, 75.35693
1280.478, 84.51904
1281.550, 106.9685
1282.622, 74.59033
1283.694, 128.8569
1284.766, 97.01099
1285.837, 82.75952
