##NAMES=Amesite
##RRUFFID=R070132
##IDEAL CHEMISTRY=Mg_2_Al(AlSiO_5_)(OH)_4_
##LOCALITY=Saranovskii mine, Saranovskaya Village, Gornozavodskii area, Permskaya Oblast', Middle Urals, Russia
##OWNER=RRUFF
##SOURCE=Michael Scott
##DESCRIPTION=Purple transparent hexagonal prisms, polytype 2H2
##STATUS=The identification of this mineral is confirmed by single-crystal X-ray diffraction and chemical analysis.
##URL=rruff.info/R070132
##MEASURED CHEMISTRY=(Mg_1.87_[box]_0.05_Cr_0.05_Fe^2+^_0.03_)_Σ=2_(Al_0.98_Cr_0.02_)_Σ=1_(Si_1.05_Al_0.95_)O_5_(OH)_4_ ; OH estimated by difference
##PIN_ID=M00364
147.4850, 0.0000000E+00
148.7160, 31.03955
149.9470, 5.275391
151.1780, 124.1714
152.4080, 243.3950
153.6380, 91.44873
154.8690, 162.4839
156.0980, 252.1709
157.3280, 37.87646
158.5580, 91.37793
159.7870, 82.49609
161.0170, 92.05273
162.2460, 12.56006
163.4750, 93.71533
164.7030, 107.5508
165.9320, 258.7593
167.1600, 151.2812
168.3890, 114.5308
169.6170, 140.3711
170.8450, 182.5024
172.0730, 225.6978
173.3000, 107.7861
174.5280, 276.6431
175.7550, 142.1704
176.9820, 277.2832
178.2090, 489.9165
179.4350, 611.0161
180.6620, 750.5400
181.8880, 1020.452
183.1150, 1216.724
184.3410, 1564.331
185.5670, 1884.431
186.7920, 2273.170
188.0180, 2774.666
189.2430, 3409.910
190.4690, 4064.814
191.6940, 4780.424
192.9180, 5686.783
194.1430, 6609.930
195.3680, 7397.899
196.5920, 8507.723
197.8160, 9534.428
199.0400, 11072.03
200.2640, 12633.64
201.4880, 14487.24
202.7110, 16666.78
203.9350, 19345.31
205.1580, 21918.81
206.3810, 25489.32
207.6040, 29014.83
208.8270, 33655.36
210.0490, 38658.90
211.2710, 44024.48
212.4940, 48385.11
213.7160, 51147.77
214.9370, 50416.49
216.1590, 46451.26
217.3810, 39536.11
218.6020, 32555.01
219.8230, 25417.99
221.0440, 19658.02
222.2650, 14953.06
223.4860, 11536.22
224.7060, 8674.354
225.9260, 6906.766
227.1470, 5610.287
228.3670, 4583.790
229.5860, 3976.282
230.8060, 3318.099
232.0260, 2912.061
233.2450, 2572.173
234.4640, 2329.439
235.6830, 2162.863
236.9020, 2024.449
238.1200, 1957.199
239.3390, 1962.155
240.5570, 1985.950
241.7750, 2161.438
242.9930, 2221.839
244.2110, 2496.396
245.4290, 2485.303
246.6460, 2771.962
247.8630, 2455.970
249.0810, 2354.124
250.2980, 2177.422
251.5140, 2187.240
252.7310, 2318.211
253.9470, 2386.886
255.1640, 2592.699
256.3800, 2712.646
257.5960, 2684.728
258.8120, 2666.941
260.0270, 2380.282
261.2430, 2022.733
262.4580, 1521.292
263.6730, 1342.957
264.8880, 1250.727
266.1030, 1116.603
267.3170, 1014.584
268.5320, 932.6719
269.7460, 1122.864
270.9600, 1220.162
272.1740, 1187.565
273.3880, 1253.072
274.6010, 1373.683
275.8150, 1283.396
277.0280, 1293.211
278.2410, 1402.129
279.4540, 1340.148
280.6670, 1376.271
281.8790, 1495.037
283.0920, 1549.974
284.3040, 1731.235
285.5160, 1850.755
286.7280, 1956.372
287.9400, 2233.089
289.1510, 2457.901
290.3630, 2371.811
291.5740, 2090.816
292.7850, 1708.916
293.9960, 1163.421
295.2070, 648.9502
296.4170, 183.4639
297.6280, 34.98828
298.8380, 146.5312
300.0480, 235.9639
301.2580, 249.8330
302.4680, 358.5264
303.6770, 357.4819
304.8870, 449.0000
306.0960, 365.2725
307.3050, 292.3652
308.5140, 279.9717
309.7230, 177.8418
310.9310, 6.533203
312.1400, 245.9590
313.3480, 495.6465
314.5560, 929.5215
315.7640, 956.5654
316.9720, 999.7812
318.1790, 991.1592
319.3870, 791.6982
320.5940, 1149.416
321.8010, 1346.280
323.0080, 1606.312
324.2150, 2045.521
325.4210, 2415.893
326.6280, 2734.401
327.8340, 3113.047
329.0400, 3314.803
330.2460, 3309.639
331.4510, 3079.555
332.6570, 3190.539
333.8620, 3749.573
335.0680, 4615.654
336.2730, 5765.785
337.4780, 6472.964
338.6820, 5973.195
339.8870, 4736.479
341.0910, 3610.815
342.2950, 2847.205
343.5000, 2172.650
344.7030, 1560.150
345.9070, 1202.705
347.1110, 837.3154
348.3140, 627.9814
349.5170, 509.7031
350.7200, 227.4805
351.9230, 166.3145
353.1260, 9.794922
354.3290, 69.14844
355.5310, 88.85254
356.7330, 173.1895
357.9350, 206.2871
359.1370, 281.4404
360.3390, 356.6494
361.5400, 385.4717
362.7420, 443.5615
363.9430, 483.6074
365.1440, 553.0352
366.3450, 656.5186
367.5460, 785.0557
368.7460, 593.5986
369.9470, 784.0273
371.1470, 656.2520
372.3470, 671.2383
373.5470, 810.1006
374.7460, 971.9746
375.9460, 1349.919
377.1450, 2340.931
378.3450, 3029.012
379.5440, 2719.160
380.7430, 2898.376
381.9410, 2901.657
383.1400, 2819.005
384.3380, 2838.418
385.5370, 2956.895
386.7350, 3044.435
387.9320, 3120.037
389.1300, 3193.703
390.3280, 3355.430
391.5250, 3463.218
392.7220, 3766.066
393.9190, 3862.973
395.1160, 3772.941
396.3130, 3574.963
397.5100, 3328.025
398.7060, 3346.145
399.9020, 3781.321
401.0980, 4334.555
402.2940, 5124.844
403.4900, 6316.187
404.6860, 8087.584
405.8810, 9708.038
407.0760, 11086.54
408.2710, 12070.11
409.4660, 11846.72
410.6610, 11617.38
411.8550, 11098.10
413.0500, 10946.87
414.2440, 11493.69
415.4380, 12286.56
416.6320, 13325.48
417.8260, 15133.45
419.0190, 16449.47
420.2130, 17113.54
421.4060, 15931.66
422.5990, 13776.82
423.7920, 11126.03
424.9850, 8705.288
426.1770, 6685.594
427.3700, 5150.945
428.5620, 4277.342
429.7540, 3751.783
430.9460, 3498.270
432.1380, 3340.801
433.3290, 3633.375
434.5210, 3981.992
435.7120, 4223.653
436.9030, 4752.355
438.0940, 5027.111
439.2850, 5060.916
440.4750, 4934.772
441.6660, 4440.681
442.8560, 4107.346
444.0460, 3542.925
445.2360, 3223.949
446.4260, 3118.173
447.6160, 3139.209
448.8050, 3223.423
449.9940, 3418.537
451.1830, 3412.634
452.3720, 3313.048
453.5610, 3465.965
454.7500, 3797.640
455.9380, 4056.155
457.1260, 3846.768
458.3150, 3919.533
459.5020, 3607.850
460.6900, 3271.828
461.8780, 2784.547
463.0650, 2444.586
464.2530, 2344.713
465.4400, 2250.168
466.6270, 2322.268
467.8130, 2524.717
469.0000, 2795.719
470.1870, 3176.420
471.3730, 3711.607
472.5590, 4484.646
473.7450, 5281.711
474.9310, 6069.803
476.1160, 6781.930
477.3020, 7494.082
478.4870, 8029.260
479.6720, 8815.475
480.8570, 9367.715
482.0420, 10271.98
483.2270, 11115.29
484.4110, 12039.63
485.5960, 12808.04
486.7800, 13636.41
487.9640, 14375.85
489.1480, 15051.34
490.3310, 15892.87
491.5150, 16176.43
492.6980, 15843.03
493.8810, 14604.65
495.0640, 12747.29
496.2470, 10902.68
497.4300, 8609.361
498.6120, 6439.607
499.7950, 4920.333
500.9770, 4042.077
502.1590, 3401.842
503.3410, 2770.626
504.5220, 2391.429
505.7040, 2045.251
506.8850, 2048.093
508.0660, 1881.951
509.2470, 1746.828
510.4280, 1942.724
511.6090, 1928.637
512.7890, 2112.567
513.9700, 2166.516
515.1500, 2424.485
516.3300, 2643.476
517.5100, 3111.484
518.6900, 3403.515
519.8690, 3962.563
521.0490, 4515.632
522.2280, 5286.719
523.4070, 6203.824
524.5860, 7147.947
525.7640, 8059.086
526.9430, 9156.244
528.1210, 10360.42
529.3000, 11886.61
530.4780, 13054.82
531.6560, 14331.04
532.8330, 15366.27
534.0110, 16022.52
535.1880, 16699.79
536.3650, 16583.07
537.5430, 16383.36
538.7190, 15918.67
539.8960, 14846.99
541.0730, 13877.33
542.2490, 13009.67
543.4250, 11842.03
544.6020, 11012.40
545.7780, 10277.78
546.9530, 9612.168
548.1290, 8793.568
549.3040, 8159.592
550.4800, 7466.114
551.6550, 6873.836
552.8300, 6171.277
554.0040, 5613.728
555.1790, 5030.187
556.3540, 4464.652
557.5280, 3965.128
558.7020, 3461.810
559.8760, 3013.100
561.0500, 2561.595
562.2230, 2224.098
563.3970, 1848.607
564.5700, 1693.124
565.7430, 1509.645
566.9160, 1312.172
568.0890, 1127.703
569.2620, 851.2393
570.4340, 867.7793
571.6070, 699.3242
572.7790, 698.8730
573.9510, 641.4238
575.1230, 432.9785
576.2940, 528.5371
577.4660, 341.0986
578.6370, 420.6611
579.8080, 360.2266
580.9790, 154.7920
582.1500, 140.3594
583.3210, 189.9277
584.4910, 58.52246
585.6620, 57.15820
586.8320, 126.1660
588.0020, 36.48730
589.1720, 26.80078
590.3410, 8.039063
591.5110, 68.24023
592.6800, 123.4531
593.8500, 176.7109
595.0190, 121.0664
596.1880, 176.5166
597.3560, 176.0811
598.5250, 128.7754
599.6930, 167.5742
600.8620, 144.5000
602.0300, 154.5410
603.1970, 237.7031
604.3650, 126.0312
605.5330, 209.4668
606.7000, 261.0547
607.8680, 211.8223
609.0350, 118.7432
610.2020, 128.7715
611.3680, 23.91211
612.5350, 206.8896
613.7010, 236.6855
614.8680, 481.4736
616.0340, 803.7812
617.2000, 1162.556
618.3660, 1639.323
619.5310, 1809.247
620.6970, 2219.999
621.8620, 2440.743
623.0270, 2207.789
624.1920, 1991.486
625.3570, 1664.109
626.5220, 1393.847
627.6860, 1112.914
628.8500, 872.6182
630.0140, 783.8809
631.1780, 569.6436
632.3420, 453.7451
633.5060, 278.4756
634.6700, 305.1953
635.8330, 262.9014
636.9960, 255.5996
638.1590, 242.2881
639.3220, 253.7627
640.4850, 245.6650
641.6470, 318.3369
642.8100, 327.9961
643.9720, 397.6670
645.1340, 387.3281
646.2960, 369.9873
647.4570, 355.6387
648.6190, 397.2803
649.7800, 452.9082
650.9420, 407.5234
652.1030, 391.1240
653.2640, 496.7119
654.4240, 449.2871
655.5850, 619.8477
656.7450, 455.3936
657.9060, 621.9258
659.0660, 711.4434
660.2260, 662.9473
661.3850, 740.4375
662.5450, 831.1641
663.7040, 841.3721
664.8640, 1062.816
666.0230, 1103.247
667.1820, 1242.662
668.3410, 1447.062
669.4990, 1680.598
670.6580, 2086.815
671.8160, 2308.171
672.9740, 2660.508
674.1320, 3026.831
675.2900, 3594.138
676.4480, 4094.429
677.6050, 4835.703
678.7630, 5348.962
679.9200, 6133.205
681.0770, 6875.432
682.2340, 7577.642
683.3900, 7574.835
684.5470, 7857.012
685.7030, 7598.172
686.8590, 7273.317
688.0150, 6537.445
689.1710, 6034.555
690.3270, 5407.650
691.4830, 5235.727
692.6380, 5121.785
693.7930, 5263.828
694.9480, 5605.854
696.1030, 6288.863
697.2580, 7342.854
698.4130, 8696.827
699.5670, 10101.78
700.7210, 11831.72
701.8750, 13743.65
703.0290, 15873.55
704.1830, 17572.44
705.3370, 18605.30
706.4900, 18830.66
707.6430, 18878.00
708.7970, 17560.81
709.9490, 15710.61
711.1020, 13734.39
712.2550, 11679.15
713.4070, 9792.901
714.5600, 8313.629
715.7120, 6904.340
716.8640, 5855.032
718.0160, 4926.709
719.1670, 4110.365
720.3190, 3675.006
721.4700, 3117.627
722.6210, 2727.230
723.7720, 2359.678
724.9230, 2083.062
726.0740, 1887.499
727.2250, 1786.269
728.3750, 1439.690
729.5250, 1418.122
730.6750, 1137.773
731.8250, 1092.067
732.9750, 964.6943
734.1240, 848.7119
735.2740, 812.3887
736.4230, 672.5078
737.5720, 681.7520
738.7210, 601.4707
739.8700, 467.5527
741.0190, 475.9248
742.1670, 446.0010
743.3150, 362.0156
744.4630, 327.9619
745.6110, 283.1387
746.7590, 178.5840
747.9070, 152.8232
749.0540, 68.38574
750.2020, 61.48730
751.3490, 81.75781
752.4960, 69.02539
753.6430, 19.71094
754.7890, 21.53125
755.9360, 58.76953
757.0820, 30.99609
758.2280, 108.2119
759.3740, 45.41699
760.5200, 67.38281
761.6660, 11.22559
762.8120, 40.81543
763.9570, 34.29297
765.1020, 80.09961
766.2470, 39.34766
767.3920, 64.14355
768.5370, 6.173828
769.6810, 43.50098
770.8260, 37.41602
771.9700, 65.32910
773.1140, 27.23926
774.2580, 121.1445
775.4020, 127.3828
776.5460, 133.5576
777.6890, 211.3887
778.8320, 288.2783
779.9750, 196.1641
781.1180, 335.4805
782.2610, 378.6914
783.4040, 458.0693
784.5460, 563.8359
785.6890, 612.3008
786.8310, 708.1631
787.9730, 748.1787
789.1150, 696.8779
790.2560, 808.7305
791.3980, 819.5781
792.5390, 815.4219
793.6810, 882.2637
794.8220, 778.1016
795.9630, 825.9365
797.1030, 824.7695
798.2440, 795.5986
799.3840, 767.4258
800.5240, 956.2500
801.6650, 954.0703
802.8040, 961.8887
803.9440, 1102.705
805.0840, 921.5195
806.2230, 1054.331
807.3630, 1002.141
808.5020, 1035.948
809.6410, 862.7539
810.7790, 827.5566
811.9180, 705.3584
813.0570, 929.1592
814.1950, 910.9590
815.3330, 1016.756
816.4710, 996.5518
817.6090, 974.3477
818.7470, 986.1426
819.8840, 1027.517
821.0220, 1192.729
822.1590, 1142.521
823.2960, 1260.312
824.4330, 1306.103
825.5690, 1197.893
826.7060, 1224.683
827.8420, 1344.474
828.9790, 1226.264
830.1150, 1227.055
831.2510, 1279.846
832.3860, 1268.638
833.5220, 1264.429
834.6570, 1255.463
835.7930, 1137.017
836.9280, 1174.812
838.0630, 1104.609
839.1980, 1005.408
840.3320, 966.2100
841.4670, 914.0264
842.6010, 685.8438
843.7350, 599.6641
844.8690, 502.4863
846.0030, 374.3086
847.1370, 337.1338
848.2700, 186.9609
849.4040, 296.7891
850.5370, 287.6221
851.6700, 140.4570
852.8030, 15.29297
853.9360, 61.13281
855.0680, 142.9766
856.2000, 196.8203
857.3330, 168.1611
858.4650, 94.51758
859.5970, 131.3711
860.7290, 48.25293
861.8600, 123.1406
862.9920, 168.0781
864.1230, 102.0234
865.2540, 54.99414
866.3850, 18.98535
867.5160, 4.987305
868.6460, 43.10352
869.7770, 7.258789
870.9070, 61.53223
872.0370, 113.7139
873.1670, 226.0273
874.2970, 106.3955
875.4270, 144.8281
876.5570, 132.3223
877.6860, 222.8848
878.8150, 233.5332
879.9440, 437.2383
881.0730, 430.0293
882.2020, 599.9297
883.3300, 630.9307
884.4590, 472.9932
885.5870, 442.1318
886.7150, 426.3125
887.8430, 484.5000
888.9710, 304.6914
890.0990, 228.3740
891.2260, 215.6094
892.3530, 29.84668
893.4810, 160.9375
894.6080, 233.1953
895.7340, 90.45801
896.8610, 105.4199
897.9880, 119.2754
899.1140, 114.0732
900.2400, 39.69531
901.3660, 97.80469
902.4920, 35.57617
903.6180, 194.1064
904.7430, 101.7188
905.8690, 125.0928
906.9940, 84.28320
908.1190, 99.48145
909.2440, 70.68652
910.3690, 14.10059
911.4930, 11.88379
912.6180, 31.66309
913.7420, 44.55371
914.8660, 35.77734
915.9900, 113.9912
917.1140, 13.80078
918.2380, 64.61035
919.3610, 30.43555
920.4850, 22.26270
921.6080, 37.91016
922.7310, 75.08984
923.8540, 66.27734
924.9760, 139.4873
926.0990, 125.7061
927.2210, 149.9307
928.3440, 316.1631
929.4660, 474.4287
930.5880, 729.7012
931.7090, 890.9824
932.8310, 1098.270
933.9520, 1232.565
935.0740, 1574.867
936.1950, 1832.176
937.3160, 1902.492
938.4360, 1971.816
939.5570, 1970.146
940.6780, 1798.483
941.7980, 1544.826
942.9180, 1469.176
944.0380, 1518.532
945.1580, 1510.917
946.2780, 1332.315
947.3970, 1604.721
948.5170, 1584.139
949.6360, 1583.561
950.7550, 1824.992
951.8740, 2054.435
952.9930, 2143.883
954.1110, 2319.338
955.2300, 2336.799
956.3480, 2321.267
957.4660, 2340.740
958.5840, 2413.219
959.7020, 2388.705
960.8190, 2448.241
961.9370, 2736.744
963.0540, 3106.248
964.1710, 3618.924
965.2880, 4151.570
966.4050, 4763.100
967.5220, 5380.631
968.6380, 5986.354
969.7550, 6483.896
970.8710, 6504.448
971.9870, 6454.645
973.1030, 6313.208
974.2190, 6121.896
975.3340, 5962.803
976.4500, 5848.391
977.5650, 5474.229
978.6800, 5343.816
979.7950, 5370.410
980.9100, 5365.131
982.0250, 5093.888
983.1390, 4976.496
984.2530, 4627.365
985.3680, 4149.123
986.4820, 3708.745
987.5950, 3195.497
988.7090, 2781.336
989.8230, 2444.972
990.9360, 2023.612
992.0490, 1871.324
993.1620, 1785.098
994.2750, 1653.190
995.3880, 1519.099
996.5010, 1514.760
997.6130, 1375.425
998.7250, 1437.270
999.8370, 1415.941
1000.949, 1590.861
1002.061, 1717.489
1003.173, 1969.406
1004.284, 2226.470
1005.396, 2193.157
1006.507, 2540.843
1007.618, 2847.530
1008.729, 3302.312
1009.839, 3718.265
1010.950, 4350.226
1012.060, 4801.390
1013.171, 5245.331
1014.281, 5242.434
1015.391, 5177.953
1016.500, 4959.295
1017.610, 4548.360
1018.719, 3992.721
1019.829, 3368.356
1020.938, 2889.264
1022.047, 2470.932
1023.156, 2014.232
1024.264, 1704.965
1025.373, 1339.737
1026.481, 1107.933
1027.589, 884.3262
1028.697, 774.0371
1029.805, 663.1738
1030.913, 621.0977
1032.020, 538.5801
1033.128, 470.7686
1034.235, 430.7412
1035.342, 306.7363
1036.449, 364.2100
1037.556, 216.9307
1038.663, 228.1123
1039.769, 202.6406
1040.875, 234.6211
1041.981, 219.9160
1043.087, 246.5791
1044.193, 222.1055
1045.299, 198.7637
1046.404, 226.6494
1047.510, 162.5137
1048.615, 172.3535
1049.720, 224.6045
1050.825, 65.95215
1051.930, 193.1211
1053.034, 261.8936
1054.139, 152.0928
1055.243, 162.7500
1056.347, 232.7686
1057.451, 268.5029
1058.555, 196.1699
1059.658, 135.9678
1060.762, 78.80762
1061.865, 192.6172
1062.968, 131.3711
1064.071, 169.3740
1065.174, 207.0771
1066.277, 201.8057
1067.380, 213.7139
1068.482, 285.2939
1069.584, 205.3359
1070.686, 128.9805
1071.788, 317.5381
1072.890, 208.0879
1073.992, 191.7627
1075.093, 157.3779
1076.194, 290.9053
1077.295, 234.7842
1078.396, 316.6006
1079.497, 330.5498
1080.598, 228.9736
1081.698, 162.5459
1082.799, 138.5576
1083.899, 264.0137
1084.999, 277.7432
1086.099, 257.1943
1087.199, 227.6348
1088.298, 244.0664
1089.398, 187.4893
1090.497, 92.90234
1091.596, 72.55176
1092.695, 50.94531
1093.794, 61.32910
1094.892, 114.7041
1095.991, 25.87598
1097.089, 35.23145
1098.187, 65.57617
1099.285, 185.4111
1100.383, 24.73633
1101.481, 82.04785
1102.579, 82.78711
1103.676, 1.269531
1104.773, 119.5439
1105.870, 44.80762
1106.967, 40.93945
1108.064, 73.27148
1109.161, 21.47266
1110.257, 77.66016
1111.353, 106.8369
1112.449, 50.06348
1113.545, 43.21777
1114.641, 115.3594
1115.737, 25.49121
1116.832, 49.60840
1117.928, 87.71289
1119.023, 54.80664
1120.118, 35.88672
1121.213, 169.9541
1122.308, 128.0098
1123.402, 72.05469
1124.497, 59.08691
1125.591, 70.89355
1126.685, 33.06641
1127.779, 129.0137
1128.873, 125.9492
1129.967, 50.87305
1131.060, 94.78223
1132.153, 36.68066
1133.247, 33.43652
1134.340, 39.40723
1135.433, 22.23926
1136.525, 157.0615
1137.618, 122.8848
1138.710, 118.6953
1139.802, 77.49414
1140.895, 39.28027
1141.987, 1.946289
1143.078, 17.80078
1144.170, 42.53418
1145.261, 3.749023
1146.353, 58.05664
1147.444, 55.14355
1148.535, 2.833984
1149.626, 55.27441
1150.716, 27.76660
1151.807, 50.70117
1152.897, 190.1553
1153.988, 22.40234
1155.078, 60.99609
1156.168, 83.35352
1157.257, 16.31055
1158.347, 156.9932
1159.436, 98.28516
1160.526, 22.56543
1161.615, 50.82812
1162.704, 92.21680
1163.793, 75.48047
1164.881, 75.73828
1165.970, 187.9883
1167.058, 58.75391
1168.147, 156.4541
1169.235, 72.64941
1170.323, 24.14844
1171.410, 55.01465
1172.498, 54.16211
1173.585, 54.29395
1174.673, 80.61719
1175.760, 62.61621
1176.847, 88.60352
1177.934, 77.68359
1179.020, 82.74805
1180.107, 167.7979
1181.193, 167.8564
1182.279, 251.9053
1183.365, 234.9512
1184.451, 87.98828
1185.537, 179.0127
1186.623, 42.02441
1187.708, 43.98047
1188.793, 114.9639
1189.878, 82.89453
1190.963, 71.81055
1192.048, 77.29004
1193.133, 89.54297
1194.217, 40.36133
1195.302, 99.16211
1196.386, 91.94824
1197.470, 49.72070
1198.554, 129.4746
1199.638, 32.21582
1200.721, 105.9385
1201.805, 202.6484
1202.888, 135.3428
1203.971, 94.02441
1205.054, 106.6914
1206.137, 132.3428
1207.219, 64.01855
1208.302, 0.5605470
1209.384, 36.11328
1210.466, 7.648438
1211.548, 106.1611
1212.630, 26.66113
1213.712, 6.140625
1214.794, 62.59863
1215.875, 147.0400
1216.956, 159.4688
1218.037, 177.8838
1219.118, 170.2871
1220.199, 168.4766
1221.280, 69.05176
1222.360, 140.4121
1223.441, 176.7148
1224.521, 158.1738
1225.601, 10.49414
1226.681, 173.2188
1227.760, 147.3779
1228.840, 30.64648
1229.919, 163.9014
1230.999, 198.9609
1232.078, 38.18945
1233.157, 83.40234
1234.236, 165.9639
1235.314, 198.1494
1236.393, 157.2002
1237.471, 167.0322
1238.549, 216.1729
1239.627, 150.1758
1240.705, 243.3018
1241.783, 111.4170
1242.860, 129.4004
1243.938, 265.4434
1245.015, 300.5244
1246.092, 185.3398
1247.169, 163.2598
1248.246, 347.3076
1249.323, 247.2295
1250.399, 444.0498
1251.475, 285.0674
1252.552, 177.0977
1253.628, 247.0469
1254.703, 188.9346
1255.779, 347.4941
1256.855, 247.2324
1257.930, 241.2100
1259.005, 129.1748
1260.080, 319.9600
1261.155, 216.9082
1262.230, 367.6006
1263.305, 339.3604
1264.379, 288.1875
1265.454, 273.8828
1266.528, 334.8613
1267.602, 345.7500
1268.676, 345.6250
1269.750, 388.6387
1270.823, 303.4912
1271.897, 221.1035
1272.970, 294.5986
1274.043, 229.3213
1275.116, 363.6543
1276.189, 272.7354
1277.261, 211.8838
1278.334, 355.3623
1279.406, 339.7354
1280.478, 333.5557
1281.550, 290.0889
1282.622, 216.8848
1283.694, 163.9980
1284.766, 221.6748
1285.837, 118.6289
1286.908, 211.2617
1287.979, 199.1113
1289.050, 164.1611
1290.121, 239.3760
1291.192, 57.81152
1292.262, 265.7988
1293.333, 176.1250
1294.403, 323.6289
1295.473, 315.2812
1296.543, 288.0332
1297.613, 188.6650
1298.682, 289.1133
1299.752, 161.0410
1300.821, 139.3926
1301.890, 316.7285
1302.959, 137.2021
1304.028, 174.6250
1305.096, 274.9619
1306.165, 357.3965
1307.233, 345.7734
1308.301, 237.1592
1309.370, 408.6846
1310.437, 338.1992
1311.505, 441.7041
1312.573, 421.1973
1313.640, 372.5459
1314.708, 267.0186
1315.775, 209.1162
1316.842, 288.4844
