##NAMES=Analcime
##RRUFFID=R060023
##IDEAL CHEMISTRY=NaAlSi_2_O_6_&#183;H_2_O
##LOCALITY=Dallas, Oregon, USA
##OWNER=RRUFF
##SOURCE=Bob Downs
##DESCRIPTION=White trapezohedral crystal associated with levyne-Na, R060021
##STATUS=The identification of this mineral has been confirmed by X-ray diffraction and chemical analysis
##URL=rruff.info/R060023
##MEASURED CHEMISTRY=(Na_0.98_[box]_0.02_)_Σ=1_(Si_2.02_Al_0.98_)O_6_·H_2_O
##PIN_ID=M00322
##ORIENTATION=Laser parallel to a* (1 0 0). Fiducial mark perpendicular to laser is parallel to c [0 0 1]
171.7860, 0.0000000E+00
173.0130, 24.98901
174.2400, 57.80664
175.4670, 39.23389
176.6930, 50.62354
177.9200, 4.648926
179.1460, 22.71265
180.3720, 62.17798
181.5980, 80.56152
182.8230, 125.9282
184.0490, 85.22095
185.2740, 141.5046
186.5000, 223.2661
187.7250, 186.9958
188.9500, 262.5845
190.1740, 325.1694
191.3990, 346.1531
192.6230, 410.3208
193.8480, 370.4211
195.0720, 487.5208
196.2960, 409.1960
197.5200, 415.5139
198.7430, 388.2285
199.9670, 380.5420
201.1900, 369.0464
202.4130, 389.0571
203.6360, 356.5537
204.8590, 357.7195
206.0820, 334.3723
207.3050, 330.8667
208.5270, 300.9387
209.7490, 268.5276
210.9710, 273.6506
212.1930, 266.6367
213.4150, 385.4065
214.6370, 303.8091
215.8580, 415.2834
217.0790, 252.5769
218.3010, 327.8816
219.5210, 393.5925
220.7420, 364.0366
221.9630, 460.4602
223.1830, 391.6226
224.4040, 343.7070
225.6240, 432.3267
226.8440, 352.1658
228.0640, 302.3860
229.2840, 353.4497
230.5030, 417.5417
231.7230, 385.6589
232.9420, 295.7932
234.1610, 301.9377
235.3800, 265.0884
236.5990, 220.2463
237.8170, 177.4136
239.0360, 182.5940
240.2540, 166.7883
241.4720, 105.9973
242.6900, 118.2490
243.9080, 142.4897
245.1250, 89.76782
246.3430, 84.14600
247.5600, 37.62305
248.7770, 5.194336
249.9940, 51.85425
251.2110, 41.40332
252.4280, 8.415039
253.6450, 6.696533
254.8610, 6.744385
256.0770, 69.26587
257.2930, 43.32812
258.5090, 194.4365
259.7250, 61.58521
260.9400, 34.77002
262.1560, 68.01294
263.3710, 19.23169
264.5860, 36.49951
265.8010, 58.21362
267.0160, 64.91504
268.2310, 3.392822
269.4450, 84.29663
270.6600, 16.98926
271.8740, 35.68750
273.0880, 38.39160
274.3020, 44.10059
275.5150, 18.81372
276.7290, 63.46973
277.9420, 39.74731
279.1550, 58.01758
280.3680, 53.27441
281.5810, 65.60376
282.7940, 99.74512
284.0070, 122.9275
285.2190, 184.0339
286.4310, 266.0811
287.6430, 335.0085
288.8550, 476.1233
290.0670, 538.0999
291.2790, 634.0120
292.4900, 783.8193
293.7020, 778.5513
294.9130, 826.2104
296.1240, 815.8000
297.3350, 764.3530
298.5450, 749.9141
299.7560, 685.4929
300.9660, 608.1064
302.1760, 515.7664
303.3860, 444.4919
304.5960, 402.2437
305.8060, 305.0156
307.0150, 272.2190
308.2250, 274.6145
309.4340, 187.4421
310.6430, 213.2917
311.8520, 176.1638
313.0610, 116.0544
314.2700, 193.9641
315.4780, 175.8923
316.6860, 145.8391
317.8940, 136.3503
319.1020, 191.9761
320.3100, 181.6506
321.5180, 143.3420
322.7250, 129.0317
323.9330, 201.7070
325.1400, 129.3584
326.3470, 228.9788
327.5540, 244.5640
328.7600, 281.1091
329.9670, 296.6104
331.1730, 218.0627
332.3800, 268.4639
333.5860, 246.8140
334.7920, 310.1133
335.9970, 285.3618
337.2030, 314.5579
338.4080, 306.6934
339.6140, 348.7698
340.8190, 355.7837
342.0240, 436.7290
343.2290, 394.6025
344.4330, 413.4070
345.6380, 436.1479
346.8420, 537.8320
348.0460, 481.4644
349.2500, 544.0498
350.4540, 492.5859
351.6580, 533.0747
352.8610, 547.5085
354.0650, 562.8518
355.2680, 608.0942
356.4710, 645.4487
357.6740, 677.5444
358.8760, 718.0640
360.0790, 765.4797
361.2810, 797.4077
362.4840, 837.2217
363.6860, 890.9502
364.8880, 948.5200
366.0900, 1015.974
367.2910, 1038.342
368.4930, 1146.608
369.6940, 1185.842
370.8950, 1280.071
372.0960, 1281.300
373.2970, 1400.535
374.4980, 1449.782
375.6980, 1512.040
376.8980, 1576.309
378.0990, 1648.589
379.2990, 1797.880
380.4980, 1828.182
381.6980, 1880.397
382.8980, 1960.455
384.0970, 1954.557
385.2960, 2040.615
386.4950, 2023.316
387.6940, 2031.151
388.8930, 2043.173
390.0920, 2018.833
391.2900, 2001.468
392.4880, 1998.393
393.6860, 1888.159
394.8840, 1822.468
396.0820, 1680.466
397.2800, 1593.608
398.4770, 1569.918
399.6750, 1398.290
400.8720, 1451.014
402.0690, 1338.413
403.2660, 1232.872
404.4620, 1173.590
405.6590, 1028.952
406.8550, 950.8457
408.0510, 937.9302
409.2480, 802.9165
410.4430, 819.6035
411.6390, 590.9360
412.8350, 571.6165
414.0300, 564.8579
415.2250, 591.4456
416.4200, 446.0061
417.6150, 442.3403
418.8100, 406.3433
420.0050, 434.9878
421.1990, 395.1211
422.3940, 331.0576
423.5880, 330.3127
424.7820, 307.8499
425.9750, 329.5762
427.1690, 329.8755
428.3630, 209.9141
429.5560, 357.0957
430.7490, 355.7520
431.9420, 298.9434
433.1350, 397.2988
434.3280, 486.0745
435.5200, 492.8599
436.7130, 449.7764
437.9050, 510.6006
439.0970, 501.4365
440.2890, 504.2842
441.4810, 624.1436
442.6720, 624.0254
443.8640, 641.9231
445.0550, 734.8386
446.2460, 785.7654
447.4370, 856.3804
448.6280, 973.3330
449.8180, 974.2971
451.0090, 1070.271
452.1990, 1255.255
453.3890, 1287.253
454.5790, 1445.275
455.7690, 1731.309
456.9590, 1931.352
458.1480, 2011.419
459.3380, 2353.496
460.5270, 2615.595
461.7160, 3066.702
462.9050, 3419.811
464.0940, 3887.916
465.2820, 4589.021
466.4700, 5139.125
467.6590, 5987.230
468.8470, 6915.336
470.0350, 7778.442
471.2220, 9134.548
472.4100, 10274.65
473.5970, 11367.75
474.7850, 12566.86
475.9720, 13706.96
477.1590, 14395.06
478.3460, 14997.17
479.5320, 15363.28
480.7190, 15426.39
481.9050, 15071.49
483.0910, 14221.61
484.2770, 13376.72
485.4630, 12331.84
486.6490, 11168.96
487.8340, 9962.081
489.0200, 8969.207
490.2050, 7841.335
491.3900, 6814.465
492.5750, 5900.602
493.7600, 5131.740
494.9440, 4598.882
496.1290, 3990.027
497.3130, 3663.176
498.4970, 3170.329
499.6810, 2790.485
500.8650, 2533.647
502.0480, 2325.813
503.2320, 2076.985
504.4150, 1828.162
505.5980, 1660.345
506.7810, 1466.534
507.9640, 1323.730
509.1460, 1227.024
510.3290, 1159.235
511.5110, 991.4541
512.6930, 955.6812
513.8750, 911.9160
515.0570, 794.1592
516.2390, 800.4109
517.4210, 691.6704
518.6020, 641.9377
519.7830, 634.2129
520.9640, 518.4961
522.1450, 519.7866
523.3260, 486.0854
524.5060, 496.3921
525.6870, 398.7073
526.8670, 368.0308
528.0470, 363.3630
529.2270, 288.7058
530.4070, 284.0576
531.5870, 246.4185
532.7660, 275.7896
533.9450, 161.1704
535.1240, 213.5647
536.3030, 142.9780
537.4820, 220.4038
538.6610, 146.8596
539.8390, 119.3318
541.0180, 92.82446
542.1960, 112.3369
543.3740, 93.66089
544.5520, 108.3921
545.7290, 103.9316
546.9070, 80.48047
548.0840, 108.4126
549.2620, 84.40283
550.4390, 97.00513
551.6160, 60.44727
552.7920, 21.59033
553.9690, 4.150146
555.1450, 2.500977
556.3220, 4.277832
557.4980, 9.572021
558.6740, 1.544678
559.8490, 31.11255
561.0250, 14.15405
562.2000, 23.19287
563.3760, 35.30249
564.5510, 7.756592
565.7260, 19.73096
566.9010, 21.77319
568.0750, 31.90625
569.2500, 45.96997
570.4240, 20.11035
571.5980, 73.18311
572.7720, 64.21826
573.9460, 47.40454
575.1200, 64.55859
576.2930, 9.408936
577.4670, 6.757568
578.6400, 48.13672
579.8130, 10.25073
580.9860, 8.072754
582.1590, 50.11157
583.3310, 55.49658
584.5040, 120.3069
585.6760, 37.68579
586.8480, 56.68286
588.0200, 22.29248
589.1920, 59.54517
590.3630, 33.50635
591.5350, 99.33716
592.7060, 67.27002
593.8770, 82.97681
595.0480, 84.82178
596.2190, 83.27271
597.3900, 102.4238
598.5600, 105.1460
599.7310, 144.1335
600.9010, 154.7683
602.0710, 165.3547
603.2410, 222.0684
604.4100, 172.0840
605.5800, 201.0881
606.7490, 199.2571
607.9190, 180.5869
609.0880, 197.9438
610.2570, 175.1985
611.4250, 183.9661
612.5940, 145.3350
613.7620, 185.3506
614.9310, 146.3835
616.0990, 125.4512
617.2670, 180.5486
618.4340, 202.5212
619.6020, 116.5183
620.7690, 213.4417
621.9370, 196.3281
623.1040, 242.4446
624.2710, 196.2537
625.4380, 159.3369
626.6040, 163.3872
627.7710, 91.38770
628.9370, 123.5757
630.1030, 221.6562
631.2690, 218.5569
632.4350, 142.9270
633.6010, 243.8938
634.7660, 169.7808
635.9320, 174.6682
637.0970, 70.55664
638.2620, 70.44214
639.4270, 99.32471
640.5920, 132.2527
641.7560, 120.1360
642.9210, 124.0156
644.0850, 158.8923
645.2490, 86.76562
646.4130, 77.63550
647.5770, 103.5024
648.7400, 15.36523
649.9040, 121.2236
651.0670, 155.0781
652.2300, 85.92822
653.3930, 67.77466
654.5560, 88.61670
655.7190, 92.45435
656.8810, 124.2878
658.0440, 120.1165
659.2060, 158.9399
660.3680, 143.7727
661.5300, 129.6003
662.6910, 184.4231
663.8530, 164.2419
665.0140, 153.0554
666.1750, 210.8635
667.3360, 206.6667
668.4970, 157.5337
669.6580, 224.3250
670.8190, 149.1106
671.9790, 215.8904
673.1390, 206.6643
674.2990, 211.4329
675.4590, 162.3091
676.6190, 194.2749
677.7790, 191.0244
678.9380, 152.9463
680.0970, 97.50977
681.2570, 91.24219
682.4160, 92.96753
683.5740, 73.68530
684.7330, 114.3960
685.8920, 86.00098
687.0500, 8.205811
688.2080, 54.47778
689.3660, 10.14453
690.5240, 14.20044
691.6820, 24.57007
692.8390, 30.38525
693.9960, 5.687988
695.1540, 23.59448
696.3110, 1.079102
697.4680, 15.56519
698.6240, 45.88281
699.7810, 19.43774
700.9370, 24.89136
702.0940, 17.45947
703.2500, 52.99170
704.4060, 34.41406
705.5610, 51.40137
706.7170, 57.35181
707.8720, 74.91870
709.0280, 73.86230
710.1830, 54.87891
711.3380, 38.41284
712.4920, 36.32178
713.6470, 61.06519
714.8020, 57.76929
715.9560, 2.918701
717.1100, 35.59229
718.2640, 11.66309
719.4180, 70.11816
720.5720, 18.35034
721.7250, 26.43018
722.8780, 1.095703
724.0320, 9.928711
725.1850, 32.21362
726.3380, 26.34399
727.4900, 1.214844
728.6430, 40.88306
729.7950, 81.07544
730.9470, 49.25854
732.1000, 1.729004
733.2510, 32.14404
734.4030, 7.071777
735.5550, 31.93823
736.7060, 32.08130
737.8570, 40.02100
739.0090, 27.99707
740.1600, 22.06445
741.3100, 30.79492
742.4610, 35.29663
743.6110, 40.52710
744.7620, 18.24487
745.9120, 13.05859
747.0620, 13.79248
748.2120, 17.21802
749.3610, 28.49487
750.5110, 38.82056
751.6600, 50.55005
752.8090, 46.26587
753.9580, 38.16284
755.1070, 37.08569
756.2560, 66.75977
757.4050, 6.512939
758.5530, 82.32812
759.7010, 90.95312
760.8490, 37.60815
761.9970, 11.31421
763.1450, 46.84668
764.2920, 54.51099
765.4400, 66.13428
766.5870, 32.72168
767.7340, 46.38403
768.8810, 89.04834
770.0280, 25.99854
771.1740, 76.01074
772.3210, 140.0781
773.4670, 153.2429
774.6130, 131.5142
775.7590, 117.9573
776.9050, 144.3601
778.0510, 89.93750
779.1960, 119.6426
780.3420, 150.0042
781.4870, 175.4749
782.6320, 195.3667
783.7770, 198.1858
784.9210, 235.9382
786.0660, 206.9407
787.2100, 235.1633
788.3540, 196.4280
789.4980, 193.7080
790.6420, 141.0474
791.7860, 199.2703
792.9300, 170.5081
794.0730, 188.7034
795.2160, 176.8845
796.3590, 198.0515
797.5020, 145.3630
798.6450, 198.5024
799.7880, 234.6274
800.9300, 157.9629
802.0720, 177.0596
803.2150, 107.1421
804.3560, 163.2605
805.4980, 89.31470
806.6400, 127.3542
807.7810, 157.3801
808.9230, 118.3916
810.0640, 143.3889
811.2050, 151.5972
812.3460, 78.56616
813.4860, 55.52002
814.6270, 146.4961
815.7670, 147.0266
816.9070, 120.0103
818.0470, 166.9060
819.1870, 205.7876
820.3270, 166.3442
821.4670, 147.8000
822.6060, 136.3489
823.7450, 128.1848
824.8840, 101.6282
826.0230, 132.3909
827.1620, 129.8193
828.3010, 130.6365
829.4390, 78.05713
830.5770, 95.93579
831.7150, 56.02393
832.8530, 43.26416
833.9910, 95.02368
835.1290, 122.7170
836.2660, 69.29810
837.4030, 110.7532
838.5410, 60.21533
839.6780, 65.60034
840.8140, 60.14819
841.9510, 93.60400
843.0870, 80.56934
844.2240, 79.64966
845.3600, 76.23267
846.4960, 65.80957
847.6320, 67.30786
848.7680, 91.74585
849.9030, 149.1814
851.0380, 24.71948
852.1740, 95.22510
853.3090, 50.73950
854.4440, 103.1814
855.5780, 32.39526
856.7130, 87.89038
857.8470, 135.1597
858.9820, 45.07349
860.1160, 95.55176
861.2500, 115.4517
862.3830, 132.7241
863.5170, 116.9592
864.6500, 87.36841
865.7840, 50.64478
866.9170, 50.04102
868.0500, 14.32520
869.1830, 54.82324
870.3150, 22.17334
871.4480, 90.90649
872.5800, 52.22681
873.7120, 78.37158
874.8440, 54.53809
875.9760, 55.04712
877.1080, 89.90991
878.2390, 4.1499999E-03
879.3710, 9.901611
880.5020, 55.18848
881.6330, 59.10400
882.7640, 21.15186
883.8940, 18.54614
885.0250, 91.33618
886.1550, 63.70117
887.2850, 86.23853
888.4160, 63.21729
889.5450, 11.16870
890.6750, 42.92529
891.8050, 71.92700
892.9340, 25.10620
894.0630, 12.81714
895.1930, 58.80322
896.3220, 9.183350
897.4500, 27.58496
898.5790, 8.350098
899.7070, 27.42651
900.8360, 33.22559
901.9640, 38.06396
903.0920, 15.70483
904.2200, 11.14648
905.3470, 17.65137
906.4750, 3.230469
907.6020, 36.41968
908.7290, 6.550293
909.8560, 8.695068
910.9830, 40.14526
912.1100, 68.97803
913.2360, 1.803711
914.3630, 17.42700
915.4890, 63.37085
916.6150, 14.16187
917.7410, 79.94482
918.8670, 28.72144
919.9920, 4.491211
921.1180, 50.25293
922.2430, 32.00806
923.3680, 56.75708
924.4930, 32.49976
925.6180, 14.23584
926.7420, 41.96509
927.8670, 30.68823
928.9910, 53.40503
930.1150, 46.11597
931.2390, 74.82080
932.3630, 50.47974
933.4860, 42.18677
934.6100, 37.84741
935.7330, 3.495361
936.8560, 57.15405
937.9790, 68.79810
939.1020, 19.43701
940.2250, 74.06982
941.3470, 97.62817
942.4700, 33.25122
943.5920, 81.86914
944.7140, 112.4822
945.8360, 4.909668
946.9570, 55.69165
948.0790, 63.17456
949.2000, 16.55737
950.3220, 13.85571
951.4430, 6.721191
952.5640, 118.2993
953.6840, 69.87769
954.8050, 69.45459
955.9250, 54.04102
957.0460, 36.63184
958.1660, 152.2190
959.2860, 16.80811
960.4050, 136.3960
961.5250, 160.9919
962.6440, 81.58594
963.7640, 117.1848
964.8830, 63.70166
966.0020, 116.3145
967.1210, 102.7622
968.2390, 106.1738
969.3580, 75.79834
970.4760, 91.58862
971.5940, 109.9663
972.7120, 118.5945
973.8300, 101.0947
974.9480, 125.6169
976.0650, 102.1150
977.1830, 55.73584
978.3000, 105.3171
979.4170, 112.8938
980.5340, 90.45435
981.6500, 189.9705
982.7670, 185.4912
983.8830, 194.0994
985.0000, 215.7051
986.1160, 214.9309
987.2320, 119.5361
988.3470, 226.9944
989.4630, 167.6143
990.5780, 182.0266
991.6940, 272.6504
992.8090, 262.2732
993.9240, 167.7576
995.0380, 283.3931
996.1530, 219.0337
997.2680, 283.6768
998.3820, 290.3188
999.4960, 240.9646
1000.610, 306.5029
1001.724, 253.0439
1002.837, 210.3000
1003.951, 201.8838
1005.064, 297.3538
1006.177, 328.0342
1007.291, 184.6599
1008.403, 361.3525
1009.516, 268.9905
1010.629, 224.6545
1011.741, 293.3696
1012.853, 261.4297
1013.965, 299.8840
1015.077, 330.5808
1016.189, 324.2969
1017.300, 345.0784
1018.412, 325.6343
1019.523, 256.3643
1020.634, 393.5134
1021.745, 279.2456
1022.856, 263.9890
1023.966, 325.5427
1025.077, 410.0579
1026.187, 296.8086
1027.297, 309.4680
1028.407, 385.0496
1029.517, 402.8091
1030.627, 417.5269
1031.736, 346.1807
1032.845, 348.9924
1033.955, 344.6597
1035.064, 408.3555
1036.172, 453.0757
1037.281, 420.7075
1038.390, 459.3242
1039.498, 459.6436
1040.606, 422.8875
1041.714, 499.0642
1042.822, 506.1316
1043.930, 501.0811
1045.037, 452.8472
1046.145, 546.6418
1047.252, 381.2507
1048.359, 539.7200
1049.466, 483.5212
1050.573, 610.2021
1051.679, 582.0083
1052.786, 503.7595
1053.892, 641.4143
1054.998, 535.2278
1056.104, 642.0076
1057.210, 609.8259
1058.315, 658.6182
1059.421, 583.3391
1060.526, 606.1650
1061.631, 636.9653
1062.736, 617.7966
1063.841, 625.6311
1064.946, 615.4680
1066.050, 660.1499
1067.154, 716.9927
1068.258, 672.2539
1069.362, 777.8779
1070.466, 743.7354
1071.570, 785.5898
1072.674, 842.3984
1073.777, 883.2598
1074.880, 918.1245
1075.983, 942.9922
1077.086, 939.8633
1078.189, 984.7378
1079.291, 979.3906
1080.394, 962.2720
1081.496, 1081.156
1082.598, 1165.008
1083.700, 1311.298
1084.802, 1335.573
1085.903, 1348.330
1087.005, 1385.911
1088.106, 1378.910
1089.207, 1405.716
1090.308, 1380.628
1091.409, 1446.866
1092.509, 1473.903
1093.610, 1495.379
1094.710, 1487.303
1095.810, 1478.230
1096.910, 1513.160
1098.010, 1512.550
1099.110, 1483.706
1100.209, 1561.164
1101.309, 1593.403
1102.408, 1581.004
1103.507, 1493.127
1104.606, 1580.386
1105.704, 1535.351
1106.803, 1555.320
1107.901, 1508.292
1108.999, 1431.267
1110.097, 1415.245
1111.195, 1428.240
1112.293, 1399.225
1113.391, 1396.212
1114.488, 1330.203
1115.585, 1308.209
1116.682, 1387.205
1117.779, 1316.924
1118.876, 1273.928
1119.973, 1289.937
1121.069, 1176.045
1122.165, 1085.376
1123.261, 1117.435
1124.357, 987.4561
1125.453, 1010.479
1126.549, 1034.542
1127.644, 977.5771
1128.739, 934.2368
1129.835, 937.2773
1130.930, 920.3208
1132.024, 875.3667
1133.119, 739.5352
1134.214, 749.2793
1135.308, 748.3350
1136.402, 595.3931
1137.496, 626.4541
1138.590, 691.5181
1139.684, 581.6426
1140.777, 576.7109
1141.871, 532.9883
1142.964, 453.0806
1144.057, 465.1929
1145.150, 456.8960
1146.243, 464.9951
1147.335, 526.0957
1148.428, 377.1992
1149.520, 361.3135
1150.612, 415.4307
1151.704, 405.5498
1152.796, 396.4346
1153.887, 352.2207
1154.979, 343.1226
1156.070, 319.2842
1157.161, 244.4458
1158.252, 340.6104
1159.343, 239.7852
1160.433, 200.0557
1161.524, 298.2344
1162.614, 244.4727
1163.704, 201.6597
1164.794, 227.8521
1165.884, 212.1079
1166.974, 145.3042
1168.063, 191.5020
1169.153, 124.7012
1170.242, 176.9023
1171.331, 89.11133
1172.420, 171.3247
1173.508, 85.54980
1174.597, 116.7803
1175.685, 55.01562
1176.774, 170.2524
1177.862, 29.49023
1178.950, 128.7305
1180.037, 105.9775
1181.125, 98.22559
1182.212, 98.47461
1183.300, 56.72510
1184.387, 131.9766
1185.474, 79.22998
1186.560, 72.48340
1187.647, 25.73877
1188.733, 40.39941
1189.820, 59.46729
1190.906, 67.64404
1191.992, 65.51562
1193.078, 22.20703
1194.163, 32.07861
1195.249, 20.63525
1196.334, 8.324707
1197.419, 25.69434
1198.504, 11.60498
1199.589, 5.293457
1200.674, 0.5571290
1201.758, 5.725098
1202.843, 38.46387
1203.927, 37.74023
1205.011, 52.03320
1206.095, 16.31104
1207.179, 67.58887
1208.262, 41.86670
1209.345, 28.14600
1210.429, 92.42578
1211.512, 15.70605
1212.595, 10.98633
1213.677, 3.267578
1214.760, 27.07422
1215.842, 17.17627
1216.925, 13.91260
1218.007, 52.65332
1219.089, 33.42773
1220.171, 7.794434
1221.252, 23.96729
1222.334, 20.76367
1223.415, 10.78955
1224.496, 55.61768
1225.577, 39.80566
1226.658, 56.06982
1227.738, 88.30273
1228.819, 12.88525
1229.899, 4.072754
1230.979, 48.25928
1232.060, 69.44531
1233.139, 81.63135
1234.219, 8.183594
1235.299, 41.99658
1236.378, 16.17725
1237.457, 51.35645
1238.536, 15.62500
1239.615, 52.82275
1240.694, 12.00098
1241.772, 74.30127
1242.851, 26.47803
1243.929, 31.65381
1245.007, 13.82959
1246.085, 60.00488
1247.163, 9.821289
1248.240, 34.34619
1249.318, 56.75244
1250.395, 1.931641
1251.472, 18.74512
1252.549, 9.419434
1253.626, 40.58350
1254.703, 24.86621
1255.779, 14.33789
1256.855, 92.49854
1257.931, 6.342773
1259.007, 38.81006
1260.083, 105.9614
1261.159, 118.1123
1262.234, 13.73877
1263.310, 54.60059
1264.385, 51.51123
1265.460, 107.6270
1266.535, 67.73682
1267.610, 43.84521
1268.684, 10.95264
1269.758, 64.05811
1270.833, 2.162598
1271.907, 21.31250
1272.981, 17.43799
1274.054, 19.53711
1275.128, 38.29395
1276.201, 58.37402
1277.275, 76.65137
1278.348, 35.72852
1279.421, 62.98730
1280.493, 50.06152
1281.566, 93.20166
1282.638, 30.72754
1283.711, 4.661133
1284.783, 28.38086
1285.855, 83.41943
1286.927, 37.62646
1287.998, 70.66162
1289.070, 10.69531
1290.141, 79.72559
1291.212, 20.78223
1292.283, 71.80811
1293.354, 34.83203
1294.425, 19.59863
1295.495, 76.17383
1296.566, 109.1509
1297.636, 119.7847
1298.706, 41.19336
1299.776, 77.81396
1300.845, 68.25195
1301.915, 56.80127
1302.984, 109.6240
1304.054, 44.05957
1305.123, 95.85645
1306.191, 100.7681
1307.260, 127.1367
1308.329, 107.0444
1309.397, 101.2930
1310.465, 142.0103
1311.534, 156.9995
1312.602, 131.5405
1313.669, 159.2456
1314.737, 91.95557
1315.804, 108.0161
1316.872, 160.0464
1317.939, 136.9043
1319.006, 165.4434
1320.073, 174.2974
1321.139, 93.68945
1322.206, 130.8301
1323.272, 177.4292
1324.338, 111.3740
1325.404, 82.31641
1326.470, 75.25684
1327.536, 116.7793
1328.601, 79.71484
1329.667, 146.6426
1330.732, 53.57324
1331.797, 127.5020
1332.862, 39.42822
1333.926, 87.35254
1334.991, 166.2744
1336.055, 160.1934
1337.120, 169.1934
1338.184, 176.1665
1339.248, 125.9023
1340.311, 133.8008
1341.375, 111.6963
1342.438, 59.58447
