##NAMES=Analcime
##RRUFFID=R050094
##IDEAL CHEMISTRY=NaAlSi_2_O_6_&#183;H_2_O
##LOCALITY=Springfield, Oregon, USA
##OWNER=RRUFF
##SOURCE=Rock Currier
##DESCRIPTION=Clear colorless single crystals associated with gmelinite
##STATUS=The identification of this mineral has been confirmed by X-ray diffraction and chemical analysis
##URL=rruff.info/R050094
##MEASURED CHEMISTRY=(Na_0.99_[box]_0.01_)_Σ=1_(Si_2.01_Al_0.99_)O_6_·H_2_O
##PIN_ID=M00434
##ORIENTATION=Laser parallel to c* (0 0 1). Fiducial mark perpendicular to laser is parallel to [1 1 0]
169.7650, 0.0000000E+00
170.9990, 106.6592
172.2330, 6.136719
173.4670, 86.35840
174.7000, 167.5044
175.9330, 75.95068
177.1660, 147.9780
178.3990, 185.7715
179.6310, 185.8184
180.8640, 299.3076
182.0960, 234.7524
183.3280, 249.5054
184.5600, 324.8906
185.7910, 350.1050
187.0220, 465.9863
188.2540, 518.8896
189.4840, 529.9351
190.7150, 590.9521
191.9460, 571.1328
193.1760, 790.1406
194.4060, 904.2729
195.6360, 903.9316
196.8660, 1009.656
198.0960, 1084.695
199.3250, 1088.334
200.5540, 1157.790
201.7830, 1318.550
203.0120, 1304.025
204.2400, 1434.565
205.4690, 1292.481
206.6970, 1344.827
207.9250, 1377.397
209.1530, 1387.850
210.3800, 1484.545
211.6080, 1492.160
212.8350, 1530.832
214.0620, 1563.397
215.2880, 1666.848
216.5150, 1627.156
217.7410, 1687.496
218.9680, 1753.799
220.1940, 1894.827
221.4190, 1949.471
222.6450, 2059.107
223.8700, 1997.163
225.0960, 2016.506
226.3210, 1967.436
227.5450, 1844.868
228.7700, 1862.670
229.9940, 1649.575
231.2190, 1698.557
232.4430, 1551.589
233.6660, 1454.647
234.8900, 1461.728
236.1140, 1390.833
237.3370, 1294.970
238.5600, 1184.144
239.7830, 1131.360
241.0050, 977.6191
242.2280, 900.9258
243.4500, 806.3562
244.6720, 750.0964
245.8940, 672.1277
247.1160, 617.4453
248.3370, 511.0315
249.5580, 454.8230
250.7790, 338.9429
252.0000, 338.2332
253.2210, 237.7224
254.4410, 217.3955
255.6620, 155.2363
256.8820, 52.22754
258.1020, 114.3525
259.3210, 52.59595
260.5410, 148.9451
261.7600, 13.60986
262.9790, 156.0784
264.1980, 104.4692
265.4170, 87.79468
266.6360, 89.06885
267.8540, 183.3127
269.0720, 130.5488
270.2900, 173.7964
271.5080, 131.0610
272.7260, 181.3428
273.9430, 117.6377
275.1600, 167.9434
276.3770, 108.2576
277.5940, 53.57788
278.8100, 81.09839
280.0270, 168.7720
281.2430, 170.4368
282.4590, 306.0837
283.6750, 375.6990
284.8910, 671.2637
286.1060, 842.7588
287.3210, 1162.139
288.5360, 1536.416
289.7510, 1931.488
290.9660, 2361.259
292.1800, 2901.748
293.3950, 3464.916
294.6090, 3942.785
295.8230, 4398.406
297.0360, 4959.882
298.2500, 5085.383
299.4630, 4941.929
300.6760, 4674.540
301.8890, 4258.235
303.1020, 3733.030
304.3150, 3235.901
305.5270, 2608.859
306.7390, 2245.889
307.9510, 1857.985
309.1630, 1551.148
310.3750, 1313.376
311.5860, 1257.671
312.7970, 1102.033
314.0080, 1021.461
315.2190, 904.9573
316.4300, 880.6829
317.6400, 865.5383
318.8510, 841.5232
320.0610, 828.4734
321.2710, 830.4097
322.4800, 896.3044
323.6900, 857.1365
324.8990, 887.8867
326.1080, 1000.545
327.3170, 996.1030
328.5260, 992.5522
329.7340, 1039.877
330.9430, 1032.065
332.1510, 1051.112
333.3590, 1185.020
334.5670, 1235.791
335.7740, 1249.430
336.9820, 1340.936
338.1890, 1296.305
339.3960, 1407.523
340.6030, 1452.564
341.8100, 1465.403
343.0160, 1600.027
344.2220, 1680.448
345.4280, 1705.685
346.6340, 1783.754
347.8400, 1790.673
349.0460, 1888.456
350.2510, 1973.114
351.4560, 2034.660
352.6610, 2066.100
353.8660, 2169.400
355.0700, 2309.640
356.2750, 2352.713
357.4790, 2500.633
358.6830, 2605.378
359.8870, 2687.899
361.0910, 2763.225
362.2940, 2928.135
363.4970, 3053.638
364.7000, 3341.707
365.9030, 3462.342
367.1060, 3728.568
368.3080, 3841.432
369.5110, 4067.045
370.7130, 4357.623
371.9150, 4589.195
373.1170, 4869.796
374.3180, 5042.435
375.5200, 5233.112
376.7210, 5438.830
377.9220, 5711.586
379.1230, 5951.381
380.3230, 6132.215
381.5240, 6454.086
382.7240, 6534.995
383.9240, 6675.944
385.1240, 6841.930
386.3240, 6885.955
387.5230, 7011.018
388.7230, 6960.914
389.9220, 7080.649
391.1210, 6836.128
392.3200, 6630.446
393.5180, 6299.387
394.7170, 6198.123
395.9150, 6023.983
397.1130, 5489.928
398.3110, 5164.905
399.5080, 4748.738
400.7060, 4444.716
401.9030, 4062.094
403.1000, 3767.517
404.2970, 3436.289
405.4940, 3095.666
406.6910, 2845.387
407.8870, 2690.364
409.0830, 2426.777
410.2790, 2271.430
411.4750, 2113.196
412.6710, 2008.240
413.8660, 1785.787
415.0610, 1679.811
416.2560, 1662.708
417.4510, 1442.370
418.6460, 1393.340
419.8410, 1366.660
421.0350, 1213.572
422.2290, 1250.207
423.4230, 1149.130
424.6170, 1044.712
425.8100, 1024.244
427.0040, 910.5093
428.1970, 1071.594
429.3900, 991.3433
430.5830, 981.6938
431.7760, 1093.721
432.9680, 1046.691
434.1610, 1083.424
435.3530, 1084.913
436.5450, 1128.459
437.7360, 1185.659
438.9280, 1307.072
440.1190, 1331.895
441.3110, 1432.646
442.5020, 1472.452
443.6930, 1638.315
444.8830, 1704.237
446.0740, 1825.203
447.2640, 2145.218
448.4540, 2130.277
449.6440, 2496.386
450.8340, 2662.549
452.0240, 2963.753
453.2130, 3255.010
454.4020, 3685.319
455.5910, 4108.671
456.7800, 4516.064
457.9690, 5028.498
459.1570, 5738.988
460.3460, 6368.489
461.5340, 7342.001
462.7220, 8056.541
463.9090, 9374.088
465.0970, 10632.65
466.2840, 12125.22
467.4720, 13878.80
468.6590, 16075.40
469.8460, 18347.01
471.0320, 21058.64
472.2190, 24007.27
473.4050, 27454.91
474.5910, 30945.56
475.7770, 35085.23
476.9630, 38931.91
478.1490, 42916.61
479.3340, 46494.33
480.5190, 49262.05
481.7040, 51702.78
482.8890, 52592.54
484.0740, 52689.29
485.2580, 51110.05
486.4430, 48950.82
487.6270, 45420.61
488.8110, 41771.40
489.9950, 37933.21
491.1780, 33381.03
492.3620, 29956.87
493.5450, 26279.71
494.7280, 23071.57
495.9110, 20057.45
497.0940, 17864.34
498.2760, 15710.24
499.4590, 13801.15
500.6410, 12212.08
501.8230, 10801.03
503.0050, 9624.992
504.1860, 8467.974
505.3680, 7658.974
506.5490, 6998.992
507.7300, 6290.035
508.9110, 5647.103
510.0920, 5254.195
511.2730, 4566.315
512.4530, 4212.465
513.6330, 3981.643
514.8130, 3588.850
515.9930, 3327.085
517.1730, 3081.348
518.3520, 2836.640
519.5320, 2626.959
520.7110, 2425.306
521.8900, 2256.680
523.0690, 2104.080
524.2470, 1990.508
525.4260, 1821.963
526.6040, 1679.443
527.7820, 1529.949
528.9600, 1479.481
530.1380, 1332.039
531.3150, 1256.623
532.4930, 1233.233
533.6700, 985.8708
534.8470, 971.5371
536.0240, 853.2329
537.2000, 870.9592
538.3770, 785.7197
539.5530, 770.5139
540.7290, 683.3452
541.9050, 577.2151
543.0810, 527.1267
544.2570, 417.0918
545.4320, 410.1008
546.6080, 379.1611
547.7830, 302.2612
548.9580, 321.4260
550.1320, 182.6919
551.3070, 174.2830
552.4810, 184.8904
553.6550, 112.9907
554.8300, 75.19775
556.0030, 50.45898
557.1770, 10.95825
558.3510, 45.41479
559.5240, 50.92480
560.6970, 98.60278
561.8700, 145.4353
563.0430, 146.6423
564.2160, 117.2734
565.3880, 93.85767
566.5600, 50.63086
567.7320, 28.84692
568.9040, 47.93140
570.0760, 27.91113
571.2480, 1.649658
572.4190, 102.0654
573.5900, 31.76367
574.7610, 90.93994
575.9320, 30.42285
577.1030, 7.624512
578.2740, 68.21582
579.4440, 37.52661
580.6140, 6.918457
581.7840, 63.44849
582.9540, 54.28027
584.1240, 72.70923
585.2930, 105.4868
586.4630, 144.1929
587.6320, 147.0383
588.8010, 145.5913
589.9700, 116.8979
591.1380, 172.0657
592.3070, 161.6345
593.4750, 153.8369
594.6430, 264.5894
595.8110, 148.3647
596.9790, 170.8455
598.1460, 261.8582
599.3140, 224.3462
600.4810, 263.3284
601.6480, 278.7366
602.8150, 342.6094
603.9820, 341.6162
605.1480, 419.3105
606.3150, 417.8660
607.4810, 383.9233
608.6470, 424.6003
609.8130, 509.1760
610.9790, 515.3384
612.1440, 527.2900
613.3100, 489.3477
614.4750, 528.7417
615.6400, 599.3235
616.8050, 583.9058
617.9690, 724.5647
619.1340, 767.6277
620.2980, 771.7273
621.4620, 733.9014
622.6260, 779.1760
623.7900, 911.9780
624.9540, 880.8032
626.1170, 913.6614
627.2810, 930.2209
628.4440, 851.0630
629.6070, 836.8071
630.7690, 708.4194
631.9320, 640.1511
633.0950, 648.6333
634.2570, 616.0212
635.4190, 620.5950
636.5810, 593.8672
637.7430, 554.1360
638.9040, 559.3970
640.0660, 572.2534
641.2270, 583.8950
642.3880, 633.1326
643.5490, 685.3613
644.7100, 711.5835
645.8700, 711.8027
647.0310, 725.0273
648.1910, 781.2424
649.3510, 842.4468
650.5110, 684.6406
651.6710, 663.8372
652.8300, 728.0242
653.9900, 770.2002
655.1490, 720.3647
656.3080, 692.5203
657.4670, 732.6631
658.6250, 723.7949
659.7840, 658.9136
660.9420, 633.0286
662.1010, 638.1309
663.2590, 696.2207
664.4170, 700.3022
665.5740, 710.3706
666.7320, 768.4238
667.8890, 770.4685
669.0460, 725.4976
670.2030, 658.5112
671.3600, 743.5090
672.5170, 670.4902
673.6740, 690.4546
674.8300, 701.4045
675.9860, 658.3372
677.1420, 591.2522
678.2980, 571.1494
679.4540, 531.0283
680.6090, 475.8889
681.7650, 361.7305
682.9200, 327.5540
684.0750, 295.3596
685.2300, 308.1450
686.3840, 261.9097
687.5390, 216.6538
688.6930, 213.3767
689.8470, 120.0776
691.0010, 137.7542
692.1550, 41.40625
693.3090, 43.03638
694.4620, 53.62988
695.6160, 38.19434
696.7690, 37.72681
697.9220, 71.49780
699.0750, 40.11694
700.2280, 49.38599
701.3800, 3.034424
702.5320, 29.60181
703.6850, 95.17798
704.8370, 76.85229
705.9880, 56.98755
707.1400, 35.43872
708.2920, 24.43579
709.4430, 0.6296390
710.5940, 11.18604
711.7450, 22.93262
712.8960, 12.10693
714.0470, 14.48535
715.1970, 42.84473
716.3480, 6.722900
717.4980, 34.36450
718.6480, 17.32397
719.7980, 28.39600
720.9470, 19.05249
722.0970, 27.77100
723.2460, 32.55615
724.3960, 20.58887
725.5450, 0.3100590
726.6940, 26.73755
727.8420, 6.257080
728.9910, 19.30933
730.1390, 29.57324
731.2870, 18.58691
732.4350, 10.81250
733.5830, 26.89990
734.7310, 11.56787
735.8790, 62.18506
737.0260, 36.23511
738.1730, 11.73169
739.3200, 15.70752
740.4670, 40.90405
741.6140, 26.40454
742.7610, 5.334229
743.9070, 14.86499
745.0530, 27.01196
746.1990, 3.888916
747.3450, 17.85181
748.4910, 5.115723
749.6370, 32.03320
750.7820, 66.89526
751.9270, 21.72192
753.0720, 0.5063480
754.2170, 18.20361
755.3620, 16.86060
756.5070, 7.455322
757.6510, 67.08179
758.7950, 63.60156
759.9400, 59.14111
761.0840, 118.6116
762.2270, 111.9885
763.3710, 103.3320
764.5140, 173.6335
765.6580, 105.0393
766.8010, 127.2676
767.9440, 157.6550
769.0870, 127.8359
770.2290, 186.0603
771.3720, 207.1418
772.5140, 161.2837
773.6560, 254.2947
774.7990, 283.2397
775.9400, 298.1899
777.0820, 271.2483
778.2240, 363.1802
779.3650, 350.2998
780.5060, 403.2139
781.6470, 363.5151
782.7880, 387.6824
783.9290, 440.7798
785.0690, 477.5566
786.2100, 497.2871
787.3500, 521.6150
788.4900, 530.4724
789.6300, 554.3691
790.7700, 548.1292
791.9090, 572.8999
793.0490, 548.6023
794.1880, 606.9966
795.3270, 588.6475
796.4660, 513.9724
797.6050, 546.5527
798.7440, 501.8384
799.8820, 564.5088
801.0200, 527.8894
802.1590, 516.3079
803.2970, 492.4739
804.4340, 455.8809
805.5720, 436.9785
806.7100, 409.0432
807.8470, 409.0164
808.9840, 360.7200
810.1210, 362.7471
811.2580, 342.2471
812.3950, 341.0874
813.5310, 359.8931
814.6680, 291.6650
815.8040, 327.4026
816.9400, 365.1064
818.0760, 393.7761
819.2120, 330.7568
820.3470, 301.5469
821.4830, 314.1162
822.6180, 312.6516
823.7530, 290.1536
824.8880, 271.6221
826.0230, 289.0576
827.1580, 260.2209
828.2920, 247.4165
829.4270, 231.1670
830.5610, 284.8826
831.6950, 324.6011
832.8290, 342.1492
833.9620, 276.6250
835.0960, 232.3020
836.2290, 284.7598
837.3620, 293.2910
838.4950, 367.7925
839.6280, 342.7314
840.7610, 320.6125
841.8940, 334.6699
843.0260, 384.9421
844.1580, 324.5112
845.2910, 387.7407
846.4230, 342.4121
847.5540, 397.3440
848.6860, 358.2314
849.8170, 329.5779
850.9490, 398.3589
852.0800, 377.2852
853.2110, 439.2378
854.3420, 444.6367
855.4730, 481.0967
856.6030, 494.7803
857.7340, 477.9822
858.8640, 526.5703
859.9940, 554.7927
861.1240, 540.0698
862.2540, 515.1895
863.3830, 510.5850
864.5130, 461.2092
865.6420, 422.1321
866.7710, 351.2803
867.9000, 316.9546
869.0290, 295.0603
870.1570, 241.1248
871.2860, 250.4651
872.4140, 163.2542
873.5430, 167.5491
874.6710, 171.3311
875.7980, 183.6675
876.9260, 204.5200
878.0540, 151.2195
879.1810, 161.2122
880.3080, 162.3245
881.4360, 203.9155
882.5630, 139.8672
883.6890, 194.9014
884.8160, 89.32935
885.9420, 151.9490
887.0690, 87.44263
888.1950, 113.5811
889.3210, 106.5122
890.4470, 113.4236
891.5730, 58.23828
892.6980, 78.62915
893.8240, 66.96411
894.9490, 51.20508
896.0740, 56.32520
897.1990, 81.89893
898.3240, 66.42847
899.4480, 88.90625
900.5730, 31.66333
901.6970, 71.11670
902.8210, 15.64844
903.9450, 55.29126
905.0690, 34.79468
906.1930, 60.52710
907.3160, 35.33398
908.4400, 79.93433
909.5630, 15.18384
910.6860, 52.67651
911.8090, 17.52441
912.9320, 38.35938
914.0550, 2.818359
915.1770, 23.98926
916.2990, 9.215088
917.4210, 25.43628
918.5440, 57.68237
919.6650, 19.03125
920.7870, 45.73315
921.9090, 13.42480
923.0300, 52.89502
924.1510, 8.251709
925.2720, 7.377686
926.3930, 1.996094
927.5140, 13.39624
928.6350, 52.19629
929.7550, 7.220459
930.8760, 41.35083
931.9960, 45.08618
933.1160, 21.44702
934.2360, 13.02759
935.3550, 27.51562
936.4750, 8.022705
937.5940, 11.45972
938.7140, 31.05591
939.8330, 8.414307
940.9520, 7.882568
942.0710, 59.34326
943.1890, 14.79761
944.3080, 39.25317
945.4260, 17.27441
946.5440, 67.20093
947.6620, 27.67749
948.7800, 89.15479
949.8980, 14.64917
951.0160, 45.14697
952.1330, 56.64160
953.2500, 14.85815
954.3680, 9.366455
955.4850, 85.11841
956.6010, 40.59888
957.7180, 103.0750
958.8350, 72.54712
959.9510, 84.02612
961.0670, 122.5012
962.1830, 77.98193
963.2990, 95.45996
964.4150, 43.93555
965.5310, 37.41821
966.6460, 103.9021
967.7620, 44.38696
968.8770, 91.87720
969.9920, 116.3677
971.1070, 72.85962
972.2210, 136.3516
973.3360, 136.8542
974.4500, 174.3740
975.5650, 199.1914
976.6790, 224.5103
977.7930, 232.1196
978.9070, 204.7476
980.0200, 199.3928
981.1340, 237.0481
982.2470, 303.7168
983.3610, 308.3896
984.4740, 331.0696
985.5870, 318.7632
986.6990, 374.4785
987.8120, 491.2029
988.9250, 375.9465
990.0370, 403.6968
991.1490, 444.4656
992.2610, 377.2507
993.3730, 509.0601
994.4850, 466.8896
995.5960, 445.7271
996.7080, 551.5767
997.8190, 556.4336
998.9300, 645.3052
1000.041, 706.1953
1001.152, 898.0920
1002.263, 1029.008
1003.373, 941.9414
1004.484, 849.8828
1005.594, 701.8359
1006.704, 623.7939
1007.814, 591.7766
1008.924, 597.7776
1010.034, 524.7908
1011.143, 536.8303
1012.253, 550.8804
1013.362, 585.9475
1014.471, 580.0278
1015.580, 615.1191
1016.689, 671.2280
1017.797, 617.3584
1018.906, 716.4973
1020.014, 740.6545
1021.122, 765.8152
1022.230, 737.9922
1023.338, 788.1870
1024.446, 798.3955
1025.554, 827.5378
1026.661, 839.6780
1027.768, 851.0093
1028.875, 839.1846
1029.983, 861.3960
1031.089, 835.6694
1032.196, 848.9453
1033.303, 855.0715
1034.409, 899.3853
1035.515, 881.6848
1036.622, 871.7935
1037.728, 904.0796
1038.833, 959.2915
1039.939, 973.6162
1041.045, 1084.852
1042.150, 1053.188
1043.255, 1019.562
1044.360, 1031.902
1045.465, 1147.105
1046.570, 1171.407
1047.675, 1161.493
1048.779, 1148.755
1049.884, 1213.603
1050.988, 1264.556
1052.092, 1286.551
1053.196, 1174.838
1054.300, 1377.237
1055.404, 1313.525
1056.507, 1304.946
1057.610, 1395.001
1058.714, 1405.300
1059.817, 1371.585
1060.920, 1416.458
1062.022, 1576.905
1063.125, 1572.068
1064.228, 1619.530
1065.330, 1733.709
1066.432, 1730.175
1067.534, 1768.208
1068.636, 1827.505
1069.738, 1865.737
1070.840, 1956.467
1071.941, 2005.812
1073.042, 2145.527
1074.144, 2120.009
1075.245, 2318.546
1076.346, 2364.883
1077.446, 2475.818
1078.547, 2568.135
1079.647, 2645.342
1080.748, 2706.211
1081.848, 2798.144
1082.948, 2919.640
1084.048, 3002.645
1085.148, 3181.614
1086.247, 3121.879
1087.347, 3310.308
1088.446, 3227.931
1089.545, 3232.562
1090.644, 3288.199
1091.743, 3348.273
1092.842, 3348.924
1093.940, 3402.860
1095.039, 3443.131
1096.137, 3470.745
1097.235, 3504.430
1098.333, 3548.474
1099.431, 3513.170
1100.529, 3483.763
1101.627, 3510.475
1102.724, 3535.191
1103.822, 3521.917
1104.919, 3455.651
1106.016, 3478.397
1107.113, 3493.149
1108.209, 3475.908
1109.306, 3351.114
1110.402, 3356.885
1111.499, 3218.894
1112.595, 3179.677
1113.691, 3100.466
1114.787, 3101.260
1115.883, 2920.062
1116.978, 2903.869
1118.074, 2946.681
1119.169, 2821.500
1120.264, 2810.324
1121.359, 2723.153
1122.454, 2580.989
1123.549, 2596.829
1124.644, 2400.760
1125.738, 2445.612
1126.832, 2273.469
1127.927, 2304.331
1129.021, 2177.198
1130.115, 2121.070
1131.208, 1958.948
1132.302, 1911.830
1133.396, 1796.718
1134.489, 1773.610
1135.582, 1763.507
1136.675, 1627.410
1137.768, 1599.317
1138.861, 1460.229
1139.954, 1409.145
1141.046, 1335.066
1142.138, 1276.991
1143.231, 1193.922
1144.323, 1144.856
1145.415, 1056.795
1146.507, 1105.738
1147.598, 1058.686
1148.690, 979.6370
1149.781, 875.5923
1150.872, 848.5518
1151.964, 793.5154
1153.054, 788.4829
1154.145, 758.4541
1155.236, 743.4290
1156.327, 710.4075
1157.417, 659.3904
1158.507, 607.3765
1159.597, 597.3662
1160.687, 567.3604
1161.777, 555.3584
1162.867, 570.3596
1163.956, 513.3645
1165.046, 508.4119
1166.135, 453.3848
1167.224, 449.4001
1168.313, 404.4194
1169.402, 354.4419
1170.491, 340.4683
1171.580, 383.4980
1172.668, 330.0850
1173.756, 340.5667
1174.845, 264.6104
1175.933, 317.6572
1177.020, 259.7078
1178.108, 301.7612
1179.196, 246.8191
1180.283, 168.8806
1181.371, 131.9470
1182.458, 83.02344
1183.545, 71.45557
1184.632, 172.2148
1185.719, 97.31445
1186.805, 104.4175
1187.892, 169.5364
1188.978, 74.65967
1190.065, 46.78613
1191.151, 23.91577
1192.237, 61.05103
1193.323, 34.71606
1194.408, 2.329590
1195.494, 41.47266
1196.579, 1.628174
1197.664, 28.78540
1198.750, 36.94678
1199.835, 20.11646
1200.919, 38.71045
1202.004, 20.55566
1203.089, 20.40381
1204.173, 32.73926
1205.258, 24.88452
1206.342, 29.96851
1207.426, 86.83594
1208.510, 52.74780
1209.594, 26.68408
1210.677, 20.63354
1211.761, 85.59326
1212.844, 30.55859
1213.927, 4.578369
1215.010, 37.60132
1216.093, 51.35596
1217.176, 39.31714
1218.259, 15.28101
1219.341, 37.24585
1220.424, 35.21240
1221.506, 37.81958
1222.588, 12.12817
1223.670, 26.92285
1224.752, 8.011475
1225.834, 15.04565
1226.915, 18.22339
1227.997, 1.848389
1229.078, 47.07690
1230.159, 10.99683
1231.240, 56.92212
1232.321, 44.84229
1233.402, 103.2205
1234.483, 10.15088
1235.563, 59.51343
1236.644, 39.43750
1237.724, 43.36279
1238.804, 1.711182
1239.884, 82.21167
1240.964, 2.135010
1242.044, 56.05615
1243.123, 76.98975
1244.203, 78.92407
1245.282, 35.87231
1246.361, 54.82227
1247.440, 83.77295
1248.519, 82.72510
1249.598, 116.6794
1250.676, 60.63525
1251.755, 79.59204
1252.833, 20.55029
1253.911, 11.48828
1254.989, 88.46436
1256.067, 42.41895
1257.145, 66.37402
1258.223, 66.32959
1259.300, 95.28662
1260.378, 66.24487
1261.455, 79.21582
1262.532, 117.1892
1263.609, 94.16309
1264.686, 113.1384
1265.763, 119.1638
1266.840, 124.1406
1267.916, 177.1218
1268.992, 178.1050
1270.069, 141.0881
1271.145, 202.0740
1272.221, 260.0618
1273.296, 156.0503
1274.372, 174.0400
1275.448, 191.0315
1276.523, 103.0242
1277.598, 129.0166
1278.673, 122.0103
1279.749, 136.0039
1280.823, 125.9973
1281.898, 99.99072
1282.973, 98.98413
1284.047, 87.53003
1285.122, 181.9700
1286.196, 77.96216
1287.270, 141.9543
1288.344, 146.9456
1289.418, 93.03125
1290.491, 144.0676
1291.565, 177.0723
1292.638, 230.0601
1293.712, 114.0671
1294.785, 127.0527
1295.858, 152.0369
1296.931, 256.0190
1298.003, 167.9998
1299.076, 176.9790
1300.149, 191.9565
1301.221, 178.9324
1302.293, 161.9060
1303.365, 215.8777
1304.437, 216.8469
1305.509, 195.8137
1306.581, 193.7783
1307.652, 197.7720
1308.724, 271.7009
1309.795, 206.6584
1310.866, 211.6133
1311.937, 205.5518
1313.008, 309.5149
1314.079, 233.4595
1315.150, 272.4031
1316.220, 355.3459
1317.291, 279.2878
1318.361, 261.2285
1319.431, 347.1685
1320.501, 257.1072
1321.571, 239.0447
1322.641, 188.9814
1323.710, 219.9170
1324.780, 226.8516
1325.849, 199.7656
1326.918, 157.6992
1327.987, 203.6316
1329.056, 115.5637
1330.125, 120.2234
1331.194, 85.95801
1332.263, 75.68896
1333.331, 66.62207
1334.399, 113.5549
1335.467, 135.6819
1336.535, 68.22656
1337.603, 148.8987
1338.671, 48.18433
1339.739, 18.80737
