##NAMES=Analcime
##RRUFFID=R040128
##IDEAL CHEMISTRY=NaAlSi_2_O_6_&#183;H_2_O
##LOCALITY=Mont Saint-Hilaire, Rouville County, Quebec, Canada
##OWNER=RRUFF
##SOURCE=Bob Downs
##DESCRIPTION=White trapezohedra associated with black arfvedsonite, R040127
##STATUS=The identification of this mineral has been confirmed by X-ray diffraction and chemical analysis
##URL=rruff.info/R040128
##MEASURED CHEMISTRY=Na_0.93_(Si_2.04_Al_0.99_)O_6_Â·H_2_O
##PIN_ID=L00542
##ORIENTATION=Laser parallel to -a [-1 0 0]. Fiducial mark perpendicular to laser is parallel to -b* (0 -1 0)
107.387, 0.000
108.781, 47.614
110.174, 1738.813
111.566, 1199.026
112.959, 1471.747
114.351, 1106.080
115.744, 1008.658
117.136, 958.371
118.527, 831.537
119.919, 665.723
121.310, 808.916
122.701, 769.400
124.092, 985.791
125.482, 997.037
126.873, 1022.771
128.263, 1322.836
129.653, 1206.885
131.042, 1614.670
132.432, 1535.411
133.821, 1638.421
135.210, 1913.188
136.599, 2019.327
137.987, 2076.542
139.376, 2104.601
140.764, 2183.326
142.152, 2212.729
143.539, 2063.219
144.927, 2056.609
146.314, 2053.451
147.701, 1872.099
149.088, 1692.002
150.474, 1593.577
151.861, 1427.722
153.247, 1353.909
154.633, 1169.009
156.018, 1112.875
157.404, 1005.633
158.789, 917.387
160.174, 768.235
161.559, 718.261
162.943, 587.538
164.327, 536.130
165.711, 434.096
167.095, 411.483
168.479, 408.340
169.862, 344.702
171.246, 320.607
172.628, 366.081
174.011, 381.148
175.394, 485.835
176.776, 416.470
178.158, 403.473
179.540, 582.225
180.922, 566.957
182.303, 634.780
183.684, 732.049
185.065, 994.316
186.446, 1120.375
187.826, 1186.465
189.207, 1314.253
190.587, 1378.498
191.967, 1492.942
193.346, 1494.444
194.726, 1543.430
196.105, 1615.172
197.484, 1646.270
198.862, 1567.532
200.241, 1519.053
201.619, 1332.181
202.997, 1285.498
204.375, 1159.000
205.753, 982.680
207.130, 936.527
208.507, 860.537
209.884, 884.699
211.261, 689.006
212.638, 713.446
214.014, 628.011
215.390, 682.690
216.766, 577.477
218.141, 562.359
219.517, 587.334
220.892, 532.393
222.267, 557.529
223.642, 542.741
225.016, 588.021
226.391, 533.361
227.765, 548.753
229.139, 564.182
230.512, 529.640
231.886, 565.116
233.259, 410.603
234.632, 386.090
236.005, 341.565
237.377, 367.025
238.749, 232.474
240.122, 197.908
241.493, 303.331
242.865, 138.740
244.237, 134.139
245.608, 17.476
246.979, 44.898
248.350, 9.262
249.720, 0.614
251.090, 56.042
252.461, 108.707
253.830, 76.381
255.200, 219.056
256.570, 145.696
257.939, 132.207
259.308, 167.673
260.677, 83.104
262.045, 187.578
263.414, 72.149
264.782, 81.905
266.150, 142.812
267.517, 14.881
268.885, 30.092
270.252, 68.440
271.619, 138.866
272.986, 124.353
274.353, 95.712
275.719, 135.315
277.085, 93.031
278.451, 137.077
279.817, 135.616
281.182, 242.761
282.548, 276.621
283.913, 301.270
285.278, 277.767
286.642, 129.150
288.007, 98.416
289.371, 150.414
290.735, 399.360
292.099, 488.401
293.462, 997.516
294.826, 1306.685
296.189, 1675.892
297.552, 1755.119
298.914, 1904.360
300.277, 1643.604
301.639, 1392.845
303.001, 1182.076
304.363, 921.295
305.724, 850.497
307.086, 589.679
308.447, 648.836
309.808, 587.953
311.168, 447.016
312.529, 456.013
313.889, 494.940
315.249, 493.790
316.609, 572.550
317.969, 461.212
319.328, 619.779
320.687, 518.259
322.046, 526.654
323.405, 564.971
324.764, 603.211
326.122, 691.380
327.480, 669.479
328.838, 767.514
330.196, 745.484
331.553, 903.396
332.910, 951.247
334.267, 969.042
335.624, 996.782
336.981, 1134.471
338.337, 1182.108
339.693, 1179.695
341.049, 1317.200
342.405, 1404.638
343.760, 1351.954
345.116, 1579.079
346.471, 1515.920
347.826, 1762.517
349.180, 1868.895
350.535, 1975.122
351.889, 2031.197
353.243, 2127.158
354.597, 2262.924
355.950, 2298.513
357.304, 2233.929
358.657, 2479.099
360.010, 2553.929
361.362, 2718.503
362.715, 2673.003
364.067, 2927.504
365.419, 3092.006
366.771, 3066.507
368.123, 3421.006
369.474, 3565.502
370.825, 3799.997
372.176, 3964.490
373.527, 4138.979
374.877, 4293.463
376.228, 4527.941
377.578, 4762.415
378.928, 4756.883
380.277, 5011.347
381.627, 5255.803
382.976, 5300.264
384.325, 5604.717
385.674, 5529.168
387.023, 5893.613
388.371, 5888.049
389.719, 5792.479
391.067, 5986.902
392.415, 5991.759
393.762, 5986.168
395.110, 5840.623
396.457, 5885.014
397.804, 5849.554
399.150, 5514.289
400.497, 5439.879
401.843, 5367.443
403.189, 5122.483
404.535, 4965.895
405.881, 4730.969
407.226, 4495.863
408.571, 4050.908
409.916, 3830.757
411.261, 3504.771
412.605, 3358.687
413.950, 3039.750
415.294, 2759.178
416.638, 2718.989
417.981, 2341.477
419.325, 2226.309
420.668, 2134.301
422.011, 1939.656
423.354, 1968.114
424.697, 1629.510
426.039, 1848.961
427.381, 1606.530
428.723, 1610.836
430.065, 1652.223
431.406, 1512.731
432.748, 1491.614
434.089, 1565.541
435.430, 1620.369
436.770, 1696.960
438.111, 1550.959
439.451, 1867.604
440.791, 1701.241
442.131, 1774.812
443.471, 1861.494
444.810, 1855.874
446.149, 1908.560
447.488, 2102.550
448.827, 2165.682
450.166, 2260.555
451.504, 2544.787
452.842, 2738.992
454.180, 2843.167
455.518, 3217.313
456.855, 3501.432
458.193, 3896.909
459.530, 4359.577
460.867, 4893.604
462.203, 5577.600
463.540, 6281.566
464.876, 7045.500
466.212, 8189.402
467.548, 9503.274
468.883, 11127.111
470.219, 12880.915
471.554, 15254.690
472.889, 17770.496
474.224, 20792.145
475.558, 24015.828
476.892, 27529.471
478.227, 31723.096
479.561, 34586.680
480.894, 37260.234
482.228, 38363.754
483.561, 37207.250
484.894, 37040.723
486.227, 33364.152
487.559, 30097.557
488.892, 26850.932
490.224, 23064.283
491.556, 20217.602
492.888, 17360.891
494.220, 15014.151
495.551, 13057.384
496.882, 11650.590
498.213, 9983.763
499.544, 8506.911
500.874, 7680.034
502.205, 6823.127
503.535, 6096.193
504.865, 5469.231
506.194, 4752.245
507.524, 4325.231
508.853, 3848.194
510.182, 3501.135
511.511, 3084.061
512.840, 2856.962
514.168, 2739.842
515.496, 2382.701
516.824, 2205.540
518.152, 2058.358
519.480, 1851.155
520.807, 1893.938
522.134, 1616.703
523.461, 1569.455
524.788, 1372.191
526.114, 1174.912
527.441, 1197.615
528.767, 1000.458
530.093, 1063.198
531.418, 986.214
532.744, 958.919
534.069, 891.772
535.394, 744.984
536.719, 757.634
538.044, 730.852
539.368, 654.009
540.693, 507.021
542.017, 492.708
543.340, 495.267
544.664, 500.374
545.987, 313.188
547.311, 465.942
548.634, 359.797
549.956, 293.297
551.279, 57.117
552.601, 250.357
553.923, 143.805
555.245, 166.692
556.567, 120.466
557.889, 75.547
559.210, 8.804
560.531, 26.039
561.852, 36.961
563.173, 120.143
564.493, 147.247
565.813, 46.867
567.133, 30.754
568.453, 65.323
569.773, 22.830
571.092, 5.064
572.412, 2.209
573.731, 23.852
575.049, 0.954
576.368, 22.482
577.686, 29.401
579.005, 24.685
580.323, 17.404
581.640, 36.442
582.958, 111.587
584.275, 23.160
585.593, 200.477
586.909, 83.392
588.226, 209.721
589.543, 212.071
590.859, 77.362
592.175, 221.562
593.491, 243.979
594.807, 433.413
596.122, 385.541
597.438, 202.131
598.753, 464.692
600.068, 367.372
601.382, 440.627
602.697, 283.194
604.011, 303.146
605.325, 578.921
606.639, 491.229
607.952, 564.282
609.266, 527.262
610.579, 469.560
611.892, 501.916
613.205, 414.207
614.518, 586.642
615.830, 468.829
617.142, 501.244
618.454, 653.306
619.766, 285.253
621.078, 627.524
622.389, 509.407
623.700, 491.257
625.011, 443.076
626.322, 494.868
627.632, 456.229
628.943, 488.362
630.253, 400.064
631.563, 451.733
632.872, 353.370
634.182, 524.976
635.491, 326.549
636.800, 558.088
638.109, 519.596
639.418, 491.071
640.726, 422.514
642.035, 463.924
643.343, 475.301
644.651, 496.646
645.958, 337.958
647.266, 459.237
648.573, 430.484
649.880, 291.698
651.187, 443.124
652.494, 284.273
653.800, 465.739
655.106, 276.821
656.412, 317.871
657.718, 399.104
659.024, 360.089
660.329, 421.365
661.634, 402.574
662.939, 473.459
664.244, 484.312
665.549, 505.170
666.853, 566.623
668.157, 498.788
669.461, 489.662
670.765, 530.472
672.069, 471.302
673.372, 682.027
674.675, 432.612
675.978, 613.165
677.281, 394.246
678.583, 425.096
679.886, 486.050
681.188, 346.858
682.490, 377.771
683.792, 298.120
685.093, 239.148
686.394, 259.427
687.696, 190.357
688.997, 260.745
690.297, 220.943
691.598, 131.204
692.898, 261.441
694.198, 122.044
695.498, 132.064
696.798, 162.525
698.097, 2.588
699.397, 262.690
700.696, 12.604
701.995, 192.604
703.293, 202.565
704.592, 52.438
705.890, 72.337
707.188, 52.110
708.486, 91.249
709.784, 70.771
711.081, 140.371
712.378, 49.809
713.675, 9.338
714.972, 78.315
716.269, 6.936
717.565, 93.115
718.862, 101.869
720.158, 82.097
721.453, 10.885
722.749, 139.377
724.045, 11.442
725.340, 58.068
726.635, 139.822
727.930, 63.497
729.224, 59.398
730.519, 46.397
731.813, 56.623
733.107, 119.200
734.401, 21.704
735.694, 41.928
736.988, 13.732
738.281, 8.881
739.574, 110.984
740.867, 42.354
742.160, 45.658
743.452, 26.462
744.744, 111.453
746.036, 10.671
747.328, 6.744
748.620, 94.495
749.911, 74.831
751.202, 172.779
752.493, 29.647
753.784, 78.721
755.075, 66.647
756.365, 34.059
757.655, 91.707
758.945, 80.973
760.235, 13.756
761.525, 193.918
762.814, 51.025
764.103, 60.286
765.392, 197.563
766.681, 174.543
767.969, 181.482
769.258, 138.384
770.546, 202.086
771.834, 138.907
773.122, 216.762
774.409, 284.783
775.697, 151.489
776.984, 338.155
778.271, 274.784
779.558, 261.377
780.844, 349.226
782.131, 295.745
783.417, 363.591
784.703, 490.037
785.989, 346.448
787.274, 472.823
788.560, 349.161
789.845, 475.465
791.130, 551.732
792.415, 377.965
793.699, 484.161
794.983, 330.323
796.268, 486.449
797.552, 442.541
798.835, 238.598
800.119, 454.620
801.402, 270.608
802.686, 356.562
803.969, 362.480
805.251, 148.366
806.534, 284.217
807.816, 120.032
809.098, 205.812
810.380, 261.557
811.662, 147.271
812.944, 242.947
814.225, 48.593
815.506, 194.200
816.787, 339.775
818.068, 225.317
819.349, 150.828
820.629, 56.306
821.909, 11.746
823.189, 147.141
824.469, 152.502
825.749, 137.832
827.028, 153.131
828.307, 218.396
829.586, 243.631
830.865, 38.835
832.144, 84.004
833.422, 49.141
834.700, 74.241
835.978, 39.309
837.256, 164.344
838.534, 19.349
839.811, 164.164
841.088, 19.036
842.365, 113.581
843.642, 148.389
844.919, 123.001
846.195, 117.209
847.472, 21.931
848.748, 196.035
850.023, 30.153
851.299, 114.369
852.575, 85.864
853.850, 120.440
855.125, 82.421
856.400, 80.237
857.674, 90.891
858.949, 70.514
860.223, 87.389
861.497, 120.426
862.771, 133.998
864.045, 77.314
865.318, 221.146
866.591, 44.049
867.864, 125.598
869.137, 8.923
870.410, 70.296
871.682, 43.766
872.955, 67.291
874.227, 10.732
875.499, 272.863
876.770, 53.319
878.042, 87.389
879.313, 165.304
880.584, 100.900
881.855, 92.337
883.126, 9.914
884.396, 62.929
885.667, 0.737
886.937, 25.639
888.207, 85.663
889.476, 2.911
890.746, 94.916
892.015, 105.607
893.284, 40.114
894.553, 58.396
895.822, 8.704
897.090, 60.784
898.359, 24.226
899.627, 5.295
900.895, 146.260
902.163, 70.396
903.430, 5.919
904.698, 49.537
905.965, 31.299
907.232, 18.118
908.499, 104.951
909.765, 12.538
911.032, 80.698
912.298, 6.597
913.564, 23.273
914.830, 70.372
916.095, 66.716
917.361, 13.738
918.626, 39.885
919.891, 43.408
921.156, 96.962
922.420, 159.666
923.685, 143.885
924.949, 42.828
926.213, 49.230
927.477, 104.439
928.740, 87.747
930.004, 61.410
931.267, 175.068
932.530, 51.276
933.793, 252.363
935.056, 54.000
936.318, 109.621
937.581, 543.239
938.843, 56.857
940.104, 250.473
941.366, 14.086
942.628, 107.698
943.889, 101.312
945.150, 34.925
946.411, 238.538
947.672, 172.149
948.932, 165.763
950.193, 109.377
951.453, 152.991
952.713, 246.605
953.973, 230.224
955.232, 143.844
956.491, 317.467
957.751, 90.847
959.010, 154.474
960.268, 217.754
961.527, 91.388
962.785, 295.022
964.044, 178.448
965.302, 92.094
966.559, 275.127
967.817, 138.779
969.075, 232.437
970.332, 366.099
971.589, 179.605
972.846, 312.728
974.102, 174.994
975.359, 348.524
976.615, 352.090
977.871, 305.608
979.127, 379.204
980.383, 302.914
981.638, 456.631
982.893, 459.793
984.149, 583.168
985.404, 706.410
986.658, 659.772
987.913, 713.019
989.167, 836.803
990.421, 769.883
991.675, 903.688
992.929, 796.812
994.183, 890.471
995.436, 914.294
996.689, 968.029
997.942, 781.762
999.195, 1055.101
1000.448, 1028.998
1001.700, 1242.455
1002.952, 1206.281
1004.204, 1220.033
1005.456, 1343.952
1006.708, 1087.749
1007.959, 1201.650
1009.210, 1275.614
1010.461, 1199.521
1011.712, 1323.533
1012.963, 1167.709
1014.213, 1351.916
1015.464, 1455.977
1016.714, 1140.231
1017.964, 1534.210
1019.214, 1328.507
1020.463, 1262.271
1021.712, 1536.482
1022.962, 1300.606
1024.210, 1574.853
1025.459, 1418.840
1026.708, 1233.264
1027.956, 1584.182
1029.204, 1358.671
1030.452, 1443.208
1031.700, 1541.544
1032.948, 1536.117
1034.195, 1580.479
1035.442, 1415.093
1036.689, 1399.353
1037.936, 1792.561
1039.183, 1672.688
1040.429, 1867.250
1041.676, 2052.096
1042.922, 1896.973
1044.168, 2120.076
1045.413, 2095.084
1046.659, 2129.686
1047.904, 2454.744
1049.149, 2179.838
1050.394, 2434.725
1051.639, 2599.875
1052.884, 2302.080
1054.128, 2697.293
1055.372, 2552.523
1056.616, 2656.814
1057.860, 2581.623
1059.104, 2608.877
1060.347, 2653.908
1061.590, 2639.291
1062.833, 2654.303
1064.076, 2719.902
1065.319, 2635.418
1066.561, 2678.898
1067.803, 2654.197
1069.046, 2649.783
1070.287, 3105.381
1071.529, 3090.998
1072.771, 3079.791
1074.012, 3315.441
1075.253, 3300.047
1076.494, 3524.461
1077.735, 3740.164
1078.975, 3645.957
1080.216, 3901.770
1081.456, 4117.594
1082.696, 4322.154
1083.936, 4758.021
1085.175, 4692.543
1086.415, 5208.451
1087.654, 5244.373
1088.893, 5250.344
1090.132, 5726.326
1091.371, 5512.322
1092.609, 5998.812
1093.847, 6174.844
1095.085, 5720.881
1096.323, 6216.934
1097.561, 6182.996
1098.799, 6029.432
1100.036, 6215.516
1101.273, 5901.613
1102.510, 6028.422
1103.747, 6174.547
1104.983, 5801.141
1106.220, 6177.361
1107.456, 5813.535
1108.692, 5610.295
1109.928, 5696.492
1111.163, 5432.703
1112.399, 5539.926
1113.634, 5186.162
1114.869, 4892.406
1116.104, 5058.988
1117.339, 4655.262
1118.573, 4542.129
1119.808, 4658.453
1121.042, 4214.758
1122.276, 4592.148
1123.509, 4428.484
1124.743, 3884.930
1125.976, 3701.875
1127.210, 3458.240
1128.443, 3145.180
1129.675, 3172.242
1130.908, 2668.631
1132.141, 2887.346
1133.373, 2633.775
1134.605, 2460.203
1135.837, 2310.564
1137.068, 2207.012
1138.300, 2024.184
1139.531, 2211.447
1140.762, 1767.916
1141.993, 1848.334
1143.224, 1875.328
1144.455, 1472.398
1145.685, 1809.633
1146.915, 1256.135
1148.145, 1253.402
1149.375, 1356.836
1150.605, 1083.355
1151.834, 1210.607
1153.063, 1058.555
1154.292, 965.416
1155.521, 980.199
1156.750, 750.684
1157.978, 847.607
1159.207, 796.359
1160.435, 702.895
1161.663, 780.545
1162.891, 679.963
1164.118, 518.100
1165.345, 765.012
1166.573, 381.703
1167.800, 558.227
1169.026, 549.342
1170.253, 435.963
1171.480, 513.076
1172.706, 410.178
1173.932, 206.689
1175.158, 420.828
1176.383, 147.746
1177.609, 424.318
1178.834, 252.244
1180.059, 139.066
1181.284, 286.652
1182.509, 193.975
1183.734, 20.477
1184.958, 398.016
1186.182, 75.240
1187.406, 361.758
1188.630, 202.719
1189.854, 29.627
1191.077, 216.184
1192.301, 172.488
1193.524, 118.979
1194.747, 245.914
1195.969, 56.924
1197.192, 293.348
1198.414, 120.977
1199.636, 38.098
1200.858, 244.922
1202.080, 42.240
1203.302, 198.604
1204.523, 265.586
1205.744, 67.574
1206.966, 148.730
1208.186, 216.605
1209.407, 3.496
1210.628, 219.750
1211.848, 76.227
1213.068, 42.516
1214.288, 230.918
1215.508, 90.945
1216.727, 317.125
1217.947, 184.203
1219.166, 102.068
1220.385, 318.232
1221.604, 208.043
1222.822, 184.186
1224.041, 370.299
1225.259, 300.234
1226.477, 222.061
1227.695, 358.158
1228.913, 147.895
1230.130, 223.912
1231.348, 151.660
1232.565, 200.521
1233.782, 406.457
1234.999, 181.246
1236.215, 247.480
1237.432, 423.338
1238.648, 51.785
1239.864, 387.621
1241.080, 233.453
1242.296, 199.271
1243.511, 365.082
1244.726, 90.879
1245.942, 207.018
1247.156, 282.793
1248.371, 20.338
1249.586, 576.088
1250.800, 81.824
1252.014, 180.500
1253.228, 416.205
1254.442, 61.902
1255.656, 328.467
1256.869, 324.127
1258.083, 0.250
1259.296, 276.268
1260.509, 311.854
1261.722, 138.145
1262.934, 263.672
1264.147, 79.180
1265.359, 215.408
1266.571, 250.838
1267.783, 6.254
1268.994, 322.322
1270.206, 207.570
1271.417, 92.785
1272.628, 288.623
1273.839, 103.770
1275.050, 79.166
1276.260, 474.234
1277.471, 10.719
1278.681, 246.416
1279.891, 391.361
1281.101, 33.465
1282.310, 331.709
1283.520, 86.553
1284.729, 71.328
1285.938, 396.180
1287.147, 29.158
1288.356, 146.348
1289.564, 130.842
1290.773, 95.301
1291.981, 369.725
1293.189, 94.117
1294.397, 71.527
1295.604, 332.689
1296.812, 106.877
1298.019, 30.955
1299.226, 204.953
1300.433, 311.086
1301.640, 353.031
1302.846, 196.795
1304.053, 10.389
1305.259, 293.922
1306.465, 67.389
1307.671, 0.777
1308.876, 34.041
1310.082, 207.260
1311.287, 260.414
1312.492, 323.529
1313.697, 23.396
1314.902, 279.613
1316.106, 162.564
1317.310, 165.438
1318.515, 378.264
1319.719, 68.963
1320.922, 213.717
1322.126, 296.340
1323.329, 58.914
1324.533, 241.422
1325.736, 93.871
1326.939, 126.262
1328.141, 358.594
1329.344, 119.135
1330.546, 143.014
1331.748, 315.100
1332.950, 12.875
1334.152, 219.074
1335.354, 301.111
1336.555, 97.066
1337.757, 314.656
1338.958, 206.320
1340.159, 12.076
1341.359, 329.451
1342.560, 90.918
1343.760, 152.324
1344.960, 223.680
1346.160, 124.980
1347.360, 426.227
1348.560, 177.420
1349.759, 208.561
1350.959, 407.693
1352.158, 121.268
1353.357, 179.670
1354.555, 450.303
1355.754, 98.859
1356.952, 311.889
1358.151, 44.285
1359.349, 4.928
1360.546, 395.512
1361.744, 139.555
1362.941, 70.053
1364.139, 540.506
1365.336, 11.053
1366.533, 331.418
1367.730, 431.752
1368.926, 207.945
1370.123, 52.156
1371.319, 322.279
1372.515, 12.062
1373.711, 331.748
1374.906, 71.352
1376.102, 30.842
1377.297, 360.221
1378.492, 70.473
1379.687, 248.752
1380.882, 398.004
1382.077, 41.480
1383.271, 775.383
1384.465, 439.246
1385.659, 352.695
1386.853, 625.746
1388.047, 348.984
1389.240, 262.568
1390.434, 715.551
1391.627, 88.014
1392.820, 721.502
1394.013, 704.584
1395.205, 47.281
1396.398, 659.408
1397.590, 412.562
1398.782, 175.105
1399.974, 546.836
1401.166, 247.250
1402.357, 270.252
1403.549, 518.559
1404.740, 199.613
1405.931, 607.652
1407.122, 519.039
1408.313, 200.789
1409.503, 593.789
1410.693, 385.334
1411.883, 205.504
1413.073, 669.170
1414.263, 377.762
1415.453, 188.207
1416.642, 674.072
1417.831, 275.094
1419.020, 430.533
1420.209, 501.176
1421.398, 71.908
1422.587, 622.055
1423.775, 271.270
1424.963, 260.566
1426.151, 810.600
1427.339, 314.295
1428.526, 278.488
1429.714, 558.523
1430.901, 124.080
1432.088, 736.707
1433.275, 475.174
1434.462, 343.662
1435.648, 722.410
1436.835, 410.779
1438.021, 301.617
1439.207, 680.465
1440.393, 322.590
1441.579, 741.633
1442.764, 859.344
1443.949, 195.486
1445.135, 837.896
1446.320, 574.590
1447.504, 298.812
1448.689, 909.982
1449.873, 479.037
1451.058, 399.416
1452.242, 856.283
1453.426, 418.342
1454.609, 585.393
1455.793, 752.215
1456.976, 408.031
1458.159, 820.438
1459.342, 819.820
1460.525, 405.414
1461.708, 978.666
1462.890, 681.600
1464.073, 424.613
1465.255, 889.139
1466.437, 481.594
1467.619, 513.891
1468.800, 798.232
1469.982, 350.621
1471.163, 673.760
1472.344, 721.410
1473.525, 224.061
1474.706, 776.221
1475.886, 458.801
1477.066, 88.910
1478.247, 901.926
1479.427, 234.623
1480.607, 407.230
1481.786, 669.973
1482.966, 312.916
1484.145, 464.615
1485.324, 508.168
1486.503, 271.859
1487.682, 426.031
1488.860, 510.170
1490.039, 144.111
1491.217, 718.152
1492.395, 482.227
1493.573, 186.371
1494.751, 520.543
1495.928, 164.816
1497.106, 219.186
1498.283, 523.938
1499.460, 21.088
1500.637, 393.197
1501.814, 358.738
1502.990, 45.412
1504.166, 550.836
1505.342, 367.381
1506.518, 44.236
1507.694, 411.484
1508.870, 149.203
1510.045, 237.490
1511.221, 453.225
1512.396, 50.270
1513.571, 261.658
1514.745, 297.828
1515.920, 52.459
1517.094, 143.283
1518.269, 183.410
1519.443, 90.555
1520.616, 273.449
1521.790, 0.000
##END=



