##NAMES=Analcime
##RRUFFID=R040128
##IDEAL CHEMISTRY=NaAlSi_2_O_6_&#183;H_2_O
##LOCALITY=Mont Saint-Hilaire, Rouville County, Quebec, Canada
##OWNER=RRUFF
##SOURCE=Bob Downs
##DESCRIPTION=White trapezohedra associated with black arfvedsonite, R040127
##STATUS=The identification of this mineral has been confirmed by X-ray diffraction and chemical analysis
##URL=rruff.info/R040128
##MEASURED CHEMISTRY=Na_0.93_(Si_2.04_Al_0.99_)O_6_Â·H_2_O
##PIN_ID=L00542
##ORIENTATION=Laser parallel to -a [-1 0 0]. Fiducial mark perpendicular to laser is parallel to -b* (0 -1 0)
107.387, 0.000
108.781, 8.017
110.174, 820.030
111.566, 594.813
112.959, 818.773
114.351, 688.624
115.744, 843.548
117.136, 997.407
118.527, 1089.526
119.919, 760.297
121.310, 918.158
122.701, 880.716
124.092, 920.833
125.482, 989.606
126.873, 1049.573
128.263, 1226.241
129.653, 1151.881
131.042, 1406.764
132.432, 1372.022
133.821, 1327.019
135.210, 1317.285
136.599, 1324.268
137.987, 1403.330
139.376, 1346.656
140.764, 1375.301
142.152, 1338.153
143.539, 1248.122
144.927, 1322.088
146.314, 1254.739
147.701, 1316.485
149.088, 1150.377
150.474, 1138.081
151.861, 1124.241
153.247, 1150.861
154.633, 1016.832
156.018, 869.317
157.404, 938.462
158.789, 795.393
160.174, 786.222
161.559, 816.047
162.943, 666.958
164.327, 571.030
165.711, 577.331
167.095, 569.921
168.479, 535.858
169.862, 431.188
171.246, 470.950
172.628, 371.182
174.011, 405.916
175.394, 476.181
176.776, 365.005
178.158, 411.415
179.540, 469.436
180.922, 473.330
182.303, 543.984
183.684, 653.892
185.065, 711.915
186.446, 842.164
187.826, 911.324
189.207, 1108.322
190.587, 1095.517
191.967, 1272.150
193.346, 1241.597
194.726, 1232.411
196.105, 1295.496
197.484, 1294.835
198.862, 1252.157
200.241, 1266.149
201.619, 1188.115
202.997, 1200.278
204.375, 1204.631
205.753, 1143.166
207.130, 1071.873
208.507, 1140.745
209.884, 1137.774
211.261, 1036.950
212.638, 1119.264
214.014, 1086.703
215.390, 1160.258
216.766, 1055.921
218.141, 1223.685
219.517, 1239.542
220.892, 1134.486
222.267, 1195.513
223.642, 1252.617
225.016, 1356.792
226.391, 1278.036
227.765, 1341.341
229.139, 1304.698
230.512, 1195.087
231.886, 1220.489
233.259, 1120.890
234.632, 1079.281
236.005, 1077.661
237.377, 977.032
238.749, 804.396
240.122, 723.754
241.493, 786.105
242.865, 597.452
244.237, 559.795
245.608, 384.136
246.979, 366.476
248.350, 241.814
249.720, 268.154
251.090, 156.495
252.461, 126.838
253.830, 90.185
255.200, 57.464
256.570, 105.106
257.939, 81.735
259.308, 128.333
260.677, 174.908
262.045, 143.473
263.414, 231.033
264.782, 239.722
266.150, 302.602
267.517, 302.151
268.885, 306.174
270.252, 287.942
271.619, 279.104
272.986, 273.396
274.353, 236.555
275.719, 186.699
277.085, 156.223
278.451, 47.283
279.817, 107.965
281.182, 79.367
282.548, 70.544
283.913, 132.458
285.278, 171.639
286.642, 388.966
288.007, 624.411
289.371, 1010.953
290.735, 1382.574
292.099, 1861.258
293.462, 2401.988
294.826, 2921.747
296.189, 3458.518
297.552, 3645.291
298.914, 3672.056
300.277, 3258.809
301.639, 2805.542
303.001, 2358.255
304.363, 1897.945
305.724, 1639.609
307.086, 1356.247
308.447, 1109.856
309.808, 980.433
311.168, 905.960
312.529, 878.416
313.889, 738.776
315.249, 688.029
316.609, 797.173
317.969, 693.214
319.328, 748.158
320.687, 771.014
322.046, 696.784
323.405, 720.477
324.764, 748.096
326.122, 796.646
327.480, 763.130
328.838, 820.552
330.196, 816.915
331.553, 976.223
332.910, 953.479
334.267, 987.684
335.624, 981.843
336.981, 1032.955
338.337, 1071.024
339.693, 1112.052
341.049, 1199.041
342.405, 1246.992
343.760, 1270.908
345.116, 1382.778
346.471, 1337.418
347.826, 1463.812
349.180, 1515.907
350.535, 1604.634
351.889, 1669.935
353.243, 1749.830
354.597, 1835.358
355.950, 1899.598
357.304, 1970.667
358.657, 2078.576
360.010, 2268.429
361.362, 2381.301
362.715, 2439.193
364.067, 2629.104
365.419, 2731.031
366.771, 2932.977
368.123, 3113.977
369.474, 3396.913
370.825, 3558.904
372.176, 3730.910
373.527, 4052.931
374.877, 4244.969
376.228, 4457.027
377.578, 4629.110
378.928, 4781.205
380.277, 4933.312
381.627, 4985.429
382.976, 5117.582
384.325, 5229.743
385.674, 5071.950
387.023, 5244.177
388.371, 4976.410
389.719, 5118.672
391.067, 4830.944
392.415, 4793.268
393.762, 4615.600
395.110, 4397.941
396.457, 4160.304
397.804, 3862.693
399.150, 3635.106
400.497, 3437.546
401.843, 3340.014
403.189, 3142.482
404.535, 2954.975
405.881, 2788.868
407.226, 2611.438
408.571, 2458.731
409.916, 2282.583
411.261, 2156.247
412.605, 2033.919
413.950, 1884.673
415.294, 1675.414
416.638, 1787.627
417.981, 1532.014
419.325, 1546.440
420.668, 1409.406
422.011, 1335.496
423.354, 1259.707
424.697, 1164.929
426.039, 1155.702
427.381, 1050.980
428.723, 1021.365
430.065, 1017.863
431.406, 981.176
432.748, 1024.719
434.089, 1037.913
435.430, 1165.510
436.770, 1054.447
438.111, 1075.497
439.451, 1261.431
440.791, 1186.165
442.131, 1262.037
443.471, 1351.654
444.810, 1386.757
446.149, 1613.875
447.488, 1737.001
448.827, 1753.123
450.166, 2074.244
451.504, 2217.366
452.842, 2410.486
454.180, 2733.602
455.518, 2976.713
456.855, 3409.818
458.193, 3842.918
459.530, 4096.012
460.867, 4769.100
462.203, 5402.182
463.540, 6265.260
464.876, 7048.333
466.212, 8151.398
467.548, 9494.460
468.883, 11117.516
470.219, 12900.566
471.554, 15363.611
472.889, 17806.652
474.224, 21289.689
475.558, 24592.713
476.892, 28585.736
478.227, 32708.766
479.561, 35671.785
480.894, 38384.797
482.228, 39447.812
483.561, 38200.824
484.894, 37933.836
486.227, 34216.840
487.559, 30789.850
488.892, 27542.857
490.224, 23955.857
491.556, 20828.859
492.888, 18071.854
494.220, 15374.861
495.551, 13427.862
496.882, 11830.864
498.213, 10383.865
499.544, 9058.786
500.874, 7969.867
502.205, 6992.869
503.535, 6225.869
504.865, 5588.871
506.194, 4771.875
507.524, 4354.881
508.853, 3917.888
510.182, 3440.900
511.511, 3133.919
512.840, 2956.945
514.168, 2659.979
515.496, 2413.024
516.824, 2176.082
518.152, 1998.454
519.480, 1822.238
520.807, 1709.278
522.134, 1568.841
523.461, 1441.577
524.788, 1331.717
526.114, 1218.869
527.441, 1147.033
528.767, 1042.243
530.093, 1068.563
531.418, 894.006
532.744, 894.463
534.069, 761.942
535.394, 775.269
536.719, 634.553
538.044, 690.072
539.368, 552.684
540.693, 640.107
542.017, 449.042
543.340, 447.437
544.664, 376.285
545.987, 327.593
547.311, 466.944
548.634, 383.613
549.956, 294.575
551.279, 158.062
552.601, 117.751
553.923, 214.528
555.245, 187.726
556.567, 81.614
557.889, 65.596
559.210, 7.234
560.531, 4.873
561.852, 33.891
563.173, 47.663
564.493, 67.643
565.813, 49.932
567.133, 100.528
568.453, 48.645
569.773, 31.763
571.092, 51.478
572.412, 4.521
573.731, 0.447
575.049, 0.759
576.368, 0.167
577.686, 62.643
579.005, 56.687
580.323, 76.579
581.640, 83.272
582.958, 86.180
584.275, 115.481
585.593, 164.992
586.909, 159.741
588.226, 286.990
589.543, 212.391
590.859, 120.675
592.175, 248.179
593.491, 334.220
594.807, 324.376
596.122, 409.001
597.438, 328.498
598.753, 383.844
600.068, 424.909
601.382, 506.092
602.697, 505.317
604.011, 555.378
605.325, 622.298
606.639, 548.266
607.952, 576.745
609.266, 625.782
610.579, 610.008
611.892, 547.233
613.205, 669.288
614.518, 595.169
615.830, 680.059
617.142, 626.942
618.454, 734.825
619.766, 638.721
621.078, 690.764
622.389, 606.735
623.700, 603.611
625.011, 755.479
626.322, 613.385
627.632, 742.237
628.943, 613.086
630.253, 574.927
631.563, 653.761
632.872, 477.587
634.182, 617.405
635.491, 490.216
636.800, 560.022
638.109, 618.822
639.418, 654.613
640.726, 527.396
642.035, 521.172
643.343, 479.938
644.651, 485.695
645.958, 511.443
647.266, 578.182
648.573, 468.912
649.880, 396.634
651.187, 481.346
652.494, 366.048
653.800, 469.739
655.106, 320.423
656.412, 333.096
657.718, 399.758
659.024, 394.411
660.329, 336.057
661.634, 415.692
662.939, 277.318
664.244, 387.933
665.549, 392.667
666.853, 455.638
668.157, 501.219
669.461, 432.788
670.765, 371.348
672.069, 309.895
673.372, 299.100
674.675, 359.454
675.978, 263.965
677.281, 313.766
678.583, 234.426
679.886, 234.898
681.188, 246.566
682.490, 164.014
683.792, 234.562
685.093, 91.346
686.394, 69.751
687.696, 45.290
688.997, 46.663
690.297, 0.979
691.598, 2.366
692.898, 27.871
694.198, 50.653
695.498, 34.895
696.798, 82.296
698.097, 66.500
699.397, 97.640
700.696, 111.237
701.995, 6.204
703.293, 119.794
704.592, 42.226
705.890, 25.700
707.188, 133.398
708.486, 53.399
709.784, 43.179
711.081, 15.065
712.378, 41.352
713.675, 26.209
714.972, 20.086
716.269, 3.530
717.565, 7.146
718.862, 20.368
720.158, 78.068
721.453, 192.571
722.749, 0.294
724.045, 107.932
725.340, 58.787
726.635, 68.289
727.930, 43.477
729.224, 36.563
730.519, 0.396
731.813, 60.505
733.107, 47.104
734.401, 85.875
735.694, 5.974
736.988, 28.637
738.281, 109.271
739.574, 16.882
740.867, 14.458
742.160, 42.530
743.452, 56.938
744.744, 103.561
746.036, 34.968
747.328, 31.367
748.620, 55.081
749.911, 14.610
751.202, 163.641
752.493, 44.937
753.784, 21.199
755.075, 97.352
756.365, 9.525
757.655, 86.385
758.945, 36.422
760.235, 15.422
761.525, 155.375
762.814, 61.300
764.103, 39.830
765.392, 101.406
766.681, 100.232
767.969, 140.027
769.258, 204.793
770.546, 247.412
771.834, 184.123
773.122, 220.237
774.409, 303.025
775.697, 151.653
776.984, 167.254
778.271, 197.826
779.558, 192.369
780.844, 178.886
782.131, 261.374
783.417, 271.516
784.703, 355.465
785.989, 346.870
787.274, 388.247
788.560, 389.597
789.845, 420.919
791.130, 523.217
792.415, 394.482
793.699, 535.723
794.983, 366.934
796.268, 468.117
797.552, 519.273
798.835, 290.402
800.119, 421.504
801.402, 322.578
802.686, 443.625
803.969, 404.643
805.251, 355.633
806.534, 336.598
807.816, 277.533
809.098, 238.442
810.380, 329.324
811.662, 200.178
812.944, 331.005
814.225, 202.613
815.506, 243.387
816.787, 424.131
818.068, 314.852
819.349, 155.544
820.629, 96.208
821.909, 186.843
823.189, 297.449
824.469, 248.029
825.749, 188.583
827.028, 139.108
828.307, 108.997
829.586, 260.077
830.865, 110.521
832.144, 140.935
833.422, 261.321
834.700, 131.681
835.978, 192.014
837.256, 152.318
838.534, 92.598
839.811, 252.816
841.088, 142.913
842.365, 192.871
843.642, 302.803
844.919, 171.697
846.195, 70.731
847.472, 107.791
848.748, 187.601
850.023, 127.304
851.299, 177.180
852.575, 221.533
853.850, 171.410
855.125, 192.820
856.400, 180.756
857.674, 220.636
858.949, 241.703
860.223, 215.425
861.497, 265.125
862.771, 294.612
864.045, 233.995
865.318, 230.947
866.591, 126.190
867.864, 192.328
869.137, 268.795
870.410, 76.247
871.682, 174.305
872.955, 170.595
874.227, 29.949
875.499, 265.400
876.770, 82.871
878.042, 93.681
879.313, 217.531
880.584, 73.230
881.855, 135.686
883.126, 29.379
884.396, 117.707
885.667, 160.982
886.937, 55.065
888.207, 16.680
889.476, 94.019
890.746, 152.328
892.015, 111.479
893.284, 69.283
894.553, 63.055
895.822, 35.428
897.090, 18.496
898.359, 87.499
899.627, 25.720
900.895, 6.194
902.163, 52.431
903.430, 118.021
904.698, 7.216
905.965, 5.594
907.232, 153.171
908.499, 132.050
909.765, 62.153
911.032, 36.618
912.298, 104.583
913.564, 71.688
914.830, 120.732
916.095, 60.749
917.361, 62.814
918.626, 55.907
919.891, 34.615
921.156, 113.480
922.420, 67.495
923.685, 51.495
924.949, 39.521
926.213, 90.559
927.477, 88.362
928.740, 7.121
930.004, 115.956
931.267, 104.874
932.530, 13.785
933.793, 262.649
935.056, 1.553
936.318, 9.552
937.581, 49.337
938.843, 158.221
940.104, 137.102
941.366, 105.978
942.628, 35.151
943.889, 73.708
945.150, 22.562
946.411, 101.413
947.672, 150.260
948.932, 89.104
950.193, 197.944
951.453, 176.782
952.713, 165.617
953.973, 294.450
955.232, 83.280
956.491, 302.108
957.751, 50.934
959.010, 189.757
960.268, 228.579
961.527, 157.400
962.785, 196.220
964.044, 155.043
965.302, 36.135
966.559, 192.678
967.817, 201.490
969.075, 30.303
970.332, 289.114
971.589, 57.797
972.846, 286.231
974.102, 85.048
975.359, 253.863
976.615, 232.681
977.871, 141.498
979.127, 270.127
980.383, 158.636
981.638, 267.460
982.893, 295.982
984.149, 414.659
985.404, 383.510
986.658, 422.156
987.913, 271.024
989.167, 349.777
990.421, 338.287
991.675, 377.166
992.929, 525.898
994.183, 364.785
995.436, 493.677
996.689, 502.562
997.942, 331.023
999.195, 479.695
1000.448, 478.639
1001.700, 597.426
1002.952, 616.395
1004.204, 595.396
1005.456, 584.399
1006.708, 463.446
1007.959, 432.543
1009.210, 641.644
1010.461, 430.769
1011.712, 519.934
1012.963, 539.146
1014.213, 488.366
1015.464, 627.599
1016.714, 366.854
1017.964, 656.130
1019.214, 745.433
1020.463, 584.755
1021.712, 773.927
1022.962, 743.284
1024.210, 712.663
1025.459, 811.713
1026.708, 621.166
1027.956, 920.589
1029.204, 730.104
1030.452, 669.650
1031.700, 914.084
1032.948, 743.659
1034.195, 711.037
1035.442, 810.661
1036.689, 660.317
1037.936, 920.006
1039.183, 829.607
1040.429, 979.369
1041.676, 1059.151
1042.922, 958.941
1044.168, 1138.744
1045.413, 1145.047
1046.659, 1044.871
1047.904, 1314.695
1049.149, 1186.725
1050.394, 1306.648
1051.639, 1446.257
1052.884, 1166.697
1054.128, 1396.714
1055.372, 1356.685
1056.616, 1346.716
1057.860, 1336.781
1059.104, 1343.729
1060.347, 1414.113
1061.590, 1424.230
1062.833, 1467.545
1064.076, 1607.691
1065.319, 1537.861
1066.561, 1475.402
1067.803, 1682.873
1069.046, 1633.085
1070.287, 1913.304
1071.529, 1853.532
1072.771, 1830.899
1074.012, 2071.152
1075.253, 2029.989
1076.494, 2136.130
1077.735, 2336.408
1078.975, 2350.538
1080.216, 2620.854
1081.456, 2741.178
1082.696, 2681.771
1083.936, 3012.137
1085.175, 2892.543
1086.415, 3172.750
1087.654, 3303.150
1088.893, 3203.906
1090.132, 3564.332
1091.371, 3434.767
1092.609, 3664.474
1093.847, 3594.925
1095.085, 3525.384
1096.323, 3695.922
1097.561, 3666.395
1098.799, 3417.123
1100.036, 3637.609
1101.273, 3378.103
1102.510, 3328.706
1103.747, 3459.221
1104.983, 3129.891
1106.220, 3400.425
1107.456, 3140.966
1108.692, 2931.845
1109.928, 3112.400
1111.163, 2732.963
1112.399, 2814.646
1113.634, 2785.223
1114.869, 2464.994
1116.104, 2545.781
1117.339, 2436.453
1118.573, 2297.305
1119.808, 2328.128
1121.042, 2068.741
1122.276, 2310.229
1123.509, 2170.857
1124.743, 1881.492
1125.976, 1942.630
1127.210, 1743.273
1128.443, 1684.185
1129.675, 1715.586
1130.908, 1406.250
1132.141, 1412.438
1133.373, 1383.247
1134.605, 1193.943
1135.837, 1247.663
1137.068, 1188.368
1138.300, 1129.560
1139.531, 1210.762
1140.762, 981.480
1141.993, 902.750
1143.224, 953.819
1144.455, 664.731
1145.685, 1007.796
1146.915, 678.531
1148.145, 689.477
1149.375, 844.068
1150.605, 604.809
1151.834, 786.037
1153.063, 597.022
1154.292, 427.765
1155.521, 707.256
1156.750, 387.997
1157.978, 458.739
1159.207, 507.304
1160.435, 438.042
1161.663, 459.045
1162.891, 461.225
1164.118, 282.846
1165.345, 453.660
1166.573, 274.818
1167.800, 275.647
1169.026, 337.567
1170.253, 238.283
1171.480, 179.570
1172.706, 200.719
1173.932, 151.423
1175.158, 312.931
1176.383, 133.637
1177.609, 334.324
1178.834, 148.081
1180.059, 108.825
1181.284, 410.104
1182.509, 201.495
1183.734, 92.346
1184.958, 366.896
1186.182, 58.006
1187.406, 148.670
1188.630, 241.269
1189.854, 52.262
1191.077, 152.899
1192.301, 147.815
1193.524, 118.449
1194.747, 221.248
1195.969, 58.898
1197.192, 251.685
1198.414, 187.548
1199.636, 11.338
1200.858, 209.208
1202.080, 203.140
1203.302, 53.690
1204.523, 244.781
1205.744, 106.287
1206.966, 86.771
1208.186, 179.270
1209.407, 70.042
1210.628, 210.385
1211.848, 194.740
1213.068, 225.139
1214.288, 195.939
1215.508, 187.365
1216.727, 159.444
1217.947, 169.878
1219.166, 173.020
1220.385, 223.366
1221.604, 224.838
1222.822, 175.160
1224.041, 325.484
1225.259, 68.968
1226.477, 251.380
1227.695, 311.769
1228.913, 58.729
1230.130, 359.030
1231.348, 112.060
1232.565, 133.035
1233.782, 223.192
1234.999, 46.316
1236.215, 246.447
1237.432, 446.569
1238.648, 68.111
1239.864, 358.226
1241.080, 268.331
1242.296, 118.735
1243.511, 308.825
1244.726, 78.909
1245.942, 259.237
1247.156, 239.298
1248.371, 121.456
1249.586, 371.499
1250.800, 111.530
1252.014, 203.254
1253.228, 333.263
1254.442, 73.262
1255.656, 204.145
1256.869, 364.089
1258.083, 5.976
1259.296, 284.290
1260.509, 344.178
1261.722, 114.449
1262.934, 144.312
1264.147, 104.151
1265.359, 114.491
1266.571, 334.279
1267.783, 4.109
1268.994, 284.670
1270.206, 354.322
1271.417, 53.961
1272.628, 413.784
1273.839, 113.374
1275.050, 24.009
1276.260, 463.556
1277.471, 66.914
1278.681, 156.903
1279.891, 396.354
1281.101, 24.216
1282.310, 365.180
1283.520, 74.532
1284.729, 73.919
1285.938, 303.512
1287.147, 62.765
1288.356, 112.570
1289.564, 151.671
1290.773, 9.251
1291.981, 350.012
1293.189, 149.004
1294.397, 32.039
1295.604, 356.879
1296.812, 85.746
1298.019, 144.566
1299.226, 303.364
1300.433, 107.882
1301.640, 310.805
1302.846, 259.427
1304.053, 91.976
1305.259, 296.508
1306.465, 144.938
1307.671, 13.313
1308.876, 41.659
1310.082, 189.963
1311.287, 108.234
1312.492, 186.477
1313.697, 24.688
1314.902, 372.845
1316.106, 80.954
1317.310, 109.030
1318.515, 377.063
1319.719, 55.061
1320.922, 213.018
1322.126, 260.942
1323.329, 11.175
1324.533, 206.650
1325.736, 84.441
1326.939, 72.192
1328.141, 179.893
1329.344, 22.497
1330.546, 115.057
1331.748, 292.570
1332.950, 10.040
1334.152, 137.452
1335.354, 264.826
1336.555, 27.843
1337.757, 329.431
1338.958, 6.667
1340.159, 106.146
1341.359, 258.868
1342.560, 44.061
1343.760, 92.950
1344.960, 339.477
1346.160, 13.589
1347.360, 213.294
1348.560, 90.088
1349.759, 46.894
1350.959, 333.658
1352.158, 10.386
1353.357, 167.067
1354.555, 370.527
1355.754, 22.861
1356.952, 333.701
1358.151, 120.232
1359.349, 3.270
1360.546, 413.188
1361.744, 199.772
1362.941, 3.829
1364.139, 332.532
1365.336, 38.868
1366.533, 295.176
1367.730, 311.460
1368.926, 42.273
1370.123, 190.134
1371.319, 176.334
1372.515, 67.479
1373.711, 188.436
1374.906, 5.080
1376.102, 61.024
1377.297, 337.055
1378.492, 7.008
1379.687, 241.461
1380.882, 439.962
1382.077, 28.697
1383.271, 457.330
1384.465, 245.746
1385.659, 144.280
1386.853, 432.717
1388.047, 251.267
1389.240, 159.423
1390.434, 456.684
1391.627, 15.117
1392.820, 463.209
1394.013, 451.047
1395.205, 28.390
1396.398, 476.663
1397.590, 254.331
1398.782, 71.363
1399.974, 533.020
1401.166, 240.894
1402.357, 135.248
1403.549, 451.980
1404.740, 129.169
1405.931, 326.333
1407.122, 441.189
1408.313, 103.771
1409.503, 410.780
1410.693, 208.059
1411.883, 64.193
1413.073, 541.266
1414.263, 218.170
1415.453, 152.242
1416.642, 598.694
1417.831, 44.010
1419.020, 360.276
1420.209, 386.688
1421.398, 27.490
1422.587, 375.014
1423.775, 250.961
1424.963, 276.524
1426.151, 576.850
1427.339, 180.586
1428.526, 126.684
1429.714, 536.586
1430.901, 55.013
1432.088, 482.785
1433.275, 428.009
1434.462, 108.445
1435.648, 461.767
1436.835, 324.267
1438.021, 179.749
1439.207, 588.725
1440.393, 248.897
1441.579, 384.387
1442.764, 644.869
1443.949, 148.227
1445.135, 613.772
1446.320, 478.598
1447.504, 220.565
1448.689, 768.348
1449.873, 367.170
1451.058, 231.770
1452.242, 743.259
1453.426, 386.859
1454.609, 450.932
1455.793, 754.294
1456.976, 213.337
1458.159, 562.954
1459.342, 726.197
1460.525, 197.202
1461.708, 759.320
1462.890, 561.183
1464.073, 293.830
1465.255, 835.025
1466.437, 305.101
1467.619, 367.642
1468.800, 829.457
1469.982, 238.682
1471.163, 498.151
1472.344, 609.673
1473.525, 211.044
1474.706, 581.189
1475.886, 490.498
1477.066, 72.039
1478.247, 792.724
1479.427, 164.071
1480.607, 345.447
1481.786, 626.723
1482.966, 158.035
1484.145, 349.474
1485.324, 341.249
1486.503, 172.977
1487.682, 414.588
1488.860, 336.126
1490.039, 27.752
1491.217, 549.351
1492.395, 360.893
1493.573, 22.445
1494.751, 513.971
1495.928, 115.889
1497.106, 238.154
1498.283, 460.627
1499.460, 13.275
1500.637, 376.082
1501.814, 239.061
1502.990, 7.787
1504.166, 275.551
1505.342, 259.131
1506.518, 83.012
1507.694, 277.283
1508.870, 21.986
1510.045, 197.127
1511.221, 362.775
1512.396, 6.162
1513.571, 222.672
1514.745, 319.871
1515.920, 2.223
1517.094, 247.582
1518.269, 322.240
1519.443, 0.000
##END=



