##NAMES=Analcime
##RRUFFID=R050094
##IDEAL CHEMISTRY=NaAlSi_2_O_6_&#183;H_2_O
##LOCALITY=Springfield, Oregon, USA
##OWNER=RRUFF
##SOURCE=Rock Currier
##DESCRIPTION=Clear colorless single crystals associated with gmelinite
##STATUS=The identification of this mineral has been confirmed by X-ray diffraction and chemical analysis
##URL=rruff.info/R050094
##MEASURED CHEMISTRY=(Na_0.99_[box]_0.01_)_Σ=1_(Si_2.01_Al_0.99_)O_6_·H_2_O
##PIN_ID=M00434
##ORIENTATION=Laser parallel to c* (0 0 1). Fiducial mark perpendicular to laser is parallel to [1 1 0]
169.7650, 0.0000000E+00
170.9990, 3.027832
172.2330, 23.72949
173.4670, 37.79590
174.7000, 5.560059
175.9330, 23.32764
177.1660, 112.0073
178.3990, 53.84814
179.6310, 102.3223
180.8640, 100.5962
182.0960, 118.1943
183.3280, 146.1719
184.5600, 288.6333
185.7910, 250.6006
187.0220, 413.9297
188.2540, 435.1685
189.4840, 424.8540
190.7150, 407.0908
191.9460, 565.0449
193.1760, 596.3008
194.4060, 633.9526
195.6360, 677.2212
196.8660, 681.5112
198.0960, 725.8169
199.3250, 819.2891
200.5540, 815.4619
201.7830, 889.1455
203.0120, 864.3584
204.2400, 807.1689
205.4690, 795.4453
206.6970, 644.2090
207.9250, 662.2114
209.1530, 578.4219
210.3800, 708.7651
211.6080, 631.4263
212.8350, 755.3706
214.0620, 706.4082
215.2880, 718.6616
216.5150, 719.2461
217.7410, 772.6289
218.9680, 784.8213
220.1940, 792.6118
221.4190, 819.2988
222.6450, 810.8975
223.8700, 823.8853
225.0960, 834.3760
226.3210, 755.0791
227.5450, 710.8911
228.7700, 700.9980
229.9940, 680.1436
231.2190, 716.3125
232.4430, 646.8706
233.6660, 634.6729
234.8900, 518.8564
236.1140, 558.0488
237.3370, 477.2612
238.5600, 445.4985
239.7830, 332.7632
241.0050, 261.0576
242.2280, 260.3833
243.4500, 212.8076
244.6720, 165.5029
245.8940, 149.0190
247.1160, 120.6743
248.3370, 106.9849
249.5580, 86.55859
250.7790, 96.31104
252.0000, 70.22607
253.2210, 50.28955
254.4410, 66.51416
255.6620, 106.1997
256.8820, 68.78027
258.1020, 35.72998
259.3210, 102.3193
260.5410, 140.9800
261.7600, 11.70068
262.9790, 166.5288
264.1980, 65.71826
265.4170, 95.88184
266.6360, 42.03125
267.8540, 73.17969
269.0720, 107.3369
270.2900, 13.51123
271.5080, 96.70312
272.7260, 0.9130860
273.9430, 84.13867
275.1600, 8.379883
276.3770, 46.35742
277.5940, 57.07031
278.8100, 19.74609
280.0270, 76.37305
281.2430, 194.9399
282.4590, 312.4375
283.6750, 389.8604
284.8910, 607.2046
286.1060, 723.3501
287.3210, 978.3071
288.5360, 1297.220
289.7510, 1563.006
290.9660, 2112.578
292.1800, 2430.993
293.3950, 2901.246
294.6090, 3512.376
295.8230, 3889.404
297.0360, 4181.417
298.2500, 4314.444
299.4630, 4320.551
300.6760, 3894.786
301.8890, 3582.136
303.1020, 3171.591
304.3150, 2718.146
305.5270, 2405.772
306.7390, 1858.443
307.9510, 1560.156
309.1630, 1286.913
310.3750, 1144.715
311.5860, 990.5601
312.7970, 942.4502
314.0080, 783.3853
315.2190, 784.3652
316.4300, 773.2153
317.6400, 697.6606
318.8510, 727.8828
320.0610, 652.0381
321.2710, 720.6616
322.4800, 723.5015
323.6900, 813.3247
324.8990, 758.9785
326.1080, 806.5527
327.3170, 894.9976
328.5260, 936.3062
329.7340, 842.4727
330.9430, 987.4951
332.1510, 1026.375
333.3590, 970.1147
334.5670, 1178.714
335.7740, 1104.173
336.9820, 1206.488
338.1890, 1205.643
339.3960, 1276.637
340.6030, 1398.459
341.8100, 1490.105
343.0160, 1497.581
344.2220, 1687.899
345.4280, 1632.071
346.6340, 1698.111
347.8400, 1808.025
349.0460, 1831.814
350.2510, 1865.478
351.4560, 1889.997
352.6610, 1981.371
353.8660, 2052.585
355.0700, 2095.634
356.2750, 2196.521
357.4790, 2272.242
358.6830, 2350.115
359.8870, 2456.111
361.0910, 2564.312
362.2940, 2685.446
363.4970, 2824.902
364.7000, 2995.141
365.9030, 3160.174
367.1060, 3298.037
368.3080, 3430.745
369.5110, 3564.419
370.7130, 3798.059
371.9150, 3906.708
373.1170, 4232.320
374.3180, 4317.949
375.5200, 4533.550
376.7210, 4826.311
377.9220, 5090.892
379.1230, 5223.481
380.3230, 5494.642
381.5240, 5587.028
382.7240, 5940.133
383.9240, 6031.163
385.1240, 6115.688
386.3240, 6227.699
387.5230, 6356.784
388.7230, 6402.535
389.9220, 6339.793
391.1210, 6234.938
392.3200, 6152.725
393.5180, 5929.380
394.7170, 5617.735
395.9150, 5269.414
397.1130, 4964.629
398.3110, 4622.430
399.5080, 4281.953
400.7060, 3857.148
401.9030, 3594.858
403.1000, 3161.745
404.2970, 3043.254
405.4940, 2723.348
406.6910, 2529.688
407.8870, 2204.052
409.0830, 2123.896
410.2790, 2004.999
411.4750, 1759.632
412.6710, 1631.460
413.8660, 1577.293
415.0610, 1448.165
416.2560, 1366.965
417.4510, 1214.927
418.6460, 1247.937
419.8410, 1105.725
421.0350, 1094.599
422.2290, 953.4575
423.4230, 991.0010
424.6170, 897.7026
425.8100, 1041.019
427.0040, 1021.755
428.1970, 1018.741
429.3900, 923.2188
430.5830, 1055.003
431.7760, 1014.374
432.9680, 1076.393
434.1610, 1107.613
435.3530, 1176.998
436.5450, 1221.115
437.7360, 1395.301
438.9280, 1327.697
440.1190, 1502.893
441.3110, 1562.119
442.5020, 1559.376
443.6930, 1661.674
444.8830, 1900.017
446.0740, 1976.405
447.2640, 2122.829
448.4540, 2413.300
449.6440, 2436.802
450.8340, 2887.334
452.0240, 2942.896
453.2130, 3261.502
454.4020, 3639.140
455.5910, 4115.827
456.7800, 4518.552
457.9690, 5078.319
459.1570, 5693.128
460.3460, 6532.952
461.5340, 7340.798
462.7220, 8229.646
463.9090, 9328.523
465.0970, 10757.42
466.2840, 12225.33
467.4720, 14068.25
468.6590, 16194.17
469.8460, 18491.12
471.0320, 21257.08
472.2190, 24227.04
473.4050, 27513.03
474.5910, 31157.02
475.7770, 35011.02
476.9630, 38672.02
478.1490, 42458.03
479.3340, 45891.08
480.5190, 48571.11
481.7040, 50362.18
482.8890, 50902.49
484.0740, 50956.32
485.2580, 49333.39
486.4430, 47150.50
487.6270, 44177.60
488.8110, 40093.72
489.9950, 36548.84
491.1780, 32536.97
492.3620, 28609.12
493.5450, 25368.28
494.7280, 22354.46
495.9110, 19537.63
497.0940, 17411.83
498.2760, 15171.04
499.4590, 13383.27
500.6410, 11918.51
501.8230, 10686.76
503.0050, 9467.032
504.1860, 8493.324
505.3680, 7510.633
506.5490, 6688.961
507.7300, 6138.312
508.9110, 5737.683
510.0920, 5066.075
511.2730, 4655.492
512.4530, 4290.930
513.6330, 3969.391
514.8130, 3616.875
515.9930, 3414.381
517.1730, 3116.910
518.3520, 2754.464
519.5320, 2645.037
520.7110, 2393.634
521.8900, 2156.253
523.0690, 2189.896
524.2470, 1872.562
525.4260, 1782.253
526.6040, 1741.969
527.7820, 1350.710
528.9600, 1430.481
530.1380, 1389.280
531.3150, 1344.110
532.4930, 1141.973
533.6700, 1094.867
534.8470, 964.7944
536.0240, 955.7563
537.2000, 808.7544
538.3770, 808.7876
539.5530, 695.8560
540.7290, 622.9639
541.9050, 564.1367
543.0810, 488.0073
544.2570, 464.7007
545.4320, 376.0527
546.6080, 375.4355
547.7830, 332.8442
548.9580, 271.7451
550.1320, 239.8955
551.3070, 165.4966
552.4810, 140.1572
553.6550, 96.86816
554.8300, 53.82080
556.0030, 64.75586
557.1770, 49.98389
558.3510, 30.12012
559.5240, 7.902832
560.6970, 29.22168
561.8700, 7.705566
563.0430, 36.87109
564.2160, 34.52441
565.3880, 107.1929
566.5600, 95.64307
567.7320, 92.29639
568.9040, 153.6216
570.0760, 114.5278
571.2480, 70.92041
572.4190, 167.9868
573.5900, 74.56934
574.7610, 50.23828
575.9320, 103.9492
577.1030, 96.84229
578.2740, 45.03516
579.4440, 11.89990
580.6140, 11.56641
581.7840, 30.80957
582.9540, 53.81006
584.1240, 86.39746
585.2930, 87.96729
586.4630, 111.5459
587.6320, 105.2788
588.8010, 177.5083
589.9700, 109.3623
591.1380, 158.9131
592.3070, 153.4854
593.4750, 135.6572
594.6430, 165.8101
595.8110, 122.7700
596.9790, 141.0083
598.1460, 118.2446
599.3140, 156.8218
600.4810, 146.5879
601.6480, 165.0703
602.8150, 132.2720
603.9820, 180.1431
605.1480, 191.2871
606.3150, 312.7861
607.4810, 307.1763
608.6470, 295.1406
609.8130, 270.6172
610.9790, 313.1250
612.1440, 297.4785
613.3100, 337.9624
614.4750, 260.1587
615.6400, 413.1465
616.8050, 393.9160
617.9690, 428.9126
619.1340, 540.4355
620.2980, 416.7544
621.4620, 454.1895
622.6260, 525.7231
623.7900, 376.6489
624.9540, 443.3213
626.1170, 445.7632
627.2810, 362.1885
628.4440, 441.4951
629.6070, 369.7729
630.7690, 421.4204
631.9320, 415.7275
633.0950, 472.1855
634.2570, 458.0654
635.4190, 401.5088
636.5810, 434.0054
637.7430, 406.2129
638.9040, 388.4961
640.0660, 328.6240
641.2270, 440.7261
642.3880, 409.8442
643.5490, 430.0181
644.7100, 334.3232
645.8700, 414.4038
647.0310, 395.4751
648.1910, 429.5376
649.3510, 448.5903
650.5110, 464.6333
651.6710, 504.6680
652.8300, 511.6855
653.9900, 541.7051
655.1490, 545.7070
656.3080, 547.6982
657.4670, 577.6772
658.6250, 536.6450
659.7840, 694.6001
660.9420, 624.5430
662.1010, 644.4741
663.2590, 807.3916
664.4170, 822.2959
665.5740, 899.1870
666.7320, 864.0645
667.8890, 980.0820
669.0460, 922.9775
670.2030, 901.0356
671.3600, 844.0098
672.5170, 915.8237
673.6740, 850.7002
674.8300, 951.4834
675.9860, 872.5444
677.1420, 819.5610
678.2980, 719.2939
679.4540, 750.4727
680.6090, 689.4639
681.7650, 613.6475
682.9200, 521.7432
684.0750, 481.6562
685.2300, 446.4219
686.3840, 377.0322
687.5390, 278.7798
688.6930, 368.7397
689.8470, 141.4927
691.0010, 257.2559
692.1550, 230.9209
693.3090, 120.8052
694.4620, 142.3511
695.6160, 84.10693
696.7690, 122.6899
697.9220, 184.2012
699.0750, 150.7051
700.2280, 75.12402
701.3800, 97.49170
702.5320, 109.2485
703.6850, 144.4956
704.8370, 77.55762
705.9880, 123.0562
707.1400, 49.64404
708.2920, 10.54492
709.4430, 63.98242
710.5940, 10.15430
711.7450, 66.69775
712.8960, 84.59131
714.0470, 94.28467
715.1970, 17.82324
716.3480, 2.618164
717.4980, 50.66016
718.6480, 41.85645
719.7980, 98.55176
720.9470, 63.36670
722.0970, 0.9262700
723.2460, 22.33496
724.3960, 21.80176
725.5450, 8.671875
726.6940, 30.89746
727.8420, 31.46875
728.9910, 48.79932
730.1390, 46.12109
731.2870, 27.61182
732.4350, 26.60791
733.5830, 39.06396
734.7310, 4.970703
735.8790, 16.73779
737.0260, 15.53516
738.1730, 33.95752
739.3200, 60.87451
740.4670, 30.89502
741.6140, 82.23242
742.7610, 54.36621
743.9070, 24.49512
745.0530, 9.873535
746.1990, 41.57422
747.3450, 58.44141
748.4910, 7.452637
749.6370, 34.03076
750.7820, 46.09570
751.9270, 58.29980
753.0720, 48.65088
754.2170, 24.97217
755.3620, 20.93213
756.5070, 10.32129
757.6510, 39.58057
758.7950, 15.13184
759.9400, 103.6338
761.0840, 59.44482
762.2270, 74.64160
763.3710, 41.40234
764.5140, 129.7344
765.6580, 161.9492
766.8010, 171.6074
767.9440, 90.59619
769.0870, 177.8438
770.2290, 140.4561
771.3720, 218.1260
772.5140, 212.6494
773.6560, 133.1548
774.7990, 200.5312
775.9400, 180.9722
777.0820, 218.2207
778.2240, 252.5762
779.3650, 216.9697
780.5060, 204.9268
781.6470, 172.5967
782.7880, 281.9170
783.9290, 294.0249
785.0690, 285.1938
786.2100, 319.2354
787.3500, 268.3667
788.4900, 250.6074
789.6300, 257.5493
790.7700, 245.4565
791.9090, 262.9072
793.0490, 259.1738
794.1880, 298.9819
795.3270, 299.7568
796.4660, 307.4980
797.6050, 291.2065
798.7440, 245.8862
799.8820, 270.5283
801.0200, 246.1362
802.1590, 241.7114
803.2970, 296.2529
804.4340, 184.7607
805.5720, 210.2876
806.7100, 167.8066
807.8470, 186.5806
808.9840, 220.9512
810.1210, 202.7671
811.2580, 239.0708
812.3950, 150.3423
813.5310, 156.5776
814.6680, 245.7778
815.8040, 108.9453
816.9400, 149.0762
818.0760, 101.1714
819.2120, 114.2295
820.3470, 153.2510
821.4830, 183.2383
822.6180, 215.1914
823.7530, 177.1118
824.8880, 120.9985
826.0230, 164.8496
827.1580, 156.5928
828.2920, 174.3760
829.4270, 116.1255
830.5610, 190.6577
831.6950, 134.2402
832.8290, 168.5381
833.9620, 178.9575
835.0960, 144.5386
836.2290, 187.9961
837.3620, 192.5767
838.4950, 160.2568
839.6280, 227.4316
840.7610, 224.7163
841.8940, 213.7114
843.0260, 223.8828
844.1580, 150.7007
845.2910, 245.0576
846.4230, 279.8652
847.5540, 244.3208
848.6860, 232.2446
849.8170, 233.2271
850.9490, 189.2261
852.0800, 207.3740
853.2110, 211.7891
854.3420, 176.8501
855.4730, 205.5605
856.6030, 146.4746
857.7340, 164.2065
858.8640, 210.1416
859.9940, 258.6699
861.1240, 205.1699
862.2540, 193.4956
863.3830, 213.3037
864.5130, 174.4678
865.6420, 157.9150
866.7710, 174.3203
867.9000, 154.2041
869.0290, 117.8877
870.1570, 152.8428
871.2860, 102.8843
872.4140, 92.13330
873.5430, 31.40576
874.6710, 81.46484
875.7980, 129.7856
876.9260, 94.36523
878.0540, 65.25342
879.1810, 40.84668
880.3080, 84.06250
881.4360, 111.3647
882.5630, 11.07080
883.6890, 58.75830
884.8160, 27.34033
885.9420, 13.43066
887.0690, 34.20410
888.1950, 34.97461
889.3210, 31.49512
890.4470, 21.78809
891.5730, 2.671387
892.6980, 5.580566
893.8240, 67.32861
894.9490, 4.395996
896.0740, 75.41260
897.1990, 1.192383
898.3240, 11.56836
899.4480, 5.740234
900.5730, 36.92139
901.6970, 29.01660
902.8210, 67.11475
903.9450, 56.35840
905.0690, 43.17041
906.1930, 49.20850
907.3160, 45.68115
908.4400, 40.53174
909.5630, 67.03320
910.6860, 36.80127
911.8090, 15.52881
912.9320, 38.27100
914.0550, 20.07324
915.1770, 30.16309
916.2990, 9.486816
917.4210, 9.034180
918.5440, 140.7563
919.6650, 26.46533
920.7870, 131.1606
921.9090, 16.84277
923.0300, 3.488281
924.1510, 66.16602
925.2720, 54.80811
926.3930, 47.43750
927.5140, 76.05518
928.6350, 52.66309
929.7550, 76.25977
930.8760, 43.84424
931.9960, 56.41748
933.1160, 30.98047
934.2360, 104.5322
935.3550, 118.0728
936.4750, 203.6040
937.5940, 148.1270
938.7140, 82.64209
939.8330, 10.99902
940.9520, 3.458496
942.0710, 35.62598
943.1890, 86.11670
944.3080, 17.39209
945.4260, 28.00977
946.5440, 137.4810
947.6620, 62.65381
948.7800, 55.84619
949.8980, 102.2964
951.0160, 130.2773
952.1330, 76.41943
953.2500, 106.3452
954.3680, 99.33936
955.4850, 111.4912
956.6010, 178.7637
957.7180, 165.1655
958.8350, 91.40381
959.9510, 129.4180
961.0670, 166.6118
962.1830, 220.7817
963.2990, 151.0312
964.4150, 54.04736
965.5310, 117.3730
966.6460, 211.4746
967.7620, 129.7188
968.8770, 216.0151
969.9920, 182.1655
971.1070, 180.5273
972.2210, 288.9111
973.3360, 232.1611
974.4500, 308.6118
975.5650, 225.0596
976.6790, 266.5059
977.7930, 366.9492
978.9070, 363.1704
980.0200, 428.6191
981.1340, 412.1094
982.2470, 443.6152
983.3610, 501.1196
984.4740, 497.6235
985.5870, 565.1167
986.6990, 673.6211
987.8120, 520.1323
988.9250, 565.6382
990.0370, 652.1694
991.1490, 656.5527
992.2610, 643.0137
993.3730, 686.5522
994.4850, 685.1055
995.5960, 799.6772
996.7080, 821.6465
997.8190, 787.8594
998.9300, 917.4648
1000.041, 976.0493
1001.152, 1003.146
1002.263, 1003.268
1003.373, 959.7363
1004.484, 948.3896
1005.594, 928.6494
1006.704, 903.6865
1007.814, 889.3608
1008.924, 905.8467
1010.034, 889.5898
1011.143, 978.1958
1012.253, 870.7471
1013.362, 898.2490
1014.471, 966.9463
1015.580, 943.7837
1016.689, 851.0552
1017.797, 994.3628
1018.906, 1068.948
1020.014, 921.2031
1021.122, 1014.884
1022.230, 1027.578
1023.338, 1079.270
1024.446, 971.2930
1025.554, 1041.854
1026.661, 971.5078
1027.768, 964.8350
1028.875, 1022.174
1029.983, 1011.174
1031.089, 1032.759
1032.196, 1073.748
1033.303, 1102.133
1034.409, 1148.606
1035.515, 1154.608
1036.622, 1099.252
1037.728, 1181.607
1038.833, 1148.569
1039.939, 1131.445
1041.045, 1244.441
1042.150, 1267.426
1043.255, 1240.513
1044.360, 1349.507
1045.465, 1283.667
1046.570, 1277.692
1047.675, 1316.456
1048.779, 1448.022
1049.884, 1327.652
1050.988, 1446.604
1052.092, 1422.742
1053.196, 1465.792
1054.300, 1419.944
1055.404, 1429.979
1056.507, 1594.060
1057.610, 1539.232
1058.714, 1645.411
1059.817, 1725.598
1060.920, 1625.126
1062.022, 1784.327
1063.125, 1856.535
1064.228, 1919.750
1065.330, 2018.973
1066.432, 2082.074
1067.534, 2246.437
1068.636, 2220.683
1069.738, 2313.479
1070.840, 2366.979
1071.941, 2528.656
1073.042, 2567.789
1074.144, 2693.021
1075.245, 2826.944
1076.346, 2818.245
1077.446, 2995.076
1078.547, 3105.394
1079.647, 3063.625
1080.748, 3103.959
1081.848, 3365.301
1082.948, 3422.650
1084.048, 3646.010
1085.148, 3803.379
1086.247, 3808.489
1087.347, 3829.877
1088.446, 4021.274
1089.545, 4056.680
1090.644, 4135.094
1091.743, 4155.804
1092.842, 4203.236
1093.940, 4267.164
1095.039, 4280.076
1096.137, 4346.438
1097.235, 4426.905
1098.333, 4384.505
1099.431, 4458.988
1100.529, 4246.564
1101.627, 4288.063
1102.724, 4439.711
1103.822, 4348.545
1104.919, 4491.206
1106.016, 4227.992
1107.113, 4335.529
1108.209, 4215.074
1109.306, 4239.625
1110.402, 4279.182
1111.499, 4215.747
1112.595, 4115.668
1113.691, 4082.547
1114.787, 4042.477
1115.883, 3945.729
1116.978, 3975.328
1118.074, 3900.934
1119.169, 3805.545
1120.264, 3643.163
1121.359, 3610.788
1122.454, 3550.418
1123.549, 3458.057
1124.644, 3264.701
1125.738, 3362.352
1126.832, 3057.979
1127.927, 2952.643
1129.021, 2981.605
1130.115, 2764.282
1131.208, 2764.964
1132.302, 2545.653
1133.396, 2481.348
1134.489, 2460.048
1135.582, 2347.756
1136.675, 2260.469
1137.768, 2182.976
1138.861, 2069.170
1139.954, 1992.653
1141.046, 1853.396
1142.138, 1750.144
1143.231, 1630.898
1144.323, 1560.515
1145.415, 1635.426
1146.507, 1460.198
1147.598, 1450.555
1148.690, 1447.522
1149.781, 1296.334
1150.872, 1174.151
1151.964, 1171.981
1153.054, 1232.817
1154.145, 1138.658
1155.236, 1138.405
1156.327, 1126.300
1157.417, 1020.168
1158.507, 937.0420
1159.597, 813.9404
1160.687, 877.8467
1161.777, 840.7578
1162.867, 723.6753
1163.956, 656.6025
1165.046, 774.5371
1166.135, 565.4883
1167.224, 695.4521
1168.313, 491.4399
1169.402, 550.4478
1170.491, 466.4604
1171.580, 478.4912
1172.668, 384.5264
1173.756, 326.5659
1174.845, 433.6099
1175.933, 384.6577
1177.020, 369.7134
1178.108, 354.7739
1179.196, 304.8384
1180.283, 335.9150
1181.371, 301.9941
1182.458, 281.0850
1183.545, 270.1758
1184.632, 173.2700
1185.719, 140.3682
1186.805, 6.529785
1187.892, 33.57373
1188.978, 166.6807
1190.065, 40.79102
1191.151, 10.09521
1192.237, 77.01709
1193.323, 30.13330
1194.408, 25.25195
1195.494, 84.37354
1196.579, 59.49805
1197.664, 19.62598
1198.750, 130.7568
1199.835, 13.10986
1200.919, 5.979980
1202.004, 28.85059
1203.089, 19.73145
1204.173, 118.6187
1205.258, 21.43652
1206.342, 74.50098
1207.426, 13.56787
1208.510, 13.64014
1209.594, 18.28564
1210.677, 82.78271
1211.761, 28.85254
1212.844, 16.92480
1213.927, 114.9995
1215.010, 40.07666
1216.093, 30.84424
1217.176, 23.22070
1218.259, 55.28809
1219.341, 26.35742
1220.424, 48.42920
1221.506, 54.49756
1222.588, 73.54883
1223.670, 51.40283
1224.752, 30.38086
1225.834, 47.37402
1226.915, 80.60889
1227.997, 50.40576
1229.078, 10.55273
1230.159, 33.41992
1231.240, 18.52295
1232.321, 113.5322
1233.402, 2.647461
1234.483, 1.235352
1235.563, 18.88330
1236.644, 32.98828
1237.724, 137.8604
1238.804, 69.73438
1239.884, 14.61084
1240.964, 72.49219
1242.044, 51.62402
1243.123, 34.76758
1244.203, 6.069824
1245.282, 27.90869
1246.361, 53.74902
1247.440, 71.59131
1248.519, 68.43555
1249.598, 21.28076
1250.676, 37.12891
1251.755, 62.97949
1252.833, 178.8467
1253.911, 114.8242
1254.989, 145.9429
1256.067, 11.50928
1257.145, 135.3711
1258.223, 16.74658
1259.300, 13.12402
1260.378, 73.01367
1261.455, 107.9048
1262.532, 45.79688
1263.609, 83.69092
1264.686, 88.58496
1265.763, 124.4814
1266.840, 112.3794
1267.916, 68.27832
1268.992, 152.1816
1270.069, 106.0859
1271.145, 53.99170
1272.221, 51.89893
1273.296, 33.50098
1274.372, 120.7197
1275.448, 41.63184
1276.523, 2.456055
1277.598, 4.933105
1278.673, 117.3574
1279.749, 59.26465
1280.823, 31.17334
1281.898, 88.08203
1282.973, 29.99219
1284.047, 9.097656
1285.122, 7.197266
1286.196, 64.69385
1287.270, 121.5845
1288.344, 69.47510
1289.418, 133.3647
1290.491, 52.25391
1291.565, 29.14209
1292.638, 146.0298
1293.712, 215.9165
1294.785, 213.8032
1295.858, 211.6885
1296.931, 212.6138
1298.003, 161.4956
1299.076, 164.3755
1300.149, 242.3623
1301.221, 208.2383
1302.293, 260.1123
1303.365, 173.9839
1304.437, 170.8525
1305.509, 271.7188
1306.581, 182.5815
1307.652, 241.4414
1308.724, 131.3008
1309.795, 271.1572
1310.866, 321.0098
1311.937, 265.8584
1313.008, 279.7036
1314.079, 218.5410
1315.150, 237.3779
1316.220, 223.0317
1317.291, 307.8652
1318.361, 283.6968
1319.431, 274.5278
1320.501, 225.0220
1321.571, 244.1333
1322.641, 317.6748
1323.710, 272.4995
1324.780, 325.9937
1325.849, 349.1445
1326.918, 318.9663
1327.987, 282.7856
1329.056, 218.0601
1330.125, 188.6392
1331.194, 207.0454
1332.263, 87.95264
1333.331, 172.7412
1334.399, 88.55566
1335.467, 203.3696
1336.535, 162.1826
1337.603, 164.9961
1338.671, 146.9019
1339.739, 99.71533
