##NAMES=Analcime
##RRUFFID=R050094
##IDEAL CHEMISTRY=NaAlSi_2_O_6_&#183;H_2_O
##LOCALITY=Springfield, Oregon, USA
##OWNER=RRUFF
##SOURCE=Rock Currier
##DESCRIPTION=Clear colorless single crystals associated with gmelinite
##STATUS=The identification of this mineral has been confirmed by X-ray diffraction and chemical analysis
##URL=rruff.info/R050094
##MEASURED CHEMISTRY=(Na_0.99_[box]_0.01_)_Σ=1_(Si_2.01_Al_0.99_)O_6_·H_2_O
##PIN_ID=M00117
##ORIENTATION=Laser parallel to a* (1 0 0). Fiducial mark perpendicular to laser is parallel to -c [0 0 -1]
169.7650, 0.0000000E+00
170.9990, 76.07031
172.2330, 6.726074
173.4670, 129.7305
174.7000, 120.4180
175.9330, 102.8848
177.1660, 212.1230
178.3990, 314.2490
179.6310, 288.8726
180.8640, 421.3496
182.0960, 382.6523
183.3280, 407.9053
184.5600, 597.8218
185.7910, 594.6309
187.0220, 736.1777
188.2540, 812.2651
189.4840, 905.2866
190.7150, 1019.511
191.9460, 1129.464
193.1760, 1222.527
194.4060, 1283.965
195.6360, 1377.208
196.8660, 1465.458
198.0960, 1662.368
199.3250, 1754.068
200.5540, 1797.329
201.7830, 1764.649
203.0120, 1876.462
204.2400, 1809.537
205.4690, 1607.204
206.6970, 1626.455
207.9250, 1495.569
209.1530, 1539.896
210.3800, 1358.101
211.6080, 1283.122
212.8350, 1434.100
214.0620, 1323.940
215.2880, 1205.794
216.5150, 1359.903
217.7410, 1255.438
218.9680, 1378.018
220.1940, 1498.756
221.4190, 1363.838
222.6450, 1541.742
223.8700, 1441.479
225.0960, 1325.136
226.3210, 1319.617
227.5450, 1398.429
228.7700, 1277.445
229.9940, 1130.774
231.2190, 1158.172
232.4430, 1015.615
233.6660, 968.0713
234.8900, 953.5327
236.1140, 1011.000
237.3370, 933.4795
238.5600, 749.9775
239.7830, 825.4980
241.0050, 634.0449
242.2280, 716.6221
243.4500, 561.3096
244.6720, 469.3198
245.8940, 450.6377
247.1160, 367.2520
248.3370, 329.1450
249.5580, 312.2983
250.7790, 250.6934
252.0000, 244.3091
253.2210, 139.1294
254.4410, 156.1343
255.6620, 126.3081
256.8820, 62.63281
258.1020, 119.0889
259.3210, 216.6616
260.5410, 186.3374
261.7600, 92.10449
262.9790, 10.04932
264.1980, 107.1353
265.4170, 66.16602
266.6360, 126.1533
267.8540, 67.11426
269.0720, 144.0718
270.2900, 179.0469
271.5080, 209.0493
272.7260, 195.0801
273.9430, 255.1362
275.1600, 73.21484
276.3770, 153.3145
277.5940, 67.43408
278.8100, 64.58057
280.0270, 50.24121
281.2430, 99.01904
282.4590, 70.74072
283.6750, 212.3970
284.8910, 344.9727
286.1060, 560.4492
287.3210, 733.8081
288.5360, 976.0981
289.7510, 1357.277
290.9660, 1675.197
292.1800, 1966.841
293.3950, 2423.182
294.6090, 3011.154
295.8230, 3177.786
297.0360, 3520.204
298.2500, 3655.538
299.4630, 4113.715
300.6760, 3604.978
301.8890, 3339.643
303.1020, 2606.333
304.3150, 2243.972
305.5270, 1932.683
306.7390, 1663.457
307.9510, 1427.132
309.1630, 1154.185
310.3750, 1102.138
311.5860, 962.1509
312.7970, 940.2241
314.0080, 797.3589
315.2190, 767.5532
316.4300, 691.4883
317.6400, 765.9453
318.8510, 697.9243
320.0610, 758.4644
321.2710, 801.9780
322.4800, 744.4360
323.6900, 770.8149
324.8990, 873.0962
326.1080, 797.2666
327.3170, 865.3169
328.5260, 924.2388
329.7340, 908.0181
330.9430, 1042.643
332.1510, 1086.108
333.3590, 1096.415
334.5670, 1138.563
335.7740, 1147.556
336.9820, 1246.388
338.1890, 1234.056
339.3960, 1258.556
340.6030, 1387.870
341.8100, 1326.973
343.0160, 1446.845
344.2220, 1508.494
345.4280, 1542.938
346.6340, 1690.193
347.8400, 1624.280
349.0460, 1779.212
350.2510, 1835.992
351.4560, 1816.622
352.6610, 1919.104
353.8660, 2107.426
355.0700, 2034.575
356.2750, 2194.547
357.4790, 2241.320
358.6830, 2405.892
359.8870, 2473.241
361.0910, 2606.450
362.2940, 2704.418
363.4970, 2764.984
364.7000, 2973.163
365.9030, 3025.880
367.1060, 3281.109
368.3080, 3301.933
369.5110, 3623.451
370.7130, 3870.822
371.9150, 3955.142
373.1170, 4186.457
374.3180, 4288.803
375.5200, 4722.178
376.7210, 4991.589
377.9220, 5123.030
379.1230, 5464.504
380.3230, 5680.010
381.5240, 5917.548
382.7240, 6106.117
383.9240, 6348.020
385.1240, 6763.564
386.3240, 6814.245
387.5230, 7129.338
388.7230, 7374.849
389.9220, 7331.011
391.1210, 7201.109
392.3200, 7188.599
393.5180, 7021.858
394.7170, 6703.062
395.9150, 6455.672
397.1130, 6075.309
398.3110, 5778.394
399.5080, 5308.958
400.7060, 4957.048
401.9030, 4549.525
403.1000, 4262.729
404.2970, 3985.606
405.4940, 3709.194
406.6910, 3257.173
407.8870, 3058.933
409.0830, 2850.779
410.2790, 2582.375
411.4750, 2493.385
412.6710, 2269.275
413.8660, 2048.760
415.0610, 1869.728
416.2560, 1659.268
417.4510, 1637.879
418.6460, 1609.972
419.8410, 1408.968
421.0350, 1368.050
422.2290, 1238.032
423.4230, 1273.526
424.6170, 1127.590
425.8100, 1125.617
427.0040, 1068.343
428.1970, 1201.925
429.3900, 1033.056
430.5830, 1080.458
431.7760, 1177.832
432.9680, 1137.630
434.1610, 1253.975
435.3530, 1186.973
436.5450, 1173.892
437.7360, 1293.034
438.9280, 1365.664
440.1190, 1526.842
441.3110, 1564.973
442.5020, 1686.161
443.6930, 1889.390
444.8830, 2016.682
446.0740, 2188.247
447.2640, 2363.195
448.4540, 2576.810
449.6440, 2738.278
450.8340, 3049.792
452.0240, 3315.369
453.2130, 3646.992
454.4020, 4031.662
455.5910, 4629.380
456.7800, 5152.136
457.9690, 5735.926
459.1570, 6362.752
460.3460, 7052.578
461.5340, 7995.411
462.7220, 9063.255
463.9090, 10343.11
465.0970, 11427.95
466.2840, 13188.81
467.4720, 14859.67
468.6590, 16961.54
469.8460, 19403.40
471.0320, 21922.29
472.2190, 24834.19
473.4050, 28191.10
474.5910, 31382.02
475.7770, 34976.95
476.9630, 38424.90
478.1490, 41629.84
479.3340, 44623.78
480.5190, 47168.71
481.7040, 48768.66
482.8890, 49141.61
484.0740, 48642.56
485.2580, 47682.50
486.4430, 45154.47
487.6270, 42003.43
488.8110, 38827.40
489.9950, 35434.37
491.1780, 31971.36
492.3620, 28618.34
493.5450, 24910.34
494.7280, 22172.34
495.9110, 19604.35
497.0940, 17491.38
498.2760, 15335.41
499.4590, 13739.45
500.6410, 12217.50
501.8230, 10880.57
503.0050, 9863.643
504.1860, 8741.445
505.3680, 7913.840
506.5490, 7073.963
507.7300, 6399.101
508.9110, 5933.261
510.0920, 5200.441
511.2730, 4951.646
512.4530, 4464.875
513.6330, 4114.129
514.8130, 3742.408
515.9930, 3498.714
517.1730, 3221.044
518.3520, 3028.398
519.5320, 2716.778
520.7110, 2505.183
521.8900, 2351.612
523.0690, 2186.066
524.2470, 1947.543
525.4260, 1904.044
526.6040, 1714.572
527.7820, 1674.123
528.9600, 1497.702
530.1380, 1334.307
531.3150, 1323.938
532.4930, 1110.600
533.6700, 992.2910
534.8470, 898.0137
536.0240, 806.0327
537.2000, 739.4370
538.3770, 729.3818
539.5530, 651.2402
540.7290, 652.1416
541.9050, 656.0820
543.0810, 508.0645
544.2570, 441.0957
545.4320, 456.1675
546.6080, 421.2729
547.7830, 396.4131
548.9580, 308.5947
550.1320, 292.0732
551.3070, 265.6753
552.4810, 95.45703
553.6550, 178.2607
554.8300, 67.50928
556.0030, 23.47900
557.1770, 39.18750
558.3510, 2.575684
559.5240, 7.770508
560.6970, 30.09717
561.8700, 25.36182
563.0430, 82.58691
564.2160, 87.67822
565.3880, 123.8174
566.5600, 90.96973
567.7320, 13.77490
568.9040, 121.0791
570.0760, 79.35547
571.2480, 64.73779
572.4190, 104.1006
573.5900, 89.95654
574.7610, 71.01221
575.9320, 57.64160
577.1030, 13.20264
578.2740, 55.18018
579.4440, 32.37402
580.6140, 4.997070
581.7840, 27.31738
582.9540, 11.73926
584.1240, 33.39014
585.2930, 17.05273
586.4630, 33.23096
587.6320, 42.27979
588.8010, 48.03369
589.9700, 78.13135
591.1380, 131.0747
592.3070, 152.6226
593.4750, 116.0059
594.6430, 86.62207
595.8110, 97.47168
596.9790, 151.2646
598.1460, 39.33008
599.3140, 144.9082
600.4810, 30.01709
601.6480, 118.6870
602.8150, 121.6050
603.9820, 99.96875
605.1480, 34.65479
606.3150, 53.10107
607.4810, 37.38281
608.6470, 50.79883
609.8130, 94.52686
610.9790, 88.89844
612.1440, 127.9014
613.3100, 241.6416
614.4750, 202.7500
615.6400, 201.8340
616.8050, 274.7212
617.9690, 409.3022
619.1340, 371.3418
620.2980, 397.4014
621.4620, 426.4048
622.6260, 331.3145
623.7900, 469.2144
624.9540, 450.1499
626.1170, 522.9536
627.2810, 487.4585
628.4440, 526.1040
629.6070, 503.2520
630.7690, 476.6255
631.9320, 419.0098
633.0950, 381.5332
634.2570, 285.9062
635.4190, 251.2778
636.5810, 361.6382
637.7430, 318.9912
638.9040, 384.3379
640.0660, 298.6768
641.2270, 375.0210
642.3880, 392.3564
643.5490, 461.6846
644.7100, 477.6787
645.8700, 557.3159
647.0310, 493.6172
648.1910, 474.9141
649.3510, 448.2021
650.5110, 488.4897
651.6710, 547.7666
652.8300, 449.0425
653.9900, 510.3091
655.1490, 471.5718
656.3080, 439.8228
657.4670, 441.0796
658.6250, 519.3257
659.7840, 457.5601
660.9420, 472.7964
662.1010, 607.0210
663.2590, 578.2329
664.4170, 561.4463
665.5740, 556.6504
666.7320, 582.8408
667.8890, 555.0171
669.0460, 601.1787
670.2030, 678.3252
671.3600, 693.4565
672.5170, 686.5728
673.6740, 616.6733
674.8300, 521.7578
675.9860, 666.8257
677.1420, 648.8774
678.2980, 490.9253
679.4540, 540.9551
680.6090, 434.9727
681.7650, 400.9712
682.9200, 374.9512
684.0750, 316.9126
685.2300, 322.8550
686.3840, 216.7769
687.5390, 268.6797
688.6930, 127.5625
689.8470, 120.4224
691.0010, 97.25879
692.1550, 115.0996
693.3090, 36.88574
694.4620, 118.6426
695.6160, 87.62695
696.7690, 72.01050
697.9220, 33.59790
699.0750, 152.0771
700.2280, 17.78296
701.3800, 73.37012
702.5320, 53.15552
703.6850, 75.74756
704.8370, 14.93433
705.9880, 45.56128
707.1400, 37.69238
708.2920, 61.18921
709.4430, 3.749756
710.5940, 19.66943
711.7450, 19.27100
712.8960, 50.68506
714.0470, 30.08984
715.1970, 63.16260
716.3480, 106.3657
717.4980, 45.82837
718.6480, 32.20020
719.7980, 11.67993
720.9470, 37.79541
722.0970, 28.65430
723.2460, 55.93701
724.3960, 46.38647
725.5450, 69.67236
726.6940, 71.07666
727.8420, 63.08008
728.9910, 7.200439
730.1390, 65.73267
731.2870, 1.241699
732.4350, 1.841797
733.5830, 4.985107
734.7310, 36.80957
735.8790, 83.56006
737.0260, 45.27466
738.1730, 30.94629
739.3200, 0.5712890
740.4670, 2.864014
741.6140, 6.636963
742.7610, 46.18604
743.9070, 32.62207
745.0530, 26.87183
746.1990, 58.40259
747.3450, 21.72314
748.4910, 38.93579
749.6370, 14.90503
750.7820, 46.48657
751.9270, 49.47046
753.0720, 16.71069
754.2170, 136.5415
755.3620, 57.56104
756.5070, 99.31372
757.6510, 94.08325
758.7950, 106.7566
759.9400, 128.3921
761.0840, 130.0513
762.2270, 120.6121
763.3710, 151.1938
764.5140, 222.0171
765.6580, 187.5442
766.8010, 194.9941
767.9440, 121.4712
769.0870, 277.8132
770.2290, 212.6204
771.3720, 277.8936
772.5140, 246.4009
773.6560, 345.6897
774.7990, 364.8608
775.9400, 293.2432
777.0820, 356.5161
778.2240, 340.4907
779.3650, 362.6316
780.5060, 354.7583
781.6470, 446.9255
782.7880, 415.8740
783.9290, 444.7703
785.0690, 502.5674
786.2100, 431.5874
787.3500, 462.4172
788.4900, 493.2883
789.6300, 488.1704
790.7700, 477.0430
791.9090, 552.2915
793.0490, 466.0193
794.1880, 420.5242
795.3270, 519.3379
796.4660, 469.9819
797.6050, 438.8311
798.7440, 403.4766
799.8820, 381.5479
801.0200, 390.7935
802.1590, 370.0134
803.2970, 424.3137
804.4340, 455.6968
805.5720, 435.7332
806.7100, 438.0701
807.8470, 390.2935
808.9840, 392.5085
810.1210, 327.6016
811.2580, 323.7612
812.3950, 308.7859
813.5310, 315.8225
814.6680, 352.7361
815.8040, 346.7261
816.9400, 317.4854
818.0760, 289.3296
819.2120, 278.1384
820.3470, 272.3223
821.4830, 266.6765
822.6180, 264.5024
823.7530, 275.0276
824.8880, 265.9138
826.0230, 275.1548
827.1580, 278.4463
828.2920, 251.5981
829.4270, 269.7812
830.5610, 310.5588
831.6950, 292.6714
832.8290, 275.1106
833.9620, 294.9438
835.0960, 281.3877
836.2290, 278.4983
837.3620, 315.9465
838.4950, 269.6289
839.6280, 280.2009
840.7610, 302.8440
841.8940, 268.4873
843.0260, 302.2224
844.1580, 274.5554
845.2910, 347.2878
846.4230, 334.6299
847.5540, 329.8879
848.6860, 357.2195
849.8170, 358.2051
850.9490, 315.5339
852.0800, 373.0093
853.2110, 380.6951
854.3420, 362.1663
855.4730, 415.0452
856.6030, 433.9663
857.7340, 427.4756
858.8640, 410.3054
859.9940, 409.8203
861.1240, 440.7993
862.2540, 408.8870
863.3830, 463.2495
864.5130, 419.2476
865.6420, 291.3799
866.7710, 475.8872
867.9000, 278.5371
869.0290, 295.9343
870.1570, 273.0762
871.2860, 233.2534
872.4140, 341.1367
873.5430, 275.2976
874.6710, 246.3079
875.7980, 225.4949
876.9260, 148.4392
878.0540, 107.9143
879.1810, 123.0454
880.3080, 92.65234
881.4360, 124.8860
882.5630, 102.2202
883.6890, 82.22144
884.8160, 6.556152
885.9420, 25.33960
887.0690, 93.14893
888.1950, 31.67554
889.3210, 129.2029
890.4470, 43.90527
891.5730, 95.89111
892.6980, 81.39551
893.8240, 147.8594
894.9490, 97.35693
896.0740, 76.92627
897.1990, 119.4834
898.3240, 74.98291
899.4480, 13.59229
900.5730, 68.47607
901.6970, 77.19824
902.8210, 60.93408
903.9450, 111.3442
905.0690, 3.261230
906.1930, 117.0142
907.3160, 14.89502
908.4400, 57.75391
909.5630, 91.60156
910.6860, 16.43457
911.8090, 33.25098
912.9320, 38.94824
914.0550, 45.81201
915.1770, 39.55762
916.2990, 20.28760
917.4210, 63.00293
918.5440, 90.70459
919.6650, 9.607422
920.7870, 17.05859
921.9090, 28.29053
923.0300, 33.32910
924.1510, 31.06445
925.2720, 13.50928
926.3930, 22.92676
927.5140, 28.61035
928.6350, 60.85010
929.7550, 0.3564450
930.8760, 19.12256
931.9960, 53.41113
933.1160, 1.024902
934.2360, 41.47266
935.3550, 57.09131
936.4750, 14.67432
937.5940, 74.72607
938.7140, 12.11621
939.8330, 35.50781
940.9520, 56.91455
942.0710, 62.31885
943.1890, 12.72314
944.3080, 32.11768
945.4260, 6.502441
946.5440, 28.87842
947.6620, 16.25586
948.7800, 53.37598
949.8980, 7.986816
951.0160, 19.64990
952.1330, 51.69678
953.2500, 37.03564
954.3680, 54.36719
955.4850, 91.69092
956.6010, 81.00830
957.7180, 101.3193
958.8350, 3.376953
959.9510, 48.91895
961.0670, 24.20947
962.1830, 123.4961
963.2990, 170.7495
964.4150, 149.0273
965.5310, 129.3027
966.6460, 103.5752
967.7620, 85.87842
968.8770, 175.1812
969.9920, 171.4829
971.1070, 131.7837
972.2210, 237.0967
973.3360, 168.4082
974.4500, 287.7178
975.5650, 237.0269
976.6790, 234.3481
977.7930, 252.6899
978.9070, 236.0337
980.0200, 263.4028
981.1340, 274.7812
982.2470, 392.1733
983.3610, 338.5796
984.4740, 458.9854
985.5870, 448.3940
986.6990, 443.8281
987.8120, 521.3003
988.9250, 488.7944
990.0370, 532.3765
991.1490, 540.7944
992.2610, 563.3184
993.3730, 575.8477
994.4850, 545.4023
995.5960, 551.9595
996.7080, 748.5176
997.8190, 834.1069
998.9300, 763.6982
1000.041, 1036.301
1001.152, 1130.933
1002.263, 970.5786
1003.373, 1074.238
1004.484, 914.9131
1005.594, 776.5942
1006.704, 813.2783
1007.814, 784.9678
1008.924, 824.6650
1010.034, 766.3779
1011.143, 812.1064
1012.253, 801.7432
1013.362, 786.4565
1014.471, 851.0601
1015.580, 933.8423
1016.689, 886.5425
1017.797, 964.1807
1018.906, 972.0728
1020.014, 1023.553
1021.122, 1034.907
1022.230, 1063.369
1023.338, 1051.841
1024.446, 1109.521
1025.554, 1139.432
1026.661, 1154.293
1027.768, 1141.217
1028.875, 1190.029
1029.983, 1193.019
1031.089, 1268.957
1032.196, 1187.842
1033.303, 1224.454
1034.409, 1280.331
1035.515, 1365.253
1036.622, 1320.117
1037.728, 1277.084
1038.833, 1380.555
1039.939, 1444.530
1041.045, 1434.240
1042.150, 1503.140
1043.255, 1515.013
1044.360, 1551.873
1045.465, 1551.698
1046.570, 1559.792
1047.675, 1574.691
1048.779, 1625.573
1049.884, 1602.386
1050.988, 1701.388
1052.092, 1598.413
1053.196, 1651.507
1054.300, 1750.350
1055.404, 1740.354
1056.507, 1793.740
1057.610, 1740.179
1058.714, 1814.750
1059.817, 1876.219
1060.920, 1843.657
1062.022, 1944.812
1063.125, 1999.628
1064.228, 1995.586
1065.330, 2099.620
1066.432, 2202.131
1067.534, 2214.221
1068.636, 2289.765
1069.738, 2325.549
1070.840, 2515.678
1071.941, 2466.446
1073.042, 2634.327
1074.144, 2696.997
1075.245, 2627.175
1076.346, 2773.245
1077.446, 2934.408
1078.547, 3086.476
1079.647, 3139.936
1080.748, 3242.956
1081.848, 3341.977
1082.948, 3352.146
1084.048, 3428.472
1085.148, 3461.686
1086.247, 3525.905
1087.347, 3568.788
1088.446, 3590.780
1089.545, 3666.605
1090.644, 3704.066
1091.743, 3727.979
1092.842, 3807.240
1093.940, 3858.602
1095.039, 3907.031
1096.137, 3933.042
1097.235, 3964.446
1098.333, 3956.742
1099.431, 3957.406
1100.529, 3965.956
1101.627, 4010.272
1102.724, 3984.847
1103.822, 3978.986
1104.919, 3919.517
1106.016, 3884.862
1107.113, 3825.296
1108.209, 3770.970
1109.306, 3709.022
1110.402, 3648.759
1111.499, 3646.139
1112.595, 3574.527
1113.691, 3472.922
1114.787, 3571.324
1115.883, 3388.733
1116.978, 3395.148
1118.074, 3287.572
1119.169, 3201.002
1120.264, 3137.439
1121.359, 3047.883
1122.454, 2987.334
1123.549, 2911.793
1124.644, 2796.257
1125.738, 2700.729
1126.832, 2564.208
1127.927, 2466.694
1129.021, 2326.187
1130.115, 2163.687
1131.208, 2147.194
1132.302, 1918.708
1133.396, 1970.229
1134.489, 1888.756
1135.582, 1806.290
1136.675, 1672.832
1137.768, 1643.379
1138.861, 1540.934
1139.954, 1518.495
1141.046, 1363.063
1142.138, 1338.638
1143.231, 1341.219
1144.323, 1146.808
1145.415, 1049.403
1146.507, 1035.005
1147.598, 1083.614
1148.690, 941.2305
1149.781, 921.8535
1150.872, 870.4878
1151.964, 875.1304
1153.054, 824.6074
1154.145, 687.4360
1155.236, 741.0986
1156.327, 717.7686
1157.417, 671.4443
1158.507, 495.1270
1159.597, 580.8159
1160.687, 468.5112
1161.777, 524.2124
1162.867, 459.9199
1163.956, 300.6343
1165.046, 376.3555
1166.135, 453.0840
1167.224, 318.8188
1168.313, 357.5596
1169.402, 329.3071
1170.491, 240.0630
1171.580, 280.8257
1172.668, 199.5952
1173.756, 184.3716
1174.845, 193.1538
1175.933, 196.9434
1177.020, 169.7397
1178.108, 134.5547
1179.196, 127.3774
1180.283, 129.2056
1181.371, 114.0410
1182.458, 85.88184
1183.545, 118.7290
1184.632, 70.58691
1185.719, 78.45166
1186.805, 99.33154
1187.892, 52.21729
1188.978, 14.88037
1190.065, 15.19678
1191.151, 67.06348
1192.237, 18.82666
1193.323, 54.74023
1194.408, 24.66113
1195.494, 45.41211
1196.579, 100.4844
1197.664, 94.40039
1198.750, 89.70801
1199.835, 10.83887
1200.919, 40.03564
1202.004, 53.08496
1203.089, 102.2236
1204.173, 30.40625
1205.258, 39.59717
1206.342, 10.19873
1207.426, 18.00146
1208.510, 50.81006
1209.594, 44.37500
1210.677, 65.42480
1211.761, 116.7690
1212.844, 40.00195
1213.927, 16.75293
1215.010, 64.51855
1216.093, 90.77051
1217.176, 110.7437
1218.259, 103.8496
1219.341, 108.6382
1220.424, 89.43311
1221.506, 58.23340
1222.588, 56.86475
1223.670, 0.1459960
1224.752, 48.67139
1225.834, 25.49414
1226.915, 52.32373
1227.997, 18.15771
1229.078, 7.001465
1230.159, 4.159180
1231.240, 96.68604
1232.321, 4.462891
1233.402, 21.39062
1234.483, 64.25000
1235.563, 5.117188
1236.644, 8.3010001E-03
1237.724, 13.87061
1238.804, 6.756348
1239.884, 7.352051
1240.964, 7.602539
1242.044, 82.45166
1243.123, 30.36914
1244.203, 36.29395
1245.282, 61.22461
1246.361, 24.16846
1247.440, 100.1348
1248.519, 122.1094
1249.598, 65.11865
1250.676, 111.1353
1251.755, 44.15869
1252.833, 23.19238
1253.911, 126.2515
1254.989, 104.3184
1256.067, 110.3950
1257.145, 162.4790
1258.223, 83.57471
1259.300, 217.6763
1260.378, 97.79150
1261.455, 45.91553
1262.532, 183.0459
1263.609, 166.1826
1264.686, 179.3262
1265.763, 165.4746
1266.840, 184.6304
1267.916, 173.7935
1268.992, 226.9639
1270.069, 255.1401
1271.145, 251.3223
1272.221, 274.5107
1273.296, 236.7051
1274.372, 273.9048
1275.448, 196.1118
1276.523, 167.3242
1277.598, 169.5425
1278.673, 190.7666
1279.749, 159.5728
1280.823, 167.2324
1281.898, 134.4741
1282.973, 154.7197
1284.047, 168.9707
1285.122, 177.2261
1286.196, 207.4849
1287.270, 215.7485
1288.344, 195.0166
1289.418, 215.2881
1290.491, 197.5625
1291.565, 207.6353
1292.638, 209.4976
1293.712, 223.4067
1294.785, 226.6934
1295.858, 231.9844
1296.931, 269.2783
1298.003, 224.6270
1299.076, 362.9253
1300.149, 285.2246
1301.221, 221.5264
1302.293, 296.8291
1303.365, 259.1338
1304.437, 245.4395
1305.509, 409.7461
1306.581, 367.0537
1307.652, 405.3628
1308.724, 348.6724
1309.795, 430.9819
1310.866, 338.2920
1311.937, 463.6025
1313.008, 496.9146
1314.079, 483.2241
1315.150, 436.5386
1316.220, 437.8569
1317.291, 428.1792
1318.361, 504.8071
1319.431, 582.1382
1320.501, 439.9961
1321.571, 408.3369
1322.641, 378.6816
1323.710, 480.0312
1324.780, 340.0767
1325.849, 360.8252
1326.918, 250.1919
1327.987, 331.6157
1329.056, 346.4482
1330.125, 250.8330
1331.194, 230.4736
1332.263, 266.1191
1333.331, 173.0024
1334.399, 223.3921
1335.467, 171.8101
1336.535, 197.2358
1337.603, 245.6680
1338.671, 195.8237
