##NAMES=Analcime
##RRUFFID=R050094
##IDEAL CHEMISTRY=NaAlSi_2_O_6_&#183;H_2_O
##LOCALITY=Springfield, Oregon, USA
##OWNER=RRUFF
##SOURCE=Rock Currier
##DESCRIPTION=Clear colorless single crystals associated with gmelinite
##STATUS=The identification of this mineral has been confirmed by X-ray diffraction and chemical analysis
##URL=rruff.info/R050094
##MEASURED CHEMISTRY=(Na_0.99_[box]_0.01_)_Σ=1_(Si_2.01_Al_0.99_)O_6_·H_2_O
##PIN_ID=M00117
##ORIENTATION=Laser parallel to a* (1 0 0). Fiducial mark perpendicular to laser is parallel to -c [0 0 -1]
169.7650, 0.0000000E+00
170.9990, 8.190430
172.2330, 125.1689
173.4670, 6.599121
174.7000, 65.76904
175.9330, 58.61426
177.1660, 119.5659
178.3990, 155.1177
179.6310, 193.6938
180.8640, 215.2324
182.0960, 246.7676
183.3280, 199.6353
184.5600, 208.3721
185.7910, 274.2573
187.0220, 348.9648
188.2540, 287.6611
189.4840, 380.3154
190.7150, 401.2437
191.9460, 430.9062
193.1760, 532.6523
194.4060, 471.5571
195.6360, 622.3135
196.8660, 557.8921
198.0960, 649.0112
199.3250, 652.2412
200.5540, 789.7808
201.7830, 802.8496
203.0120, 774.1294
204.2400, 700.8228
205.4690, 682.2490
206.6970, 652.2998
207.9250, 621.4756
209.1530, 619.5762
210.3800, 626.7354
211.6080, 641.9302
212.8350, 696.0791
214.0620, 706.7520
215.2880, 650.0732
216.5150, 709.4014
217.7410, 703.6338
218.9680, 714.6431
220.1940, 756.8877
221.4190, 726.7041
222.6450, 721.5774
223.8700, 750.5786
225.0960, 781.0771
226.3210, 700.4160
227.5450, 719.4395
228.7700, 560.9404
229.9940, 608.4834
231.2190, 577.0576
232.4430, 524.6470
233.6660, 502.2390
234.8900, 478.5266
236.1140, 410.4280
237.3370, 434.0371
238.5600, 367.6631
239.7830, 314.3083
241.0050, 247.9766
242.2280, 202.6692
243.4500, 210.4512
244.6720, 182.4890
245.8940, 275.7466
247.1160, 161.2209
248.3370, 103.8982
249.5580, 117.7607
250.7790, 9.794434
252.0000, 3.016846
253.2210, 31.31274
254.4410, 26.76929
255.6620, 74.33984
256.8820, 8.989014
258.1020, 62.76953
259.3210, 71.60498
260.5410, 188.5063
261.7600, 40.46533
262.9790, 140.5288
264.1980, 38.51538
265.4170, 94.41455
266.6360, 90.32568
267.8540, 127.2292
269.0720, 71.13818
270.2900, 53.06226
271.5080, 46.00488
272.7260, 130.9678
273.9430, 75.95361
275.1600, 152.9646
276.3770, 4.997070
277.5940, 9.929932
278.8100, 25.82617
280.0270, 1.671875
281.2430, 85.47241
282.4590, 162.2222
283.6750, 256.8940
284.8910, 360.4414
286.1060, 427.9043
287.3210, 761.2764
288.5360, 950.6055
289.7510, 1287.833
290.9660, 1675.915
292.1800, 2074.793
293.3950, 2556.502
294.6090, 3063.069
295.8230, 3580.451
297.0360, 3928.758
298.2500, 4129.065
299.4630, 4082.429
300.6760, 3822.871
301.8890, 3460.409
303.1020, 3003.016
304.3150, 2517.683
305.5270, 2115.404
306.7390, 1809.181
307.9510, 1435.007
309.1630, 1251.876
310.3750, 1122.789
311.5860, 945.7446
312.7970, 799.7441
314.0080, 799.7874
315.2190, 732.8750
316.4300, 641.6389
317.6400, 700.8699
318.8510, 617.8943
320.0610, 619.0388
321.2710, 624.9172
322.4800, 703.6787
323.6900, 619.3662
324.8990, 685.9451
326.1080, 726.4109
327.3170, 745.7585
328.5260, 785.9832
329.7340, 774.0789
330.9430, 890.0420
332.1510, 820.8711
333.3590, 898.5671
334.5670, 915.1301
335.7740, 1010.561
336.9820, 1089.852
338.1890, 1211.001
339.3960, 1206.008
340.6030, 1127.864
341.8100, 1289.559
343.0160, 1353.090
344.2220, 1327.468
345.4280, 1486.697
346.6340, 1521.787
347.8400, 1611.743
349.0460, 1578.567
350.2510, 1642.711
351.4560, 1643.829
352.6610, 1699.249
353.8660, 1788.544
355.0700, 1798.696
356.2750, 1850.662
357.4790, 1883.417
358.6830, 1966.373
359.8870, 2024.464
361.0910, 2168.820
362.2940, 2272.925
363.4970, 2406.834
364.7000, 2542.444
365.9030, 2649.326
367.1060, 2770.021
368.3080, 2873.944
369.5110, 3006.805
370.7130, 3113.617
371.9150, 3348.422
373.1170, 3384.244
374.3180, 3752.613
375.5200, 3831.236
376.7210, 4144.784
377.9220, 4345.168
379.1230, 4566.512
380.3230, 4823.812
381.5240, 5028.883
382.7240, 5251.872
383.9240, 5432.109
385.1240, 5673.875
386.3240, 5851.164
387.5230, 6058.131
388.7230, 6131.380
389.9220, 6156.171
391.1210, 6154.995
392.3200, 6116.819
393.5180, 5955.901
394.7170, 5625.314
395.9150, 5488.676
397.1130, 5045.426
398.3110, 4810.096
399.5080, 4222.731
400.7060, 3848.872
401.9030, 3454.866
403.1000, 3222.975
404.2970, 2774.371
405.4940, 2511.236
406.6910, 2233.121
407.8870, 2109.584
409.0830, 1954.645
410.2790, 1674.281
411.4750, 1607.311
412.6710, 1432.161
413.8660, 1310.668
415.0610, 1276.447
416.2560, 1204.805
417.4510, 1076.012
418.6460, 985.7632
419.8410, 1008.816
421.0350, 965.9180
422.2290, 896.3071
423.4230, 985.1873
424.6170, 919.3027
425.8100, 846.3745
427.0040, 865.6362
428.1970, 919.3135
429.3900, 929.6074
430.5830, 939.5857
431.7760, 977.6658
432.9680, 947.1509
434.1610, 993.6235
435.3530, 1040.683
436.5450, 1211.437
437.7360, 1300.937
438.9280, 1350.906
440.1190, 1431.145
441.3110, 1424.069
442.5020, 1558.354
443.6930, 1679.678
444.8830, 1738.043
446.0740, 1914.450
447.2640, 2110.920
448.4540, 2310.402
449.6440, 2503.924
450.8340, 2703.484
452.0240, 2927.083
453.2130, 3219.721
454.4020, 3650.391
455.5910, 4149.095
456.7800, 4616.833
457.9690, 5062.607
459.1570, 5658.507
460.3460, 6445.319
461.5340, 7221.139
462.7220, 8191.983
463.9090, 9148.830
465.0970, 10325.69
466.2840, 11793.57
467.4720, 13349.47
468.6590, 15376.40
469.8460, 17589.34
471.0320, 19791.30
472.2190, 22574.28
473.4050, 25507.30
474.5910, 28924.32
475.7770, 32016.38
476.9630, 35734.45
478.1490, 39235.53
479.3340, 42452.62
480.5190, 45299.73
481.7040, 47529.86
482.8890, 48727.99
484.0740, 48691.13
485.2580, 47583.28
486.4430, 45885.43
487.6270, 43255.60
488.8110, 39994.76
489.9950, 36372.95
491.1780, 32695.15
492.3620, 29240.36
493.5450, 25757.58
494.7280, 22904.81
495.9110, 20354.05
497.0940, 18027.30
498.2760, 16023.57
499.4590, 13946.85
500.6410, 12309.15
501.8230, 10953.46
503.0050, 9893.789
504.1860, 8702.138
505.3680, 7962.498
506.5490, 7329.876
507.7300, 6485.276
508.9110, 5928.696
510.0920, 5378.135
511.2730, 4949.597
512.4530, 4609.080
513.6330, 4107.587
514.8130, 3827.114
515.9930, 3490.664
517.1730, 3225.236
518.3520, 3032.833
519.5320, 2789.452
520.7110, 2554.094
521.8900, 2283.761
523.0690, 2188.451
524.2470, 2128.166
525.4260, 1969.906
526.6040, 1756.671
527.7820, 1601.462
528.9600, 1474.282
530.1380, 1413.130
531.3150, 1288.009
532.4930, 1196.917
533.6700, 1068.849
534.8470, 966.8120
536.0240, 904.8079
537.2000, 931.8345
538.3770, 843.9070
539.5530, 742.0264
540.7290, 581.1843
541.9050, 611.3813
543.0810, 496.6106
544.2570, 509.8867
545.4320, 454.1948
546.6080, 436.5330
547.7830, 405.8960
548.9580, 326.2913
550.1320, 248.7639
551.3070, 290.2678
552.4810, 224.8359
553.6550, 202.4653
554.8300, 143.1653
556.0030, 127.0579
557.1770, 54.15552
558.3510, 1.925049
559.5240, 58.30908
560.6970, 17.38452
561.8700, 11.85571
563.0430, 45.82544
564.2160, 43.43164
565.3880, 41.05811
566.5600, 130.5659
567.7320, 65.06274
568.9040, 63.28467
570.0760, 141.4705
571.2480, 104.9829
572.4190, 6.309082
573.5900, 89.74854
574.7610, 24.32373
575.9320, 44.61060
577.1030, 32.22852
578.2740, 19.85864
579.4440, 36.94263
580.6140, 1.087891
581.7840, 64.29907
582.9540, 23.80591
584.1240, 47.06860
585.2930, 87.95239
586.4630, 26.83154
587.6320, 0.5068360
588.8010, 51.63281
589.9700, 51.32080
591.1380, 39.38818
592.3070, 54.07983
593.4750, 70.65723
594.6430, 68.18311
595.8110, 17.18994
596.9790, 52.87915
598.1460, 64.56152
599.3140, 3.697998
600.4810, 79.95923
601.6480, 44.63208
602.8150, 52.70483
603.9820, 105.1990
605.1480, 69.16797
606.3150, 113.5510
607.4810, 155.2798
608.6470, 200.2842
609.8130, 197.2478
610.9790, 279.8120
612.1440, 261.7656
613.3100, 248.7666
614.4750, 278.1675
615.6400, 327.1646
616.8050, 343.9417
617.9690, 318.7471
619.1340, 430.0393
620.2980, 379.2480
621.4620, 397.9963
622.6260, 489.0220
623.7900, 433.7168
624.9540, 427.3579
626.1170, 479.8826
627.2810, 401.4966
628.4440, 362.0566
629.6070, 321.5891
630.7690, 295.2014
631.9320, 285.0291
633.0950, 297.0542
634.2570, 299.3728
635.4190, 305.5315
636.5810, 350.8435
637.7430, 271.3271
638.9040, 343.1067
640.0660, 350.4307
641.2270, 298.5574
642.3880, 288.8589
643.5490, 310.3479
644.7100, 427.2957
645.8700, 365.5146
647.0310, 386.7678
648.1910, 417.9194
649.3510, 391.0850
650.5110, 502.1917
651.6710, 472.2969
652.8300, 504.4072
653.9900, 521.5122
655.1490, 453.6089
656.3080, 523.6958
657.4670, 518.7722
658.6250, 561.8425
659.7840, 566.9126
660.9420, 607.9717
662.1010, 693.0522
663.2590, 646.0884
664.4170, 770.3826
665.5740, 721.3940
666.7320, 793.5928
667.8890, 851.6506
669.0460, 856.6917
670.2030, 867.0752
671.3600, 900.0322
672.5170, 882.9751
673.6740, 949.0615
674.8300, 929.1206
675.9860, 912.1277
677.1420, 861.2327
678.2980, 847.1428
679.4540, 801.1709
680.6090, 702.0293
681.7650, 607.9883
682.9200, 553.0569
684.0750, 515.9751
685.2300, 484.7456
686.3840, 400.7139
687.5390, 322.4487
688.6930, 246.2485
689.8470, 189.9468
691.0010, 204.8279
692.1550, 221.4878
693.3090, 160.1648
694.4620, 111.9565
695.6160, 76.59839
696.7690, 132.2700
697.9220, 74.90405
699.0750, 127.5581
700.2280, 52.18188
701.3800, 97.71680
702.5320, 85.23511
703.6850, 94.78931
704.8370, 72.37354
705.9880, 63.67920
707.1400, 31.54419
708.2920, 30.05225
709.4430, 58.99683
710.5940, 28.22925
711.7450, 40.35693
712.8960, 69.07837
714.0470, 11.18677
715.1970, 10.94995
716.3480, 5.610840
717.4980, 2.074463
718.6480, 0.2854000
719.7980, 8.221924
720.9470, 18.47119
722.0970, 2.642090
723.2460, 11.80054
724.3960, 11.00903
725.5450, 9.732178
726.6940, 13.59595
727.8420, 5.947266
728.9910, 11.34741
730.1390, 4.734863
731.2870, 2.301025
732.4350, 18.14966
733.5830, 8.561279
734.7310, 15.92944
735.8790, 1.679199
737.0260, 48.59888
738.1730, 16.25171
739.3200, 6.2500000E-02
740.4670, 53.72559
741.6140, 25.33569
742.7610, 3.346924
743.9070, 41.37720
745.0530, 46.47998
746.1990, 50.48267
747.3450, 17.61792
748.4910, 58.71484
749.6370, 0.8793950
750.7820, 65.08325
751.9270, 23.39893
753.0720, 32.65356
754.2170, 2.937012
755.3620, 2.739990
756.5070, 4.854004
757.6510, 14.45410
758.7950, 25.69141
759.9400, 49.70776
761.0840, 72.22070
762.2270, 85.15601
763.3710, 112.1318
764.5140, 90.12378
765.6580, 102.0354
766.8010, 107.8079
767.9440, 87.76221
769.0870, 122.7095
770.2290, 138.6687
771.3720, 154.9568
772.5140, 193.2949
773.6560, 153.9873
774.7990, 111.6714
775.9400, 65.48096
777.0820, 147.1118
778.2240, 194.6748
779.3650, 149.3481
780.5060, 166.0095
781.6470, 167.6338
782.7880, 164.1580
783.9290, 155.1655
785.0690, 183.3010
786.2100, 182.5391
787.3500, 236.9285
788.4900, 215.8950
789.6300, 235.4751
790.7700, 275.4973
791.9090, 285.9500
793.0490, 279.2488
794.1880, 235.2959
795.3270, 248.3774
796.4660, 236.7981
797.6050, 219.8708
798.7440, 199.8840
799.8820, 273.8662
801.0200, 142.8179
802.1590, 248.7573
803.2970, 161.9541
804.4340, 193.2512
805.5720, 194.3479
806.7100, 109.2080
807.8470, 216.9668
808.9840, 240.6946
810.1210, 169.3918
811.2580, 172.0732
812.3950, 180.7898
813.5310, 153.3923
814.6680, 195.9626
815.8040, 163.5027
816.9400, 200.0107
818.0760, 171.4890
819.2120, 140.9358
820.3470, 172.3506
821.4830, 223.7344
822.6180, 151.0884
823.7530, 212.4109
824.8880, 181.7034
826.0230, 231.9658
827.1580, 152.1987
828.2920, 211.4004
829.4270, 190.5728
830.5610, 157.7158
831.6950, 187.6912
832.8290, 174.4817
833.9620, 166.4685
835.0960, 166.1790
836.2290, 167.3586
837.3620, 181.6885
838.4950, 201.3110
839.6280, 215.9285
840.7610, 277.5588
841.8940, 288.0684
843.0260, 174.5415
844.1580, 310.7217
845.2910, 222.8467
846.4230, 261.2639
847.5540, 257.4651
848.6860, 244.7639
849.8170, 293.1707
850.9490, 224.2715
852.0800, 379.6824
853.2110, 264.0862
854.3420, 269.9260
855.4730, 222.6301
856.6030, 295.7356
857.7340, 286.6672
858.8640, 322.7388
859.9940, 334.5151
861.1240, 334.2795
862.2540, 370.2305
863.3830, 314.7129
864.5130, 315.6165
865.6420, 344.1228
866.7710, 290.0161
867.9000, 267.2070
869.0290, 204.9424
870.1570, 216.4377
871.2860, 130.2329
872.4140, 206.0156
873.5430, 172.7224
874.6710, 163.4927
875.7980, 88.22900
876.9260, 147.5464
878.0540, 57.42334
879.1810, 142.8059
880.3080, 120.7556
881.4360, 72.34106
882.5630, 79.63159
883.6890, 51.94360
884.8160, 42.10352
885.9420, 35.91895
887.0690, 35.13477
888.1950, 12.93140
889.3210, 16.11108
890.4470, 1.490967
891.5730, 29.82104
892.6980, 36.64502
893.8240, 90.53345
894.9490, 52.86279
896.0740, 17.10352
897.1990, 8.765137
898.3240, 68.60376
899.4480, 50.06982
900.5730, 81.42773
901.6970, 106.8203
902.8210, 60.22217
903.9450, 25.52515
905.0690, 13.95850
906.1930, 40.44312
907.3160, 31.98096
908.4400, 63.65942
909.5630, 46.16479
910.6860, 7.479248
911.8090, 40.47754
912.9320, 69.91211
914.0550, 13.52490
915.1770, 7.942383
916.2990, 8.416260
917.4210, 23.88306
918.5440, 9.677002
919.6650, 49.29468
920.7870, 39.56885
921.9090, 54.43774
923.0300, 29.00708
924.1510, 55.60303
925.2720, 15.23877
926.3930, 4.893555
927.5140, 22.43823
928.6350, 101.7598
929.7550, 19.92896
930.8760, 42.63599
931.9960, 20.62866
933.1160, 40.88867
934.2360, 81.11426
935.3550, 70.36353
936.4750, 17.33374
937.5940, 28.43481
938.7140, 13.41724
939.8330, 8.906494
940.9520, 1.859619
942.0710, 43.63354
943.1890, 51.82886
944.3080, 36.02954
945.4260, 8.069336
946.5440, 1.865967
947.6620, 32.22852
948.7800, 39.22192
949.8980, 94.40356
951.0160, 94.45044
952.1330, 99.64502
953.2500, 74.71631
954.3680, 157.6555
955.4850, 100.7222
956.6010, 94.91333
957.7180, 160.8855
958.8350, 85.06763
959.9510, 116.1780
961.0670, 90.36597
962.1830, 91.36157
963.2990, 86.55469
964.4150, 100.2454
965.5310, 119.8552
966.6460, 149.8667
967.7620, 173.9578
968.8770, 211.0139
969.9920, 236.0696
971.1070, 196.1436
972.2210, 202.2786
973.3360, 249.4683
974.4500, 289.6616
975.5650, 305.2078
976.6790, 279.0427
977.7930, 361.1643
978.9070, 325.3594
980.0200, 371.5557
981.1340, 451.7512
982.2470, 418.9478
983.3610, 519.1438
984.4740, 565.3394
985.5870, 568.5452
986.6990, 607.7556
987.8120, 570.9800
988.9250, 593.2112
990.0370, 574.4500
991.1490, 658.6951
992.2610, 648.9438
993.3730, 701.2017
994.4850, 764.7964
995.5960, 811.7529
996.7080, 889.0415
997.8190, 970.3433
998.9300, 1023.717
1000.041, 1035.981
1001.152, 1047.319
1002.263, 1031.668
1003.373, 974.0229
1004.484, 958.3872
1005.594, 915.6953
1006.704, 960.0796
1007.814, 846.4668
1008.924, 821.8706
1010.034, 776.0886
1011.143, 845.5315
1012.253, 880.6860
1013.362, 916.1501
1014.471, 987.6387
1015.580, 885.9768
1016.689, 971.3970
1017.797, 961.7358
1018.906, 1074.090
1020.014, 1058.445
1021.122, 987.8564
1022.230, 1041.163
1023.338, 1021.578
1024.446, 1082.743
1025.554, 1059.269
1026.661, 1040.852
1027.768, 1039.589
1028.875, 1076.281
1029.983, 1025.564
1031.089, 1085.396
1032.196, 1055.161
1033.303, 1117.883
1034.409, 1126.659
1035.515, 1096.440
1036.622, 1121.226
1037.728, 1166.886
1038.833, 1166.507
1039.939, 1155.249
1041.045, 1215.965
1042.150, 1227.776
1043.255, 1187.570
1044.360, 1273.213
1045.465, 1323.006
1046.570, 1231.842
1047.675, 1311.542
1048.779, 1314.229
1049.884, 1375.929
1050.988, 1327.703
1052.092, 1379.969
1053.196, 1426.813
1054.300, 1361.297
1055.404, 1412.877
1056.507, 1481.086
1057.610, 1525.657
1058.714, 1570.323
1059.817, 1576.411
1060.920, 1658.279
1062.022, 1731.198
1063.125, 1798.312
1064.228, 1799.345
1065.330, 1966.321
1066.432, 1975.010
1067.534, 2098.963
1068.636, 2224.923
1069.738, 2288.870
1070.840, 2380.537
1071.941, 2422.608
1073.042, 2490.327
1074.144, 2571.679
1075.245, 2714.541
1076.346, 2710.496
1077.446, 2922.150
1078.547, 2950.731
1079.647, 3019.718
1080.748, 3227.076
1081.848, 3269.594
1082.948, 3341.876
1084.048, 3377.942
1085.148, 3427.997
1086.247, 3482.111
1087.347, 3521.219
1088.446, 3577.315
1089.545, 3631.747
1090.644, 3669.856
1091.743, 3661.719
1092.842, 3630.843
1093.940, 3779.216
1095.039, 3794.353
1096.137, 3975.498
1097.235, 3988.988
1098.333, 3969.952
1099.431, 4012.117
1100.529, 3953.290
1101.627, 4003.469
1102.724, 3944.833
1103.822, 3944.027
1104.919, 3916.534
1106.016, 3833.538
1107.113, 3861.752
1108.209, 3829.973
1109.306, 3846.325
1110.402, 3801.558
1111.499, 3815.798
1112.595, 3734.044
1113.691, 3635.297
1114.787, 3575.556
1115.883, 3528.822
1116.978, 3506.094
1118.074, 3417.373
1119.169, 3338.674
1120.264, 3292.966
1121.359, 3190.264
1122.454, 3074.569
1123.549, 3091.880
1124.644, 2974.198
1125.738, 2942.522
1126.832, 2756.854
1127.927, 2754.190
1129.021, 2642.534
1130.115, 2513.885
1131.208, 2413.242
1132.302, 2368.604
1133.396, 2271.974
1134.489, 2167.350
1135.582, 2048.732
1136.675, 2047.120
1137.768, 1942.515
1138.861, 1822.916
1139.954, 1785.323
1141.046, 1690.736
1142.138, 1614.157
1143.231, 1562.583
1144.323, 1485.017
1145.415, 1430.456
1146.507, 1422.901
1147.598, 1300.353
1148.690, 1279.811
1149.781, 1147.276
1150.872, 1070.747
1151.964, 1083.225
1153.054, 1025.708
1154.145, 965.1992
1155.236, 984.6960
1156.327, 918.2012
1157.417, 790.7122
1158.507, 748.2285
1159.597, 716.7498
1160.687, 657.2759
1161.777, 683.8140
1162.867, 651.3618
1163.956, 656.9141
1165.046, 572.4717
1166.135, 557.0337
1167.224, 441.6003
1168.313, 486.1721
1169.402, 441.7488
1170.491, 378.3311
1171.580, 402.9180
1172.668, 325.5103
1173.756, 275.1072
1174.845, 334.7085
1175.933, 252.3154
1177.020, 298.9268
1178.108, 310.5427
1179.196, 208.1636
1180.283, 229.7898
1181.371, 165.4211
1182.458, 102.0571
1183.545, 142.7007
1184.632, 179.3621
1185.719, 144.0386
1186.805, 98.73389
1187.892, 41.44116
1188.978, 71.16748
1190.065, 38.90210
1191.151, 44.64258
1192.237, 29.38745
1193.323, 2.863770
1194.408, 9.108398
1195.494, 21.34351
1196.579, 33.58472
1197.664, 30.16211
1198.750, 34.91260
1199.835, 65.66724
1200.919, 68.42627
1202.004, 28.80493
1203.089, 50.95605
1204.173, 7.277344
1205.258, 66.51123
1206.342, 51.77563
1207.426, 11.06226
1208.510, 77.35181
1209.594, 2.322754
1210.677, 73.00000
1211.761, 59.35693
1212.844, 21.74072
1213.927, 10.86768
1215.010, 2.479492
1216.093, 6.093994
1217.176, 49.71167
1218.259, 20.33301
1219.341, 4.041992
1220.424, 36.58276
1221.506, 62.78906
1222.588, 65.80981
1223.670, 54.58838
1224.752, 66.98877
1225.834, 94.56934
1226.915, 3.846924
1227.997, 31.26367
1229.078, 20.30640
1230.159, 38.14746
1231.240, 40.72437
1232.321, 52.69556
1233.402, 54.85986
1234.483, 55.41895
1235.563, 18.01904
1236.644, 77.53638
1237.724, 46.09546
1238.804, 18.34180
1239.884, 85.21387
1240.964, 11.77271
1242.044, 70.35205
1243.123, 43.93506
1244.203, 30.52173
1245.282, 35.11743
1246.361, 9.816162
1247.440, 41.32080
1248.519, 16.07080
1249.598, 54.53296
1250.676, 61.14038
1251.755, 46.76416
1252.833, 32.39282
1253.911, 81.02588
1254.989, 72.67725
1256.067, 69.12988
1257.145, 58.00610
1258.223, 51.68066
1259.300, 40.36475
1260.378, 38.05273
1261.455, 74.74414
1262.532, 94.43896
1263.609, 129.1379
1264.686, 126.8430
1265.763, 113.5518
1266.840, 91.26587
1267.916, 97.98291
1268.992, 164.7036
1270.069, 140.4282
1271.145, 194.1562
1272.221, 139.8872
1273.296, 166.6216
1274.372, 112.3594
1275.448, 181.1001
1276.523, 210.8442
1277.598, 117.5913
1278.673, 203.3418
1279.749, 220.0945
1280.823, 174.8503
1281.898, 125.6089
1282.973, 164.3701
1284.047, 87.13354
1285.122, 126.8994
1286.196, 120.6670
1287.270, 182.4360
1288.344, 168.2068
1289.418, 167.9795
1290.491, 191.7532
1291.565, 237.5278
1292.638, 259.3037
1293.712, 266.7388
1294.785, 274.2373
1295.858, 259.6370
1296.931, 260.4160
1298.003, 237.1953
1299.076, 231.9751
1300.149, 168.7556
1301.221, 323.5364
1302.293, 233.3171
1303.365, 217.0974
1304.437, 286.8774
1305.509, 237.6575
1306.581, 262.4370
1307.652, 334.2168
1308.724, 283.9956
1309.795, 284.7737
1310.866, 372.5508
1311.937, 389.3286
1313.008, 326.1055
1314.079, 371.8796
1315.150, 398.6545
1316.220, 379.4312
1317.291, 352.2090
1318.361, 327.9875
1319.431, 351.7676
1320.501, 360.5488
1321.571, 347.9634
1322.641, 319.9490
1323.710, 317.2878
1324.780, 278.0076
1325.849, 223.0535
1326.918, 209.8438
1327.987, 189.5369
1329.056, 172.8118
1330.125, 180.2275
1331.194, 163.4968
1332.263, 165.2986
1333.331, 172.6812
1334.399, 165.6353
1335.467, 160.7644
1336.535, 133.6848
1337.603, 128.9324
1338.671, 132.7185
