##NAMES=Analcime
##RRUFFID=R050094
##IDEAL CHEMISTRY=NaAlSi_2_O_6_&#183;H_2_O
##LOCALITY=Springfield, Oregon, USA
##OWNER=RRUFF
##SOURCE=Rock Currier
##DESCRIPTION=Clear colorless single crystals associated with gmelinite
##STATUS=The identification of this mineral has been confirmed by X-ray diffraction and chemical analysis
##URL=rruff.info/R050094
##MEASURED CHEMISTRY=(Na_0.99_[box]_0.01_)_Σ=1_(Si_2.01_Al_0.99_)O_6_·H_2_O
##PIN_ID=M00117
##ORIENTATION=Laser parallel to a* (1 0 0). Fiducial mark perpendicular to laser is parallel to -c [0 0 -1]
169.7650, 0.0000000E+00
170.9990, 1.334473
172.2330, 8.794434
173.4670, 53.90674
174.7000, 64.00977
175.9330, 60.72998
177.1660, 9.514160
178.3990, 114.5239
179.6310, 140.4258
180.8640, 284.5903
182.0960, 218.4927
183.3280, 231.4365
184.5600, 299.7759
185.7910, 393.6865
187.0220, 545.9805
188.2540, 528.2070
189.4840, 656.8062
190.7150, 865.3984
191.9460, 742.2222
193.1760, 789.4980
194.4060, 930.0938
195.6360, 985.9282
196.8660, 1164.346
198.0960, 1202.135
199.3250, 1351.251
200.5540, 1498.856
201.7830, 1530.472
203.0120, 1599.537
204.2400, 1634.429
205.4690, 1498.803
206.6970, 1604.559
207.9250, 1603.627
209.1530, 1565.333
210.3800, 1641.689
211.6080, 1669.379
212.8350, 1694.102
214.0620, 1782.595
215.2880, 1683.361
216.5150, 1778.593
217.7410, 1782.271
218.9680, 1780.741
220.1940, 1923.279
221.4190, 2028.928
222.6450, 2103.627
223.8700, 2088.226
225.0960, 1984.702
226.3210, 1947.621
227.5450, 1837.186
228.7700, 1765.851
229.9940, 1688.483
231.2190, 1535.749
232.4430, 1463.046
233.6660, 1361.354
234.8900, 1211.663
236.1140, 1122.980
237.3370, 1191.312
238.5600, 986.6660
239.7830, 1026.045
241.0050, 841.4536
242.2280, 779.8950
243.4500, 770.4497
244.6720, 645.3408
245.8940, 564.5532
247.1160, 512.0664
248.3370, 448.8618
249.5580, 445.9209
250.7790, 344.2231
252.0000, 309.7490
253.2210, 230.4790
254.4410, 178.3950
255.6620, 82.48096
256.8820, 80.71680
258.1020, 37.91504
259.3210, 271.5693
260.5410, 111.3213
261.7600, 101.6812
262.9790, 8.405273
264.1980, 32.57568
265.4170, 149.6895
266.6360, 159.7617
267.8540, 167.8120
269.0720, 208.8633
270.2900, 134.9360
271.5080, 162.0371
272.7260, 145.1650
273.9430, 148.3179
275.1600, 110.4917
276.3770, 80.74121
277.5940, 3.892090
278.8100, 26.88428
280.0270, 70.63818
281.2430, 173.3623
282.4590, 285.0444
283.6750, 484.6763
284.8910, 553.2383
286.1060, 899.6934
287.3210, 1210.975
288.5360, 1555.137
289.7510, 2122.171
290.9660, 2603.950
292.1800, 3100.361
293.3950, 3719.397
294.6090, 4303.123
295.8230, 4814.573
297.0360, 5123.865
298.2500, 5216.084
299.4630, 5214.401
300.6760, 4871.799
301.8890, 4433.305
303.1020, 3746.895
304.3150, 3233.563
305.5270, 2700.299
306.7390, 2250.096
307.9510, 1865.955
309.1630, 1613.875
310.3750, 1433.859
311.5860, 1293.907
312.7970, 1120.017
314.0080, 1091.190
315.2190, 922.4272
316.4300, 965.3125
317.6400, 996.0068
318.8510, 874.8252
320.0610, 935.5918
321.2710, 913.8477
322.4800, 931.3462
323.6900, 953.3511
324.8990, 980.7607
326.1080, 998.8164
327.3170, 1008.199
328.5260, 1062.212
329.7340, 1099.072
330.9430, 1177.767
332.1510, 1241.294
333.3590, 1218.656
334.5670, 1319.856
335.7740, 1344.100
336.9820, 1412.781
338.1890, 1464.497
339.3960, 1463.036
340.6030, 1574.377
341.8100, 1642.492
343.0160, 1722.370
344.2220, 1702.021
345.4280, 1860.467
346.6340, 1939.727
347.8400, 1892.816
349.0460, 1974.753
350.2510, 2055.547
351.4560, 2057.209
352.6610, 2126.735
353.8660, 2222.116
355.0700, 2353.345
356.2750, 2379.415
357.4790, 2503.302
358.6830, 2639.953
359.8870, 2764.264
361.0910, 2852.409
362.2940, 3014.299
363.4970, 3236.759
364.7000, 3291.708
365.9030, 3623.168
367.1060, 3777.195
368.3080, 3818.854
369.5110, 4131.292
370.7130, 4367.635
371.9150, 4618.960
373.1170, 4967.304
374.3180, 5080.684
375.5200, 5336.098
376.7210, 5667.548
377.9220, 5865.032
379.1230, 6142.552
380.3230, 6410.108
381.5240, 6800.696
382.7240, 7057.321
383.9240, 7215.979
385.1240, 7475.674
386.3240, 7658.076
387.5230, 7696.291
388.7230, 7713.328
389.9220, 7677.329
391.1210, 7474.849
392.3200, 7442.209
393.5180, 7173.134
394.7170, 6771.125
395.9150, 6361.352
397.1130, 5954.319
398.3110, 5439.397
399.5080, 4959.732
400.7060, 4418.851
401.9030, 4078.093
403.1000, 3753.415
404.2970, 3294.526
405.4940, 3078.129
406.6910, 2775.638
407.8870, 2731.603
409.0830, 2437.241
410.2790, 2258.720
411.4750, 2202.756
412.6710, 2045.476
413.8660, 1771.805
415.0610, 1688.063
416.2560, 1527.802
417.4510, 1455.129
418.6460, 1431.176
419.8410, 1429.770
421.0350, 1257.204
422.2290, 1164.707
423.4230, 1213.112
424.6170, 1147.786
425.8100, 1106.722
427.0040, 1024.264
428.1970, 1081.866
429.3900, 1066.896
430.5830, 1110.682
431.7760, 1076.838
432.9680, 1149.974
434.1610, 1190.417
435.3530, 1263.227
436.5450, 1403.823
437.7360, 1387.101
438.9280, 1385.314
440.1190, 1609.580
441.3110, 1579.909
442.5020, 1778.313
443.6930, 1873.765
444.8830, 1976.287
446.0740, 2113.848
447.2640, 2398.457
448.4540, 2616.106
449.6440, 2850.804
450.8340, 3139.544
452.0240, 3453.333
453.2130, 3831.172
454.4020, 4253.057
455.5910, 4634.982
456.7800, 5270.944
457.9690, 5831.956
459.1570, 6542.005
460.3460, 7172.077
461.5340, 8154.162
462.7220, 9336.248
463.9090, 10576.35
465.0970, 11914.45
466.2840, 13619.58
467.4720, 15307.73
468.6590, 17543.88
469.8460, 19819.04
471.0320, 22748.21
472.2190, 25823.37
473.4050, 29176.54
474.5910, 32702.72
475.7770, 36997.91
476.9630, 40542.12
478.1490, 44354.33
479.3340, 47733.54
480.5190, 50547.75
481.7040, 52578.97
482.8890, 53553.19
484.0740, 53578.42
485.2580, 52419.66
486.4430, 50401.91
487.6270, 47027.16
488.8110, 43734.42
489.9950, 39717.68
491.1780, 35492.96
492.3620, 32115.26
493.5450, 28282.56
494.7280, 24819.86
495.9110, 22164.18
497.0940, 19551.51
498.2760, 17351.85
499.4590, 15345.20
500.6410, 13688.56
501.8230, 12130.94
503.0050, 10834.33
504.1860, 9646.737
505.3680, 8659.160
506.5490, 7843.597
507.7300, 7065.057
508.9110, 6369.769
510.0920, 5838.043
511.2730, 5246.574
512.4530, 4923.132
513.6330, 4588.716
514.8130, 4125.327
515.9930, 3841.962
517.1730, 3511.627
518.3520, 3237.315
519.5320, 2954.031
520.7110, 2728.139
521.8900, 2547.539
523.0690, 2317.331
524.2470, 2190.147
525.4260, 1986.988
526.6040, 1859.853
527.7820, 1606.742
528.9600, 1604.657
530.1380, 1384.598
531.3150, 1415.563
532.4930, 1295.557
533.6700, 1176.579
534.8470, 1084.630
536.0240, 908.7119
537.2000, 932.8247
538.3770, 811.9702
539.5530, 759.1504
540.7290, 788.3691
541.9050, 630.6289
543.0810, 590.9399
544.2570, 583.3008
545.4320, 487.7378
546.6080, 411.2075
547.7830, 342.7212
548.9580, 354.2795
550.1320, 173.0208
551.3070, 127.2974
552.4810, 201.5068
553.6550, 127.8772
554.8300, 140.4392
556.0030, 7.856445
557.1770, 7.198242
558.3510, 74.18335
559.5240, 13.24316
560.6970, 11.99121
561.8700, 89.88501
563.0430, 91.56958
564.2160, 56.56396
565.3880, 45.18164
566.5600, 64.97974
567.7320, 108.6528
568.9040, 106.1763
570.0760, 177.1750
571.2480, 82.84521
572.4190, 16.26196
573.5900, 56.47974
574.7610, 64.81152
575.9320, 39.76660
577.1030, 27.76855
578.2740, 7.955078
579.4440, 4.021240
580.6140, 54.19824
581.7840, 19.64282
582.9540, 53.06104
584.1240, 36.23096
585.2930, 71.07544
586.4630, 88.08496
587.6320, 113.8213
588.8010, 130.7979
589.9700, 122.1465
591.1380, 123.6702
592.3070, 152.1050
593.4750, 202.7144
594.6430, 65.74829
595.8110, 138.1140
596.9790, 83.64893
598.1460, 140.7800
599.3140, 139.6614
600.4810, 248.9243
601.6480, 212.1809
602.8150, 197.6382
603.9820, 287.2205
605.1480, 256.6680
606.3150, 311.3442
607.4810, 433.3428
608.6470, 431.3523
609.8130, 507.5081
610.9790, 469.8699
612.1440, 488.6729
613.3100, 531.6240
614.4750, 556.7427
615.6400, 702.3657
616.8050, 726.8040
617.9690, 819.6211
619.1340, 893.3196
620.2980, 879.4639
621.4620, 981.0017
622.6260, 1047.349
623.7900, 996.7419
624.9540, 959.5405
626.1170, 967.8271
627.2810, 872.0596
628.4440, 757.1250
629.6070, 662.1904
630.7690, 712.1926
631.9320, 558.1367
633.0950, 641.2395
634.2570, 491.9563
635.4190, 538.5308
636.5810, 505.3135
637.7430, 444.8408
638.9040, 626.3582
640.0660, 634.8647
641.2270, 658.3618
642.3880, 707.8545
643.5490, 734.3359
644.7100, 801.8066
645.8700, 866.2668
647.0310, 857.7312
648.1910, 810.1924
649.3510, 810.6616
650.5110, 754.1343
651.6710, 766.6057
652.8300, 798.0701
653.9900, 716.5215
655.1490, 717.9668
656.3080, 708.3999
657.4670, 664.8188
658.6250, 656.2227
659.7840, 662.6108
660.9420, 648.1116
662.1010, 671.3403
663.2590, 672.6802
664.4170, 708.0037
665.5740, 767.3110
666.7320, 730.6033
667.8890, 747.8779
669.0460, 741.1387
670.2030, 834.3816
671.3600, 816.6055
672.5170, 733.8101
673.6740, 798.9963
674.8300, 696.1626
675.9860, 805.3101
677.1420, 686.4365
678.2980, 706.5427
679.4540, 633.6279
680.6090, 586.6912
681.7650, 482.7334
682.9200, 437.7532
684.0750, 423.7502
685.2300, 365.7246
686.3840, 203.6755
687.5390, 245.6025
688.6930, 178.5059
689.8470, 69.38281
691.0010, 111.2300
692.1550, 99.04785
693.3090, 79.83545
694.4620, 74.59131
695.6160, 109.2124
696.7690, 48.80664
697.9220, 86.02539
699.0750, 43.47778
700.2280, 4.907227
701.3800, 53.50415
702.5320, 26.00439
703.6850, 14.57617
704.8370, 10.95337
705.9880, 28.72534
707.1400, 0.3918460
708.2920, 25.88159
709.4430, 50.51270
710.5940, 23.39624
711.7450, 57.67017
712.8960, 8.046631
714.0470, 14.55591
715.1970, 29.54150
716.3480, 66.66675
717.4980, 33.80664
718.6480, 64.23462
719.7980, 49.74048
720.9470, 96.32959
722.0970, 3.972168
723.2460, 69.78223
724.3960, 46.36743
725.5450, 5.475586
726.6940, 33.52686
727.8420, 4.531982
728.9910, 21.47900
730.1390, 4.374512
731.2870, 13.78931
732.4350, 12.97754
733.5830, 28.68896
734.7310, 59.34985
735.8790, 4.030762
737.0260, 45.52271
738.1730, 52.96973
739.3200, 20.55420
740.4670, 30.78589
741.6140, 24.92554
742.7610, 32.28516
743.9070, 57.55591
745.0530, 30.49268
746.1990, 1.488037
747.3450, 17.40332
748.4910, 37.02539
749.6370, 26.06665
750.7820, 50.81738
751.9270, 19.52100
753.0720, 6.833740
754.2170, 36.73999
755.3620, 57.26172
756.5070, 73.73657
757.6510, 89.10962
758.7950, 70.55640
759.9400, 89.90063
761.0840, 82.23608
762.2270, 59.46069
763.3710, 99.67163
764.5140, 110.8408
765.6580, 149.0662
766.8010, 147.1528
767.9440, 160.3147
769.0870, 172.3206
770.2290, 132.2861
771.3720, 222.2104
772.5140, 254.0967
773.6560, 201.9763
774.7990, 281.9236
775.9400, 327.7681
777.0820, 371.5811
778.2240, 380.5298
779.3650, 376.6753
780.5060, 435.4143
781.6470, 388.2346
782.7880, 512.1143
783.9290, 521.3003
785.0690, 494.8396
786.2100, 513.0635
787.3500, 517.3613
788.4900, 568.2773
789.6300, 552.0029
790.7700, 597.5469
791.9090, 646.6089
793.0490, 620.7461
794.1880, 522.6050
795.3270, 582.7805
796.4660, 550.9048
797.6050, 507.0872
798.7440, 565.1663
799.8820, 522.1467
801.0200, 492.2039
802.1590, 444.2837
803.2970, 472.5918
804.4340, 454.5037
805.5720, 429.1067
806.7100, 450.8633
807.8470, 404.5771
808.9840, 412.3687
810.1210, 394.0630
811.2580, 402.6646
812.3950, 400.2952
813.5310, 387.8218
814.6680, 391.4336
815.8040, 349.7625
816.9400, 373.1770
818.0760, 401.5547
819.2120, 368.8953
820.3470, 364.1985
821.4830, 314.4653
822.6180, 318.6951
823.7530, 376.8884
824.8880, 351.0449
826.0230, 432.0459
827.1580, 357.5452
828.2920, 297.1748
829.4270, 323.7085
830.5610, 367.1174
831.6950, 327.4602
832.8290, 390.9050
833.9620, 361.0544
835.0960, 337.3291
836.2290, 355.3484
837.3620, 474.5588
838.4950, 470.5894
839.6280, 477.9373
840.7610, 476.9116
841.8940, 496.0640
843.0260, 489.8901
844.1580, 514.9209
845.2910, 498.2087
846.4230, 484.1257
847.5540, 505.7598
848.6860, 505.1731
849.8170, 534.8909
850.9490, 562.7725
852.0800, 613.8923
853.2110, 629.6616
854.3420, 696.3953
855.4730, 704.1448
856.6030, 727.7312
857.7340, 739.3228
858.8640, 770.1406
859.9940, 763.2629
861.1240, 704.6741
862.2540, 684.3843
863.3830, 615.3083
864.5130, 574.8379
865.6420, 517.1707
866.7710, 513.5691
867.9000, 418.7698
869.0290, 345.5234
870.1570, 322.9224
871.2860, 374.1282
872.4140, 318.7148
873.5430, 287.5273
874.6710, 305.9346
875.7980, 283.3247
876.9260, 235.4897
878.0540, 246.5066
879.1810, 300.6340
880.3080, 274.5093
881.4360, 231.0388
882.5630, 258.5330
883.6890, 223.0728
884.8160, 133.9526
885.9420, 168.5828
887.0690, 193.0408
888.1950, 116.3074
889.3210, 122.0466
890.4470, 112.9465
891.5730, 196.4438
892.6980, 171.2542
893.8240, 141.1594
894.9490, 107.8650
896.0740, 201.7375
897.1990, 134.5403
898.3240, 102.9141
899.4480, 115.7759
900.5730, 56.66797
901.6970, 113.7031
902.8210, 49.71411
903.9450, 120.7637
905.0690, 181.5061
906.1930, 119.2141
907.3160, 123.5552
908.4400, 63.39526
909.5630, 36.54443
910.6860, 50.92432
911.8090, 48.29004
912.9320, 5.641357
914.0550, 23.02246
915.1770, 35.28687
916.2990, 5.582275
917.4210, 3.137207
918.5440, 59.87280
919.6650, 34.65308
920.7870, 78.46436
921.9090, 61.32983
923.0300, 47.23926
924.1510, 25.18481
925.2720, 2.155029
926.3930, 33.13916
927.5140, 9.150635
928.6350, 2.825928
929.7550, 32.79102
930.8760, 34.35547
931.9960, 9.691406
933.1160, 23.63647
934.2360, 46.57764
935.3550, 7.509766
936.4750, 1.565186
937.5940, 12.64673
938.7140, 10.26367
939.8330, 20.82812
940.9520, 26.07617
942.0710, 39.99146
943.1890, 31.92310
944.3080, 4.148438
945.4260, 32.78418
946.5440, 3.715576
947.6620, 47.63916
948.7800, 68.55566
949.8980, 23.46606
951.0160, 50.37451
952.1330, 68.27734
953.2500, 66.17383
954.3680, 89.06519
955.4850, 78.78101
956.6010, 157.8335
957.7180, 46.71143
958.8350, 63.59497
959.9510, 18.47388
961.0670, 69.35425
962.1830, 103.2349
963.2990, 115.1335
964.4150, 125.5928
965.5310, 132.2205
966.6460, 115.8728
967.7620, 104.7974
968.8770, 105.7224
969.9920, 41.64722
971.1070, 112.5732
972.2210, 165.5090
973.3360, 125.4451
974.4500, 192.3884
975.5650, 154.3467
976.6790, 269.3191
977.7930, 260.3103
978.9070, 261.3130
980.0200, 292.3335
981.1340, 256.3779
982.2470, 333.4387
983.3610, 363.5254
984.4740, 462.6208
985.5870, 463.7310
986.6990, 509.8596
987.8120, 472.9907
988.9250, 541.1426
990.0370, 547.3228
991.1490, 568.5288
992.2610, 538.7722
993.3730, 583.0278
994.4850, 586.3152
995.5960, 698.6064
996.7080, 824.9109
997.8190, 947.2219
998.9300, 1141.546
1000.041, 1200.880
1001.152, 1251.228
1002.263, 1214.594
1003.373, 1018.973
1004.484, 924.3613
1005.594, 776.7554
1006.704, 697.1663
1007.814, 682.5852
1008.924, 639.0352
1010.034, 640.5068
1011.143, 663.9897
1012.253, 708.4963
1013.362, 723.0137
1014.471, 767.4600
1015.580, 807.1409
1016.689, 850.7358
1017.797, 885.3447
1018.906, 931.9648
1020.014, 927.5981
1021.122, 989.2405
1022.230, 925.8977
1023.338, 1024.576
1024.446, 976.2668
1025.554, 1009.966
1026.661, 963.6743
1027.768, 1000.389
1028.875, 954.1116
1029.983, 942.8423
1031.089, 996.5811
1032.196, 979.3291
1033.303, 1068.085
1034.409, 1068.750
1035.515, 1101.520
1036.622, 1044.181
1037.728, 1083.965
1038.833, 1121.755
1039.939, 1155.554
1041.045, 1225.358
1042.150, 1153.137
1043.255, 1173.816
1044.360, 1280.566
1045.465, 1341.317
1046.570, 1295.902
1047.675, 1354.257
1048.779, 1420.989
1049.884, 1288.608
1050.988, 1337.137
1052.092, 1349.500
1053.196, 1413.137
1054.300, 1409.229
1055.404, 1474.433
1056.507, 1498.557
1057.610, 1528.057
1058.714, 1660.708
1059.817, 1560.810
1060.920, 1533.128
1062.022, 1709.885
1063.125, 1726.783
1064.228, 1908.998
1065.330, 1888.029
1066.432, 2049.229
1067.534, 1959.204
1068.636, 2097.600
1069.738, 2195.289
1070.840, 2210.005
1071.941, 2244.432
1073.042, 2388.415
1074.144, 2438.747
1075.245, 2658.437
1076.346, 2742.361
1077.446, 2762.190
1078.547, 2887.445
1079.647, 2923.442
1080.748, 3045.513
1081.848, 3169.593
1082.948, 2976.645
1084.048, 3139.741
1085.148, 3164.844
1086.247, 3196.956
1087.347, 3341.076
1088.446, 3232.606
1089.545, 3345.756
1090.644, 3373.180
1091.743, 3296.332
1092.842, 3327.599
1093.940, 3358.065
1095.039, 3403.948
1096.137, 3394.902
1097.235, 3482.777
1098.333, 3452.507
1099.431, 3437.467
1100.529, 3530.681
1101.627, 3463.902
1102.724, 3481.131
1103.822, 3497.367
1104.919, 3558.610
1106.016, 3483.289
1107.113, 3435.547
1108.209, 3422.812
1109.306, 3260.085
1110.402, 3317.366
1111.499, 3292.653
1112.595, 3183.948
1113.691, 3192.249
1114.787, 3174.558
1115.883, 3071.873
1116.978, 3030.196
1118.074, 2952.525
1119.169, 2838.861
1120.264, 2807.204
1121.359, 2818.554
1122.454, 2647.910
1123.549, 2635.273
1124.644, 2554.643
1125.738, 2460.020
1126.832, 2352.403
1127.927, 2350.791
1129.021, 2261.187
1130.115, 2130.589
1131.208, 2024.998
1132.302, 2021.413
1133.396, 1868.834
1134.489, 1863.261
1135.582, 1728.695
1136.675, 1758.136
1137.768, 1530.582
1138.861, 1555.035
1139.954, 1462.494
1141.046, 1399.958
1142.138, 1340.430
1143.231, 1212.907
1144.323, 1271.390
1145.415, 1116.878
1146.507, 1152.372
1147.598, 1098.872
1148.690, 966.3779
1149.781, 957.8887
1150.872, 890.4048
1151.964, 938.9270
1153.054, 853.4543
1154.145, 761.9868
1155.236, 794.5249
1156.327, 751.0679
1157.417, 744.6162
1158.507, 691.1699
1159.597, 695.7288
1160.687, 604.2925
1161.777, 576.8613
1162.867, 456.4353
1163.956, 542.0144
1165.046, 445.5986
1166.135, 515.1882
1167.224, 356.7827
1168.313, 446.3828
1169.402, 353.9875
1170.491, 299.5974
1171.580, 266.2119
1172.668, 282.8315
1173.756, 248.6477
1174.845, 241.5940
1175.933, 238.7207
1177.020, 221.3606
1178.108, 232.0066
1179.196, 232.6641
1180.283, 208.8660
1181.371, 192.9956
1182.458, 150.6704
1183.545, 151.3665
1184.632, 96.07666
1185.719, 61.81226
1186.805, 110.5684
1187.892, 98.34155
1188.978, 67.12622
1190.065, 45.91626
1191.151, 16.28076
1192.237, 18.52075
1193.323, 29.32739
1194.408, 4.861328
1195.494, 41.04932
1196.579, 24.25244
1197.664, 13.53638
1198.750, 9.155762
1199.835, 15.87842
1200.919, 21.09009
1202.004, 27.30640
1203.089, 49.53198
1204.173, 73.77441
1205.258, 95.05029
1206.342, 15.37183
1207.426, 51.69751
1208.510, 21.04517
1209.594, 7.600098
1210.677, 8.249756
1211.761, 17.90283
1212.844, 16.43994
1213.927, 35.21191
1215.010, 25.86768
1216.093, 92.52710
1217.176, 18.19067
1218.259, 5.141846
1219.341, 3.524658
1220.424, 39.80615
1221.506, 18.84644
1222.588, 18.49756
1223.670, 2.847900
1224.752, 78.19873
1225.834, 30.58667
1226.915, 28.98730
1227.997, 43.39917
1229.078, 11.83032
1230.159, 4.734375
1231.240, 5.302246
1232.321, 112.8733
1233.402, 80.44824
1234.483, 132.0266
1235.563, 5.391357
1236.644, 66.18994
1237.724, 87.77466
1238.804, 55.36279
1239.884, 77.95459
1240.964, 49.55054
1242.044, 105.1543
1243.123, 112.7617
1244.203, 155.3740
1245.282, 183.9912
1246.361, 121.6145
1247.440, 157.2468
1248.519, 112.8867
1249.598, 43.54492
1250.676, 168.2122
1251.755, 192.8982
1252.833, 85.58887
1253.911, 60.28687
1254.989, 138.9922
1256.067, 156.7036
1257.145, 96.42358
1258.223, 124.1477
1259.300, 171.8887
1260.378, 115.6379
1261.455, 167.3906
1262.532, 152.1504
1263.609, 210.9148
1264.686, 242.6833
1265.763, 227.4592
1266.840, 206.2393
1267.916, 309.0249
1268.992, 218.8154
1270.069, 288.6101
1271.145, 220.4087
1272.221, 291.2114
1273.296, 285.0176
1274.372, 387.8276
1275.448, 282.6411
1276.523, 255.4587
1277.598, 282.2800
1278.673, 273.1050
1279.749, 266.9333
1280.823, 279.7656
1281.898, 272.5383
1282.973, 213.4404
1284.047, 266.2825
1285.122, 258.1270
1286.196, 237.9741
1287.270, 285.8240
1288.344, 255.6765
1289.418, 257.5312
1290.491, 281.3879
1291.565, 362.2466
1292.638, 330.1069
1293.712, 322.9683
1294.785, 378.8315
1295.858, 292.6956
1296.931, 367.5605
1298.003, 391.4265
1299.076, 362.2939
1300.149, 387.1614
1301.221, 370.0293
1302.293, 387.8975
1303.365, 422.7651
1304.437, 364.6331
1305.509, 371.5005
1306.581, 459.3677
1307.652, 457.2344
1308.724, 532.1001
1309.795, 585.9663
1310.866, 562.8318
1311.937, 514.6958
1313.008, 452.5581
1314.079, 477.4175
1315.150, 494.2788
1316.220, 541.1418
1317.291, 505.0063
1318.361, 453.8726
1319.431, 519.7402
1320.501, 499.7769
1321.571, 408.6484
1322.641, 388.5217
1323.710, 433.1023
1324.780, 359.7808
1325.849, 338.3662
1326.918, 359.2498
1327.987, 321.6072
1329.056, 306.6230
1330.125, 240.3582
1331.194, 224.7505
1332.263, 203.8696
1333.331, 209.4604
1334.399, 153.7107
1335.467, 194.7388
1336.535, 212.7031
1337.603, 253.4253
1338.671, 157.3506
1339.739, 148.2812
