##NAMES=Analcime
##RRUFFID=R060023
##IDEAL CHEMISTRY=NaAlSi_2_O_6_&#183;H_2_O
##LOCALITY=Dallas, Oregon, USA
##OWNER=RRUFF
##SOURCE=Bob Downs
##DESCRIPTION=White trapezohedral crystal associated with levyne-Na, R060021
##STATUS=The identification of this mineral has been confirmed by X-ray diffraction and chemical analysis
##URL=rruff.info/R060023
##MEASURED CHEMISTRY=(Na_0.98_[box]_0.02_)_Σ=1_(Si_2.02_Al_0.98_)O_6_·H_2_O
##PIN_ID=M00414
##ORIENTATION=Laser parallel to c* (0 0 1). Fiducial mark perpendicular to laser is parallel to a [1 0 0]
181.5980, 0.0000000E+00
182.8230, 44.18945
184.0490, 0.6123050
185.2740, 18.95117
186.5000, 27.85840
187.7250, 37.99512
188.9500, 60.99805
190.1740, 176.1729
191.3990, 125.1914
192.6230, 219.9443
193.8480, 197.1670
195.0720, 231.1670
196.2960, 295.6914
197.5200, 318.4570
198.7430, 401.2793
199.9670, 458.3711
201.1900, 475.9111
202.4130, 544.6338
203.6360, 531.6035
204.8590, 596.2617
206.0820, 611.8906
207.3050, 774.6514
208.5270, 804.9307
209.7490, 802.1934
210.9710, 946.9160
212.1930, 880.4102
213.4150, 1103.073
214.6370, 1058.469
215.8580, 1038.418
217.0790, 1200.637
218.3010, 1187.691
219.5210, 1257.768
220.7420, 1187.238
221.9630, 1398.884
223.1830, 1293.796
224.4040, 1390.305
225.6240, 1453.199
226.8440, 1360.005
228.0640, 1349.346
229.2840, 1326.654
230.5030, 1110.957
231.7230, 1060.312
232.9420, 892.9561
234.1610, 883.7168
235.3800, 863.5830
236.5990, 700.5488
237.8170, 636.5957
239.0360, 539.7090
240.2540, 517.8672
241.4720, 463.0615
242.6900, 452.2900
243.9080, 333.5596
245.1250, 378.8760
246.3430, 195.2422
247.5600, 210.6592
248.7770, 193.1309
249.9940, 165.6572
251.2110, 132.5029
252.4280, 73.71191
253.6450, 48.56641
254.8610, 21.64551
256.0770, 31.64258
257.2930, 13.56738
258.5090, 32.46973
259.7250, 42.83203
260.9400, 33.66504
262.1560, 103.7432
263.3710, 68.67773
264.5860, 83.48145
265.8010, 37.16895
267.0160, 77.75293
268.2310, 52.24512
269.4450, 57.65820
270.6600, 138.9990
271.8740, 9.724609
273.0880, 90.49902
274.3020, 31.31836
275.5150, 117.1592
276.7290, 133.0088
277.9420, 154.8584
279.1550, 215.7021
280.3680, 296.5420
281.5810, 679.3799
282.7940, 674.2178
284.0070, 820.0576
285.2190, 1293.897
286.4310, 1559.728
287.6430, 1866.535
288.8550, 2292.314
290.0670, 2584.053
291.2790, 3026.705
292.4900, 3313.219
293.7020, 3440.603
294.9130, 3708.822
296.1240, 3586.855
297.3350, 3543.742
298.5450, 3293.496
299.7560, 2940.129
300.9660, 2588.699
302.1760, 2188.342
303.3860, 1865.095
304.5960, 1551.929
305.8060, 1452.914
307.0150, 1286.951
308.2250, 1111.037
309.4340, 1042.189
310.6430, 937.3984
311.8520, 788.6572
313.0610, 793.9805
314.2700, 770.3604
315.4780, 784.7773
316.6860, 775.2295
317.8940, 870.7275
319.1020, 793.2617
320.3100, 809.8340
321.5180, 873.4463
322.7250, 733.0977
323.9330, 793.7871
325.1400, 934.5166
326.3470, 808.2871
327.5540, 829.0566
328.7600, 841.0088
329.9670, 830.0254
331.1730, 863.7051
332.3800, 968.0586
333.5860, 905.0146
334.7920, 992.8994
335.9970, 1000.705
337.2030, 984.4219
338.4080, 1097.038
339.6140, 1061.542
340.8190, 1006.929
342.0240, 1099.201
343.2290, 1176.361
344.4330, 1094.410
345.6380, 1307.339
346.8420, 1190.136
348.0460, 1286.781
349.2500, 1258.264
350.4540, 1179.582
351.6580, 1385.747
352.8610, 1381.896
354.0650, 1540.688
355.2680, 1557.489
356.4710, 1792.196
357.6740, 1863.807
358.8760, 1931.317
360.0790, 2044.704
361.2810, 2201.975
362.4840, 2300.101
363.6860, 2540.004
364.8880, 2616.673
366.0900, 2875.076
367.2910, 2890.182
368.4930, 3280.998
369.6940, 3475.585
370.8950, 3690.966
372.0960, 4004.139
373.2970, 4159.174
374.4980, 4505.205
375.6980, 4701.246
376.8980, 4745.313
378.0990, 4756.411
379.2990, 5082.537
380.4980, 5019.691
381.6980, 5070.875
382.8980, 5117.086
384.0970, 5117.324
385.2960, 4769.572
386.4950, 4712.643
387.6940, 4488.721
388.8930, 4454.354
390.0920, 4266.229
391.2900, 3994.021
392.4880, 3879.017
393.6860, 3715.936
394.8840, 3453.354
396.0820, 3184.044
397.2800, 3001.521
398.4770, 2725.470
399.6750, 2585.021
400.8720, 2447.105
402.0690, 2108.117
403.2660, 2025.460
404.4620, 1822.305
405.6590, 1724.871
406.8550, 1560.197
408.0510, 1449.254
409.2480, 1325.269
410.4430, 1261.652
411.6390, 1157.149
412.8350, 1090.376
414.0300, 1162.126
415.2250, 1154.170
416.4200, 1111.895
417.6150, 1006.231
418.8100, 1026.611
420.0050, 887.9053
421.1990, 760.8242
422.3940, 1001.094
423.5880, 832.7051
424.7820, 815.7021
425.9750, 1013.985
427.1690, 829.8369
428.3630, 817.8350
429.5560, 800.0508
430.7490, 823.2871
431.9420, 924.5420
433.1350, 875.4277
434.3280, 1022.868
435.5200, 967.5996
436.7130, 1072.947
437.9050, 1199.962
439.0970, 1132.353
440.2890, 1185.703
441.4810, 1187.298
442.6720, 1250.340
443.8640, 1374.297
445.0550, 1500.805
446.2460, 1659.337
447.4370, 1822.959
448.6280, 2103.482
449.8180, 2173.100
451.0090, 2459.259
452.1990, 2616.398
453.3890, 2935.102
454.5790, 3229.827
455.7690, 3535.582
456.9590, 4065.372
458.1480, 4547.209
459.3380, 5185.065
460.5270, 5916.939
461.7160, 6648.836
462.9050, 7844.750
464.0940, 8774.685
465.2820, 10265.64
466.4700, 11957.64
467.6590, 13422.71
468.8470, 15810.80
470.0350, 17995.92
471.2220, 20604.03
472.4100, 22955.14
473.5970, 25720.24
474.7850, 28456.34
475.9720, 30889.45
477.1590, 32627.55
478.3460, 34167.64
479.5320, 35280.74
480.7190, 35152.84
481.9050, 34793.93
483.0910, 33565.02
484.2770, 31941.11
485.4630, 29419.20
486.6490, 27168.29
487.8340, 24506.38
489.0200, 21872.47
490.2050, 19225.56
491.3900, 17035.66
492.5750, 14943.75
493.7600, 12973.85
494.9440, 11617.95
496.1290, 10073.05
497.3130, 8861.163
498.4970, 7945.278
499.6810, 7118.399
500.8650, 6325.525
502.0480, 5738.657
503.2320, 4943.797
504.4150, 4595.941
505.5980, 4065.096
506.7810, 3634.258
507.9640, 3329.432
509.1460, 2997.615
510.3290, 2749.809
511.5110, 2479.017
512.6930, 2229.238
513.8750, 2133.477
515.0570, 2119.729
516.2390, 1776.000
517.4210, 1650.285
518.6020, 1675.589
519.7830, 1429.907
520.9640, 1300.242
522.1450, 1212.594
523.3260, 1244.958
524.5060, 955.3408
525.6870, 1046.737
526.8670, 1048.150
528.0470, 625.5781
529.2270, 753.0215
530.4070, 833.4805
531.5870, 726.9570
532.7660, 610.4492
533.9450, 554.9629
535.1240, 500.4961
536.3030, 502.0508
537.4820, 484.6270
538.6610, 333.2246
539.8390, 414.8486
541.0180, 424.5020
542.1960, 279.1973
543.3740, 320.9395
544.5520, 257.4043
545.7290, 185.6562
546.9070, 221.6309
548.0840, 73.06152
549.2620, 118.4678
550.4390, 95.60352
551.6160, 119.8037
552.7920, 113.9355
553.9690, 113.2637
555.1450, 32.41699
556.3220, 4.403320
557.4980, 128.3174
558.6740, 8.198242
559.8490, 147.1924
561.0250, 76.04980
562.2000, 122.4824
563.3760, 105.7686
564.5510, 64.60254
565.7260, 9.471680
566.9010, 120.1875
568.0750, 143.3135
569.2500, 52.10840
570.4240, 129.6855
571.5980, 8.297852
572.7720, 10.62988
573.9460, 45.76660
575.1200, 5.132813
576.2930, 61.55957
577.4670, 38.26758
578.6400, 20.37207
579.8130, 22.07520
580.9860, 27.47754
582.1590, 32.50684
583.3310, 32.74121
584.5040, 25.01953
585.6760, 30.26172
586.8480, 102.7598
588.0200, 72.37305
589.1920, 108.6553
590.3630, 132.1768
591.5350, 142.9434
592.7060, 148.1270
593.8770, 200.3037
595.0480, 252.0586
596.2190, 250.2021
597.3900, 305.7529
598.5600, 427.4541
599.7310, 398.6523
600.9010, 646.0596
602.0710, 545.4180
603.2410, 675.7324
604.4100, 772.2061
605.5800, 708.9053
606.7490, 951.3682
607.9190, 832.8906
609.0880, 781.6309
610.2570, 908.0605
611.4250, 585.4609
612.5940, 472.8604
613.7620, 588.3135
614.9310, 689.7910
616.0990, 512.6797
617.2670, 413.6904
618.4340, 427.3115
619.6020, 330.6797
620.7690, 351.7363
621.9370, 472.5088
623.1040, 365.9570
624.2710, 410.3203
625.4380, 369.6523
626.6040, 332.0859
627.7710, 411.3662
628.9370, 509.8691
630.1030, 517.4189
631.2690, 401.5830
632.4350, 568.8252
633.6010, 486.1377
634.7660, 451.3262
635.9320, 505.6064
637.0970, 462.8594
638.2620, 458.1152
639.4270, 461.4053
640.5920, 407.7119
641.7560, 441.0127
642.9210, 358.3076
644.0850, 404.5947
645.2490, 326.8760
646.4130, 287.1504
647.5770, 296.4180
648.7400, 281.7461
649.9040, 557.9453
651.0670, 355.2090
652.2300, 384.4775
653.3930, 496.7373
654.5560, 341.9863
655.7190, 207.2295
656.8810, 275.4609
658.0440, 226.6826
659.2060, 237.9238
660.3680, 150.0938
661.5300, 302.2852
662.6910, 328.4629
663.8530, 376.6611
665.0140, 345.8184
666.1750, 288.3369
667.3360, 481.4707
668.4970, 309.5928
669.6580, 472.7041
670.8190, 442.8018
671.9790, 304.8867
673.1390, 389.9590
674.2990, 301.2852
675.4590, 330.5811
676.6190, 333.8184
677.7790, 478.8369
678.9380, 192.9521
680.0970, 195.9443
681.2570, 398.9209
682.4160, 150.0400
683.5740, 296.9873
684.7330, 18.20117
685.8920, 287.1221
687.0500, 18.93359
688.2080, 43.06055
689.3660, 115.6045
690.5240, 114.4209
691.6820, 141.4385
692.8390, 108.1680
693.9960, 121.9277
695.1540, 40.93164
696.3110, 6.361328
697.4680, 92.58496
698.6240, 3.408203
699.7810, 54.58203
700.9370, 97.49609
702.0940, 50.95703
703.2500, 23.78027
704.4060, 23.20508
705.5610, 30.51465
706.7170, 27.17676
707.8720, 20.58594
709.0280, 14.94922
710.1830, 34.57129
711.3380, 105.8984
712.4920, 43.13379
713.6470, 32.73242
714.8020, 10.22656
715.9560, 20.75293
717.1100, 96.87012
718.2640, 75.31934
719.4180, 77.63281
720.5720, 125.5059
721.7250, 62.37402
722.8780, 24.19727
724.0320, 110.6348
725.1850, 60.59277
726.3380, 3.763672
727.4900, 116.1885
728.6430, 9.908203
729.7950, 26.31934
730.9470, 146.1250
732.1000, 51.06641
733.2510, 28.87500
734.4030, 2.084961
735.5550, 24.16309
736.7060, 74.04883
737.8570, 199.8760
739.0090, 100.6572
740.1600, 115.8848
741.3100, 134.5791
742.4610, 97.00293
743.6110, 44.41016
744.7620, 66.21777
745.9120, 162.5938
747.0620, 11.81738
748.2120, 114.2266
749.3610, 120.6797
750.5110, 120.7568
751.6600, 107.8662
752.8090, 101.1738
753.9580, 38.17383
755.1070, 33.45117
756.2560, 65.38867
757.4050, 125.4678
758.5530, 77.93848
759.7010, 150.1172
760.8490, 104.9473
761.9970, 129.7656
763.1450, 136.7148
764.2920, 111.4658
765.4400, 147.3467
766.5870, 93.04492
767.7340, 80.71582
768.8810, 188.5371
770.0280, 152.4404
771.1740, 142.0527
772.3210, 199.5400
773.4670, 172.7100
774.6130, 205.6445
775.7590, 325.4043
776.9050, 283.2520
778.0510, 349.2695
779.1960, 307.8887
780.3420, 318.6748
781.4870, 412.0195
782.6320, 358.9131
783.7770, 513.2979
784.9210, 448.5576
786.0660, 453.0898
787.2100, 448.2930
788.3540, 413.2812
789.4980, 434.4717
790.6420, 428.5479
791.7860, 339.6758
792.9300, 432.0840
794.0730, 441.1123
795.2160, 416.1133
796.3590, 357.2158
797.5020, 245.1572
798.6450, 413.0693
799.7880, 361.9531
800.9300, 214.8066
802.0720, 285.6299
803.2150, 132.4258
804.3560, 328.1885
805.4980, 314.1758
806.6400, 283.8799
807.7810, 347.5557
808.9230, 273.2383
810.0640, 243.8545
811.2050, 157.5059
812.3460, 161.0625
813.4860, 171.5869
814.6270, 298.0801
815.7670, 193.7969
816.9070, 262.2314
818.0470, 345.6367
819.1870, 182.1465
820.3270, 228.4932
821.4670, 152.2656
822.6060, 355.6406
823.7450, 210.8984
824.8840, 184.6006
826.0230, 81.36035
827.1620, 291.4082
828.3010, 175.4170
829.4390, 227.5039
830.5770, 387.4180
831.7150, 252.3564
832.8530, 239.8057
833.9910, 90.83105
835.1290, 125.5918
836.2660, 116.8936
837.4030, 59.42383
838.5410, 235.1143
839.6780, 91.61816
840.8140, 181.6357
841.9510, 319.6611
843.0870, 237.5127
844.2240, 225.7295
845.3600, 166.5684
846.4960, 136.7881
847.6320, 44.16699
848.7680, 271.8027
849.9030, 212.1455
851.0380, 235.4287
852.1740, 132.7520
853.3090, 197.7871
854.4440, 213.2705
855.5780, 237.6396
856.7130, 223.9883
857.8470, 272.5195
858.9820, 192.7656
860.1160, 107.7607
861.2500, 200.1680
862.3830, 129.3369
863.5170, 67.36816
864.6500, 177.7061
865.7840, 87.78223
866.9170, 223.5918
868.0500, 174.9609
869.1830, 122.3154
870.3150, 92.06738
871.4480, 108.4053
872.5800, 55.31543
873.7120, 13.04883
874.8440, 95.25586
875.9760, 5.228516
877.1080, 34.77930
878.2390, 218.2129
879.3710, 159.0244
880.5020, 199.5869
881.6330, 75.36328
882.7640, 27.94629
883.8940, 73.48828
885.0250, 56.21094
886.1550, 178.9355
887.2850, 105.6377
888.4160, 89.26367
889.5450, 215.8398
890.6750, 61.98047
891.8050, 170.9746
892.9340, 93.33496
894.0630, 18.92480
895.1930, 55.28809
896.3220, 219.9316
897.4500, 28.63477
898.5790, 88.84766
899.7070, 153.3359
900.8360, 90.70117
901.9640, 181.1943
903.0920, 127.5020
904.2200, 82.61914
905.3470, 56.15918
906.4750, 47.40430
907.6020, 78.08008
908.7290, 105.6816
909.8560, 150.5918
910.9830, 21.22168
912.1100, 135.0498
913.2360, 74.97266
914.3630, 64.03711
915.4890, 17.02930
916.6150, 127.0020
917.7410, 3.958984
918.8670, 87.89355
919.9920, 155.8125
921.1180, 26.28320
922.2430, 141.5830
923.3680, 35.56445
924.4930, 39.75391
925.6180, 111.0146
926.7420, 236.7695
927.8670, 16.50977
928.9910, 104.2344
930.1150, 113.9424
931.2390, 64.63867
932.3630, 112.3203
933.4860, 222.9863
934.6100, 128.6406
935.7330, 204.2822
936.8560, 177.8789
937.9790, 154.4951
939.1020, 154.7236
940.2250, 24.31348
941.3470, 153.8887
942.4700, 205.4512
943.5920, 72.00293
944.7140, 160.5410
945.8360, 63.06836
946.9570, 273.3193
948.0790, 290.5742
949.2000, 127.8633
950.3220, 12.34570
951.4430, 99.71777
952.5640, 149.1885
953.6840, 36.65137
954.8050, 181.9453
955.9250, 8.614258
957.0460, 60.46973
958.1660, 221.9277
959.2860, 177.2744
960.4050, 282.5410
961.5250, 226.2285
962.6440, 114.6396
963.7640, 228.8730
964.8830, 137.2676
966.0020, 126.6562
967.1210, 156.0361
968.2390, 119.4111
969.3580, 269.2500
970.4760, 235.2627
971.5940, 311.2549
972.7120, 183.6367
973.8300, 169.0029
974.9480, 316.8594
976.0650, 337.1094
977.1830, 379.4629
978.3000, 365.8359
979.4170, 391.2168
980.5340, 368.4795
981.6500, 244.6318
982.7670, 381.9502
983.8830, 527.3340
985.0000, 505.7109
986.1160, 413.0850
987.2320, 461.2363
988.3470, 297.6260
989.4630, 547.0107
990.5780, 456.3984
991.6940, 421.8135
992.8090, 347.2227
993.9240, 342.6436
995.0380, 331.7305
996.1530, 478.1445
997.2680, 396.3184
998.3820, 469.2061
999.4960, 282.5879
1000.610, 416.6104
1001.724, 431.0244
1002.837, 357.4121
1003.951, 448.6152
1005.064, 492.6943
1006.177, 395.8564
1007.291, 520.7861
1008.403, 321.8496
1009.516, 322.0312
1010.629, 573.7461
1011.741, 353.9785
1012.853, 401.4531
1013.965, 443.9307
1015.077, 412.4209
1016.189, 341.6084
1017.300, 534.9297
1018.412, 488.2246
1019.523, 739.4492
1020.634, 398.0225
1021.745, 605.4580
1022.856, 396.8359
1023.966, 641.4141
1025.077, 627.6865
1026.187, 440.2715
1027.297, 479.6875
1028.407, 619.6973
1029.517, 653.9902
1030.627, 548.6064
1031.736, 596.2080
1032.845, 660.6562
1033.955, 614.2959
1035.064, 456.7832
1036.172, 617.4277
1037.281, 631.0742
1038.390, 894.5439
1039.498, 554.9062
1040.606, 888.5371
1041.714, 827.2676
1042.822, 588.2910
1043.930, 806.5254
1045.037, 727.9102
1046.145, 829.1836
1047.252, 725.2656
1048.359, 704.7285
1049.466, 855.0020
1050.573, 754.6914
1051.679, 751.8086
1052.786, 897.4102
1053.892, 1061.115
1054.998, 830.5215
1056.104, 970.2344
1057.210, 799.1367
1058.315, 891.8164
1059.421, 1059.547
1060.526, 849.3047
1061.631, 976.7207
1062.736, 1044.492
1063.841, 1159.271
1064.946, 1198.209
1066.050, 1231.650
1067.154, 1261.506
1068.258, 1262.311
1069.362, 1286.119
1070.466, 1321.936
1071.570, 1245.758
1072.674, 1365.588
1073.777, 1621.170
1074.880, 1568.014
1075.983, 1652.865
1077.086, 1561.686
1078.189, 1808.549
1079.291, 1661.467
1080.394, 1888.348
1081.496, 1776.232
1082.598, 1943.129
1083.700, 2171.498
1084.802, 2018.406
1085.903, 2212.340
1087.005, 2157.133
1088.106, 2179.066
1089.207, 2395.551
1090.308, 2291.146
1091.409, 2631.104
1092.509, 2409.227
1093.610, 2686.199
1094.710, 2583.721
1095.810, 2545.734
1096.910, 2645.770
1098.010, 2445.797
1099.110, 2408.834
1100.209, 2450.879
1101.309, 2465.928
1102.408, 2506.988
1103.507, 2225.059
1104.606, 2311.139
1105.704, 2292.230
1106.803, 2168.330
1107.901, 2262.439
1108.999, 2342.557
1110.097, 2275.059
1111.195, 2250.201
1112.293, 2216.332
1113.391, 2078.479
1114.488, 2043.633
1115.585, 2014.801
1116.682, 1889.977
1117.779, 1882.158
1118.876, 1825.047
1119.973, 1795.562
1121.069, 1749.768
1122.165, 1758.184
1123.261, 1745.064
1124.357, 1598.291
1125.453, 1510.859
1126.549, 1517.096
1127.644, 1374.344
1128.739, 1611.596
1129.835, 1272.855
1130.930, 1446.125
1132.024, 1176.400
1133.119, 1272.684
1134.214, 1257.975
1135.308, 1181.271
1136.402, 1460.576
1137.496, 1277.891
1138.590, 962.2109
1139.684, 1260.539
1140.777, 951.8828
1141.871, 1014.453
1142.964, 721.7539
1144.057, 906.1406
1145.150, 839.7305
1146.243, 810.4844
1147.335, 837.8926
1148.428, 788.8496
1149.520, 780.7227
1150.612, 789.7227
1151.704, 750.1875
1152.796, 644.6562
1153.887, 651.2324
1154.979, 703.7227
1156.070, 415.2070
1157.161, 420.7656
1158.252, 468.2637
1159.343, 393.3652
1160.433, 404.9160
1161.524, 586.1309
1162.614, 337.6543
1163.704, 394.1953
1164.794, 353.7949
1165.884, 208.4355
1166.974, 398.9961
1168.063, 260.5586
1169.153, 294.1230
1170.242, 288.6953
1171.331, 365.2734
1172.420, 264.8750
1173.508, 198.5039
1174.597, 220.1719
1175.685, 190.0703
1176.774, 174.8223
1177.862, 284.1250
1178.950, 78.85938
1180.037, 157.8066
1181.125, 336.6230
1182.212, 206.4414
1183.300, 323.2695
1184.387, 160.0996
1185.474, 273.9355
1186.560, 214.7852
1187.647, 294.6387
1188.733, 192.5098
1189.820, 80.39648
1190.906, 104.9609
1191.992, 227.8555
1193.078, 78.75586
1194.163, 28.66016
1195.249, 256.6230
1196.334, 28.53320
1197.419, 159.4473
1198.504, 121.3633
1199.589, 242.2812
1200.674, 80.20508
1201.758, 125.1309
1202.843, 19.05664
1203.927, 119.9902
1205.011, 169.9238
1206.095, 70.86133
1207.179, 80.80273
1208.262, 140.7441
1209.345, 6.310547
1210.429, 213.6348
1211.512, 15.58203
1212.595, 43.53711
1213.677, 61.50977
1214.760, 143.4219
1215.842, 0.3554690
1216.925, 12.28906
1218.007, 134.2285
1219.089, 5.167969
1220.171, 27.88672
1221.252, 151.0684
1222.334, 48.97656
1223.415, 127.9590
1224.496, 99.75977
1225.577, 70.13477
1226.658, 1.142578
1227.738, 238.0391
1228.819, 94.93359
1229.899, 45.83008
1230.979, 113.7285
1232.060, 51.62891
1233.139, 53.01758
1234.219, 153.6270
1235.299, 4.652344
1236.378, 195.5527
1237.457, 153.4551
1238.536, 90.35938
1239.615, 27.73633
1240.694, 86.15625
1241.772, 113.0547
1242.851, 31.94727
1243.929, 194.8418
1245.007, 182.7344
1246.085, 34.63086
1247.163, 51.52344
1248.240, 51.58008
1249.318, 31.28906
1250.395, 99.15625
1251.472, 20.97656
1252.549, 124.1191
1253.626, 98.67188
1254.703, 54.51367
1255.779, 219.2441
1256.855, 34.00781
1257.931, 48.76953
1259.007, 78.52734
1260.083, 66.28906
1261.159, 127.0469
1262.234, 115.4258
1263.310, 60.56641
1264.385, 119.3242
1265.460, 35.08203
1266.535, 31.83984
1267.610, 173.5977
1268.684, 57.35352
1269.758, 157.1328
1270.833, 16.09180
1271.907, 27.32617
1272.981, 53.41992
1274.054, 30.82617
1275.128, 17.09961
1276.201, 33.60938
1277.275, 2.681641
1278.348, 49.02148
1279.421, 198.7207
1280.493, 152.9004
1281.566, 169.5996
1282.638, 9.701172
1283.711, 32.98438
1284.783, 59.67188
1285.855, 20.45703
1286.927, 198.1387
1287.998, 32.17969
1289.070, 47.52344
1290.141, 10.09961
1291.212, 105.7207
1292.283, 204.3398
1293.354, 70.04297
1294.425, 19.59180
1295.495, 79.21484
1296.566, 112.7832
1297.636, 138.3477
1298.706, 163.1211
1299.776, 151.1855
1300.845, 143.0371
1301.915, 121.6016
1302.984, 95.50195
1304.054, 12.72070
1305.123, 41.27344
1306.191, 4.822266
1307.260, 1.634766
1308.329, 15.89844
1309.397, 109.4219
1310.465, 164.9512
1311.534, 173.6758
1312.602, 142.9961
1313.669, 145.5137
1314.737, 197.0254
1315.804, 86.52930
1316.872, 186.0312
1317.939, 125.5059
1319.006, 75.02539
1320.073, 298.4160
1321.139, 228.8555
1322.206, 231.2910
1323.272, 41.72266
1324.338, 138.1504
1325.404, 289.5762
1326.470, 130.9961
1327.536, 141.4102
1328.601, 216.8242
1329.667, 245.2324
1330.732, 225.4785
1331.797, 172.0391
1332.862, 228.4375
1333.926, 90.83203
1334.991, 207.1953
1336.055, 220.5527
1337.120, 63.91016
1338.184, 306.1523
1339.248, 227.4941
1340.311, 241.8359
1341.375, 245.1719
1342.438, 195.7891
1343.502, 177.1172
1344.565, 117.4258
1345.628, 183.7480
1346.691, 222.0645
1347.753, 170.7617
1348.816, 268.1016
1349.878, 131.4062
1350.940, 169.5449
