##NAMES=Analcime
##RRUFFID=R050094
##IDEAL CHEMISTRY=NaAlSi_2_O_6_&#183;H_2_O
##LOCALITY=Springfield, Oregon, USA
##OWNER=RRUFF
##SOURCE=Rock Currier
##DESCRIPTION=Clear colorless single crystals associated with gmelinite
##STATUS=The identification of this mineral has been confirmed by X-ray diffraction and chemical analysis
##URL=rruff.info/R050094
##MEASURED CHEMISTRY=(Na_0.99_[box]_0.01_)_Σ=1_(Si_2.01_Al_0.99_)O_6_·H_2_O
##PIN_ID=M00434
##ORIENTATION=Laser parallel to c* (0 0 1). Fiducial mark perpendicular to laser is parallel to [1 1 0]
169.7650, 0.0000000E+00
170.9990, 147.8135
172.2330, 2.404785
173.4670, 163.8633
174.7000, 3.302246
175.9330, 62.60498
177.1660, 101.7974
178.3990, 41.38867
179.6310, 107.7358
180.8640, 175.0210
182.0960, 155.3345
183.3280, 249.7866
184.5600, 238.1572
185.7910, 332.4946
187.0220, 364.3794
188.2540, 472.7808
189.4840, 448.3188
190.7150, 427.0200
191.9460, 455.7153
193.1760, 473.7080
194.4060, 518.9429
195.6360, 565.9990
196.8660, 635.6953
198.0960, 694.8081
199.3250, 745.5825
200.5540, 710.3438
201.7830, 733.2915
203.0120, 799.8301
204.2400, 705.2197
205.4690, 612.2993
206.6970, 724.7451
207.9250, 548.6978
209.1530, 622.3911
210.3800, 644.8784
211.6080, 520.8379
212.8350, 531.2876
214.0620, 550.9019
215.2880, 676.3101
216.5150, 548.7686
217.7410, 660.7285
218.9680, 572.2446
220.1940, 656.3354
221.4190, 777.7939
222.6450, 637.2666
223.8700, 691.6499
225.0960, 571.7402
226.3210, 607.9951
227.5450, 537.6123
228.7700, 539.1592
229.9940, 530.7441
231.2190, 539.3555
232.4430, 473.9810
233.6660, 444.6128
234.8900, 422.2471
236.1140, 382.8926
237.3370, 369.5571
238.5600, 327.2466
239.7830, 256.9639
241.0050, 342.7104
242.2280, 183.4897
243.4500, 247.3657
244.6720, 160.5049
245.8940, 168.8882
247.1160, 55.50000
248.3370, 85.32275
249.5580, 36.34033
250.7790, 39.46484
252.0000, 46.89160
253.2210, 18.60645
254.4410, 94.02832
255.6620, 11.77930
256.8820, 38.36621
258.1020, 67.42236
259.3210, 96.60010
260.5410, 167.6899
261.7600, 28.83789
262.9790, 50.96631
264.1980, 130.7334
265.4170, 79.47607
266.6360, 28.20312
267.8540, 61.92676
269.0720, 86.65674
270.2900, 38.40186
271.5080, 6.827637
272.7260, 137.9683
273.9430, 25.78857
275.1600, 85.63330
276.3770, 78.50537
277.5940, 9.407227
278.8100, 81.65625
280.0270, 51.67871
281.2430, 206.6543
282.4590, 279.5796
283.6750, 398.3428
284.8910, 537.0098
286.1060, 812.5938
287.3210, 1018.029
288.5360, 1341.401
289.7510, 1719.706
290.9660, 2207.811
292.1800, 2704.786
293.3950, 3251.621
294.6090, 3825.359
295.8230, 4296.977
297.0360, 4294.499
298.2500, 4393.049
299.4630, 4275.674
300.6760, 3945.403
301.8890, 3725.250
303.1020, 3109.211
304.3150, 2565.262
305.5270, 2150.364
306.7390, 1828.513
307.9510, 1547.709
309.1630, 1292.952
310.3750, 1012.244
311.5860, 870.5835
312.7970, 783.9722
314.0080, 737.4092
315.2190, 756.8955
316.4300, 622.9399
317.6400, 675.6694
318.8510, 645.0840
320.0610, 609.6387
321.2710, 721.0142
322.4800, 693.3628
323.6900, 698.5952
324.8990, 766.6963
326.1080, 702.6787
327.3170, 788.5298
328.5260, 745.2441
329.7340, 902.8179
330.9430, 958.2451
332.1510, 899.5269
333.3590, 1068.666
334.5670, 1037.663
335.7740, 1057.517
336.9820, 1079.220
338.1890, 1180.768
339.3960, 1238.159
340.6030, 1361.385
341.8100, 1425.444
343.0160, 1431.334
344.2220, 1496.053
345.4280, 1554.610
346.6340, 1653.024
347.8400, 1683.779
349.0460, 1771.439
350.2510, 1772.451
351.4560, 1855.336
352.6610, 1922.083
353.8660, 2074.692
355.0700, 2130.124
356.2750, 2175.300
357.4790, 2192.271
358.6830, 2321.098
359.8870, 2384.204
361.0910, 2562.141
362.2940, 2603.458
363.4970, 2735.477
364.7000, 2884.190
365.9030, 2948.833
367.1060, 3109.482
368.3080, 3288.413
369.5110, 3434.572
370.7130, 3569.237
371.9150, 3843.100
373.1170, 4126.728
374.3180, 4190.426
375.5200, 4519.150
376.7210, 4751.970
377.9220, 4956.578
379.1230, 5276.124
380.3230, 5444.637
381.5240, 5810.046
382.7240, 5908.441
383.9240, 5790.711
385.1240, 6050.461
386.3240, 6188.941
387.5230, 6087.139
388.7230, 6255.063
389.9220, 6179.183
391.1210, 5996.508
392.3200, 5876.809
393.5180, 5679.025
394.7170, 5378.992
395.9150, 5002.858
397.1130, 4832.503
398.3110, 4466.029
399.5080, 4107.995
400.7060, 3757.714
401.9030, 3450.503
403.1000, 3075.631
404.2970, 2748.043
405.4940, 2531.308
406.6910, 2253.277
407.8870, 2053.243
409.0830, 1876.237
410.2790, 1715.550
411.4750, 1690.234
412.6710, 1608.952
413.8660, 1479.271
415.0610, 1413.845
416.2560, 1252.239
417.4510, 1195.790
418.6460, 1103.531
419.8410, 957.6675
421.0350, 1000.915
422.2290, 918.1343
423.4230, 981.5981
424.6170, 894.3843
425.8100, 925.2256
427.0040, 886.3682
428.1970, 944.3618
429.3900, 947.6138
430.5830, 1027.562
431.7760, 1014.730
432.9680, 1042.645
434.1610, 1131.011
435.3530, 1161.978
436.5450, 1246.365
437.7360, 1236.250
438.9280, 1344.070
440.1190, 1473.950
441.3110, 1499.885
442.5020, 1661.868
443.6930, 1744.898
444.8830, 1919.961
446.0740, 2091.062
447.2640, 2198.196
448.4540, 2472.379
449.6440, 2656.596
450.8340, 2878.857
452.0240, 3121.156
453.2130, 3487.488
454.4020, 3885.854
455.5910, 4212.255
456.7800, 4929.685
457.9690, 5254.166
459.1570, 6092.681
460.3460, 6837.202
461.5340, 7544.742
462.7220, 8820.293
463.9090, 10004.86
465.0970, 11479.46
466.2840, 13003.06
467.4720, 14921.69
468.6590, 17127.32
469.8460, 19680.97
471.0320, 22644.63
472.2190, 25591.31
473.4050, 29332.02
474.5910, 33263.75
475.7770, 36778.52
476.9630, 41393.30
478.1490, 44393.09
479.3340, 48103.91
480.5190, 50868.73
481.7040, 52394.57
482.8890, 52886.42
484.0740, 52336.27
485.2580, 50708.14
486.4430, 47833.01
487.6270, 44725.90
488.8110, 40901.80
489.9950, 36895.71
491.1780, 32888.65
492.3620, 29023.59
493.5450, 25407.54
494.7280, 22607.52
495.9110, 19883.51
497.0940, 17615.50
498.2760, 15306.52
499.4590, 13615.55
500.6410, 12057.60
501.8230, 10783.67
503.0050, 9643.757
504.1860, 8546.865
505.3680, 7528.992
506.5490, 6862.140
507.7300, 6214.312
508.9110, 5554.505
510.0920, 5154.722
511.2730, 4836.962
512.4530, 4280.228
513.6330, 3975.521
514.8130, 3583.838
515.9930, 3440.182
517.1730, 3091.551
518.3520, 2925.946
519.5320, 2623.367
520.7110, 2527.814
521.8900, 2308.288
523.0690, 2194.788
524.2470, 1978.314
525.4260, 1816.867
526.6040, 1741.446
527.7820, 1611.055
528.9600, 1529.689
530.1380, 1405.356
531.3150, 1205.051
532.4930, 1180.778
533.6700, 1068.537
534.8470, 1075.335
536.0240, 958.1694
537.2000, 895.0439
538.3770, 812.9771
539.5530, 780.9482
540.7290, 652.9712
541.9050, 644.0264
543.0810, 613.1230
544.2570, 496.2734
545.4320, 499.4849
546.6080, 382.7266
547.7830, 371.9941
548.9580, 344.2964
550.1320, 335.6523
551.3070, 262.0815
552.4810, 129.5698
553.6550, 67.29834
554.8300, 105.0273
556.0030, 21.01123
557.1770, 40.01855
558.3510, 51.86035
559.5240, 30.75391
560.6970, 6.591309
561.8700, 29.76562
563.0430, 48.89844
564.2160, 78.44580
565.3880, 29.91602
566.5600, 115.5356
567.7320, 56.07715
568.9040, 119.5786
570.0760, 110.1265
571.2480, 127.4121
572.4190, 93.98633
573.5900, 133.2104
574.7610, 68.73535
575.9320, 110.1685
577.1030, 33.27588
578.2740, 6.157715
579.4440, 49.17090
580.6140, 35.41162
581.7840, 16.61377
582.9540, 77.90088
584.1240, 64.28320
585.2930, 82.78320
586.4630, 109.0166
587.6320, 172.4771
588.8010, 167.6377
589.9700, 168.7852
591.1380, 164.0278
592.3070, 118.6938
593.4750, 160.7095
594.6430, 242.7314
595.8110, 189.4980
596.9790, 120.2739
598.1460, 165.3306
599.3140, 92.70459
600.4810, 203.7725
601.6480, 207.3193
602.8150, 167.1006
603.9820, 243.6392
605.1480, 301.6621
606.3150, 271.9202
607.4810, 303.3767
608.6470, 286.9033
609.8130, 338.4438
610.9790, 326.9360
612.1440, 326.3430
613.3100, 440.6348
614.4750, 368.8062
615.6400, 466.4255
616.8050, 478.9446
617.9690, 497.1047
619.1340, 526.1860
620.2980, 500.6677
621.4620, 503.4233
622.6260, 487.6528
623.7900, 440.1343
624.9540, 482.4346
626.1170, 444.3989
627.2810, 521.3506
628.4440, 432.5107
629.6070, 416.8809
630.7690, 447.1270
631.9320, 443.5422
633.0950, 496.8250
634.2570, 445.0178
635.4190, 477.2939
636.5810, 462.5618
637.7430, 461.0107
638.9040, 423.4148
640.0660, 456.5161
641.2270, 416.4194
642.3880, 380.3787
643.5490, 411.4341
644.7100, 396.5435
645.8700, 473.5950
647.0310, 486.4734
648.1910, 427.3501
649.3510, 402.2158
650.5110, 413.5151
651.6710, 426.0049
652.8300, 423.7434
653.9900, 520.5613
655.1490, 517.3667
656.3080, 583.1589
657.4670, 647.9375
658.6250, 640.8364
659.7840, 678.5889
660.9420, 713.0884
662.1010, 798.0508
663.2590, 762.7598
664.4170, 787.4536
665.5740, 779.1340
666.7320, 778.7986
667.8890, 873.4475
669.0460, 871.0801
670.2030, 953.8433
671.3600, 909.6602
672.5170, 901.5129
673.6740, 849.1804
674.8300, 753.7793
675.9860, 838.4468
677.1420, 859.0325
678.2980, 806.7246
679.4540, 650.4082
680.6090, 586.9849
681.7650, 502.6338
682.9200, 462.1282
684.0750, 409.5940
685.2300, 342.1597
686.3840, 335.6699
687.5390, 282.3008
688.6930, 252.6462
689.8470, 240.9275
691.0010, 170.1863
692.1550, 117.4595
693.3090, 131.7126
694.4620, 87.58301
695.6160, 94.73975
696.7690, 143.8684
697.9220, 150.2891
699.0750, 180.5088
700.2280, 0.9106450
701.3800, 15.47656
702.5320, 5.494141
703.6850, 48.47998
704.8370, 84.82666
705.9880, 3.363037
707.1400, 52.91187
708.2920, 57.12402
709.4430, 34.69116
710.5940, 49.93213
711.7450, 6.497559
712.8960, 33.82104
714.0470, 29.69019
715.1970, 17.97461
716.3480, 20.18115
717.4980, 22.84668
718.6480, 68.45996
719.7980, 51.15674
720.9470, 19.92920
722.0970, 20.76050
723.2460, 39.34790
724.3960, 17.42163
725.5450, 47.45410
726.6940, 30.54785
727.8420, 22.38403
728.9910, 14.72583
730.1390, 12.10498
731.2870, 28.88989
732.4350, 29.63477
733.5830, 39.33936
734.7310, 39.99683
735.8790, 40.36548
737.0260, 23.18799
738.1730, 8.697754
739.3200, 30.84277
740.4670, 2.280029
741.6140, 13.93018
742.7610, 68.97778
743.9070, 8.625488
745.0530, 11.45703
746.1990, 25.04517
747.3450, 11.70093
748.4910, 5.417725
749.6370, 24.68359
750.7820, 38.52441
751.9270, 52.26831
753.0720, 25.16577
754.2170, 31.71729
755.3620, 33.46826
756.5070, 47.07959
757.6510, 36.64917
758.7950, 29.15186
759.9400, 157.4187
761.0840, 97.69507
762.2270, 139.9595
763.3710, 96.36548
764.5140, 120.5374
765.6580, 177.9102
766.8010, 127.8479
767.9440, 155.9102
769.0870, 114.0479
770.2290, 144.0876
771.3720, 164.4285
772.5140, 144.0820
773.6560, 205.1392
774.7990, 168.2373
775.9400, 218.5388
777.0820, 179.3115
778.2240, 239.1536
779.3650, 208.8562
780.5060, 183.6570
781.6470, 174.5825
782.7880, 186.0000
783.9290, 269.1455
785.0690, 237.6562
786.2100, 332.1953
787.3500, 366.7134
788.4900, 293.1333
789.6300, 230.5181
790.7700, 273.8682
791.9090, 251.1833
793.0490, 277.4634
794.1880, 290.7090
795.3270, 198.1294
796.4660, 284.3037
797.6050, 250.4434
798.7440, 262.5481
799.8820, 333.6182
801.0200, 256.6533
802.1590, 243.9761
803.2970, 300.9419
804.4340, 298.8728
805.5720, 272.7690
806.7100, 191.6311
807.8470, 174.4570
808.9840, 161.2471
810.1210, 201.0002
811.2580, 212.7183
812.3950, 191.4019
813.5310, 206.0498
814.6680, 175.6633
815.8040, 172.5613
816.9400, 192.7837
818.0760, 170.2908
819.2120, 201.7625
820.3470, 242.1997
821.4830, 155.6038
822.6180, 180.9717
823.7530, 146.3052
824.8880, 208.6025
826.0230, 276.8667
827.1580, 224.0972
828.2920, 207.2952
829.4270, 205.2654
830.5610, 83.25415
831.6950, 227.0112
832.8290, 217.7583
833.9620, 136.6709
835.0960, 177.5679
836.2290, 126.5283
837.3620, 190.7046
838.4950, 194.6736
839.6280, 234.0532
840.7610, 235.3374
841.8940, 277.7593
843.0260, 243.0747
844.1580, 308.3284
845.2910, 282.1829
846.4230, 199.5647
847.5540, 259.7886
848.6860, 260.6313
849.8170, 263.7366
850.9490, 187.7236
852.0800, 202.3511
853.2110, 210.7295
854.3420, 204.8777
855.4730, 288.0947
856.6030, 254.3315
857.7340, 186.4639
858.8640, 267.4805
859.9940, 262.3604
861.1240, 326.4868
862.2540, 293.3652
863.3830, 270.5242
864.5130, 190.6760
865.6420, 277.7112
866.7710, 185.3030
867.9000, 237.5244
869.0290, 221.7180
870.1570, 148.1467
871.2860, 152.5437
872.4140, 163.6396
873.5430, 141.3958
874.6710, 155.4373
875.7980, 88.97803
876.9260, 123.2617
878.0540, 17.76685
879.1810, 74.76221
880.3080, 100.5002
881.4360, 5.982422
882.5630, 48.43628
883.6890, 61.81860
884.8160, 1.773193
885.9420, 14.69336
887.0690, 2.251953
888.1950, 63.09399
889.3210, 7.071289
890.4470, 10.31323
891.5730, 14.10840
892.6980, 47.47852
893.8240, 35.71509
894.9490, 45.38770
896.0740, 11.99951
897.1990, 21.11084
898.3240, 66.62085
899.4480, 60.39624
900.5730, 2.498047
901.6970, 14.17896
902.8210, 62.90771
903.9450, 28.09644
905.0690, 41.09326
906.1930, 6.799561
907.3160, 14.62769
908.4400, 6.435303
909.5630, 2.262451
910.6860, 11.13135
911.8090, 45.18994
912.9320, 18.33301
914.0550, 97.65137
915.1770, 8.891113
916.2990, 59.98828
917.4210, 79.04028
918.5440, 46.89551
919.6650, 40.69263
920.7870, 21.47998
921.9090, 16.64062
923.0300, 43.78906
924.1510, 51.36230
925.2720, 57.80103
926.3930, 47.16699
927.5140, 50.27148
928.6350, 45.36523
929.7550, 6.551025
930.8760, 81.38794
931.9960, 83.44897
933.1160, 44.50049
934.2360, 48.54395
935.3550, 73.57788
936.4750, 13.39697
937.5940, 144.6255
938.7140, 99.64258
939.8330, 43.65796
940.9520, 123.6650
942.0710, 14.52026
943.1890, 77.30322
944.3080, 133.0376
945.4260, 45.95068
946.5440, 53.91504
947.6620, 55.78516
948.7800, 52.71191
949.8980, 32.52100
951.0160, 56.31299
952.1330, 83.18677
953.2500, 117.9626
954.3680, 177.8757
955.4850, 50.86597
956.6010, 109.5874
957.7180, 50.41260
958.8350, 188.0945
959.9510, 133.0410
961.0670, 140.0298
962.1830, 209.0139
963.2990, 123.9688
964.4150, 116.9333
965.5310, 129.2522
966.6460, 146.2681
967.7620, 79.28394
968.8770, 123.9963
969.9920, 79.89282
971.1070, 220.5784
972.2210, 260.5618
973.3360, 121.5774
974.4500, 260.6509
975.5650, 184.7256
976.6790, 236.8000
977.7930, 329.8840
978.9070, 293.9688
980.0200, 332.0542
981.1340, 367.1421
982.2470, 458.2312
983.3610, 464.3281
984.4740, 410.4268
985.5870, 481.5107
986.6990, 566.6218
987.8120, 520.7468
988.9250, 591.8872
990.0370, 578.0552
991.1490, 585.2463
992.2610, 585.4524
993.3730, 631.6748
994.4850, 639.9004
995.5960, 709.1326
996.7080, 702.3679
997.8190, 802.6226
998.9300, 887.8843
1000.041, 845.1619
1001.152, 945.4490
1002.263, 998.7422
1003.373, 1005.042
1004.484, 942.3477
1005.594, 881.6592
1006.704, 885.9944
1007.814, 864.3386
1008.924, 875.6951
1010.034, 901.8994
1011.143, 859.2759
1012.253, 925.0046
1013.362, 840.2756
1014.471, 842.6865
1015.580, 929.7205
1016.689, 925.9666
1017.797, 967.3042
1018.906, 1038.823
1020.014, 1005.032
1021.122, 1060.094
1022.230, 995.2542
1023.338, 1071.585
1024.446, 957.9507
1025.554, 1019.532
1026.661, 1099.058
1027.768, 996.6167
1028.875, 1011.375
1029.983, 1047.253
1031.089, 952.7991
1032.196, 1011.331
1033.303, 975.0679
1034.409, 1084.574
1035.515, 981.4873
1036.622, 1042.247
1037.728, 1127.903
1038.833, 1198.627
1039.939, 1227.022
1041.045, 1240.788
1042.150, 1202.697
1043.255, 1213.251
1044.360, 1283.573
1045.465, 1275.396
1046.570, 1338.123
1047.675, 1320.962
1048.779, 1360.677
1049.884, 1402.238
1050.988, 1429.103
1052.092, 1413.568
1053.196, 1425.463
1054.300, 1440.128
1055.404, 1516.140
1056.507, 1490.046
1057.610, 1572.963
1058.714, 1646.887
1059.817, 1611.821
1060.920, 1790.764
1062.022, 1772.715
1063.125, 1809.465
1064.228, 1936.436
1065.330, 1960.416
1066.432, 2040.579
1067.534, 2073.576
1068.636, 2262.583
1069.738, 2368.388
1070.840, 2448.616
1071.941, 2679.521
1073.042, 2626.566
1074.144, 2640.325
1075.245, 2732.574
1076.346, 2827.555
1077.446, 3094.649
1078.547, 3113.304
1079.647, 3272.407
1080.748, 3357.521
1081.848, 3513.857
1082.948, 3602.990
1084.048, 3749.237
1085.148, 3902.389
1086.247, 3968.479
1087.347, 4007.649
1088.446, 4049.390
1089.545, 4147.579
1090.644, 4233.657
1091.743, 4228.196
1092.842, 4234.436
1093.940, 4418.664
1095.039, 4370.764
1096.137, 4488.276
1097.235, 4436.531
1098.333, 4595.606
1099.431, 4500.221
1100.529, 4420.429
1101.627, 4518.583
1102.724, 4550.089
1103.822, 4512.037
1104.919, 4408.373
1106.016, 4521.715
1107.113, 4498.068
1108.209, 4365.429
1109.306, 4466.795
1110.402, 4447.171
1111.499, 4291.553
1112.595, 4254.945
1113.691, 4127.343
1114.787, 4134.750
1115.883, 4098.163
1116.978, 3967.585
1118.074, 3936.111
1119.169, 3882.549
1120.264, 3778.994
1121.359, 3748.447
1122.454, 3515.908
1123.549, 3598.375
1124.644, 3453.851
1125.738, 3268.334
1126.832, 3235.824
1127.927, 3129.321
1129.021, 2998.826
1130.115, 2962.339
1131.208, 2741.858
1132.302, 2781.386
1133.396, 2581.920
1134.489, 2486.461
1135.582, 2335.010
1136.675, 2356.566
1137.768, 2230.910
1138.861, 2053.700
1139.954, 2051.277
1141.046, 1916.862
1142.138, 1767.454
1143.231, 1744.053
1144.323, 1684.663
1145.415, 1597.279
1146.507, 1495.902
1147.598, 1521.540
1148.690, 1466.184
1149.781, 1288.835
1150.872, 1288.499
1151.964, 1146.169
1153.054, 1197.849
1154.145, 1036.555
1155.236, 1075.267
1156.327, 1049.986
1157.417, 938.7168
1158.507, 924.4678
1159.597, 872.2246
1160.687, 821.4551
1161.777, 779.7852
1162.867, 737.5767
1163.956, 705.3926
1165.046, 643.2129
1166.135, 551.0410
1167.224, 551.8774
1168.313, 454.7202
1169.402, 512.5684
1170.491, 504.4219
1171.580, 435.2827
1172.668, 438.1528
1173.756, 534.0283
1174.845, 348.9106
1175.933, 375.8003
1177.020, 253.6953
1178.108, 279.5952
1179.196, 228.5005
1180.283, 275.4102
1181.371, 298.3403
1182.458, 163.2744
1183.545, 211.2246
1184.632, 137.1885
1185.719, 110.0151
1186.805, 94.13037
1187.892, 79.10791
1188.978, 99.09033
1190.065, 110.0767
1191.151, 101.0669
1192.237, 106.6963
1193.323, 39.06006
1194.408, 73.06445
1195.494, 62.07324
1196.579, 3.914551
1197.664, 84.09863
1198.750, 74.11621
1199.835, 40.86182
1200.919, 14.85449
1202.004, 26.85010
1203.089, 22.14502
1204.173, 13.85645
1205.258, 22.86133
1206.342, 50.87402
1207.426, 69.90869
1208.510, 28.97559
1209.594, 4.946289
1210.677, 7.871094
1211.761, 55.20068
1212.844, 39.70166
1213.927, 0.6079100
1215.010, 79.51465
1216.093, 33.57471
1217.176, 31.32080
1218.259, 26.78027
1219.341, 9.106445
1220.424, 14.00342
1221.506, 22.11914
1222.588, 16.24463
1223.670, 25.62305
1224.752, 46.50635
1225.834, 68.65869
1226.915, 45.15381
1227.997, 45.03076
1229.078, 2.237793
1230.159, 62.44580
1231.240, 44.49561
1232.321, 1.452637
1233.402, 23.27588
1234.483, 50.44775
1235.563, 21.17383
1236.644, 14.90332
1237.724, 36.63574
1238.804, 62.37012
1239.884, 43.10889
1240.964, 41.85010
1242.044, 52.45508
1243.123, 63.33984
1244.203, 52.08838
1245.282, 53.83887
1246.361, 26.59131
1247.440, 12.63721
1248.519, 33.12500
1249.598, 110.8911
1250.676, 114.6665
1251.755, 96.44336
1252.833, 48.22314
1253.911, 86.00635
1254.989, 33.79443
1256.067, 56.60742
1257.145, 78.42285
1258.223, 26.24072
1259.300, 144.0645
1260.378, 125.8945
1261.455, 54.72705
1262.532, 51.56299
1263.609, 124.4038
1264.686, 150.2466
1265.763, 220.0918
1266.840, 123.9399
1267.916, 72.79150
1268.992, 211.6460
1270.069, 130.5034
1271.145, 216.3623
1272.221, 203.2231
1273.296, 259.0854
1274.372, 202.9507
1275.448, 218.5166
1276.523, 181.6855
1277.598, 202.5562
1278.673, 157.4287
1279.749, 146.3022
1280.823, 104.1768
1281.898, 102.0527
1282.973, 89.58789
1284.047, 84.22559
1285.122, 83.68750
1286.196, 118.5664
1287.270, 124.4463
1288.344, 199.3262
1289.418, 133.2061
1290.491, 87.08496
1291.565, 209.9629
1292.638, 296.8408
1293.712, 190.7168
1294.785, 228.5923
1295.858, 244.4663
1296.931, 255.3394
1298.003, 234.2119
1299.076, 241.0820
1300.149, 208.9526
1301.221, 256.8218
1302.293, 207.6880
1303.365, 266.5522
1304.437, 280.1924
1305.509, 211.2729
1306.581, 332.1294
1307.652, 275.9824
1308.724, 280.8325
1309.795, 326.6787
1310.866, 253.5215
1311.937, 308.3618
1313.008, 359.1973
1314.079, 392.0273
1315.150, 334.8564
1316.220, 274.6846
1317.291, 310.5122
1318.361, 413.3389
1319.431, 338.1650
1320.501, 386.9897
1321.571, 390.8145
1322.641, 313.6377
1323.710, 295.4604
1324.780, 263.2822
1325.849, 287.9297
1326.918, 266.7505
1327.987, 257.5718
1329.056, 221.2827
1330.125, 150.3877
1331.194, 217.8511
1332.263, 167.6724
1333.331, 111.7896
1334.399, 162.4253
1335.467, 151.3970
1336.535, 187.1558
1337.603, 102.4126
1338.671, 193.2168
1339.739, 125.0225
