##NAMES=Analcime
##RRUFFID=R060023
##IDEAL CHEMISTRY=NaAlSi_2_O_6_&#183;H_2_O
##LOCALITY=Dallas, Oregon, USA
##OWNER=RRUFF
##SOURCE=Bob Downs
##DESCRIPTION=White trapezohedral crystal associated with levyne-Na, R060021
##STATUS=The identification of this mineral has been confirmed by X-ray diffraction and chemical analysis
##URL=rruff.info/R060023
##MEASURED CHEMISTRY=(Na_0.98_[box]_0.02_)_Σ=1_(Si_2.02_Al_0.98_)O_6_·H_2_O
##PIN_ID=M00414
##ORIENTATION=Laser parallel to c* (0 0 1). Fiducial mark perpendicular to laser is parallel to a [1 0 0]
181.5980, 0.0000000E+00
182.8230, 0.9848630
184.0490, 1.853027
185.2740, 32.78564
186.5000, 118.4194
187.7250, 225.9312
188.9500, 204.5454
190.1740, 200.4321
191.3990, 128.5703
192.6230, 277.0391
193.8480, 167.7349
195.0720, 287.8960
196.2960, 240.8110
197.5200, 202.6011
198.7430, 334.7559
199.9670, 329.9102
201.1900, 292.8145
202.4130, 300.6685
203.6360, 292.9863
204.8590, 354.9321
206.0820, 296.5234
207.3050, 303.9990
208.5270, 307.3311
209.7490, 263.7969
210.9710, 283.8359
212.1930, 376.2817
213.4150, 438.6519
214.6370, 355.7021
215.8580, 424.7031
217.0790, 413.4062
218.3010, 453.0635
219.5210, 554.3003
220.7420, 507.1338
221.9630, 564.7212
223.1830, 477.3188
224.4040, 593.1904
225.6240, 602.1987
226.8440, 620.2148
228.0640, 632.1523
229.2840, 590.7178
230.5030, 576.5762
231.7230, 566.1836
232.9420, 523.7124
234.1610, 525.5029
235.3800, 473.5410
236.5990, 402.6333
237.8170, 376.7720
239.0360, 321.2739
240.2540, 269.8721
241.4720, 233.3818
242.6900, 194.6299
243.9080, 147.8989
245.1250, 166.1929
246.3430, 117.5742
247.5600, 121.8677
248.7770, 82.25244
249.9940, 21.67090
251.2110, 43.12354
252.4280, 14.38916
253.6450, 12.13184
254.8610, 37.28906
256.0770, 128.4233
257.2930, 69.26318
258.5090, 114.2246
259.7250, 151.2983
260.9400, 92.52393
262.1560, 17.25098
263.3710, 1.891113
264.5860, 79.45264
265.8010, 20.94385
267.0160, 46.37402
268.2310, 3.749512
269.4450, 58.07715
270.6600, 1.637695
271.8740, 40.61182
273.0880, 8.166992
274.3020, 14.03320
275.5150, 99.21875
276.7290, 49.60156
277.9420, 3.422363
279.1550, 83.23828
280.3680, 86.04932
281.5810, 177.8574
282.7940, 198.6626
284.0070, 289.4648
285.2190, 397.2563
286.4310, 488.0327
287.6430, 671.7900
288.8550, 695.5137
290.0670, 930.1782
291.2790, 1020.758
292.4900, 1158.300
293.7020, 1203.833
294.9130, 1296.255
296.1240, 1372.594
297.3350, 1452.832
298.5450, 1325.005
299.7560, 1232.136
300.9660, 1200.284
302.1760, 908.3569
303.3860, 850.4531
304.5960, 674.5811
305.8060, 614.7607
307.0150, 500.9902
308.2250, 381.3062
309.4340, 507.6816
310.6430, 422.0811
311.8520, 224.5078
313.0610, 333.0020
314.2700, 311.5571
315.4780, 320.1396
316.6860, 350.7500
317.8940, 279.3882
319.1020, 256.0469
320.3100, 326.7227
321.5180, 337.4146
322.7250, 470.1245
323.9330, 433.8511
325.1400, 480.5947
326.3470, 413.3560
327.5540, 470.3115
328.7600, 529.3047
329.9670, 524.3076
331.1730, 497.3301
332.3800, 592.3301
333.5860, 665.2920
334.7920, 587.2061
335.9970, 579.0664
337.2030, 623.8677
338.4080, 722.6021
339.6140, 742.2651
340.8190, 699.8525
342.0240, 807.3677
343.2290, 810.8091
344.4330, 861.1753
345.6380, 857.4580
346.8420, 901.6572
348.0460, 890.7651
349.2500, 845.7759
350.4540, 975.6895
351.6580, 921.5073
352.8610, 957.2388
354.0650, 1094.893
355.2680, 1103.479
356.4710, 1117.996
357.6740, 1213.442
358.8760, 1205.810
360.0790, 1297.099
361.2810, 1419.277
362.4840, 1394.312
363.6860, 1490.177
364.8880, 1506.990
366.0900, 1678.769
367.2910, 1742.730
368.4930, 1811.738
369.6940, 1954.997
370.8950, 2069.131
372.0960, 2199.170
373.2970, 2188.149
374.4980, 2324.016
375.6980, 2398.861
376.8980, 2541.710
378.0990, 2619.572
379.2990, 2656.449
380.4980, 2788.340
381.6980, 2626.247
382.8980, 2781.166
384.0970, 2736.077
385.2960, 2834.800
386.4950, 2933.399
387.6940, 2843.862
388.8930, 2814.048
390.0920, 2718.426
391.2900, 2763.437
392.4880, 2673.522
393.6860, 2686.217
394.8840, 2522.640
396.0820, 2512.777
397.2800, 2303.419
398.4770, 2213.719
399.6750, 2231.113
400.8720, 2123.513
402.0690, 2157.371
403.2660, 1891.719
404.4620, 1920.350
405.6590, 1650.713
406.8550, 1740.886
408.0510, 1461.100
409.2480, 1444.523
410.4430, 1369.709
411.6390, 1153.358
412.8350, 1156.755
414.0300, 1100.765
415.2250, 1059.576
416.4200, 1023.005
417.6150, 990.4644
418.8100, 817.2651
420.0050, 914.5278
421.1990, 829.1899
422.3940, 771.5688
423.5880, 849.1338
424.7820, 731.7437
425.9750, 738.6836
427.1690, 848.9131
428.3630, 778.3887
429.5560, 853.0078
430.7490, 858.3657
431.9420, 795.4092
433.1350, 831.3472
434.3280, 874.6113
435.5200, 902.2944
436.7130, 943.9453
437.9050, 897.5737
439.0970, 915.2134
440.2890, 959.7012
441.4810, 967.2393
442.6720, 1034.670
443.8640, 1059.848
445.0550, 1091.434
446.2460, 1164.914
447.4370, 1216.389
448.6280, 1307.651
449.8180, 1389.748
451.0090, 1545.999
452.1990, 1650.078
453.3890, 1855.691
454.5790, 2069.321
455.7690, 2202.960
456.9590, 2565.610
458.1480, 2613.271
459.3380, 3196.943
460.5270, 3490.623
461.7160, 4012.312
462.9050, 4465.006
464.0940, 5067.729
465.2820, 5829.459
466.4700, 6730.195
467.6590, 7789.965
468.8470, 8965.740
470.0350, 10218.53
471.2220, 11586.30
472.4100, 12911.07
473.5970, 14465.83
474.7850, 15802.58
475.9720, 17277.33
477.1590, 18336.07
478.3460, 19178.81
479.5320, 20053.54
480.7190, 20416.27
481.9050, 20435.99
483.0910, 19977.70
484.2770, 18874.41
485.4630, 17942.11
486.6490, 16577.81
487.8340, 14927.49
489.0200, 13466.18
490.2050, 11813.85
491.3900, 10437.54
492.5750, 9107.216
493.7600, 8190.895
494.9440, 7048.567
496.1290, 6303.238
497.3130, 5363.906
498.4970, 4871.570
499.6810, 4387.231
500.8650, 3774.892
502.0480, 3592.549
503.2320, 3042.205
504.4150, 2751.859
505.5980, 2363.513
506.7810, 2279.165
507.9640, 2064.820
509.1460, 1837.474
510.3290, 1680.129
511.5110, 1612.786
512.6930, 1389.445
513.8750, 1297.107
515.0570, 1137.772
516.2390, 1151.440
517.4210, 1038.112
518.6020, 1013.787
519.7830, 889.4658
520.9640, 802.1479
522.1450, 731.8340
523.3260, 677.5225
524.5060, 752.2144
525.6870, 715.9092
526.8670, 629.6060
528.0470, 535.3071
529.2270, 436.0122
530.4070, 441.7217
531.5870, 433.4375
532.7660, 463.1587
533.9450, 424.8867
535.1240, 310.6201
536.3030, 387.3613
537.4820, 358.1167
538.6610, 376.8828
539.8390, 146.6694
541.0180, 124.4702
542.1960, 170.2964
543.3740, 291.1616
544.5520, 209.9995
545.7290, 105.8408
546.9070, 173.9238
548.0840, 158.7861
549.2620, 141.6885
550.4390, 150.4775
551.6160, 49.61035
552.7920, 86.01953
553.9690, 57.01025
555.1450, 44.19727
556.3220, 21.86719
557.4980, 24.39697
558.6740, 95.57031
559.8490, 15.57520
561.0250, 7.221680
562.2000, 7.821289
563.3760, 22.06348
564.5510, 59.91748
565.7260, 75.32568
566.9010, 18.07422
568.0750, 49.36084
569.2500, 92.25391
570.4240, 1.832520
571.5980, 85.06592
572.7720, 99.94775
573.9460, 31.94678
575.1200, 54.80811
576.2930, 1.115234
577.4670, 5.744141
578.6400, 13.45117
579.8130, 13.71094
580.9860, 19.96191
582.1590, 31.16211
583.3310, 94.09473
584.5040, 32.95508
585.6760, 40.75488
586.8480, 68.55371
588.0200, 37.20117
589.1920, 45.63574
590.3630, 25.48438
591.5350, 6.919922
592.7060, 0.4375000
593.8770, 157.6191
595.0480, 108.1016
596.2190, 283.5391
597.3900, 197.8604
598.5600, 187.6953
599.7310, 177.1582
600.9010, 308.2197
602.0710, 251.3174
603.2410, 175.2676
604.4100, 400.0879
605.5800, 355.9580
606.7490, 386.9922
607.9190, 370.8281
609.0880, 438.8955
610.2570, 506.8721
611.4250, 335.7656
612.5940, 249.5488
613.7620, 374.0879
614.9310, 217.6201
616.0990, 166.2148
617.2670, 276.0830
618.4340, 207.7441
619.6020, 196.7188
620.7690, 235.5771
621.9370, 263.4551
623.1040, 260.1377
624.2710, 282.7549
625.4380, 191.2793
626.6040, 249.8047
627.7710, 245.3213
628.9370, 249.9805
630.1030, 310.4932
631.2690, 274.7637
632.4350, 210.2559
633.6010, 346.9395
634.7660, 298.7041
635.9320, 294.3125
637.0970, 329.9648
638.2620, 423.4375
639.4270, 293.9072
640.5920, 328.3906
641.7560, 254.8721
642.9210, 217.3418
644.0850, 232.8105
645.2490, 330.2559
646.4130, 312.6914
647.5770, 265.4463
648.7400, 223.8574
649.9040, 236.2568
651.0670, 219.4717
652.2300, 270.0205
653.3930, 251.5459
654.5560, 232.9004
655.7190, 279.2432
656.8810, 247.5732
658.0440, 272.8896
659.2060, 222.2041
660.3680, 153.5059
661.5300, 235.7939
662.6910, 357.0664
663.8530, 259.3340
665.0140, 458.5879
666.1750, 382.8271
667.3360, 391.0615
668.4970, 359.2812
669.6580, 338.4873
670.8190, 356.8154
671.9790, 333.1914
673.1390, 383.3809
674.2990, 392.5557
675.4590, 328.7158
676.6190, 295.0869
677.7790, 285.4941
678.9380, 292.6084
680.0970, 349.7080
681.2570, 178.7910
682.4160, 140.8574
683.5740, 245.1377
684.7330, 329.1709
685.8920, 94.35547
687.0500, 21.74219
688.2080, 181.7139
689.3660, 139.7705
690.5240, 167.7607
691.6820, 48.66797
692.8390, 195.5664
693.9960, 29.46680
695.1540, 78.37598
696.3110, 94.59570
697.4680, 159.3643
698.6240, 194.0537
699.7810, 67.11816
700.9370, 63.46680
702.0940, 27.87695
703.2500, 123.5859
704.4060, 92.27246
705.5610, 30.94238
706.7170, 44.72559
707.8720, 10.29883
709.0280, 112.7559
710.1830, 77.05859
711.3380, 135.6191
712.4920, 115.6865
713.6470, 77.63477
714.8020, 120.2412
715.9560, 23.41992
717.1100, 117.8770
718.2640, 37.08496
719.4180, 28.59375
720.5720, 163.1084
721.7250, 74.03027
722.8780, 39.89746
724.0320, 178.5576
725.1850, 114.7422
726.3380, 21.49023
727.4900, 11.96387
728.6430, 43.91699
729.7950, 55.73926
730.9470, 54.18262
732.1000, 31.59375
733.2510, 6.482422
734.4030, 12.48633
735.5550, 16.05566
736.7060, 3.969727
737.8570, 11.84863
739.0090, 32.06348
740.1600, 26.94434
741.3100, 53.81641
742.4610, 57.25098
743.6110, 79.71973
744.7620, 38.76367
745.9120, 73.55859
747.0620, 33.04395
748.2120, 46.62402
749.3610, 64.19922
750.5110, 88.82129
751.6600, 154.7324
752.8090, 200.2256
753.9580, 128.4834
755.1070, 10.98438
756.2560, 108.4287
757.4050, 35.97949
758.5530, 72.69434
759.7010, 72.93457
760.8490, 127.7920
761.9970, 141.0801
763.1450, 191.4531
764.2920, 169.3418
765.4400, 164.6924
766.5870, 126.2393
767.7340, 245.2451
768.8810, 7.582031
770.0280, 236.5439
771.1740, 132.8457
772.3210, 110.9785
773.4670, 145.1172
774.6130, 132.1543
775.7590, 200.4404
776.9050, 192.1533
778.0510, 182.8027
779.1960, 193.9209
780.3420, 314.8457
781.4870, 176.7500
782.6320, 344.6309
783.7770, 205.7510
784.9210, 99.58691
786.0660, 281.7197
787.2100, 225.5098
788.3540, 385.2773
789.4980, 309.1895
790.6420, 140.8994
791.7860, 258.5977
792.9300, 329.4375
794.0730, 302.0918
795.2160, 355.7246
796.3590, 263.7930
797.5020, 290.4072
798.6450, 241.9736
799.7880, 274.5176
800.9300, 187.5088
802.0720, 216.0088
803.2150, 275.4844
804.3560, 237.9150
805.4980, 293.3477
806.6400, 225.7578
807.7810, 158.5869
808.9230, 142.9512
810.0640, 226.2930
811.2050, 190.7607
812.3460, 234.1006
813.4860, 128.3730
814.6270, 115.6221
815.7670, 195.8467
816.9070, 236.0479
818.0470, 205.2285
819.1870, 289.3857
820.3270, 124.4854
821.4670, 284.5967
822.6060, 138.6855
823.7450, 85.51270
824.8840, 261.5762
826.0230, 152.5947
827.1620, 163.6152
828.3010, 268.5898
829.4390, 296.0996
830.5770, 170.0303
831.7150, 196.1514
832.8530, 97.72852
833.9910, 152.3555
835.1290, 166.2129
836.2660, 268.0703
837.4030, 162.5586
838.5410, 137.0088
839.6780, 189.0830
840.8140, 185.7500
841.9510, 168.2871
843.0870, 172.4482
844.2240, 185.7471
845.3600, 268.0752
846.4960, 224.6553
847.6320, 162.0654
848.7680, 112.6992
849.9030, 194.2705
851.0380, 268.6738
852.1740, 216.2559
853.3090, 99.32715
854.4440, 271.8564
855.5780, 83.02930
856.7130, 114.1104
857.8470, 119.6875
858.9820, 249.9658
860.1160, 144.1250
861.2500, 182.6807
862.3830, 54.12500
863.5170, 91.09668
864.6500, 152.4443
865.7840, 113.7559
866.9170, 112.2939
868.0500, 132.9209
869.1830, 109.9463
870.3150, 133.5205
871.4480, 44.11816
872.5800, 70.80664
873.7120, 165.9570
874.8440, 44.45410
875.9760, 118.3291
877.1080, 114.1436
878.2390, 55.91992
879.3710, 64.10156
880.5020, 41.05078
881.6330, 121.8086
882.7640, 127.6406
883.8940, 168.4180
885.0250, 110.1631
886.1550, 92.96680
887.2850, 22.85742
888.4160, 277.9648
889.5450, 7.058594
890.6750, 92.05859
891.8050, 274.7637
892.9340, 69.65234
894.0630, 115.7969
895.1930, 45.19043
896.3220, 71.64258
897.4500, 87.05273
898.5790, 100.7900
899.7070, 26.40332
900.8360, 74.36719
901.9640, 21.12402
903.0920, 46.28809
904.2200, 155.4062
905.3470, 97.32227
906.4750, 118.0068
907.6020, 81.41406
908.7290, 72.73242
909.8560, 193.1807
910.9830, 24.56445
912.1100, 16.89648
913.2360, 80.38574
914.3630, 24.93457
915.4890, 102.4863
916.6150, 142.8965
917.7410, 115.2832
918.8670, 19.67090
919.9920, 94.04883
921.1180, 3.082031
922.2430, 146.4346
923.3680, 111.7773
924.4930, 36.10938
925.6180, 10.56934
926.7420, 88.57617
927.8670, 33.87988
928.9910, 85.17285
930.1150, 95.45703
931.2390, 36.26758
932.3630, 61.97559
933.4860, 120.2109
934.6100, 101.4395
935.7330, 22.34082
936.8560, 96.85742
937.9790, 101.0459
939.1020, 31.77246
940.2250, 179.3828
941.3470, 230.5312
942.4700, 104.3291
943.5920, 140.6406
944.7140, 76.53809
945.8360, 17.59961
946.9570, 41.65332
948.0790, 113.7002
949.2000, 153.5146
950.3220, 241.2695
951.4430, 149.2969
952.5640, 234.3174
953.6840, 149.3320
954.8050, 169.3418
955.9250, 116.1133
957.0460, 69.11035
958.1660, 199.9385
959.2860, 183.5430
960.4050, 170.5332
961.5250, 16.41797
962.6440, 95.34570
963.7640, 135.3213
964.8830, 245.2949
966.0020, 163.2451
967.1210, 69.21289
968.2390, 231.8623
969.3580, 258.7383
970.4760, 138.6709
971.5940, 361.6240
972.7120, 280.5400
973.8300, 310.3486
974.9480, 244.2969
976.0650, 302.2500
977.1830, 261.2002
978.3000, 229.1504
979.4170, 403.0996
980.5340, 216.0518
981.6500, 330.0049
982.7670, 399.9443
983.8830, 367.6797
985.0000, 426.6260
986.1160, 404.5010
987.2320, 491.5137
988.3470, 343.1953
989.4630, 291.1357
990.5780, 217.7520
991.6940, 255.3018
992.8090, 385.2744
993.9240, 408.2119
995.0380, 490.0908
996.1530, 581.0273
997.2680, 444.5215
998.3820, 380.2178
999.4960, 512.1943
1000.610, 555.0439
1001.724, 545.9473
1002.837, 513.9785
1003.951, 521.9414
1005.064, 451.0186
1006.177, 542.7285
1007.291, 517.5566
1008.403, 469.6514
1009.516, 492.3867
1010.629, 425.4365
1011.741, 654.4854
1012.853, 476.4512
1013.965, 466.3389
1015.077, 634.1348
1016.189, 562.2734
1017.300, 498.4424
1018.412, 523.6143
1019.523, 620.7686
1020.634, 509.8564
1021.745, 706.6367
1022.856, 539.8164
1023.966, 696.2148
1025.077, 593.3232
1026.187, 468.5225
1027.297, 542.5654
1028.407, 621.4229
1029.517, 681.7520
1030.627, 573.4492
1031.736, 509.6143
1032.845, 578.8613
1033.955, 693.4902
1035.064, 673.6416
1036.172, 760.5801
1037.281, 659.0430
1038.390, 574.3213
1039.498, 781.6152
1040.606, 821.7178
1041.714, 597.9707
1042.822, 730.1982
1043.930, 850.5244
1045.037, 745.5957
1046.145, 849.2256
1047.252, 823.9023
1048.359, 922.1143
1049.466, 818.5039
1050.573, 834.9160
1051.679, 839.3340
1052.786, 897.4980
1053.892, 796.9268
1054.998, 846.0410
1056.104, 880.4824
1057.210, 842.9297
1058.315, 878.7754
1059.421, 872.6875
1060.526, 889.5469
1061.631, 909.8574
1062.736, 916.3359
1063.841, 981.8203
1064.946, 992.8516
1066.050, 968.3223
1067.154, 1172.147
1068.258, 1196.656
1069.362, 1213.752
1070.466, 1191.274
1071.570, 1183.804
1072.674, 1248.363
1073.777, 1284.904
1074.880, 1351.454
1075.983, 1429.568
1077.086, 1432.133
1078.189, 1603.717
1079.291, 1769.159
1080.394, 1699.715
1081.496, 1648.320
1082.598, 1773.973
1083.700, 1798.649
1084.802, 2048.280
1085.903, 2016.920
1087.005, 2269.564
1088.106, 2280.219
1089.207, 2475.879
1090.308, 2379.350
1091.409, 2400.027
1092.509, 2572.715
1093.610, 2455.410
1094.710, 2680.215
1095.810, 2461.924
1096.910, 2593.644
1098.010, 2547.369
1099.110, 2595.103
1100.209, 2700.854
1101.309, 2559.615
1102.408, 2456.383
1103.507, 2612.173
1104.606, 2542.972
1105.704, 2614.828
1106.803, 2435.643
1107.901, 2464.090
1108.999, 2334.926
1110.097, 2325.769
1111.195, 2107.618
1112.293, 2137.478
1113.391, 1973.016
1114.488, 1942.890
1115.585, 2223.771
1116.682, 1959.661
1117.779, 1985.559
1118.876, 1914.463
1119.973, 1766.375
1121.069, 1798.296
1122.165, 1729.225
1123.261, 1769.162
1124.357, 1722.108
1125.453, 1612.062
1126.549, 1503.023
1127.644, 1478.482
1128.739, 1496.180
1129.835, 1404.393
1130.930, 1384.735
1132.024, 1317.906
1133.119, 1301.844
1134.214, 1196.866
1135.308, 1340.894
1136.402, 1111.015
1137.496, 1107.069
1138.590, 1000.131
1139.684, 1190.199
1140.777, 872.2734
1141.871, 1068.354
1142.964, 920.1611
1144.057, 876.2559
1145.150, 905.3789
1146.243, 635.5078
1147.335, 699.6445
1148.428, 731.7861
1149.520, 678.9346
1150.612, 711.0869
1151.704, 672.7852
1152.796, 600.4102
1153.887, 614.6162
1154.979, 501.3154
1156.070, 484.0293
1157.161, 510.2305
1158.252, 641.4365
1159.343, 475.6484
1160.433, 334.6709
1161.524, 584.8301
1162.614, 357.1338
1163.704, 400.5352
1164.794, 481.9180
1165.884, 300.2510
1166.974, 365.2930
1168.063, 218.6367
1169.153, 347.0020
1170.242, 394.4062
1171.331, 370.7783
1172.420, 201.1914
1173.508, 363.6084
1174.597, 125.8945
1175.685, 195.7578
1176.774, 237.1875
1177.862, 186.6289
1178.950, 231.5127
1180.037, 225.0840
1181.125, 225.4043
1182.212, 224.1504
1183.300, 186.6406
1184.387, 162.1338
1185.474, 131.6787
1186.560, 107.0303
1187.647, 70.63281
1188.733, 34.13770
1189.820, 30.64746
1190.906, 63.83789
1191.992, 62.65820
1193.078, 140.1572
1194.163, 73.65820
1195.249, 115.1611
1196.334, 75.67676
1197.419, 17.80469
1198.504, 25.71094
1199.589, 3.981445
1200.674, 104.7549
1201.758, 15.28320
1202.843, 110.8125
1203.927, 121.3535
1205.011, 15.89453
1206.095, 12.43848
1207.179, 61.01074
1208.262, 16.42969
1209.345, 149.0049
1210.429, 31.58105
1211.512, 185.1592
1212.595, 2.263672
1213.677, 3.685547
1214.760, 131.8906
1215.842, 116.4697
1216.925, 56.04883
1218.007, 135.6289
1219.089, 90.20801
1220.171, 25.19531
1221.252, 14.39062
1222.334, 55.97656
1223.415, 15.56445
1224.496, 8.848633
1225.577, 149.7363
1226.658, 184.3213
1227.738, 122.9053
1228.819, 39.48926
1229.899, 181.3125
1230.979, 31.89648
1232.060, 63.47852
1233.139, 18.20215
1234.219, 105.7842
1235.299, 1.636719
1236.378, 25.94922
1237.457, 30.97852
1238.536, 99.30566
1239.615, 162.8643
1240.694, 75.42090
1241.772, 135.9756
1242.851, 13.44727
1243.929, 230.0957
1245.007, 45.63965
1246.085, 13.18066
1247.163, 134.7197
1248.240, 122.2578
1249.318, 122.7920
1250.395, 122.3252
1251.472, 28.85645
1252.549, 179.3848
1253.626, 158.9111
1254.703, 92.43457
1255.779, 16.95605
1256.855, 8.594727
1257.931, 96.00977
1259.007, 16.54980
1260.083, 18.10352
1261.159, 1.326172
1262.234, 74.00879
1263.310, 28.51074
1264.385, 154.8867
1265.460, 7.094727
1266.535, 151.4746
1267.610, 34.85352
1268.684, 237.2275
1269.758, 72.59863
1270.833, 89.96680
1271.907, 34.66895
1272.981, 63.66699
1274.054, 100.0000
1275.128, 37.32910
1276.201, 116.6533
1277.275, 29.97461
1278.348, 52.29297
1279.421, 66.60547
1280.493, 122.9160
1281.566, 207.4619
1282.638, 23.76172
1283.711, 4.923828
1284.783, 5.210938
1285.855, 50.48730
1286.927, 81.76074
1287.998, 59.02832
1289.070, 45.70605
1290.141, 0.5234380
1291.212, 60.73730
1292.283, 50.04199
1293.354, 24.06543
1294.425, 158.2383
1295.495, 5.440430
1296.566, 147.5967
1297.636, 228.7480
1298.706, 32.89453
1299.776, 148.0352
1300.845, 48.17090
1301.915, 100.3008
1302.984, 27.57422
1304.054, 36.47852
1305.123, 124.5801
1306.191, 173.6338
1307.260, 67.31934
1308.329, 49.67676
1309.397, 47.33398
1310.465, 53.61426
1311.534, 136.5566
1312.602, 163.4922
1313.669, 212.6055
1314.737, 194.3535
1315.804, 217.2773
1316.872, 213.1953
1317.939, 146.1104
1319.006, 110.0195
1320.073, 210.5312
1321.139, 305.4307
1322.206, 255.3242
1323.272, 216.2139
1324.338, 170.0977
1325.404, 84.97656
1326.470, 129.5156
1327.536, 102.4814
1328.601, 285.1699
1329.667, 102.0137
1330.732, 259.8516
1331.797, 204.6855
1332.862, 211.5127
1333.926, 83.33398
1334.991, 154.1494
1336.055, 24.04102
1337.120, 227.7373
1338.184, 54.50977
1339.248, 152.2588
1340.311, 189.0010
1341.375, 204.6934
1342.438, 129.3613
1343.502, 242.0762
1344.565, 70.78516
1345.628, 91.48730
1346.691, 252.1826
1347.753, 161.2910
1348.816, 156.1738
1349.878, 224.8486
1350.940, 254.5176
