##NAMES=Anatase
##RRUFFID=R060277
##IDEAL CHEMISTRY=Ti^4+^O_2_
##LOCALITY=Taftan, near Dalbandi, Baluchistan Province, Pakistan
##OWNER=RRUFF
##SOURCE=Herb Obodda
##DESCRIPTION=Dark brown tetragonal tabular crystals
##STATUS=The identification of this mineral is confirmed by single-crystal X-ray diffraction and chemical analysis.
##URL=rruff.info/R060277
##MEASURED CHEMISTRY=Ti_1.00_O_2_
##PIN_ID=L01480
##ORIENTATION=Laser parallel to c* (0 0 1). Fiducial mark perpendicular to laser is parallel to [1 1 0]
50.72400, 0.0000000E+00
51.97000, 1.471924
53.21600, 15.65973
54.46200, 4.832733
55.70800, 30.13226
56.95400, 7.505371
58.19900, 20.44910
59.44500, 3.856354
60.69000, 8.656708
61.93500, 6.845947
63.17900, 2.611084
64.42400, 3.962860
65.66800, 11.06616
66.91300, 2.481659
68.15700, 1.509552
69.40100, 40.90689
70.64400, 40.57062
71.88800, 86.41846
73.13100, 108.4217
74.37400, 139.6350
75.61700, 183.1978
76.86000, 190.2560
78.10300, 194.8533
79.34500, 249.9311
80.58800, 259.3604
81.83000, 323.0029
83.07200, 383.7504
84.31400, 411.5186
85.55500, 462.2421
86.79700, 524.8698
88.03800, 594.3636
89.27900, 631.7064
90.52000, 706.8940
91.76100, 745.9233
93.00100, 772.8401
94.24200, 844.8387
95.48200, 894.9604
96.72200, 900.5407
97.96200, 916.9363
99.20200, 1000.138
100.4410, 1061.471
101.6810, 1116.802
102.9200, 1164.875
104.1590, 1231.350
105.3980, 1341.015
106.6360, 1455.544
107.8750, 1473.792
109.1130, 1545.458
110.3510, 1600.537
111.5890, 1634.065
112.8270, 1747.073
114.0650, 1870.588
115.3020, 2015.637
116.5390, 2063.243
117.7770, 2265.427
119.0130, 2403.212
120.2500, 2671.615
121.4870, 2986.656
122.7230, 3318.352
123.9590, 3619.719
125.1950, 4149.816
126.4310, 4760.774
127.6670, 5780.594
128.9030, 6825.280
130.1380, 8384.831
131.3730, 10248.26
132.6080, 12580.57
133.8430, 15185.22
135.0780, 18689.56
136.3120, 22870.01
137.5470, 28308.94
138.7810, 35619.47
140.0150, 42904.64
141.2480, 49656.73
142.4820, 53094.96
143.7160, 51526.21
144.9490, 45414.20
146.1820, 36402.49
147.4150, 27492.94
148.6480, 20404.91
149.8800, 15186.48
151.1130, 11441.38
152.3450, 8913.898
153.5770, 7140.479
154.8090, 5895.641
156.0410, 5045.358
157.2720, 4284.080
158.5040, 3610.086
159.7350, 3205.989
160.9660, 2901.015
162.1970, 2555.653
163.4270, 2354.032
164.6580, 2175.633
165.8880, 1934.602
167.1180, 1732.564
168.3480, 1659.518
169.5780, 1538.461
170.8080, 1421.393
172.0370, 1368.310
173.2670, 1303.210
174.4960, 1172.087
175.7250, 1141.938
176.9540, 985.7596
178.1820, 991.5491
179.4110, 899.3055
180.6390, 904.0284
181.8670, 820.7183
183.0950, 831.3773
184.3230, 755.0071
185.5500, 750.6108
186.7780, 730.1902
188.0050, 719.7483
189.2320, 734.2867
190.4590, 717.8077
191.6850, 728.3133
192.9120, 843.8061
194.1380, 1020.288
195.3650, 1183.761
196.5910, 1222.227
197.8160, 1162.689
199.0420, 930.7467
200.2680, 691.7227
201.4930, 598.6354
202.7180, 455.4584
203.9430, 339.2277
205.1680, 349.9224
206.3930, 279.6416
207.6170, 240.8046
208.8410, 266.5221
210.0660, 261.2436
211.2890, 204.9576
212.5130, 195.6642
213.7370, 178.8455
214.9600, 177.5264
216.1840, 139.1909
217.4070, 146.8358
218.6300, 115.4607
219.8520, 99.06274
221.0750, 70.63977
222.2970, 66.12329
223.5200, 102.7036
224.7420, 61.19141
225.9640, 80.64331
227.1850, 80.06055
228.4070, 56.44165
229.6280, 5.782715
230.8490, 20.07336
232.0700, 7.317627
233.2910, 36.48706
234.5120, 37.35083
235.7320, 25.27246
236.9530, 34.24768
238.1730, 79.27722
239.3930, 50.37170
240.6130, 15.52222
241.8320, 78.72009
243.0520, 88.98120
244.2710, 99.30981
245.4900, 120.7117
246.7090, 120.1952
247.9280, 133.5392
249.1470, 96.42615
250.3650, 134.1737
251.5840, 132.0176
252.8020, 98.95752
254.0200, 103.9834
255.2370, 121.0945
256.4550, 106.2920
257.6720, 117.5682
258.8900, 63.92297
260.1070, 109.3397
261.3240, 90.82654
262.5400, 72.37598
263.7570, 117.9805
264.9730, 75.64832
266.1900, 58.36670
267.4060, 35.12854
268.6220, 54.92554
269.8370, 52.76025
271.0530, 42.62939
272.2680, 45.52881
273.4830, 53.45715
274.6980, 42.41504
275.9130, 29.39832
277.1280, 12.59766
278.3420, 57.58276
279.5570, 69.55957
280.7710, 121.5260
281.9850, 100.4781
283.1990, 134.4026
284.4120, 178.3019
285.6260, 216.1731
286.8390, 239.0188
288.0520, 372.8082
289.2650, 346.5238
290.4780, 466.1575
291.6910, 555.6938
292.9030, 591.1578
294.1160, 588.5148
295.3280, 618.7505
296.5400, 701.8591
297.7510, 777.8567
298.9630, 820.6958
300.1740, 853.5476
301.3860, 925.2572
302.5970, 976.9017
303.8080, 1027.114
305.0180, 1042.017
306.2290, 1085.523
307.4390, 1072.007
308.6500, 1092.480
309.8600, 1117.905
311.0700, 1141.426
312.2790, 1159.943
313.4890, 1197.494
314.6980, 1207.081
315.9080, 1215.830
317.1170, 1203.366
318.3250, 1213.064
319.5340, 1211.801
320.7430, 1199.578
321.9510, 1177.399
323.1590, 1165.258
324.3670, 1115.157
325.5750, 1182.100
326.7830, 1108.086
327.9900, 1095.116
329.1980, 1030.191
330.4050, 1031.312
331.6120, 1061.479
332.8190, 1053.695
334.0250, 984.9570
335.2320, 964.2676
336.4380, 960.6277
337.6440, 1018.037
338.8500, 1055.497
340.0560, 1063.007
341.2620, 1124.569
342.4670, 1120.182
343.6730, 1178.848
344.8780, 1209.545
346.0830, 1263.275
347.2870, 1357.038
348.4920, 1326.836
349.6970, 1369.668
350.9010, 1528.536
352.1050, 1583.440
353.3090, 1680.383
354.5130, 1717.364
355.7160, 1881.381
356.9200, 2025.436
358.1230, 2151.157
359.3260, 2310.049
360.5290, 2464.840
361.7320, 2621.793
362.9340, 2782.928
364.1370, 2976.621
365.3390, 3278.035
366.5410, 3577.725
367.7430, 4029.372
368.9450, 4559.174
370.1460, 4887.873
371.3480, 5392.309
372.5490, 5960.839
373.7500, 6724.710
374.9510, 7611.368
376.1520, 8514.912
377.3520, 9641.910
378.5520, 10811.47
379.7530, 12316.12
380.9530, 13857.63
382.1530, 15635.74
383.3520, 17737.25
384.5520, 20156.71
385.7510, 22585.35
386.9500, 25485.39
388.1490, 28391.98
389.3480, 31596.09
390.5470, 35005.03
391.7450, 38289.20
392.9440, 41597.72
394.1420, 44419.72
395.3400, 46794.59
396.5380, 48348.77
397.7350, 48696.14
398.9330, 48018.41
400.1300, 46068.85
401.3270, 42992.35
402.5240, 38966.37
403.7210, 34858.74
404.9180, 30799.64
406.1140, 26883.82
407.3110, 23196.29
408.5070, 19894.29
409.7030, 17094.98
410.8990, 14892.89
412.0940, 12761.37
413.2900, 11204.91
414.4850, 9826.791
415.6800, 8515.447
416.8750, 7594.142
418.0700, 6620.599
419.2650, 5856.854
420.4590, 5280.017
421.6530, 4590.213
422.8470, 4225.519
424.0410, 3770.905
425.2350, 3405.374
426.4290, 3165.925
427.6220, 2731.559
428.8160, 2526.277
430.0090, 2236.078
431.2020, 2087.965
432.3940, 1750.937
433.5870, 1630.994
434.7790, 1424.139
435.9720, 1244.372
437.1640, 1114.692
438.3560, 997.1079
439.5470, 836.6313
440.7390, 768.2603
441.9300, 742.0088
443.1220, 590.8750
444.3130, 607.8669
445.5040, 577.9868
446.6940, 481.2441
447.8850, 494.6316
449.0750, 356.1606
450.2660, 356.8252
451.4560, 372.6245
452.6460, 218.5642
453.8350, 226.6445
455.0250, 245.8674
456.2140, 181.2339
457.4040, 105.7366
458.5930, 105.3843
459.7820, 106.1760
460.9700, 62.11548
462.1590, 77.21045
463.3470, 46.45386
464.5350, 11.84399
465.7240, 106.3723
466.9110, 83.04053
468.0990, 161.8623
469.2870, 194.8342
470.4740, 225.9478
471.6610, 301.1899
472.8480, 342.5564
474.0350, 332.0493
475.2220, 529.6648
476.4090, 534.3950
477.5950, 624.2344
478.7810, 785.1868
479.9670, 851.2507
481.1530, 856.4204
482.3390, 1103.694
483.5240, 1244.071
484.7100, 1308.547
485.8950, 1672.124
487.0800, 1779.800
488.2650, 2075.576
489.4490, 2173.453
490.6340, 2497.430
491.8180, 2746.508
493.0030, 3188.685
494.1870, 3391.964
495.3700, 3833.343
496.5540, 4524.820
497.7380, 5112.399
498.9210, 5800.079
500.1040, 6584.860
501.2870, 7704.741
502.4700, 8926.720
503.6530, 10241.80
504.8350, 11787.99
506.0180, 14032.27
507.2000, 16399.66
508.3820, 19111.15
509.5640, 22058.75
510.7450, 25253.47
511.9270, 28119.28
513.1080, 30406.21
514.2890, 32152.23
515.4700, 32737.38
516.6510, 32898.61
517.8320, 32085.97
519.0130, 31414.45
520.1930, 29612.05
521.3730, 28091.77
522.5530, 26246.62
523.7330, 24213.59
524.9130, 22097.70
526.0920, 20221.93
527.2710, 18238.30
528.4510, 16619.79
529.6300, 15136.41
530.8080, 13785.18
531.9870, 12342.07
533.1660, 11339.12
534.3440, 10328.31
535.5220, 9315.641
536.7000, 8784.114
537.8780, 8023.728
539.0560, 7349.488
540.2330, 6829.381
541.4110, 6087.411
542.5880, 5661.577
543.7650, 5239.878
544.9420, 4694.315
546.1180, 4296.875
547.2950, 4115.566
548.4710, 3629.387
549.6470, 3488.327
550.8230, 3078.400
551.9990, 2887.595
553.1750, 2687.905
554.3500, 2497.324
555.5260, 2232.856
556.7010, 2124.501
557.8760, 1941.254
559.0510, 1780.115
560.2250, 1702.085
561.4000, 1569.161
562.5740, 1458.339
563.7480, 1386.609
564.9220, 1255.971
566.0960, 1182.422
567.2700, 1087.962
568.4430, 1031.593
569.6170, 1048.312
570.7900, 906.1191
571.9630, 899.0149
573.1360, 797.9985
574.3080, 796.0691
575.4810, 763.2268
576.6530, 680.4707
577.8250, 593.8003
578.9980, 576.9443
580.1690, 541.9536
581.3410, 485.9766
582.5130, 424.8171
583.6840, 418.8716
584.8550, 364.6711
586.0260, 372.8691
587.1970, 322.3418
588.3680, 297.9897
589.5380, 276.2087
590.7080, 273.6912
591.8790, 242.7629
593.0490, 304.4368
594.2190, 299.5879
595.3880, 338.9167
596.5580, 326.2693
597.7270, 401.5803
598.8960, 309.6089
600.0650, 322.4766
601.2340, 370.1895
602.4030, 398.8799
603.5710, 415.9109
604.7400, 404.5400
605.9080, 449.3220
607.0760, 542.3391
608.2440, 509.8525
609.4120, 680.4722
610.5790, 671.1340
611.7460, 802.8164
612.9140, 785.4248
614.0810, 864.7178
615.2480, 917.1157
616.4140, 1008.379
617.5810, 1174.171
618.7470, 1269.606
619.9130, 1448.553
621.0790, 1650.501
622.2450, 1788.122
623.4110, 2043.320
624.5770, 2337.296
625.7420, 2626.319
626.9070, 2934.388
628.0720, 3352.503
629.2370, 3686.662
630.4020, 4134.866
631.5660, 4452.114
632.7310, 4959.405
633.8950, 5234.738
635.0590, 5558.113
636.2230, 5903.531
637.3870, 5833.988
638.5500, 5940.483
639.7140, 5895.021
640.8770, 5525.598
642.0400, 5129.212
643.2030, 4789.863
644.3660, 4364.553
645.5280, 3914.277
646.6910, 3592.039
647.8530, 3124.836
649.0150, 2948.667
650.1770, 2514.532
651.3390, 2198.430
652.5000, 1997.361
653.6620, 1771.325
654.8230, 1541.320
655.9840, 1433.347
657.1450, 1302.405
658.3060, 1147.492
659.4660, 950.6143
660.6270, 932.7644
661.7870, 822.9458
662.9470, 770.1538
664.1070, 722.3877
665.2670, 669.6489
666.4260, 560.9363
667.5860, 575.2473
668.7450, 508.5833
669.9040, 446.9426
671.0630, 471.3262
672.2220, 437.7300
673.3800, 316.1531
674.5390, 299.5945
675.6970, 294.0571
676.8550, 288.5369
678.0130, 297.0334
679.1710, 292.1909
680.3290, 296.0757
681.4860, 279.6184
682.6430, 252.1743
683.8000, 214.7451
684.9570, 218.3311
686.1140, 211.9272
687.2710, 290.5359
688.4270, 250.1541
689.5840, 287.7812
690.7400, 341.4163
691.8960, 313.0586
693.0520, 335.7075
694.2070, 328.3616
695.3630, 333.0208
696.5180, 334.6833
697.6730, 334.3494
698.8280, 379.0195
699.9830, 363.2456
701.1380, 358.3650
702.2920, 349.0400
703.4470, 308.7153
704.6010, 275.3901
705.7550, 217.0635
706.9090, 200.7356
708.0620, 209.4062
709.2160, 102.0736
710.3690, 100.7378
711.5220, 153.3978
712.6750, 64.05273
713.8280, 45.70215
714.9810, 25.34473
716.1340, 35.97961
717.2860, 2.713867
718.4380, 46.78516
719.5900, 31.22083
720.7420, 80.69495
721.8940, 69.23364
723.0450, 94.83362
724.1970, 97.50891
725.3480, 132.2634
726.4990, 97.11548
727.6500, 137.0487
728.8010, 110.0845
729.9510, 103.2117
731.1020, 116.2899
732.2520, 120.7435
733.4020, 120.1595
734.5520, 122.1433
735.7020, 90.60107
736.8510, 121.0284
738.0010, 114.8591
739.1500, 124.7988
740.2990, 152.8547
741.4480, 123.0403
742.5970, 113.3442
743.7450, 80.76111
744.8940, 81.27734
746.0420, 133.8949
747.1900, 116.6431
748.3380, 82.51379
749.4860, 31.49097
750.6330, 10.54932
751.7810, 19.67883
752.9280, 1.885864
754.0750, 36.83813
755.2220, 64.51013
756.3690, 45.13818
757.5160, 60.71436
758.6620, 95.24304
759.8090, 112.7332
760.9550, 140.1880
762.1010, 187.6118
763.2470, 199.0084
764.3920, 236.3772
765.5380, 287.7183
766.6830, 317.0652
767.8280, 327.3502
768.9730, 366.6064
770.1180, 362.8340
771.2630, 463.0319
772.4070, 493.1997
773.5520, 567.3462
774.6960, 589.4531
775.8400, 627.5317
776.9840, 751.5767
778.1280, 734.6725
779.2710, 896.6542
780.4140, 849.6035
781.5580, 926.5205
782.7010, 985.4514
783.8440, 1050.302
784.9860, 1118.261
786.1290, 1181.168
787.2710, 1247.802
788.4140, 1309.582
789.5560, 1354.263
790.6980, 1392.627
791.8390, 1421.237
792.9810, 1435.898
794.1220, 1452.439
795.2640, 1447.176
796.4050, 1447.885
797.5460, 1508.475
798.6860, 1416.888
799.8270, 1528.278
800.9680, 1461.822
802.1080, 1469.606
803.2480, 1335.466
804.3880, 1340.812
805.5280, 1332.536
806.6670, 1362.170
807.8070, 1338.028
808.9460, 1288.196
810.0850, 1301.252
811.2240, 1236.321
812.3630, 1157.089
813.5020, 1211.151
814.6400, 1105.303
815.7790, 1105.676
816.9170, 1113.754
818.0550, 1043.624
819.1930, 1059.576
820.3300, 1040.997
821.4680, 964.5991
822.6050, 949.2917
823.7430, 978.6104
824.8800, 958.3105
826.0170, 956.1353
827.1530, 920.8599
828.2900, 883.4968
829.4260, 917.1016
830.5620, 862.6245
831.6990, 886.0968
832.8340, 846.4517
833.9700, 828.8264
835.1060, 844.5109
836.2410, 792.7997
837.3760, 889.1201
838.5120, 876.6377
839.6470, 816.8208
840.7810, 837.0789
841.9160, 797.1154
843.0500, 787.3231
844.1850, 781.5765
845.3190, 771.9490
846.4530, 778.6528
847.5870, 787.6091
848.7200, 750.4451
849.8540, 780.2427
850.9870, 729.9169
852.1200, 770.5854
853.2530, 737.2238
854.3860, 764.0945
855.5190, 706.1951
856.6510, 689.8574
857.7840, 675.4810
858.9160, 685.4913
860.0480, 655.8824
861.1800, 670.7736
862.3110, 613.5459
863.4430, 667.3848
864.5740, 642.6992
865.7060, 600.3220
866.8370, 600.8745
867.9680, 519.2804
869.0980, 532.6099
870.2290, 532.6074
871.3590, 467.5312
872.4900, 490.0205
873.6200, 437.5309
874.7500, 430.2090
875.8790, 449.9856
877.0090, 423.4270
878.1380, 388.0173
879.2680, 360.4049
880.3970, 348.2736
881.5260, 288.9609
882.6550, 320.1339
883.7830, 280.2743
884.9120, 233.3617
886.0400, 261.4298
887.1680, 284.6703
888.2960, 193.2637
889.4240, 197.8243
890.5520, 182.4119
891.6790, 210.8557
892.8070, 192.3519
893.9340, 143.3452
895.0610, 183.3619
896.1880, 153.7266
897.3140, 120.5377
898.4410, 157.6273
899.5670, 165.6842
900.6940, 126.7734
901.8200, 108.8790
902.9450, 155.0334
904.0710, 194.0665
905.1970, 175.1272
906.3220, 160.0437
907.4470, 146.9396
908.5730, 112.7692
909.6980, 138.6479
910.8220, 113.4724
911.9470, 120.2819
913.0710, 94.07739
914.1960, 122.8473
915.3200, 141.5219
916.4440, 143.1716
917.5680, 99.79602
918.6910, 132.3999
919.8150, 87.08594
920.9380, 148.8179
922.0610, 107.3450
923.1840, 93.84705
924.3070, 111.3257
925.4300, 86.79736
926.5520, 100.3157
927.6750, 50.73962
928.7970, 109.2318
929.9190, 75.58130
931.0410, 26.90479
932.1630, 80.56531
933.2840, 33.01990
934.4060, 94.25000
935.5270, 73.56763
936.6480, 53.75049
937.7690, 46.98169
938.8900, 79.11145
940.0100, 48.40576
941.1310, 51.26331
942.2510, 37.46313
943.3710, 80.59863
944.4910, 88.63342
945.6110, 81.69348
946.7310, 31.64111
947.8500, 71.67920
948.9690, 59.65015
950.0890, 41.52014
951.2080, 57.49622
952.3260, 72.44238
953.4450, 59.34363
954.5640, 28.23254
955.6820, 19.20959
956.8000, 71.00610
957.9180, 24.69922
959.0360, 58.68604
960.1540, 44.39929
961.2710, 48.03772
962.3890, 50.67749
963.5060, 48.88110
964.6230, 51.05005
965.7400, 50.68347
966.8570, 58.24414
967.9730, 49.80432
969.0900, 24.33020
970.2060, 48.05273
971.3220, 40.61194
972.4380, 23.11609
973.5540, 43.35864
974.6700, 32.82666
975.7850, 48.25208
976.9010, 27.93347
978.0160, 21.64294
979.1310, 34.02161
980.2460, 26.42285
981.3600, 29.93457
982.4750, 35.22314
983.5890, 33.44336
984.7030, 41.74658
985.8170, 36.12695
986.9310, 33.29492
988.0450, 31.52832
989.1590, 24.76599
990.2720, 34.94446
991.3850, 32.11487
992.4980, 40.04321
993.6110, 28.55042
994.7240, 46.75586
995.8370, 29.00403
996.9490, 8.257690
998.0620, 6.494873
999.1740, 11.86426
1000.286, 50.21851
1001.398, 7.374878
1002.509, 21.52063
1003.621, 60.84155
1004.732, 16.28491
1005.843, 28.74194
1006.954, 27.53076
1008.065, 30.06848
1009.176, 52.55835
1010.286, 6.828491
1011.397, 33.04114
1012.507, 3.165894
1013.617, 38.55713
1014.727, 33.23547
1015.837, 43.93860
1016.946, 32.69031
1018.056, 41.47180
1019.165, 47.32922
1020.274, 30.44525
1021.383, 27.37769
1022.492, 19.23303
1023.601, 4.170105
1024.709, 25.81824
1025.817, 42.76306
1026.926, 54.62677
1028.034, 57.78870
1029.141, 58.07611
1030.249, 54.04767
1031.357, 44.41046
1032.464, 46.77313
1033.571, 34.65491
1034.678, 24.54919
1035.785, 15.31073
1036.892, 29.44604
1037.999, 20.24091
1039.105, 45.43433
1040.211, 44.49030
1041.317, 55.27130
1042.423, 36.03784
1043.529, 42.82880
1044.635, 40.17523
1045.740, 37.31787
1046.845, 36.96039
1047.951, 59.70514
1049.056, 57.47095
1050.160, 60.13531
1051.265, 73.94659
1052.370, 28.53900
1053.474, 15.99792
1054.578, 81.67712
1055.682, 58.23749
1056.786, 85.23584
1057.890, 49.89069
1058.993, 32.35339
1060.097, 48.94659
1061.200, 24.80432
1062.303, 85.36456
1063.406, 71.71509
1064.509, 3.036377
1065.612, 11.40668
1066.714, 61.87823
1067.816, 24.85217
1068.919, 53.08154
1070.021, 32.02905
1071.122, 48.91077
1072.224, 9.232239
1073.326, 11.90179
1074.427, 13.01843
1075.528, 19.72516
1076.629, 38.01416
1077.730, 26.43292
1078.831, 50.81012
1079.931, 18.34839
1081.032, 28.54443
1082.132, 48.60297
1083.232, 14.42047
1084.332, 15.45905
1085.432, 20.69208
1086.531, 17.76111
1087.631, 0.3129880
1088.730, 24.63495
1089.829, 44.81879
1090.928, 3.670715
1092.027, 26.40894
1093.126, 38.32025
1094.224, 32.27966
1095.323, 20.27875
1096.421, 6.261719
1097.519, 17.27795
1098.617, 29.29639
1099.715, 24.38416
1100.812, 27.32147
1101.910, 2.934998
1103.007, 8.072998
1104.104, 16.00031
1105.201, 15.31799
1106.298, 13.64606
1107.394, 18.48639
1108.491, 5.500061
1109.587, 6.707825
1110.683, 13.98877
1111.779, 3.870544
1112.875, 3.333801
1113.971, 20.51306
1115.066, 9.431824
1116.162, 30.34021
1117.257, 1.676331
1118.352, 31.26349
1119.447, 11.18567
1120.542, 7.098328
1121.636, 20.95282
1122.731, 10.90546
1123.825, 17.83984
1124.919, 21.84589
1126.013, 21.76093
1127.107, 15.81128
1128.200, 20.73920
1129.294, 28.45715
1130.387, 3.161377
1131.480, 11.94104
1132.573, 5.000244
1133.666, 10.75055
1134.759, 38.12567
1135.851, 14.18445
1136.944, 18.02124
1138.036, 6.036499
1139.128, 11.89154
1140.220, 30.83881
1141.312, 9.868042
1142.403, 4.720764
1143.495, 1.776367
1144.586, 7.795105
1145.677, 24.75055
1146.768, 25.30518
1147.859, 23.68494
1148.950, 25.56110
1150.040, 14.50653
1151.130, 4.530396
1152.221, 3.352234
1153.311, 25.21442
1154.401, 8.022217
1155.490, 30.30200
1156.580, 5.510498
1157.669, 49.61383
1158.759, 8.744019
1159.848, 28.11469
1160.937, 6.033691
1162.025, 9.192749
1163.114, 9.397949
1164.202, 18.60687
1165.291, 4.113892
1166.379, 24.78662
1167.467, 5.623291
1168.555, 19.05322
1169.642, 7.331421
1170.730, 4.606995
1171.817, 14.10327
1172.905, 12.84698
1173.992, 6.508240
1175.078, 14.89587
1176.165, 11.85577
1177.252, 14.50220
1178.338, 7.143005
1179.425, 0.8466190
1180.511, 21.54297
1181.597, 20.76752
1182.682, 35.90540
1183.768, 29.46747
1184.854, 7.952087
1185.939, 32.60956
1187.024, 7.738770
1188.109, 6.902771
1189.194, 22.52026
1190.279, 11.05945
1191.363, 51.66199
1192.448, 20.16309
1193.532, 12.77643
1194.616, 33.38623
1195.700, 3.623596
1196.784, 28.03619
1197.867, 8.360718
1198.951, 45.12280
1200.034, 31.71399
1201.117, 18.22577
1202.200, 24.80792
1203.283, 39.19611
1204.366, 27.98993
1205.448, 14.41071
1206.531, 28.86365
1207.613, 13.38898
1208.695, 8.860596
1209.777, 37.41595
1210.859, 33.90002
1211.940, 50.37457
1213.022, 24.92200
1214.103, 43.33405
1215.184, 22.74799
1216.265, 40.18024
1217.346, 32.59735
1218.427, 30.89697
1219.507, 57.34998
1220.587, 51.87994
1221.668, 41.08734
1222.748, 29.54224
1223.828, 38.04480
1224.907, 43.53888
1225.987, 51.96277
1227.066, 55.60742
1228.146, 66.72699
1229.225, 61.17981
1230.304, 78.61151
1231.382, 79.05249
1232.461, 75.27051
1233.540, 81.31140
1234.618, 80.01508
1235.696, 74.63867
1236.774, 68.01312
1237.852, 68.82086
1238.930, 57.51953
