##NAMES=Anatase
##RRUFFID=R060277
##IDEAL CHEMISTRY=Ti^4+^O_2_
##LOCALITY=Taftan, near Dalbandi, Baluchistan Province, Pakistan
##OWNER=RRUFF
##SOURCE=Herb Obodda
##DESCRIPTION=Dark brown tetragonal tabular crystals
##STATUS=The identification of this mineral is confirmed by single-crystal X-ray diffraction and chemical analysis.
##URL=rruff.info/R060277
##MEASURED CHEMISTRY=Ti_1.00_O_2_
##PIN_ID=L01480
##ORIENTATION=Laser parallel to c* (0 0 1). Fiducial mark perpendicular to laser is parallel to [1 1 0]
50.72400, 0.0000000E+00
51.97000, 3.938873
53.21600, 5.583466
54.46200, 13.11032
55.70800, 12.04752
56.95400, 6.915222
58.19900, 7.061188
59.44500, 2.272186
60.69000, 1.124756
61.93500, 1.948730
63.17900, 1.052643
64.42400, 7.108551
65.66800, 1.402924
66.91300, 5.813538
68.15700, 7.467712
69.40100, 25.47269
70.64400, 38.74585
71.88800, 64.21875
73.13100, 91.16135
74.37400, 119.6407
75.61700, 163.7109
76.86000, 197.1880
78.10300, 254.1349
79.34500, 240.5219
80.58800, 260.2428
81.83000, 310.1826
83.07200, 341.2515
84.31400, 358.3788
85.55500, 436.5098
86.79700, 455.6013
88.03800, 578.6207
89.27900, 602.5516
90.52000, 666.3876
91.76100, 735.1233
93.00100, 766.7686
94.24200, 840.3237
95.48200, 878.9491
96.72200, 944.7916
97.96200, 969.0976
99.20200, 1023.179
100.4410, 1063.216
101.6810, 1120.102
102.9200, 1179.711
104.1590, 1216.880
105.3980, 1252.318
106.6360, 1406.784
107.8750, 1461.012
109.1130, 1464.776
110.3510, 1583.081
111.5890, 1620.955
112.8270, 1761.423
114.0650, 1799.508
115.3020, 1891.228
116.5390, 2036.604
117.7770, 2181.627
119.0130, 2380.391
120.2500, 2601.836
121.4870, 2835.000
122.7230, 3136.898
123.9590, 3500.544
125.1950, 3900.979
126.4310, 4658.301
127.6670, 5447.514
128.9030, 6388.617
130.1380, 7856.615
131.3730, 9309.511
132.6080, 11351.31
133.8430, 13843.21
135.0780, 16921.88
136.3120, 20920.42
137.5470, 26022.36
138.7810, 32345.61
140.0150, 39782.08
141.2480, 46091.75
142.4820, 51098.33
143.7160, 51802.10
144.9490, 47315.76
146.1820, 38981.52
147.4150, 29857.26
148.6480, 22212.96
149.8800, 16217.57
151.1130, 12236.33
152.3450, 9459.112
153.5770, 7521.915
154.8090, 6128.189
156.0410, 5086.137
157.2720, 4398.077
158.5040, 3761.132
159.7350, 3303.620
160.9660, 2885.233
162.1970, 2597.891
163.4270, 2332.378
164.6580, 2096.328
165.8880, 1946.165
167.1180, 1843.000
168.3480, 1659.831
169.5780, 1558.660
170.8080, 1451.483
172.0370, 1365.301
173.2670, 1253.109
174.4960, 1200.905
175.7250, 1090.685
176.9540, 1026.630
178.1820, 1014.184
179.4110, 913.9001
180.6390, 874.5917
181.8670, 866.2596
183.0950, 790.9105
184.3230, 767.5556
185.5500, 761.1954
186.7780, 748.8328
188.0050, 723.4586
189.2320, 690.0699
190.4590, 704.6686
191.6850, 769.2565
192.9120, 778.8348
194.1380, 986.4057
195.3650, 1039.971
196.5910, 1206.531
197.8160, 1135.089
199.0420, 983.0934
200.2680, 739.0231
201.4930, 606.8827
202.7180, 489.7013
203.9430, 422.4506
205.1680, 347.1490
206.3930, 331.8169
207.6170, 313.4515
208.8410, 266.0286
210.0660, 239.6734
211.2890, 221.4252
212.5130, 189.9324
213.7370, 178.6873
214.9600, 178.4554
216.1840, 135.2178
217.4070, 143.9718
218.6300, 183.7169
219.8520, 162.4525
221.0750, 147.1782
222.2970, 127.8927
223.5200, 118.5946
224.7420, 85.28137
225.9640, 81.94788
227.1850, 67.59204
228.4070, 65.21082
229.6280, 64.80310
230.8490, 55.36865
232.0700, 56.90601
233.2910, 1.415771
234.5120, 23.88721
235.7320, 5.326416
236.9530, 19.27014
238.1730, 3.907593
239.3930, 39.58154
240.6130, 48.29968
241.8320, 41.06372
243.0520, 45.87146
244.2710, 64.72498
245.4900, 98.63062
246.7090, 79.60034
247.9280, 84.63293
249.1470, 88.73267
250.3650, 65.90320
251.5840, 99.14099
252.8020, 67.45496
254.0200, 78.83679
255.2370, 76.28796
256.4550, 98.80493
257.6720, 98.01990
258.8900, 62.04285
260.1070, 94.74951
261.3240, 85.51672
262.5400, 58.34009
263.7570, 74.21021
264.9730, 45.12939
266.1900, 49.08826
267.4060, 36.08557
268.6220, 34.11658
269.8370, 37.17871
271.0530, 37.27100
272.2680, 31.39160
273.4830, 15.53821
274.6980, 8.294678
275.9130, 14.11328
277.1280, 27.92017
278.3420, 40.71924
279.5570, 63.51270
280.7710, 108.2999
281.9850, 143.0828
283.1990, 233.8621
284.4120, 243.6351
285.6260, 257.3914
286.8390, 333.1252
288.0520, 438.8365
289.2650, 454.5083
290.4780, 553.1355
291.6910, 580.7018
292.9030, 690.1860
294.1160, 757.5933
295.3280, 763.8983
296.5400, 905.1057
297.7510, 954.2241
298.9630, 1002.254
300.1740, 1049.204
301.3860, 1100.065
302.5970, 1125.856
303.8080, 1133.584
305.0180, 1276.264
306.2290, 1227.910
307.4390, 1269.530
308.6500, 1237.130
309.8600, 1326.732
311.0700, 1339.353
312.2790, 1342.122
313.4890, 1458.348
314.6980, 1409.886
315.9080, 1403.942
317.1170, 1509.186
318.3250, 1422.095
319.5340, 1366.339
320.7430, 1417.957
321.9510, 1317.848
323.1590, 1325.772
324.3670, 1349.729
325.5750, 1301.720
326.7830, 1245.746
327.9900, 1253.808
329.1980, 1194.906
330.4050, 1104.041
331.6120, 1090.212
332.8190, 1042.017
334.0250, 1155.669
335.2320, 1010.954
336.4380, 1064.279
337.6440, 1095.644
338.8500, 1043.048
340.0560, 1074.493
341.2620, 1040.979
342.4670, 1088.506
343.6730, 1072.074
344.8780, 1189.669
346.0830, 1190.292
347.2870, 1197.942
348.4920, 1208.620
349.6970, 1271.327
350.9010, 1256.065
352.1050, 1370.833
353.3090, 1343.630
354.5130, 1340.460
355.7160, 1396.322
356.9200, 1523.214
358.1230, 1530.139
359.3260, 1557.097
360.5290, 1698.087
361.7320, 1651.004
362.9340, 1799.033
364.1370, 1928.123
365.3390, 2079.247
366.5410, 2238.405
367.7430, 2374.502
368.9450, 2660.548
370.1460, 2854.975
371.3480, 3162.394
372.5490, 3377.474
373.7500, 3852.558
374.9510, 4315.712
376.1520, 4615.635
377.3520, 5271.697
378.5520, 5914.308
379.7530, 6633.193
380.9530, 7528.215
382.1530, 8596.898
383.3520, 9660.579
384.5520, 10861.27
385.7510, 12195.55
386.9500, 13773.36
388.1490, 15367.99
389.3480, 16994.62
390.5470, 18951.31
391.7450, 20555.30
392.9440, 22641.10
394.1420, 23966.79
395.3400, 25264.92
396.5380, 25910.24
397.7350, 26115.53
398.9330, 25446.29
400.1300, 24394.33
401.3270, 22434.18
402.5240, 20437.21
403.7210, 18111.49
404.9180, 15903.00
406.1140, 13648.19
407.3110, 11777.12
408.5070, 10173.27
409.7030, 8830.270
410.8990, 7565.194
412.0940, 6593.033
413.2900, 5639.145
414.4850, 5002.232
415.6800, 4309.478
416.8750, 3859.226
418.0700, 3347.032
419.2650, 3003.267
420.4590, 2677.925
421.6530, 2322.222
422.8470, 2104.722
424.0410, 1868.289
425.2350, 1605.921
426.4290, 1505.619
427.6220, 1301.385
428.8160, 1202.217
430.0090, 1060.117
431.2020, 875.0845
432.3940, 782.1208
433.5870, 665.2261
434.7790, 534.4004
435.9720, 470.6455
437.1640, 387.9612
438.3560, 283.3481
439.5470, 283.8074
440.7390, 221.3428
441.9300, 245.9534
443.1220, 214.6582
444.3130, 171.4619
445.5040, 128.3625
446.6940, 105.3689
447.8850, 81.48340
449.0750, 75.70874
450.2660, 28.05078
451.4560, 23.50195
452.6460, 62.05713
453.8350, 31.71899
455.0250, 16.49731
456.2140, 59.58032
457.4040, 81.54810
458.5930, 40.40259
459.7820, 54.14136
460.9700, 98.76514
462.1590, 49.28076
463.3470, 76.68750
464.5350, 36.01831
465.7240, 13.83691
466.9110, 87.77710
468.0990, 58.83936
469.2870, 222.0200
470.4740, 294.3198
471.6610, 295.7336
472.8480, 404.2456
474.0350, 423.8640
475.2220, 659.5815
476.4090, 679.3943
477.5950, 764.3059
478.7810, 912.3115
479.9670, 948.4077
481.1530, 1146.586
482.3390, 1331.848
483.5240, 1459.191
484.7100, 1628.617
485.8950, 1815.124
487.0800, 2060.712
488.2650, 2217.383
489.4490, 2455.133
490.6340, 2849.967
491.8180, 3056.882
493.0030, 3398.877
494.1870, 3863.957
495.3700, 4491.117
496.5540, 4971.360
497.7380, 5668.684
498.9210, 6385.090
500.1040, 7156.578
501.2870, 8270.148
502.4700, 9340.799
503.6530, 10887.54
504.8350, 12371.35
506.0180, 14364.25
507.2000, 16603.23
508.3820, 19183.30
509.5640, 22015.44
510.7450, 24918.67
511.9270, 28071.98
513.1080, 30284.38
514.2890, 32697.86
515.4700, 34147.43
516.6510, 34977.10
517.8320, 35075.85
519.0130, 34873.70
520.1930, 33705.62
521.3730, 32128.64
522.5530, 30243.77
523.7330, 28077.99
524.9130, 26032.32
526.0920, 23857.74
527.2710, 21879.27
528.4510, 20071.92
529.6300, 18235.67
530.8080, 16622.53
531.9870, 15108.50
533.1660, 13605.60
534.3440, 12771.81
535.5220, 11495.14
536.7000, 10700.59
537.8780, 9822.151
539.0560, 8929.828
540.2330, 8260.620
541.4110, 7593.525
542.5880, 6995.542
543.7650, 6318.676
544.9420, 6015.928
546.1180, 5348.287
547.2950, 5064.761
548.4710, 4660.348
549.6470, 4291.040
550.8230, 4024.838
551.9990, 3718.739
553.1750, 3479.740
554.3500, 3283.838
555.5260, 2992.033
556.7010, 2843.324
557.8760, 2525.710
559.0510, 2508.190
560.2250, 2199.759
561.4000, 2231.411
562.5740, 1976.144
563.7480, 1878.955
564.9220, 1735.842
566.0960, 1683.804
567.2700, 1547.840
568.4430, 1547.953
569.6170, 1415.139
570.7900, 1328.400
571.9630, 1258.734
573.1360, 1139.143
574.3080, 1076.625
575.4810, 1046.180
576.6530, 1071.807
577.8250, 965.5071
578.9980, 967.2793
580.1690, 950.1230
581.3410, 875.3806
582.5130, 831.4265
583.6840, 767.5908
584.8550, 761.7212
586.0260, 703.9119
587.1970, 697.0652
588.3680, 616.1587
589.5380, 663.9280
590.7080, 621.0186
591.8790, 586.3271
593.0490, 606.6396
594.2190, 557.0000
595.3880, 616.1697
596.5580, 572.5034
597.7270, 576.0852
598.8960, 661.6638
600.0650, 629.0955
601.2340, 607.7661
602.4030, 627.3831
603.5710, 674.5757
604.7400, 711.9412
605.9080, 690.3638
607.0760, 791.8918
608.2440, 805.5356
609.4120, 864.3022
610.5790, 959.4229
611.7460, 988.2012
612.9140, 1026.471
614.0810, 1103.389
615.2480, 1185.910
616.4140, 1297.583
617.5810, 1414.904
618.7470, 1477.304
619.9130, 1664.989
621.0790, 1899.938
622.2450, 2069.172
623.4110, 2145.179
624.5770, 2473.191
625.7420, 2718.246
626.9070, 2944.342
628.0720, 3378.481
629.2370, 3784.660
630.4020, 4117.880
631.5660, 4583.140
632.7310, 4998.442
633.8950, 5332.781
635.0590, 5756.161
636.2230, 5993.577
637.3870, 5915.033
638.5500, 6087.524
639.7140, 6002.055
640.8770, 5759.620
642.0400, 5480.223
643.2030, 5126.861
644.3660, 4516.535
645.5280, 4189.242
646.6910, 3772.985
647.8530, 3337.762
649.0150, 3091.573
650.1770, 2696.417
651.3390, 2441.295
652.5000, 2186.205
653.6620, 1951.146
654.8230, 1778.118
655.9840, 1642.120
657.1450, 1463.152
658.3060, 1322.214
659.4660, 1267.303
660.6270, 1107.422
661.7870, 967.5688
662.9470, 933.7432
664.1070, 933.9465
665.2670, 776.1782
666.4260, 809.4358
667.5860, 647.7200
668.7450, 566.0298
669.9040, 570.3660
671.0630, 576.7261
672.2220, 498.1113
673.3800, 524.5205
674.5390, 473.9519
675.6970, 461.4048
676.8550, 404.8794
678.0130, 410.3750
679.1710, 364.8904
680.3290, 425.4255
681.4860, 441.9814
682.6430, 386.5547
683.8000, 409.1440
684.9570, 416.7502
686.1140, 404.3726
687.2710, 401.0105
688.4270, 420.6616
689.5840, 507.3269
690.7400, 450.0049
691.8960, 457.6958
693.0520, 391.4006
694.2070, 477.1160
695.3630, 525.8452
696.5180, 542.5845
697.6730, 529.3328
698.8280, 495.0886
699.9830, 522.8518
701.1380, 463.6221
702.2920, 506.3984
703.4470, 432.1807
704.6010, 419.9680
705.7550, 392.7605
706.9090, 339.5576
708.0620, 257.3586
709.2160, 281.1637
710.3690, 231.9729
711.5220, 176.7850
712.6750, 160.6031
713.8280, 102.4227
714.9810, 93.24353
716.1340, 54.06592
717.2860, 86.88965
718.4380, 63.71387
719.5900, 22.53662
720.7420, 35.35181
721.8940, 45.83813
723.0450, 59.06409
724.1970, 48.33154
725.3480, 78.64526
726.4990, 83.01746
727.6500, 91.45483
728.8010, 110.9602
729.9510, 77.54822
731.1020, 51.20264
732.2520, 61.91333
733.4020, 117.6858
734.5520, 170.5491
735.7020, 111.5308
736.8510, 113.5996
738.0010, 99.75708
739.1500, 103.9995
740.2990, 94.32935
741.4480, 72.73999
742.5970, 96.22522
743.7450, 64.79614
744.8940, 98.44189
746.0420, 98.18066
747.1900, 81.01392
748.3380, 84.93408
749.4860, 59.94397
750.6330, 1.967773
751.7810, 24.16907
752.9280, 1.631470
754.0750, 19.38184
755.2220, 9.089478
756.3690, 29.74878
757.5160, 49.50806
758.6620, 122.9578
759.8090, 106.5289
760.9550, 131.0803
762.1010, 171.6146
763.2470, 147.1324
764.3920, 235.6333
765.5380, 253.1172
766.6830, 297.5835
767.8280, 375.0322
768.9730, 361.4631
770.1180, 368.8766
771.2630, 458.3016
772.4070, 533.6781
773.5520, 558.0354
774.6960, 608.3739
775.8400, 665.6931
776.9840, 722.9924
778.1280, 817.2720
779.2710, 892.6436
780.4140, 982.8862
781.5580, 1016.104
782.7010, 1086.302
783.8440, 1113.530
784.9860, 1227.881
786.1290, 1231.332
787.2710, 1266.521
788.4140, 1360.759
789.5560, 1337.960
790.6980, 1463.014
791.8390, 1473.035
792.9810, 1477.030
794.1220, 1486.081
795.2640, 1555.029
796.4050, 1505.964
797.5460, 1545.105
798.6860, 1494.169
799.8270, 1509.063
800.9680, 1536.447
802.1080, 1478.887
803.2480, 1533.779
804.3880, 1409.985
805.5280, 1406.095
806.6670, 1383.452
807.8070, 1331.465
808.9460, 1323.731
810.0850, 1258.989
811.2240, 1279.883
812.3630, 1274.760
813.5020, 1187.839
814.6400, 1143.952
815.7790, 1118.718
816.9170, 1129.785
818.0550, 1049.087
819.1930, 1060.753
820.3300, 1031.325
821.4680, 1016.143
822.6050, 942.9127
823.7430, 972.6544
824.8800, 949.0608
826.0170, 940.7581
827.1530, 945.2454
828.2900, 890.8328
829.4260, 940.7667
830.5620, 873.1511
831.6990, 870.1616
832.8340, 831.6090
833.9700, 864.8657
835.1060, 900.9280
836.2410, 909.0195
837.3760, 895.0808
838.5120, 815.1140
839.6470, 845.1494
840.7810, 812.0906
841.9160, 807.0977
843.0500, 830.0837
844.1850, 726.0149
845.3190, 740.0643
846.4530, 714.1555
847.5870, 715.1216
848.7200, 725.6858
849.8540, 749.4854
850.9870, 747.2386
852.1200, 754.3888
853.2530, 749.1726
854.3860, 748.0298
855.5190, 729.6908
856.6510, 710.7930
857.7840, 696.1665
858.9160, 672.8877
860.0480, 659.2233
861.1800, 656.1243
862.3110, 631.9102
863.4430, 608.7112
864.5740, 585.3571
865.7060, 609.0175
866.8370, 622.6738
867.9680, 578.4565
869.0980, 537.7008
870.2290, 539.4833
871.3590, 484.9181
872.4900, 511.7883
873.6200, 502.3096
874.7500, 408.5999
875.8790, 458.5020
877.0090, 395.9438
878.1380, 372.4575
879.2680, 403.4915
880.3970, 355.3044
881.5260, 318.9890
882.6550, 275.4551
883.7830, 260.5143
884.9120, 289.8495
886.0400, 252.2537
887.1680, 237.2213
888.2960, 259.5428
889.4240, 176.3784
890.5520, 190.0442
891.6790, 212.1044
892.8070, 154.5760
893.9340, 153.2615
895.0610, 193.8896
896.1880, 139.1594
897.3140, 154.6708
898.4410, 164.1221
899.5670, 132.5785
900.6940, 170.9908
901.8200, 130.3824
902.9450, 132.7583
904.0710, 124.1653
905.1970, 158.6821
906.3220, 82.03088
907.4470, 129.3712
908.5730, 96.67419
909.6980, 119.0234
910.8220, 102.3168
911.9470, 109.5984
913.0710, 108.8385
914.1960, 66.07910
915.3200, 86.32361
916.4440, 126.5690
917.5680, 105.8191
918.6910, 73.96545
919.8150, 56.06213
920.9380, 48.11768
922.0610, 67.14929
923.1840, 59.15979
924.3070, 60.14868
925.4300, 81.11584
926.5520, 83.06299
927.6750, 93.30505
928.7970, 63.94250
929.9190, 96.89209
931.0410, 78.90698
932.1630, 49.89783
933.2840, 53.79736
934.4060, 69.66797
935.5270, 30.45435
936.6480, 26.27869
937.7690, 58.03430
938.8900, 33.87915
940.0100, 37.57324
941.1310, 23.51453
942.2510, 39.37561
943.3710, 24.00000
944.4910, 22.68921
945.6110, 40.26428
946.7310, 38.93604
947.8500, 25.48743
948.9690, 21.99561
950.0890, 39.62488
951.2080, 20.36475
952.3260, 9.911377
953.4450, 39.42993
954.5640, 44.02039
955.6820, 24.44775
956.8000, 25.98987
957.9180, 25.24915
959.0360, 47.64734
960.1540, 23.06104
961.2710, 34.33789
962.3890, 24.72668
963.5060, 7.079956
964.6230, 33.61157
965.7400, 1.943481
966.8570, 23.22205
967.9730, 34.50330
969.0900, 51.70959
970.2060, 43.89612
971.3220, 40.16016
972.4380, 45.37732
973.5540, 37.63647
974.6700, 44.47888
975.7850, 33.94556
976.9010, 32.05249
978.0160, 34.16516
979.1310, 20.28894
980.2460, 14.28711
981.3600, 20.26892
982.4750, 4.722900
983.5890, 27.37195
984.7030, 28.26514
985.8170, 7.123413
986.9310, 6.061890
988.0450, 8.959595
989.1590, 40.87970
990.2720, 21.68671
991.3850, 38.50867
992.4980, 17.75861
993.6110, 26.86511
994.7240, 28.95721
995.8370, 10.24890
996.9490, 4.588318
998.0620, 9.594666
999.1740, 24.95581
1000.286, 5.831543
1001.398, 38.02698
1002.509, 8.998291
1003.621, 14.98077
1004.732, 26.39911
1005.843, 16.95508
1006.954, 29.46460
1008.065, 19.53314
1009.176, 22.14227
1010.286, 11.13898
1011.397, 20.33386
1012.507, 20.20233
1013.617, 14.39233
1014.727, 21.30994
1015.837, 47.56812
1016.946, 59.76758
1018.056, 61.12329
1019.165, 63.11621
1020.274, 43.78674
1021.383, 55.81738
1022.492, 30.74512
1023.601, 41.16022
1024.709, 37.60797
1025.817, 6.005981
1026.926, 67.44946
1028.034, 17.83044
1029.141, 32.18738
1030.249, 34.53113
1031.357, 59.86285
1032.464, 47.19568
1033.571, 59.82495
1034.678, 66.04639
1035.785, 59.26691
1036.892, 42.44659
1037.999, 18.70215
1039.105, 46.94507
1040.211, 44.06262
1041.317, 48.26532
1042.423, 32.47748
1043.529, 41.02936
1044.635, 39.05103
1045.740, 47.45612
1046.845, 42.59717
1047.951, 36.59351
1049.056, 31.58929
1050.160, 25.69806
1051.265, 45.70172
1052.370, 52.62585
1053.474, 57.09125
1054.578, 65.95673
1055.682, 64.88910
1056.786, 70.64478
1057.890, 64.42926
1058.993, 58.33575
1060.097, 46.21289
1061.200, 64.16998
1062.303, 41.99127
1063.406, 21.91614
1064.509, 22.83167
1065.612, 39.68835
1066.714, 41.36212
1067.816, 57.25775
1068.919, 41.50458
1070.021, 51.97919
1071.122, 25.69098
1072.224, 63.01147
1073.326, 5.426392
1074.427, 11.60175
1075.528, 60.02655
1076.629, 33.20142
1077.730, 66.26721
1078.831, 25.66034
1079.931, 49.03271
1081.032, 97.16693
1082.132, 18.27155
1083.232, 1.643433
1084.332, 26.69202
1085.432, 26.45300
1086.531, 9.812683
1087.631, 38.22687
1088.730, 18.64136
1089.829, 51.49536
1090.928, 44.62231
1092.027, 20.04694
1093.126, 47.14197
1094.224, 15.40912
1095.323, 18.53766
1096.421, 2.718994
1097.519, 12.53406
1098.617, 18.12238
1099.715, 12.23492
1100.812, 25.49896
1101.910, 25.91864
1103.007, 7.270142
1104.104, 10.58667
1105.201, 39.94379
1106.298, 46.23425
1107.394, 23.41968
1108.491, 18.81494
1109.587, 13.03143
1110.683, 8.263428
1111.779, 31.33752
1112.875, 30.33069
1113.971, 19.41003
1115.066, 0.8514400
1116.162, 36.01764
1117.257, 40.19086
1118.352, 16.09711
1119.447, 20.99243
1120.542, 10.94360
1121.636, 34.22021
1122.731, 27.33655
1123.825, 52.59375
1124.919, 5.416321
1126.013, 16.68909
1127.107, 24.86658
1128.200, 15.22650
1129.294, 23.16022
1130.387, 14.39758
1131.480, 16.73425
1132.573, 6.320251
1133.666, 1.895508
1134.759, 1.878784
1135.851, 10.08466
1136.944, 11.96198
1138.036, 10.48218
1139.128, 8.195679
1140.220, 8.765869
1141.312, 7.283936
1142.403, 0.2366330
1143.495, 14.73956
1144.586, 7.266296
1145.677, 14.78253
1146.768, 19.79095
1147.859, 22.31836
1148.950, 0.5689090
1150.040, 5.534058
1151.130, 4.627747
1152.221, 14.31598
1153.311, 12.24713
1154.401, 0.2807010
1155.490, 1.281250
1156.580, 1.692200
1157.669, 1.609741
1158.759, 1.035522
1159.848, 2.403564
1160.937, 2.938843
1162.025, 2.849426
1163.114, 0.8277590
1164.202, 7.228455
1165.291, 20.72833
1166.379, 18.32324
1167.467, 24.60803
1168.555, 3.479004
1169.642, 3.211121
1170.730, 23.08197
1171.817, 6.935120
1172.905, 1.796753
1173.992, 36.58325
1175.078, 11.39783
1176.165, 28.80457
1177.252, 6.999084
1178.338, 11.77502
1179.425, 17.51837
1180.511, 23.23230
1181.597, 27.91718
1182.682, 31.80121
1183.768, 20.46228
1184.854, 38.26154
1185.939, 45.05560
1187.024, 48.24463
1188.109, 31.62744
1189.194, 29.40381
1190.279, 36.17322
1191.363, 14.89099
1192.448, 25.64740
1193.532, 17.33582
1194.616, 13.93250
1195.700, 2.473633
1196.784, 24.18286
1197.867, 2.840454
1198.951, 32.55524
1200.034, 3.796936
1201.117, 21.88916
1202.200, 31.45935
1203.283, 23.15338
1204.366, 12.57446
1205.448, 26.04663
1206.531, 16.72980
1207.613, 37.31982
1208.695, 41.99554
1209.777, 48.54846
1210.859, 43.19513
1211.940, 25.85767
1213.022, 67.37134
1214.103, 31.74860
1215.184, 45.29248
1216.265, 40.83600
1217.346, 40.28186
1218.427, 38.86572
1219.507, 49.30872
1220.587, 51.94080
1221.668, 59.54395
1222.748, 59.03949
1223.828, 42.64594
1224.907, 55.11627
1225.987, 34.59723
1227.066, 52.87317
1228.146, 43.32489
1229.225, 60.80273
1230.304, 57.25342
1231.382, 83.75610
1232.461, 50.25568
1233.540, 52.65497
1234.618, 54.07843
1235.696, 68.62354
1236.774, 84.19092
1237.852, 63.29822
1238.930, 72.74280
