##NAMES=Andalusite
##RRUFFID=R050258
##IDEAL CHEMISTRY=Al_2_SiO_5_
##LOCALITY=Bautista Canyon, near Hemet, Riverside County, California, USA
##OWNER=RRUFF
##SOURCE=Marcus Origlieri
##DESCRIPTION=Brown fragment
##STATUS=The identification of this mineral has been confirmed by X-ray diffraction and chemical analysis
##URL=rruff.info/R050258
##MEASURED CHEMISTRY=Al_2.00_Si_1.00_O_5_
##PIN_ID=L01170
##ORIENTATION=Laser parallel to a* (1 0 0). Fiducial mark perpendicular to laser is parallel to -b [0 -1 0]
113.2080, 0.0000000E+00
114.4400, 24.48730
115.6710, 87.24707
116.9030, 107.6904
118.1340, 145.0205
119.3650, 34.14258
120.5960, 51.78418
121.8270, 68.48926
123.0580, 23.07422
124.2880, 127.8369
125.5190, 92.02148
126.7490, 213.3154
127.9790, 10.58691
129.2090, 119.7305
130.4390, 100.6631
131.6680, 166.3125
132.8980, 91.60938
134.1270, 168.4951
135.3560, 199.9160
136.5850, 232.8252
137.8140, 183.1855
139.0430, 85.95996
140.2710, 119.1211
141.5000, 155.6445
142.7280, 237.5137
143.9560, 254.7061
145.1840, 67.24023
146.4120, 209.0918
147.6390, 141.2119
148.8670, 430.5898
150.0940, 69.21094
151.3210, 184.0605
152.5490, 295.1172
153.7750, 208.3672
155.0020, 235.7949
156.2290, 232.3926
157.4550, 208.6182
158.6810, 10.06152
159.9080, 173.1250
161.1340, 153.3340
162.3590, 73.68359
163.5850, 170.1680
164.8110, 207.7832
166.0360, 251.5254
167.2610, 199.4004
168.4860, 168.4092
169.7110, 156.5479
170.9360, 191.9072
172.1610, 147.2939
173.3850, 44.79688
174.6100, 200.4551
175.8340, 175.1885
177.0580, 259.7344
178.2820, 143.6631
179.5050, 215.7031
180.7290, 299.8516
181.9520, 175.1025
183.1760, 131.4570
184.3990, 220.9102
185.6220, 277.4590
186.8450, 338.0771
188.0670, 232.6963
189.2900, 420.3252
190.5120, 322.9668
191.7340, 327.6191
192.9560, 479.2900
194.1780, 435.9922
195.4000, 408.7295
196.6220, 474.5059
197.8430, 504.3232
199.0640, 540.1826
200.2860, 516.0869
201.5070, 667.0381
202.7270, 578.0801
203.9480, 897.2031
205.1690, 803.3701
206.3890, 694.5928
207.6090, 476.8643
208.8290, 471.1836
210.0490, 382.5518
211.2690, 238.9707
212.4890, 330.4404
213.7080, 207.9580
214.9280, 139.5254
216.1470, 65.14355
217.3660, 68.82617
218.5850, 165.6113
219.8030, 140.5498
221.0220, 47.65430
222.2400, 182.8516
223.4590, 36.09082
224.6770, 37.37012
225.8950, 153.6904
227.1120, 5.950195
228.3300, 104.4502
229.5480, 210.8896
230.7650, 93.37012
231.9820, 50.88867
233.1990, 297.4482
234.4160, 0.9541020
235.6330, 154.7188
236.8490, 139.4844
238.0660, 156.3086
239.2820, 84.22559
240.4980, 53.78711
241.7140, 158.2490
242.9300, 70.31836
244.1460, 6.418945
245.3610, 149.5547
246.5770, 197.7227
247.7920, 148.9238
249.0070, 205.1572
250.2220, 191.4199
251.4370, 326.7109
252.6510, 177.0332
253.8660, 284.3877
255.0800, 313.7734
256.2940, 311.1895
257.5080, 401.6377
258.7220, 438.1250
259.9360, 465.0410
261.1490, 530.1133
262.3630, 599.2803
263.5760, 574.5479
264.7890, 574.8008
266.0020, 501.1855
267.2150, 663.6904
268.4270, 713.3838
269.6400, 693.9551
270.8520, 967.7686
272.0640, 1162.672
273.2760, 1294.658
274.4880, 1450.726
275.7000, 1784.869
276.9120, 2361.087
278.1230, 2935.373
279.3340, 3414.725
280.5450, 4524.143
281.7560, 5824.002
282.9670, 7233.158
284.1780, 9360.753
285.3880, 11684.40
286.5980, 14212.11
287.8090, 17588.87
289.0190, 21207.67
290.2290, 25605.16
291.4380, 29050.76
292.6480, 30693.42
293.8570, 28975.41
295.0670, 25414.45
296.2760, 20745.53
297.4850, 16409.03
298.6930, 12076.19
299.9020, 9047.392
301.1110, 6697.647
302.3190, 4829.939
303.5270, 3867.271
304.7350, 3056.672
305.9430, 2363.109
307.1510, 2047.200
308.3580, 1980.088
309.5660, 1955.630
310.7730, 2190.206
311.9800, 2663.823
313.1870, 3373.474
314.3940, 4573.156
315.6010, 5296.871
316.8070, 6763.616
318.0130, 8705.393
319.2200, 11379.20
320.4260, 13711.55
321.6310, 14935.25
322.8370, 14898.95
324.0430, 13361.15
325.2480, 11271.39
326.4540, 9067.909
327.6590, 6858.903
328.8640, 4989.398
330.0680, 3989.443
331.2730, 3031.516
332.4780, 2321.610
333.6820, 2058.731
334.8860, 1785.877
336.0900, 1761.047
337.2940, 1369.242
338.4980, 1275.462
339.7010, 1253.705
340.9050, 1084.974
342.1080, 1017.268
343.3110, 947.5850
344.5140, 809.9277
345.7170, 939.2920
346.9200, 871.6826
348.1220, 1060.096
349.3240, 1094.532
350.5270, 1368.992
351.7290, 1513.475
352.9310, 2128.979
354.1320, 2738.508
355.3340, 3329.771
356.5350, 3956.208
357.7370, 4955.676
358.9380, 5338.686
360.1390, 5593.529
361.3400, 5276.188
362.5400, 5070.537
363.7410, 4224.830
364.9410, 3848.649
366.1410, 3175.179
367.3410, 2723.934
368.5410, 2129.707
369.7410, 1940.498
370.9400, 1675.306
372.1400, 1487.094
373.3390, 1306.938
374.5380, 1175.797
375.7370, 1069.675
376.9360, 1013.348
378.1350, 1028.480
379.3330, 996.3906
380.5310, 936.3340
381.7300, 979.3545
382.9280, 936.2695
384.1260, 873.2588
385.3230, 752.5176
386.5210, 685.5371
387.7180, 653.5703
388.9160, 390.6191
390.1130, 445.6807
391.3100, 466.7578
392.5060, 311.8486
393.7030, 390.9551
394.9000, 470.0752
396.0960, 434.2090
397.2920, 314.3672
398.4880, 222.5391
399.6840, 223.7236
400.8800, 270.9219
402.0750, 169.1338
403.2710, 275.3604
404.4660, 176.6133
405.6610, 289.8926
406.8560, 344.2041
408.0510, 406.5381
409.2450, 439.8945
410.4400, 694.2773
411.6340, 592.6816
412.8280, 977.1055
414.0220, 1079.557
415.2160, 1126.027
416.4100, 1495.520
417.6030, 1716.033
418.7970, 1914.574
419.9900, 1655.133
421.1830, 1507.713
422.3760, 1220.309
423.5690, 1049.924
424.7610, 818.5566
425.9540, 631.2461
427.1460, 331.8730
428.3380, 316.5547
429.5300, 143.2539
430.7220, 52.96875
431.9140, 144.6992
433.1050, 43.55469
434.2970, 65.80859
435.4880, 21.07227
436.6790, 9.671875
437.8700, 80.42969
439.0610, 15.20312
440.2510, 11.00977
441.4420, 56.78906
442.6320, 80.59961
443.8220, 122.5449
445.0120, 199.3848
446.2020, 337.2363
447.3910, 374.5117
448.5810, 478.3926
449.7700, 637.2832
450.9600, 1034.189
452.1490, 1048.105
453.3370, 1022.033
454.5260, 856.7637
455.7150, 670.7148
456.9030, 493.6797
458.0910, 370.5273
459.2800, 122.6484
460.4670, 142.6602
461.6550, 45.68164
462.8430, 48.28711
464.0300, 13.24219
465.2180, 72.19727
466.4050, 0.1757810
467.5920, 236.1387
468.7790, 66.20508
469.9650, 91.71094
471.1520, 82.34570
472.3380, 51.57031
473.5250, 22.50000
474.7110, 68.45508
475.8970, 106.4199
477.0820, 127.4062
478.2680, 67.40234
479.4540, 175.4043
480.6390, 19.41797
481.8240, 113.4395
483.0090, 21.47070
484.1940, 131.5137
485.3780, 184.5684
486.5630, 149.6621
487.7470, 210.0781
488.9320, 241.9023
490.1160, 202.0352
491.3000, 180.1836
492.4830, 114.3438
493.6670, 121.5137
494.8500, 88.68750
496.0340, 19.90234
497.2170, 22.87891
498.4000, 44.26562
499.5820, 25.47461
500.7650, 53.29297
501.9480, 9.875000
503.1300, 69.04883
504.3120, 75.77539
505.4940, 18.63477
506.6760, 8.503906
507.8580, 40.37891
509.0390, 195.7207
510.2210, 102.8281
511.4020, 289.9414
512.5830, 315.0605
513.7640, 112.1855
514.9450, 89.34180
516.1250, 257.5020
517.3060, 269.6855
518.4860, 143.8711
519.6660, 101.0605
520.8460, 90.25391
522.0260, 157.4492
523.2060, 196.6484
524.3850, 195.8496
525.5650, 127.0527
526.7440, 89.25781
527.9230, 105.8574
529.1020, 94.68164
530.2810, 159.8945
531.4590, 223.1094
532.6380, 300.3281
533.8160, 327.5469
534.9940, 410.1660
536.1720, 495.2285
537.3500, 603.6113
538.5270, 729.3867
539.7050, 824.6094
540.8820, 1024.834
542.0590, 1267.330
543.2360, 1542.402
544.4130, 1912.363
545.5900, 2283.588
546.7660, 2748.498
547.9430, 3281.594
549.1190, 4035.814
550.2950, 4617.096
551.4710, 5243.756
552.6470, 5379.973
553.8220, 5154.189
554.9980, 4822.402
556.1730, 4043.672
557.3480, 3244.047
558.5230, 2681.686
559.6980, 2134.348
560.8730, 1672.807
562.0470, 1322.279
563.2220, 1122.471
564.3960, 866.6641
565.5700, 773.8516
566.7440, 759.0352
567.9170, 597.2148
569.0910, 528.3906
570.2640, 492.5625
571.4380, 378.7383
572.6110, 469.9082
573.7840, 445.0859
574.9570, 492.6250
576.1290, 426.1250
577.3020, 390.6035
578.4740, 464.8242
579.6460, 342.0645
580.8180, 159.2988
581.9900, 418.1582
583.1620, 217.3945
584.3330, 31.37695
585.5040, 247.8594
586.6760, 168.0918
587.8470, 98.67578
589.0180, 65.48633
590.1880, 402.6387
591.3590, 45.78906
592.5290, 197.9297
593.7000, 242.0664
594.8700, 6.656250
596.0400, 157.6152
597.2090, 172.8789
598.3790, 85.72852
599.5490, 176.2441
600.7180, 127.2949
601.8870, 73.39062
603.0560, 456.4785
604.2250, 318.5820
605.3940, 382.8184
606.5620, 288.0703
607.7300, 444.3340
608.8990, 380.2559
610.0670, 218.1484
611.2350, 297.0977
612.4020, 235.0391
613.5700, 289.0977
614.7370, 129.9414
615.9050, 215.1406
617.0720, 250.9023
618.2390, 203.0957
619.4060, 342.0625
620.5720, 243.3066
621.7390, 279.3477
622.9050, 299.9629
624.0710, 362.4355
625.2370, 265.3672
626.4030, 481.1992
627.5690, 338.8926
628.7340, 451.5508
629.9000, 474.9121
631.0650, 287.1484
632.2300, 268.8535
633.3950, 119.7695
634.5600, 185.5957
635.7240, 308.1465
636.8890, 350.9590
638.0530, 369.7188
639.2170, 245.6797
640.3810, 122.4785
641.5450, 306.7871
642.7080, 192.8418
643.8720, 275.7402
645.0350, 339.8145
646.1980, 220.9121
647.3610, 198.5547
648.5240, 342.4316
649.6870, 118.3359
650.8490, 263.9805
652.0120, 340.6113
653.1740, 371.2285
654.3360, 197.7246
655.4980, 292.3105
656.6600, 272.3164
657.8210, 362.8750
658.9830, 476.4199
660.1440, 574.0020
661.3050, 578.5176
662.4660, 494.2422
663.6270, 689.7266
664.7870, 638.1973
665.9480, 627.6523
667.1080, 367.0918
668.2680, 245.5137
669.4280, 335.9238
670.5880, 112.3145
671.7480, 151.6914
672.9070, 198.0527
674.0670, 37.39844
675.2260, 118.7246
676.3850, 95.03320
677.5440, 13.67383
678.7030, 95.58203
679.8610, 100.8203
681.0200, 70.04102
682.1780, 192.2441
683.3360, 24.43164
684.4940, 191.5957
685.6520, 27.74023
686.8090, 2.136719
687.9670, 165.9531
689.1240, 88.02539
690.2810, 41.07812
691.4380, 240.1113
692.5950, 112.1270
693.7520, 128.1250
694.9080, 94.10547
696.0650, 69.06641
697.2210, 44.00977
698.3770, 0.9335940
699.5330, 241.8223
700.6880, 56.69141
701.8440, 233.5449
702.9990, 166.3770
704.1550, 320.1914
705.3100, 215.9922
706.4650, 189.7754
707.6190, 252.5391
708.7740, 445.3730
709.9290, 435.6621
711.0830, 689.9980
712.2370, 658.4609
713.3910, 827.4141
714.5450, 1073.883
715.6980, 1164.707
716.8520, 1222.615
718.0050, 1394.801
719.1580, 1148.807
720.3110, 987.3457
721.4640, 791.2480
722.6170, 661.7637
723.7700, 733.0527
724.9220, 483.2480
726.0740, 454.3926
727.2260, 433.4961
728.3780, 299.9844
729.5300, 313.8633
730.6810, 206.3105
731.8330, 260.1250
732.9840, 121.0703
734.1350, 115.6660
735.2860, 117.2383
736.4370, 46.34375
737.5880, 70.32227
738.7380, 7.041016
739.8880, 173.6055
741.0390, 215.0156
742.1890, 50.77539
743.3380, 170.3770
744.4880, 228.5117
745.6380, 2.355469
746.7870, 124.7324
747.9360, 78.85742
749.0850, 41.02734
750.2340, 81.02539
751.3830, 35.07031
752.5310, 23.91406
753.6800, 120.0469
754.8280, 7.011719
755.9760, 117.8809
757.1240, 222.7500
758.2720, 101.5996
759.4190, 149.4258
760.5670, 56.22852
761.7140, 67.00586
762.8610, 36.49609
764.0080, 89.52148
765.1550, 7.892578
766.3020, 49.69141
767.4480, 73.25000
768.5950, 20.78320
769.7410, 7.281250
770.8870, 155.7422
772.0330, 175.1836
773.1780, 87.39844
774.3240, 171.9316
775.4690, 55.24219
776.6140, 163.5332
777.7590, 39.81641
778.9040, 4.080078
780.0490, 68.32031
781.1940, 134.5391
782.3380, 167.7324
783.4820, 194.9277
784.6260, 163.1113
785.7700, 267.2754
786.9140, 118.4336
788.0580, 224.5684
789.2010, 32.68555
790.3450, 363.7695
791.4880, 76.16406
792.6310, 430.8223
793.7730, 37.21289
794.9160, 281.6953
796.0590, 351.5820
797.2010, 165.4492
798.3430, 397.2969
799.4850, 124.1230
800.6270, 242.9258
801.7690, 373.7109
802.9100, 217.4766
804.0520, 336.2246
805.1930, 350.9492
806.3340, 441.6543
807.4750, 507.3418
808.6160, 392.0098
809.7560, 365.6562
810.8970, 247.2852
812.0370, 579.4941
813.1770, 504.0840
814.3170, 687.6543
815.4570, 570.6523
816.5960, 511.1836
817.7360, 622.6992
818.8750, 600.0898
820.0140, 632.5645
821.1530, 644.2656
822.2920, 652.7031
823.4310, 628.4355
824.5690, 585.9629
825.7070, 640.3457
826.8460, 503.6504
827.9840, 625.5547
829.1220, 658.8848
830.2590, 799.1953
831.3970, 725.4902
832.5340, 815.7090
833.6710, 810.8184
834.8080, 771.6270
835.9450, 714.1328
837.0820, 616.3379
838.2190, 545.2520
839.3550, 300.4238
840.4910, 407.7305
841.6270, 244.1660
842.7630, 215.5000
843.8990, 285.6035
845.0350, 144.5938
846.1700, 2.310547
847.3060, 35.72656
848.4410, 2.060547
849.5760, 111.0898
850.7100, 66.86719
851.8450, 137.0293
852.9800, 110.0918
854.1140, 60.30078
855.2480, 80.07617
856.3820, 5.396484
857.5160, 98.28516
858.6500, 150.9785
859.7830, 130.3848
860.9170, 34.16602
862.0500, 36.69336
863.1830, 234.2012
864.3160, 227.9043
865.4480, 65.23242
866.5810, 240.7207
867.7130, 69.19531
868.8460, 41.64648
869.9780, 193.9375
871.1100, 110.1992
872.2410, 62.45117
873.3730, 152.0879
874.5050, 50.95898
875.6360, 80.41211
876.7670, 111.7188
877.8980, 226.0078
879.0290, 217.6230
880.1590, 261.7324
881.2900, 210.2539
882.4200, 290.9941
883.5500, 324.0723
884.6800, 324.9180
885.8100, 345.2383
886.9400, 379.0684
888.0690, 334.2344
889.1990, 436.6445
890.3280, 419.5762
891.4570, 622.9727
892.5860, 586.9180
893.7140, 693.0664
894.8430, 611.9160
895.9710, 845.9531
897.1000, 1008.389
898.2280, 1045.973
899.3560, 1369.076
900.4830, 1679.256
901.6110, 1936.553
902.7380, 2064.863
903.8660, 2698.449
904.9930, 2512.137
906.1200, 2973.332
907.2460, 3767.301
908.3730, 4503.340
909.5000, 5357.629
910.6260, 6899.633
911.7520, 8845.965
912.8780, 11511.86
914.0040, 14668.04
915.1290, 18524.09
916.2550, 22999.57
917.3800, 27998.39
918.5050, 32353.33
919.6300, 34882.32
920.7550, 34483.23
921.8800, 32200.20
923.0040, 27819.91
924.1290, 22960.86
925.2530, 19226.80
926.3770, 16112.73
927.5010, 14131.79
928.6250, 12190.73
929.7480, 10830.23
930.8720, 9563.176
931.9950, 8214.121
933.1180, 6771.000
934.2410, 5684.926
935.3640, 4737.621
936.4860, 3763.533
937.6090, 3431.438
938.7310, 2817.340
939.8530, 2670.232
940.9750, 2277.121
942.0970, 1951.004
943.2180, 1918.877
944.3400, 1792.750
945.4610, 1814.619
946.5820, 1918.480
947.7030, 1752.340
948.8240, 1846.193
949.9450, 1692.043
951.0650, 1962.898
952.1860, 1831.760
953.3060, 1641.617
954.4260, 1400.467
955.5460, 1218.312
956.6650, 954.1582
957.7850, 845.9961
958.9040, 694.5312
960.0230, 617.7090
961.1420, 540.5645
962.2610, 441.8457
963.3800, 493.2754
964.4990, 270.1328
965.6170, 284.9844
966.7350, 297.8301
967.8530, 49.67383
968.9710, 177.5156
970.0890, 124.3555
971.2070, 59.19727
972.3240, 97.03516
973.4410, 74.87305
974.5580, 14.70508
975.6750, 4.468750
976.7920, 1.386719
977.9090, 274.2344
979.0250, 26.92188
980.1410, 42.83203
981.2580, 132.1074
982.3740, 138.6855
983.4890, 5.341797
984.6050, 25.85742
985.7200, 184.8418
986.8360, 95.46094
987.9510, 237.7656
989.0660, 24.78906
990.1810, 56.41211
991.2950, 22.40039
992.4100, 13.83594
993.5240, 138.4902
994.6390, 147.5176
995.7530, 208.9961
996.8660, 192.7031
997.9800, 253.4238
999.0940, 180.1445
1000.207, 33.45508
1001.320, 405.1738
1002.433, 158.5039
1003.546, 323.7207
1004.659, 366.5391
1005.772, 526.1602
1006.884, 753.5137
1007.996, 487.4219
1009.108, 513.7578
1010.220, 826.2773
1011.332, 595.8691
1012.444, 910.6406
1013.555, 1031.840
1014.666, 1209.748
1015.777, 1198.832
1016.888, 1459.406
1017.999, 1566.736
1019.110, 1709.549
1020.220, 1732.383
1021.331, 1694.338
1022.441, 1658.152
1023.551, 1491.920
1024.661, 1406.865
1025.770, 1267.000
1026.880, 1054.877
1027.989, 889.7539
1029.098, 733.3086
1030.207, 667.1914
1031.316, 648.5781
1032.425, 520.4688
1033.533, 467.3652
1034.642, 471.6523
1035.750, 577.5977
1036.858, 687.7949
1037.966, 414.9395
1039.073, 271.8945
1040.181, 500.7715
1041.288, 493.7363
1042.396, 492.7031
1043.503, 406.8750
1044.610, 480.6016
1045.716, 510.8535
1046.823, 576.2871
1047.929, 630.2812
1049.036, 659.7188
1050.142, 788.8789
1051.248, 847.7578
1052.353, 1029.941
1053.459, 1112.961
1054.564, 1203.119
1055.670, 1606.143
1056.775, 1959.164
1057.880, 2568.393
1058.985, 3298.119
1060.089, 4097.881
1061.194, 5203.938
1062.298, 6229.383
1063.402, 7604.172
1064.506, 9070.246
1065.610, 9532.324
1066.713, 9263.406
1067.817, 8940.539
1068.920, 7488.787
1070.023, 6261.869
1071.126, 4970.186
1072.229, 3824.451
1073.332, 2998.537
1074.435, 2386.621
1075.537, 2146.715
1076.639, 1768.545
1077.741, 1390.033
1078.843, 1006.121
1079.945, 948.4961
1081.046, 838.7715
1082.148, 884.3027
1083.249, 798.4082
1084.350, 428.4531
1085.451, 554.5566
1086.551, 267.6602
1087.652, 163.3223
1088.752, 203.3047
1089.853, 308.5664
1090.953, 300.5059
1092.053, 310.6055
1093.152, 318.8223
1094.252, 295.0801
1095.351, 273.8613
1096.451, 259.9590
1097.550, 220.2422
1098.649, 262.3438
1099.748, 105.4434
1100.846, 412.0078
1101.945, 441.2012
1103.043, 650.2949
1104.141, 454.3887
1105.239, 578.4805
1106.337, 608.5742
1107.434, 722.5137
1108.532, 821.2676
1109.629, 700.1387
1110.726, 805.2227
1111.823, 727.0254
1112.920, 682.2461
1114.017, 577.3359
1115.113, 820.2266
1116.210, 457.2285
1117.306, 636.3242
1118.402, 340.4414
1119.498, 170.2188
1120.593, 357.3691
1121.689, 398.8906
1122.784, 384.2383
1123.879, 340.8027
1124.974, 371.9355
1126.069, 234.1113
1127.164, 184.7461
1128.259, 252.0684
1129.353, 175.2832
1130.447, 284.4922
1131.541, 215.7012
1132.635, 245.9102
1133.729, 391.1172
1134.822, 351.0449
1135.916, 57.75000
1137.009, 56.95117
1138.102, 345.6465
1139.195, 34.84180
1140.288, 106.0352
1141.380, 63.38867
1142.473, 78.59570
1143.565, 179.8008
1144.657, 1.000000
1145.749, 54.19336
1146.841, 13.37891
1147.932, 97.43750
1149.024, 77.31055
1150.115, 153.7715
1151.206, 171.9863
1152.297, 212.6289
1153.388, 163.4707
1154.479, 215.5332
1155.569, 67.58789
1156.659, 26.80859
1157.750, 204.3359
1158.839, 92.39062
1159.929, 6.521484
1161.019, 173.7793
1162.108, 89.14844
1163.198, 213.8672
1164.287, 107.8789
1165.376, 10.88281
1166.465, 255.8809
1167.553, 37.87500
1168.642, 51.86133
1169.730, 159.8418
1170.818, 10.09180
1171.906, 286.8672
1172.994, 148.8184
1174.082, 61.75781
1175.170, 36.28906
1176.257, 21.96289
1177.344, 3.546875
1178.431, 28.55469
1179.518, 6.667969
1180.605, 169.1797
1181.691, 113.0371
1182.778, 13.11328
1183.864, 174.7539
1184.950, 78.61523
1186.036, 155.4629
1187.122, 199.3340
1188.207, 65.20117
1189.292, 215.0859
1190.378, 80.03711
1191.463, 201.7871
1192.548, 25.60156
1193.632, 67.59570
1194.717, 277.1582
1195.801, 124.9004
1196.886, 309.6055
1197.970, 110.3770
1199.054, 84.44336
1200.137, 304.2949
1201.221, 70.01562
1202.305, 83.09961
1203.388, 262.7988
1204.471, 139.4902
1205.554, 128.0684
1206.637, 0.7421880
1207.719, 34.73828
1208.802, 221.1270
1209.884, 72.24414
1210.966, 96.85938
1212.048, 36.75781
1213.130, 288.0605
1214.212, 16.35742
1215.293, 224.1934
1216.374, 181.7383
1217.456, 11.59180
1218.536, 144.1074
1219.617, 134.6113
1220.698, 44.75391
1221.778, 245.6934
1222.859, 167.1270
1223.939, 82.20898
1225.019, 25.21875
1226.099, 323.5664
1227.178, 107.5977
1228.258, 305.3438
1229.337, 253.7148
1230.417, 38.19922
1231.496, 131.5117
1232.574, 262.8125
1233.653, 210.1016
1234.732, 335.6250
1235.810, 273.4023
1236.888, 186.7656
1237.966, 105.9961
1239.044, 221.1641
1240.122, 319.3086
1241.199, 21.44531
1242.277, 124.0703
1243.354, 430.6367
1244.431, 352.1953
1245.508, 148.3086
1246.585, 147.5000
1247.661, 271.5859
1248.738, 22.65625
1249.814, 351.7109
1250.890, 298.7500
1251.966, 316.7773
1253.042, 76.80078
1254.117, 196.2266
1255.193, 318.2148
1256.268, 73.18750
1257.343, 148.1406
1258.418, 401.5898
1259.493, 392.5078
1260.567, 253.4141
1261.642, 266.3008
1262.716, 293.1719
1263.790, 95.96875
1264.864, 59.82031
1265.938, 376.3867
1267.011, 63.05469
1268.085, 302.7812
1269.158, 505.4766
1270.231, 148.6562
1271.304, 318.6914
1272.377, 236.7422
1273.450, 376.4375
1274.522, 505.6523
1275.594, 488.1367
1276.666, 452.0859
1277.738, 467.0078
1278.810, 343.0312
1279.882, 148.5625
1280.953, 374.0742
1282.025, 100.5703
1283.096, 262.0430
1284.167, 429.5078
1285.238, 145.1094
1286.308, 70.75000
1287.379, 396.5039
1288.449, 389.6016
1289.519, 15.39844
1290.589, 241.9062
1291.659, 201.7773
1292.729, 218.2109
