##NAMES=Andalusite
##RRUFFID=R060197
##IDEAL CHEMISTRY=Al_2_SiO_5_
##LOCALITY=Brazil
##OWNER=RRUFF
##SOURCE=Marcus Origlieri
##DESCRIPTION=Green colored water worn pebble
##STATUS=The identification of this mineral has been confirmed by X-ray diffraction and chemical analysis
##URL=rruff.info/R060197
##MEASURED CHEMISTRY=(Al_1.97_Mn^3+^_0.03_)_Î£=2_Si_1.00_O_5_
##PIN_ID=L01138
##ORIENTATION=Laser parallel to -b* (0 -1 0). Fiducial mark perpendicular to laser is parallel to -c [0 0 -1]
123.0580, 0.0000000E+00
124.2880, 190.0273
125.5190, 26.67578
126.7490, 120.8232
127.9790, 4.796875
129.2090, 130.2354
130.4390, 179.7539
131.6680, 209.5420
132.8980, 162.1748
134.1270, 68.35742
135.3560, 119.1660
136.5850, 154.1855
137.8140, 203.0869
139.0430, 343.3691
140.2710, 451.7373
141.5000, 462.0195
142.7280, 151.1172
143.9560, 350.9766
145.1840, 216.4492
146.4120, 158.8613
147.6390, 278.2715
148.8670, 28.05176
150.0940, 163.2305
151.3210, 129.2041
152.5490, 291.1289
153.7750, 222.1416
155.0020, 207.3584
156.2290, 304.8750
157.4550, 245.7744
158.6810, 197.1260
159.9080, 130.9951
161.1340, 101.4346
162.3590, 160.1641
163.5850, 315.2188
164.8110, 338.6504
166.0360, 470.8369
167.2610, 595.0586
168.4860, 390.4541
169.7110, 432.1025
170.9360, 647.0342
172.1610, 520.0752
173.3850, 486.2217
174.6100, 582.3174
175.8340, 461.4834
177.0580, 471.4297
178.2820, 492.3125
179.5050, 419.2764
180.7290, 281.3184
181.9520, 376.4453
183.1760, 377.6592
184.3990, 543.9521
185.6220, 494.3096
186.8450, 520.7227
188.0670, 725.1934
189.2900, 769.7197
190.5120, 1059.300
191.7340, 985.9355
192.9560, 1037.628
194.1780, 1229.375
195.4000, 1282.178
196.6220, 1308.044
197.8430, 1088.994
199.0640, 1062.018
200.2860, 1232.115
201.5070, 1107.287
202.7270, 1125.532
203.9480, 1019.848
205.1690, 737.3135
206.3890, 217.9248
207.6090, 22.39551
208.8290, 152.4209
210.0490, 104.2939
211.2690, 36.21191
212.4890, 141.1719
213.7080, 37.17188
214.9280, 193.2100
216.1470, 12.28613
217.3660, 49.60352
218.5850, 175.4570
219.8030, 21.71973
221.0220, 74.07715
222.2400, 197.1455
223.4590, 146.6162
224.6770, 118.3643
225.8950, 121.0977
227.1120, 15.81250
228.3300, 18.49316
229.5480, 39.81641
230.7650, 60.53027
231.9820, 104.5244
233.1990, 71.91113
234.4160, 72.32227
235.6330, 143.7539
236.8490, 197.2354
238.0660, 105.8965
239.2820, 213.6602
240.4980, 144.5508
241.7140, 144.7764
242.9300, 265.3926
244.1460, 111.2090
245.3610, 112.9424
246.5770, 79.28613
247.7920, 41.60938
249.0070, 173.5996
250.2220, 110.1045
251.4370, 255.6455
252.6510, 465.2236
253.8660, 560.8379
255.0800, 719.4912
256.2940, 939.8584
257.5080, 974.9053
258.7220, 1394.670
259.9360, 1784.470
261.1490, 2051.309
262.3630, 1738.186
263.5760, 1643.100
264.7890, 1886.053
266.0020, 1869.043
267.2150, 2127.072
268.4270, 2553.141
269.6400, 2961.395
270.8520, 3992.494
272.0640, 4858.431
273.2760, 5465.463
274.4880, 5972.032
275.7000, 6184.137
276.9120, 6845.264
278.1230, 7998.410
279.3340, 9291.569
280.5450, 11152.74
281.7560, 12955.92
282.9670, 15566.10
284.1780, 18141.28
285.3880, 20182.46
286.5980, 22544.27
287.8090, 23656.48
289.0190, 24083.65
290.2290, 22807.82
291.4380, 20655.33
292.6480, 17594.01
293.8570, 15020.16
295.0670, 12372.67
296.2760, 10091.76
297.4850, 8363.830
298.6930, 6996.877
299.9020, 6157.912
301.1110, 5185.936
302.3190, 4554.949
303.5270, 4188.961
304.7350, 3841.969
305.9430, 3938.979
307.1510, 4118.989
308.3580, 4294.005
309.5660, 4957.025
310.7730, 5772.555
311.9800, 6846.028
313.1870, 8105.002
314.3940, 9678.978
315.6010, 11275.95
316.8070, 12353.69
318.0130, 12619.36
319.2200, 12577.92
320.4260, 10896.29
321.6310, 9497.657
322.8370, 8267.049
324.0430, 6998.477
325.2480, 6052.938
326.4540, 5329.431
327.6590, 4840.959
328.8640, 4442.518
330.0680, 3997.107
331.2730, 4053.730
332.4780, 3777.387
333.6820, 3854.073
334.8860, 3698.794
336.0900, 3706.545
337.2940, 3707.328
338.4980, 3807.143
339.7010, 3671.988
340.9050, 3730.865
342.1080, 3764.774
343.3110, 3925.713
344.5140, 4191.682
345.7170, 4608.684
346.9200, 5008.002
348.1220, 5544.812
349.3240, 6135.839
350.5270, 6827.402
351.7290, 7656.128
352.9310, 8361.012
354.1320, 8864.745
355.3340, 8983.192
356.5350, 8991.154
357.7370, 8486.537
358.9380, 7689.291
360.1390, 6634.726
361.3400, 5596.725
362.5400, 4672.019
363.7410, 3820.521
364.9410, 3405.209
366.1410, 2928.313
367.3410, 2601.934
368.5410, 2428.697
369.7410, 1912.344
370.9400, 1680.936
372.1400, 1534.240
373.3390, 1542.439
374.5380, 1487.184
375.7370, 1226.010
376.9360, 1122.863
378.1350, 1257.744
379.3330, 1245.656
380.5310, 992.5938
381.7300, 1118.562
382.9280, 982.5566
384.1260, 841.5801
385.3230, 787.6289
386.5210, 721.0254
387.7180, 720.8066
388.9160, 692.9375
390.1130, 658.0957
391.3100, 697.2832
392.5060, 575.5020
393.7030, 412.7461
394.9000, 469.0234
396.0960, 312.3281
397.2920, 195.6621
398.4880, 238.0273
399.6840, 305.4219
400.8800, 261.8438
402.0750, 157.2969
403.2710, 310.7793
404.4660, 106.2891
405.6610, 248.8301
406.8560, 225.4004
408.0510, 224.9980
409.2450, 341.6270
410.4400, 257.2852
411.6340, 479.9727
412.8280, 428.6875
414.0220, 491.4277
415.2160, 735.1914
416.4100, 619.9824
417.6030, 712.7988
418.7970, 821.6445
419.9900, 590.5156
421.1830, 303.4121
422.3760, 432.3340
423.5690, 264.2812
424.7610, 209.2578
425.9540, 210.2578
427.1460, 20.28320
428.3380, 76.33984
429.5300, 242.5801
430.7220, 1.437500
431.9140, 45.48242
433.1050, 143.5527
434.2970, 47.34766
435.4880, 123.2285
436.6790, 80.87500
437.8700, 16.98828
439.0610, 126.1699
440.2510, 307.3613
441.4420, 196.5840
442.6320, 317.8398
443.8220, 601.1230
445.0120, 467.4414
446.2020, 542.7930
447.3910, 623.1758
448.5810, 768.6113
449.7700, 765.1191
450.9600, 887.7051
452.1490, 985.3496
453.3370, 612.0586
454.5260, 522.8145
455.7150, 415.6250
456.9030, 395.4707
458.0910, 410.3516
459.2800, 381.2617
460.4670, 650.2070
461.6550, 602.1855
462.8430, 1003.199
464.0300, 1138.250
465.2180, 1122.334
466.4050, 1406.457
467.5920, 1377.611
468.7790, 1583.805
469.9650, 1781.035
471.1520, 1932.301
472.3380, 2024.602
473.5250, 2117.367
474.7110, 1979.311
475.8970, 2211.717
477.0820, 2080.158
478.2680, 2107.635
479.4540, 1795.146
480.6390, 1724.693
481.8240, 1440.275
483.0090, 1260.602
484.1940, 1138.543
485.3780, 860.2285
486.5630, 751.9492
487.7470, 523.7031
488.9320, 228.0605
490.1160, 120.8848
491.3000, 109.8945
492.4830, 98.28711
493.6670, 348.6855
494.8500, 26.45703
496.0340, 116.6660
497.2170, 154.8867
498.4000, 68.12891
499.5820, 61.64453
500.7650, 147.4473
501.9480, 230.2871
503.1300, 303.0391
504.3120, 379.0703
505.4940, 434.0391
506.6760, 432.0918
507.8580, 541.1953
509.0390, 624.3457
510.2210, 517.5273
511.4020, 627.7871
512.5830, 537.1348
513.7640, 628.5352
514.9450, 443.9785
516.1250, 495.4531
517.3060, 397.9609
518.4860, 453.5000
519.6660, 301.0723
520.8460, 441.6738
522.0260, 363.3027
523.2060, 468.9629
524.3850, 376.6543
525.5650, 386.3770
526.7440, 355.1289
527.9230, 319.6992
529.1020, 413.7207
530.2810, 272.5645
531.4590, 415.4336
532.6380, 400.3359
533.8160, 573.2656
534.9940, 768.2285
536.1720, 774.2168
537.3500, 1159.236
538.5270, 1457.285
539.7050, 2139.365
540.8820, 2455.473
542.0590, 3006.613
543.2360, 3730.777
544.4130, 4165.986
545.5900, 4954.221
546.7660, 5112.484
547.9430, 5174.785
549.1190, 4652.113
550.2950, 4047.475
551.4710, 3655.865
552.6470, 2846.285
553.8220, 2298.730
554.9980, 1842.205
556.1730, 1279.707
557.3480, 1217.236
558.5230, 968.7949
559.6980, 692.3789
560.8730, 643.9883
562.0470, 769.6484
563.2220, 614.3516
564.3960, 1008.113
565.5700, 912.9082
566.7440, 1081.781
567.9170, 1117.781
569.0910, 914.8457
570.2640, 1092.967
571.4380, 906.5371
572.6110, 1006.770
573.7840, 969.9258
574.9570, 901.6055
576.1290, 855.8164
577.3020, 680.9492
578.4740, 521.7031
579.6460, 576.1309
580.8180, 554.9824
581.9900, 631.8613
583.1620, 470.7656
584.3330, 502.6953
585.5040, 525.6504
586.6760, 508.6309
587.8470, 633.8809
589.0180, 717.1895
590.1880, 781.7793
591.3590, 744.5195
592.5290, 895.3848
593.7000, 695.4648
594.8700, 1033.305
596.0400, 973.6777
597.2090, 990.8535
598.3790, 885.0527
599.5490, 1018.266
600.7180, 995.5020
601.8870, 992.7539
603.0560, 862.0273
604.2250, 955.3164
605.3940, 1068.627
606.5620, 781.9512
607.7300, 941.2969
608.8990, 581.6582
610.0670, 633.0391
611.2350, 533.4336
612.4020, 625.8457
613.5700, 432.2773
614.7370, 539.7227
615.9050, 687.1836
617.0720, 476.6602
618.2390, 612.1543
619.4060, 211.6621
620.5720, 626.1875
621.7390, 445.7246
622.9050, 510.2773
624.0710, 421.8438
625.2370, 354.4238
626.4030, 190.0195
627.5690, 51.62695
628.7340, 78.75000
629.9000, 82.85156
631.0650, 113.5332
632.2300, 17.84766
633.3950, 142.6621
634.5600, 87.62500
635.7240, 38.11328
636.8890, 145.2090
638.0530, 174.3477
639.2170, 89.76562
640.3810, 196.3359
641.5450, 154.9160
642.7080, 55.51172
643.8720, 187.1191
645.0350, 168.7402
646.1980, 195.3711
647.3610, 122.9824
648.5240, 241.6270
649.6870, 90.24805
650.8490, 236.8809
652.0120, 60.47461
653.1740, 139.1582
654.3360, 70.80078
655.4980, 310.4531
656.6600, 262.1152
657.8210, 216.7871
658.9830, 262.4668
660.1440, 537.1562
661.3050, 415.8555
662.4660, 481.5605
663.6270, 457.2754
664.7870, 417.9961
665.9480, 414.7285
667.1080, 264.4668
668.2680, 133.2129
669.4280, 315.9668
670.5880, 190.7266
671.7480, 231.4922
672.9070, 279.2676
674.0670, 259.6875
675.2260, 342.8711
676.3850, 357.6230
677.5440, 479.4180
678.7030, 614.6992
679.8610, 702.7422
681.0200, 683.5547
682.1780, 733.3711
683.3360, 852.3281
684.4940, 1013.154
685.6520, 965.9844
686.8090, 1034.775
687.9670, 1057.613
689.1240, 906.1406
690.2810, 1327.643
691.4380, 1025.488
692.5950, 1206.340
693.7520, 1291.191
694.9080, 1281.047
696.0650, 1416.041
697.2210, 1499.900
698.3770, 1493.760
699.5330, 1758.623
700.6880, 1525.844
701.8440, 2023.584
702.9990, 1955.982
704.1550, 2280.174
705.3100, 2121.461
706.4650, 2051.008
707.6190, 2211.471
708.7740, 2205.658
709.9290, 2246.840
711.0830, 2200.805
712.2370, 2153.234
713.3910, 2090.113
714.5450, 1919.760
715.6980, 1800.623
716.8520, 1514.881
718.0050, 1152.312
719.1580, 1167.182
720.3110, 733.3359
721.4640, 504.2422
722.6170, 364.0625
723.7700, 227.8711
724.9220, 117.4668
726.0740, 65.44922
727.2260, 17.78906
728.3780, 85.08008
729.5300, 118.4629
730.6810, 39.95508
731.8330, 58.51562
732.9840, 9.845703
734.1350, 29.83594
735.2860, 249.4199
736.4370, 219.6602
737.5880, 523.8848
738.7380, 648.0918
739.8880, 579.2871
741.0390, 605.4629
742.1890, 645.6270
743.3380, 947.7715
744.4880, 875.9004
745.6380, 1058.014
746.7870, 1177.113
747.9360, 1202.193
749.0850, 1348.260
750.2340, 1378.309
751.3830, 1397.342
752.5310, 1482.357
753.6800, 1414.928
754.8280, 1546.342
755.9760, 1357.309
757.1240, 1363.258
758.2720, 1463.189
759.4190, 1072.107
760.5670, 1015.008
761.7140, 1025.889
762.8610, 982.7559
764.0080, 1101.605
765.1550, 822.4414
766.3020, 982.2578
767.4480, 833.4922
768.5950, 860.2793
769.7410, 1060.684
770.8870, 1038.705
772.0330, 835.7324
773.1780, 864.0762
774.3240, 1119.895
775.4690, 1104.717
776.6140, 1330.551
777.7590, 1518.383
778.9040, 1870.199
780.0490, 2035.002
781.1940, 2603.789
782.3380, 2978.562
783.4820, 3312.320
784.6260, 3736.061
785.7700, 4357.773
786.9140, 4793.484
788.0580, 5308.184
789.2010, 5530.867
790.3450, 5580.518
791.4880, 5677.170
792.6310, 5741.805
793.7730, 5219.424
794.9160, 4660.031
796.0590, 4095.621
797.2010, 3603.193
798.3430, 3284.750
799.4850, 2824.291
800.6270, 2482.818
801.7690, 2099.326
802.9100, 1849.816
804.0520, 1494.293
805.1930, 1367.752
806.3340, 1231.195
807.4750, 843.6191
808.6160, 984.0273
809.7560, 749.4199
810.8970, 384.7949
812.0370, 347.1523
813.1770, 404.4941
814.3170, 301.8184
815.4570, 105.1230
816.5960, 139.4062
817.7360, 204.6699
818.8750, 270.9141
820.0140, 29.14062
821.1530, 283.3301
822.2920, 217.5000
823.4310, 35.65430
824.5690, 237.7695
825.7070, 96.86328
826.8460, 99.93555
827.9840, 347.9824
829.1220, 235.0117
830.2590, 423.0195
831.3970, 399.0137
832.5340, 183.9863
833.6710, 397.9395
834.8080, 289.8730
835.9450, 264.7871
837.0820, 9.316406
838.2190, 1.482422
839.3550, 43.70703
840.4910, 66.99414
841.6270, 137.3398
842.7630, 300.8008
843.8990, 76.47656
845.0350, 56.25000
846.1700, 120.1094
847.3060, 116.0879
848.4410, 187.1836
849.5760, 217.3730
850.7100, 137.8535
851.8450, 243.4023
852.9800, 202.1367
854.1140, 94.03320
855.2480, 83.93945
856.3820, 160.9082
857.5160, 217.8555
858.6500, 438.7832
859.7830, 448.6875
860.9170, 545.5781
862.0500, 420.4453
863.1830, 582.0430
864.3160, 634.5918
865.4480, 680.8633
866.5810, 735.9883
867.7130, 832.9922
868.8460, 684.7852
869.9780, 893.8203
871.1100, 665.3301
872.2410, 569.0605
873.3730, 755.7773
874.5050, 533.4766
875.6360, 689.1621
876.7670, 478.8848
877.8980, 492.5918
879.0290, 696.2871
880.1590, 500.9668
881.2900, 329.6309
882.4200, 366.3086
883.5500, 482.9844
884.6800, 634.6934
885.8100, 543.3867
886.9400, 530.0684
888.0690, 320.7363
889.1990, 383.3281
890.3280, 591.0840
891.4570, 478.7539
892.5860, 594.4141
893.7140, 744.1152
894.8430, 779.8496
895.9710, 983.6113
897.1000, 1244.414
898.2280, 1375.250
899.3560, 1610.117
900.4830, 1748.002
901.6110, 2219.908
902.7380, 2456.801
903.8660, 3127.727
904.9930, 3785.648
906.1200, 4568.586
907.2460, 5795.562
908.3730, 7478.557
909.5000, 9498.566
910.6260, 11980.64
911.7520, 15519.75
912.8780, 18991.85
914.0040, 23478.00
915.1290, 27489.17
916.2550, 30269.34
917.3800, 31136.49
918.5050, 29092.64
919.6300, 25835.77
920.7550, 22343.87
921.8800, 19350.99
923.0040, 16567.09
924.1290, 14671.18
925.2530, 13176.25
926.3770, 11859.32
927.5010, 10630.36
928.6250, 9400.398
929.7480, 8162.416
930.8720, 7362.418
931.9950, 6399.406
933.1180, 5450.379
934.2410, 4785.336
935.3640, 4145.557
936.4860, 3859.205
937.6090, 3427.119
938.7310, 3390.016
939.8530, 3199.219
940.9750, 3165.762
942.0970, 3193.609
943.2180, 3175.613
944.3400, 3683.258
945.4610, 3340.059
946.5820, 3464.842
947.7030, 3651.609
948.8240, 3263.359
949.9450, 3414.096
951.0650, 3269.338
952.1860, 3029.805
953.3060, 2767.490
954.4260, 2537.160
955.5460, 2135.680
956.6650, 1906.318
957.7850, 1956.941
958.9040, 2014.592
960.0230, 1695.180
961.1420, 1698.070
962.2610, 1594.971
963.3800, 1731.514
964.4990, 1753.039
965.6170, 1635.547
966.7350, 1841.041
967.8530, 1648.379
968.9710, 2003.842
970.0890, 1698.287
971.2070, 1738.719
972.3240, 1777.773
973.4410, 1488.297
974.5580, 1127.146
975.6750, 1151.184
976.7920, 952.1172
977.9090, 1114.771
979.0250, 811.4961
980.1410, 1072.480
981.2580, 586.4512
982.3740, 894.6719
983.4890, 604.4336
984.6050, 456.3027
985.7200, 268.1738
986.8360, 347.4336
987.9510, 254.3008
989.0660, 47.02148
990.1810, 409.1992
991.2950, 149.1152
992.4100, 35.26562
993.5240, 194.4785
994.6390, 116.6855
995.7530, 38.88672
996.8660, 136.0859
997.9800, 67.27930
999.0940, 221.4883
1000.207, 283.5098
1001.320, 473.0176
1002.433, 569.3242
1003.546, 766.1719
1004.659, 1075.605
1005.772, 1060.703
1006.884, 1256.061
1007.996, 1597.621
1009.108, 1807.084
1010.220, 2359.252
1011.332, 2688.586
1012.444, 3136.176
1013.555, 3727.982
1014.666, 4034.832
1015.777, 4256.227
1016.888, 4604.500
1017.999, 4719.311
1019.110, 4489.994
1020.220, 4413.527
1021.331, 4147.512
1022.441, 3822.355
1023.551, 3547.119
1024.661, 2965.398
1025.770, 2846.445
1026.880, 2477.039
1027.989, 2195.775
1029.098, 2121.916
1030.207, 1937.857
1031.316, 1541.799
1032.425, 1394.875
1033.533, 1472.424
1034.642, 1471.150
1035.750, 1444.064
1036.858, 1101.207
1037.966, 1138.451
1039.073, 976.3086
1040.181, 1078.898
1041.288, 1064.695
1042.396, 1118.885
1043.503, 1208.861
1044.610, 1094.258
1045.716, 1376.021
1046.823, 1478.371
1047.929, 1585.779
1049.036, 1940.379
1050.142, 2161.246
1051.248, 2662.154
1052.353, 3037.275
1053.459, 3727.145
1054.564, 4633.010
1055.670, 5394.840
1056.775, 6230.652
1057.880, 6884.445
1058.985, 6851.219
1060.089, 6672.973
1061.194, 5898.918
1062.298, 5072.004
1063.402, 4307.701
1064.506, 3884.881
1065.610, 3100.955
1066.713, 2775.594
1067.817, 2490.215
1068.920, 2328.459
1070.023, 2091.041
1071.126, 1734.812
1072.229, 1794.354
1073.332, 1576.877
1074.435, 1739.504
1075.537, 1694.988
1076.639, 1414.455
1077.741, 1704.900
1078.843, 1527.326
1079.945, 1572.732
1081.046, 1853.123
1082.148, 1649.490
1083.249, 1739.840
1084.350, 1646.174
1085.451, 1820.488
1086.551, 1782.783
1087.652, 1734.061
1088.752, 1511.330
1089.853, 1487.840
1090.953, 1416.969
1092.053, 1351.029
1093.152, 1446.230
1094.252, 1478.746
1095.351, 1715.588
1096.451, 1819.738
1097.550, 2047.871
1098.649, 2280.984
1099.748, 2182.080
1100.846, 2399.156
1101.945, 2800.211
1103.043, 2790.252
1104.141, 3011.271
1105.239, 3037.293
1106.337, 2936.316
1107.434, 3256.352
1108.532, 3121.375
1109.629, 2649.434
1110.726, 2376.570
1111.823, 2450.729
1112.920, 2209.900
1114.017, 2113.105
1115.113, 1715.342
1116.210, 1155.627
1117.306, 1368.971
1118.402, 1215.348
1119.498, 970.7930
1120.593, 1104.289
1121.689, 1179.838
1122.784, 1208.348
1123.879, 1102.838
1124.974, 971.3145
1126.069, 750.7715
1127.164, 777.2129
1128.259, 566.6328
1129.353, 232.0391
1130.447, 410.4238
1131.541, 550.7930
1132.635, 315.1445
1133.729, 234.4785
1134.822, 97.79297
1135.916, 199.0859
1137.009, 45.64258
1138.102, 331.5664
1139.195, 145.7559
1140.288, 220.9258
1141.380, 173.9238
1142.473, 225.0938
1143.565, 161.0957
1144.657, 107.0762
1145.749, 96.03125
1146.841, 50.03320
1147.932, 32.16602
1149.024, 136.3535
1150.115, 129.3438
1151.206, 164.0234
1152.297, 54.68164
1153.388, 41.68359
1154.479, 17.11133
1155.569, 8.585938
1156.659, 39.89258
1157.750, 181.6543
1158.839, 136.3359
1159.929, 127.1250
1161.019, 172.0254
1162.108, 140.5918
1163.198, 143.1914
1164.287, 87.44727
1165.376, 90.78516
1166.465, 39.78906
1167.553, 82.65625
1168.642, 5.189453
1169.730, 39.17188
1170.818, 155.3535
1171.906, 43.93359
1172.994, 22.80078
1174.082, 256.5859
1175.170, 173.5410
1176.257, 33.37891
1177.344, 219.7266
1178.431, 125.9805
1179.518, 53.66406
1180.605, 7.712891
1181.691, 212.8711
1182.778, 150.4414
1183.864, 319.9941
1184.950, 199.5273
1186.036, 441.0469
1187.122, 356.4805
1188.207, 303.0371
1189.292, 263.5098
1190.378, 208.9648
1191.463, 145.4062
1192.548, 104.8301
1193.632, 220.2363
1194.717, 70.63086
1195.801, 90.00195
1196.886, 296.3516
1197.970, 328.6914
1199.054, 31.01562
1200.137, 186.3203
1201.221, 132.6094
1202.305, 276.8867
1203.388, 229.1445
1204.471, 148.3906
1205.554, 211.6211
1206.637, 348.8398
1207.719, 358.0469
1208.802, 340.2383
1209.884, 455.4180
1210.966, 440.5820
1212.048, 455.7383
1213.130, 785.8750
1214.212, 836.0039
1215.293, 1059.121
1216.374, 895.2305
1217.456, 1084.320
1218.536, 1281.398
1219.617, 1374.469
1220.698, 1558.527
1221.778, 1768.578
1222.859, 1881.613
1223.939, 2005.641
1225.019, 2219.617
1226.099, 2440.664
1227.178, 2655.656
1228.258, 2941.641
1229.337, 3250.617
1230.417, 3116.582
1231.496, 3278.539
1232.574, 3532.484
1233.653, 3594.426
1234.732, 3840.352
1235.810, 3864.277
1236.888, 3975.215
1237.966, 4228.152
1239.044, 4539.109
1240.122, 4464.051
1241.199, 4656.035
1242.277, 4952.020
1243.354, 4887.004
1244.431, 5148.977
1245.508, 5094.941
1246.585, 5145.902
1247.661, 5167.855
1248.738, 5434.797
1249.814, 5432.730
1250.890, 5398.684
1251.966, 5309.637
1253.042, 5184.582
1254.117, 5134.520
1255.193, 5102.445
1256.268, 4989.363
1257.343, 5003.273
1258.418, 4933.180
1259.493, 4704.102
1260.567, 4637.059
1261.642, 4649.008
1262.716, 4061.949
1263.790, 4112.891
1264.864, 4166.309
1265.938, 3806.141
1267.011, 3791.316
1268.085, 3634.227
1269.158, 3109.816
1270.231, 3373.711
1271.304, 2982.785
1272.377, 2837.699
1273.450, 2760.344
1274.522, 2521.766
1275.594, 2478.133
1276.666, 2372.957
1277.738, 2146.891
1278.810, 1915.281
1279.882, 2005.789
1280.953, 1917.441
1282.025, 1778.637
1283.096, 1673.961
1284.167, 1544.828
1285.238, 1373.230
1286.308, 1293.320
1287.379, 1605.859
1288.449, 1456.242
1289.519, 972.2188
1290.589, 1415.379
1291.659, 1079.535
1292.729, 1318.551
1293.798, 881.0742
1294.868, 1055.422
1295.937, 1252.578
1297.006, 1087.492
1298.075, 1230.301
1299.143, 968.4766
1300.212, 786.9102
1301.280, 817.1328
1302.348, 960.9453
