##NAMES=Andalusite
##RRUFFID=R060197
##IDEAL CHEMISTRY=Al_2_SiO_5_
##LOCALITY=Brazil
##OWNER=RRUFF
##SOURCE=Marcus Origlieri
##DESCRIPTION=Green colored water worn pebble
##STATUS=The identification of this mineral has been confirmed by X-ray diffraction and chemical analysis
##URL=rruff.info/R060197
##MEASURED CHEMISTRY=(Al_1.97_Mn^3+^_0.03_)_Î£=2_Si_1.00_O_5_
##PIN_ID=L01138
##ORIENTATION=Laser parallel to -b* (0 -1 0). Fiducial mark perpendicular to laser is parallel to -c [0 0 -1]
123.0580, 0.0000000E+00
124.2880, 5.484375
125.5190, 105.1484
126.7490, 24.14551
127.9790, 10.17676
129.2090, 90.04199
130.4390, 149.1777
131.6680, 233.8066
132.8980, 195.2891
134.1270, 212.1104
135.3560, 165.0146
136.5850, 159.6172
137.8140, 175.8066
139.0430, 401.9219
140.2710, 512.5420
141.5000, 527.4072
142.7280, 518.3467
143.9560, 588.2637
145.1840, 423.5303
146.4120, 359.8398
147.6390, 506.8984
148.8670, 399.0176
150.0940, 409.1660
151.3210, 475.0781
152.5490, 381.2090
153.7750, 526.1963
155.0020, 487.3359
156.2290, 431.7236
157.4550, 453.4492
158.6810, 397.5859
159.9080, 459.1973
161.1340, 489.2217
162.3590, 535.0713
163.5850, 630.4346
164.8110, 662.4814
166.0360, 785.6230
167.2610, 754.5762
168.4860, 577.7100
169.7110, 640.6650
170.9360, 640.6475
172.1610, 748.4668
173.3850, 506.4922
174.6100, 885.9775
175.8340, 621.7246
177.0580, 527.4590
178.2820, 685.4268
179.5050, 611.4941
180.7290, 699.6543
181.9520, 688.9033
183.1760, 708.2354
184.3990, 774.6445
185.6220, 813.1152
186.8450, 1123.633
188.0670, 1314.193
189.2900, 1184.797
190.5120, 1461.441
191.7340, 1545.129
192.9560, 1554.859
194.1780, 1598.631
195.4000, 1572.444
196.6220, 1564.309
197.8430, 1378.237
199.0640, 1302.235
200.2860, 1125.301
201.5070, 1195.442
202.7270, 1197.668
203.9480, 1062.985
205.1690, 627.4355
206.3890, 404.2725
207.6090, 146.3770
208.8290, 42.75391
210.0490, 143.2949
211.2690, 8.872070
212.4890, 162.4814
213.7080, 86.11230
214.9280, 175.7637
216.1470, 102.4336
217.3660, 17.12500
218.5850, 143.8584
219.8030, 92.39453
221.0220, 49.36621
222.2400, 158.8711
223.4590, 133.1143
224.6770, 135.3643
225.8950, 162.6182
227.1120, 109.2178
228.3300, 18.86035
229.5480, 14.40137
230.7650, 141.3350
231.9820, 222.0713
233.1990, 536.8105
234.4160, 892.5537
235.6330, 1211.300
236.8490, 1359.179
238.0660, 1672.804
239.2820, 1579.559
240.4980, 1538.301
241.7140, 1586.040
242.9300, 1522.788
244.1460, 1381.521
245.3610, 1255.177
246.5770, 1132.656
247.7920, 1181.923
249.0070, 1055.046
250.2220, 1080.151
251.4370, 1258.278
252.6510, 1449.430
253.8660, 1646.755
255.0800, 1896.887
256.2940, 2228.033
257.5080, 2371.284
258.7220, 2802.561
259.9360, 2938.093
261.1490, 2948.909
262.3630, 3387.541
263.5760, 2889.919
264.7890, 2788.323
266.0020, 2867.752
267.2150, 2860.207
268.4270, 3115.688
269.6400, 3247.554
270.8520, 3735.796
272.0640, 4316.348
273.2760, 4849.010
274.4880, 5633.382
275.7000, 6839.202
276.9120, 7640.080
278.1230, 9128.000
279.3340, 10976.95
280.5450, 12827.13
281.7560, 15082.60
282.9670, 17623.62
284.1780, 20449.23
285.3880, 22628.29
286.5980, 25103.92
287.8090, 26008.32
289.0190, 25516.34
290.2290, 24035.92
291.4380, 21070.05
292.6480, 17883.21
293.8570, 15131.26
295.0670, 12336.37
296.2760, 10072.31
297.4850, 8238.197
298.6930, 6792.986
299.9020, 5770.820
301.1110, 4791.633
302.3190, 4278.426
303.5270, 4073.199
304.7350, 3717.959
305.9430, 3960.708
307.1510, 4341.445
308.3580, 4867.176
309.5660, 5906.900
310.7730, 6958.838
311.9800, 8159.963
313.1870, 9919.625
314.3940, 11794.29
315.6010, 13463.95
316.8070, 14657.58
318.0130, 14309.11
319.2200, 13189.35
320.4260, 10984.32
321.6310, 9213.173
322.8370, 7262.013
324.0430, 5882.875
325.2480, 5043.758
326.4540, 4305.664
327.6590, 3826.591
328.8640, 3383.539
330.0680, 3042.508
331.2730, 2977.498
332.4780, 3026.510
333.6820, 2938.541
334.8860, 3022.593
336.0900, 3075.666
337.2940, 3153.759
338.4980, 3537.871
339.7010, 3620.004
340.9050, 3994.158
342.1080, 4754.330
343.3110, 5405.523
344.5140, 6088.737
345.7170, 7118.967
346.9200, 8401.218
348.1220, 9955.488
349.3240, 11863.77
350.5270, 13711.08
351.7290, 16047.40
352.9310, 17804.74
354.1320, 19236.10
355.3340, 20187.47
356.5350, 19825.56
357.7370, 18905.16
358.9380, 16903.56
360.1390, 14506.98
361.3400, 11871.41
362.5400, 10050.15
363.7410, 8357.610
364.9410, 6856.701
366.1410, 5609.674
367.3410, 4659.680
368.5410, 4189.351
369.7410, 3406.926
370.9400, 3010.839
372.1400, 2578.150
373.3390, 2266.381
374.5380, 2185.743
375.7370, 2018.362
376.9360, 1668.997
378.1350, 1713.648
379.3330, 1512.314
380.5310, 1764.005
381.7300, 1550.718
382.9280, 1670.470
384.1260, 1682.259
385.3230, 1572.063
386.5210, 1517.887
387.7180, 1699.727
388.9160, 1610.584
390.1130, 1309.459
391.3100, 1306.352
392.5060, 1029.263
393.7030, 725.1953
394.9000, 692.1465
396.0960, 544.1182
397.2920, 458.1113
398.4880, 457.1240
399.6840, 469.1562
400.8800, 408.2090
402.0750, 430.2812
403.2710, 461.3750
404.4660, 432.4883
405.6610, 465.6211
406.8560, 531.7744
408.0510, 364.9473
409.2450, 273.1406
410.4400, 298.3535
411.6340, 313.5869
412.8280, 259.8408
414.0220, 168.1104
415.2160, 296.3965
416.4100, 48.69922
417.6030, 193.0176
418.7970, 71.35352
419.9900, 72.70605
421.1830, 134.0732
422.3760, 75.45605
423.5690, 0.8535160
424.7610, 6.737305
425.9540, 18.68164
427.1460, 33.88379
428.3380, 21.44922
429.5300, 76.01074
430.7220, 269.5889
431.9140, 195.2754
433.1050, 152.0322
434.2970, 67.83691
435.4880, 233.6553
436.6790, 67.56055
437.8700, 146.4756
439.0610, 64.56543
440.2510, 35.62500
441.4420, 22.29492
442.6320, 138.7939
443.8220, 140.9033
445.0120, 55.03223
446.2020, 79.18262
447.3910, 289.3828
448.5810, 423.6602
449.7700, 408.9590
450.9600, 261.3477
452.1490, 140.7559
453.3370, 4.798828
454.5260, 38.33203
455.7150, 120.1387
456.9030, 32.63281
458.0910, 124.1484
459.2800, 69.68555
460.4670, 127.4160
461.6550, 131.8281
462.8430, 272.4355
464.0300, 305.0684
465.2180, 432.7285
466.4050, 482.4121
467.5920, 583.1230
468.7790, 495.8594
469.9650, 547.6250
471.1520, 468.4121
472.3380, 681.2305
473.5250, 773.0703
474.7110, 617.9375
475.8970, 534.8320
477.0820, 768.7520
478.2680, 690.6953
479.4540, 681.6680
480.6390, 722.6660
481.8240, 848.6895
483.0090, 837.7383
484.1940, 894.8125
485.3780, 823.9141
486.5630, 551.0410
487.7470, 471.1953
488.9320, 328.3730
490.1160, 382.5781
491.3000, 271.8086
492.4830, 168.0625
493.6670, 242.3438
494.8500, 146.6504
496.0340, 82.98242
497.2170, 124.3457
498.4000, 140.7344
499.5820, 9.839844
500.7650, 184.6074
501.9480, 93.08203
503.1300, 265.5801
504.3120, 259.1055
505.4940, 196.6641
506.6760, 229.2500
507.8580, 347.8945
509.0390, 470.5684
510.2210, 478.3223
511.4020, 324.1465
512.5830, 178.0469
513.7640, 286.0254
514.9450, 323.0703
516.1250, 324.3223
517.3060, 266.3594
518.4860, 245.5020
519.6660, 193.2090
520.8460, 161.8613
522.0260, 81.67969
523.2060, 109.1230
524.3850, 67.23047
525.5650, 335.9531
526.7440, 243.2676
527.9230, 249.7480
529.1020, 303.1113
530.2810, 252.4980
531.4590, 366.9102
532.6380, 344.3438
533.8160, 442.8047
534.9940, 402.2871
536.1720, 434.7930
537.3500, 733.3242
538.5270, 948.8770
539.7050, 1322.453
540.8820, 1773.055
542.0590, 2066.680
543.2360, 2599.328
544.4130, 3005.004
545.5900, 3585.707
546.7660, 3907.434
547.9430, 3883.184
549.1190, 3684.957
550.2950, 3348.756
551.4710, 2770.578
552.6470, 2197.434
553.8220, 1993.309
554.9980, 1719.207
556.1730, 1397.129
557.3480, 1319.076
558.5230, 1140.062
559.6980, 1309.072
560.8730, 1402.113
562.0470, 1350.176
563.2220, 1394.270
564.3960, 1677.426
565.5700, 1900.422
566.7440, 1978.203
567.9170, 2296.578
569.0910, 2371.391
570.2640, 2256.850
571.4380, 2161.844
572.6110, 1867.113
573.7840, 1568.844
574.9570, 1502.125
576.1290, 1250.914
577.3020, 1071.756
578.4740, 975.7812
579.6460, 815.7402
580.8180, 768.9082
581.9900, 776.1016
583.1620, 708.3984
584.3330, 706.6445
585.5040, 541.9160
586.6760, 729.2109
587.8470, 896.8398
589.0180, 736.8301
590.1880, 776.8262
591.3590, 880.0176
592.5290, 922.4883
593.7000, 869.2188
594.8700, 1002.516
596.0400, 881.5605
597.2090, 1116.051
598.3790, 850.5645
599.5490, 949.0977
600.7180, 827.6484
601.8870, 1016.221
603.0560, 865.8125
604.2250, 616.4219
605.3940, 706.0488
606.5620, 701.6992
607.7300, 578.3672
608.8990, 682.0605
610.0670, 712.7754
611.2350, 505.5059
612.4020, 508.2539
613.5700, 557.0234
614.7370, 506.8086
615.9050, 492.0215
617.0720, 518.4316
618.2390, 439.2695
619.4060, 450.1738
620.5720, 344.9141
621.7390, 441.8809
622.9050, 445.7832
624.0710, 495.7051
625.2370, 489.6406
626.4030, 436.5938
627.5690, 470.5625
628.7340, 300.5449
629.9000, 16.54492
631.0650, 189.5566
632.2300, 97.58594
633.3950, 337.6270
634.5600, 209.6836
635.7240, 328.7539
636.8890, 388.8418
638.0530, 664.9414
639.2170, 445.0547
640.3810, 787.9727
641.5450, 732.1133
642.7080, 789.2656
643.8720, 499.4316
645.0350, 937.6113
646.1980, 510.8027
647.3610, 519.0059
648.5240, 583.2207
649.6870, 330.4512
650.8490, 439.6875
652.0120, 363.9375
653.1740, 114.1992
654.3360, 54.46875
655.4980, 11.25000
656.6600, 70.96289
657.8210, 97.31445
658.9830, 57.59961
660.1440, 97.89648
661.3050, 61.79883
662.4660, 50.50195
663.6270, 132.2090
664.7870, 123.8125
665.9480, 17.26953
667.1080, 8.500000
668.2680, 101.7383
669.4280, 281.9824
670.5880, 262.2324
671.7480, 284.4922
672.9070, 283.7559
674.0670, 228.0293
675.2260, 428.3086
676.3850, 587.5957
677.5440, 454.8867
678.7030, 550.1836
679.8610, 705.4883
681.0200, 567.9883
682.1780, 568.6191
683.3360, 663.8047
684.4940, 843.5801
685.6520, 790.0879
686.8090, 865.5527
687.9670, 819.2852
689.1240, 712.9824
690.2810, 1068.658
691.4380, 1119.496
692.5950, 987.9199
693.7520, 1029.424
694.9080, 950.9668
696.0650, 1312.330
697.2210, 1317.967
698.3770, 1290.336
699.5330, 1627.510
700.6880, 1685.307
701.8440, 2138.629
702.9990, 1872.969
704.1550, 2211.238
705.3100, 2411.303
706.4650, 2229.879
707.6190, 2146.936
708.7740, 1958.365
709.9290, 1905.752
711.0830, 1743.883
712.2370, 1594.996
713.3910, 1596.709
714.5450, 1472.803
715.6980, 1348.039
716.8520, 1068.861
718.0050, 1064.256
719.1580, 815.3809
720.3110, 609.9688
721.4640, 426.2930
722.6170, 389.8633
723.7700, 179.7598
724.9220, 252.3066
726.0740, 68.16016
727.2260, 168.4336
728.3780, 27.12891
729.5300, 201.5527
730.6810, 54.62305
731.8330, 17.17578
732.9840, 58.93945
734.1350, 91.04492
735.2860, 144.1445
736.4370, 283.3535
737.5880, 160.4238
738.7380, 201.4805
739.8880, 404.5215
741.0390, 510.5508
742.1890, 654.5625
743.3380, 523.5605
744.4880, 724.5469
745.6380, 866.5156
746.7870, 797.1465
747.9360, 965.0840
749.0850, 820.0098
750.2340, 975.9199
751.3830, 1171.811
752.5310, 1008.688
753.6800, 978.5508
754.8280, 842.3945
755.9760, 793.2246
757.1240, 861.0391
758.2720, 857.8359
759.4190, 869.6152
760.5670, 928.3809
761.7140, 637.1309
762.8610, 671.8652
764.0080, 557.5801
765.1550, 734.2793
766.3020, 587.9629
767.4480, 692.6289
768.5950, 664.2812
769.7410, 655.2461
770.8870, 702.5332
772.0330, 750.1367
773.1780, 667.7227
774.3240, 863.2930
775.4690, 990.8457
776.6140, 718.3828
777.7590, 1132.904
778.9040, 1217.408
780.0490, 1547.896
781.1940, 1807.369
782.3380, 1964.822
783.4820, 2174.262
784.6260, 2471.686
785.7700, 3014.088
786.9140, 3306.477
788.0580, 3439.850
789.2010, 3606.205
790.3450, 3623.641
791.4880, 3848.859
792.6310, 3472.164
793.7730, 3321.271
794.9160, 3072.617
796.0590, 2390.869
797.2010, 2257.100
798.3430, 2227.314
799.4850, 1729.910
800.6270, 1636.893
801.7690, 1527.215
802.9100, 1122.930
804.0520, 1095.057
805.1930, 747.0273
806.3340, 1106.119
807.4750, 788.1953
808.6160, 508.2539
809.7560, 695.2910
810.8970, 506.3145
812.0370, 471.3184
813.1770, 474.3047
814.3170, 353.2734
815.4570, 281.2227
816.5960, 209.1543
817.7360, 159.0684
818.8750, 130.8105
820.0140, 74.83203
821.1530, 109.6777
822.2920, 168.4961
823.4310, 181.2969
824.5690, 120.0781
825.7070, 130.8359
826.8460, 138.5703
827.9840, 50.28320
829.1220, 203.9629
830.2590, 186.6230
831.3970, 179.2637
832.5340, 257.8789
833.6710, 8.523438
834.8080, 292.0156
835.9450, 42.53320
837.0820, 129.0137
838.2190, 82.47070
839.3550, 98.10352
840.4910, 41.21484
841.6270, 61.50391
842.7630, 340.3125
843.8990, 105.6465
845.0350, 194.4258
846.1700, 209.6562
847.3060, 62.05078
848.4410, 156.5410
849.5760, 277.1680
850.7100, 59.99805
851.8450, 189.9199
852.9800, 166.9961
854.1140, 94.77930
855.2480, 92.47266
856.3820, 432.1680
857.5160, 98.79102
858.6500, 379.3828
859.7830, 158.9512
860.9170, 297.4961
862.0500, 258.0215
863.1830, 171.2129
864.3160, 169.0449
865.4480, 259.8672
866.5810, 317.5020
867.7130, 198.8574
868.8460, 468.9551
869.9780, 377.2715
871.1100, 371.6328
872.2410, 173.9766
873.3730, 388.3027
874.5050, 528.6113
875.6360, 332.9023
876.7670, 433.2012
877.8980, 406.4844
879.0290, 312.7539
880.1590, 413.0000
881.2900, 376.2559
882.4200, 6.507813
883.5500, 321.7578
884.6800, 252.9902
885.8100, 503.2031
886.9400, 664.4004
888.0690, 459.5879
889.1990, 562.7578
890.3280, 459.9453
891.4570, 759.1133
892.5860, 827.2637
893.7140, 768.4062
894.8430, 891.5371
895.9710, 1314.680
897.1000, 1021.836
898.2280, 1397.045
899.3560, 1420.238
900.4830, 1618.426
901.6110, 2240.652
902.7380, 2445.861
903.8660, 3060.119
904.9930, 3720.381
906.1200, 4368.686
907.2460, 5411.980
908.3730, 6822.309
909.5000, 9002.617
910.6260, 11260.92
911.7520, 14219.20
912.8780, 17800.53
914.0040, 21530.83
915.1290, 25124.17
916.2550, 27584.49
917.3800, 27660.82
918.5050, 25541.17
919.6300, 22066.49
920.7550, 18245.80
921.8800, 14742.11
923.0040, 12138.40
924.1290, 9839.680
925.2530, 8300.430
926.3770, 7439.225
927.5010, 6433.471
928.6250, 5661.699
929.7480, 4995.912
930.8720, 4868.131
931.9950, 4539.334
933.1180, 4252.518
934.2410, 4116.703
935.3640, 4065.287
936.4860, 4147.133
937.6090, 4274.270
938.7310, 4581.459
939.8530, 4948.633
940.9750, 5292.793
942.0970, 5804.936
943.2180, 6765.062
944.3400, 7528.170
945.4610, 8172.258
946.5820, 8868.332
947.7030, 9443.387
948.8240, 9599.420
949.9450, 9257.443
951.0650, 8897.443
952.1860, 8028.426
953.3060, 6961.203
954.4260, 6655.836
955.5460, 5948.898
956.6650, 4931.365
957.7850, 4745.086
958.9040, 4017.836
960.0230, 3833.307
961.1420, 3426.797
962.2610, 3573.299
963.3800, 3302.623
964.4990, 3061.350
965.6170, 2692.980
966.7350, 3003.561
967.8530, 2841.305
968.9710, 2522.760
970.0890, 2650.469
971.2070, 2470.359
972.3240, 2344.615
973.4410, 2273.326
974.5580, 1835.008
975.6750, 1819.746
976.7920, 1376.672
977.9090, 1477.074
979.0250, 1364.984
980.1410, 1172.510
981.2580, 1004.068
982.3740, 954.8848
983.4890, 784.7344
984.6050, 695.0742
985.7200, 534.0195
986.8360, 478.8164
987.9510, 347.0645
989.0660, 297.7402
990.1810, 256.7012
991.2950, 198.1777
992.4100, 230.9023
993.5240, 178.3691
994.6390, 326.4883
995.7530, 125.9434
996.8660, 249.3906
997.9800, 141.5977
999.0940, 212.8926
1000.207, 280.4141
1001.320, 501.9902
1002.433, 432.5391
1003.546, 614.4941
1004.659, 626.4551
1005.772, 560.1719
1006.884, 731.0117
1007.996, 750.8691
1009.108, 985.9824
1010.220, 1218.559
1011.332, 1423.588
1012.444, 1965.432
1013.555, 1952.959
1014.666, 2004.660
1015.777, 2482.070
1016.888, 2209.799
1017.999, 2587.297
1019.110, 2295.824
1020.220, 2094.432
1021.331, 2136.912
1022.441, 2212.385
1023.551, 1921.602
1024.661, 1627.238
1025.770, 1448.723
1026.880, 1309.436
1027.989, 1221.492
1029.098, 1004.891
1030.207, 845.7852
1031.316, 957.0820
1032.425, 1013.510
1033.533, 695.5605
1034.642, 714.9746
1035.750, 900.7754
1036.858, 733.8945
1037.966, 846.4258
1039.073, 740.2578
1040.181, 733.1191
1041.288, 726.1680
1042.396, 696.8711
1043.503, 755.9531
1044.610, 741.4141
1045.716, 814.3750
1046.823, 929.8965
1047.929, 1131.172
1049.036, 1333.385
1050.142, 1161.455
1051.248, 1700.318
1052.353, 1780.945
1053.459, 2208.369
1054.564, 2506.408
1055.670, 3111.527
1056.775, 3521.631
1057.880, 3753.248
1058.985, 3842.822
1060.089, 3833.879
1061.194, 3193.076
1062.298, 2945.102
1063.402, 2622.771
1064.506, 2388.100
1065.610, 1905.074
1066.713, 1568.662
1067.817, 1472.432
1068.920, 1313.473
1070.023, 1079.383
1071.126, 1306.623
1072.229, 1328.500
1073.332, 1115.684
1074.435, 1038.525
1075.537, 1055.350
1076.639, 1028.158
1077.741, 1196.949
1078.843, 1012.723
1079.945, 1315.480
1081.046, 1116.221
1082.148, 1262.945
1083.249, 1217.652
1084.350, 1015.344
1085.451, 973.0195
1086.551, 1130.680
1087.652, 1179.322
1088.752, 1081.951
1089.853, 1193.570
1090.953, 1019.172
1092.053, 1159.758
1093.152, 1178.328
1094.252, 1185.883
1095.351, 1178.426
1096.451, 1102.959
1097.550, 1316.477
1098.649, 1422.977
1099.748, 1318.465
1100.846, 1558.934
1101.945, 1464.408
1103.043, 1649.867
1104.141, 1777.318
1105.239, 1883.756
1106.337, 1895.182
1107.434, 1781.637
1108.532, 1842.086
1109.629, 1511.553
1110.726, 1477.113
1111.823, 1379.660
1112.920, 1298.262
1114.017, 1085.922
1115.113, 1130.600
1116.210, 872.3242
1117.306, 864.1230
1118.402, 906.9414
1119.498, 1089.811
1120.593, 1018.727
1121.689, 737.6348
1122.784, 907.5684
1123.879, 680.4883
1124.974, 605.3945
1126.069, 723.2871
1127.164, 708.1680
1128.259, 692.0293
1129.353, 605.3691
1130.447, 467.7129
1131.541, 352.5352
1132.635, 239.3418
1133.729, 175.1309
1134.822, 89.90430
1135.916, 86.75977
1137.009, 144.3984
1138.102, 84.11719
1139.195, 108.8164
1140.288, 46.49805
1141.380, 73.83789
1142.473, 63.75391
1143.565, 107.3262
1144.657, 193.8789
1145.749, 75.58203
1146.841, 23.11328
1147.932, 102.6895
1149.024, 225.6562
1150.115, 173.9863
1151.206, 153.3008
1152.297, 8.400391
1153.388, 210.8613
1154.479, 99.89062
1155.569, 139.2715
1156.659, 174.4180
1157.750, 12.45117
1158.839, 33.63867
1159.929, 87.29102
1161.019, 95.29688
1162.108, 229.3848
1163.198, 7.373047
1164.287, 2.894531
1165.376, 184.1973
1166.465, 77.37305
1167.553, 212.0762
1168.642, 59.66797
1169.730, 192.3223
1170.818, 2.105469
1171.906, 164.9238
1172.994, 25.14258
1174.082, 40.18945
1175.170, 2.216797
1176.257, 165.7832
1177.344, 107.0977
1178.431, 172.0352
1179.518, 208.7090
1180.605, 74.55664
1181.691, 87.89258
1182.778, 59.70117
1183.864, 102.2773
1184.950, 45.16602
1186.036, 294.3457
1187.122, 289.8398
1188.207, 56.67773
1189.292, 42.75000
1190.378, 265.1582
1191.463, 122.5566
1192.548, 232.9355
1193.632, 29.69141
1194.717, 76.63672
1195.801, 314.9512
1196.886, 46.74805
1197.970, 50.49219
1199.054, 124.7148
1200.137, 154.9082
1201.221, 66.08789
1202.305, 235.2559
1203.388, 69.41211
1204.471, 322.5527
1205.554, 371.6836
1206.637, 228.8027
1207.719, 507.9102
1208.802, 466.0078
1209.884, 581.0938
1210.966, 711.1680
1212.048, 673.2344
1213.130, 907.2891
1214.212, 834.3340
1215.293, 1114.369
1216.374, 1101.393
1217.456, 1337.408
1218.536, 1509.414
1219.617, 1569.410
1220.698, 1899.398
1221.778, 1905.377
1222.859, 2257.350
1223.939, 2451.312
1225.019, 2726.119
1226.099, 2934.494
1227.178, 3410.148
1228.258, 3232.078
1229.337, 3618.002
1230.417, 3617.916
1231.496, 3751.820
1232.574, 4006.742
1233.653, 4120.656
1234.732, 4454.564
1235.810, 4754.467
1236.888, 4604.365
1237.966, 4846.260
1239.044, 5099.189
1240.122, 5344.113
1241.199, 5499.033
1242.277, 5729.801
1243.354, 5836.879
1244.431, 6076.797
1245.508, 6187.715
1246.585, 6270.623
1247.661, 6217.527
1248.738, 5807.420
1249.814, 6644.332
1250.890, 6371.234
1251.966, 5879.141
1253.042, 6184.035
1254.117, 5954.922
1255.193, 5776.805
1256.268, 5827.678
1257.343, 5651.545
1258.418, 5379.418
1259.493, 5660.285
1260.567, 5213.145
1261.642, 4707.031
1262.716, 4679.910
1263.790, 4676.770
1264.864, 4552.266
1265.938, 4407.742
1267.011, 4446.453
1268.085, 4033.906
1269.158, 3638.459
1270.231, 3660.744
1271.304, 3465.559
1272.377, 3098.912
1273.450, 2957.443
1274.522, 2825.295
1275.594, 2801.965
1276.666, 2529.916
1277.738, 2492.863
1278.810, 2154.711
1279.882, 2068.520
1280.953, 2077.242
1282.025, 1823.082
1283.096, 1861.918
1284.167, 1581.008
1285.238, 1593.660
1286.308, 1424.469
1287.379, 1380.027
1288.449, 1211.242
1289.519, 1365.129
1290.589, 1297.508
1291.659, 1080.477
1292.729, 1238.305
1293.798, 967.5000
1294.868, 977.3203
1295.937, 1227.750
1297.006, 1124.852
1298.075, 1036.531
1299.143, 842.9023
1300.212, 866.2344
1301.280, 804.3711
1302.348, 827.6133
