##NAMES=Andalusite
##RRUFFID=R050449
##IDEAL CHEMISTRY=Al_2_SiO_5_
##LOCALITY=Itinga, Minas Gerais, Brazil
##OWNER=RRUFF
##SOURCE=Marcus Origlieri
##DESCRIPTION=Green fragment
##STATUS=The identification of this mineral has been confirmed by X-ray diffraction and chemical analysis
##URL=rruff.info/R050449
##MEASURED CHEMISTRY=Al_2.00_Fe^3+^_0.01_Si_0.99_O_5_
##PIN_ID=L00608
##ORIENTATION=Laser parallel to b* (0 1 0). Fiducial mark perpendicular to laser is parallel to -c [0 0 -1]
119.3650, 0.0000000E+00
120.5960, 19.69385
121.8270, 109.1572
123.0580, 437.2705
124.2880, 481.8887
125.5190, 152.7183
126.7490, 14.97607
127.9790, 169.0952
129.2090, 281.7227
130.4390, 437.7031
131.6680, 422.6821
132.8980, 327.3716
134.1270, 303.6177
135.3560, 431.9526
136.5850, 508.7163
137.8140, 753.1338
139.0430, 856.8501
140.2710, 1044.372
141.5000, 1164.749
142.7280, 1214.192
143.9560, 1214.602
145.1840, 1216.081
146.4120, 1193.448
147.6390, 1131.596
148.8670, 793.4268
150.0940, 457.8501
151.3210, 570.7915
152.5490, 628.1919
153.7750, 556.0024
155.0020, 332.1841
156.2290, 176.7026
157.4550, 39.52979
158.6810, 31.36377
159.9080, 91.00146
161.1340, 76.91406
162.3590, 54.58350
163.5850, 93.44287
164.8110, 217.6646
166.0360, 455.1240
167.2610, 410.4541
168.4860, 442.1084
169.7110, 412.4897
170.9360, 370.9253
172.1610, 484.5557
173.3850, 333.2969
174.6100, 361.2524
175.8340, 478.1812
177.0580, 610.9966
178.2820, 603.7266
179.5050, 664.3867
180.7290, 713.9888
181.9520, 761.5430
183.1760, 845.0610
184.3990, 964.5527
185.6220, 1159.027
186.8450, 1521.493
188.0670, 1820.958
189.2900, 2023.428
190.5120, 2397.914
191.7340, 2696.422
192.9560, 2953.954
194.1780, 3209.500
195.4000, 3231.046
196.6220, 3314.573
197.8430, 3296.093
199.0640, 3426.631
200.2860, 3665.191
201.5070, 3674.780
202.7270, 3445.500
203.9480, 3745.047
205.1690, 2768.722
206.3890, 1864.429
207.6090, 1473.177
208.8290, 1300.967
210.0490, 1163.806
211.2690, 1060.697
212.4890, 1006.457
213.7080, 1056.044
214.9280, 1094.103
216.1470, 1060.330
217.3660, 1071.344
218.5850, 1093.486
219.8030, 1067.048
221.0220, 1147.153
222.2400, 1095.677
223.4590, 1117.326
224.6770, 1192.101
225.8950, 1236.000
227.1120, 1360.023
228.3300, 1356.784
229.5480, 1432.273
230.7650, 1427.420
231.9820, 1368.247
233.1990, 1346.492
234.4160, 1364.041
235.6330, 1260.702
236.8490, 1050.467
238.0660, 1066.337
239.2820, 970.3135
240.4980, 1081.388
241.7140, 1117.547
242.9300, 1052.796
244.1460, 1206.132
245.3610, 1159.560
246.5770, 1013.078
247.7920, 986.6904
249.0070, 1012.395
250.2220, 883.1924
251.4370, 963.0854
252.6510, 899.0747
253.8660, 944.1606
255.0800, 749.3457
256.2940, 778.6289
257.5080, 797.0132
258.7220, 941.4980
259.9360, 864.3252
261.1490, 774.5576
262.3630, 765.5713
263.5760, 492.4736
264.7890, 410.4854
266.0020, 354.6025
267.2150, 258.4180
268.4270, 412.1250
269.6400, 303.4258
270.8520, 411.8750
272.0640, 287.4492
273.2760, 455.3672
274.4880, 391.0117
275.7000, 316.0684
276.9120, 376.0273
278.1230, 479.0537
279.3340, 558.1572
280.5450, 775.3438
281.7560, 754.6211
282.9670, 1186.988
284.1780, 1570.452
285.3880, 2140.917
286.5980, 2833.149
287.8090, 3797.393
289.0190, 4792.760
290.2290, 6413.247
291.4380, 8064.846
292.6480, 9627.558
293.8570, 9951.379
295.0670, 9552.305
296.2760, 8200.331
297.4850, 6401.460
298.6930, 4591.688
299.9020, 2940.013
301.1110, 1885.435
302.3190, 1021.952
303.5270, 435.5352
304.7350, 7.605469
305.9430, 353.5732
307.1510, 584.7793
308.3580, 785.6191
309.5660, 599.9746
310.7730, 455.3838
311.9800, 99.18848
313.1870, 579.8350
314.3940, 1385.546
315.6010, 2076.323
316.8070, 3278.166
318.0130, 5017.080
319.2200, 7454.062
320.4260, 10095.11
321.6310, 13191.24
322.8370, 14375.43
324.0430, 14557.70
325.2480, 12552.03
326.4540, 9754.440
327.6590, 6567.926
328.8640, 4121.483
330.0680, 2332.117
331.2730, 1160.826
332.4780, 699.6123
333.6820, 310.4756
334.8860, 14.15039
336.0900, 124.6787
337.2940, 29.28027
338.4980, 6.879883
339.7010, 33.98926
340.9050, 117.0898
342.1080, 310.9883
343.3110, 502.0205
344.5140, 759.2637
345.7170, 1043.327
346.9200, 1298.094
348.1220, 1854.449
349.3240, 2181.264
350.5270, 2876.156
351.7290, 3750.130
352.9310, 4729.186
354.1320, 5923.321
355.3340, 7538.539
356.5350, 9510.838
357.7370, 11593.20
358.9380, 13421.30
360.1390, 14693.97
361.3400, 15257.58
362.5400, 14317.29
363.7410, 13014.09
364.9410, 11130.99
366.1410, 9465.984
367.3410, 8085.075
368.5410, 7200.266
369.7410, 6286.552
370.9400, 5676.934
372.1400, 5541.415
373.3390, 5170.936
374.5380, 5081.520
375.7370, 4737.193
376.9360, 4562.961
378.1350, 4358.823
379.3330, 4120.777
380.5310, 4033.826
381.7300, 3907.966
382.9280, 3845.448
384.1260, 3803.476
385.3230, 3840.944
386.5210, 3865.456
387.7180, 3958.061
388.9160, 4220.759
390.1130, 4374.551
391.3100, 4493.556
392.5060, 4718.413
393.7030, 4706.485
394.9000, 4810.650
396.0960, 4869.908
397.2920, 4725.260
398.4880, 4566.711
399.6840, 4319.260
400.8800, 4355.908
402.0750, 4286.662
403.2710, 3779.553
404.4660, 3924.575
405.6610, 3962.735
406.8560, 3961.049
408.0510, 4091.500
409.2450, 4063.111
410.4400, 4119.859
411.6340, 3908.725
412.8280, 3979.730
414.0220, 3895.859
415.2160, 3998.089
416.4100, 3894.416
417.6030, 4179.855
418.7970, 4329.393
419.9900, 4238.030
421.1830, 4221.765
422.3760, 4225.599
423.5690, 3926.532
424.7610, 3898.564
425.9540, 3701.695
427.1460, 3379.927
428.3380, 3300.256
429.5300, 3098.686
430.7220, 2838.216
431.9140, 2957.848
433.1050, 2785.578
434.2970, 2626.412
435.4880, 2624.346
436.6790, 2541.380
437.8700, 2581.515
439.0610, 2669.752
440.2510, 3049.091
441.4420, 3075.530
442.6320, 3491.072
443.8220, 3924.719
445.0120, 4179.469
446.2020, 4367.323
447.3910, 4739.285
448.5810, 4997.553
449.7700, 5212.814
450.9600, 5668.723
452.1490, 6085.152
453.3370, 6376.641
454.5260, 6226.229
455.7150, 5262.038
456.9030, 4042.966
458.0910, 2964.008
459.2800, 2099.166
460.4670, 1761.442
461.6550, 1385.834
462.8430, 1025.343
464.0300, 625.9678
465.2180, 584.7090
466.4050, 413.5693
467.5920, 489.5449
468.7790, 360.6416
469.9650, 226.8584
471.1520, 170.2070
472.3380, 228.6758
473.5250, 58.26855
474.7110, 55.98730
475.8970, 67.83398
477.0820, 33.20215
478.2680, 85.97949
479.4540, 123.8896
480.6390, 177.9004
481.8240, 215.0332
483.0090, 243.1650
484.1940, 260.7559
485.3780, 310.3096
486.5630, 400.8379
487.7470, 352.3643
488.9320, 299.8682
490.1160, 31.31055
491.3000, 74.38867
492.4830, 218.2227
493.6670, 602.1875
494.8500, 870.2793
496.0340, 1152.504
497.2170, 1437.855
498.4000, 1933.331
499.5820, 2169.924
500.7650, 2589.633
501.9480, 2909.459
503.1300, 3246.403
504.3120, 3621.467
505.4940, 3947.647
506.6760, 4380.946
507.8580, 4698.361
509.0390, 5070.896
510.2210, 5482.547
511.4020, 5938.315
512.5830, 6003.201
513.7640, 6330.201
514.9450, 6276.318
516.1250, 6272.551
517.3060, 6308.898
518.4860, 6266.363
519.6660, 5835.943
520.8460, 5882.637
522.0260, 5784.445
523.2060, 5873.368
524.3850, 5751.405
525.5650, 5976.555
526.7440, 5958.817
527.9230, 6105.195
529.1020, 6324.685
530.2810, 6503.287
531.4590, 6706.000
532.6380, 7100.824
533.8160, 7532.759
534.9940, 8066.807
536.1720, 8633.604
537.3500, 9144.230
538.5270, 9931.607
539.7050, 10761.45
540.8820, 11491.60
542.0590, 12186.12
543.2360, 13052.80
544.4130, 13615.65
545.5900, 14246.80
546.7660, 14927.11
547.9430, 15225.28
549.1190, 15790.31
550.2950, 16272.47
551.4710, 16668.54
552.6470, 17089.07
553.8220, 17379.89
554.9980, 17527.72
556.1730, 17272.65
557.3480, 16935.68
558.5230, 16385.80
559.6980, 15961.02
560.8730, 15538.69
562.0470, 14891.75
563.2220, 14702.25
564.3960, 14398.85
565.5700, 14045.53
566.7440, 13921.32
567.9170, 13842.19
569.0910, 13993.16
570.2640, 14193.21
571.4380, 14143.36
572.6110, 14395.59
573.7840, 14203.92
574.9570, 13881.33
576.1290, 13860.84
577.3020, 13463.46
578.4740, 13188.22
579.6460, 12704.15
580.8180, 12268.32
581.9900, 11693.71
583.1620, 11121.36
584.3330, 10495.28
585.5040, 9953.438
586.6760, 9484.853
587.8470, 9060.512
589.0180, 8553.417
590.1880, 8388.576
591.3590, 8269.061
592.5290, 7858.886
593.7000, 7692.129
594.8700, 7394.711
596.0400, 7301.582
597.2090, 7139.637
598.3790, 7156.870
599.5490, 7053.221
600.7180, 7255.680
601.8870, 7242.238
603.0560, 7450.903
604.2250, 7603.668
605.3940, 7955.527
606.5620, 8233.475
607.7300, 8560.525
608.8990, 9023.833
610.0670, 9400.514
611.2350, 10029.81
612.4020, 10648.87
613.5700, 11311.23
614.7370, 11914.44
615.9050, 12528.68
617.0720, 13211.04
618.2390, 13700.16
619.4060, 14060.72
620.5720, 14571.19
621.7390, 14805.79
622.9050, 15113.07
624.0710, 15284.54
625.2370, 15632.06
626.4030, 15715.65
627.5690, 16027.93
628.7340, 16269.86
629.9000, 16567.34
631.0650, 16980.07
632.2300, 17018.64
633.3950, 17081.74
634.5600, 17071.96
635.7240, 16936.57
636.8890, 16630.75
638.0530, 16208.64
639.2170, 15892.98
640.3810, 15321.71
641.5450, 14952.67
642.7080, 14597.50
643.8720, 14253.13
645.0350, 14035.99
646.1980, 13754.20
647.3610, 13630.18
648.5240, 13475.20
649.6870, 13224.26
650.8490, 12952.35
652.0120, 12355.48
653.1740, 11521.64
654.3360, 10524.84
655.4980, 9598.066
656.6600, 8561.684
657.8210, 7638.252
658.9830, 6809.201
660.1440, 5887.277
661.3050, 5263.650
662.4660, 4692.053
663.6270, 4044.478
664.7870, 3499.928
665.9480, 2788.401
667.1080, 2254.898
668.2680, 1793.417
669.4280, 1489.955
670.5880, 1057.514
671.7480, 749.0908
672.9070, 853.6865
674.0670, 528.2988
675.2260, 364.9268
676.3850, 368.5693
677.5440, 178.2266
678.7030, 6.102539
679.8610, 13.42773
681.0200, 21.75391
682.1780, 50.08105
683.3360, 199.4238
684.4940, 181.8418
685.6520, 201.3281
686.8090, 269.7559
687.9670, 208.6553
689.1240, 299.3408
690.2810, 183.2363
691.4380, 88.21094
692.5950, 191.2246
693.7520, 109.3213
694.9080, 83.53125
696.0650, 151.3818
697.2210, 263.2324
698.3770, 257.0811
699.5330, 311.9258
700.6880, 436.1562
701.8440, 594.6035
702.9990, 668.4336
704.1550, 748.2578
705.3100, 827.0752
706.4650, 908.4951
707.6190, 1016.774
708.7740, 1103.475
709.9290, 1261.254
711.0830, 1426.022
712.2370, 1593.777
713.3910, 1828.521
714.5450, 1919.295
715.6980, 2217.160
716.8520, 2304.521
718.0050, 2290.724
719.1580, 2261.569
720.3110, 2238.695
721.4640, 1745.180
722.6170, 1255.602
723.7700, 1113.076
724.9220, 781.3555
726.0740, 512.1133
727.2260, 296.4316
728.3780, 380.9453
729.5300, 364.5107
730.6810, 569.4863
731.8330, 452.5986
732.9840, 720.6787
734.1350, 767.1279
735.2860, 780.7246
736.4370, 1020.844
737.5880, 1033.447
738.7380, 963.4072
739.8880, 797.9658
741.0390, 987.4580
742.1890, 821.7666
743.3380, 522.8418
744.4880, 567.1123
745.6380, 424.2344
746.7870, 401.7969
747.9360, 381.1777
749.0850, 250.9600
750.2340, 369.0850
751.3830, 356.1240
752.5310, 314.0732
753.6800, 296.9268
754.8280, 412.6787
755.9760, 431.3447
757.1240, 510.9346
758.2720, 516.4551
759.4190, 500.9102
760.5670, 534.0693
761.7140, 436.6582
762.8610, 499.9570
764.0080, 377.2090
765.1550, 258.4150
766.3020, 249.5645
767.4480, 141.6426
768.5950, 174.6055
769.7410, 257.4189
770.8870, 315.1045
772.0330, 314.7744
773.1780, 304.1299
774.3240, 325.4648
775.4690, 390.6846
776.6140, 439.7988
777.7590, 631.8154
778.9040, 498.7432
780.0490, 758.5742
781.1940, 776.3164
782.3380, 996.9648
783.4820, 1070.522
784.6260, 1115.986
785.7700, 1161.357
786.9140, 1391.636
788.0580, 1572.820
789.2010, 1809.912
790.3450, 1891.906
791.4880, 2211.807
792.6310, 2226.613
793.7730, 2442.324
794.9160, 2804.939
796.0590, 3015.459
797.2010, 3412.881
798.3430, 3704.207
799.4850, 4115.436
800.6270, 4303.568
801.7690, 4855.603
802.9100, 5453.540
804.0520, 6108.381
805.1930, 6895.174
806.3340, 7679.765
807.4750, 8637.310
808.6160, 9619.754
809.7560, 10605.10
810.8970, 11575.35
812.0370, 12904.50
813.1770, 14145.55
814.3170, 15848.50
815.4570, 17324.35
816.5960, 18883.75
817.7360, 20303.85
818.8750, 22003.58
820.0140, 22955.16
821.1530, 23498.58
822.2920, 23573.71
823.4310, 23035.68
824.5690, 22149.81
825.7070, 20615.07
826.8460, 18969.20
827.9840, 17053.44
829.1220, 15316.22
830.2590, 13578.72
831.3970, 11977.20
832.5340, 10784.59
833.6710, 9694.881
834.8080, 8784.081
835.9450, 7831.184
837.0820, 7104.195
838.2190, 6281.110
839.3550, 5391.932
840.4910, 4509.660
841.6270, 3741.293
842.7630, 3170.832
843.8990, 2604.277
845.0350, 1964.629
846.1700, 1516.887
847.3060, 1251.051
848.4410, 1007.121
849.5760, 589.0977
850.7100, 385.9844
851.8450, 207.7666
852.9800, 24.41406
854.1140, 118.1396
855.2480, 320.9697
856.3820, 279.1826
857.5160, 477.7529
858.6500, 462.7871
859.7830, 354.2764
860.9170, 433.1602
862.0500, 411.4795
863.1830, 407.2236
864.3160, 397.3857
865.4480, 385.4404
866.5810, 251.9424
867.7130, 353.2559
868.8460, 244.9551
869.9780, 190.9785
871.1100, 213.2969
872.2410, 193.9209
873.3730, 34.16309
874.5050, 60.07715
875.6360, 84.83594
876.7670, 58.45117
877.8980, 78.05469
879.0290, 103.2383
880.1590, 90.43262
881.2900, 63.49609
882.4200, 95.41895
883.5500, 181.0469
884.6800, 295.2773
885.8100, 448.8691
886.9400, 474.6953
888.0690, 627.1973
889.1990, 627.8350
890.3280, 912.9854
891.4570, 967.8828
892.5860, 1219.833
893.7140, 1334.903
894.8430, 1644.899
895.9710, 1995.823
897.1000, 2268.675
898.2280, 2849.150
899.3560, 3358.859
900.4830, 3875.416
901.6110, 4665.141
902.7380, 5354.459
903.8660, 5969.584
904.9930, 6809.939
906.1200, 7825.066
907.2460, 8748.650
908.3730, 9703.098
909.5000, 11062.15
910.6260, 12851.61
911.7520, 14672.36
912.8780, 17025.63
914.0040, 19855.51
915.1290, 23094.14
916.2550, 27304.91
917.3800, 31781.61
918.5050, 36435.27
919.6300, 40306.88
920.7550, 41749.42
921.8800, 40212.93
923.0040, 36435.40
924.1290, 31678.80
925.2530, 27429.17
926.3770, 24115.49
927.5010, 21690.77
928.6250, 19997.00
929.7480, 18192.20
930.8720, 16510.36
931.9950, 14357.47
933.1180, 12417.55
934.2410, 10853.59
935.3640, 9206.593
936.4860, 7995.564
937.6090, 7189.501
938.7310, 6162.403
939.8530, 5702.274
940.9750, 5212.115
942.0970, 4612.926
943.2180, 4442.706
944.3400, 4219.458
945.4610, 3976.183
946.5820, 3892.880
947.7030, 3768.552
948.8240, 3870.198
949.9450, 3810.821
951.0650, 3695.421
952.1860, 3603.002
953.3060, 3446.570
954.4260, 3338.563
955.5460, 3168.666
956.6650, 3077.234
957.7850, 2942.823
958.9040, 2791.439
960.0230, 2751.499
961.1420, 2716.081
962.2610, 2682.533
963.3800, 2752.304
964.4990, 2788.084
965.6170, 2821.895
966.7350, 2833.721
967.8530, 2919.807
968.9710, 3018.346
970.0890, 3071.146
971.2070, 3217.940
972.3240, 3263.729
973.4410, 3335.512
974.5580, 3476.290
975.6750, 3626.066
976.7920, 3832.838
977.9090, 3807.611
979.0250, 3946.385
980.1410, 3869.156
981.2580, 3853.930
982.3740, 3834.705
983.4890, 3807.662
984.6050, 3861.646
985.7200, 3984.511
986.8360, 3987.153
987.9510, 4112.293
989.0660, 4192.580
990.1810, 4382.417
991.2950, 4626.562
992.4100, 4882.544
993.5240, 5218.580
994.6390, 5577.551
995.7530, 6085.711
996.8660, 6927.385
997.9800, 7853.491
999.0940, 9389.393
1000.207, 10954.24
1001.320, 13187.66
1002.433, 15815.94
1003.546, 18411.24
1004.659, 20742.17
1005.772, 22077.94
1006.884, 22839.17
1007.996, 22267.91
1009.108, 20336.28
1010.220, 17947.04
1011.332, 15113.86
1012.444, 12506.86
1013.555, 10294.08
1014.666, 8649.098
1015.777, 7213.252
1016.888, 6379.957
1017.999, 5869.832
1019.110, 5201.298
1020.220, 4797.396
1021.331, 4494.569
1022.441, 4132.816
1023.551, 3968.143
1024.661, 3807.555
1025.770, 3678.037
1026.880, 3530.598
1027.989, 3450.229
1029.098, 3356.397
1030.207, 3356.766
1031.316, 3209.668
1032.425, 3150.650
1033.533, 3055.720
1034.642, 2974.223
1035.750, 3035.147
1036.858, 2867.578
1037.966, 3003.147
1039.073, 3030.885
1040.181, 2848.728
1041.288, 2606.686
1042.396, 2405.801
1043.503, 2255.071
1044.610, 1989.467
1045.716, 1770.306
1046.823, 1470.681
1047.929, 1290.562
1049.036, 1135.600
1050.142, 962.8027
1051.248, 914.1797
1052.353, 853.6807
1053.459, 847.3760
1054.564, 807.2363
1055.670, 838.2490
1056.775, 766.4180
1057.880, 653.7402
1058.985, 831.2109
1060.089, 1173.853
1061.194, 1173.640
1062.298, 1499.562
1063.402, 1849.621
1064.506, 2094.840
1065.610, 2236.165
1066.713, 2209.611
1067.817, 2154.175
1068.920, 1706.834
1070.023, 1767.591
1071.126, 1460.448
1072.229, 1456.402
1073.332, 1406.472
1074.435, 1492.638
1075.537, 1480.902
1076.639, 1604.265
1077.741, 1284.727
1078.843, 1159.286
1079.945, 1168.945
1081.046, 1312.706
1082.148, 1279.564
1083.249, 1248.522
1084.350, 1294.580
1085.451, 1162.737
1086.551, 956.9932
1087.652, 957.3506
1088.752, 735.8086
1089.853, 816.3662
1090.953, 871.0225
1092.053, 659.7793
1093.152, 624.6357
1094.252, 600.5928
1095.351, 579.6494
1096.451, 481.8066
1097.550, 379.0625
1098.649, 343.4199
1099.748, 336.8770
1100.846, 204.4326
1101.945, 288.0889
1103.043, 287.8457
1104.141, 216.7051
1105.239, 249.4941
1106.337, 239.7227
1107.434, 214.8828
1108.532, 174.1436
1109.629, 154.5059
1110.726, 169.9697
1111.823, 161.5352
1112.920, 108.2012
1114.017, 31.96875
1115.113, 26.16211
1116.210, 50.19336
1117.306, 175.8730
1118.402, 122.0469
1119.498, 52.34375
1120.593, 201.7969
1121.689, 134.4434
1122.784, 217.3359
1123.879, 201.4639
1124.974, 99.87988
1126.069, 259.5781
1127.164, 235.5312
1128.259, 190.7568
1129.353, 136.2510
1130.447, 47.01074
1131.541, 80.35352
1132.635, 72.31445
1133.729, 136.8174
1134.822, 132.5693
1135.916, 157.5410
1137.009, 100.7158
1138.102, 125.0996
1139.195, 127.6855
1140.288, 269.4131
1141.380, 299.2744
1142.473, 284.2617
1143.565, 244.3828
1144.657, 475.6289
1145.749, 240.9961
1146.841, 419.4844
1147.932, 550.0977
1149.024, 406.8291
1150.115, 425.6680
1151.206, 506.6045
1152.297, 488.6377
1153.388, 399.7637
1154.479, 527.9854
1155.569, 448.3008
1156.659, 531.7080
1157.750, 471.2080
1158.839, 677.8008
1159.929, 556.4844
1161.019, 578.8340
1162.108, 710.6982
1163.198, 681.6533
1164.287, 756.0674
1165.376, 722.1992
1166.465, 830.8721
1167.553, 780.5400
1168.642, 676.1377
1169.730, 895.3594
1170.818, 872.1729
1171.906, 852.6191
1172.994, 900.1523
1174.082, 838.4170
1175.170, 965.8975
1176.257, 826.2793
1177.344, 999.7646
1178.431, 1063.736
1179.518, 1071.363
1180.605, 1140.528
1181.691, 1240.671
1182.778, 1126.928
1183.864, 1210.728
1184.950, 1258.228
1186.036, 1205.516
1187.122, 1172.538
1188.207, 1310.738
1189.292, 1253.535
1190.378, 1439.424
1191.463, 1338.098
1192.548, 1344.762
1193.632, 1318.492
1194.717, 1362.498
1195.801, 1427.000
1196.886, 1434.124
1197.970, 1344.704
1199.054, 1415.387
1200.137, 1307.848
1201.221, 1252.071
1202.305, 1199.759
1203.388, 1198.892
1204.471, 1279.449
1205.554, 1219.270
1206.637, 1267.034
1207.719, 1235.052
1208.802, 1171.331
1209.884, 1184.488
1210.966, 1122.324
1212.048, 1031.215
1213.130, 1037.049
1214.212, 970.8467
1215.293, 934.6826
1216.374, 972.5547
1217.456, 907.4980
1218.536, 750.5117
1219.617, 866.4902
1220.698, 773.5029
1221.778, 794.5488
1222.859, 762.9268
1223.939, 626.7373
1225.019, 632.8770
1226.099, 510.0469
1227.178, 380.2461
1228.258, 458.4727
1229.337, 478.7275
1230.417, 402.0117
1231.496, 441.3203
1232.574, 415.6582
1233.653, 401.1611
1234.732, 403.4092
1235.810, 370.8203
1236.888, 368.5752
1237.966, 389.7139
1239.044, 363.1973
1240.122, 345.7100
1241.199, 374.2441
1242.277, 380.7988
1243.354, 387.7441
1244.431, 421.9902
1245.508, 414.4512
1246.585, 445.7930
1247.661, 469.4785
1248.738, 386.1924
1249.814, 580.9316
1250.890, 475.6885
1251.966, 471.4619
1253.042, 626.2646
1254.117, 861.0791
1255.193, 434.9082
1256.268, 380.7461
1257.343, 504.5928
1258.418, 586.4434
1259.493, 606.2969
1260.567, 548.1553
1261.642, 640.0127
1262.716, 487.8721
1263.790, 518.7266
1264.864, 537.5752
1265.938, 443.4160
1267.011, 365.2490
1268.085, 570.0732
1269.158, 420.8867
1270.231, 519.6855
1271.304, 505.4717
1272.377, 346.2422
1273.450, 543.9941
1274.522, 401.7285
1275.594, 327.4434
1276.666, 386.1367
1277.738, 424.8076
1278.810, 372.4541
1279.882, 287.0752
1280.953, 267.6719
1282.025, 355.2402
1283.096, 378.7803
1284.167, 229.2891
1285.238, 220.7676
1286.308, 77.22363
1287.379, 89.64453
1288.449, 50.03223
1289.519, 131.6162
1290.589, 143.6084
1291.659, 53.79395
1292.729, 12.93555
1293.798, 158.0166
1294.868, 29.92871
1295.937, 151.9805
1297.006, 18.15332
1298.075, 134.4385
1299.143, 67.12695
