##NAMES=Andalusite
##RRUFFID=R060212
##IDEAL CHEMISTRY=Al_2_SiO_5_
##LOCALITY=Brazil
##OWNER=RRUFF
##SOURCE=Marcus Origlieri
##DESCRIPTION=Transparent yellow-green water-worn pebble
##STATUS=The identification of this mineral is confirmed by single-crystal X-ray diffraction and chemical analysis.
##URL=rruff.info/R060212
##MEASURED CHEMISTRY=(Al_1.98_Fe^3+^_0.02_)_Î£=2_Si_1.00_O_5_
##PIN_ID=L00827
##ORIENTATION=Laser parallel to -b* (0 -1 0). Fiducial mark perpendicular to laser is parallel to c [0 0 1]
99.64900, 0.0000000E+00
100.8830, 4.067383
102.1160, 4.107422
103.3490, 60.36426
104.5820, 26.46484
105.8150, 307.8516
107.0470, 381.2793
108.2800, 639.2656
109.5120, 943.7900
110.7440, 826.0693
111.9760, 484.4951
113.2080, 383.5898
114.4400, 420.9844
115.6710, 637.4697
116.9030, 507.8623
118.1340, 482.9131
119.3650, 298.4150
120.5960, 309.1963
121.8270, 334.1123
123.0580, 336.0449
124.2880, 449.8936
125.5190, 354.5801
126.7490, 451.0391
127.9790, 435.2256
129.2090, 579.1035
130.4390, 620.1465
131.6680, 811.1924
132.8980, 759.8818
134.1270, 893.9629
135.3560, 1144.424
136.5850, 1194.248
137.8140, 1163.409
139.0430, 1432.878
140.2710, 1471.631
141.5000, 1733.654
142.7280, 1614.933
143.9560, 1528.455
145.1840, 1557.214
146.4120, 1324.200
147.6390, 1149.413
148.8670, 1022.860
150.0940, 901.5459
151.3210, 950.4629
152.5490, 693.6035
153.7750, 695.9580
155.0020, 634.5264
156.2290, 398.8721
157.4550, 471.8398
158.6810, 307.5547
159.9080, 426.2236
161.1340, 315.3896
162.3590, 437.8789
163.5850, 428.5947
164.8110, 575.7803
166.0360, 671.4717
167.2610, 557.3457
168.4860, 571.3906
169.7110, 607.6025
170.9360, 416.9775
172.1610, 454.5098
173.3850, 546.1484
174.6100, 515.7559
175.8340, 413.3682
177.0580, 435.0059
178.2820, 461.6865
179.5050, 212.4219
180.7290, 501.2178
181.9520, 494.0820
183.1760, 317.0225
184.3990, 455.0400
185.6220, 701.1406
186.8450, 768.3252
188.0670, 967.5957
189.2900, 864.9531
190.5120, 1094.398
191.7340, 1050.933
192.9560, 908.5566
194.1780, 1170.359
195.4000, 1005.403
196.6220, 922.7207
197.8430, 956.2725
199.0640, 733.9707
200.2860, 917.7754
201.5070, 1004.651
202.7270, 974.5967
203.9480, 794.6133
205.1690, 484.6982
206.3890, 346.8486
207.6090, 287.1123
208.8290, 105.5498
210.0490, 63.11035
211.2690, 21.26465
212.4890, 40.45117
213.7080, 61.22656
214.9280, 14.06348
216.1470, 33.01855
217.3660, 21.08398
218.5850, 55.06836
219.8030, 40.99219
221.0220, 184.8574
222.2400, 139.6621
223.4590, 8.408203
224.6770, 1.902344
225.8950, 107.7275
227.1120, 9.273438
228.3300, 68.73340
229.5480, 12.87207
230.7650, 35.55469
231.9820, 113.3076
233.1990, 182.0996
234.4160, 260.8818
235.6330, 368.7002
236.8490, 621.5508
238.0660, 676.4404
239.2820, 821.3877
240.4980, 759.3867
241.7140, 773.0000
242.9300, 572.5439
244.1460, 616.6992
245.3610, 481.9023
246.5770, 269.1162
247.7920, 204.0723
249.0070, 139.0498
250.2220, 350.1768
251.4370, 82.75391
252.6510, 258.6162
253.8660, 192.7295
255.0800, 184.0703
256.2940, 314.6152
257.5080, 308.3477
258.7220, 416.2520
259.9360, 415.6475
261.1490, 545.5322
262.3630, 418.8857
263.5760, 357.3711
264.7890, 374.9785
266.0020, 260.7031
267.2150, 370.5391
268.4270, 572.4785
269.6400, 693.5205
270.8520, 752.6582
272.0640, 826.8887
273.2760, 1077.208
274.4880, 1191.613
275.7000, 1537.102
276.9120, 1521.665
278.1230, 2005.304
279.3340, 2768.013
280.5450, 3250.788
281.7560, 4288.630
282.9670, 5471.537
284.1780, 6672.509
285.3880, 8237.544
286.5980, 9774.572
287.8090, 11737.03
289.0190, 13323.05
290.2290, 14182.29
291.4380, 13975.46
292.6480, 12541.21
293.8570, 10673.40
295.0670, 8206.927
296.2760, 6158.857
297.4850, 4614.313
298.6930, 3362.089
299.9020, 2749.773
301.1110, 1926.506
302.3190, 1633.282
303.5270, 1212.102
304.7350, 1290.963
305.9430, 1243.852
307.1510, 1315.700
308.3580, 1571.613
309.5660, 2390.546
310.7730, 3300.508
311.9800, 4315.527
313.1870, 5684.299
314.3940, 7311.399
315.6010, 9424.966
316.8070, 11850.65
318.0130, 13986.10
319.2200, 15813.36
320.4260, 16258.71
321.6310, 14453.04
322.8370, 12163.82
324.0430, 9065.230
325.2480, 6908.676
326.4540, 5200.160
327.6590, 3957.680
328.8640, 3079.238
330.0680, 2320.832
331.2730, 1938.463
332.4780, 1661.129
333.6820, 1352.834
334.8860, 1160.574
336.0900, 1211.350
337.2940, 1034.162
338.4980, 1068.006
339.7010, 1201.885
340.9050, 967.7969
342.1080, 1448.754
343.3110, 1594.738
344.5140, 1750.754
345.7170, 2190.799
346.9200, 2780.873
348.1220, 3649.984
349.3240, 4619.121
350.5270, 5897.293
351.7290, 7356.496
352.9310, 9026.949
354.1320, 10921.21
355.3340, 12622.26
356.5350, 13707.35
357.7370, 14230.77
358.9380, 13633.13
360.1390, 12228.91
361.3400, 10565.32
362.5400, 8497.531
363.7410, 7034.156
364.9410, 5748.098
366.1410, 4765.875
367.3410, 3764.229
368.5410, 3173.705
369.7410, 2695.273
370.9400, 2390.658
372.1400, 1902.195
373.3390, 1637.666
374.5380, 1434.336
375.7370, 1189.027
376.9360, 1227.113
378.1350, 887.8496
379.3330, 787.6074
380.5310, 780.3867
381.7300, 561.1973
382.9280, 461.0195
384.1260, 577.8633
385.3230, 494.7305
386.5210, 558.6152
387.7180, 753.5234
388.9160, 664.4492
390.1130, 593.3965
391.3100, 790.1875
392.5060, 659.2227
393.7030, 454.2988
394.9000, 457.4121
396.0960, 387.5645
397.2920, 331.7520
398.4880, 296.2539
399.6840, 247.3203
400.8800, 211.5215
402.0750, 183.8418
403.2710, 177.1953
404.4660, 197.1875
405.6610, 236.5996
406.8560, 283.4316
408.0510, 368.9043
409.2450, 444.4043
410.4400, 528.9336
411.6340, 668.4688
412.8280, 797.6602
414.0220, 945.6797
415.2160, 1115.312
416.4100, 1216.973
417.6030, 1373.658
418.7970, 1044.367
419.9900, 1074.102
421.1830, 846.8613
422.3760, 536.6426
423.5690, 424.4473
424.7610, 356.2754
425.9540, 298.1270
427.1460, 75.00000
428.3380, 170.8984
429.5300, 44.18359
430.7220, 128.2715
431.9140, 60.40039
433.1050, 139.1738
434.2970, 136.3008
435.4880, 89.96875
436.6790, 115.2344
437.8700, 82.53711
439.0610, 15.13477
440.2510, 78.10938
441.4420, 25.55469
442.6320, 77.23633
443.8220, 209.9375
445.0120, 297.6602
446.2020, 400.3965
447.3910, 648.1582
448.5810, 924.9375
449.7700, 1118.734
450.9600, 1276.510
452.1490, 963.3438
453.3370, 334.1973
454.5260, 321.6289
455.7150, 47.48047
456.9030, 225.3926
458.0910, 78.71484
459.2800, 116.6719
460.4670, 3.140625
461.6550, 107.9590
462.8430, 40.79492
464.0300, 89.64453
465.2180, 19.48633
466.4050, 75.37305
467.5920, 79.25195
468.7790, 246.1484
469.9650, 309.8086
471.1520, 385.4746
472.3380, 495.9746
473.5250, 536.9570
474.7110, 589.9590
475.8970, 644.8633
477.0820, 756.8984
478.2680, 820.6973
479.4540, 868.0117
480.6390, 975.1016
481.8240, 911.2031
483.0090, 934.8809
484.1940, 1002.354
485.3780, 749.5000
486.5630, 435.6621
487.7470, 579.8398
488.9320, 547.0293
490.1160, 231.6816
491.3000, 249.1953
492.4830, 111.5820
493.6670, 60.87305
494.8500, 63.82422
496.0340, 70.48633
497.2170, 23.83984
498.4000, 98.20508
499.5820, 15.58594
500.7650, 76.96680
501.9480, 28.64062
503.1300, 76.73633
504.3120, 156.1230
505.4940, 145.5215
506.6760, 113.9395
507.8580, 256.3867
509.0390, 290.8672
510.2210, 408.3711
511.4020, 373.8867
512.5830, 420.4121
513.7640, 404.9590
514.9450, 180.5176
516.1250, 253.0918
517.3060, 151.6758
518.4860, 43.26953
519.6660, 345.8672
520.8460, 229.4727
522.0260, 180.0938
523.2060, 67.72656
524.3850, 159.3633
525.5650, 264.0098
526.7440, 87.66797
527.9230, 76.33203
529.1020, 210.0059
530.2810, 99.68945
531.4590, 223.3809
532.6380, 31.07812
533.8160, 92.77734
534.9940, 250.4844
536.1720, 126.1973
537.3500, 311.9180
538.5270, 363.6465
539.7050, 574.3984
540.8820, 734.6777
542.0590, 854.9238
543.2360, 1131.695
544.4130, 1382.307
545.5900, 1630.295
546.7660, 2062.152
547.9430, 2355.018
549.1190, 2694.889
550.2950, 2753.766
551.4710, 2902.648
552.6470, 2446.535
553.8220, 2245.426
554.9980, 1801.322
556.1730, 1577.223
557.3480, 1269.656
558.5230, 896.0352
559.6980, 773.9492
560.8730, 529.8652
562.0470, 465.7871
563.2220, 369.7090
564.3960, 300.4453
565.5700, 368.5664
566.7440, 280.5020
567.9170, 300.4629
569.0910, 344.4355
570.2640, 222.4492
571.4380, 220.7383
572.6110, 359.2480
573.7840, 86.46484
574.9570, 158.5254
576.1290, 83.71094
577.3020, 280.4062
578.4740, 55.71289
579.6460, 229.7578
580.8180, 1.451172
581.9900, 258.6680
583.1620, 94.61914
584.3330, 55.74805
585.5040, 183.8770
586.6760, 237.0254
587.8470, 140.1797
589.0180, 82.33984
590.1880, 67.50195
591.3590, 69.33203
592.5290, 143.7930
593.7000, 161.9238
594.8700, 44.93945
596.0400, 128.1660
597.2090, 202.5664
598.3790, 273.8730
599.5490, 23.56641
600.7180, 240.1738
601.8870, 92.06836
603.0560, 163.1895
604.2250, 327.2598
605.3940, 364.5898
606.5620, 227.3086
607.7300, 277.4395
608.8990, 416.5742
610.0670, 217.7090
611.2350, 378.7129
612.4020, 173.0254
613.5700, 198.2637
614.7370, 330.4082
615.9050, 4.197266
617.0720, 332.7344
618.2390, 211.8691
619.4060, 297.0078
620.5720, 260.2734
621.7390, 142.4512
622.9050, 3.492188
624.0710, 29.37305
625.2370, 103.7363
626.4030, 188.8770
627.5690, 127.9863
628.7340, 139.0957
629.9000, 13.67578
631.0650, 17.69727
632.2300, 8.042969
633.3950, 132.8906
634.5600, 106.0898
635.7240, 239.3047
636.8890, 317.5508
638.0530, 404.5449
639.2170, 376.3145
640.3810, 408.0645
641.5450, 360.6035
642.7080, 397.3438
643.8720, 389.3965
645.0350, 420.7383
646.1980, 346.0508
647.3610, 180.6992
648.5240, 172.4043
649.6870, 194.4395
650.8490, 102.4746
652.0120, 314.5000
653.1740, 338.5234
654.3360, 357.5430
655.4980, 265.5586
656.6600, 352.5664
657.8210, 389.5684
658.9830, 432.1992
660.1440, 641.1914
661.3050, 797.1387
662.4660, 733.2109
663.6270, 547.1797
664.7870, 523.1504
665.9480, 473.1172
667.1080, 462.0781
668.2680, 442.0312
669.4280, 588.9805
670.5880, 497.9219
671.7480, 568.8574
672.9070, 529.9863
674.0670, 679.9102
675.2260, 658.8262
676.3850, 776.7363
677.5440, 832.9395
678.7030, 794.3594
679.8610, 838.2500
681.0200, 889.1328
682.1780, 969.0078
683.3360, 989.5742
684.4940, 944.3164
685.6520, 1035.379
686.8090, 998.7148
687.9670, 1135.941
689.1240, 966.3066
690.2810, 1014.121
691.4380, 975.9316
692.5950, 866.7266
693.7520, 873.5176
694.9080, 717.2969
696.0650, 708.0703
697.2210, 1101.838
698.3770, 1030.594
699.5330, 1026.340
700.6880, 954.0781
701.8440, 1151.807
702.9990, 1091.525
704.1550, 929.2324
705.3100, 1291.227
706.4650, 1648.123
707.6190, 1668.322
708.7740, 1609.984
709.9290, 1924.410
711.0830, 2001.842
712.2370, 2167.520
713.3910, 2283.201
714.5450, 2323.908
715.6980, 2317.623
716.8520, 2083.408
718.0050, 2132.887
719.1580, 1698.684
720.3110, 1403.619
721.4640, 1090.420
722.6170, 806.3418
723.7700, 780.1465
724.9220, 566.5938
726.0740, 389.2148
727.2260, 270.9766
728.3780, 123.7246
729.5300, 221.7090
730.6810, 266.5332
731.8330, 165.0176
732.9840, 238.7090
734.1350, 188.8262
735.2860, 176.4902
736.4370, 82.38672
737.5880, 340.0391
738.7380, 309.5176
739.8880, 343.1973
741.0390, 211.8691
742.1890, 341.5234
743.3380, 84.16797
744.4880, 203.7930
745.6380, 204.4160
746.7870, 226.0234
747.9360, 413.6172
749.0850, 42.80664
750.2340, 30.71484
751.3830, 100.2090
752.5310, 202.6875
753.6800, 85.15039
754.8280, 49.70703
755.9760, 166.1289
757.1240, 151.5371
758.2720, 1.929688
759.4190, 115.2832
760.5670, 46.62500
761.7140, 141.3848
762.8610, 291.3496
764.0080, 116.6348
765.1550, 195.9062
766.3020, 126.1602
767.4480, 36.42969
768.5950, 0.7714840
769.7410, 96.15039
770.8870, 89.78516
772.0330, 100.3320
773.1780, 113.5664
774.3240, 78.53711
775.4690, 13.41602
776.6140, 59.34180
777.7590, 91.79297
778.9040, 133.4434
780.0490, 111.0059
781.1940, 153.8789
782.3380, 90.73633
783.4820, 48.57617
784.6260, 10.60938
785.7700, 63.91602
786.9140, 272.9160
788.0580, 239.6504
789.2010, 317.3711
790.3450, 395.0762
791.4880, 461.7656
792.6310, 534.4375
793.7730, 334.0957
794.9160, 393.7383
796.0590, 316.3633
797.2010, 310.9746
798.3430, 48.57227
799.4850, 118.1445
800.6270, 382.6973
801.7690, 229.2383
802.9100, 613.7617
804.0520, 512.2676
805.1930, 733.7617
806.3340, 741.2383
807.4750, 464.6992
808.6160, 226.1406
809.7560, 486.5684
810.8970, 526.9863
812.0370, 175.3867
813.1770, 185.7715
814.3170, 98.13867
815.4570, 18.51172
816.5960, 278.7910
817.7360, 235.0762
818.8750, 169.3457
820.0140, 4.402344
821.1530, 9.189453
822.2920, 125.0176
823.4310, 90.04883
824.5690, 137.0977
825.7070, 226.1289
826.8460, 302.6953
827.9840, 302.7344
829.1220, 358.1270
830.2590, 341.0938
831.3970, 312.0469
832.5340, 419.5703
833.6710, 473.6895
834.8080, 356.8613
835.9450, 447.8086
837.0820, 514.6816
838.2190, 174.5352
839.3550, 290.3770
840.4910, 288.1992
841.6270, 101.0059
842.7630, 46.20312
843.8990, 3.478516
845.0350, 90.78711
846.1700, 58.81641
847.3060, 58.39844
848.4410, 271.9590
849.5760, 206.5020
850.7100, 217.0293
851.8450, 75.45898
852.9800, 147.3223
854.1140, 4.238281
855.2480, 185.1387
856.3820, 113.4980
857.5160, 250.9609
858.6500, 87.67969
859.7830, 200.5625
860.9170, 1.210938
862.0500, 59.97461
863.1830, 300.1328
864.3160, 223.2754
865.4480, 112.4004
866.5810, 141.5078
867.7130, 61.61719
868.8460, 274.7031
869.9780, 253.7754
871.1100, 322.8457
872.2410, 111.8965
873.3730, 281.7637
874.5050, 430.7793
875.6360, 256.7812
876.7670, 298.7676
877.8980, 285.7344
879.0290, 416.6875
880.1590, 302.4219
881.2900, 294.3438
882.4200, 315.2520
883.5500, 475.1406
884.6800, 287.0117
885.8100, 464.0039
886.9400, 526.6719
888.0690, 513.4004
889.1990, 620.2090
890.3280, 792.7500
891.4570, 925.7383
892.5860, 976.9863
893.7140, 880.2598
894.8430, 1101.871
895.9710, 1065.555
897.1000, 1207.355
898.2280, 1159.055
899.3560, 1535.746
900.4830, 1686.430
901.6110, 2045.135
902.7380, 2508.326
903.8660, 3091.887
904.9930, 3415.283
906.1200, 4032.195
907.2460, 4498.988
908.3730, 6066.516
909.5000, 7241.783
910.6260, 9568.230
911.7520, 12498.14
912.8780, 16089.03
914.0040, 20111.36
915.1290, 24947.96
916.2550, 29215.53
917.3800, 31989.17
918.5050, 32667.51
919.6300, 30757.21
920.7550, 26665.86
921.8800, 22119.79
923.0040, 18287.37
924.1290, 15502.93
925.2530, 13460.49
926.3770, 11602.03
927.5010, 10323.57
928.6250, 9211.090
929.7480, 8038.602
930.8720, 6980.109
931.9950, 5787.605
933.1180, 4934.090
934.2410, 4203.604
935.3640, 3528.977
936.4860, 2989.430
937.6090, 2721.871
938.7310, 2243.141
939.8530, 2047.723
940.9750, 1637.133
942.0970, 1473.535
943.2180, 1279.924
944.3400, 1309.303
945.4610, 1078.674
946.5820, 1070.035
947.7030, 1043.385
948.8240, 1124.727
949.9450, 853.7559
951.0650, 749.5527
952.1860, 665.8652
953.3060, 670.1699
954.4260, 546.4629
955.5460, 774.1074
956.6650, 479.4434
957.7850, 346.5039
958.9040, 669.3652
960.0230, 309.5938
961.1420, 360.8438
962.2610, 382.0840
963.3800, 123.3164
964.4990, 140.5410
965.6170, 67.42188
966.7350, 3.027344
967.8530, 13.16992
968.9710, 4.359375
970.0890, 38.53906
971.2070, 60.70898
972.3240, 98.87305
973.4410, 132.0332
974.5580, 137.1855
975.6750, 138.3945
976.7920, 150.1953
977.9090, 106.1016
979.0250, 127.7090
980.1410, 115.8379
981.2580, 66.18555
982.3740, 172.5273
983.4890, 100.6367
984.6050, 88.74219
985.7200, 37.84375
986.8360, 91.04492
987.9510, 22.02148
989.0660, 37.32031
990.1810, 141.3477
991.2950, 24.84766
992.4100, 103.8359
993.5240, 171.0117
994.6390, 32.96484
995.7530, 131.2578
996.8660, 131.3633
997.9800, 6.312500
999.0940, 48.25391
1000.207, 80.94922
1001.320, 150.8242
1002.433, 207.9883
1003.546, 94.92578
1004.659, 128.8633
1005.772, 203.8047
1006.884, 0.5078130
1007.996, 159.4453
1009.108, 270.3750
1010.220, 132.3125
1011.332, 420.2461
1012.444, 410.1797
1013.555, 526.5898
1014.666, 618.5273
1015.777, 952.4648
1016.888, 928.3984
1017.999, 988.3359
1019.110, 939.2695
1020.220, 772.2266
1021.331, 1071.191
1022.441, 755.1562
1023.551, 894.1250
1024.661, 409.0938
1025.770, 539.0703
1026.880, 461.0469
1027.989, 391.0234
1029.098, 342.0156
1030.207, 326.0039
1031.316, 205.0039
1032.425, 316.0039
1033.533, 241.1055
1034.642, 195.8008
1035.750, 136.1953
1036.858, 178.6602
1037.966, 50.60938
1039.073, 55.42578
1040.181, 240.6719
1041.288, 275.4922
1042.396, 119.4727
1043.503, 44.49609
1044.610, 14.55078
1045.716, 50.61719
1046.823, 233.8047
1047.929, 376.7148
1049.036, 238.5039
1050.142, 103.4648
1051.248, 82.55078
1052.353, 394.6367
1053.459, 386.7266
1054.564, 366.8320
1055.670, 725.9453
1056.775, 681.0625
1057.880, 667.1758
1058.985, 851.2969
1060.089, 1159.438
1061.194, 1468.562
1062.298, 1626.648
1063.402, 1742.828
1064.506, 1912.266
1065.610, 1721.406
1066.713, 1666.547
1067.817, 1453.695
1068.920, 1121.844
1070.023, 701.0000
1071.126, 1075.156
1072.229, 505.3164
1073.332, 430.4805
1074.435, 318.6484
1075.537, 728.8242
1076.639, 532.0000
1077.741, 189.1797
1078.843, 490.3672
1079.945, 392.5547
1081.046, 228.7461
1082.148, 334.9414
1083.249, 491.1445
1084.350, 453.3711
1085.451, 406.6055
1086.551, 400.8438
1087.652, 635.0820
1088.752, 495.7109
1089.853, 448.9844
1090.953, 263.3086
1092.053, 380.6484
1093.152, 289.9844
1094.252, 289.3281
1095.351, 136.6758
1096.451, 320.0352
1097.550, 215.3984
1098.649, 349.7656
1099.748, 183.5508
1100.846, 256.7305
1101.945, 247.8516
1103.043, 98.18359
1104.141, 332.5859
1105.239, 192.0000
1106.337, 274.4141
1107.434, 235.8359
1108.532, 366.2617
1109.629, 309.0352
1110.726, 284.1641
1111.823, 216.6523
1112.920, 234.1797
1114.017, 154.7148
1115.113, 385.2656
1116.210, 177.8164
1117.306, 167.3789
1118.402, 403.9492
1119.498, 474.2109
1120.593, 574.8086
1121.689, 651.4492
1122.784, 662.0938
1123.879, 594.6367
1124.974, 692.2695
1126.069, 594.5859
1127.164, 435.6953
1128.259, 419.4375
1129.353, 386.1914
1130.447, 201.9492
1131.541, 24.71875
1132.635, 175.5000
1133.729, 11.28906
1134.822, 67.08984
1135.916, 87.91016
1137.009, 217.7383
1138.102, 262.5742
1139.195, 244.3984
1140.288, 134.2578
1141.380, 252.1289
1142.473, 113.0078
1143.565, 104.9062
1144.657, 13.20312
1145.749, 19.71094
1146.841, 145.6992
1147.932, 119.6992
1149.024, 92.71484
1150.115, 232.7422
1151.206, 184.7773
1152.297, 123.8242
1153.388, 153.8047
1154.479, 155.9492
1155.569, 73.02344
1156.659, 95.10547
1157.750, 4.199219
1158.839, 79.30078
1159.929, 91.41797
1161.019, 97.54688
1162.108, 67.68359
1163.198, 162.8320
1164.287, 156.0156
1165.376, 43.91406
1166.465, 181.1797
1167.553, 27.21484
1168.642, 221.8945
1169.730, 380.0117
1170.818, 5.285156
1171.906, 51.14453
1172.994, 252.9883
1174.082, 22.12891
1175.170, 182.2852
1176.257, 116.4414
1177.344, 3.394531
1178.431, 157.2188
1179.518, 203.1016
1180.605, 74.06250
1181.691, 28.95312
1182.778, 470.9805
1183.864, 264.0234
1184.950, 427.0742
1186.036, 332.1328
1187.122, 283.1992
1188.207, 299.2969
1189.292, 84.40625
1190.378, 1.523438
1191.463, 37.66797
1192.548, 120.8164
1193.632, 40.02344
1194.717, 365.1367
1195.801, 268.3047
1196.886, 275.4805
1197.970, 55.66406
1199.054, 202.8594
1200.137, 146.0586
1201.221, 324.2695
1202.305, 211.4883
1203.388, 185.7148
1204.471, 286.9883
1205.554, 145.2734
1206.637, 373.5664
1207.719, 192.8828
1208.802, 159.2070
1209.884, 248.5430
1210.966, 420.9141
1212.048, 544.2969
1213.130, 285.7305
1214.212, 307.1758
1215.293, 413.6367
1216.374, 89.10938
1217.456, 374.5898
1218.536, 14.92188
1219.617, 380.5742
1220.698, 369.0859
1221.778, 543.6055
1222.859, 339.1562
1223.939, 313.7188
1225.019, 380.2852
1226.099, 663.8594
1227.178, 225.4453
1228.258, 591.0352
1229.337, 695.6367
1230.417, 562.2578
1231.496, 623.8867
1232.574, 627.8672
1233.653, 646.1719
1234.732, 699.8281
1235.810, 695.4922
1236.888, 823.0938
1237.966, 808.8477
1239.044, 829.5312
1240.122, 572.2266
1241.199, 442.9258
1242.277, 611.6328
1243.354, 869.3516
1244.431, 725.0742
1245.508, 721.8008
1246.585, 678.5312
1247.661, 543.3008
1248.738, 890.3555
1249.814, 650.2383
1250.890, 720.0586
1251.966, 689.8867
1253.042, 524.8906
1254.117, 759.7344
1255.193, 751.6133
1256.268, 811.6016
1257.343, 569.8438
1258.418, 760.7617
1259.493, 560.6797
1260.567, 540.5820
1261.642, 766.4922
1262.716, 734.4219
1263.790, 538.0000
1264.864, 627.4414
1265.938, 397.6953
1267.011, 557.0977
1268.085, 613.3164
1269.158, 546.2930
1270.231, 489.2734
1271.304, 549.2617
1272.377, 521.2539
1273.450, 461.3242
1274.522, 535.3281
1275.594, 457.2383
1276.666, 340.2422
1277.738, 807.7656
1278.810, 687.8008
1279.882, 162.9219
1280.953, 636.9336
