##NAMES=Andalusite
##RRUFFID=R060212
##IDEAL CHEMISTRY=Al_2_SiO_5_
##LOCALITY=Brazil
##OWNER=RRUFF
##SOURCE=Marcus Origlieri
##DESCRIPTION=Transparent yellow-green water-worn pebble
##STATUS=The identification of this mineral is confirmed by single-crystal X-ray diffraction and chemical analysis.
##URL=rruff.info/R060212
##MEASURED CHEMISTRY=(Al_1.98_Fe^3+^_0.02_)_Î£=2_Si_1.00_O_5_
##PIN_ID=M00061
##ORIENTATION=Laser parallel to -a* (-1 0 0). Fiducial mark perpendicular to laser is parallel to -b [0 -1 0]
99.64900, 0.0000000E+00
100.8830, 68.35449
102.1160, 6.441406
103.3490, 131.1426
104.5820, 193.5928
105.8150, 563.6172
107.0470, 857.8691
108.2800, 1051.903
109.5120, 1321.388
110.7440, 1209.926
111.9760, 450.2021
113.2080, 328.1934
114.4400, 520.7207
115.6710, 542.1074
116.9030, 477.2598
118.1340, 342.7334
119.3650, 240.0879
120.5960, 123.2520
121.8270, 235.3916
123.0580, 420.8174
124.2880, 224.8164
125.5190, 151.5674
126.7490, 4.621094
127.9790, 243.4443
129.2090, 167.2529
130.4390, 130.2012
131.6680, 165.1553
132.8980, 46.49512
134.1270, 44.13965
135.3560, 54.13672
136.5850, 58.56250
137.8140, 178.4746
139.0430, 117.4551
140.2710, 186.9854
141.5000, 84.67480
142.7280, 10.96191
143.9560, 18.10645
145.1840, 8.093750
146.4120, 13.53418
147.6390, 109.8164
148.8670, 109.9834
150.0940, 53.98438
151.3210, 37.83203
152.5490, 292.5381
153.7750, 234.7012
155.0020, 217.8145
156.2290, 179.8340
157.4550, 124.7705
158.6810, 224.0117
159.9080, 156.5352
161.1340, 319.5898
162.3590, 381.4297
163.5850, 372.4268
164.8110, 598.8730
166.0360, 639.5088
167.2610, 375.1680
168.4860, 568.8389
169.7110, 684.5215
170.9360, 533.2119
172.1610, 607.9121
173.3850, 451.6377
174.6100, 403.4385
175.8340, 561.3164
177.0580, 378.2686
178.2820, 370.2910
179.5050, 467.3789
180.7290, 505.5283
181.9520, 325.7314
183.1760, 458.9824
184.3990, 587.2783
185.6220, 726.6104
186.8450, 607.9775
188.0670, 886.3760
189.2900, 1023.805
190.5120, 1327.216
191.7340, 1335.748
192.9560, 1408.405
194.1780, 1359.158
195.4000, 1351.131
196.6220, 1284.102
197.8430, 1113.110
199.0640, 1071.135
200.2860, 1128.213
201.5070, 1185.287
202.7270, 1068.352
203.9480, 930.4062
205.1690, 422.4443
206.3890, 133.4668
207.6090, 57.52539
208.8290, 108.5342
210.0490, 96.44336
211.2690, 54.40918
212.4890, 72.63867
213.7080, 11.30371
214.9280, 32.23340
216.1470, 15.15137
217.3660, 16.06055
218.5850, 42.95996
219.8030, 117.1494
221.0220, 38.26855
222.2400, 65.39551
223.4590, 13.53125
224.6770, 138.6748
225.8950, 9.173828
227.1120, 21.98242
228.3300, 86.65918
229.5480, 177.2930
230.7650, 284.8711
231.9820, 283.4355
233.1990, 374.9580
234.4160, 734.3555
235.6330, 886.6426
236.8490, 1258.857
238.0660, 1764.069
239.2820, 2529.284
240.4980, 2925.506
241.7140, 3229.732
242.9300, 3130.965
244.1460, 2970.203
245.3610, 2564.447
246.5770, 1970.618
247.7920, 1909.980
249.0070, 1517.432
250.2220, 1488.927
251.4370, 1229.435
252.6510, 1243.940
253.8660, 1246.432
255.0800, 1281.896
256.2940, 1146.327
257.5080, 1341.725
258.7220, 1374.789
259.9360, 1325.780
261.1490, 1591.668
262.3630, 1328.910
263.5760, 1356.007
264.7890, 1496.076
266.0020, 1542.119
267.2150, 1738.139
268.4270, 1872.083
269.6400, 1921.921
270.8520, 2207.744
272.0640, 2441.545
273.2760, 2929.258
274.4880, 3376.020
275.7000, 3871.752
276.9120, 4600.454
278.1230, 5237.117
279.3340, 6220.639
280.5450, 6787.260
281.7560, 8160.567
282.9670, 10099.26
284.1780, 12297.52
285.3880, 14679.56
286.5980, 18393.04
287.8090, 22771.34
289.0190, 27947.60
290.2290, 34062.23
291.4380, 39689.62
292.6480, 41697.39
293.8570, 39732.78
295.0670, 33517.37
296.2760, 26152.47
297.4850, 19140.59
298.6930, 13650.86
299.9020, 9896.088
301.1110, 7331.195
302.3190, 5693.205
303.5270, 4393.084
304.7350, 3500.010
305.9430, 3205.754
307.1510, 2769.446
308.3580, 2530.996
309.5660, 2673.516
310.7730, 2972.037
311.9800, 3251.563
313.1870, 3832.095
314.3940, 4587.631
315.6010, 5490.172
316.8070, 7278.717
318.0130, 9787.270
319.2200, 12947.83
320.4260, 15773.42
321.6310, 17533.99
322.8370, 16937.56
324.0430, 14412.13
325.2480, 11081.71
326.4540, 8390.289
327.6590, 6254.870
328.8640, 4840.457
330.0680, 3809.043
331.2730, 3261.631
332.4780, 2894.224
333.6820, 2713.817
334.8860, 2489.414
336.0900, 2563.011
337.2940, 2368.611
338.4980, 2348.213
339.7010, 2349.814
340.9050, 2304.417
342.1080, 2470.018
343.3110, 2563.619
344.5140, 2941.219
345.7170, 3433.819
346.9200, 3856.420
348.1220, 4655.020
349.3240, 5662.619
350.5270, 6799.218
351.7290, 8365.630
352.9310, 10437.87
354.1320, 13312.92
355.3340, 16383.25
356.5350, 20060.39
357.7370, 23482.77
358.9380, 25114.02
360.1390, 24962.48
361.3400, 22754.31
362.5400, 19316.43
363.7410, 15773.11
364.9410, 12239.84
366.1410, 9617.552
367.3410, 7639.585
368.5410, 5986.898
369.7410, 4782.381
370.9400, 3975.125
372.1400, 3287.419
373.3390, 3017.670
374.5380, 2525.292
375.7370, 2153.915
376.9360, 1852.541
378.1350, 1631.170
379.3330, 1454.272
380.5310, 1344.438
381.7300, 1322.081
382.9280, 1325.728
384.1260, 1449.379
385.3230, 1199.035
386.5210, 1283.694
387.7180, 1173.361
388.9160, 1083.033
390.1130, 1068.711
391.3100, 1205.389
392.5060, 1159.063
393.7030, 1074.732
394.9000, 914.3965
396.0960, 827.0859
397.2920, 599.7695
398.4880, 472.4492
399.6840, 554.1240
400.8800, 260.8203
402.0750, 249.5186
403.2710, 294.2178
404.4660, 235.9150
405.6610, 210.6289
406.8560, 219.3945
408.0510, 203.1572
409.2450, 200.9180
410.4400, 140.6748
411.6340, 118.4619
412.8280, 133.2520
414.0220, 216.0469
415.2160, 77.83887
416.4100, 174.6299
417.6030, 149.4170
418.7970, 77.20117
419.9900, 166.9834
421.1830, 210.7627
422.3760, 96.53906
423.5690, 61.32715
424.7610, 106.8887
425.9540, 35.83496
427.1460, 43.44629
428.3380, 151.7539
429.5300, 131.8516
430.7220, 29.54492
431.9140, 242.9609
433.1050, 40.50391
434.2970, 4.928711
435.4880, 54.36230
436.6790, 49.20020
437.8700, 13.20801
439.0610, 14.38770
440.2510, 95.00488
441.4420, 64.60352
442.6320, 131.7500
443.8220, 129.1016
445.0120, 299.4531
446.2020, 511.8037
447.3910, 426.1543
448.5810, 786.5039
449.7700, 1056.859
450.9600, 1476.216
452.1490, 1928.588
453.3370, 1744.962
454.5260, 1368.338
455.7150, 847.7236
456.9030, 512.1182
458.0910, 268.5322
459.2800, 230.9463
460.4670, 289.3604
461.6550, 213.8008
462.8430, 46.24121
464.0300, 153.7158
465.2180, 53.19238
466.4050, 155.6689
467.5920, 112.1445
468.7790, 219.6465
469.9650, 229.1533
471.1520, 183.6592
472.3380, 134.1641
473.5250, 208.6709
474.7110, 181.5771
475.8970, 232.7734
477.0820, 248.1895
478.2680, 333.7236
479.4540, 428.2764
480.6390, 475.8525
481.8240, 508.4297
483.0090, 605.0176
484.1940, 605.6055
485.3780, 532.1934
486.5630, 350.7793
487.7470, 433.3682
488.9320, 329.9785
490.1160, 156.5898
491.3000, 221.2168
492.4830, 138.8457
493.6670, 150.5049
494.8500, 70.16406
496.0340, 62.86523
497.2170, 21.61426
498.4000, 4.718750
499.5820, 200.1455
500.7650, 13.04102
501.9480, 31.77539
503.1300, 87.59277
504.3120, 72.58203
505.4940, 60.21094
506.6760, 112.0049
507.8580, 79.83984
509.0390, 150.6943
510.2210, 51.57520
511.4020, 158.4678
512.5830, 267.4072
513.7640, 84.35254
514.9450, 175.3008
516.1250, 204.2480
517.3060, 149.1934
518.4860, 200.1357
519.6660, 225.0742
520.8460, 282.0117
522.0260, 275.9453
523.2060, 184.0430
524.3850, 235.9707
525.5650, 79.89258
526.7440, 82.99219
527.9230, 285.9082
529.1020, 268.1006
530.2810, 241.4766
531.4590, 311.6416
532.6380, 371.5049
533.8160, 254.4023
534.9940, 253.4004
536.1720, 311.2891
537.3500, 357.0361
538.5270, 358.9170
539.7050, 323.1982
540.8820, 703.0684
542.0590, 759.1250
543.2360, 1070.638
544.4130, 1179.452
545.5900, 1738.020
546.7660, 2150.717
547.9430, 2587.597
549.1190, 3082.982
550.2950, 3471.924
551.4710, 3615.740
552.6470, 3848.527
553.8220, 3450.652
554.9980, 2909.037
556.1730, 2463.952
557.3480, 2033.996
558.5230, 1668.766
559.6980, 1433.626
560.8730, 1320.278
562.0470, 1138.033
563.2220, 1213.778
564.3960, 1231.515
565.5700, 1298.195
566.7440, 1287.205
567.9170, 1469.766
569.0910, 1640.718
570.2640, 1836.870
571.4380, 2169.557
572.6110, 2227.378
573.7840, 2050.805
574.9570, 2009.942
576.1290, 1753.299
577.3020, 1466.891
578.4740, 1306.496
579.6460, 1049.907
580.8180, 870.6533
581.9900, 655.2764
583.1620, 753.9355
584.3330, 495.5439
585.5040, 730.1465
586.6760, 523.7422
587.8470, 525.3301
589.0180, 412.9336
590.1880, 387.4990
591.3590, 582.0664
592.5290, 450.9277
593.7000, 500.4795
594.8700, 522.3760
596.0400, 497.4346
597.2090, 595.8564
598.3790, 421.9609
599.5490, 538.4717
600.7180, 503.9766
601.8870, 521.0566
603.0560, 537.5439
604.2250, 482.8281
605.3940, 636.3330
606.5620, 457.7861
607.7300, 673.2344
608.8990, 452.5928
610.0670, 517.3682
611.2350, 583.7871
612.4020, 513.1963
613.5700, 506.5947
614.7370, 605.9824
615.9050, 489.3721
617.0720, 585.7383
618.2390, 719.4619
619.4060, 804.3672
620.5720, 844.5400
621.7390, 899.3086
622.9050, 1272.904
624.0710, 1286.203
625.2370, 1433.489
626.4030, 1333.766
627.5690, 1552.203
628.7340, 1388.032
629.9000, 1457.271
631.0650, 1239.484
632.2300, 1038.857
633.3950, 837.4189
634.5600, 719.2051
635.7240, 707.1123
636.8890, 547.7568
638.0530, 556.7979
639.2170, 553.5166
640.3810, 719.7080
641.5450, 652.1719
642.7080, 822.1982
643.8720, 896.2715
645.0350, 944.1064
646.1980, 970.1494
647.3610, 973.1777
648.5240, 959.1914
649.6870, 693.1895
650.8490, 793.1729
652.0120, 613.1396
653.1740, 599.0928
654.3360, 688.0303
655.4980, 358.9521
656.6600, 429.8574
657.8210, 302.7471
658.9830, 238.6221
660.1440, 282.4814
661.3050, 190.3252
662.4660, 78.15332
663.6270, 167.9629
664.7870, 179.7588
665.9480, 75.53906
667.1080, 118.2998
668.2680, 66.04785
669.4280, 53.14551
670.5880, 66.69336
671.7480, 33.17285
672.9070, 100.8379
674.0670, 80.48828
675.2260, 148.1211
676.3850, 69.26270
677.5440, 141.2803
678.7030, 53.80664
679.8610, 149.3145
681.0200, 59.19434
682.1780, 14.22949
683.3360, 30.62012
684.4940, 37.98633
685.6520, 38.66406
686.8090, 169.3779
687.9670, 42.78125
689.1240, 68.91992
690.2810, 121.0410
691.4380, 89.85254
692.5950, 18.16992
693.7520, 12.16602
694.9080, 63.13086
696.0650, 52.07910
697.2210, 90.00977
698.3770, 110.9258
699.5330, 101.8271
700.6880, 182.5693
701.8440, 84.44238
702.9990, 146.3008
704.1550, 152.1445
705.3100, 64.97461
706.4650, 80.82031
707.6190, 225.6514
708.7740, 184.4824
709.9290, 365.3398
711.0830, 333.1846
712.2370, 469.0234
713.3910, 434.9150
714.5450, 466.8027
715.6980, 523.6807
716.8520, 451.5439
718.0050, 506.4092
719.1580, 599.2617
720.3110, 689.1045
721.4640, 481.9355
722.6170, 349.7715
723.7700, 229.5947
724.9220, 125.5645
726.0740, 264.2012
727.2260, 48.98438
728.3780, 11.75586
729.5300, 116.5039
730.6810, 26.76172
731.8330, 55.93066
732.9840, 24.61133
734.1350, 0.2753910
735.2860, 6.088867
736.4370, 33.48438
737.5880, 296.0771
738.7380, 138.6260
739.8880, 66.83594
741.0390, 195.6406
742.1890, 103.8955
743.3380, 32.49121
744.4880, 80.86426
745.6380, 80.22656
746.7870, 75.42285
747.9360, 15.86426
749.0850, 107.1377
750.2340, 170.3984
751.3830, 294.6494
752.5310, 29.88965
753.6800, 24.12109
754.8280, 39.33984
755.9760, 87.45117
757.1240, 59.30664
758.2720, 64.45312
759.4190, 6.827148
760.5670, 25.14648
761.7140, 76.84863
762.8610, 100.8340
764.0080, 119.8105
765.1550, 8.779297
766.3020, 81.26465
767.4480, 102.6348
768.5950, 57.47559
769.7410, 6.371094
770.8870, 112.7920
772.0330, 30.97266
773.1780, 50.27051
774.3240, 19.55273
775.4690, 69.14453
776.6140, 142.1650
777.7590, 4.443359
778.9040, 60.04395
780.0490, 225.6406
781.1940, 124.2314
782.3380, 198.2070
783.4820, 116.4170
784.6260, 102.0117
785.7700, 206.6006
786.9140, 153.6553
788.0580, 201.0850
789.2010, 189.3408
790.3450, 209.9121
791.4880, 268.0195
792.6310, 202.0439
793.7730, 252.6045
794.9160, 306.1611
796.0590, 160.7158
797.2010, 271.2666
798.3430, 347.8164
799.4850, 235.3633
800.6270, 303.7402
801.7690, 532.2842
802.9100, 342.8262
804.0520, 591.1885
805.1930, 481.7275
806.3340, 441.9883
807.4750, 512.0586
808.6160, 571.3369
809.7560, 298.9141
810.8970, 487.4521
812.0370, 487.8857
813.1770, 218.4248
814.3170, 215.1025
815.4570, 119.6445
816.5960, 17.78320
817.7360, 94.32812
818.8750, 147.6836
820.0140, 85.58008
821.1530, 48.17188
822.2920, 3.008789
823.4310, 4.715820
824.5690, 78.23535
825.7070, 9.248047
826.8460, 134.7031
827.9840, 126.2832
829.1220, 171.8887
830.2590, 83.15625
831.3970, 167.1641
832.5340, 121.6387
833.6710, 185.9863
834.8080, 149.6035
835.9450, 221.2305
837.0820, 72.13281
838.2190, 195.4922
839.3550, 23.12500
840.4910, 105.7656
841.6270, 312.4160
842.7630, 158.0449
843.8990, 56.71289
845.0350, 127.3887
846.1700, 139.0762
847.3060, 116.7715
848.4410, 6.476563
849.5760, 57.19141
850.7100, 77.91602
851.8450, 258.6523
852.9800, 260.3945
854.1140, 286.1484
855.2480, 271.9141
856.3820, 402.6875
857.5160, 360.4727
858.6500, 446.2695
859.7830, 591.0762
860.9170, 519.8945
862.0500, 439.7246
863.1830, 537.5664
864.3160, 367.3984
865.4480, 465.2695
866.5810, 303.1484
867.7130, 304.7383
868.8460, 342.6406
869.9780, 208.2031
871.1100, 330.6133
872.2410, 285.6641
873.3730, 298.0391
874.5050, 154.0156
875.6360, 192.0039
876.7670, 171.4219
877.8980, 306.4414
879.0290, 144.6289
880.1590, 332.6445
881.2900, 222.7129
882.4200, 221.7969
883.5500, 466.9805
884.6800, 490.7500
885.8100, 519.0176
886.9400, 486.0449
888.0690, 562.2305
889.1990, 567.7207
890.3280, 579.6582
891.4570, 627.9121
892.5860, 678.8203
893.7140, 705.5684
894.8430, 763.0605
895.9710, 844.9883
897.1000, 1048.098
898.2280, 1186.510
899.3560, 1236.945
900.4830, 1581.400
901.6110, 1553.703
902.7380, 2054.635
903.8660, 2173.174
904.9930, 2661.773
906.1200, 3105.221
907.2460, 3499.490
908.3730, 4285.143
909.5000, 4999.488
910.6260, 6687.705
911.7520, 8614.432
912.8780, 10631.24
914.0040, 13718.94
915.1290, 17231.74
916.2550, 22145.56
917.3800, 27113.42
918.5050, 30760.30
919.6300, 31817.24
920.7550, 29807.22
921.8800, 25266.25
923.0040, 19827.32
924.1290, 14993.42
925.2530, 12023.55
926.3770, 9468.713
927.5010, 7615.896
928.6250, 6530.105
929.7480, 5556.348
930.8720, 5079.646
931.9950, 4557.992
933.1180, 4475.365
934.2410, 4397.773
935.3640, 4243.217
936.4860, 4481.715
937.6090, 4854.242
938.7310, 5126.795
939.8530, 5725.375
940.9750, 6617.984
942.0970, 7357.643
943.2180, 8542.328
944.3400, 10334.06
945.4610, 12546.82
946.5820, 14880.61
947.7030, 17663.44
948.8240, 20160.29
949.9450, 22633.21
951.0650, 23524.15
952.1860, 22570.12
953.3060, 20201.14
954.4260, 17541.20
955.5460, 14122.31
956.6650, 11246.45
957.7850, 8918.611
958.9040, 7229.834
960.0230, 5480.141
961.1420, 4738.480
962.2610, 3790.852
963.3800, 3291.252
964.4990, 2724.715
965.6170, 2088.217
966.7350, 1815.754
967.8530, 1556.324
968.9710, 1473.926
970.0890, 1281.557
971.2070, 1295.219
972.3240, 834.0547
973.4410, 854.7754
974.5580, 635.5273
975.6750, 508.3105
976.7920, 458.1270
977.9090, 471.9707
979.0250, 317.8457
980.1410, 208.7520
981.2580, 285.6875
982.3740, 76.65625
983.4890, 160.6543
984.6050, 33.68359
985.7200, 105.7441
986.8360, 67.83398
987.9510, 89.95703
989.0660, 162.1094
990.1810, 110.2930
991.2950, 19.50781
992.4100, 36.75391
993.5240, 5.029297
994.6390, 59.33398
995.7530, 106.6738
996.8660, 64.04297
997.9800, 254.4434
999.0940, 319.8750
1000.207, 450.3438
1001.320, 500.8418
1002.433, 526.7168
1003.546, 533.1738
1004.659, 532.9570
1005.772, 460.6055
1006.884, 449.4648
1007.996, 408.2012
1009.108, 511.9688
1010.220, 582.2578
1011.332, 771.6230
1012.444, 918.6094
1013.555, 1088.561
1014.666, 1431.543
1015.777, 1622.555
1016.888, 1953.602
1017.999, 2307.707
1019.110, 2875.840
1020.220, 2698.635
1021.331, 2497.945
1022.441, 2418.504
1023.551, 1950.033
1024.661, 1833.607
1025.770, 1615.924
1026.880, 1392.340
1027.989, 1124.383
1029.098, 951.0762
1030.207, 860.5859
1031.316, 732.1367
1032.425, 613.2988
1033.533, 435.3281
1034.642, 426.9668
1035.750, 389.2539
1036.858, 364.6602
1037.966, 407.7109
1039.073, 314.0312
1040.181, 285.3027
1041.288, 246.2344
1042.396, 135.1523
1043.503, 269.1191
1044.610, 165.1172
1045.716, 364.1445
1046.823, 270.2383
1047.929, 426.3613
1049.036, 386.5117
1050.142, 449.6895
1051.248, 571.4707
1052.353, 631.3125
1053.459, 715.6230
1054.564, 947.3223
1055.670, 1226.273
1056.775, 1578.662
1057.880, 1929.027
1058.985, 2498.625
1060.089, 3002.832
1061.194, 3812.270
1062.298, 4662.229
1063.402, 5493.021
1064.506, 6087.783
1065.610, 5812.324
1066.713, 5259.639
1067.817, 4445.910
1068.920, 3365.656
1070.023, 2557.289
1071.126, 1999.949
1072.229, 1660.629
1073.332, 1448.332
1074.435, 1058.621
1075.537, 1067.373
1076.639, 827.9238
1077.741, 832.7734
1078.843, 733.5898
1079.945, 603.7969
1081.046, 661.6582
1082.148, 649.5352
1083.249, 561.4375
1084.350, 545.2578
1085.451, 427.8750
1086.551, 431.8379
1087.652, 327.8203
1088.752, 312.8281
1089.853, 160.8516
1090.953, 273.8965
1092.053, 371.9590
1093.152, 168.0430
1094.252, 316.1465
1095.351, 213.2676
1096.451, 297.4062
1097.550, 322.5664
1098.649, 310.7422
1099.748, 196.9375
1100.846, 236.1562
1101.945, 542.4121
1103.043, 526.6836
1104.141, 733.9805
1105.239, 622.3047
1106.337, 790.6445
1107.434, 865.0000
1108.532, 1143.375
1109.629, 1101.766
1110.726, 1143.172
1111.823, 1098.598
1112.920, 1025.039
1114.017, 843.4961
1115.113, 779.9707
1116.210, 751.4609
1117.306, 765.9688
1118.402, 807.4922
1119.498, 900.0293
1120.593, 773.5820
1121.689, 766.1504
1122.784, 861.7344
1123.879, 896.3340
1124.974, 916.9492
1126.069, 1086.578
1127.164, 708.2227
1128.259, 487.8789
1129.353, 514.5527
1130.447, 351.2402
1131.541, 152.9414
1132.635, 75.65625
1133.729, 77.38477
1134.822, 45.12891
1135.916, 14.11523
1137.009, 43.65039
1138.102, 6.572266
1139.195, 36.21680
1140.288, 32.35938
1141.380, 31.83203
1142.473, 57.66602
1143.565, 2.488281
1144.657, 57.38672
1145.749, 8.273438
1146.841, 82.16992
1147.932, 3.080078
1149.024, 2.998047
1150.115, 104.9277
1151.206, 13.13281
1152.297, 42.16992
1153.388, 26.21484
1154.479, 3.265625
1155.569, 23.94727
1156.659, 21.64648
1157.750, 55.38672
1158.839, 28.43945
1159.929, 75.50000
1161.019, 124.4121
1162.108, 146.3340
1163.198, 169.2656
1164.287, 139.8242
1165.376, 171.1523
1166.465, 41.89258
1167.553, 23.95312
1168.642, 88.02148
1169.730, 172.8711
1170.818, 172.7695
1171.906, 186.6777
1172.994, 244.4199
1174.082, 179.8613
1175.170, 156.4375
1176.257, 135.3730
1177.344, 118.3125
1178.431, 77.25781
1179.518, 89.20898
1180.605, 25.16406
1181.691, 49.87305
1182.778, 45.50781
1183.864, 77.97461
1184.950, 62.15820
1186.036, 48.32422
1187.122, 19.51758
1188.207, 67.27734
1189.292, 98.07422
1190.378, 67.87695
1191.463, 40.68359
1192.548, 13.49414
1193.632, 106.6973
1194.717, 53.94727
1195.801, 132.7695
1196.886, 9.509766
1197.970, 7.802734
1199.054, 84.10742
1200.137, 98.53711
1201.221, 51.18750
1202.305, 254.8398
1203.388, 80.49609
1204.471, 37.84570
1205.554, 430.7832
1206.637, 23.58594
1207.719, 40.02344
1208.802, 131.6348
1209.884, 2.250000
1210.966, 60.85156
1212.048, 348.4570
1213.130, 166.0664
1214.212, 183.6777
1215.293, 0.2871090
1216.374, 280.8867
1217.456, 209.4863
1218.536, 61.09180
1219.617, 192.6934
1220.698, 151.2988
1221.778, 239.9062
1222.859, 231.5137
1223.939, 221.1230
1225.019, 176.7344
1226.099, 86.34570
1227.178, 184.9570
1228.258, 187.5703
1229.337, 226.5664
1230.417, 386.9219
1231.496, 366.8652
1232.574, 502.4805
1233.653, 614.2441
1234.732, 546.8594
1235.810, 560.4746
1236.888, 429.0918
1237.966, 627.7070
1239.044, 581.3223
1240.122, 380.9375
1241.199, 476.5488
1242.277, 733.1602
1243.354, 341.9082
1244.431, 600.5293
1245.508, 584.1406
1246.585, 659.7480
1247.661, 673.3574
1248.738, 766.9609
1249.814, 715.5664
1250.890, 577.1797
1251.966, 687.7891
1253.042, 529.3965
1254.117, 643.0039
1255.193, 637.6074
1256.268, 652.2109
1257.343, 698.8125
1258.418, 668.4121
1259.493, 488.0098
1260.567, 470.6074
1261.642, 377.2012
1262.716, 496.7949
1263.790, 632.4961
1264.864, 516.0840
1265.938, 505.2871
1267.011, 604.8711
1268.085, 490.2812
1269.158, 629.8633
1270.231, 750.4414
1271.304, 735.4375
1272.377, 762.0078
1273.450, 821.3867
1274.522, 610.9531
1275.594, 545.5195
1276.666, 639.0840
1277.738, 560.6406
1278.810, 584.2012
1279.882, 613.7578
1280.953, 439.5801
