##NAMES=Andalusite
##RRUFFID=R060197
##IDEAL CHEMISTRY=Al_2_SiO_5_
##LOCALITY=Brazil
##OWNER=RRUFF
##SOURCE=Marcus Origlieri
##DESCRIPTION=Green colored water worn pebble
##STATUS=The identification of this mineral has been confirmed by X-ray diffraction and chemical analysis
##URL=rruff.info/R060197
##MEASURED CHEMISTRY=(Al_1.97_Mn^3+^_0.03_)_Î£=2_Si_1.00_O_5_
##PIN_ID=M00401
##ORIENTATION=Laser parallel to c* (0 0 1). Fiducial mark perpendicular to laser is parallel to a [1 0 0]
91.01200, 0.0000000E+00
92.24600, 312.6729
93.48000, 83.93555
94.71400, 0.5087890
95.94800, 152.0381
97.18200, 10.00000
98.41600, 91.23389
99.64900, 334.3706
100.8830, 319.7373
102.1160, 239.8301
103.3490, 615.1953
104.5820, 1019.545
105.8150, 1627.888
107.0470, 2163.752
108.2800, 3027.137
109.5120, 3834.927
110.7440, 3223.508
111.9760, 2172.534
113.2080, 2806.502
114.4400, 1818.259
115.6710, 1920.656
116.9030, 1903.773
118.1340, 1004.190
119.3650, 533.7998
120.5960, 296.0669
121.8270, 273.5542
123.0580, 450.1436
124.2880, 442.0996
125.5190, 77.29053
126.7490, 12.33984
127.9790, 21.06982
129.2090, 255.5249
130.4390, 335.7461
131.6680, 196.7681
132.8980, 430.6196
134.1270, 2.325684
135.3560, 93.90967
136.5850, 148.3887
137.8140, 109.7769
139.0430, 176.8784
140.2710, 119.1245
141.5000, 204.5308
142.7280, 23.67285
143.9560, 14.22998
145.1840, 42.16895
146.4120, 94.32715
147.6390, 82.72021
148.8670, 29.12793
150.0940, 10.86035
151.3210, 197.8433
152.5490, 412.8286
153.7750, 379.8184
155.0020, 308.8193
156.2290, 123.8340
157.4550, 102.7769
158.6810, 184.5391
159.9080, 329.5039
161.1340, 422.8623
162.3590, 649.0757
163.5850, 909.4102
164.8110, 1061.857
166.0360, 1376.406
167.2610, 1355.062
168.4860, 1355.826
169.7110, 1447.695
170.9360, 1647.668
172.1610, 1503.740
173.3850, 1727.907
174.6100, 1704.164
175.8340, 1686.506
177.0580, 1669.931
178.2820, 1462.436
179.5050, 1440.009
180.7290, 1305.648
181.9520, 1273.353
183.1760, 1199.109
184.3990, 1356.927
185.6220, 1782.807
186.8450, 2097.733
188.0670, 2360.722
189.2900, 2516.771
190.5120, 2754.879
191.7340, 3042.004
192.9560, 3348.055
194.1780, 3866.102
195.4000, 4316.212
196.6220, 4665.387
197.8430, 4570.626
199.0640, 4218.918
200.2860, 3630.262
201.5070, 3109.656
202.7270, 2713.100
203.9480, 2177.595
205.1690, 1300.141
206.3890, 820.7373
207.6090, 551.3848
208.8290, 630.0835
210.0490, 457.8340
211.2690, 541.6353
212.4890, 460.4883
213.7080, 768.3926
214.9280, 928.3486
216.1470, 918.3555
217.3660, 844.4141
218.5850, 858.5244
219.8030, 550.6860
221.0220, 298.9487
222.2400, 35.45898
223.4590, 121.7344
224.6770, 210.6421
225.8950, 243.2163
227.1120, 281.5596
228.3300, 163.7622
229.5480, 54.91309
230.7650, 59.93359
231.9820, 236.6133
233.1990, 346.0840
234.4160, 493.5273
235.6330, 769.0107
236.8490, 848.5327
238.0660, 1091.653
239.2820, 1248.055
240.4980, 1217.626
241.7140, 1431.312
242.9300, 1472.081
244.1460, 1494.911
245.3610, 1563.787
246.5770, 1523.696
247.7920, 1622.626
249.0070, 1781.574
250.2220, 2223.994
251.4370, 2934.516
252.6510, 3440.479
253.8660, 4389.435
255.0800, 5261.387
256.2940, 5035.311
257.5080, 5352.242
258.7220, 6328.183
259.9360, 8299.104
261.1490, 9504.041
262.3630, 10546.00
263.5760, 11941.97
264.7890, 12585.85
266.0020, 12012.49
267.2150, 10845.11
268.4270, 9455.771
269.6400, 9129.474
270.8520, 9753.215
272.0640, 10983.98
273.2760, 12353.21
274.4880, 14375.77
275.7000, 16861.60
276.9120, 20020.46
278.1230, 22938.34
279.3340, 26549.24
280.5450, 30354.18
281.7560, 33917.14
282.9670, 37109.13
284.1780, 39655.15
285.3880, 41230.19
286.5980, 42416.27
287.8090, 43257.38
289.0190, 43470.49
290.2290, 42700.05
291.4380, 40644.03
292.6480, 37699.94
293.8570, 33761.68
295.0670, 29017.71
296.2760, 24201.95
297.4850, 19921.29
298.6930, 16330.68
299.9020, 13418.09
301.1110, 11406.53
302.3190, 9841.001
303.5270, 9141.448
304.7350, 8987.687
305.9430, 8987.737
307.1510, 9533.801
308.3580, 10957.90
309.5660, 12577.05
310.7730, 14281.23
311.9800, 15363.45
313.1870, 16529.71
314.3940, 17128.01
315.6010, 17906.34
316.8070, 18744.71
318.0130, 19304.12
319.2200, 19759.56
320.4260, 19308.04
321.6310, 18481.56
322.8370, 16847.11
324.0430, 14683.71
325.2480, 12736.33
326.4540, 11119.99
327.6590, 9854.679
328.8640, 8979.408
330.0680, 8342.173
331.2730, 8025.970
332.4780, 7754.803
333.6820, 7780.669
334.8860, 7616.571
336.0900, 7680.504
337.2940, 7667.473
338.4980, 7974.477
339.7010, 8371.516
340.9050, 8810.584
342.1080, 9541.691
343.3110, 10399.83
344.5140, 11540.00
345.7170, 13267.21
346.9200, 14893.45
348.1220, 16696.10
349.3240, 18903.28
350.5270, 20132.36
351.7290, 21558.68
352.9310, 22804.90
354.1320, 23500.82
355.3340, 23779.00
356.5350, 24367.63
357.7370, 23544.83
358.9380, 22587.01
360.1390, 21164.22
361.3400, 18895.23
362.5400, 16839.27
363.7410, 14068.76
364.9410, 11994.45
366.1410, 9972.155
367.3410, 8319.890
368.5410, 7289.304
369.7410, 6227.561
370.9400, 5610.850
372.1400, 4990.810
373.3390, 4517.015
374.5380, 4097.447
375.7370, 3710.427
376.9360, 3388.457
378.1350, 3165.538
379.3330, 3035.653
380.5310, 2845.805
381.7300, 2788.985
382.9280, 2534.189
384.1260, 2345.417
385.3230, 2148.667
386.5210, 1874.938
387.7180, 1840.231
388.9160, 1582.545
390.1130, 1520.880
391.3100, 1394.237
392.5060, 1228.613
393.7030, 1139.011
394.9000, 954.4307
396.0960, 806.8701
397.2920, 663.3311
398.4880, 452.8130
399.6840, 319.3159
400.8800, 345.8408
402.0750, 181.3862
403.2710, 213.9531
404.4660, 185.5420
405.6610, 114.1519
406.8560, 110.7837
408.0510, 211.4370
409.2450, 234.1123
410.4400, 200.8110
411.6340, 244.5327
412.8280, 135.2778
414.0220, 122.0454
415.2160, 228.8369
416.4100, 233.6509
417.6030, 124.4912
418.7970, 172.3555
419.9900, 160.2427
421.1830, 129.1523
422.3760, 137.0850
423.5690, 59.03955
424.7610, 148.0229
425.9540, 59.02832
427.1460, 51.05713
428.3380, 57.10840
429.5300, 81.18213
430.7220, 46.27979
431.9140, 144.4014
433.1050, 96.54639
434.2970, 97.72510
435.4880, 259.9424
436.6790, 285.2134
437.8700, 380.5337
439.0610, 442.8901
440.2510, 592.2734
441.4420, 953.6831
442.6320, 1215.119
443.8220, 1655.581
445.0120, 1652.070
446.2020, 1636.585
447.3910, 1661.126
448.5810, 1887.696
449.7700, 1977.294
450.9600, 1858.921
452.1490, 2017.575
453.3370, 1767.258
454.5260, 1608.969
455.7150, 1102.708
456.9030, 767.4751
458.0910, 557.2695
459.2800, 440.0908
460.4670, 441.9404
461.6550, 556.8164
462.8430, 705.7197
464.0300, 697.6499
465.2180, 750.6069
466.4050, 932.5898
467.5920, 915.6001
468.7790, 1045.636
469.9650, 1117.698
471.1520, 990.7871
472.3380, 1039.901
473.5250, 1024.042
474.7110, 1011.207
475.8970, 904.3975
477.0820, 1008.614
478.2680, 796.8550
479.4540, 906.1216
480.6390, 784.4126
481.8240, 709.7290
483.0090, 654.0693
484.1940, 515.4341
485.3780, 439.8232
486.5630, 343.2363
487.7470, 248.6733
488.9320, 110.1348
490.1160, 31.38037
491.3000, 58.89746
492.4830, 145.4297
493.6670, 301.0186
494.8500, 231.7417
496.0340, 87.56396
497.2170, 312.4150
498.4000, 117.4072
499.5820, 375.4443
500.7650, 159.6553
501.9480, 176.9307
503.1300, 173.2793
504.3120, 49.69922
505.4940, 76.13184
506.6760, 83.41211
507.8580, 91.97656
509.0390, 96.56348
510.2210, 230.1729
511.4020, 217.8311
512.5830, 321.7764
513.7640, 252.9561
514.9450, 295.6279
516.1250, 294.6396
517.3060, 345.4941
518.4860, 301.5898
519.6660, 399.8535
520.8460, 332.3340
522.0260, 393.1182
523.2060, 278.3477
524.3850, 394.4502
525.5650, 458.5723
526.7440, 541.7109
527.9230, 616.8672
529.1020, 687.0420
530.2810, 654.2334
531.4590, 742.4414
532.6380, 935.6670
533.8160, 1247.910
534.9940, 1628.279
536.1720, 2040.446
537.3500, 2656.739
538.5270, 3280.050
539.7050, 3939.377
540.8820, 4769.721
542.0590, 5664.082
543.2360, 6071.457
544.4130, 6804.850
545.5900, 6888.258
546.7660, 7099.686
547.9430, 7296.128
549.1190, 7150.586
550.2950, 6672.077
551.4710, 6213.588
552.6470, 5375.113
553.8220, 4579.654
554.9980, 3947.213
556.1730, 3477.788
557.3480, 3021.381
558.5230, 2660.990
559.6980, 2530.626
560.8730, 2351.279
562.0470, 2452.949
563.2220, 2607.638
564.3960, 2541.343
565.5700, 2682.070
566.7440, 2791.820
567.9170, 2846.606
569.0910, 2823.440
570.2640, 2950.364
571.4380, 2782.416
572.6110, 2548.600
573.7840, 2561.911
574.9570, 2276.347
576.1290, 1968.886
577.3020, 1837.526
578.4740, 1823.247
579.6460, 1431.057
580.8180, 1411.970
581.9900, 1263.944
583.1620, 1440.996
584.3330, 1276.107
585.5040, 1248.266
586.6760, 1386.467
587.8470, 1371.695
589.0180, 1424.938
590.1880, 1464.192
591.3590, 1507.586
592.5290, 1577.730
593.7000, 1632.013
594.8700, 1690.306
596.0400, 1763.388
597.2090, 1799.749
598.3790, 1838.238
599.5490, 1836.567
600.7180, 1818.904
601.8870, 1738.249
603.0560, 1732.062
604.2250, 1625.963
605.3940, 1637.330
606.5620, 1564.705
607.7300, 1454.089
608.8990, 1317.478
610.0670, 1239.873
611.2350, 1304.275
612.4020, 1187.684
613.5700, 1121.098
614.7370, 1271.518
615.9050, 1119.943
617.0720, 1052.373
618.2390, 1089.810
619.4060, 1001.251
620.5720, 1026.695
621.7390, 976.1445
622.9050, 916.5996
624.0710, 922.0576
625.2370, 865.5205
626.4030, 746.9863
627.5690, 532.4561
628.7340, 576.9277
629.9000, 444.4033
631.0650, 469.5049
632.2300, 414.1104
633.3950, 440.8594
634.5600, 206.3955
635.7240, 271.0645
636.8890, 213.0762
638.0530, 310.8672
639.2170, 265.2275
640.3810, 233.0635
641.5450, 229.9609
642.7080, 307.8594
643.8720, 311.9893
645.0350, 293.1201
646.1980, 341.8330
647.3610, 173.3945
648.5240, 154.9668
649.6870, 51.54395
650.8490, 40.13086
652.0120, 76.27344
653.1740, 115.7041
654.3360, 67.17871
655.4980, 72.67480
656.6600, 141.1982
657.8210, 127.7773
658.9830, 130.1934
660.1440, 60.09277
661.3050, 65.79785
662.4660, 32.52637
663.6270, 73.73730
664.7870, 201.0059
665.9480, 97.27832
667.1080, 118.5566
668.2680, 40.83984
669.4280, 166.1279
670.5880, 204.6875
671.7480, 483.7158
672.9070, 394.0166
674.0670, 558.3193
675.2260, 655.6289
676.3850, 754.9404
677.5440, 831.2568
678.7030, 884.5762
679.8610, 935.8994
681.0200, 1044.225
682.1780, 1048.555
683.3360, 1203.886
684.4940, 1241.221
685.6520, 1423.828
686.8090, 1404.168
687.9670, 1620.510
689.1240, 1617.264
690.2810, 1756.812
691.4380, 1884.397
692.5950, 2100.746
693.7520, 2306.233
694.9080, 2463.148
696.0650, 2706.941
697.2210, 3030.296
698.3770, 3383.865
699.5330, 3854.706
700.6880, 4456.271
701.8440, 4713.547
702.9990, 5282.465
704.1550, 5763.979
705.3100, 6208.984
706.4650, 6486.696
707.6190, 6538.921
708.7740, 6428.012
709.9290, 6113.334
711.0830, 5862.931
712.2370, 5293.676
713.3910, 4884.576
714.5450, 4193.748
715.6980, 3851.962
716.8520, 3241.773
718.0050, 2829.086
719.1580, 2581.416
720.3110, 2266.521
721.4640, 1688.529
722.6170, 1418.284
723.7700, 1063.919
724.9220, 989.7607
726.0740, 752.7988
727.2260, 583.8906
728.3780, 385.0195
729.5300, 520.1309
730.6810, 249.2217
731.8330, 243.2920
732.9840, 425.3438
734.1350, 381.3740
735.2860, 463.3857
736.4370, 362.3770
737.5880, 576.3477
738.7380, 718.2988
739.8880, 734.2285
741.0390, 979.1377
742.1890, 900.0273
743.3380, 1094.896
744.4880, 1123.744
745.6380, 1286.572
746.7870, 1422.378
747.9360, 1442.165
749.0850, 1472.930
750.2340, 1583.674
751.3830, 1490.397
752.5310, 1530.101
753.6800, 1532.781
754.8280, 1578.442
755.9760, 1527.082
757.1240, 1437.701
758.2720, 1497.299
759.4190, 1362.875
760.5670, 1326.432
761.7140, 1239.966
762.8610, 1222.480
764.0080, 1117.974
765.1550, 1167.447
766.3020, 1026.900
767.4480, 1163.333
768.5950, 1257.745
769.7410, 1305.151
770.8870, 1288.556
772.0330, 1396.980
773.1780, 1430.467
774.3240, 1669.993
775.4690, 1725.526
776.6140, 2051.124
777.7590, 2368.735
778.9040, 2647.426
780.0490, 3030.142
781.1940, 3408.887
782.3380, 3975.660
783.4820, 4546.433
784.6260, 4975.209
785.7700, 5465.969
786.9140, 6009.709
788.0580, 6501.432
789.2010, 6699.137
790.3450, 6743.609
791.4880, 6812.908
792.6310, 6285.789
793.7730, 6073.369
794.9160, 6008.123
796.0590, 5212.642
797.2010, 4710.992
798.3430, 4182.130
799.4850, 3747.967
800.6270, 3249.361
801.7690, 2983.885
802.9100, 2482.392
804.0520, 2384.885
805.1930, 1901.363
806.3340, 1672.824
807.4750, 1723.271
808.6160, 1496.702
809.7560, 1425.119
810.8970, 1402.520
812.0370, 1346.905
813.1770, 1232.275
814.3170, 1165.630
815.4570, 1196.969
816.5960, 1035.294
817.7360, 764.6016
818.8750, 566.8945
820.0140, 602.1729
821.1530, 288.4355
822.2920, 133.6816
823.4310, 252.9092
824.5690, 206.1230
825.7070, 4.319336
826.8460, 153.4639
827.9840, 145.5908
829.1220, 236.7002
830.2590, 171.7949
831.3970, 100.8711
832.5340, 115.9258
833.6710, 232.9609
834.8080, 23.98047
835.9450, 111.9580
837.0820, 158.9170
838.2190, 73.85645
839.3550, 103.7705
840.4910, 59.66406
841.6270, 38.53027
842.7630, 12.63672
843.8990, 52.86621
845.0350, 226.1748
846.1700, 357.6553
847.3060, 378.3770
848.4410, 365.3506
849.5760, 352.5674
850.7100, 278.0205
851.8450, 263.6719
852.9800, 194.5127
854.1140, 219.5078
855.2480, 284.6670
856.3820, 123.0244
857.5160, 186.4961
858.6500, 120.1143
859.7830, 71.84180
860.9170, 60.65332
862.0500, 1.543945
863.1830, 52.52051
864.3160, 209.5605
865.4480, 239.5889
866.5810, 404.6035
867.7130, 368.6064
868.8460, 468.5957
869.9780, 513.5723
871.1100, 404.5371
872.2410, 495.4912
873.3730, 544.4326
874.5050, 616.3613
875.6360, 530.2793
876.7670, 556.1865
877.8980, 556.9521
879.0290, 590.9658
880.1590, 563.8398
881.2900, 551.7041
882.4200, 566.5566
883.5500, 757.4004
884.6800, 802.2334
885.8100, 813.0576
886.9400, 911.8721
888.0690, 925.6934
889.1990, 1029.576
890.3280, 1071.309
891.4570, 1268.104
892.5860, 1397.894
893.7140, 1591.678
894.8430, 1876.475
895.9710, 2050.268
897.1000, 2185.068
898.2280, 2636.896
899.3560, 2941.768
900.4830, 3458.678
901.6110, 3856.631
902.7380, 4546.617
903.8660, 5544.641
904.9930, 6791.697
906.1200, 8436.793
907.2460, 10469.92
908.3730, 13251.08
909.5000, 16924.26
910.6260, 21362.46
911.7520, 26313.70
912.8780, 31364.96
914.0040, 35303.24
915.1290, 38423.57
916.2550, 40717.91
917.3800, 41744.27
918.5050, 41086.65
919.6300, 39162.03
920.7550, 35070.42
921.8800, 30726.83
923.0040, 25799.27
924.1290, 21456.71
925.2530, 18093.15
926.3770, 15339.61
927.5010, 13495.09
928.6250, 11801.60
929.7480, 10829.12
930.8720, 9957.689
931.9950, 9290.278
933.1180, 8781.902
934.2410, 8361.534
935.3640, 8508.172
936.4860, 8647.814
937.6090, 8924.450
938.7310, 9614.079
939.8530, 10446.71
940.9750, 11455.33
942.0970, 12726.95
943.2180, 14122.56
944.3400, 15366.16
945.4610, 16678.77
946.5820, 17426.36
947.7030, 18100.95
948.8240, 18234.53
949.9450, 17870.11
951.0650, 17194.69
952.1860, 15931.25
953.3060, 14585.82
954.4260, 13089.38
955.5460, 11764.93
956.6650, 10395.48
957.7850, 9319.757
958.9040, 8514.297
960.0230, 7780.832
961.1420, 7299.955
962.2610, 6778.282
963.3800, 6329.567
964.4990, 6055.088
965.6170, 5758.469
966.7350, 5562.420
967.8530, 5297.489
968.9710, 5119.994
970.0890, 4812.279
971.2070, 4473.298
972.3240, 4374.584
973.4410, 3808.158
974.5580, 3645.088
975.6750, 3224.418
976.7920, 3033.254
977.9090, 2677.381
979.0250, 2357.992
980.1410, 2125.736
981.2580, 1920.244
982.3740, 1806.476
983.4890, 1594.554
984.6050, 1592.476
985.7200, 1302.122
986.8360, 1145.723
987.9510, 1127.725
989.0660, 1099.221
990.1810, 936.6973
991.2950, 864.3945
992.4100, 771.1855
993.5240, 836.2266
994.6390, 758.3838
995.7530, 843.3311
996.8660, 845.0791
997.9800, 859.7705
999.0940, 938.4189
1000.207, 1136.082
1001.320, 1268.762
1002.433, 1557.457
1003.546, 1608.170
1004.659, 2049.896
1005.772, 2266.641
1006.884, 2722.400
1007.996, 3284.176
1009.108, 4186.967
1010.220, 4762.774
1011.332, 5589.598
1012.444, 6495.438
1013.555, 7227.293
1014.666, 7836.166
1015.777, 8492.055
1016.888, 8806.958
1017.999, 8986.874
1019.110, 8520.013
1020.220, 8343.966
1021.331, 7751.008
1022.441, 7101.990
1023.551, 6426.990
1024.661, 5728.006
1025.770, 5198.875
1026.880, 4845.139
1027.989, 4252.783
1029.098, 3978.614
1030.207, 3568.357
1031.316, 3146.457
1032.425, 3002.660
1033.533, 2756.451
1034.642, 2639.844
1035.750, 2409.635
1036.858, 2207.932
1037.966, 2321.934
1039.073, 2057.302
1040.181, 2201.280
1041.288, 2131.051
1042.396, 2243.938
1043.503, 2162.326
1044.610, 2273.524
1045.716, 2456.980
1046.823, 2746.756
1047.929, 2974.500
1049.036, 3433.158
1050.142, 3944.148
1051.248, 4642.834
1052.353, 5293.879
1053.459, 6127.484
1054.564, 7369.437
1055.670, 8415.772
1056.775, 9084.820
1057.880, 9587.708
1058.985, 9887.506
1060.089, 9710.188
1061.194, 10039.37
1062.298, 8716.070
1063.402, 7705.451
1064.506, 6974.819
1065.610, 5980.450
1066.713, 5383.252
1067.817, 4562.551
1068.920, 4343.850
1070.023, 3945.378
1071.126, 3516.927
1072.229, 3431.715
1073.332, 3135.521
1074.435, 2936.959
1075.537, 2816.277
1076.639, 2666.974
1077.741, 2514.912
1078.843, 2488.229
1079.945, 2422.544
1081.046, 2300.859
1082.148, 2343.173
1083.249, 2308.486
1084.350, 2258.797
1085.451, 2298.108
1086.551, 2363.449
1087.652, 2416.787
1088.752, 2406.125
1089.853, 2372.461
1090.953, 2487.799
1092.053, 2592.135
1093.152, 2590.469
1094.252, 2823.818
1095.351, 3065.168
1096.451, 3231.518
1097.550, 3411.864
1098.649, 3797.211
1099.748, 4154.558
1100.846, 4487.905
1101.945, 4943.275
1103.043, 5280.658
1104.141, 5448.037
1105.239, 5568.416
1106.337, 5423.803
1107.434, 5317.193
1108.532, 4927.593
1109.629, 4795.004
1110.726, 4360.434
1111.823, 3733.894
1112.920, 3348.426
1114.017, 2949.082
1115.113, 2482.854
1116.210, 2356.742
1117.306, 2143.740
1118.402, 2080.822
1119.498, 2041.021
1120.593, 2024.283
1121.689, 1928.616
1122.784, 1814.035
1123.879, 1926.499
1124.974, 1907.023
1126.069, 1712.590
1127.164, 1395.185
1128.259, 1487.805
1129.353, 1040.434
1130.447, 802.0615
1131.541, 859.6816
1132.635, 510.2930
1133.729, 679.8975
1134.822, 482.4951
1135.916, 354.0830
1137.009, 442.6631
1138.102, 359.2344
1139.195, 448.7959
1140.288, 378.3496
1141.380, 315.8926
1142.473, 363.9453
1143.565, 309.6602
1144.657, 381.4639
1145.749, 293.9688
1146.841, 277.4609
1147.932, 276.9434
1149.024, 459.4141
1150.115, 86.87500
1151.206, 177.3223
1152.297, 48.24316
1153.388, 161.1484
1154.479, 160.5264
1155.569, 198.8936
1156.659, 1.751953
1157.750, 101.5771
1158.839, 64.10645
1159.929, 4.151367
1161.019, 30.61426
1162.108, 114.4199
1163.198, 162.3135
1164.287, 154.3184
1165.376, 162.4326
1166.465, 119.6611
1167.553, 142.2920
1168.642, 120.4092
1169.730, 140.9307
1170.818, 133.5566
1171.906, 81.28613
1172.994, 82.09082
1174.082, 88.97266
1175.170, 84.93652
1176.257, 103.9785
1177.344, 108.1104
1178.431, 106.6855
1179.518, 56.65332
1180.605, 77.03906
1181.691, 39.50195
1182.778, 33.97656
1183.864, 52.57031
1184.950, 105.1836
1186.036, 30.89160
1187.122, 25.65527
1188.207, 60.52734
1189.292, 4.313477
1190.378, 111.8027
1191.463, 25.10352
1192.548, 109.9365
1193.632, 27.04492
1194.717, 25.91797
1195.801, 19.84863
1196.886, 90.96582
1197.970, 215.8428
1199.054, 217.9707
1200.137, 159.0293
1201.221, 154.9961
1202.305, 99.05371
1203.388, 94.99707
1204.471, 191.4951
1205.554, 276.3984
1206.637, 268.4863
1207.719, 401.2480
1208.802, 381.9512
1209.884, 503.8262
1210.966, 459.5039
1212.048, 422.1367
1213.130, 681.7324
1214.212, 901.5273
1215.293, 903.2383
1216.374, 1123.784
1217.456, 1259.668
1218.536, 1418.996
1219.617, 1598.820
1220.698, 1717.273
1221.778, 1929.039
1222.859, 2227.449
1223.939, 2594.969
1225.019, 2877.400
1226.099, 3038.051
1227.178, 3409.074
1228.258, 3646.874
1229.337, 3924.399
1230.417, 4287.904
1231.496, 4335.910
1232.574, 4606.444
1233.653, 5001.636
1234.732, 5060.959
1235.810, 5224.752
1236.888, 5276.510
1237.966, 5373.389
1239.044, 5887.975
1240.122, 5938.127
1241.199, 6143.158
1242.277, 6344.169
1243.354, 6542.354
1244.431, 6648.314
1245.508, 6892.328
1246.585, 6961.239
1247.661, 6975.123
1248.738, 7207.748
1249.814, 7349.580
1250.890, 7113.383
1251.966, 7090.156
1253.042, 6987.138
1254.117, 7106.854
1255.193, 6856.545
1256.268, 6822.202
1257.343, 6610.832
1258.418, 6516.434
1259.493, 6432.004
1260.567, 6206.545
1261.642, 6165.056
1262.716, 5773.537
1263.790, 5723.988
1264.864, 5510.410
1265.938, 5328.801
1267.011, 5081.163
1268.085, 4833.305
1269.158, 4634.796
1270.231, 4314.068
1271.304, 3976.311
1272.377, 3755.523
1273.450, 3531.904
1274.522, 3200.858
