##NAMES=Andalusite
##RRUFFID=R050258
##IDEAL CHEMISTRY=Al_2_SiO_5_
##LOCALITY=Bautista Canyon, near Hemet, Riverside County, California, USA
##OWNER=RRUFF
##SOURCE=Marcus Origlieri
##DESCRIPTION=Brown fragment
##STATUS=The identification of this mineral has been confirmed by X-ray diffraction and chemical analysis
##URL=rruff.info/R050258
##MEASURED CHEMISTRY=Al_2.00_Si_1.00_O_5_
##PIN_ID=M00208
##ORIENTATION=Laser parallel to -c* (0 0 -1). Fiducial mark perpendicular to laser is parallel to a [1 0 0]
99.64900, 0.0000000E+00
100.8830, 76.74707
102.1160, 5.447266
103.3490, 2.932617
104.5820, 52.16113
105.8150, 131.8213
107.0470, 401.3047
108.2800, 621.4912
109.5120, 873.5742
110.7440, 673.9434
111.9760, 269.1250
113.2080, 119.7383
114.4400, 286.4834
115.6710, 360.1221
116.9030, 211.4551
118.1340, 452.3145
119.3650, 174.5508
120.5960, 126.0371
121.8270, 262.6543
123.0580, 296.3037
124.2880, 289.9033
125.5190, 353.3799
126.7490, 252.6699
127.9790, 144.7207
129.2090, 290.4883
130.4390, 392.9336
131.6680, 393.0283
132.8980, 347.7529
134.1270, 173.0332
135.3560, 185.8457
136.5850, 187.1641
137.8140, 454.9492
139.0430, 491.1592
140.2710, 482.7627
141.5000, 344.7354
142.7280, 351.0596
143.9560, 278.7168
145.1840, 235.6963
146.4120, 337.9863
147.6390, 366.5752
148.8670, 345.4600
150.0940, 274.6357
151.3210, 369.0928
152.5490, 327.8223
153.7750, 333.5713
155.0020, 207.0576
156.2290, 295.5527
157.4550, 268.3770
158.6810, 168.3516
159.9080, 356.5596
161.1340, 244.4551
162.3590, 200.0986
163.5850, 327.3965
164.8110, 328.0566
166.0360, 286.3066
167.2610, 340.7637
168.4860, 326.4199
169.7110, 390.2793
170.9360, 379.3320
172.1610, 323.5781
173.3850, 470.9590
174.6100, 329.3164
175.8340, 226.6758
177.0580, 278.0645
178.2820, 217.4941
179.5050, 239.4102
180.7290, 321.5312
181.9520, 297.1562
183.1760, 416.8594
184.3990, 456.7266
185.6220, 333.6914
186.8450, 623.7461
188.0670, 821.8945
189.2900, 753.1367
190.5120, 1086.479
191.7340, 836.0137
192.9560, 813.6582
194.1780, 756.4141
195.4000, 845.3555
196.6220, 769.4570
197.8430, 696.6914
199.0640, 598.0664
200.2860, 639.5762
201.5070, 829.1758
202.7270, 804.8691
203.9480, 688.6543
205.1690, 556.5332
206.3890, 314.5020
207.6090, 172.5625
208.8290, 72.71289
210.0490, 109.0137
211.2690, 7.466797
212.4890, 145.0078
213.7080, 3.363281
214.9280, 107.3887
216.1470, 114.2285
217.3660, 138.1523
218.5850, 201.1602
219.8030, 72.25195
221.0220, 71.42969
222.2400, 28.31055
223.4590, 52.03320
224.6770, 153.4590
225.8950, 28.03125
227.1120, 29.55859
228.3300, 36.76953
229.5480, 304.9844
230.7650, 249.8262
231.9820, 461.7988
233.1990, 657.9355
234.4160, 752.2012
235.6330, 1102.547
236.8490, 1546.994
238.0660, 1758.539
239.2820, 1999.188
240.4980, 2171.932
241.7140, 2056.746
242.9300, 1867.635
244.1460, 1499.590
245.3610, 1331.611
246.5770, 1149.020
247.7920, 1147.439
249.0070, 885.8398
250.2220, 942.0469
251.4370, 819.5723
252.6510, 866.3789
253.8660, 874.4375
255.0800, 801.7344
256.2940, 867.2422
257.5080, 743.9512
258.7220, 966.8457
259.9360, 1111.916
261.1490, 1143.154
262.3630, 1048.553
263.5760, 1154.096
264.7890, 1276.783
266.0020, 1392.611
267.2150, 1396.984
268.4270, 1692.602
269.6400, 1936.805
270.8520, 2083.123
272.0640, 2569.557
273.2760, 2874.098
274.4880, 3482.746
275.7000, 4027.496
276.9120, 4439.348
278.1230, 4798.336
279.3340, 5708.379
280.5450, 7261.514
281.7560, 8862.783
282.9670, 11368.10
284.1780, 13856.94
285.3880, 17179.42
286.5980, 21322.20
287.8090, 25790.07
289.0190, 30048.44
290.2290, 32952.66
291.4380, 32409.24
292.6480, 28481.68
293.8570, 23373.70
295.0670, 17873.39
296.2760, 13398.30
297.4850, 10118.53
298.6930, 7098.730
299.9020, 5370.098
301.1110, 4285.533
302.3190, 3371.031
303.5270, 2827.596
304.7350, 2553.219
305.9430, 2015.906
307.1510, 1906.652
308.3580, 1704.457
309.5660, 2193.320
310.7730, 2511.234
311.9800, 3455.211
313.1870, 4199.242
314.3940, 5236.328
315.6010, 7088.473
316.8070, 9246.670
318.0130, 11892.91
319.2200, 13797.21
320.4260, 14189.09
321.6310, 12522.50
322.8370, 10422.96
324.0430, 8175.479
325.2480, 6670.049
326.4540, 5253.674
327.6590, 4065.586
328.8640, 3593.312
330.0680, 3075.094
331.2730, 3136.926
332.4780, 2847.807
333.6820, 2686.740
334.8860, 2638.723
336.0900, 2633.756
337.2940, 2424.840
338.4980, 2285.973
339.7010, 2264.152
340.9050, 2230.379
342.1080, 2265.656
343.3110, 2168.980
344.5140, 2291.348
345.7170, 2924.762
346.9200, 3257.223
348.1220, 4261.727
349.3240, 5424.281
350.5270, 6638.877
351.7290, 9027.516
352.9310, 10815.20
354.1320, 13206.93
355.3340, 16014.69
356.5350, 17794.51
357.7370, 18040.40
358.9380, 17454.26
360.1390, 15435.31
361.3400, 12798.35
362.5400, 10195.37
363.7410, 8135.551
364.9410, 6585.230
366.1410, 5171.371
367.3410, 4402.352
368.5410, 3452.566
369.7410, 2926.207
370.9400, 2312.303
372.1400, 2258.338
373.3390, 1617.057
374.5380, 1311.461
375.7370, 1314.488
376.9360, 989.9629
378.1350, 1329.812
379.3330, 1104.355
380.5310, 1157.932
381.7300, 976.5898
382.9280, 987.7266
384.1260, 798.4023
385.3230, 667.1133
386.5210, 735.8555
387.7180, 790.6309
388.9160, 648.4375
390.1130, 638.2773
391.3100, 945.1719
392.5060, 781.1230
393.7030, 613.1367
394.9000, 542.2012
396.0960, 174.3281
397.2920, 261.5078
398.4880, 119.7422
399.6840, 224.0254
400.8800, 273.3574
402.0750, 343.7363
403.2710, 260.1641
404.4660, 315.6914
405.6610, 208.1934
406.8560, 303.7773
408.0510, 130.4082
409.2450, 68.08203
410.4400, 115.2051
411.6340, 46.73828
412.8280, 130.3105
414.0220, 178.1348
415.2160, 136.0332
416.4100, 388.9746
417.6030, 312.0000
418.7970, 180.0918
419.9900, 169.2266
421.1830, 3.396484
422.3760, 79.62891
423.5690, 192.8965
424.7610, 159.7969
425.9540, 6.484375
427.1460, 9.201172
428.3380, 59.14258
429.5300, 1.474609
430.7220, 29.06250
431.9140, 126.6309
433.1050, 6.210938
434.2970, 61.76367
435.4880, 78.30859
436.6790, 10.14648
437.8700, 34.36328
439.0610, 59.85742
440.2510, 107.6562
441.4420, 61.79883
442.6320, 261.7500
443.8220, 221.3340
445.0120, 250.9473
446.2020, 572.5898
447.3910, 788.2637
448.5810, 1034.969
449.7700, 1136.770
450.9600, 1493.479
452.1490, 1125.281
453.3370, 755.1074
454.5260, 415.9688
455.7150, 429.8594
456.9030, 59.80469
458.0910, 114.7773
459.2800, 172.7812
460.4670, 94.18750
461.6550, 152.8281
462.8430, 103.1270
464.0300, 65.89648
465.2180, 107.9512
466.4050, 81.03516
467.5920, 26.14844
468.7790, 200.2891
469.9650, 53.54688
471.1520, 203.6172
472.3380, 333.8047
473.5250, 286.0215
474.7110, 211.2754
475.8970, 258.5527
477.0820, 245.3223
478.2680, 349.2148
479.4540, 336.5996
480.6390, 320.0234
481.8240, 425.4766
483.0090, 313.9766
484.1940, 447.5000
485.3780, 282.0430
486.5630, 213.6152
487.7470, 230.2070
488.9320, 227.8262
490.1160, 134.4688
491.3000, 41.13672
492.4830, 134.8262
493.6670, 189.5352
494.8500, 137.2656
496.0340, 159.7930
497.2170, 137.5723
498.4000, 132.6875
499.5820, 43.56445
500.7650, 113.4590
501.9480, 13.62500
503.1300, 51.71289
504.3120, 78.18164
505.4940, 31.90430
506.6760, 190.0000
507.8580, 82.82227
509.0390, 194.6719
510.2210, 164.5371
511.4020, 5.419922
512.5830, 131.3066
513.7640, 59.78711
514.9450, 27.09375
516.1250, 103.9883
517.3060, 36.10156
518.4860, 119.7891
519.6660, 10.28516
520.8460, 83.63477
522.0260, 136.5723
523.2060, 58.52148
524.3850, 36.48828
525.5650, 191.4629
526.7440, 148.6113
527.9230, 103.6250
529.1020, 262.6406
530.2810, 226.6699
531.4590, 260.7109
532.6380, 292.7676
533.8160, 227.8379
534.9940, 412.9160
536.1720, 370.0117
537.3500, 428.1133
538.5270, 533.2285
539.7050, 828.4902
540.8820, 986.8008
542.0590, 1234.949
543.2360, 1452.109
544.4130, 1806.279
545.5900, 2372.145
546.7660, 2959.293
547.9430, 3074.490
549.1190, 3336.695
550.2950, 3268.906
551.4710, 3055.129
552.6470, 2708.172
553.8220, 2692.832
554.9980, 2052.074
556.1730, 1816.449
557.3480, 1513.703
558.5230, 1264.035
559.6980, 1043.697
560.8730, 882.0820
562.0470, 1143.355
563.2220, 601.2969
564.3960, 908.5781
565.5700, 1326.863
566.7440, 1167.145
567.9170, 1465.443
569.0910, 1203.316
570.2640, 1405.629
571.4380, 1503.736
572.6110, 1257.896
573.7840, 1230.629
574.9570, 1197.598
576.1290, 736.3262
577.3020, 696.2637
578.4740, 698.6934
579.6460, 653.5254
580.8180, 634.0781
581.9900, 377.6777
583.1620, 547.2285
584.3330, 442.6777
585.5040, 313.1250
586.6760, 485.5762
587.8470, 270.0293
589.0180, 429.4844
590.1880, 249.2422
591.3590, 273.7031
592.5290, 592.1680
593.7000, 389.6504
594.8700, 323.5566
596.0400, 428.1875
597.2090, 335.9688
598.3790, 624.4453
599.5490, 486.0273
600.7180, 562.5000
601.8870, 420.4473
603.0560, 479.3164
604.2250, 435.8125
605.3940, 610.0801
606.5620, 454.5410
607.7300, 586.1465
608.8990, 547.6016
610.0670, 449.4238
611.2350, 624.6191
612.4020, 334.2773
613.5700, 391.1582
614.7370, 512.0703
615.9050, 445.8145
617.0720, 664.7227
618.2390, 692.2773
619.4060, 428.6348
620.5720, 414.2676
621.7390, 557.6328
622.9050, 665.6133
624.0710, 544.0488
625.2370, 844.4473
626.4030, 920.6367
627.5690, 930.0078
628.7340, 755.3809
629.9000, 598.7480
631.0650, 739.1973
632.2300, 626.1875
633.3950, 505.5215
634.5600, 448.8457
635.7240, 356.6895
636.8890, 378.9961
638.0530, 377.0176
639.2170, 511.5488
640.3810, 405.7832
641.5450, 585.0488
642.7080, 476.1895
643.8720, 585.5098
645.0350, 627.7441
646.1980, 530.2422
647.3610, 698.9473
648.5240, 420.7090
649.6870, 388.9023
650.8490, 410.0879
652.0120, 359.8750
653.1740, 339.6309
654.3360, 265.1699
655.4980, 349.6875
656.6600, 293.0527
657.8210, 219.5820
658.9830, 114.3242
660.1440, 186.7324
661.3050, 431.8184
662.4660, 410.9609
663.6270, 358.9785
664.7870, 193.5371
665.9480, 87.57812
667.1080, 104.6035
668.2680, 310.6191
669.4280, 252.6211
670.5880, 308.6270
671.7480, 115.6055
672.9070, 228.5703
674.0670, 110.5234
675.2260, 248.4648
676.3850, 16.39062
677.5440, 256.2871
678.7030, 41.17188
679.8610, 88.03125
681.0200, 263.8770
682.1780, 201.7051
683.3360, 637.5234
684.4940, 14.67188
685.6520, 17.08789
686.8090, 257.8145
687.9670, 189.5254
689.1240, 115.2246
690.2810, 226.9102
691.4380, 24.41992
692.5950, 19.78125
693.7520, 368.8164
694.9080, 103.5996
696.0650, 310.8887
697.2210, 134.6348
698.3770, 44.26758
699.5330, 41.03516
700.6880, 125.3164
701.8440, 49.42188
702.9990, 174.7793
704.1550, 506.9648
705.3100, 111.5078
706.4650, 401.6934
707.6190, 211.1289
708.7740, 392.2910
709.9290, 306.3594
711.0830, 706.0938
712.2370, 618.2148
713.3910, 588.3457
714.5450, 944.6777
715.6980, 796.7930
716.8520, 894.9062
718.0050, 935.0039
719.1580, 1139.307
720.3110, 766.3926
721.4640, 586.4590
722.6170, 629.5234
723.7700, 589.5703
724.9220, 417.6016
726.0740, 357.0781
727.2260, 278.0742
728.3780, 45.12695
729.5300, 308.4414
730.6810, 252.3750
731.8330, 365.0137
732.9840, 93.91406
734.1350, 117.7910
735.2860, 46.34766
736.4370, 150.4395
737.5880, 122.2090
738.7380, 316.9609
739.8880, 88.69531
741.0390, 95.42969
742.1890, 80.14453
743.3380, 65.86133
744.4880, 221.1914
745.6380, 49.86719
746.7870, 198.5137
747.9360, 151.1445
749.0850, 94.75586
750.2340, 107.3652
751.3830, 37.95117
752.5310, 36.50781
753.6800, 96.03711
754.8280, 35.54297
755.9760, 31.97852
757.1240, 54.43555
758.2720, 18.17578
759.4190, 52.70898
760.5670, 40.53320
761.7140, 125.7090
762.8610, 131.9355
764.0080, 57.14648
765.1550, 161.3320
766.3020, 47.50391
767.4480, 46.65039
768.5950, 111.7715
769.7410, 61.87500
770.8870, 199.9570
772.0330, 197.0234
773.1780, 91.92383
774.3240, 211.0371
775.4690, 101.9844
776.6140, 66.08594
777.7590, 219.7695
778.9040, 163.6113
780.0490, 270.4375
781.1940, 99.25781
782.3380, 267.0820
783.4820, 68.88867
784.6260, 105.6914
785.7700, 16.52930
786.9140, 142.3379
788.0580, 239.1328
789.2010, 144.9121
790.3450, 52.68555
791.4880, 95.43945
792.6310, 159.1992
793.7730, 76.94727
794.9160, 283.6797
796.0590, 23.58398
797.2010, 45.10352
798.3430, 480.7832
799.4850, 96.44531
800.6270, 119.0977
801.7690, 129.7344
802.9100, 298.3633
804.0520, 268.8184
805.1930, 383.4082
806.3340, 411.9980
807.4750, 102.5723
808.6160, 371.1348
809.7560, 224.6836
810.8970, 346.2207
812.0370, 122.7461
813.1770, 316.2598
814.3170, 339.7617
815.4570, 266.2500
816.5960, 494.5938
817.7360, 366.8887
818.8750, 324.3418
820.0140, 523.7871
821.1530, 464.2207
822.2920, 455.9531
823.4310, 498.4023
824.5690, 329.8027
825.7070, 407.1895
826.8460, 292.5684
827.9840, 213.9395
829.1220, 336.0625
830.2590, 338.4531
831.3970, 430.7930
832.5340, 470.2402
833.6710, 312.3203
834.8080, 502.5605
835.9450, 253.4688
837.0820, 146.6523
838.2190, 240.9395
839.3550, 101.5215
840.4910, 216.7949
841.6270, 58.93750
842.7630, 139.2715
843.8990, 2.505859
845.0350, 67.70703
846.1700, 54.08398
847.3060, 192.9121
848.4410, 117.1562
849.5760, 121.2188
850.7100, 156.7246
851.8450, 134.2441
852.9800, 42.20898
854.1140, 191.1875
855.2480, 47.85742
856.3820, 28.06836
857.5160, 138.9883
858.6500, 60.90234
859.7830, 190.8145
860.9170, 244.7188
862.0500, 17.37891
863.1830, 43.51172
864.3160, 1.603516
865.4480, 40.02539
866.5810, 155.8359
867.7130, 95.30859
868.8460, 28.50391
869.9780, 25.88477
871.1100, 202.5605
872.2410, 13.12695
873.3730, 153.9902
874.5050, 28.75977
875.6360, 187.6348
876.7670, 164.0430
877.8980, 414.5352
879.0290, 86.83008
880.1590, 32.10938
881.2900, 112.7461
882.4200, 224.4570
883.5500, 172.3086
884.6800, 242.0156
885.8100, 464.6562
886.9400, 282.2930
888.0690, 226.6992
889.1990, 361.0664
890.3280, 596.6016
891.4570, 236.9688
892.5860, 547.7070
893.7140, 584.6406
894.8430, 594.2852
895.9710, 944.2500
897.1000, 1065.637
898.2280, 1194.562
899.3560, 1104.520
900.4830, 1478.730
901.6110, 1738.746
902.7380, 1746.766
903.8660, 2022.793
904.9930, 2501.734
906.1200, 2917.129
907.2460, 3554.176
908.3730, 4305.227
909.5000, 5326.750
910.6260, 6529.801
911.7520, 8507.719
912.8780, 11117.96
914.0040, 14318.05
915.1290, 18261.16
916.2550, 22256.26
917.3800, 25484.24
918.5050, 26849.36
919.6300, 25254.09
920.7550, 22128.15
921.8800, 17946.73
923.0040, 13933.86
924.1290, 10830.00
925.2530, 8774.145
926.3770, 7474.695
927.5010, 6152.762
928.6250, 5602.922
929.7480, 4553.852
930.8720, 4435.023
931.9950, 4104.566
933.1180, 3559.102
934.2410, 3516.289
935.3640, 3601.418
936.4860, 3693.621
937.6090, 3911.828
938.7310, 4275.043
939.8530, 4697.266
940.9750, 5793.492
942.0970, 6583.727
943.2180, 7382.949
944.3400, 8985.223
945.4610, 10840.51
946.5820, 12697.80
947.7030, 14963.10
948.8240, 16211.43
949.9450, 16407.77
951.0650, 16337.11
952.1860, 14381.75
953.3060, 12548.12
954.4260, 10001.50
955.5460, 8033.887
956.6650, 6390.277
957.7850, 5131.695
958.9040, 4105.125
960.0230, 3188.566
961.1420, 2776.020
962.2610, 2203.484
963.3800, 1875.953
964.4990, 1826.449
965.6170, 1345.977
966.7350, 915.5078
967.8530, 1145.090
968.9710, 1036.684
970.0890, 784.3320
971.2070, 671.0156
972.3240, 630.7109
973.4410, 457.4141
974.5580, 550.1523
975.6750, 463.1016
976.7920, 417.2969
977.9090, 391.0742
979.0250, 272.6289
980.1410, 177.4609
981.2580, 377.3750
982.3740, 356.6250
983.4890, 170.4805
984.6050, 19.35156
985.7200, 47.01953
986.8360, 73.90625
987.9510, 0.8085940
989.0660, 34.72266
990.1810, 110.4336
991.2950, 354.3711
992.4100, 207.3164
993.5240, 363.2773
994.6390, 296.2500
995.7530, 316.2305
996.8660, 263.7617
997.9800, 522.7656
999.0940, 313.7070
1000.207, 359.3789
1001.320, 562.4180
1002.433, 493.7539
1003.546, 642.8164
1004.659, 913.5781
1005.772, 986.2773
1006.884, 746.4062
1007.996, 741.9336
1009.108, 1092.082
1010.220, 1286.242
1011.332, 1871.418
1012.444, 2147.609
1013.555, 2141.809
1014.666, 2886.383
1015.777, 3478.609
1016.888, 4063.953
1017.999, 4249.207
1019.110, 4485.473
1020.220, 4215.746
1021.331, 3756.031
1022.441, 3133.340
1023.551, 2771.664
1024.661, 2204.188
1025.770, 1726.934
1026.880, 1699.316
1027.989, 1254.711
1029.098, 1020.543
1030.207, 1104.359
1031.316, 905.8359
1032.425, 749.3203
1033.533, 511.6328
1034.642, 299.1367
1035.750, 616.6562
1036.858, 582.1602
1037.966, 481.7852
1039.073, 675.3359
1040.181, 429.9023
1041.288, 317.4727
1042.396, 162.0508
1043.503, 358.9258
1044.610, 647.5586
1045.716, 387.1953
1046.823, 588.3867
1047.929, 387.2539
1049.036, 685.0273
1050.142, 504.8750
1051.248, 672.5859
1052.353, 952.3008
1053.459, 741.0312
1054.564, 1066.766
1055.670, 1345.516
1056.775, 1735.273
1057.880, 2124.039
1058.985, 2618.809
1060.089, 3246.594
1061.194, 4027.512
1062.298, 4852.312
1063.402, 5541.250
1064.506, 5731.223
1065.610, 5367.305
1066.713, 4566.348
1067.817, 3735.203
1068.920, 3158.066
1070.023, 2538.934
1071.126, 1931.809
1072.229, 1693.688
1073.332, 1140.574
1074.435, 926.6562
1075.537, 823.5547
1076.639, 667.3555
1077.741, 655.5234
1078.843, 342.7734
1079.945, 341.6992
1081.046, 402.9609
1082.148, 303.8867
1083.249, 595.1250
1084.350, 16.72656
1085.451, 471.3867
1086.551, 216.7227
1087.652, 226.6875
1088.752, 144.6484
1089.853, 61.63672
1090.953, 342.6367
1092.053, 253.0859
1093.152, 248.5117
1094.252, 398.5664
1095.351, 296.0195
1096.451, 382.6562
1097.550, 511.7109
1098.649, 476.9219
1099.748, 501.1328
1100.846, 591.5391
1101.945, 823.7383
1103.043, 887.8203
1104.141, 1062.031
1105.239, 1277.980
1106.337, 1418.168
1107.434, 1518.508
1108.532, 1627.891
1109.629, 1604.859
1110.726, 1659.535
1111.823, 1604.605
1112.920, 1385.672
1114.017, 1354.973
1115.113, 1043.113
1116.210, 865.2617
1117.306, 852.4102
1118.402, 858.6055
1119.498, 930.7969
1120.593, 913.2656
1121.689, 931.4609
1122.784, 751.6680
1123.879, 830.8711
1124.974, 451.0781
1126.069, 755.2773
1127.164, 639.4844
1128.259, 412.6875
1129.353, 381.8945
1130.447, 334.0977
1131.541, 207.3008
1132.635, 285.5117
1133.729, 271.7227
1134.822, 349.9570
1135.916, 83.80859
1137.009, 177.6211
1138.102, 433.4766
1139.195, 61.42578
1140.288, 241.7891
1141.380, 233.8477
1142.473, 242.9062
1143.565, 219.9766
1144.657, 201.0352
1145.749, 39.09375
1146.841, 322.1523
1147.932, 14.21094
1149.024, 94.26172
1150.115, 370.4141
1151.206, 369.4648
1152.297, 51.50781
1153.388, 110.5664
1154.479, 79.62109
1155.569, 17.32422
1156.659, 68.28906
1157.750, 111.7070
1158.839, 89.69531
1159.929, 178.3164
1161.019, 177.4297
1162.108, 86.35938
1163.198, 137.1719
1164.287, 167.0195
1165.376, 243.7422
1166.465, 94.49609
1167.553, 56.75391
1168.642, 44.95703
1169.730, 174.6602
1170.818, 90.40234
1171.906, 325.1406
1172.994, 180.8711
1174.082, 12.59766
1175.170, 148.3633
1176.257, 142.0781
1177.344, 45.16406
1178.431, 55.44531
1179.518, 60.17578
1180.605, 45.23438
1181.691, 80.35547
1182.778, 170.0000
1183.864, 164.5898
1184.950, 100.1797
1186.036, 235.7578
1187.122, 184.0586
1188.207, 137.8906
1189.292, 160.4453
1190.378, 142.9961
1191.463, 60.52734
1192.548, 138.0625
1193.632, 60.24219
1194.717, 57.09766
1195.801, 38.29688
1196.886, 50.79297
1197.970, 165.2773
1199.054, 218.7500
1200.137, 205.2344
1201.221, 188.6719
1202.305, 150.1289
1203.388, 128.5898
1204.471, 61.10938
1205.554, 126.5352
1206.637, 72.05078
1207.719, 2.304688
1208.802, 30.63281
1209.884, 380.9492
1210.966, 29.74219
1212.048, 337.5469
1213.130, 43.82812
1214.212, 67.09766
1215.293, 76.07812
1216.374, 31.32812
1217.456, 115.5625
1218.536, 281.7891
1219.617, 277.8242
1220.698, 226.0312
1221.778, 33.23438
1222.859, 38.42188
1223.939, 120.5898
1225.019, 37.17188
1226.099, 88.25000
1227.178, 36.33594
1228.258, 90.45312
1229.337, 92.55859
1230.417, 49.64844
1231.496, 97.72656
1232.574, 129.3125
1233.653, 120.9375
1234.732, 217.8906
1235.810, 108.9219
1236.888, 72.94141
1237.966, 0.1015630
1239.044, 125.9180
1240.122, 102.1250
1241.199, 179.9648
1242.277, 97.82812
1243.354, 395.0664
1244.431, 295.4922
1245.508, 308.1289
1246.585, 188.4844
1247.661, 345.7344
1248.738, 153.5156
1249.814, 19.28125
1250.890, 355.0234
1251.966, 264.7539
1253.042, 365.4648
1254.117, 347.1641
1255.193, 327.2266
1256.268, 253.8281
1257.343, 322.4844
1258.418, 393.1250
1259.493, 453.7500
1260.567, 367.3594
1261.642, 580.9570
1262.716, 207.8672
1263.790, 334.0312
1264.864, 374.0352
1265.938, 252.8945
1267.011, 247.8047
1268.085, 218.3086
1269.158, 114.4844
1270.231, 158.3555
1271.304, 500.1836
1272.377, 241.2305
1273.450, 362.7695
1274.522, 519.1836
1275.594, 338.5859
1276.666, 426.9688
1277.738, 383.2344
1278.810, 134.5898
1279.882, 514.0312
1280.953, 199.3594
