##NAMES=Andalusite
##RRUFFID=R050626
##IDEAL CHEMISTRY=Al_2_SiO_5_
##LOCALITY=Minas Gerais, Brazil
##OWNER=RRUFF
##SOURCE=Gemological Center
##DESCRIPTION=Grayish brown fragment
##STATUS=The identification of this mineral has been confirmed by X-ray diffraction and chemical analysis
##URL=rruff.info/R050626
##MEASURED CHEMISTRY=(Al_1.99_Fe^3+^_0.01_)_Î£=1_Si_1.00_O_5_
##PIN_ID=L00923
##ORIENTATION=Laser parallel to a* (1 0 0). Fiducial mark perpendicular to laser is parallel to -b [0 -1 0]
123.0580, 0.0000000E+00
124.2880, 22.32349
125.5190, 64.89697
126.7490, 135.4099
127.9790, 6.115479
129.2090, 148.0635
130.4390, 262.0771
131.6680, 283.9243
132.8980, 254.9312
134.1270, 192.5134
135.3560, 89.47144
136.5850, 93.48413
137.8140, 183.6841
139.0430, 223.5164
140.2710, 484.2026
141.5000, 485.1340
142.7280, 451.5601
143.9560, 198.3394
145.1840, 195.8372
146.4120, 112.0911
147.6390, 149.3772
148.8670, 161.1372
150.0940, 64.50415
151.3210, 23.92310
152.5490, 184.8203
153.7750, 401.3538
155.0020, 346.6887
156.2290, 250.9634
157.4550, 115.2949
158.6810, 37.78638
159.9080, 41.52637
161.1340, 76.59937
162.3590, 52.08032
163.5850, 155.0342
164.8110, 305.5178
166.0360, 476.5801
167.2610, 539.4082
168.4860, 723.8032
169.7110, 725.0774
170.9360, 816.8499
172.1610, 1010.185
173.3850, 890.9741
174.6100, 861.2485
175.8340, 832.6772
177.0580, 926.8533
178.2820, 808.1748
179.5050, 865.0281
180.7290, 796.3213
181.9520, 759.6948
183.1760, 824.1443
184.3990, 836.6636
185.6220, 868.2385
186.8450, 1067.856
188.0670, 1203.508
189.2900, 1595.193
190.5120, 1999.914
191.7340, 2389.671
192.9560, 2953.465
194.1780, 3356.297
195.4000, 3388.169
196.6220, 2998.109
197.8430, 2801.177
199.0640, 2453.345
200.2860, 2360.611
201.5070, 2226.979
202.7270, 2540.440
203.9480, 2691.991
205.1690, 2280.624
206.3890, 1445.333
207.6090, 962.1099
208.8290, 684.9553
210.0490, 549.8960
211.2690, 352.9460
212.4890, 248.0513
213.7080, 147.2002
214.9280, 127.3723
216.1470, 119.5671
217.3660, 13.20581
218.5850, 13.94043
219.8030, 48.63940
221.0220, 49.30737
222.2400, 86.90576
223.4590, 35.36670
224.6770, 82.73535
225.8950, 132.0088
227.1120, 58.26318
228.3300, 66.50879
229.5480, 96.75098
230.7650, 22.98901
231.9820, 49.22119
233.1990, 51.55396
234.4160, 64.33643
235.6330, 232.1279
236.8490, 449.9297
238.0660, 712.7419
239.2820, 1257.566
240.4980, 1955.402
241.7140, 2701.249
242.9300, 3353.099
244.1460, 3323.889
245.3610, 3282.571
246.5770, 2850.121
247.7920, 2308.524
249.0070, 1969.792
250.2220, 1484.943
251.4370, 1246.042
252.6510, 1135.977
253.8660, 946.1885
255.0800, 874.4814
256.2940, 890.7424
257.5080, 837.0054
258.7220, 921.3032
259.9360, 1062.636
261.1490, 1061.730
262.3630, 1074.314
263.5760, 1153.853
264.7890, 968.3335
266.0020, 953.9448
267.2150, 835.8320
268.4270, 1133.012
269.6400, 1125.186
270.8520, 1325.533
272.0640, 1589.506
273.2760, 1644.644
274.4880, 1881.628
275.7000, 2231.750
276.9120, 2781.851
278.1230, 3701.927
279.3340, 4445.967
280.5450, 5006.976
281.7560, 5239.953
282.9670, 5730.886
284.1780, 6658.757
285.3880, 8177.597
286.5980, 10301.40
287.8090, 13323.11
289.0190, 17405.76
290.2290, 23198.39
291.4380, 30771.00
292.6480, 39217.56
293.8570, 46797.26
295.0670, 49551.36
296.2760, 45905.44
297.4850, 37005.64
298.6930, 27523.56
299.9020, 19356.90
301.1110, 13793.21
302.3190, 9801.487
303.5270, 7211.491
304.7350, 5440.817
305.9430, 4331.148
307.1510, 3556.816
308.3580, 2859.208
309.5660, 2480.256
310.7730, 2293.419
311.9800, 2144.576
313.1870, 2404.729
314.3940, 2583.873
315.6010, 3223.001
316.8070, 4236.008
318.0130, 5711.852
319.2200, 8191.953
320.4260, 11986.38
321.6310, 17143.79
322.8370, 22299.05
324.0430, 25235.39
325.2480, 24071.42
326.4540, 20279.14
327.6590, 15773.66
328.8640, 11548.93
330.0680, 8517.074
331.2730, 6591.343
332.4780, 5455.638
333.6820, 4675.958
334.8860, 4195.305
336.0900, 3956.678
337.2940, 3766.076
338.4980, 3700.501
339.7010, 3565.952
340.9050, 3446.430
342.1080, 3410.933
343.3110, 3249.461
344.5140, 3262.015
345.7170, 3190.593
346.9200, 3159.195
348.1220, 3433.823
349.3240, 3768.474
350.5270, 4138.150
351.7290, 5087.848
352.9310, 6245.571
354.1320, 8085.318
355.3340, 10632.09
356.5350, 14021.88
357.7370, 18317.70
358.9380, 22968.16
360.1390, 27153.51
361.3400, 29288.86
362.5400, 28629.26
363.7410, 25849.72
364.9410, 21433.12
366.1410, 16969.57
367.3410, 13181.76
368.5410, 10464.29
369.7410, 8198.928
370.9400, 6658.562
372.1400, 5421.606
373.3390, 4476.890
374.5380, 4100.938
375.7370, 3440.761
376.9360, 2900.023
378.1350, 2377.374
379.3330, 2085.972
380.5310, 1838.218
381.7300, 1567.489
382.9280, 1627.782
384.1260, 1601.100
385.3230, 1594.440
386.5210, 1552.803
387.7180, 1494.190
388.9160, 1443.601
390.1130, 1451.035
391.3100, 1441.496
392.5060, 1551.981
393.7030, 1732.492
394.9000, 1994.035
396.0960, 1947.609
397.2920, 1830.223
398.4880, 1357.884
399.6840, 960.6025
400.8800, 746.3511
402.0750, 554.1538
403.2710, 541.0098
404.4660, 449.8999
405.6610, 510.8472
406.8560, 551.8311
408.0510, 538.8652
409.2450, 547.9424
410.4400, 488.0664
411.6340, 581.2363
412.8280, 593.4424
414.0220, 660.6724
415.2160, 772.9336
416.4100, 1024.218
417.6030, 1194.519
418.7970, 1475.849
419.9900, 1738.195
421.1830, 1922.559
422.3760, 2008.938
423.5690, 1638.333
424.7610, 1326.745
425.9540, 945.1719
427.1460, 725.6162
428.3380, 549.0762
429.5300, 312.5537
430.7220, 278.0479
431.9140, 139.5596
433.1050, 127.0884
434.2970, 93.63525
435.4880, 73.19971
436.6790, 5.217285
437.8700, 25.61865
439.0610, 91.00781
440.2510, 81.40381
441.4420, 24.80176
442.6320, 27.81348
443.8220, 50.44873
445.0120, 81.10352
446.2020, 189.7793
447.3910, 182.4771
448.5810, 180.1987
449.7700, 478.9453
450.9600, 619.7148
452.1490, 1001.510
453.3370, 1401.325
454.5260, 1756.163
455.7150, 1446.022
456.9030, 947.9023
458.0910, 506.8047
459.2800, 255.7280
460.4670, 88.67334
461.6550, 53.35840
462.8430, 116.3804
464.0300, 181.4146
465.2180, 43.48633
466.4050, 143.5444
467.5920, 66.62354
468.7790, 150.6953
469.9650, 50.79150
471.1520, 0.8745120
472.3380, 37.92578
473.5250, 69.04541
474.7110, 174.0547
475.8970, 191.0923
477.0820, 361.1553
478.2680, 397.2441
479.4540, 374.3623
480.6390, 482.5137
481.8240, 538.6899
483.0090, 739.9014
484.1940, 882.1387
485.3780, 940.4033
486.5630, 938.7046
487.7470, 936.0356
488.9320, 769.4087
490.1160, 529.8320
491.3000, 554.2847
492.4830, 369.4917
493.6670, 277.3506
494.8500, 135.9526
496.0340, 84.10205
497.2170, 108.2573
498.4000, 51.95947
499.5820, 25.69141
500.7650, 87.44678
501.9480, 132.2471
503.1300, 121.0767
504.3120, 159.8276
505.4940, 157.8389
506.6760, 190.7905
507.8580, 167.7910
509.0390, 196.8408
510.2210, 274.9507
511.4020, 422.1074
512.5830, 478.3213
513.7640, 434.6089
514.9450, 449.9473
516.1250, 480.3359
517.3060, 453.8110
518.4860, 472.8276
519.6660, 440.8062
520.8460, 467.3643
522.0260, 463.9434
523.2060, 442.5420
524.3850, 491.1592
525.5650, 472.7954
526.7440, 560.4497
527.9230, 503.1221
529.1020, 537.8125
530.2810, 460.5215
531.4590, 610.2471
532.6380, 516.9902
533.8160, 668.7510
534.9940, 733.5293
536.1720, 719.8223
537.3500, 760.3696
538.5270, 931.7822
539.7050, 1131.001
540.8820, 1143.029
542.0590, 1327.331
543.2360, 1686.334
544.4130, 1868.079
545.5900, 2294.487
546.7660, 2739.539
547.9430, 3269.443
549.1190, 4129.798
550.2950, 4941.397
551.4710, 5719.939
552.6470, 6133.406
553.8220, 6543.576
554.9980, 6499.318
556.1730, 6160.762
557.3480, 5504.334
558.5230, 4516.368
559.6980, 3846.279
560.8730, 3259.329
562.0470, 2930.774
563.2220, 2468.840
564.3960, 2300.913
565.5700, 2280.994
566.7440, 2287.083
567.9170, 2313.178
569.0910, 2422.345
570.2640, 2439.389
571.4380, 2775.505
572.6110, 2908.627
573.7840, 3248.755
574.9570, 3289.890
576.1290, 3190.049
577.3020, 2970.223
578.4740, 2561.314
579.6460, 2143.990
580.8180, 1937.354
581.9900, 1744.152
583.1620, 1351.944
584.3330, 1272.304
585.5040, 1238.695
586.6760, 1144.131
587.8470, 1067.596
589.0180, 1007.068
590.1880, 959.4077
591.3590, 905.1245
592.5290, 891.5444
593.7000, 841.0903
594.8700, 797.6431
596.0400, 814.2061
597.2090, 820.7778
598.3790, 836.3516
599.5490, 849.2837
600.7180, 885.7051
601.8870, 892.1025
603.0560, 964.2646
604.2250, 1019.608
605.3940, 1049.347
606.5620, 1167.843
607.7300, 1319.228
608.8990, 1457.915
610.0670, 1418.973
611.2350, 1367.346
612.4020, 1370.404
613.5700, 1367.610
614.7370, 1287.005
615.9050, 1315.380
617.0720, 1309.976
618.2390, 1225.775
619.4060, 1308.405
620.5720, 1497.697
621.7390, 1404.455
622.9050, 1554.373
624.0710, 1555.236
625.2370, 1627.551
626.4030, 1625.837
627.5690, 1817.705
628.7340, 1877.343
629.9000, 2081.877
631.0650, 2127.805
632.2300, 2118.379
633.3950, 2029.898
634.5600, 2007.502
635.7240, 1889.347
636.8890, 1665.627
638.0530, 1574.273
639.2170, 1666.327
640.3810, 1513.235
641.5450, 1633.262
642.7080, 1612.894
643.8720, 1540.646
645.0350, 1618.374
646.1980, 1723.306
647.3610, 1876.772
648.5240, 1824.219
649.6870, 1720.655
650.8490, 1608.574
652.0120, 1523.987
653.1740, 1452.340
654.3360, 1319.405
655.4980, 1063.104
656.6600, 1087.466
657.8210, 896.0562
658.9830, 814.3906
660.1440, 792.7104
661.3050, 801.0161
662.4660, 919.3071
663.6270, 903.5840
664.7870, 890.8442
665.9480, 975.0894
667.1080, 908.3193
668.2680, 612.5332
669.4280, 440.7319
670.5880, 384.6064
671.7480, 231.4268
672.9070, 252.2295
674.0670, 123.3623
675.2260, 8.478516
676.3850, 4.570313
677.5440, 24.36475
678.7030, 52.34229
679.8610, 96.37646
681.0200, 14.50781
682.1780, 78.63184
683.3360, 73.84326
684.4940, 4.125977
685.6520, 93.44287
686.8090, 10.84082
687.9670, 65.27686
689.1240, 36.78076
690.2810, 51.33740
691.4380, 49.65771
692.5950, 12.63135
693.7520, 21.34912
694.9080, 32.11182
696.0650, 1.926758
697.2210, 162.2227
698.3770, 6.647949
699.5330, 140.4429
700.6880, 26.51367
701.8440, 120.5601
702.9990, 196.5859
704.1550, 128.5918
705.3100, 70.57715
706.4650, 181.5410
707.6190, 282.4854
708.7740, 289.4092
709.9290, 413.3115
711.0830, 541.1938
712.2370, 625.0547
713.3910, 809.0107
714.5450, 941.6167
715.6980, 1168.046
716.8520, 1383.767
718.0050, 1572.712
719.1580, 1874.232
720.3110, 1979.354
721.4640, 1882.395
722.6170, 1672.834
723.7700, 1438.378
724.9220, 1122.155
726.0740, 986.0801
727.2260, 714.1406
728.3780, 515.7100
729.5300, 424.5825
730.6810, 367.9707
731.8330, 256.2197
732.9840, 186.1909
734.1350, 198.1357
735.2860, 170.6265
736.4370, 170.6509
737.5880, 205.4990
738.7380, 182.8281
739.8880, 174.1294
741.0390, 153.4043
742.1890, 184.6582
743.3380, 161.9028
744.4880, 180.1523
745.6380, 151.3794
746.7870, 179.6025
747.9360, 148.8071
749.0850, 130.0088
750.2340, 56.18896
751.3830, 56.32715
752.5310, 24.42920
753.6800, 83.47803
754.8280, 168.4922
755.9760, 118.4775
757.1240, 72.43359
758.2720, 50.35205
759.4190, 122.2275
760.5670, 34.07324
761.7140, 111.8701
762.8610, 84.63672
764.0080, 25.36865
765.1550, 62.04834
766.3020, 0.6879880
767.4480, 29.73633
768.5950, 58.75977
769.7410, 62.78467
770.8870, 14.42578
772.0330, 16.13867
773.1780, 59.07617
774.3240, 11.74854
775.4690, 64.35840
776.6140, 50.42676
777.7590, 96.45459
778.9040, 9.549316
780.0490, 61.37988
781.1940, 56.27246
782.3380, 103.1260
783.4820, 48.95020
784.6260, 133.7344
785.7700, 197.4927
786.9140, 170.2246
788.0580, 82.93066
789.2010, 153.6055
790.3450, 61.25488
791.4880, 145.8701
792.6310, 156.4590
793.7730, 180.0239
794.9160, 92.56299
796.0590, 220.0737
797.2010, 220.5605
798.3430, 294.0220
799.4850, 412.4585
800.6270, 383.8716
801.7690, 473.2598
802.9100, 478.6235
804.0520, 568.9639
805.1930, 642.2803
806.3340, 732.5728
807.4750, 813.6689
808.6160, 892.5386
809.7560, 973.3105
810.8970, 1075.509
812.0370, 1144.686
813.1770, 1285.342
814.3170, 1422.738
815.4570, 1504.261
816.5960, 1603.974
817.7360, 1834.870
818.8750, 1997.487
820.0140, 2047.396
821.1530, 2177.558
822.2920, 2259.050
823.4310, 2274.892
824.5690, 2359.877
825.7070, 2146.403
826.8460, 2062.680
827.9840, 1875.006
829.1220, 1770.402
830.2590, 1540.089
831.3970, 1369.196
832.5340, 1362.598
833.6710, 1285.864
834.8080, 1103.663
835.9450, 1033.577
837.0820, 924.3477
838.2190, 818.7168
839.3550, 838.4600
840.4910, 780.1890
841.6270, 707.9053
842.7630, 530.6089
843.8990, 405.2993
845.0350, 367.9775
846.1700, 173.6431
847.3060, 106.2969
848.4410, 80.93848
849.5760, 3.569336
850.7100, 61.81445
851.8450, 27.24561
852.9800, 112.7046
854.1140, 101.4897
855.2480, 95.83447
856.3820, 90.49561
857.5160, 106.2148
858.6500, 66.00098
859.7830, 100.8320
860.9170, 153.7256
862.0500, 93.70898
863.1830, 11.74902
864.3160, 8.194824
865.4480, 30.86963
866.5810, 90.95605
867.7130, 122.0947
868.8460, 15.30176
869.9780, 37.52295
871.1100, 29.76660
872.2410, 50.97070
873.3730, 32.29785
874.5050, 108.4155
875.6360, 57.12256
876.7670, 83.82471
877.8980, 61.51807
879.0290, 69.27539
880.1590, 58.89893
881.2900, 162.5835
882.4200, 174.2515
883.5500, 239.1089
884.6800, 344.5781
885.8100, 361.1382
886.9400, 440.2852
888.0690, 489.1123
889.1990, 511.2959
890.3280, 655.1763
891.4570, 712.8354
892.5860, 771.2900
893.7140, 959.9111
894.8430, 1040.870
895.9710, 1203.463
897.1000, 1189.694
898.2280, 1526.079
899.3560, 1660.011
900.4830, 1813.974
901.6110, 2228.358
902.7380, 2449.976
903.8660, 2923.702
904.9930, 3326.033
906.1200, 3828.717
907.2460, 4317.455
908.3730, 4910.116
909.5000, 5804.534
910.6260, 6847.522
911.7520, 8136.143
912.8780, 10063.35
914.0040, 12744.71
915.1290, 15825.94
916.2550, 20479.58
917.3800, 26514.08
918.5050, 34573.61
919.6300, 42776.95
920.7550, 49484.73
921.8800, 51394.55
923.0040, 48251.37
924.1290, 41046.73
925.2530, 33113.57
926.3770, 26592.49
927.5010, 21992.38
928.6250, 19405.27
929.7480, 17425.18
930.8720, 15848.86
931.9950, 14383.79
933.1180, 12714.74
934.2410, 11048.70
935.3640, 9779.675
936.4860, 8860.661
937.6090, 8162.666
938.7310, 7712.012
939.8530, 7565.713
940.9750, 7584.763
942.0970, 7771.834
943.2180, 8293.921
944.3400, 9233.025
945.4610, 10582.15
946.5820, 12385.28
947.7030, 14827.43
948.8240, 17717.60
949.9450, 20987.80
951.0650, 24429.02
952.1860, 26545.29
953.3060, 26903.59
954.4260, 25678.93
955.5460, 22508.31
956.6650, 18690.72
957.7850, 15357.17
958.9040, 12364.67
960.0230, 9745.207
961.1420, 7824.789
962.2610, 6563.414
963.3800, 5279.083
964.4990, 4326.803
965.6170, 3746.562
966.7350, 3141.370
967.8530, 2670.213
968.9710, 2447.094
970.0890, 2269.998
971.2070, 1918.953
972.3240, 1739.930
973.4410, 1596.932
974.5580, 1466.954
975.6750, 1369.008
976.7920, 1297.089
977.9090, 1240.211
979.0250, 1196.358
980.1410, 1085.531
981.2580, 1107.734
982.3740, 921.9604
983.4890, 1054.220
984.6050, 950.4585
985.7200, 867.9385
986.8360, 920.6572
987.9510, 910.0874
989.0660, 791.2974
990.1810, 783.9395
991.2950, 816.9956
992.4100, 770.1602
993.5240, 815.9331
994.6390, 791.6074
995.7530, 889.0498
996.8660, 971.3506
997.9800, 969.5161
999.0940, 1064.183
1000.207, 1260.566
1001.320, 1345.451
1002.433, 1681.479
1003.546, 1910.792
1004.659, 2044.134
1005.772, 2563.935
1006.884, 2773.847
1007.996, 2978.659
1009.108, 2953.653
1010.220, 3019.678
1011.332, 2896.735
1012.444, 2718.826
1013.555, 2809.115
1014.666, 2995.270
1015.777, 3281.457
1016.888, 3947.680
1017.999, 4577.935
1019.110, 5277.222
1020.220, 6098.543
1021.331, 6494.904
1022.441, 6583.305
1023.551, 6201.751
1024.661, 5507.745
1025.770, 4764.265
1026.880, 3985.844
1027.989, 3322.647
1029.098, 2810.306
1030.207, 2405.561
1031.316, 2100.296
1032.425, 1819.068
1033.533, 1682.307
1034.642, 1463.406
1035.750, 1200.432
1036.858, 1336.400
1037.966, 1046.407
1039.073, 1092.455
1040.181, 1063.595
1041.288, 917.0083
1042.396, 909.3823
1043.503, 982.1577
1044.610, 925.4844
1045.716, 911.8579
1046.823, 997.2729
1047.929, 832.7236
1049.036, 879.2275
1050.142, 858.7759
1051.248, 990.3647
1052.353, 957.9917
1053.459, 1050.661
1054.564, 1113.392
1055.670, 1247.760
1056.775, 1510.466
1057.880, 1790.272
1058.985, 2032.756
1060.089, 2531.633
1061.194, 3239.802
1062.298, 3988.487
1063.402, 5130.464
1064.506, 6316.475
1065.610, 7698.799
1066.713, 8428.877
1067.817, 8338.030
1068.920, 7699.174
1070.023, 6493.356
1071.126, 5133.574
1072.229, 4080.182
1073.332, 3128.968
1074.435, 2545.791
1075.537, 2030.150
1076.639, 1557.826
1077.741, 1321.256
1078.843, 1141.719
1079.945, 926.2158
1081.046, 722.7441
1082.148, 641.3276
1083.249, 525.8628
1084.350, 512.5610
1085.451, 435.2383
1086.551, 403.2852
1087.652, 402.0327
1088.752, 448.8115
1089.853, 371.6221
1090.953, 377.4648
1092.053, 408.8696
1093.152, 329.3213
1094.252, 371.7183
1095.351, 371.2710
1096.451, 349.6255
1097.550, 411.1973
1098.649, 443.5928
1099.748, 466.6787
1100.846, 596.6978
1101.945, 615.9883
1103.043, 732.9014
1104.141, 939.0981
1105.239, 963.4619
1106.337, 1256.712
1107.434, 1376.757
1108.532, 1737.228
1109.629, 1996.683
1110.726, 2147.433
1111.823, 2320.491
1112.920, 2331.417
1114.017, 2246.849
1115.113, 2080.470
1116.210, 1842.918
1117.306, 1591.671
1118.402, 1572.220
1119.498, 1466.062
1120.593, 1289.698
1121.689, 1275.386
1122.784, 1120.126
1123.879, 1133.917
1124.974, 1083.756
1126.069, 1031.953
1127.164, 1062.883
1128.259, 992.8745
1129.353, 833.9131
1130.447, 632.0581
1131.541, 317.7378
1132.635, 228.9663
1133.729, 149.1245
1134.822, 102.7910
1135.916, 34.02490
1137.009, 62.28760
1138.102, 29.57715
1139.195, 76.40576
1140.288, 72.41992
1141.380, 90.77881
1142.473, 124.1641
1143.565, 36.70703
1144.657, 14.87012
1145.749, 101.5693
1146.841, 100.3101
1147.932, 192.1006
1149.024, 68.59375
1150.115, 67.10498
1151.206, 58.63623
1152.297, 74.18457
1153.388, 82.83252
1154.479, 30.41797
1155.569, 30.17871
1156.659, 26.55273
1157.750, 95.58887
1158.839, 13.76221
1159.929, 114.9014
1161.019, 30.42041
1162.108, 30.26660
1163.198, 5.969727
1164.287, 24.31396
1165.376, 50.58887
1166.465, 46.85840
1167.553, 43.12695
1168.642, 52.95850
1169.730, 86.81836
1170.818, 8.0565996E-02
1171.906, 72.29004
1172.994, 9.313477
1174.082, 24.37842
1175.170, 13.42432
1176.257, 29.85986
1177.344, 99.19873
1178.431, 35.03174
1179.518, 69.87500
1180.605, 35.81836
1181.691, 47.91699
1182.778, 33.00000
1183.864, 37.79736
1184.950, 0.2587890
1186.036, 24.36572
1187.122, 32.47168
1188.207, 48.42041
1189.292, 70.47998
1190.378, 41.40186
1191.463, 23.29004
1192.548, 106.1841
1193.632, 42.08398
1194.717, 110.9893
1195.801, 10.09961
1196.886, 112.8130
1197.970, 0.2695310
1199.054, 92.67578
1200.137, 3.549805
1201.221, 137.8306
1202.305, 10.19678
1203.388, 13.80420
1204.471, 36.87402
1205.554, 17.10352
1206.637, 6.667969
1207.719, 14.85059
1208.802, 27.93555
1209.884, 82.17041
1210.966, 36.09570
1212.048, 55.28174
1213.130, 40.24951
1214.212, 124.1777
1215.293, 44.11182
1216.374, 3.923340
1217.456, 73.97070
1218.536, 125.9370
1219.617, 8.000488
1220.698, 12.56152
1221.778, 5.582031
1222.859, 25.71973
1223.939, 23.38330
1225.019, 3.500977
1226.099, 39.68408
1227.178, 22.66211
1228.258, 53.77637
1229.337, 20.04443
1230.417, 27.15820
1231.496, 8.618164
1232.574, 73.43213
1233.653, 44.29248
1234.732, 11.01367
1235.810, 32.77930
1236.888, 20.51074
1237.966, 8.800293
1239.044, 58.12695
1240.122, 7.505371
1241.199, 2.127441
1242.277, 12.54102
1243.354, 29.32666
1244.431, 22.09033
1245.508, 34.53174
1246.585, 5.006836
1247.661, 68.49951
1248.738, 17.00342
1249.814, 46.49805
1250.890, 65.01514
1251.966, 54.85303
1253.042, 29.43164
1254.117, 78.01172
1255.193, 20.44629
1256.268, 45.86816
1257.343, 112.2812
1258.418, 52.68408
1259.493, 6.076660
1260.567, 33.51709
1261.642, 25.14404
1262.716, 85.10303
1263.790, 23.38379
1264.864, 72.87012
1265.938, 108.2275
1267.011, 81.47510
1268.085, 25.18604
1269.158, 29.16992
1270.231, 53.27832
1271.304, 161.9658
1272.377, 42.16260
1273.450, 74.31348
1274.522, 115.2695
1275.594, 39.42041
1276.666, 39.51367
1277.738, 80.58984
1278.810, 91.65283
1279.882, 101.4268
1280.953, 61.54053
1282.025, 54.94873
1283.096, 175.3970
1284.167, 32.52930
1285.238, 56.43799
1286.308, 47.05518
1287.379, 111.9902
1288.449, 104.1729
1289.519, 95.15625
1290.589, 148.4531
1291.659, 84.57471
1292.729, 148.4531
1293.798, 112.8345
1294.868, 77.10010
1295.937, 80.74805
1297.006, 57.47412
1298.075, 71.31738
1299.143, 60.36865
1300.212, 120.3926
1301.280, 66.95264
