##NAMES=Andalusite
##RRUFFID=R060197
##IDEAL CHEMISTRY=Al_2_SiO_5_
##LOCALITY=Brazil
##OWNER=RRUFF
##SOURCE=Marcus Origlieri
##DESCRIPTION=Green colored water worn pebble
##STATUS=The identification of this mineral has been confirmed by X-ray diffraction and chemical analysis
##URL=rruff.info/R060197
##MEASURED CHEMISTRY=(Al_1.97_Mn^3+^_0.03_)_Î£=2_Si_1.00_O_5_
##PIN_ID=M00401
##ORIENTATION=Laser parallel to c* (0 0 1). Fiducial mark perpendicular to laser is parallel to a [1 0 0]
91.01200, 0.0000000E+00
92.24600, 30.09985
93.48000, 159.6660
94.71400, 148.9312
95.94800, 157.3840
97.18200, 68.93384
98.41600, 2.315430
99.64900, 132.0786
100.8830, 115.1079
102.1160, 40.85840
103.3490, 91.77686
104.5820, 345.6431
105.8150, 666.4458
107.0470, 1117.138
108.2800, 1696.149
109.5120, 2427.765
110.7440, 2018.498
111.9760, 966.9473
113.2080, 767.8384
114.4400, 1066.982
115.6710, 1512.248
116.9030, 1297.547
118.1340, 977.8252
119.3650, 492.0425
120.5960, 344.2227
121.8270, 442.1763
123.0580, 716.4541
124.2880, 656.4058
125.5190, 430.9209
126.7490, 452.6621
127.9790, 421.2603
129.2090, 608.8359
130.4390, 659.4990
131.6680, 670.3438
132.8980, 535.4546
134.1270, 496.9082
135.3560, 575.7695
136.5850, 576.0986
137.8140, 743.9463
139.0430, 912.3584
140.2710, 899.3789
141.5000, 710.0601
142.7280, 598.4463
143.9560, 672.5635
145.1840, 646.4336
146.4120, 717.0757
147.6390, 710.3491
148.8670, 806.4492
150.0940, 791.6704
151.3210, 884.1538
152.5490, 929.2939
153.7750, 877.3940
155.0020, 1014.710
156.2290, 1038.008
157.4550, 1059.054
158.6810, 1078.712
159.9080, 1139.474
161.1340, 1192.164
162.3590, 1209.840
163.5850, 1476.548
164.8110, 1467.334
166.0360, 1566.250
167.2610, 1537.287
168.4860, 1562.436
169.7110, 1512.693
170.9360, 1512.028
172.1610, 1437.479
173.3850, 1340.042
174.6100, 1337.714
175.8340, 1270.493
177.0580, 1235.376
178.2820, 1286.359
179.5050, 1209.439
180.7290, 1122.613
181.9520, 1155.876
183.1760, 1130.226
184.3990, 1194.656
185.6220, 1249.164
186.8450, 1514.746
188.0670, 1664.457
189.2900, 1755.352
190.5120, 1918.500
191.7340, 2065.932
192.9560, 2151.507
194.1780, 2385.129
195.4000, 2428.795
196.6220, 2802.501
197.8430, 2699.240
199.0640, 2580.001
200.2860, 2357.777
201.5070, 2203.568
202.7270, 2086.376
203.9480, 1597.203
205.1690, 949.0518
206.3890, 440.9214
207.6090, 155.8154
208.8290, 89.73438
210.0490, 51.68018
211.2690, 14.65283
212.4890, 8.654297
213.7080, 22.68604
214.9280, 3.749023
216.1470, 2.6366999E-02
217.3660, 47.02979
218.5850, 33.86865
219.8030, 50.67188
221.0220, 91.43555
222.2400, 178.1597
223.4590, 216.8472
224.6770, 215.5317
225.8950, 132.2368
227.1120, 187.9629
228.3300, 136.7476
229.5480, 120.6099
230.7650, 93.65918
231.9820, 99.08350
233.1990, 404.6650
234.4160, 428.1377
235.6330, 697.6426
236.8490, 825.2173
238.0660, 894.0947
239.2820, 864.9922
240.4980, 975.8755
241.7140, 984.6406
242.9300, 1009.483
244.1460, 956.1919
245.3610, 808.3960
246.5770, 741.2793
247.7920, 685.2329
249.0070, 613.9482
250.2220, 516.0166
251.4370, 624.1328
252.6510, 697.2925
253.8660, 700.4907
255.0800, 953.7217
256.2940, 935.9785
257.5080, 1176.255
258.7220, 1796.549
259.9360, 2694.858
261.1490, 3277.182
262.3630, 3828.518
263.5760, 4701.867
264.7890, 4928.230
266.0020, 4891.607
267.2150, 4343.000
268.4270, 3875.401
269.6400, 3977.807
270.8520, 4176.205
272.0640, 5023.581
273.2760, 5637.927
274.4880, 6851.252
275.7000, 7886.559
276.9120, 9609.852
278.1230, 11708.13
279.3340, 13274.41
280.5450, 15208.68
281.7560, 17004.96
282.9670, 19369.90
284.1780, 21474.47
285.3880, 22701.47
286.5980, 24118.42
287.8090, 25017.20
289.0190, 25536.48
290.2290, 25052.65
291.4380, 24102.96
292.6480, 22242.15
293.8570, 20008.52
295.0670, 17091.90
296.2760, 14409.29
297.4850, 11782.64
298.6930, 9992.947
299.9020, 8106.194
301.1110, 6780.345
302.3190, 5815.373
303.5270, 5253.147
304.7350, 5353.705
305.9430, 5576.074
307.1510, 6128.323
308.3580, 6782.617
309.5660, 8275.962
310.7730, 9721.354
311.9800, 11158.79
313.1870, 12533.28
314.3940, 13612.82
315.6010, 14734.40
316.8070, 15291.03
318.0130, 15591.71
319.2200, 15430.43
320.4260, 14807.20
321.6310, 13818.02
322.8370, 12290.88
324.0430, 10444.79
325.2480, 8851.747
326.4540, 7462.750
327.6590, 6364.798
328.8640, 5551.891
330.0680, 5023.031
331.2730, 4696.217
332.4780, 4392.448
333.6820, 4235.724
334.8860, 4130.044
336.0900, 4247.409
337.2940, 4249.818
338.4980, 4385.270
339.7010, 4807.763
340.9050, 5074.299
342.1080, 5510.877
343.3110, 6082.514
344.5140, 7201.221
345.7170, 8359.995
346.9200, 9455.867
348.1220, 11080.83
349.3240, 12675.84
350.5270, 14089.92
351.7290, 15565.06
352.9310, 16852.27
354.1320, 17467.76
355.3340, 17856.33
356.5350, 17846.24
357.7370, 17668.62
358.9380, 16562.47
360.1390, 15361.49
361.3400, 13598.40
362.5400, 11946.68
363.7410, 10063.85
364.9410, 8346.166
366.1410, 6902.211
367.3410, 5673.152
368.5410, 4600.817
369.7410, 4080.713
370.9400, 3305.858
372.1400, 2922.792
373.3390, 2568.928
374.5380, 2262.141
375.7370, 2002.070
376.9360, 1805.218
378.1350, 1813.436
379.3330, 1688.708
380.5310, 1665.667
381.7300, 1667.464
382.9280, 1676.896
384.1260, 1656.348
385.3230, 1721.098
386.5210, 1862.552
387.7180, 1791.536
388.9160, 1702.204
390.1130, 1519.922
391.3100, 1410.688
392.5060, 1122.500
393.7030, 909.3701
394.9000, 760.2871
396.0960, 591.2529
397.2920, 519.2646
398.4880, 393.8193
399.6840, 335.0254
400.8800, 265.5859
402.0750, 277.7881
403.2710, 336.0391
404.4660, 384.3398
405.6610, 383.6885
406.8560, 350.0859
408.0510, 443.5332
409.2450, 641.0312
410.4400, 558.5791
411.6340, 738.1768
412.8280, 436.8262
414.0220, 551.5254
415.2160, 604.2764
416.4100, 508.0781
417.6030, 632.9316
418.7970, 571.8398
419.9900, 485.7998
421.1830, 380.8145
422.3760, 354.8828
423.5690, 200.0068
424.7610, 177.1865
425.9540, 51.57910
427.1460, 116.3037
428.3380, 53.01367
429.5300, 212.6826
430.7220, 187.3721
431.9140, 133.0693
433.1050, 257.7539
434.2970, 199.4736
435.4880, 84.20410
436.6790, 43.09961
437.8700, 103.4658
439.0610, 142.8936
440.2510, 280.3867
441.4420, 693.9414
442.6320, 1101.562
443.8220, 1320.248
445.0120, 1292.998
446.2020, 1453.815
447.3910, 1557.700
448.5810, 1594.653
449.7700, 1645.677
450.9600, 1591.743
452.1490, 1475.941
453.3370, 1335.181
454.5260, 1117.490
455.7150, 781.8701
456.9030, 573.3203
458.0910, 482.8418
459.2800, 436.4346
460.4670, 641.0967
461.6550, 740.8301
462.8430, 905.6348
464.0300, 1112.510
465.2180, 1211.455
466.4050, 1406.471
467.5920, 1539.558
468.7790, 1655.715
469.9650, 1932.943
471.1520, 1978.243
472.3380, 2218.613
473.5250, 2382.055
474.7110, 2316.565
475.8970, 2585.146
477.0820, 2434.798
478.2680, 2602.521
479.4540, 2550.316
480.6390, 2529.180
481.8240, 2343.114
483.0090, 2292.119
484.1940, 2049.195
485.3780, 1684.185
486.5630, 1576.983
487.7470, 1278.670
488.9320, 868.6211
490.1160, 642.9355
491.3000, 556.7617
492.4830, 374.4268
493.6670, 269.1982
494.8500, 312.6572
496.0340, 175.4199
497.2170, 201.2529
498.4000, 207.1611
499.5820, 204.1523
500.7650, 295.2266
501.9480, 338.3789
503.1300, 409.6143
504.3120, 374.9326
505.4940, 546.3477
506.6760, 412.8535
507.8580, 750.4541
509.0390, 747.1602
510.2210, 694.9922
511.4020, 624.9609
512.5830, 764.0654
513.7640, 733.2822
514.9450, 618.6270
516.1250, 466.0840
517.3060, 557.6514
518.4860, 315.3193
519.6660, 275.0547
520.8460, 334.8535
522.0260, 102.7178
523.2060, 8.647461
524.3850, 56.63770
525.5650, 154.3057
526.7440, 89.24121
527.9230, 174.1426
529.1020, 163.0439
530.2810, 22.06152
531.4590, 87.22949
532.6380, 46.46191
533.8160, 27.75684
534.9940, 198.1162
536.1720, 330.5391
537.3500, 696.0244
538.5270, 847.5762
539.7050, 1388.191
540.8820, 1834.881
542.0590, 2271.635
543.2360, 2858.510
544.4130, 3165.465
545.5900, 3642.504
546.7660, 3930.650
547.9430, 3996.869
549.1190, 4143.166
550.2950, 3746.529
551.4710, 3557.968
552.6470, 3257.479
553.8220, 2639.479
554.9980, 2209.188
556.1730, 1523.424
557.3480, 1198.230
558.5230, 1037.125
559.6980, 980.1162
560.8730, 956.2256
562.0470, 984.4561
563.2220, 1082.816
564.3960, 1165.304
565.5700, 1198.908
566.7440, 1332.643
567.9170, 1383.838
569.0910, 1364.574
570.2640, 1545.042
571.4380, 1568.738
572.6110, 1459.791
573.7840, 1354.560
574.9570, 1339.586
576.1290, 1139.638
577.3020, 965.9561
578.4740, 1029.262
579.6460, 1009.680
580.8180, 818.1904
581.9900, 1024.769
583.1620, 738.4062
584.3330, 796.1025
585.5040, 883.8535
586.6760, 815.6611
587.8470, 1102.524
589.0180, 1080.443
590.1880, 1135.417
591.3590, 1289.854
592.5290, 1291.937
593.7000, 1248.070
594.8700, 1276.258
596.0400, 1385.498
597.2090, 1452.790
598.3790, 1467.135
599.5490, 1463.529
600.7180, 1320.976
601.8870, 1364.472
603.0560, 1286.018
604.2250, 1291.613
605.3940, 1078.257
606.5620, 1067.950
607.7300, 907.6904
608.8990, 857.4785
610.0670, 708.3145
611.2350, 790.1963
612.4020, 507.1240
613.5700, 594.0986
614.7370, 486.1172
615.9050, 334.1807
617.0720, 457.2891
618.2390, 312.4414
619.4060, 235.6357
620.5720, 439.8730
621.7390, 245.6836
622.9050, 73.47656
624.0710, 90.84082
625.2370, 89.75488
626.4030, 154.3379
627.5690, 149.9326
628.7340, 298.5381
629.9000, 224.2178
631.0650, 74.93848
632.2300, 118.6455
633.3950, 119.3525
634.5600, 110.0635
635.7240, 67.22656
636.8890, 228.5527
638.0530, 307.9150
639.2170, 373.3115
640.3810, 448.7451
641.5450, 616.2119
642.7080, 576.7129
643.8720, 588.2461
645.0350, 719.8135
646.1980, 606.4121
647.3610, 481.0430
648.5240, 435.7041
649.6870, 233.3965
650.8490, 131.1182
652.0120, 127.8691
653.1740, 173.6465
654.3360, 132.4521
655.4980, 182.2861
656.6600, 194.1455
657.8210, 296.0303
658.9830, 313.4707
660.1440, 366.8740
661.3050, 444.8320
662.4660, 474.8145
663.6270, 654.7773
664.7870, 801.8047
665.9480, 854.8789
667.1080, 993.3252
668.2680, 982.9395
669.4280, 1129.689
670.5880, 1313.826
671.7480, 1298.984
672.9070, 1754.164
674.0670, 1807.363
675.2260, 1899.583
676.3850, 2073.821
677.5440, 2177.502
678.7030, 2427.862
679.8610, 2404.211
681.0200, 2613.113
682.1780, 2691.589
683.3360, 2811.318
684.4940, 3063.299
685.6520, 3045.331
686.8090, 3302.960
687.9670, 3259.032
689.1240, 3390.041
690.2810, 3531.366
691.4380, 3742.297
692.5950, 3736.322
693.7520, 3765.127
694.9080, 3848.607
696.0650, 4025.963
697.2210, 4210.862
698.3770, 4177.353
699.5330, 4540.746
700.6880, 4630.094
701.8440, 4827.531
702.9990, 5141.992
704.1550, 5460.541
705.3100, 5525.110
706.4650, 6052.371
707.6190, 6090.972
708.7740, 6190.791
709.9290, 5941.638
711.0830, 5765.476
712.2370, 5436.773
713.3910, 4983.015
714.5450, 4676.915
715.6980, 4248.577
716.8520, 3649.876
718.0050, 3235.652
719.1580, 2862.292
720.3110, 2312.878
721.4640, 1864.146
722.6170, 1471.664
723.7700, 1123.160
724.9220, 891.6318
726.0740, 645.0781
727.2260, 358.5010
728.3780, 374.8965
729.5300, 88.26855
730.6810, 177.6055
731.8330, 227.9170
732.9840, 382.2021
734.1350, 408.4590
735.2860, 569.6875
736.4370, 513.8887
737.5880, 711.0596
738.7380, 864.2021
739.8880, 864.3164
741.0390, 1203.399
742.1890, 1367.453
743.3380, 1361.476
744.4880, 1417.467
745.6380, 1626.427
746.7870, 1543.354
747.9360, 1604.249
749.0850, 1841.112
750.2340, 1827.941
751.3830, 1691.738
752.5310, 1885.500
753.6800, 1845.229
754.8280, 1664.922
755.9760, 1537.581
757.1240, 1587.205
758.2720, 1472.793
759.4190, 1429.346
760.5670, 1350.862
761.7140, 1402.342
762.8610, 1396.785
764.0080, 1179.350
765.1550, 1124.137
766.3020, 1376.069
767.4480, 1050.770
768.5950, 1252.142
769.7410, 1178.032
770.8870, 1026.117
772.0330, 1197.128
773.1780, 1432.484
774.3240, 1516.569
775.4690, 1595.619
776.6140, 1807.635
777.7590, 2221.614
778.9040, 2365.559
780.0490, 2915.469
781.1940, 3464.342
782.3380, 3896.181
783.4820, 4453.152
784.6260, 4853.749
785.7700, 5390.479
786.9140, 5924.173
788.0580, 6198.832
789.2010, 6375.450
790.3450, 6559.035
791.4880, 6365.580
792.6310, 6215.091
793.7730, 5994.561
794.9160, 5248.994
796.0590, 4908.389
797.2010, 4366.746
798.3430, 3755.063
799.4850, 3380.342
800.6270, 2814.581
801.7690, 2602.783
802.9100, 1975.944
804.0520, 1711.093
805.1930, 1582.219
806.3340, 1151.334
807.4750, 1065.438
808.6160, 827.5029
809.7560, 673.5264
810.8970, 616.5088
812.0370, 393.4482
813.1770, 379.3457
814.3170, 234.2021
815.4570, 318.0107
816.5960, 113.7764
817.7360, 224.4795
818.8750, 109.8682
820.0140, 63.62305
821.1530, 30.03906
822.2920, 52.63574
823.4310, 115.5586
824.5690, 58.68652
825.7070, 245.7363
826.8460, 89.73438
827.9840, 109.6621
829.1220, 162.5205
830.2590, 182.3174
831.3970, 140.1074
832.5340, 11.73242
833.6710, 20.30469
834.8080, 21.22070
835.9450, 98.86816
837.0820, 113.6758
838.2190, 146.6533
839.3550, 130.8193
840.4910, 100.1631
841.6270, 148.2119
842.7630, 175.1191
843.8990, 228.2686
845.0350, 263.3994
846.1700, 327.7803
847.3060, 311.4434
848.4410, 414.3809
849.5760, 206.6494
850.7100, 233.1348
851.8450, 181.8545
852.9800, 192.7803
854.1140, 89.91797
855.2480, 9.211914
856.3820, 153.3789
857.5160, 275.9043
858.6500, 456.3750
859.7830, 533.8008
860.9170, 679.1777
862.0500, 632.5088
863.1830, 900.7930
864.3160, 988.0312
865.4480, 1193.225
866.5810, 1203.961
867.7130, 1287.062
868.8460, 1192.117
869.9780, 1217.126
871.1100, 1330.090
872.2410, 1328.010
873.3730, 1383.883
874.5050, 1208.712
875.6360, 1200.496
876.7670, 1322.234
877.8980, 1089.930
879.0290, 1199.580
880.1590, 1063.185
881.2900, 1065.748
882.4200, 1261.271
883.5500, 1114.753
884.6800, 1029.190
885.8100, 1124.586
886.9400, 1253.939
888.0690, 997.2490
889.1990, 1223.520
890.3280, 1190.751
891.4570, 1319.941
892.5860, 1532.106
893.7140, 1602.230
894.8430, 1813.346
895.9710, 2172.422
897.1000, 2259.460
898.2280, 2703.491
899.3560, 3074.499
900.4830, 3357.532
901.6110, 4105.561
902.7380, 4736.631
903.8660, 5514.761
904.9930, 6482.932
906.1200, 8093.112
907.2460, 9929.308
908.3730, 12422.54
909.5000, 16207.80
910.6260, 20256.08
911.7520, 24958.42
912.8780, 29899.75
914.0040, 34398.07
915.1290, 38517.40
916.2550, 41009.73
917.3800, 41955.02
918.5050, 41477.29
919.6300, 39351.57
920.7550, 36104.80
921.8800, 31851.07
923.0040, 27565.32
924.1290, 23864.54
925.2530, 20652.73
926.3770, 18085.88
927.5010, 16114.00
928.6250, 14232.08
929.7480, 13029.14
930.8720, 11462.15
931.9950, 10697.14
933.1180, 9416.088
934.2410, 9080.999
935.3640, 8584.872
936.4860, 8042.711
937.6090, 7778.514
938.7310, 7730.281
939.8530, 7841.014
940.9750, 7999.709
942.0970, 8517.367
943.2180, 8853.994
944.3400, 9577.580
945.4610, 10400.13
946.5820, 10583.64
947.7030, 11027.12
948.8240, 11256.56
949.9450, 10729.54
951.0650, 10472.83
952.1860, 9933.113
953.3060, 9027.821
954.4260, 8049.938
955.5460, 7387.783
956.6650, 6638.359
957.7850, 5792.865
958.9040, 5319.755
960.0230, 5042.182
961.1420, 4683.652
962.2610, 4208.786
963.3800, 4203.296
964.4990, 3967.688
965.6170, 3954.279
966.7350, 3623.176
967.8530, 3477.172
968.9710, 3311.607
970.0890, 3123.865
971.2070, 2964.429
972.3240, 2898.236
973.4410, 2597.040
974.5580, 2596.799
975.6750, 2386.446
976.7920, 2216.048
977.9090, 2004.936
979.0250, 1757.466
980.1410, 1627.777
981.2580, 1617.041
982.3740, 1331.329
983.4890, 1309.167
984.6050, 1067.060
985.7200, 1000.314
986.8360, 865.8184
987.9510, 968.6719
989.0660, 799.0215
990.1810, 558.4805
991.2950, 719.9658
992.4100, 720.7432
993.5240, 523.2402
994.6390, 453.7314
995.7530, 535.2207
996.8660, 547.7051
997.9800, 630.1846
999.0940, 590.6602
1000.207, 543.1318
1001.320, 909.6025
1002.433, 912.0703
1003.546, 1266.534
1004.659, 1301.995
1005.772, 1549.452
1006.884, 1720.907
1007.996, 1975.359
1009.108, 2473.809
1010.220, 2934.255
1011.332, 3500.699
1012.444, 4006.140
1013.555, 4380.580
1014.666, 4761.018
1015.777, 5013.736
1016.888, 5287.537
1017.999, 5322.178
1019.110, 5424.635
1020.220, 5394.449
1021.331, 4934.877
1022.441, 4516.146
1023.551, 4361.333
1024.661, 3849.361
1025.770, 3452.842
1026.880, 3313.864
1027.989, 2949.502
1029.098, 2757.689
1030.207, 2555.716
1031.316, 2342.580
1032.425, 2104.886
1033.533, 1997.182
1034.642, 1873.121
1035.750, 1804.036
1036.858, 1396.902
1037.966, 1517.552
1039.073, 1472.485
1040.181, 1463.605
1041.288, 1592.646
1042.396, 1521.032
1043.503, 1487.994
1044.610, 1621.537
1045.716, 1675.148
1046.823, 1824.512
1047.929, 2117.346
1049.036, 1962.298
1050.142, 2372.206
1051.248, 2754.752
1052.353, 3149.149
1053.459, 3827.638
1054.564, 4212.777
1055.670, 4991.789
1056.775, 5281.774
1057.880, 5695.617
1058.985, 5957.507
1060.089, 5824.260
1061.194, 5755.858
1062.298, 5587.841
1063.402, 5113.739
1064.506, 4572.499
1065.610, 4062.133
1066.713, 3695.260
1067.817, 3367.956
1068.920, 3144.068
1070.023, 3001.162
1071.126, 2865.836
1072.229, 2934.236
1073.332, 3462.213
1074.435, 2841.330
1075.537, 2987.388
1076.639, 2530.434
1077.741, 2453.470
1078.843, 2485.493
1079.945, 2750.506
1081.046, 2542.507
1082.148, 2645.496
1083.249, 2598.477
1084.350, 2477.447
1085.451, 2612.418
1086.551, 2638.381
1087.652, 2693.390
1088.752, 2695.406
1089.853, 2511.435
1090.953, 2588.499
1092.053, 2615.571
1093.152, 2863.650
1094.252, 2800.720
1095.351, 2813.793
1096.451, 2841.869
1097.550, 3028.940
1098.649, 3167.012
1099.748, 3330.112
1100.846, 3388.174
1101.945, 3708.279
1103.043, 3787.438
1104.141, 3941.643
1105.239, 3909.912
1106.337, 3945.239
1107.434, 3757.623
1108.532, 3591.055
1109.629, 3383.548
1110.726, 3093.107
1111.823, 2921.768
1112.920, 2532.526
1114.017, 2128.398
1115.113, 1988.380
1116.210, 1934.488
1117.306, 1696.693
1118.402, 1706.982
1119.498, 1777.341
1120.593, 1770.769
1121.689, 1745.342
1122.784, 1719.146
1123.879, 1651.229
1124.974, 1592.715
1126.069, 1540.186
1127.164, 1469.646
1128.259, 1203.094
1129.353, 1134.531
1130.447, 762.9551
1131.541, 710.3652
1132.635, 589.7637
1133.729, 495.1504
1134.822, 542.5215
1135.916, 495.8828
1137.009, 441.2266
1138.102, 522.5605
1139.195, 313.8809
1140.288, 367.1895
1141.380, 304.4824
1142.473, 231.7598
1143.565, 286.0254
1144.657, 231.2773
1145.749, 73.51367
1146.841, 119.7305
1147.932, 110.9277
1149.024, 186.1055
1150.115, 231.2676
1151.206, 147.4141
1152.297, 240.5410
1153.388, 41.65430
1154.479, 61.74609
1155.569, 101.8145
1156.659, 31.13672
1157.750, 105.8613
1158.839, 95.15820
1159.929, 68.73828
1161.019, 108.6133
1162.108, 95.53516
1163.198, 37.76562
1164.287, 164.0527
1165.376, 2.539063
1166.465, 187.9043
1167.553, 122.4824
1168.642, 118.1641
1169.730, 105.9453
1170.818, 92.17969
1171.906, 185.7832
1172.994, 126.8828
1174.082, 215.0879
1175.170, 303.4473
1176.257, 81.00586
1177.344, 60.65039
1178.431, 163.3652
1179.518, 85.20703
1180.605, 129.8594
1181.691, 22.90820
1182.778, 155.0762
1183.864, 26.81445
1184.950, 182.3203
1186.036, 52.59766
1187.122, 96.05469
1188.207, 14.68359
1189.292, 113.2754
1190.378, 142.8457
1191.463, 177.3926
1192.548, 12.91797
1193.632, 99.40820
1194.717, 129.8750
1195.801, 157.3145
1196.886, 283.7344
1197.970, 287.3477
1199.054, 134.7324
1200.137, 397.4297
1201.221, 142.1602
1202.305, 238.5586
1203.388, 270.2461
1204.471, 267.5312
1205.554, 457.0000
1206.637, 685.3340
1207.719, 456.8184
1208.802, 660.0293
1209.884, 900.2207
1210.966, 919.3945
1212.048, 1084.600
1213.130, 1300.738
1214.212, 1449.098
1215.293, 1550.197
1216.374, 1868.281
1217.456, 2075.350
1218.536, 2471.395
1219.617, 2825.955
1220.698, 3385.232
1221.778, 3860.730
1222.859, 4349.699
1223.939, 4920.646
1225.019, 5581.576
1226.099, 5989.484
1227.178, 6820.373
1228.258, 7218.893
1229.337, 7822.963
1230.417, 8344.090
1231.496, 8513.934
1232.574, 8883.143
1233.653, 9191.910
1234.732, 9426.033
1235.810, 9833.760
1236.888, 10241.46
1237.966, 10560.15
1239.044, 10817.80
1240.122, 11494.45
1241.199, 11675.17
1242.277, 12172.52
1243.354, 12411.57
1244.431, 12750.81
1245.508, 13044.33
1246.585, 13076.64
1247.661, 13288.82
1248.738, 13299.27
1249.814, 13199.68
1250.890, 13146.06
1251.966, 13051.42
1253.042, 12874.05
1254.117, 12800.05
1255.193, 12485.33
1256.268, 12433.58
1257.343, 12244.80
1258.418, 12012.00
1259.493, 11616.16
1260.567, 11349.30
1261.642, 11248.41
1262.716, 10946.49
1263.790, 10329.55
1264.864, 10147.57
1265.938, 9634.578
1267.011, 9163.555
1268.085, 8772.500
1269.158, 8424.424
1270.231, 7846.316
1271.304, 7432.186
1272.377, 6881.023
1273.450, 6585.838
1274.522, 6229.623
