##NAMES=Andalusite
##RRUFFID=R050626
##IDEAL CHEMISTRY=Al_2_SiO_5_
##LOCALITY=Minas Gerais, Brazil
##OWNER=RRUFF
##SOURCE=Gemological Center
##DESCRIPTION=Grayish brown fragment
##STATUS=The identification of this mineral has been confirmed by X-ray diffraction and chemical analysis
##URL=rruff.info/R050626
##MEASURED CHEMISTRY=(Al_1.99_Fe^3+^_0.01_)_Î£=1_Si_1.00_O_5_
##PIN_ID=L01690
##ORIENTATION=Laser parallel to b* (0 1 0). Fiducial mark perpendicular to laser is parallel to c [0 0 1]
123.0580, 0.0000000E+00
124.2880, 96.96924
125.5190, 178.0132
126.7490, 62.67529
127.9790, 16.03906
129.2090, 103.7610
130.4390, 265.8503
131.6680, 228.5801
132.8980, 291.0935
134.1270, 187.3560
135.3560, 370.9875
136.5850, 356.8943
137.8140, 413.3579
139.0430, 481.2722
140.2710, 625.7744
141.5000, 761.0278
142.7280, 614.5168
143.9560, 523.1477
145.1840, 447.6963
146.4120, 349.2625
147.6390, 278.9365
148.8670, 273.2676
150.0940, 200.6804
151.3210, 205.5120
152.5490, 252.7498
153.7750, 232.3811
155.0020, 129.3943
156.2290, 189.8076
157.4550, 11.35181
158.6810, 12.08154
159.9080, 83.39844
161.1340, 60.41553
162.3590, 11.14697
163.5850, 85.60693
164.8110, 85.19238
166.0360, 39.23779
167.2610, 176.5171
168.4860, 193.0195
169.7110, 147.7310
170.9360, 146.6348
172.1610, 132.7256
173.3850, 96.00586
174.6100, 80.49414
175.8340, 40.21191
177.0580, 25.16553
178.2820, 83.34619
179.5050, 237.7480
180.7290, 242.3638
181.9520, 289.1870
183.1760, 306.2139
184.3990, 379.4795
185.6220, 421.8579
186.8450, 542.4678
188.0670, 708.4395
189.2900, 805.7324
190.5120, 960.2056
191.7340, 995.1162
192.9560, 1089.572
194.1780, 1131.039
195.4000, 1282.096
196.6220, 1313.000
197.8430, 1434.006
199.0640, 1423.112
200.2860, 1562.316
201.5070, 1626.616
202.7270, 1851.004
203.9480, 1880.479
205.1690, 1744.036
206.3890, 1259.667
207.6090, 909.3604
208.8290, 728.1206
210.0490, 506.9512
211.2690, 431.8560
212.4890, 256.8379
213.7080, 194.8779
214.9280, 98.89258
216.1470, 217.8647
217.3660, 39.83252
218.5850, 106.8975
219.8030, 139.0601
221.0220, 94.32275
222.2400, 106.7349
223.4590, 77.45801
224.6770, 141.5024
225.8950, 77.98779
227.1120, 151.8228
228.3300, 212.9214
229.5480, 146.1567
230.7650, 149.4673
231.9820, 200.8545
233.1990, 249.3188
234.4160, 278.8613
235.6330, 314.4824
236.8490, 387.1836
238.0660, 403.9658
239.2820, 526.8291
240.4980, 495.7754
241.7140, 505.8042
242.9300, 626.9165
244.1460, 508.1138
245.3610, 462.3960
246.5770, 369.7642
247.7920, 353.2188
249.0070, 205.7607
250.2220, 70.38916
251.4370, 6.894531
252.6510, 79.90869
253.8660, 52.79980
255.0800, 25.22070
256.2940, 132.8477
257.5080, 115.5488
258.7220, 68.75195
259.9360, 181.5815
261.1490, 342.0029
262.3630, 264.5112
263.5760, 239.4067
264.7890, 56.21436
266.0020, 44.44385
267.2150, 99.41748
268.4270, 89.36328
269.6400, 166.4702
270.8520, 224.7183
272.0640, 406.0474
273.2760, 523.4258
274.4880, 745.8374
275.7000, 1007.263
276.9120, 1442.704
278.1230, 1837.163
279.3340, 2436.593
280.5450, 3360.989
281.7560, 4571.382
282.9670, 6153.795
284.1780, 8055.239
285.3880, 10087.73
286.5980, 12012.16
287.8090, 14047.34
289.0190, 16518.38
290.2290, 18462.33
291.4380, 19486.40
292.6480, 19035.59
293.8570, 17683.88
295.0670, 15370.28
296.2760, 12396.79
297.4850, 9437.405
298.6930, 6995.123
299.9020, 4744.945
301.1110, 3322.867
302.3190, 2066.888
303.5270, 1533.035
304.7350, 1099.481
305.9430, 843.9312
307.1510, 840.1997
308.3580, 1137.674
309.5660, 1794.101
310.7730, 2948.780
311.9800, 4653.550
313.1870, 6730.410
314.3940, 8875.357
315.6010, 10718.39
316.8070, 13325.52
318.0130, 15977.73
319.2200, 18310.40
320.4260, 19554.62
321.6310, 19911.31
322.8370, 18910.63
324.0430, 16839.81
325.2480, 14181.36
326.4540, 10825.47
327.6590, 8002.812
328.8640, 5614.096
330.0680, 3887.339
331.2730, 2678.631
332.4780, 1878.492
333.6820, 1566.823
334.8860, 1155.156
336.0900, 1066.563
337.2940, 939.0308
338.4980, 900.5718
339.7010, 874.1758
340.9050, 995.8457
342.1080, 1060.588
343.3110, 1181.402
344.5140, 1509.289
345.7170, 2114.248
346.9200, 2809.277
348.1220, 3913.250
349.3240, 5091.555
350.5270, 6676.800
351.7290, 8511.119
352.9310, 10319.51
354.1320, 12248.97
355.3340, 14109.51
356.5350, 15941.12
357.7370, 16773.80
358.9380, 17273.55
360.1390, 16936.38
361.3400, 15725.27
362.5400, 13996.24
363.7410, 12098.29
364.9410, 10319.41
366.1410, 8580.595
367.3410, 7229.858
368.5410, 6096.192
369.7410, 5230.596
370.9400, 4662.068
372.1400, 4046.606
373.3390, 3622.211
374.5380, 3210.312
375.7370, 3008.618
376.9360, 2616.418
378.1350, 2448.285
379.3330, 2311.216
380.5310, 2033.212
381.7300, 2162.273
382.9280, 1956.399
384.1260, 1990.590
385.3230, 2153.844
386.5210, 2013.163
387.7180, 1977.547
388.9160, 2160.994
390.1130, 2190.505
391.3100, 2225.079
392.5060, 2229.718
393.7030, 2067.419
394.9000, 2115.185
396.0960, 1883.933
397.2920, 1798.829
398.4880, 1595.819
399.6840, 1595.600
400.8800, 1557.762
402.0750, 1473.020
403.2710, 1611.132
404.4660, 1736.562
405.6610, 1843.092
406.8560, 1888.748
408.0510, 2194.523
409.2450, 2340.481
410.4400, 2763.799
411.6340, 3108.851
412.8280, 3437.962
414.0220, 3878.143
415.2160, 4254.391
416.4100, 4526.708
417.6030, 4615.484
418.7970, 4557.220
419.9900, 4438.071
421.1830, 4035.663
422.3760, 3565.322
423.5690, 3033.050
424.7610, 2464.846
425.9540, 1830.713
427.1460, 1555.648
428.3380, 1238.652
429.5300, 1035.726
430.7220, 874.3882
431.9140, 767.0830
433.1050, 707.3682
434.2970, 711.7251
435.4880, 766.1533
436.6790, 767.6538
437.8700, 739.2251
439.0610, 787.8682
440.2510, 1062.582
441.4420, 1168.367
442.6320, 1432.222
443.8220, 1891.150
445.0120, 2322.148
446.2020, 2557.218
447.3910, 2758.373
448.5810, 3066.610
449.7700, 3555.949
450.9600, 3631.382
452.1490, 3448.894
453.3370, 3053.504
454.5260, 2392.186
455.7150, 1943.937
456.9030, 1327.758
458.0910, 739.6499
459.2800, 353.6108
460.4670, 172.6406
461.6550, 9.260254
462.8430, 159.0981
464.0300, 233.9209
465.2180, 201.7539
466.4050, 196.5781
467.5920, 288.3979
468.7790, 357.2524
469.9650, 320.1699
471.1520, 234.1313
472.3380, 253.1025
473.5250, 165.0913
474.7110, 176.0654
475.8970, 33.03027
477.0820, 90.06055
478.2680, 34.21631
479.4540, 126.4414
480.6390, 70.73828
481.8240, 142.1118
483.0090, 133.5566
484.1940, 205.0771
485.3780, 204.6719
486.5630, 176.3428
487.7470, 231.0938
488.9320, 325.9297
490.1160, 327.8521
491.3000, 223.8687
492.4830, 252.9717
493.6670, 354.1665
494.8500, 515.4502
496.0340, 494.8164
497.2170, 688.2598
498.4000, 770.7764
499.5820, 800.3560
500.7650, 957.9966
501.9480, 1164.696
503.1300, 1376.454
504.3120, 1479.270
505.4940, 1589.144
506.6760, 1836.076
507.8580, 1964.065
509.0390, 2024.110
510.2210, 2120.213
511.4020, 2239.370
512.5830, 2252.584
513.7640, 2190.853
514.9450, 2320.177
516.1250, 2275.556
517.3060, 2259.988
518.4860, 2256.476
519.6660, 2191.017
520.8460, 2212.611
522.0260, 2041.258
523.2060, 2249.958
524.3850, 2199.711
525.5650, 2350.514
526.7440, 2318.371
527.9230, 2423.277
529.1020, 2684.235
530.2810, 2747.243
531.4590, 3066.302
532.6380, 3213.410
533.8160, 3472.568
534.9940, 3774.774
536.1720, 4087.029
537.3500, 4573.333
538.5270, 4824.492
539.7050, 5338.533
540.8820, 5679.384
542.0590, 6230.389
543.2360, 6737.131
544.4130, 7421.736
545.5900, 8037.573
546.7660, 8537.683
547.9430, 9343.887
549.1190, 9795.004
550.2950, 10029.99
551.4710, 10367.44
552.6470, 10406.77
553.8220, 10266.70
554.9980, 9506.652
556.1730, 8982.650
557.3480, 8415.678
558.5230, 7697.744
559.6980, 7308.845
560.8730, 6748.981
562.0470, 6575.150
563.2220, 6261.354
564.3960, 6030.590
565.5700, 5947.860
566.7440, 6026.162
567.9170, 6018.496
569.0910, 5979.861
570.2640, 6068.258
571.4380, 5948.685
572.6110, 5912.143
573.7840, 5929.630
574.9570, 5691.151
576.1290, 5540.720
577.3020, 5212.354
578.4740, 4963.067
579.6460, 4963.896
580.8180, 4566.809
581.9900, 4360.820
583.1620, 4272.952
584.3330, 3927.227
585.5040, 3780.608
586.6760, 3530.069
587.8470, 3544.629
589.0180, 3206.277
590.1880, 3147.021
591.3590, 3175.822
592.5290, 3064.719
593.7000, 2955.675
594.8700, 3070.698
596.0400, 2866.744
597.2090, 2884.824
598.3790, 3122.931
599.5490, 3081.072
600.7180, 3129.250
601.8870, 3222.452
603.0560, 3329.309
604.2250, 3650.769
605.3940, 3810.755
606.5620, 4095.719
607.7300, 4234.584
608.8990, 4580.820
610.0670, 4612.730
611.2350, 4889.464
612.4020, 5144.958
613.5700, 5313.758
614.7370, 5504.290
615.9050, 5730.078
617.0720, 5821.981
618.2390, 5980.470
619.4060, 6191.601
620.5720, 6242.826
621.7390, 6411.865
622.9050, 6524.850
624.0710, 6504.862
625.2370, 6614.762
626.4030, 6758.004
627.5690, 6762.439
628.7340, 7018.695
629.9000, 7117.764
631.0650, 7149.335
632.2300, 7107.341
633.3950, 6884.830
634.5600, 6738.332
635.7240, 6723.834
636.8890, 6699.914
638.0530, 6549.386
639.2170, 6490.705
640.3810, 6121.499
641.5450, 5993.060
642.7080, 5894.618
643.8720, 6058.176
645.0350, 5909.732
646.1980, 5791.286
647.3610, 5646.833
648.5240, 5601.380
649.6870, 5174.921
650.8490, 5058.458
652.0120, 4749.991
653.1740, 4341.517
654.3360, 3858.037
655.4980, 3626.549
656.6600, 3471.056
657.8210, 3233.553
658.9830, 2974.043
660.1440, 2968.523
661.3050, 2835.995
662.4660, 2664.456
663.6270, 2467.908
664.7870, 2011.348
665.9480, 1732.777
667.1080, 1304.194
668.2680, 939.5991
669.4280, 801.9912
670.5880, 568.3696
671.7480, 398.7339
672.9070, 185.0845
674.0670, 134.4204
675.2260, 114.7407
676.3850, 55.04541
677.5440, 0.6665040
678.7030, 104.4072
679.8610, 65.22705
681.0200, 83.10742
682.1780, 111.0596
683.3360, 38.09619
684.4940, 109.1836
685.6520, 129.3569
686.8090, 227.6270
687.9670, 208.6519
689.1240, 54.60596
690.2810, 129.2280
691.4380, 108.9492
692.5950, 50.23779
693.7520, 76.40283
694.9080, 170.5444
696.0650, 185.6636
697.2210, 330.7588
698.3770, 215.8306
699.5330, 392.8770
700.6880, 389.8994
701.8440, 481.8965
702.9990, 666.8682
704.1550, 691.8135
705.3100, 857.7334
706.4650, 1014.626
707.6190, 1107.493
708.7740, 1387.143
709.9290, 1768.142
711.0830, 1993.926
712.2370, 2343.681
713.3910, 2804.364
714.5450, 2846.893
715.6980, 3049.665
716.8520, 3055.626
718.0050, 3152.801
719.1580, 2873.941
720.3110, 2396.166
721.4640, 1972.545
722.6170, 1802.215
723.7700, 1341.500
724.9220, 932.0410
726.0740, 974.5786
727.2260, 699.9014
728.3780, 547.7827
729.5300, 481.4316
730.6810, 527.4941
731.8330, 450.4658
732.9840, 545.3257
734.1350, 523.1343
735.2860, 563.1436
736.4370, 500.4839
737.5880, 405.7627
738.7380, 404.3174
739.8880, 346.1455
741.0390, 281.1880
742.1890, 273.2588
743.3380, 203.9092
744.4880, 140.7817
745.6380, 198.3726
746.7870, 219.9331
747.9360, 213.4858
749.0850, 168.0439
750.2340, 187.1704
751.3830, 180.3545
752.5310, 196.6074
753.6800, 212.0659
754.8280, 244.4902
755.9760, 291.8608
757.1240, 239.1753
758.2720, 182.4282
759.4190, 150.6089
760.5670, 197.7104
761.7140, 154.7417
762.8610, 160.6943
764.0080, 148.5688
765.1550, 110.9893
766.3020, 89.06299
767.4480, 69.66553
768.5950, 38.16162
769.7410, 72.53711
770.8870, 40.80664
772.0330, 61.95703
773.1780, 86.41504
774.3240, 127.5415
775.4690, 148.7812
776.6140, 256.5454
777.7590, 303.2441
778.9040, 374.8833
780.0490, 398.8223
781.1940, 404.9897
782.3380, 434.4570
783.4820, 453.8667
784.6260, 506.2192
785.7700, 619.5137
786.9140, 662.7510
788.0580, 751.9307
789.2010, 813.0522
790.3450, 894.1162
791.4880, 940.1230
792.6310, 1059.072
793.7730, 1164.963
794.9160, 1275.796
796.0590, 1563.571
797.2010, 1697.290
798.3430, 1682.949
799.4850, 2060.552
800.6270, 2330.096
801.7690, 2522.583
802.9100, 2939.011
804.0520, 3118.383
805.1930, 3486.697
806.3340, 3831.954
807.4750, 4359.152
808.6160, 4987.294
809.7560, 5419.377
810.8970, 5784.405
812.0370, 6470.374
813.1770, 7195.286
814.3170, 7849.141
815.4570, 8605.134
816.5960, 9471.233
817.7360, 9544.514
818.8750, 9837.632
820.0140, 10031.00
821.1530, 9917.496
822.2920, 9544.759
823.4310, 9077.734
824.5690, 8649.606
825.7070, 7816.551
826.8460, 7370.613
827.9840, 6591.214
829.1220, 6111.917
830.2590, 5527.023
831.3970, 5128.082
832.5340, 4683.088
833.6710, 4354.047
834.8080, 3882.957
835.9450, 3504.818
837.0820, 2968.630
838.2190, 2685.394
839.3550, 2205.108
840.4910, 1822.774
841.6270, 1602.393
842.7630, 1173.963
843.8990, 943.4849
845.0350, 746.9595
846.1700, 420.3862
847.3060, 379.7666
848.4410, 265.0986
849.5760, 129.3848
850.7100, 26.61328
851.8450, 44.24170
852.9800, 96.21777
854.1140, 244.3408
855.2480, 117.6885
856.3820, 184.1929
857.5160, 267.8892
858.6500, 353.8198
859.7830, 222.0293
860.9170, 116.4482
862.0500, 198.0195
863.1830, 164.7852
864.3160, 191.7256
865.4480, 46.85547
866.5810, 199.0957
867.7130, 72.52441
868.8460, 89.06934
869.9780, 96.26562
871.1100, 15.56104
872.2410, 53.79443
873.3730, 5.972168
874.5050, 0.9213870
875.6360, 58.10889
876.7670, 181.0874
877.8980, 79.02051
879.0290, 271.8682
880.1590, 112.7734
881.2900, 244.1362
882.4200, 284.7979
883.5500, 532.7773
884.6800, 421.5840
885.8100, 621.3906
886.9400, 694.5557
888.0690, 671.5117
889.1990, 831.7432
890.3280, 973.2075
891.4570, 1131.138
892.5860, 1366.533
893.7140, 1679.267
894.8430, 1987.885
895.9710, 2103.669
897.1000, 2734.489
898.2280, 2915.260
899.3560, 3519.124
900.4830, 3974.625
901.6110, 4618.914
902.7380, 5181.361
903.8660, 6066.975
904.9930, 6776.068
906.1200, 7905.707
907.2460, 9049.842
908.3730, 10873.94
909.5000, 12975.02
910.6260, 15932.51
911.7520, 19861.58
912.8780, 25047.78
914.0040, 30724.50
915.1290, 37342.41
916.2550, 43950.33
917.3800, 49278.21
918.5050, 53097.08
919.6300, 54706.93
920.7550, 53100.77
921.8800, 49408.59
923.0040, 44415.39
924.1290, 39118.19
925.2530, 35189.96
926.3770, 31526.72
927.5010, 28257.47
928.6250, 26244.21
929.7480, 23562.94
930.8720, 20788.65
931.9950, 17922.36
933.1180, 14967.05
934.2410, 12731.74
935.3640, 10564.42
936.4860, 8751.087
937.6090, 7599.746
938.7310, 6498.400
939.8530, 5679.047
940.9750, 5047.689
942.0970, 4561.324
943.2180, 4306.955
944.3400, 4028.582
945.4610, 3753.205
946.5820, 3636.824
947.7030, 3626.440
948.8240, 3453.055
949.9450, 3428.667
951.0650, 3215.283
952.1860, 3059.931
953.3060, 2841.600
954.4260, 2445.294
955.5460, 2331.023
956.6650, 1858.770
957.7850, 1785.549
958.9040, 1761.370
960.0230, 1519.259
961.1420, 1431.210
962.2610, 1507.185
963.3800, 1305.000
964.4990, 1234.057
965.6170, 1269.490
966.7350, 1346.557
967.8530, 1205.630
968.9710, 1393.709
970.0890, 1361.795
971.2070, 1344.888
972.3240, 1444.988
973.4410, 1597.097
974.5580, 1520.214
975.6750, 1479.339
976.7920, 1597.475
977.9090, 1571.619
979.0250, 1488.775
980.1410, 1488.941
981.2580, 1473.118
982.3740, 1515.307
983.4890, 1488.509
984.6050, 1546.764
985.7200, 1552.160
986.8360, 1635.293
987.9510, 1703.225
989.0660, 1768.924
990.1810, 1767.643
991.2950, 1837.264
992.4100, 1942.713
993.5240, 2219.855
994.6390, 2507.368
995.7530, 2875.609
996.8660, 3470.840
997.9800, 4058.270
999.0940, 5012.128
1000.207, 5798.375
1001.320, 6845.479
1002.433, 7840.529
1003.546, 8904.543
1004.659, 9078.613
1005.772, 9319.551
1006.884, 9028.848
1007.996, 7886.084
1009.108, 7222.271
1010.220, 6328.990
1011.332, 5537.959
1012.444, 4794.188
1013.555, 4213.121
1014.666, 3874.854
1015.777, 3553.170
1016.888, 3446.299
1017.999, 3285.414
1019.110, 3255.574
1020.220, 3307.783
1021.331, 3052.041
1022.441, 2860.353
1023.551, 2540.747
1024.661, 2410.188
1025.770, 2121.674
1026.880, 1974.207
1027.989, 1788.789
1029.098, 1618.143
1030.207, 1609.133
1031.316, 1416.895
1032.425, 1351.714
1033.533, 1428.589
1034.642, 1372.616
1035.750, 1280.665
1036.858, 1215.833
1037.966, 1226.099
1039.073, 1189.441
1040.181, 1026.865
1041.288, 1146.367
1042.396, 1065.943
1043.503, 905.5928
1044.610, 729.3271
1045.716, 796.1621
1046.823, 610.1123
1047.929, 722.1221
1049.036, 638.2051
1050.142, 532.3418
1051.248, 617.5576
1052.353, 780.8418
1053.459, 795.2266
1054.564, 729.6729
1055.670, 1068.173
1056.775, 1313.754
1057.880, 1778.423
1058.985, 2326.145
1060.089, 2895.939
1061.194, 3527.796
1062.298, 4362.713
1063.402, 5138.691
1064.506, 5709.742
1065.610, 5987.877
1066.713, 5714.084
1067.817, 5177.353
1068.920, 4167.682
1070.023, 3544.078
1071.126, 2856.525
1072.229, 2206.026
1073.332, 1819.613
1074.435, 1561.256
1075.537, 1395.953
1076.639, 1264.713
1077.741, 1133.523
1078.843, 933.3887
1079.945, 782.3066
1081.046, 674.2773
1082.148, 565.7607
1083.249, 588.3799
1084.350, 426.5088
1085.451, 493.6953
1086.551, 440.9336
1087.652, 401.2227
1088.752, 318.5645
1089.853, 277.9629
1090.953, 281.4131
1092.053, 203.9170
1093.152, 183.4717
1094.252, 247.0771
1095.351, 65.26562
1096.451, 58.43164
1097.550, 36.81836
1098.649, 201.9766
1099.748, 157.8232
1100.846, 184.7197
1101.945, 103.6660
1103.043, 104.6621
1104.141, 192.7100
1105.239, 269.8076
1106.337, 401.9561
1107.434, 461.1533
1108.532, 386.4014
1109.629, 437.7012
1110.726, 446.0498
1111.823, 317.4482
1112.920, 258.8984
1114.017, 267.3965
1115.113, 217.9453
1116.210, 137.5459
1117.306, 214.1992
1118.402, 127.9229
1119.498, 159.7314
1120.593, 257.6426
1121.689, 321.6924
1122.784, 353.8477
1123.879, 322.1250
1124.974, 332.5488
1126.069, 335.1377
1127.164, 337.8574
1128.259, 240.6807
1129.353, 260.6289
1130.447, 148.6914
1131.541, 19.12305
1132.635, 41.85840
1133.729, 88.47656
1134.822, 125.0186
1135.916, 125.4893
1137.009, 128.3965
1138.102, 26.67578
1139.195, 66.66602
1140.288, 13.95312
1141.380, 74.82422
1142.473, 76.34668
1143.565, 131.5186
1144.657, 24.43359
1145.749, 52.39453
1146.841, 27.59766
1147.932, 4.546875
1149.024, 15.54688
1150.115, 17.68555
1151.206, 142.8691
1152.297, 163.0977
1153.388, 142.7979
1154.479, 193.3145
1155.569, 90.67285
1156.659, 148.0742
1157.750, 161.3486
1158.839, 267.9688
1159.929, 81.49707
1161.019, 78.61914
1162.108, 126.2441
1163.198, 135.0664
1164.287, 134.8945
1165.376, 6.118164
1166.465, 125.3818
1167.553, 185.3916
1168.642, 147.9375
1169.730, 286.9023
1170.818, 142.6914
1171.906, 246.7051
1172.994, 149.9658
1174.082, 294.2295
1175.170, 258.1719
1176.257, 344.5771
1177.344, 282.3311
1178.431, 202.7266
1179.518, 333.5410
1180.605, 254.0996
1181.691, 321.8369
1182.778, 378.6543
1183.864, 316.7197
1184.950, 299.8672
1186.036, 412.1816
1187.122, 415.3926
1188.207, 365.0908
1189.292, 346.9912
1190.378, 372.3848
1191.463, 535.5322
1192.548, 441.9453
1193.632, 407.3604
1194.717, 427.5176
1195.801, 305.4932
1196.886, 428.0205
1197.970, 344.2666
1199.054, 462.6406
1200.137, 394.6426
1201.221, 469.4404
1202.305, 296.2607
1203.388, 366.5781
1204.471, 328.8896
1205.554, 292.9189
1206.637, 293.3291
1207.719, 404.0469
1208.802, 201.2178
1209.884, 260.1387
1210.966, 184.0752
1212.048, 305.1377
1213.130, 158.3262
1214.212, 259.1201
1215.293, 244.8096
1216.374, 311.6260
1217.456, 237.4541
1218.536, 136.2920
1219.617, 231.1621
1220.698, 178.3633
1221.778, 225.5293
1222.859, 172.5244
1223.939, 176.4082
1225.019, 229.3008
1226.099, 202.4033
1227.178, 122.3105
1228.258, 111.8574
1229.337, 92.78320
1230.417, 103.7129
1231.496, 179.6543
1232.574, 128.6006
1233.653, 137.5537
1234.732, 91.51074
1235.810, 50.47363
1236.888, 79.44238
1237.966, 41.41309
1239.044, 57.39258
1240.122, 88.37695
1241.199, 20.36328
1242.277, 86.35547
1243.354, 100.3613
1244.431, 69.37207
1245.508, 82.38867
1246.585, 166.4258
1247.661, 47.46582
1248.738, 137.5078
1249.814, 26.57520
1250.890, 103.6416
1251.966, 46.70703
1253.042, 201.7725
1254.117, 209.8369
1255.193, 148.8994
1256.268, 91.96289
1257.343, 70.02148
1258.418, 42.35645
1259.493, 140.1250
1260.567, 40.16699
1261.642, 201.0273
1262.716, 250.5967
1263.790, 145.2861
1264.864, 105.0977
1265.938, 179.8799
1267.011, 60.56738
1268.085, 136.5400
1269.158, 51.60742
1270.231, 117.4229
1271.304, 104.3604
1272.377, 231.1719
1273.450, 38.08398
1274.522, 106.6602
1275.594, 124.8613
1276.666, 53.43457
1277.738, 169.2256
1278.810, 86.05859
1279.882, 73.04590
1280.953, 162.8428
1282.025, 1.622070
1283.096, 99.62988
1284.167, 193.1504
1285.238, 60.88770
1286.308, 13.73438
1287.379, 34.49121
1288.449, 54.05859
1289.519, 42.39551
1290.589, 53.08594
1291.659, 41.60938
1292.729, 161.0400
1293.798, 33.33105
1294.868, 84.90430
1295.937, 154.5967
1297.006, 49.47949
1298.075, 68.56055
1299.143, 15.57227
1300.212, 82.43457
1301.280, 57.62109
1302.348, 61.40723
