##NAMES=Andalusite
##RRUFFID=R050626
##IDEAL CHEMISTRY=Al_2_SiO_5_
##LOCALITY=Minas Gerais, Brazil
##OWNER=RRUFF
##SOURCE=Gemological Center
##DESCRIPTION=Grayish brown fragment
##STATUS=The identification of this mineral has been confirmed by X-ray diffraction and chemical analysis
##URL=rruff.info/R050626
##MEASURED CHEMISTRY=(Al_1.99_Fe^3+^_0.01_)_Î£=1_Si_1.00_O_5_
##PIN_ID=L01690
##ORIENTATION=Laser parallel to b* (0 1 0). Fiducial mark perpendicular to laser is parallel to c [0 0 1]
123.0580, 0.0000000E+00
124.2880, 97.87915
125.5190, 160.1750
126.7490, 0.5090330
127.9790, 20.79614
129.2090, 114.0645
130.4390, 226.2363
131.6680, 229.4253
132.8980, 367.5115
134.1270, 390.3359
135.3560, 433.8357
136.5850, 538.1138
137.8140, 464.5867
139.0430, 687.2444
140.2710, 749.6101
141.5000, 856.2188
142.7280, 716.3403
143.9560, 669.5393
145.1840, 607.5232
146.4120, 522.0593
147.6390, 473.1167
148.8670, 369.6660
150.0940, 243.6853
151.3210, 267.1626
152.5490, 265.0874
153.7750, 266.4497
155.0020, 142.2383
156.2290, 134.4429
157.4550, 37.05298
158.6810, 41.80688
159.9080, 24.02734
161.1340, 48.91504
162.3590, 144.4858
163.5850, 36.75439
164.8110, 10.26465
166.0360, 71.55811
167.2610, 200.1128
168.4860, 145.9185
169.7110, 85.95996
170.9360, 145.2188
172.1610, 86.75244
173.3850, 98.36963
174.6100, 86.26953
175.8340, 78.40381
177.0580, 146.7842
178.2820, 158.7505
179.5050, 152.3081
180.7290, 246.4502
181.9520, 372.8394
183.1760, 422.4673
184.3990, 515.3286
185.6220, 598.4375
186.8450, 679.4849
188.0670, 745.2686
189.2900, 860.0195
190.5120, 917.9829
191.7340, 1005.157
192.9560, 1062.537
194.1780, 1243.211
195.4000, 1305.475
196.6220, 1271.265
197.8430, 1496.174
199.0640, 1382.193
200.2860, 1406.323
201.5070, 1553.561
202.7270, 1710.900
203.9480, 1678.339
205.1690, 1403.875
206.3890, 987.4971
207.6090, 806.1934
208.8290, 582.9688
210.0490, 467.8267
211.2690, 311.7715
212.4890, 394.8076
213.7080, 357.9302
214.9280, 266.0518
216.1470, 334.1196
217.3660, 306.1748
218.5850, 290.3394
219.8030, 329.6187
221.0220, 369.0142
222.2400, 333.5273
223.4590, 354.2065
224.6770, 311.1807
225.8950, 364.4907
227.1120, 310.1060
228.3300, 362.9741
229.5480, 348.1030
230.7650, 426.4751
231.9820, 485.0737
233.1990, 531.8965
234.4160, 603.9502
235.6330, 688.1284
236.8490, 625.4004
238.0660, 779.7671
239.2820, 842.2285
240.4980, 794.7861
241.7140, 828.4419
242.9300, 729.1953
244.1460, 716.0483
245.3610, 708.0005
246.5770, 489.0537
247.7920, 516.2090
249.0070, 281.4653
250.2220, 284.8242
251.4370, 360.2861
252.6510, 167.8521
253.8660, 132.5210
255.0800, 64.29346
256.2940, 29.16943
257.5080, 151.1504
258.7220, 27.23535
259.9360, 121.4253
261.1490, 75.38281
262.3630, 213.1196
263.5760, 37.62549
264.7890, 140.7617
266.0020, 92.03906
267.2150, 97.77539
268.4270, 24.66748
269.6400, 98.54004
270.8520, 91.42285
272.0640, 285.2964
273.2760, 432.0283
274.4880, 568.9761
275.7000, 905.9395
276.9120, 1217.923
278.1230, 1680.936
279.3340, 2405.927
280.5450, 3409.888
281.7560, 4800.850
282.9670, 6546.840
284.1780, 8446.872
285.3880, 10076.96
286.5980, 11467.08
287.8090, 12462.99
289.0190, 13517.54
290.2290, 14129.08
291.4380, 14483.76
292.6480, 13963.56
293.8570, 12904.50
295.0670, 11234.56
296.2760, 9227.736
297.4850, 7181.040
298.6930, 5212.465
299.9020, 3454.009
301.1110, 2155.671
302.3190, 1378.448
303.5270, 753.3921
304.7350, 650.6265
305.9430, 574.3228
307.1510, 707.9272
308.3580, 1267.027
309.5660, 2420.059
310.7730, 4079.031
311.9800, 6596.680
313.1870, 9692.434
314.3940, 12271.29
315.6010, 14386.25
316.8070, 15932.31
318.0130, 17809.47
319.2200, 19003.74
320.4260, 19703.11
321.6310, 19288.70
322.8370, 18185.22
324.0430, 16014.12
325.2480, 13324.81
326.4540, 10445.08
327.6590, 7468.842
328.8640, 4997.811
330.0680, 3198.718
331.2730, 2411.476
332.4780, 1511.492
333.6820, 1213.524
334.8860, 811.6514
336.0900, 614.3677
337.2940, 618.2524
338.4980, 632.0190
339.7010, 837.5464
340.9050, 860.5044
342.1080, 1287.988
343.3110, 1422.321
344.5140, 2120.445
345.7170, 2885.866
346.9200, 4138.458
348.1220, 5539.575
349.3240, 7558.054
350.5270, 9922.622
351.7290, 12435.27
352.9310, 14684.01
354.1320, 16784.84
355.3340, 18228.74
356.5350, 19827.73
357.7370, 20404.81
358.9380, 20529.98
360.1390, 19833.23
361.3400, 18465.57
362.5400, 16910.99
363.7410, 14615.51
364.9410, 12356.10
366.1410, 10305.78
367.3410, 8630.555
368.5410, 7441.411
369.7410, 6585.349
370.9400, 5703.373
372.1400, 4934.477
373.3390, 4617.665
374.5380, 4101.932
375.7370, 3790.277
376.9360, 3390.703
378.1350, 3154.206
379.3330, 2964.787
380.5310, 2709.444
381.7300, 2801.180
382.9280, 2589.990
384.1260, 2563.878
385.3230, 2734.843
386.5210, 2763.884
387.7180, 2850.000
388.9160, 2930.193
390.1130, 2961.462
391.3100, 2905.807
392.5060, 2870.227
393.7030, 2768.722
394.9000, 2684.293
396.0960, 2557.938
397.2920, 2345.666
398.4880, 2354.486
399.6840, 2121.395
400.8800, 2098.414
402.0750, 2125.518
403.2710, 2010.725
404.4660, 2091.029
405.6610, 2128.456
406.8560, 2143.967
408.0510, 2250.595
409.2450, 2283.843
410.4400, 2584.847
411.6340, 2749.715
412.8280, 2934.655
414.0220, 3104.678
415.2160, 3104.783
416.4100, 3271.970
417.6030, 3298.240
418.7970, 3230.593
419.9900, 3059.029
421.1830, 3088.548
422.3760, 2909.149
423.5690, 2582.605
424.7610, 2308.604
425.9540, 1918.458
427.1460, 1628.395
428.3380, 1517.415
429.5300, 1339.519
430.7220, 1242.707
431.9140, 1178.979
433.1050, 1130.988
434.2970, 1265.785
435.4880, 1191.318
436.6790, 1336.938
437.8700, 1519.644
439.0610, 1533.435
440.2510, 1802.314
441.4420, 1937.279
442.6320, 2505.330
443.8220, 2965.468
445.0120, 3544.692
446.2020, 3885.002
447.3910, 3977.403
448.5810, 4139.912
449.7700, 4277.522
450.9600, 4394.239
452.1490, 4168.086
453.3370, 3863.036
454.5260, 3407.073
455.7150, 2560.198
456.9030, 1800.409
458.0910, 1198.704
459.2800, 677.0845
460.4670, 321.5503
461.6550, 157.1006
462.8430, 100.7358
464.0300, 59.54590
465.2180, 54.76611
466.4050, 182.9229
467.5920, 241.0625
468.7790, 229.2041
469.9650, 149.3384
471.1520, 261.4370
472.3380, 74.54053
473.5250, 117.7637
474.7110, 255.5718
475.8970, 119.5649
477.0820, 119.5122
478.2680, 177.4160
479.4540, 85.30078
480.6390, 128.1245
481.8240, 167.8916
483.0090, 129.6289
484.1940, 92.32031
485.3780, 179.9351
486.5630, 103.4624
487.7470, 3.065430
488.9320, 132.6836
490.1160, 210.4155
491.3000, 343.2451
492.4830, 435.2793
493.6670, 605.3760
494.8500, 719.5859
496.0340, 889.8931
497.2170, 1111.288
498.4000, 1280.773
499.5820, 1406.338
500.7650, 1655.982
501.9480, 1831.700
503.1300, 2096.491
504.3120, 2299.256
505.4940, 2530.293
506.6760, 2698.303
507.8580, 2875.384
509.0390, 3007.538
510.2210, 3115.762
511.4020, 3150.057
512.5830, 3155.423
513.7640, 3258.858
514.9450, 3332.364
516.1250, 3331.578
517.3060, 3097.581
518.4860, 3233.294
519.6660, 3196.074
520.8460, 2899.922
522.0260, 2922.838
523.2060, 3241.820
524.3850, 3185.869
525.5650, 3445.985
526.7440, 3385.166
527.9230, 3582.413
529.1020, 3826.724
530.2810, 4070.101
531.4590, 4364.543
532.6380, 4550.049
533.8160, 5066.617
534.9940, 5425.249
536.1720, 5603.943
537.3500, 6337.700
538.5270, 6739.810
539.7050, 7180.077
540.8820, 7865.621
542.0590, 8603.540
543.2360, 8991.973
544.4130, 9854.662
545.5900, 10495.77
546.7660, 11137.72
547.9430, 11546.08
549.1190, 11941.22
550.2950, 12251.61
551.4710, 12311.46
552.6470, 12374.45
553.8220, 12111.04
554.9980, 11708.67
556.1730, 11224.36
557.3480, 10646.10
558.5230, 10051.89
559.6980, 9365.735
560.8730, 9032.626
562.0470, 8720.566
563.2220, 8584.558
564.3960, 8471.596
565.5700, 8233.683
566.7440, 8294.814
567.9170, 8126.995
569.0910, 8186.222
570.2640, 8320.493
571.4380, 8131.812
572.6110, 8016.175
573.7840, 8084.583
574.9570, 7672.045
576.1290, 7509.585
577.3020, 7207.206
578.4740, 7040.956
579.6460, 6779.809
580.8180, 6449.802
581.9900, 6035.933
583.1620, 5687.165
584.3330, 5601.563
585.5040, 5200.064
586.6760, 5088.685
587.8470, 4659.432
589.0180, 4517.283
590.1880, 4450.263
591.3590, 4326.350
592.5290, 4281.538
593.7000, 4135.836
594.8700, 4143.867
596.0400, 4126.678
597.2090, 4174.186
598.3790, 4194.740
599.5490, 4260.339
600.7180, 4225.977
601.8870, 4430.653
603.0560, 4534.360
604.2250, 4729.101
605.3940, 5085.749
606.5620, 5297.784
607.7300, 5610.425
608.8990, 5895.271
610.0670, 6192.878
611.2350, 6543.586
612.4020, 6835.481
613.5700, 7216.907
614.7370, 7542.368
615.9050, 7802.341
617.0720, 8057.938
618.2390, 8344.683
619.4060, 8294.673
620.5720, 8685.284
621.7390, 8774.880
622.9050, 9012.090
624.0710, 8895.249
625.2370, 9330.244
626.4030, 9311.396
627.5690, 9409.100
628.7340, 9611.123
629.9000, 9695.252
631.0650, 9761.685
632.2300, 9707.557
633.3950, 9669.133
634.5600, 9473.679
635.7240, 9242.754
636.8890, 9115.988
638.0530, 8889.331
639.2170, 8752.437
640.3810, 8551.773
641.5450, 8371.161
642.7080, 8492.551
643.8720, 8167.952
645.0350, 8128.357
646.1980, 7838.768
647.3610, 7602.183
648.5240, 7447.604
649.6870, 7075.026
650.8490, 6677.452
652.0120, 6080.879
653.1740, 5681.309
654.3360, 4910.739
655.4980, 4713.171
656.6600, 4145.603
657.8210, 3735.032
658.9830, 3435.461
660.1440, 3014.777
661.3050, 2731.423
662.4660, 2394.733
663.6270, 2150.151
664.7870, 1926.563
665.9480, 1634.971
667.1080, 1211.373
668.2680, 863.7686
669.4280, 736.1577
670.5880, 608.5396
671.7480, 389.9136
672.9070, 389.2783
674.0670, 221.6343
675.2260, 81.98047
676.3850, 200.3164
677.5440, 21.35791
678.7030, 61.06152
679.8610, 45.81250
681.0200, 141.6035
682.1780, 20.48096
683.3360, 116.3911
684.4940, 85.37695
685.6520, 185.4248
686.8090, 31.58545
687.9670, 167.7861
689.1240, 47.09229
690.2810, 6.447266
691.4380, 41.16748
692.5950, 77.76318
693.7520, 140.4341
694.9080, 280.8999
696.0650, 256.4390
697.2210, 427.9585
698.3770, 474.4565
699.5330, 512.9336
700.6880, 674.3896
701.8440, 637.8237
702.9990, 845.2349
704.1550, 968.6230
705.3100, 1119.988
706.4650, 1481.328
707.6190, 1759.646
708.7740, 2089.937
709.9290, 2446.202
711.0830, 2704.443
712.2370, 3277.657
713.3910, 3573.991
714.5450, 3870.472
715.6980, 3990.848
716.8520, 3952.982
718.0050, 3593.618
719.1580, 3288.453
720.3110, 3015.516
721.4640, 2452.661
722.6170, 2089.614
723.7700, 1644.138
724.9220, 1245.492
726.0740, 974.5698
727.2260, 849.5293
728.3780, 633.2959
729.5300, 577.0835
730.6810, 689.5381
731.8330, 648.5586
732.9840, 744.3105
734.1350, 739.0332
735.2860, 729.7026
736.4370, 690.7983
737.5880, 519.7441
738.7380, 542.7026
739.8880, 418.3271
741.0390, 395.2783
742.1890, 468.6348
743.3380, 354.5210
744.4880, 273.5278
745.6380, 293.4858
746.7870, 214.4131
747.9360, 178.3291
749.0850, 182.2065
750.2340, 162.0371
751.3830, 206.8359
752.5310, 105.5781
753.6800, 190.2456
754.8280, 169.8848
755.9760, 210.4658
757.1240, 225.9956
758.2720, 153.4873
759.4190, 73.90918
760.5670, 154.2437
761.7140, 145.5220
762.8610, 36.73389
764.0080, 123.1646
765.1550, 135.7583
766.3020, 120.6064
767.4480, 29.35840
768.5950, 56.02393
769.7410, 30.46240
770.8870, 87.68701
772.0330, 24.84863
773.1780, 102.8716
774.3240, 180.7876
775.4690, 144.6167
776.6140, 271.3506
777.7590, 259.0127
778.9040, 375.6006
780.0490, 410.1245
781.1940, 514.5850
782.3380, 652.9805
783.4820, 754.3120
784.6260, 706.5801
785.7700, 732.7832
786.9140, 856.9214
788.0580, 870.9956
789.2010, 983.0049
790.3450, 1114.792
791.4880, 1373.829
792.6310, 1413.644
793.7730, 1638.395
794.9160, 1808.079
796.0590, 1929.699
797.2010, 2183.254
798.3430, 2592.744
799.4850, 2887.167
800.6270, 3169.527
801.7690, 3564.821
802.9100, 3935.530
804.0520, 4374.213
805.1930, 4822.311
806.3340, 5289.345
807.4750, 5838.312
808.6160, 6526.215
809.7560, 7257.051
810.8970, 8129.824
812.0370, 8991.531
813.1770, 9816.173
814.3170, 10750.75
815.4570, 11610.97
816.5960, 12337.03
817.7360, 12811.81
818.8750, 13189.21
820.0140, 13308.09
821.1530, 13238.71
822.2920, 12840.91
823.4310, 12118.26
824.5690, 11320.19
825.7070, 10453.34
826.8460, 9583.232
827.9840, 8489.208
829.1220, 7729.970
830.2590, 7063.671
831.3970, 6475.311
832.5340, 5868.892
833.6710, 5339.014
834.8080, 4781.878
835.9450, 4322.291
837.0820, 3794.646
838.2190, 3261.943
839.3550, 2654.182
840.4910, 2298.362
841.6270, 1772.483
842.7630, 1522.546
843.8990, 1114.551
845.0350, 781.4971
846.1700, 584.3853
847.3060, 418.2158
848.4410, 364.9888
849.5760, 117.7046
850.7100, 5.658203
851.8450, 21.14697
852.9800, 209.7690
854.1140, 107.6226
855.2480, 255.6533
856.3820, 244.9390
857.5160, 120.4717
858.6500, 358.1860
859.7830, 130.2065
860.9170, 193.2725
862.0500, 222.8340
863.1830, 143.4873
864.3160, 238.3296
865.4480, 161.4087
866.5810, 142.6841
867.7130, 186.1436
868.8460, 120.8081
869.9780, 4.363281
871.1100, 2.431641
872.2410, 47.84570
873.3730, 47.29736
874.5050, 75.11816
875.6360, 84.87207
876.7670, 121.5615
877.8980, 169.1934
879.0290, 108.7729
880.1590, 335.2959
881.2900, 304.5752
882.4200, 437.9521
883.5500, 455.4077
884.6800, 483.0063
885.8100, 706.6157
886.9400, 675.6328
888.0690, 846.5928
889.1990, 971.7397
890.3280, 1221.187
891.4570, 1460.065
892.5860, 1538.773
893.7140, 1826.713
894.8430, 2236.934
895.9710, 2663.359
897.1000, 2890.443
898.2280, 3537.195
899.3560, 4088.654
900.4830, 4659.177
901.6110, 5401.419
902.7380, 6294.117
903.8660, 7221.886
904.9930, 8009.333
906.1200, 9304.322
907.2460, 10944.59
908.3730, 13024.87
909.5000, 15399.61
910.6260, 18969.61
911.7520, 23673.60
912.8780, 29788.26
914.0040, 36703.66
915.1290, 43084.00
916.2550, 48809.30
917.3800, 53383.60
918.5050, 55412.88
919.6300, 55276.12
920.7550, 52835.35
921.8800, 48848.56
923.0040, 43678.75
924.1290, 37527.91
925.2530, 32656.07
926.3770, 28346.20
927.5010, 25019.31
928.6250, 22192.41
929.7480, 19867.50
930.8720, 17517.57
931.9950, 15191.62
933.1180, 12956.66
934.2410, 11253.69
935.3640, 9360.709
936.4860, 7941.713
937.6090, 6714.707
938.7310, 5873.691
939.8530, 5220.666
940.9750, 4529.630
942.0970, 4278.590
943.2180, 3807.538
944.3400, 3610.481
945.4610, 3210.418
946.5820, 3208.349
947.7030, 2994.274
948.8240, 2889.195
949.9450, 2861.112
951.0650, 2753.036
952.1860, 2622.973
953.3060, 2423.921
954.4260, 2382.904
955.5460, 2095.896
956.6650, 1920.920
957.7850, 1780.966
958.9040, 1869.062
960.0230, 1640.171
961.1420, 1581.326
962.2610, 1626.501
963.3800, 1516.686
964.4990, 1600.872
965.6170, 1556.062
966.7350, 1542.260
967.8530, 1689.549
968.9710, 1639.118
970.0890, 1861.634
971.2070, 1775.597
972.3240, 1881.825
973.4410, 1835.229
974.5580, 1947.473
975.6750, 1983.726
976.7920, 2049.988
977.9090, 1929.261
979.0250, 2028.544
980.1410, 2064.839
981.2580, 1988.146
982.3740, 2137.464
983.4890, 1998.795
984.6050, 2036.993
985.7200, 2130.031
986.8360, 2164.161
987.9510, 2245.279
989.0660, 2337.363
990.1810, 2449.995
991.2950, 2541.386
992.4100, 2737.684
993.5240, 3151.159
994.6390, 3594.244
995.7530, 4158.103
996.8660, 4928.417
997.9800, 5837.839
999.0940, 6869.439
1000.207, 8226.010
1001.320, 9578.900
1002.433, 10832.26
1003.546, 11793.21
1004.659, 12161.80
1005.772, 12226.57
1006.884, 11803.14
1007.996, 10594.54
1009.108, 9509.848
1010.220, 8251.480
1011.332, 6866.774
1012.444, 5941.652
1013.555, 5019.990
1014.666, 4294.210
1015.777, 3787.477
1016.888, 3319.791
1017.999, 3064.158
1019.110, 2799.581
1020.220, 2852.061
1021.331, 2583.600
1022.441, 2564.195
1023.551, 2292.858
1024.661, 2157.580
1025.770, 1999.366
1026.880, 1937.208
1027.989, 1852.207
1029.098, 1779.074
1030.207, 1784.119
1031.316, 1810.230
1032.425, 1841.409
1033.533, 1773.246
1034.642, 1694.093
1035.750, 1620.579
1036.858, 1660.162
1037.966, 1570.871
1039.073, 1485.729
1040.181, 1432.719
1041.288, 1214.834
1042.396, 967.0840
1043.503, 1011.446
1044.610, 824.9180
1045.716, 820.4893
1046.823, 585.1406
1047.929, 661.9082
1049.036, 502.7842
1050.142, 415.7549
1051.248, 579.8066
1052.353, 519.9473
1053.459, 526.2207
1054.564, 595.5703
1055.670, 625.9932
1056.775, 692.5068
1057.880, 873.0879
1058.985, 1106.765
1060.089, 1529.520
1061.194, 1832.382
1062.298, 2248.307
1063.402, 2500.318
1064.506, 2571.406
1065.610, 2847.572
1066.713, 2611.847
1067.817, 2469.202
1068.920, 2169.629
1070.023, 1928.124
1071.126, 1561.709
1072.229, 1273.385
1073.332, 1257.131
1074.435, 1097.951
1075.537, 873.8350
1076.639, 934.7822
1077.741, 823.8105
1078.843, 727.9043
1079.945, 848.0615
1081.046, 563.2832
1082.148, 623.5693
1083.249, 586.9199
1084.350, 502.3350
1085.451, 516.8145
1086.551, 317.3584
1087.652, 321.9727
1088.752, 309.6504
1089.853, 186.3916
1090.953, 242.1963
1092.053, 181.0664
1093.152, 188.9971
1094.252, 72.99414
1095.351, 119.0518
1096.451, 150.1738
1097.550, 29.35938
1098.649, 124.6064
1099.748, 11.08301
1100.846, 40.70996
1101.945, 103.2783
1103.043, 69.79688
1104.141, 21.74121
1105.239, 20.65723
1106.337, 74.00391
1107.434, 89.83008
1108.532, 123.5195
1109.629, 124.3721
1110.726, 119.2881
1111.823, 82.26660
1112.920, 78.30859
1114.017, 68.41504
1115.113, 91.58398
1116.210, 22.81641
1117.306, 108.1221
1118.402, 18.52637
1119.498, 86.03223
1120.593, 62.68750
1121.689, 120.4678
1122.784, 142.4092
1123.879, 190.5107
1124.974, 202.9072
1126.069, 204.1523
1127.164, 156.6943
1128.259, 204.3799
1129.353, 47.21875
1130.447, 38.18555
1131.541, 54.30566
1132.635, 98.55859
1133.729, 4.060547
1134.822, 103.5420
1135.916, 104.0840
1137.009, 17.20312
1138.102, 149.4072
1139.195, 8.558594
1140.288, 22.36426
1141.380, 24.35449
1142.473, 73.41211
1143.565, 135.5342
1144.657, 192.7158
1145.749, 163.9609
1146.841, 152.2656
1147.932, 118.6279
1149.024, 161.0479
1150.115, 133.5264
1151.206, 174.0625
1152.297, 180.4746
1153.388, 190.6533
1154.479, 224.0078
1155.569, 209.7695
1156.659, 268.7881
1157.750, 252.6602
1158.839, 109.5850
1159.929, 258.6729
1161.019, 351.8203
1162.108, 213.9082
1163.198, 417.0498
1164.287, 374.2441
1165.376, 181.1914
1166.465, 412.4883
1167.553, 348.6182
1168.642, 261.0449
1169.730, 259.0693
1170.818, 356.7480
1171.906, 401.1787
1172.994, 396.4590
1174.082, 413.6582
1175.170, 423.7285
1176.257, 411.5889
1177.344, 459.6367
1178.431, 327.1426
1179.518, 402.0186
1180.605, 398.3369
1181.691, 564.1299
1182.778, 441.7646
1183.864, 527.5186
1184.950, 539.4492
1186.036, 588.9961
1187.122, 602.4043
1188.207, 636.2832
1189.292, 657.8623
1190.378, 679.5244
1191.463, 661.7041
1192.548, 616.2812
1193.632, 544.1475
1194.717, 619.6514
1195.801, 683.5156
1196.886, 662.4258
1197.970, 742.0352
1199.054, 683.4561
1200.137, 527.8750
1201.221, 554.6289
1202.305, 600.3848
1203.388, 661.5400
1204.471, 591.0371
1205.554, 545.9629
1206.637, 479.8008
1207.719, 521.1504
1208.802, 605.9961
1209.884, 553.7178
1210.966, 465.6445
1212.048, 385.2949
1213.130, 418.1768
1214.212, 388.1807
1215.293, 422.8828
1216.374, 421.7812
1217.456, 409.6875
1218.536, 286.5996
1219.617, 275.3623
1220.698, 314.1406
1221.778, 356.9316
1222.859, 319.7373
1223.939, 301.5547
1225.019, 325.9551
1226.099, 248.2266
1227.178, 325.0791
1228.258, 290.9443
1229.337, 230.8193
1230.417, 108.6172
1231.496, 215.1514
1232.574, 209.7607
1233.653, 238.9424
1234.732, 264.8779
1235.810, 156.6553
1236.888, 107.6123
1237.966, 179.5791
1239.044, 221.5586
1240.122, 112.5479
1241.199, 187.5537
1242.277, 91.58301
1243.354, 192.6240
1244.431, 148.6855
1245.508, 155.7627
1246.585, 165.8506
1247.661, 206.9531
1248.738, 192.0615
1249.814, 228.1719
1250.890, 221.3467
1251.966, 195.4316
1253.042, 226.5674
1254.117, 213.7041
1255.193, 250.8428
1256.268, 288.9785
1257.343, 212.1104
1258.418, 162.2441
1259.493, 224.3721
1260.567, 255.4932
1261.642, 346.6064
1262.716, 301.6973
1263.790, 268.7559
1264.864, 205.4648
1265.938, 266.5400
1267.011, 207.4590
1268.085, 245.1338
1269.158, 246.1016
1270.231, 263.1270
1271.304, 255.1367
1272.377, 208.1318
1273.450, 159.1113
1274.522, 184.0762
1275.594, 153.8467
1276.666, 128.9551
1277.738, 152.8682
1278.810, 134.7656
1279.882, 135.7295
1280.953, 174.5889
1282.025, 150.4268
1283.096, 94.24609
1284.167, 102.0410
1285.238, 27.81543
1286.308, 112.5625
1287.379, 51.28516
1288.449, 36.98340
1289.519, 39.01562
1290.589, 105.6562
1291.659, 98.27148
1292.729, 103.8018
1293.798, 37.41504
1294.868, 75.07324
1295.937, 34.35938
1297.006, 83.97461
1298.075, 74.69043
1299.143, 34.50488
1300.212, 123.4004
1301.280, 86.42188
1302.348, 66.55273
