##NAMES=Andalusite
##RRUFFID=R050449
##IDEAL CHEMISTRY=Al_2_SiO_5_
##LOCALITY=Itinga, Minas Gerais, Brazil
##OWNER=RRUFF
##SOURCE=Marcus Origlieri
##DESCRIPTION=Green fragment
##STATUS=The identification of this mineral has been confirmed by X-ray diffraction and chemical analysis
##URL=rruff.info/R050449
##MEASURED CHEMISTRY=Al_2.00_Fe^3+^_0.01_Si_0.99_O_5_
##PIN_ID=L01352
##ORIENTATION=Laser parallel to -c* (0 0 -1). Fiducial mark perpendicular to laser is parallel to a [1 0 0]
92.24600, 0.0000000E+00
93.48000, 110.3555
94.71400, 86.72705
95.94800, 78.55908
97.18200, 95.14600
98.41600, 2.854980
99.64900, 93.93896
100.8830, 197.8687
102.1160, 0.5708010
103.3490, 31.24902
104.5820, 67.04541
105.8150, 92.61084
107.0470, 164.8276
108.2800, 431.5923
109.5120, 572.6689
110.7440, 885.3809
111.9760, 589.4053
113.2080, 314.6748
114.4400, 203.1499
115.6710, 332.7915
116.9030, 468.5649
118.1340, 373.4512
119.3650, 387.4370
120.5960, 234.7705
121.8270, 236.9199
123.0580, 201.5410
124.2880, 296.2705
125.5190, 223.2705
126.7490, 145.7139
127.9790, 73.05273
129.2090, 167.9570
130.4390, 234.7793
131.6680, 275.5317
132.8980, 240.2256
134.1270, 235.3052
135.3560, 221.1680
136.5850, 121.2319
137.8140, 201.7803
139.0430, 114.3115
140.2710, 166.8320
141.5000, 192.3467
142.7280, 203.8618
143.9560, 154.3853
145.1840, 75.92236
146.4120, 56.47461
147.6390, 102.0420
148.8670, 2.374023
150.0940, 29.22998
151.3210, 80.86035
152.5490, 44.11865
153.7750, 157.2295
155.0020, 47.73682
156.2290, 33.28369
157.4550, 39.23193
158.6810, 0.8237300
159.9080, 13.42041
161.1340, 8.066406
162.3590, 16.95459
163.5850, 83.00195
164.8110, 133.0591
166.0360, 154.1631
167.2610, 252.2886
168.4860, 143.4429
169.7110, 156.6328
170.9360, 76.85986
172.1610, 87.39014
173.3850, 123.4365
174.6100, 80.78809
175.8340, 126.1821
177.0580, 40.61816
178.2820, 181.0977
179.5050, 42.61914
180.7290, 12.18213
181.9520, 94.78809
183.1760, 179.4341
184.3990, 199.1191
185.6220, 219.8438
186.8450, 312.6060
188.0670, 402.4077
189.2900, 533.2466
190.5120, 666.1230
191.7340, 732.0820
192.9560, 727.1094
194.1780, 588.2129
195.4000, 676.3955
196.6220, 671.6104
197.8430, 645.8569
199.0640, 630.1123
200.2860, 557.3828
201.5070, 761.6797
202.7270, 1971.003
203.9480, 1984.355
205.1690, 2469.736
206.3890, 777.1445
207.6090, 317.6333
208.8290, 161.2627
210.0490, 127.9351
211.2690, 62.34961
212.4890, 10.39209
213.7080, 27.84082
214.9280, 3.951660
216.1470, 20.77002
217.3660, 22.61475
218.5850, 27.74902
219.8030, 25.77490
221.0220, 0.6914060
222.2400, 0.2592770
223.4590, 44.72266
224.6770, 88.62842
225.8950, 39.46387
227.1120, 96.43311
228.3300, 88.30566
229.5480, 66.84863
230.7650, 90.97412
231.9820, 0.8129880
233.1990, 30.66553
234.4160, 91.44922
235.6330, 234.5518
236.8490, 283.6694
238.0660, 358.8174
239.2820, 602.7520
240.4980, 558.9131
241.7140, 723.2305
242.9300, 663.6704
244.1460, 771.2104
245.3610, 628.8354
246.5770, 640.5356
247.7920, 605.3018
249.0070, 625.1226
250.2220, 429.0010
251.4370, 500.9282
252.6510, 445.9004
253.8660, 580.9150
255.0800, 404.9692
256.2940, 551.0581
257.5080, 735.1777
258.7220, 670.3271
259.9360, 719.5054
261.1490, 1008.712
262.3630, 1072.945
263.5760, 900.2061
264.7890, 1000.494
266.0020, 1248.808
267.2150, 1285.146
268.4270, 1584.510
269.6400, 1805.898
270.8520, 2110.311
272.0640, 2541.708
273.2760, 2975.103
274.4880, 3708.513
275.7000, 4424.942
276.9120, 5162.390
278.1230, 5678.858
279.3340, 6628.347
280.5450, 8040.856
281.7560, 10133.38
282.9670, 12966.93
284.1780, 16331.50
285.3880, 19879.09
286.5980, 23579.70
287.8090, 28105.34
289.0190, 33439.40
290.2290, 38265.08
291.4380, 40380.54
292.6480, 39132.21
293.8570, 34815.39
295.0670, 29384.29
296.2760, 23847.41
297.4850, 18378.21
298.6930, 13748.00
299.9020, 10170.79
301.1110, 7706.606
302.3190, 6012.443
303.5270, 4820.640
304.7350, 4014.282
305.9430, 3434.114
307.1510, 3048.686
308.3580, 2927.342
309.5660, 3022.102
310.7730, 3669.886
311.9800, 4547.694
313.1870, 5720.525
314.3940, 7029.382
315.6010, 8598.264
316.8070, 10687.17
318.0130, 13374.09
319.2200, 16556.05
320.4260, 18451.86
321.6310, 18243.04
322.8370, 16940.68
324.0430, 15109.46
325.2480, 12602.08
326.4540, 10281.12
327.6590, 8225.712
328.8640, 6832.847
330.0680, 5871.005
331.2730, 5081.183
332.4780, 4813.385
333.6820, 4324.608
334.8860, 4082.855
336.0900, 4000.122
337.2940, 3812.411
338.4980, 3645.721
339.7010, 3457.053
340.9050, 3264.405
342.1080, 3029.779
343.3110, 3135.173
344.5140, 2863.588
345.7170, 3040.024
346.9200, 3175.480
348.1220, 3394.958
349.3240, 3924.458
350.5270, 4596.629
351.7290, 5504.470
352.9310, 6590.033
354.1320, 7848.773
355.3340, 9400.376
356.5350, 10650.92
357.7370, 11709.57
358.9380, 11959.79
360.1390, 11567.40
361.3400, 10311.11
362.5400, 8791.825
363.7410, 7627.568
364.9410, 6437.331
366.1410, 5364.690
367.3410, 4125.511
368.5410, 3587.150
369.7410, 3061.585
370.9400, 2486.444
372.1400, 2329.513
373.3390, 1870.049
374.5380, 1718.969
375.7370, 1637.418
376.9360, 1423.184
378.1350, 1270.693
379.3330, 1342.692
380.5310, 1287.711
381.7300, 1289.750
382.9280, 1162.808
384.1260, 1098.893
385.3230, 1066.002
386.5210, 948.1357
387.7180, 834.2930
388.9160, 835.4741
390.1130, 917.6782
391.3100, 799.9067
392.5060, 855.1611
393.7030, 714.4390
394.9000, 659.7432
396.0960, 476.0752
397.2920, 489.4312
398.4880, 353.8135
399.6840, 294.2227
400.8800, 315.6592
402.0750, 151.1172
403.2710, 300.6289
404.4660, 401.1650
405.6610, 305.7495
406.8560, 310.3545
408.0510, 310.9844
409.2450, 296.6665
410.4400, 527.3848
411.6340, 550.1240
412.8280, 700.8833
414.0220, 728.6650
415.2160, 887.4834
416.4100, 1114.323
417.6030, 1200.185
418.7970, 1313.063
419.9900, 1208.963
421.1830, 939.8818
422.3760, 785.8193
423.5690, 663.7764
424.7610, 467.7529
425.9540, 243.7480
427.1460, 208.7617
428.3380, 155.7949
429.5300, 159.8467
430.7220, 99.91699
431.9140, 74.99414
433.1050, 39.08203
434.2970, 19.82324
435.4880, 65.71875
436.6790, 11.62305
437.8700, 50.51562
439.0610, 53.40918
440.2510, 155.6934
441.4420, 214.8125
442.6320, 245.9512
443.8220, 303.1055
445.0120, 560.2793
446.2020, 778.4697
447.3910, 951.6846
448.5810, 1135.920
449.7700, 1771.176
450.9600, 2249.450
452.1490, 2371.744
453.3370, 1812.056
454.5260, 1225.387
455.7150, 993.7344
456.9030, 526.0996
458.0910, 242.4814
459.2800, 153.8809
460.4670, 33.29785
461.6550, 15.73145
462.8430, 82.79004
464.0300, 29.32910
465.2180, 168.8613
466.4050, 41.42969
467.5920, 14.99316
468.7790, 16.47070
469.9650, 36.04883
471.1520, 93.43457
472.3380, 76.95117
473.5250, 162.4854
474.7110, 201.0332
475.8970, 106.5986
477.0820, 249.1787
478.2680, 193.7861
479.4540, 155.4131
480.6390, 155.0576
481.8240, 194.7480
483.0090, 244.4551
484.1940, 202.1855
485.3780, 278.9600
486.5630, 201.7539
487.7470, 179.5645
488.9320, 151.4102
490.1160, 116.2744
491.3000, 45.18262
492.4830, 6.126953
493.6670, 83.91406
494.8500, 24.07324
496.0340, 105.9277
497.2170, 13.05957
498.4000, 1.919922
499.5820, 36.15430
500.7650, 23.27539
501.9480, 52.43652
503.1300, 101.6221
504.3120, 247.8398
505.4940, 137.0684
506.6760, 209.3135
507.8580, 248.5762
509.0390, 185.8516
510.2210, 228.1562
511.4020, 366.4814
512.5830, 398.8369
513.7640, 345.2031
514.9450, 384.6016
516.1250, 342.0283
517.3060, 376.4648
518.4860, 305.9316
519.6660, 393.4082
520.8460, 324.9023
522.0260, 218.4053
523.2060, 434.9170
524.3850, 415.4385
525.5650, 355.9678
526.7440, 444.5068
527.9230, 417.0547
529.1020, 538.6602
530.2810, 541.3877
531.4590, 615.9590
532.6380, 653.8682
533.8160, 650.2324
534.9940, 901.0908
536.1720, 932.5898
537.3500, 1194.618
538.5270, 1382.573
539.7050, 1796.332
540.8820, 2210.243
542.0590, 2625.079
543.2360, 3083.013
544.4130, 3683.242
545.5900, 4400.533
546.7660, 5108.703
547.9430, 5886.355
549.1190, 6532.062
550.2950, 6903.975
551.4710, 7027.348
552.6470, 6638.016
553.8220, 6079.894
554.9980, 5328.984
556.1730, 4495.602
557.3480, 3835.652
558.5230, 3176.326
559.6980, 2746.002
560.8730, 2200.678
562.0470, 1979.354
563.2220, 1869.030
564.3960, 1671.707
565.5700, 1639.383
566.7440, 1613.061
567.9170, 1430.736
569.0910, 1355.412
570.2640, 1473.087
571.4380, 1474.761
572.6110, 1465.434
573.7840, 1225.693
574.9570, 1198.363
576.1290, 1198.267
577.3020, 1146.990
578.4740, 1103.230
579.6460, 1016.727
580.8180, 872.0762
581.9900, 783.7578
583.1620, 706.5078
584.3330, 641.3848
585.5040, 642.7910
586.6760, 600.4648
587.8470, 727.1387
589.0180, 804.8096
590.1880, 761.4785
591.3590, 507.1426
592.5290, 809.8047
593.7000, 640.6406
594.8700, 714.2959
596.0400, 837.9473
597.2090, 770.5947
598.3790, 731.2383
599.5490, 815.8779
600.7180, 936.5156
601.8870, 1026.193
603.0560, 1113.063
604.2250, 1114.002
605.3940, 1208.953
606.5620, 1282.930
607.7300, 1167.816
608.8990, 1267.023
610.0670, 1089.626
611.2350, 1030.057
612.4020, 1084.435
613.5700, 1059.095
614.7370, 1045.673
615.9050, 1102.575
617.0720, 1049.063
618.2390, 1199.811
619.4060, 1224.972
620.5720, 1276.581
621.7390, 1268.311
622.9050, 1457.042
624.0710, 1344.504
625.2370, 1484.021
626.4030, 1677.202
627.5690, 1589.504
628.7340, 1722.502
629.9000, 1473.133
631.0650, 1492.933
632.2300, 1411.313
633.3950, 1383.776
634.5600, 1236.824
635.7240, 1225.236
636.8890, 1154.836
638.0530, 1141.213
639.2170, 1100.011
640.3810, 1032.277
641.5450, 1210.264
642.7080, 1176.177
643.8720, 1239.786
645.0350, 1238.089
646.1980, 1276.277
647.3610, 1309.461
648.5240, 1233.732
649.6870, 1299.922
650.8490, 1175.146
652.0120, 1007.354
653.1740, 910.5439
654.3360, 940.7197
655.4980, 720.8770
656.6600, 831.0166
657.8210, 730.1396
658.9830, 620.2451
660.1440, 730.3330
661.3050, 608.4043
662.4660, 797.4580
663.6270, 913.4932
664.7870, 603.5117
665.9480, 422.5107
667.1080, 312.4922
668.2680, 94.45508
669.4280, 81.40039
670.5880, 144.3242
671.7480, 68.23047
672.9070, 48.11426
674.0670, 73.97168
675.2260, 43.80762
676.3850, 27.61621
677.5440, 69.39160
678.7030, 36.14551
679.8610, 31.87012
681.0200, 28.56250
682.1780, 92.22168
683.3360, 76.13867
684.4940, 55.41504
685.6520, 59.05664
686.8090, 171.3955
687.9670, 39.82910
689.1240, 70.76855
690.2810, 14.44824
691.4380, 150.8193
692.5950, 79.06836
693.7520, 66.29395
694.9080, 18.50391
696.0650, 68.64258
697.2210, 123.7656
698.3770, 192.8691
699.5330, 242.9541
700.6880, 266.2412
701.8440, 225.0625
702.9990, 301.0889
704.1550, 336.0938
705.3100, 365.0801
706.4650, 419.0459
707.6190, 534.9932
708.7740, 500.9199
709.9290, 724.8271
711.0830, 706.7148
712.2370, 977.5830
713.3910, 1348.446
714.5450, 1373.776
715.6980, 1613.605
716.8520, 1646.278
718.0050, 1684.801
719.1580, 1620.602
720.3110, 1571.388
721.4640, 1226.154
722.6170, 1085.899
723.7700, 811.6836
724.9220, 676.3906
726.0740, 540.4395
727.2260, 426.2236
728.3780, 152.8711
729.5300, 192.4990
730.6810, 224.1064
731.8330, 76.69531
732.9840, 192.2617
734.1350, 152.8086
735.2860, 295.3350
736.4370, 120.9307
737.5880, 163.4180
738.7380, 113.6465
739.8880, 94.42773
741.0390, 58.14258
742.1890, 76.21094
743.3380, 52.56152
744.4880, 39.10742
745.6380, 31.19824
746.7870, 26.51855
747.9360, 125.7129
749.0850, 59.92383
750.2340, 21.88086
751.3830, 78.26172
752.5310, 193.3838
753.6800, 63.48926
754.8280, 82.57227
755.9760, 1.634766
757.1240, 17.65918
758.2720, 49.65039
759.4190, 79.37891
760.5670, 58.50977
761.7140, 3.376953
762.8610, 77.79102
764.0080, 30.96094
765.1550, 25.68750
766.3020, 39.61035
767.4480, 15.03320
768.5950, 78.35156
769.7410, 48.81445
770.8870, 35.66113
772.0330, 154.8838
773.1780, 95.47266
774.3240, 41.18848
775.4690, 51.88086
776.6140, 76.63477
777.7590, 99.70703
778.9040, 48.37109
780.0490, 16.34082
781.1940, 44.34961
782.3380, 120.5869
783.4820, 8.509766
784.6260, 7.405273
785.7700, 53.27637
786.9140, 42.86914
788.0580, 117.9365
789.2010, 154.7266
790.3450, 181.5029
791.4880, 129.2646
792.6310, 324.0137
793.7730, 148.7480
794.9160, 289.4678
796.0590, 226.1758
797.2010, 286.8711
798.3430, 218.5518
799.4850, 367.2207
800.6270, 521.8770
801.7690, 692.5205
802.9100, 769.1523
804.0520, 726.7715
805.1930, 809.3799
806.3340, 941.9258
807.4750, 1013.346
808.6160, 1170.919
809.7560, 1098.149
810.8970, 1099.924
812.0370, 1329.199
813.1770, 1317.831
814.3170, 1574.932
815.4570, 1646.103
816.5960, 1666.465
817.7360, 1864.672
818.8750, 1898.754
820.0140, 1885.134
821.1530, 2063.014
822.2920, 1892.829
823.4310, 1905.764
824.5690, 1807.211
825.7070, 1849.603
826.8460, 1644.787
827.9840, 1604.506
829.1220, 1477.931
830.2590, 1497.139
831.3970, 1498.271
832.5340, 1622.597
833.6710, 1541.626
834.8080, 1459.028
835.9450, 1395.428
837.0820, 1215.824
838.2190, 1100.219
839.3550, 952.6084
840.4910, 793.9980
841.6270, 654.3828
842.7630, 512.0771
843.8990, 370.1504
845.0350, 261.5312
846.1700, 183.9111
847.3060, 113.2900
848.4410, 167.6670
849.5760, 30.04395
850.7100, 54.57910
851.8450, 67.78223
852.9800, 37.85547
854.1140, 61.50293
855.2480, 3.833984
856.3820, 125.1709
857.5160, 54.50781
858.6500, 53.84473
859.7830, 3.815430
860.9170, 13.52441
862.0500, 22.13574
863.1830, 8.875977
864.3160, 110.5430
865.4480, 38.88379
866.5810, 31.22852
867.7130, 77.57520
868.8460, 28.74609
869.9780, 113.0996
871.1100, 27.45410
872.2410, 7.185547
873.3730, 87.17773
874.5050, 40.45605
875.6360, 59.09277
876.7670, 64.22461
877.8980, 101.3506
879.0290, 185.5693
880.1590, 145.4336
881.2900, 131.8340
882.4200, 150.2041
883.5500, 264.4531
884.6800, 337.8545
885.8100, 171.9590
886.9400, 409.5996
888.0690, 500.9619
889.1990, 465.4072
890.3280, 688.6543
891.4570, 619.0986
892.5860, 718.4053
893.7140, 1007.609
894.8430, 924.7559
895.9710, 1377.094
897.1000, 1455.478
898.2280, 1769.138
899.3560, 1894.757
900.4830, 2249.715
901.6110, 2743.555
902.7380, 3181.719
903.8660, 3543.258
904.9930, 4058.105
906.1200, 4867.855
907.2460, 5798.186
908.3730, 7155.387
909.5000, 8574.175
910.6260, 10768.62
911.7520, 13810.45
912.8780, 17448.78
914.0040, 21863.73
915.1290, 27221.96
916.2550, 32793.27
917.3800, 38466.89
918.5050, 42085.81
919.6300, 43082.86
920.7550, 40151.91
921.8800, 35080.88
923.0040, 29099.94
924.1290, 23796.96
925.2530, 19619.01
926.3770, 16488.07
927.5010, 13937.17
928.6250, 12294.27
929.7480, 10797.42
930.8720, 9181.588
931.9950, 7943.781
933.1180, 6759.999
934.2410, 5847.238
935.3640, 5137.496
936.4860, 4638.779
937.6090, 4295.083
938.7310, 4183.411
939.8530, 4032.759
940.9750, 4109.131
942.0970, 4316.525
943.2180, 4637.965
944.3400, 5203.428
945.4610, 5678.926
946.5820, 6328.453
947.7030, 6926.029
948.8240, 7686.635
949.9450, 7820.271
951.0650, 7709.932
952.1860, 7175.630
953.3060, 6553.359
954.4260, 5658.119
955.5460, 4608.904
956.6650, 3873.748
957.7850, 3121.621
958.9040, 2381.564
960.0230, 1931.533
961.1420, 1625.533
962.2610, 1231.592
963.3800, 980.6934
964.4990, 920.8203
965.6170, 695.9746
966.7350, 760.1572
967.8530, 643.3848
968.9710, 402.6396
970.0890, 397.9219
971.2070, 401.2305
972.3240, 288.5703
973.4410, 328.9463
974.5580, 202.3535
975.6750, 235.7930
976.7920, 281.2598
977.9090, 224.7549
979.0250, 185.2764
980.1410, 268.8408
981.2580, 355.4326
982.3740, 265.0518
983.4890, 146.6982
984.6050, 156.3730
985.7200, 35.58984
986.8360, 147.3203
987.9510, 194.2275
989.0660, 372.2969
990.1810, 256.1074
991.2950, 185.9502
992.4100, 349.8213
993.5240, 390.7217
994.6390, 543.5947
995.7530, 480.5527
996.8660, 740.1768
997.9800, 877.0752
999.0940, 1061.118
1000.207, 1322.208
1001.320, 1536.324
1002.433, 1724.472
1003.546, 2312.649
1004.659, 2480.859
1005.772, 2721.099
1006.884, 2660.279
1007.996, 2685.577
1009.108, 2783.144
1010.220, 2849.166
1011.332, 3181.551
1012.444, 3644.994
1013.555, 4387.468
1014.666, 5131.974
1015.777, 5845.529
1016.888, 6735.138
1017.999, 7067.777
1019.110, 7587.094
1020.220, 7715.809
1021.331, 7251.941
1022.441, 6668.760
1023.551, 5672.324
1024.661, 4969.930
1025.770, 4184.800
1026.880, 3581.027
1027.989, 2893.239
1029.098, 2527.218
1030.207, 2164.066
1031.316, 2001.688
1032.425, 1700.086
1033.533, 1571.253
1034.642, 1393.453
1035.750, 1206.264
1036.858, 1215.487
1037.966, 1282.665
1039.073, 1131.035
1040.181, 973.1895
1041.288, 1119.638
1042.396, 924.1650
1043.503, 979.7178
1044.610, 960.3174
1045.716, 959.9668
1046.823, 1020.672
1047.929, 1229.438
1049.036, 1147.336
1050.142, 1291.188
1051.248, 1623.555
1052.353, 1579.481
1053.459, 1861.437
1054.564, 2113.426
1055.670, 2784.439
1056.775, 3316.499
1057.880, 4103.584
1058.985, 5263.695
1060.089, 6701.317
1061.194, 8297.479
1062.298, 9998.922
1063.402, 11023.33
1064.506, 12000.91
1065.610, 11668.17
1066.713, 10622.46
1067.817, 8891.777
1068.920, 7472.117
1070.023, 5874.483
1071.126, 4607.873
1072.229, 3820.285
1073.332, 3064.729
1074.435, 2388.195
1075.537, 1974.404
1076.639, 1864.920
1077.741, 1573.121
1078.843, 1267.688
1079.945, 1012.772
1081.046, 913.3926
1082.148, 748.9150
1083.249, 804.7197
1084.350, 650.9512
1085.451, 687.6904
1086.551, 767.4512
1087.652, 605.2324
1088.752, 680.0469
1089.853, 565.8838
1090.953, 581.7305
1092.053, 696.6377
1093.152, 610.5742
1094.252, 678.7871
1095.351, 698.7637
1096.451, 666.7588
1097.550, 706.7734
1098.649, 801.8779
1099.748, 902.4424
1100.846, 1064.937
1101.945, 1250.027
1103.043, 1434.295
1104.141, 1702.078
1105.239, 1898.306
1106.337, 2311.526
1107.434, 2592.601
1108.532, 2731.009
1109.629, 2803.240
1110.726, 2758.488
1111.823, 2663.076
1112.920, 2302.357
1114.017, 2130.657
1115.113, 1882.977
1116.210, 1436.308
1117.306, 1307.654
1118.402, 1180.025
1119.498, 882.4111
1120.593, 841.8174
1121.689, 755.2471
1122.784, 677.6895
1123.879, 756.1494
1124.974, 645.6221
1126.069, 646.1113
1127.164, 548.6143
1128.259, 584.1309
1129.353, 308.6631
1130.447, 323.2119
1131.541, 168.4844
1132.635, 128.0596
1133.729, 45.64551
1134.822, 74.24414
1135.916, 90.62207
1137.009, 131.2480
1138.102, 47.88574
1139.195, 144.5352
1140.288, 166.1992
1141.380, 169.8799
1142.473, 9.578125
1143.565, 56.58008
1144.657, 66.01270
1145.749, 9.746094
1146.841, 27.48926
1147.932, 32.75684
1149.024, 8.996094
1150.115, 67.24121
1151.206, 1.505859
1152.297, 13.73535
1153.388, 5.5663999E-02
1154.479, 23.17285
1155.569, 103.4004
1156.659, 30.33984
1157.750, 9.913086
1158.839, 33.15820
1159.929, 68.59277
1161.019, 200.5723
1162.108, 14.89746
1163.198, 71.22070
1164.287, 71.24609
1165.376, 10.91406
1166.465, 74.40918
1167.553, 42.75195
1168.642, 59.92676
1169.730, 20.51758
1170.818, 15.85059
1171.906, 25.77734
1172.994, 30.41309
1174.082, 83.05176
1175.170, 62.69531
1176.257, 20.34180
1177.344, 29.99219
1178.431, 33.18652
1179.518, 3.303711
1180.605, 87.96094
1181.691, 5.379883
1182.778, 40.27637
1183.864, 134.9336
1184.950, 90.32227
1186.036, 23.25391
1187.122, 100.9160
1188.207, 59.57715
1189.292, 47.24023
1190.378, 2.096680
1191.463, 71.56152
1192.548, 52.78027
1193.632, 5.849609
1194.717, 17.00195
1195.801, 116.6104
1196.886, 74.22168
1197.970, 31.83203
1199.054, 66.44141
1200.137, 30.63086
1201.221, 100.6592
1202.305, 21.26367
1203.388, 57.99121
1204.471, 64.66016
1205.554, 69.74023
1206.637, 98.29785
1207.719, 33.41602
1208.802, 30.11035
1209.884, 79.19141
1210.966, 34.75488
1212.048, 33.22266
1213.130, 25.34180
1214.212, 8.582031
1215.293, 31.96094
1216.374, 149.8281
1217.456, 110.2588
1218.536, 64.51855
1219.617, 123.0146
1220.698, 45.56836
1221.778, 187.4600
1222.859, 80.91895
1223.939, 28.28320
1225.019, 85.63770
1226.099, 56.98633
1227.178, 98.41797
1228.258, 106.7041
1229.337, 156.4336
1230.417, 110.7764
1231.496, 76.08984
1232.574, 38.39746
1233.653, 22.82520
1234.732, 4.291016
1235.810, 14.74805
1236.888, 19.68164
1237.966, 40.90820
1239.044, 182.1270
1240.122, 64.33691
1241.199, 20.46191
1242.277, 102.7012
1243.354, 182.2168
1244.431, 58.36230
1245.508, 97.49902
1246.585, 188.6260
1247.661, 92.74414
1248.738, 143.8516
1249.814, 96.02734
1250.890, 116.1172
1251.966, 105.8457
1253.042, 88.38770
1254.117, 66.44531
1255.193, 127.4941
1256.268, 86.53223
1257.343, 158.5586
1258.418, 138.5752
1259.493, 106.5801
1260.567, 18.42480
1261.642, 202.5254
1262.716, 268.4668
1263.790, 228.3955
1264.864, 39.52832
1265.938, 208.6660
1267.011, 469.5557
1268.085, 200.4404
1269.158, 262.8418
1270.231, 120.8311
1271.304, 187.8330
1272.377, 182.9121
1273.450, 237.9365
1274.522, 160.7500
1275.594, 408.5498
