##NAMES=Andalusite
##RRUFFID=R050258
##IDEAL CHEMISTRY=Al_2_SiO_5_
##LOCALITY=Bautista Canyon, near Hemet, Riverside County, California, USA
##OWNER=RRUFF
##SOURCE=Marcus Origlieri
##DESCRIPTION=Brown fragment
##STATUS=The identification of this mineral has been confirmed by X-ray diffraction and chemical analysis
##URL=rruff.info/R050258
##MEASURED CHEMISTRY=Al_2.00_Si_1.00_O_5_
##PIN_ID=M00252
##ORIENTATION=Laser parallel to b* (0 1 0). Fiducial mark perpendicular to laser is parallel to c [0 0 1]
111.9760, 0.0000000E+00
113.2080, 0.6386720
114.4400, 86.32617
115.6710, 298.7422
116.9030, 163.4570
118.1340, 264.7100
119.3650, 74.85059
120.5960, 54.55078
121.8270, 230.2041
123.0580, 140.4795
124.2880, 188.2529
125.5190, 18.50977
126.7490, 122.9961
127.9790, 129.5771
129.2090, 138.8525
130.4390, 182.7812
131.6680, 310.3525
132.8980, 393.5391
134.1270, 349.2832
135.3560, 343.5332
136.5850, 481.3574
137.8140, 495.3330
139.0430, 498.8096
140.2710, 501.6992
141.5000, 328.8145
142.7280, 420.1846
143.9560, 397.9209
145.1840, 200.0039
146.4120, 290.4150
147.6390, 279.1377
148.8670, 106.2764
150.0940, 129.7910
151.3210, 168.8223
152.5490, 288.0391
153.7750, 105.4316
155.0020, 104.9912
156.2290, 116.7100
157.4550, 24.58105
158.6810, 25.60254
159.9080, 5.902344
161.1340, 22.22363
162.3590, 103.7441
163.5850, 21.19238
164.8110, 74.96484
166.0360, 63.22266
167.2610, 71.59082
168.4860, 37.08008
169.7110, 213.7031
170.9360, 60.53125
172.1610, 173.3770
173.3850, 138.4277
174.6100, 108.6094
175.8340, 253.9238
177.0580, 245.3623
178.2820, 243.9209
179.5050, 193.5996
180.7290, 250.3906
181.9520, 227.2959
183.1760, 293.3086
184.3990, 447.4277
185.6220, 335.3877
186.8450, 542.4609
188.0670, 581.5439
189.2900, 544.2217
190.5120, 617.2148
191.7340, 675.2451
192.9560, 675.3086
194.1780, 725.4180
195.4000, 944.5762
196.6220, 825.7861
197.8430, 926.0488
199.0640, 858.3672
200.2860, 651.7432
201.5070, 930.1758
202.7270, 732.6680
203.9480, 815.2207
205.1690, 559.8340
206.3890, 420.5088
207.6090, 261.9346
208.8290, 342.3340
210.0490, 274.9268
211.2690, 417.5811
212.4890, 372.3027
213.7080, 345.0918
214.9280, 295.9385
216.1470, 453.8438
217.3660, 354.8193
218.5850, 320.9414
219.8030, 402.2314
221.0220, 336.7568
222.2400, 288.4834
223.4590, 382.3281
224.6770, 397.3643
225.8950, 406.6641
227.1120, 248.1631
228.3300, 496.8691
229.5480, 415.7734
230.7650, 365.7139
231.9820, 484.6895
233.1990, 244.7021
234.4160, 315.7490
235.6330, 497.8320
236.8490, 485.9502
238.0660, 420.1055
239.2820, 469.2949
240.4980, 462.5215
241.7140, 484.7871
242.9300, 300.0879
244.1460, 264.4258
245.3610, 241.8018
246.5770, 303.2148
247.7920, 336.6660
249.0070, 119.1514
250.2220, 195.6758
251.4370, 223.2383
252.6510, 63.83691
253.8660, 138.4736
255.0800, 173.1465
256.2940, 12.85547
257.5080, 101.3965
258.7220, 41.26855
259.9360, 273.8359
261.1490, 80.78320
262.3630, 55.90625
263.5760, 38.18262
264.7890, 126.3975
266.0020, 0.8974610
267.2150, 111.7285
268.4270, 143.4736
269.6400, 93.33008
270.8520, 161.2930
272.0640, 57.94531
273.2760, 224.0986
274.4880, 280.3428
275.7000, 430.6689
276.9120, 544.0801
278.1230, 805.5693
279.3340, 989.1377
280.5450, 1253.778
281.7560, 1826.493
282.9670, 2507.268
284.1780, 3242.102
285.3880, 3809.003
286.5980, 4705.970
287.8090, 5446.969
289.0190, 5789.034
290.2290, 5637.161
291.4380, 4780.348
292.6480, 4229.593
293.8570, 3096.896
295.0670, 2239.256
296.2760, 1690.672
297.4850, 926.1396
298.6930, 632.6592
299.9020, 261.2295
301.1110, 52.15039
302.3190, 130.4873
303.5270, 60.79590
304.7350, 154.0664
305.9430, 119.6846
307.1510, 251.1230
308.3580, 581.9639
309.5660, 972.5146
310.7730, 1924.445
311.9800, 2817.418
313.1870, 4077.436
314.3940, 5395.495
315.6010, 6752.598
316.8070, 8578.342
318.0130, 9600.525
319.2200, 9334.757
320.4260, 8231.023
321.6310, 6505.332
322.8370, 4834.814
324.0430, 3389.781
325.2480, 2323.604
326.4540, 1715.357
327.6590, 991.5127
328.8640, 714.2656
330.0680, 328.9189
331.2730, 286.8164
332.4780, 224.4326
333.6820, 113.7637
334.8860, 188.7598
336.0900, 60.90137
337.2940, 112.7334
338.4980, 267.0342
339.7010, 391.7646
340.9050, 471.4307
342.1080, 784.2559
343.3110, 818.8154
344.5140, 1097.242
345.7170, 1573.211
346.9200, 2077.982
348.1220, 2847.250
349.3240, 3671.320
350.5270, 4713.422
351.7290, 5987.559
352.9310, 7264.684
354.1320, 8520.788
355.3340, 9396.923
356.5350, 9649.098
357.7370, 9514.303
358.9380, 8402.542
360.1390, 7484.814
361.3400, 6552.121
362.5400, 5407.459
363.7410, 4659.832
364.9410, 4053.234
366.1410, 3650.668
367.3410, 3136.133
368.5410, 2756.627
369.7410, 2587.148
370.9400, 2485.697
372.1400, 2301.275
373.3390, 2109.879
374.5380, 2037.508
375.7370, 1881.340
376.9360, 1721.840
378.1350, 1662.545
379.3330, 1596.275
380.5310, 1493.031
381.7300, 1460.811
382.9280, 1512.635
384.1260, 1731.445
385.3230, 1689.299
386.5210, 1799.178
387.7180, 1902.084
388.9160, 1891.012
390.1130, 1999.965
391.3100, 1777.943
392.5060, 2049.945
393.7030, 1850.971
394.9000, 1812.023
396.0960, 1549.098
397.2920, 1592.197
398.4880, 1644.320
399.6840, 1562.469
400.8800, 1545.688
402.0750, 1467.510
403.2710, 1544.795
404.4660, 1656.117
405.6610, 1548.525
406.8560, 1387.969
408.0510, 1500.449
409.2450, 1609.480
410.4400, 1370.982
411.6340, 1389.582
412.8280, 1310.236
414.0220, 1446.928
415.2160, 1480.650
416.4100, 1469.420
417.6030, 1480.223
418.7970, 1434.059
419.9900, 1256.926
421.1830, 1451.822
422.3760, 1396.752
423.5690, 1119.711
424.7610, 1214.701
425.9540, 1121.723
427.1460, 1196.773
428.3380, 1106.855
429.5300, 1032.967
430.7220, 908.1055
431.9140, 935.2754
433.1050, 947.4727
434.2970, 1046.701
435.4880, 1126.959
436.6790, 1228.244
437.8700, 1352.557
439.0610, 1397.902
440.2510, 1469.275
441.4420, 1489.676
442.6320, 1955.107
443.8220, 2072.566
445.0120, 2408.506
446.2020, 2402.211
447.3910, 2926.873
448.5810, 3203.539
449.7700, 3174.146
450.9600, 2675.787
452.1490, 2075.457
453.3370, 1437.158
454.5260, 1029.891
455.7150, 735.2617
456.9030, 625.4453
458.0910, 399.2676
459.2800, 349.1191
460.4670, 236.0059
461.6550, 338.9297
462.8430, 84.88281
464.0300, 263.8672
465.2180, 80.11328
466.4050, 29.10742
467.5920, 85.08789
468.7790, 23.07812
469.9650, 164.0566
471.1520, 119.0879
472.3380, 98.13867
473.5250, 63.19727
474.7110, 52.73633
475.8970, 90.30078
477.0820, 3.357422
478.2680, 269.3965
479.4540, 98.53711
480.6390, 161.7051
481.8240, 113.9219
483.0090, 54.17188
484.1940, 151.4277
485.3780, 127.7285
486.5630, 180.0488
487.7470, 92.58398
488.9320, 92.25195
490.1160, 430.9609
491.3000, 367.7012
492.4830, 567.4688
493.6670, 535.2676
494.8500, 627.1035
496.0340, 852.9707
497.2170, 1008.869
498.4000, 1123.801
499.5820, 1282.766
500.7650, 1369.756
501.9480, 1522.738
503.1300, 1854.830
504.3120, 1823.910
505.4940, 2052.014
506.6760, 2254.145
507.8580, 2139.303
509.0390, 2298.480
510.2210, 2283.686
511.4020, 2479.914
512.5830, 2336.170
513.7640, 2081.449
514.9450, 2315.752
516.1250, 2408.080
517.3060, 2193.434
518.4860, 2364.811
519.6660, 2149.211
520.8460, 2081.635
522.0260, 2269.080
523.2060, 2379.553
524.3850, 2498.047
525.5650, 2266.564
526.7440, 2484.102
527.9230, 2789.662
529.1020, 2688.248
530.2810, 3063.854
531.4590, 3310.482
532.6380, 3552.133
533.8160, 3658.807
534.9940, 4062.500
536.1720, 4310.217
537.3500, 4683.955
538.5270, 4874.713
539.7050, 5348.494
540.8820, 5309.297
542.0590, 5888.797
543.2360, 6081.240
544.4130, 6250.115
545.5900, 6536.102
546.7660, 6783.125
547.9430, 7123.164
549.1190, 7394.113
550.2950, 7500.480
551.4710, 7435.494
552.6470, 7244.521
553.8220, 7083.664
554.9980, 6806.721
556.1730, 6490.793
557.3480, 6281.348
558.5230, 5930.453
559.6980, 5756.570
560.8730, 5675.703
562.0470, 5462.850
563.2220, 5574.010
564.3960, 5699.188
565.5700, 5350.377
566.7440, 5372.580
567.9170, 5519.795
569.0910, 5619.027
570.2640, 5366.271
571.4380, 5544.539
572.6110, 5354.824
573.7840, 5176.125
574.9570, 5055.461
576.1290, 4708.820
577.3020, 4617.273
578.4740, 4481.773
579.6460, 4355.367
580.8180, 3868.088
581.9900, 4058.846
583.1620, 3747.645
584.3330, 3382.502
585.5040, 3463.395
586.6760, 3330.361
587.8470, 3121.430
589.0180, 2992.539
590.1880, 2944.707
591.3590, 2815.947
592.5290, 2712.234
593.7000, 2589.551
594.8700, 2818.938
596.0400, 2775.422
597.2090, 2706.945
598.3790, 2967.492
599.5490, 2798.115
600.7180, 2844.824
601.8870, 2978.148
603.0560, 3186.135
604.2250, 3204.396
605.3940, 3441.820
606.5620, 3769.135
607.7300, 3949.912
608.8990, 4260.734
610.0670, 4421.293
611.2350, 4715.244
612.4020, 4978.555
613.5700, 5196.355
614.7370, 5382.744
615.9050, 5551.125
617.0720, 5648.406
618.2390, 5775.350
619.4060, 5826.172
620.5720, 5943.648
621.7390, 5883.564
622.9050, 5929.996
624.0710, 6006.172
625.2370, 6203.031
626.4030, 6415.627
627.5690, 6501.309
628.7340, 6371.215
629.9000, 6529.887
631.0650, 6332.641
632.2300, 6366.783
633.3950, 6145.828
634.5600, 6051.000
635.7240, 6073.354
636.8890, 5648.834
638.0530, 5679.076
639.2170, 5745.156
640.3810, 5513.625
641.5450, 5286.422
642.7080, 5349.039
643.8720, 4990.939
645.0350, 5289.805
646.1980, 5062.660
647.3610, 4946.514
648.5240, 4678.361
649.6870, 4244.203
650.8490, 3925.037
652.0120, 3460.865
653.1740, 3210.686
654.3360, 2822.500
655.4980, 2601.305
656.6600, 2324.104
657.8210, 1940.893
658.9830, 1696.674
660.1440, 1613.443
661.3050, 1541.203
662.4660, 1203.955
663.6270, 851.6973
664.7870, 782.4258
665.9480, 752.1426
667.1080, 334.8496
668.2680, 357.5449
669.4280, 202.2285
670.5880, 283.8965
671.7480, 314.5527
672.9070, 348.1973
674.0670, 299.1055
675.2260, 222.4434
676.3850, 150.0430
677.5440, 95.62695
678.7030, 25.19922
679.8610, 36.75195
681.0200, 206.7090
682.1780, 32.28125
683.3360, 18.12109
684.4940, 4.496094
685.6520, 195.1309
686.8090, 5.875000
687.9670, 107.3613
689.1240, 68.41797
690.2810, 7.753906
691.4380, 183.9082
692.5950, 111.9590
693.7520, 308.1074
694.9080, 229.1504
696.0650, 66.82617
697.2210, 289.1504
698.3770, 26.10352
699.5330, 331.0332
700.6880, 491.9453
701.8440, 391.8320
702.9990, 588.6973
704.1550, 726.5371
705.3100, 678.3574
706.4650, 875.1523
707.6190, 1002.557
708.7740, 1187.303
709.9290, 1351.311
711.0830, 1412.344
712.2370, 1639.184
713.3910, 1911.580
714.5450, 1972.180
715.6980, 1623.148
716.8520, 1711.250
718.0050, 1493.221
719.1580, 1187.041
720.3110, 899.3633
721.4640, 764.2168
722.6170, 655.4922
723.7700, 357.2246
724.9220, 437.0352
726.0740, 500.4746
727.2260, 638.4395
728.3780, 464.2148
729.5300, 495.1621
730.6810, 442.0332
731.8330, 544.0820
732.9840, 484.2168
734.1350, 443.9824
735.2860, 504.9805
736.4370, 312.0605
737.5880, 436.7676
738.7380, 306.3516
739.8880, 174.3418
741.0390, 262.9922
742.1890, 227.8457
743.3380, 200.9688
744.4880, 199.7871
745.6380, 46.08203
746.7870, 55.22070
747.9360, 146.6797
749.0850, 195.1582
750.2340, 19.50586
751.3830, 13.10938
752.5310, 241.8750
753.6800, 208.3184
754.8280, 370.4688
755.9760, 101.5918
757.1240, 246.6523
758.2720, 353.7227
759.4190, 114.7656
760.5670, 291.7793
761.7140, 161.7656
762.8610, 190.7070
764.0080, 2.376953
765.1550, 41.47070
766.3020, 97.27539
767.4480, 62.00781
768.5950, 223.6582
769.7410, 374.2461
770.8870, 178.7715
772.0330, 90.23242
773.1780, 331.6113
774.3240, 139.9336
775.4690, 164.1816
776.6140, 185.3594
777.7590, 314.4688
778.9040, 238.5137
780.0490, 283.4922
781.1940, 456.4082
782.3380, 588.2617
783.4820, 495.0566
784.6260, 832.7891
785.7700, 695.4648
786.9140, 817.0801
788.0580, 947.6348
789.2010, 907.1289
790.3450, 1182.562
791.4880, 1051.936
792.6310, 1159.250
793.7730, 1433.502
794.9160, 1603.695
796.0590, 1659.824
797.2010, 1841.891
798.3430, 1929.898
799.4850, 2167.844
800.6270, 2388.727
801.7690, 2762.547
802.9100, 3036.307
804.0520, 3267.000
805.1930, 3650.635
806.3340, 3972.205
807.4750, 4443.713
808.6160, 5063.160
809.7560, 5461.541
810.8970, 5957.859
812.0370, 6330.113
813.1770, 7195.307
814.3170, 7707.434
815.4570, 8087.498
816.5960, 8392.447
817.7360, 8490.762
818.8750, 8458.633
820.0140, 8263.840
821.1530, 7960.582
822.2920, 7405.176
823.4310, 6993.688
824.5690, 6104.137
825.7070, 5865.629
826.8460, 5181.658
827.9840, 4465.018
829.1220, 4112.320
830.2590, 3922.453
831.3970, 3199.631
832.5340, 3022.746
833.6710, 2817.326
834.8080, 2455.316
835.9450, 2075.242
837.0820, 1853.104
838.2190, 1570.926
839.3550, 1242.688
840.4910, 1084.385
841.6270, 741.0742
842.7630, 818.6973
843.8990, 403.2715
845.0350, 575.7754
846.1700, 153.2168
847.3060, 219.5859
848.4410, 281.8750
849.5760, 29.09375
850.7100, 95.06445
851.8450, 207.7715
852.9800, 18.97656
854.1140, 224.3105
855.2480, 317.8828
856.3820, 8.255859
857.5160, 16.72266
858.6500, 71.82812
859.7830, 16.90430
860.9170, 113.4746
862.0500, 156.0332
863.1830, 10.20703
864.3160, 34.32812
865.4480, 150.6523
866.5810, 38.81641
867.7130, 23.87891
868.8460, 124.5312
869.9780, 247.1230
871.1100, 12.96875
872.2410, 42.06250
873.3730, 154.0059
874.5050, 191.7266
875.6360, 1.693359
876.7670, 90.18750
877.8980, 129.6660
879.0290, 28.08789
880.1590, 263.6055
881.2900, 95.03516
882.4200, 3.484375
883.5500, 309.9883
884.6800, 138.8027
885.8100, 318.7910
886.9400, 479.7988
888.0690, 422.3926
889.1990, 489.3438
890.3280, 766.0781
891.4570, 850.4199
892.5860, 824.0996
893.7140, 1057.777
894.8430, 1212.834
895.9710, 1723.449
897.1000, 1689.102
898.2280, 2245.053
899.3560, 2423.141
900.4830, 2648.736
901.6110, 3041.355
902.7380, 3401.188
903.8660, 3627.205
904.9930, 4259.078
906.1200, 4889.512
907.2460, 5749.984
908.3730, 6727.277
909.5000, 7795.330
910.6260, 9857.203
911.7520, 11681.26
912.8780, 14795.42
914.0040, 17539.14
915.1290, 20521.47
916.2550, 23098.93
917.3800, 24315.05
918.5050, 23450.15
919.6300, 21251.20
920.7550, 17802.20
921.8800, 15207.15
923.0040, 12581.05
924.1290, 10540.90
925.2530, 9231.703
926.3770, 8226.453
927.5010, 7037.154
928.6250, 6262.811
929.7480, 5216.414
930.8720, 4709.973
931.9950, 4097.484
933.1180, 3427.945
934.2410, 3130.363
935.3640, 2895.732
936.4860, 2634.059
937.6090, 2254.338
938.7310, 1969.572
939.8530, 1946.760
940.9750, 1679.904
942.0970, 1744.006
943.2180, 1837.061
944.3400, 1788.074
945.4610, 1957.043
946.5820, 1599.969
947.7030, 1892.854
948.8240, 1850.695
949.9450, 1510.494
951.0650, 1574.250
952.1860, 1610.969
953.3060, 1518.645
954.4260, 1386.328
955.5460, 1222.975
956.6650, 1223.582
957.7850, 1193.152
958.9040, 1122.727
960.0230, 1164.266
961.1420, 1118.766
962.2610, 959.2402
963.3800, 1288.676
964.4990, 1023.074
965.6170, 1211.461
966.7350, 1267.811
967.8530, 1387.537
968.9710, 1522.830
970.0890, 1700.084
971.2070, 1463.305
972.3240, 1159.646
973.4410, 1361.797
974.5580, 1460.914
975.6750, 1526.047
976.7920, 1523.094
977.9090, 1260.855
979.0250, 1422.201
980.1410, 1804.418
981.2580, 1828.527
982.3740, 1538.893
983.4890, 1695.572
984.6050, 1453.689
985.7200, 1914.490
986.8360, 1484.879
987.9510, 1744.064
989.0660, 1917.355
990.1810, 1748.707
991.2950, 1871.498
992.4100, 2053.699
993.5240, 2370.418
994.6390, 2777.553
995.7530, 3276.020
996.8660, 3905.074
997.9800, 4603.871
999.0940, 5478.797
1000.207, 6430.051
1001.320, 7354.766
1002.433, 8036.623
1003.546, 8190.957
1004.659, 7910.602
1005.772, 7390.953
1006.884, 6791.172
1007.996, 5749.699
1009.108, 4709.293
1010.220, 3984.422
1011.332, 3707.828
1012.444, 3066.973
1013.555, 2603.789
1014.666, 2642.846
1015.777, 1823.391
1016.888, 1751.033
1017.999, 1848.312
1019.110, 1593.535
1020.220, 1890.869
1021.331, 1645.902
1022.441, 1434.727
1023.551, 1516.832
1024.661, 1340.172
1025.770, 1320.510
1026.880, 1298.854
1027.989, 1302.195
1029.098, 1245.535
1030.207, 1198.877
1031.316, 1148.438
1032.425, 1339.781
1033.533, 1092.133
1034.642, 1208.508
1035.750, 1202.957
1036.858, 1131.418
1037.966, 1045.887
1039.073, 963.4297
1040.181, 915.9727
1041.288, 839.5586
1042.396, 748.0820
1043.503, 678.7109
1044.610, 563.3750
1045.716, 398.0547
1046.823, 315.7383
1047.929, 351.4375
1049.036, 457.1445
1050.142, 410.8789
1051.248, 525.6133
1052.353, 203.3633
1053.459, 226.1094
1054.564, 437.8711
1055.670, 209.6367
1056.775, 462.4062
1057.880, 452.1797
1058.985, 452.9648
1060.089, 490.7578
1061.194, 628.5586
1062.298, 817.4062
1063.402, 740.2812
1064.506, 796.1914
1065.610, 710.1133
1066.713, 663.1523
1067.817, 660.9883
1068.920, 515.9531
1070.023, 386.9453
1071.126, 284.9531
1072.229, 774.9648
1073.332, 569.0156
1074.435, 580.0781
1075.537, 677.1484
1076.639, 574.2227
1077.741, 494.3047
1078.843, 440.3984
1079.945, 409.4297
1081.046, 384.0508
1082.148, 367.7930
1083.249, 386.9727
1084.350, 311.1719
1085.451, 332.3711
1086.551, 336.5898
1087.652, 269.8164
1088.752, 196.0469
1089.853, 323.2891
1090.953, 379.5469
1092.053, 210.8086
1093.152, 96.07812
1094.252, 142.3633
1095.351, 30.65625
1096.451, 262.9766
1097.550, 92.44531
1098.649, 288.7852
1099.748, 27.57422
1100.846, 186.8398
1101.945, 144.1992
1103.043, 53.57422
1104.141, 159.0430
1105.239, 171.3047
1106.337, 28.17578
1107.434, 290.4531
1108.532, 85.82812
1109.629, 102.8789
1110.726, 227.4414
1111.823, 19.25391
1112.920, 62.95703
1114.017, 9.355469
1115.113, 30.67578
1116.210, 2.503906
1117.306, 169.8672
1118.402, 53.21094
1119.498, 353.2695
1120.593, 0.1953130
1121.689, 65.42969
1122.784, 298.1836
1123.879, 190.9727
1124.974, 257.8086
1126.069, 349.7070
1127.164, 309.6367
1128.259, 229.7031
1129.353, 233.7891
1130.447, 153.9102
1131.541, 122.5000
1132.635, 258.7109
1133.729, 25.03516
1134.822, 126.2461
1135.916, 83.60938
1137.009, 59.07812
1138.102, 43.59375
1139.195, 85.14453
1140.288, 261.8750
1141.380, 99.58203
1142.473, 130.2695
1143.565, 396.9844
1144.657, 278.9492
1145.749, 181.0156
1146.841, 318.8555
1147.932, 59.71875
1149.024, 277.8906
1150.115, 200.7734
1151.206, 318.1992
1152.297, 441.1562
1153.388, 436.1328
1154.479, 265.1406
1155.569, 263.6211
1156.659, 288.3008
1157.750, 360.5469
1158.839, 17.61719
1159.929, 429.6836
1161.019, 212.8047
1162.108, 14.06641
1163.198, 396.1602
1164.287, 234.5625
1165.376, 227.5859
1166.465, 479.0625
1167.553, 372.1914
1168.642, 439.4023
1169.730, 481.5898
1170.818, 447.5820
1171.906, 508.1836
1172.994, 225.0117
1174.082, 440.2148
1175.170, 539.5000
1176.257, 324.1016
1177.344, 411.2617
1178.431, 415.9062
1179.518, 279.3359
1180.605, 256.8984
1181.691, 457.5703
1182.778, 445.7148
1183.864, 542.5352
1184.950, 459.5000
1186.036, 533.0859
1187.122, 471.9883
1188.207, 430.5312
1189.292, 545.9531
1190.378, 341.0820
1191.463, 474.8477
1192.548, 392.4805
1193.632, 653.4023
1194.717, 598.3477
1195.801, 420.7461
1196.886, 397.0000
1197.970, 296.3125
1199.054, 231.3633
1200.137, 254.3633
1201.221, 116.6016
1202.305, 390.8906
1203.388, 329.0508
1204.471, 597.3281
1205.554, 675.0508
1206.637, 406.7891
1207.719, 427.0586
1208.802, 250.6523
1209.884, 268.9727
1210.966, 261.0352
1212.048, 161.1914
1213.130, 488.5391
1214.212, 535.8281
1215.293, 373.0547
1216.374, 285.8711
1217.456, 367.0820
1218.536, 249.2891
1219.617, 362.4922
1220.698, 126.6367
1221.778, 137.8242
1222.859, 253.0117
1223.939, 209.8164
1225.019, 249.3320
1226.099, 308.6289
1227.178, 105.9648
1228.258, 369.1055
1229.337, 73.23828
1230.417, 129.9492
1231.496, 317.0625
1232.574, 406.1680
1233.653, 367.2656
1234.732, 496.1953
1235.810, 26.66797
1236.888, 231.3125
1237.966, 142.0742
1239.044, 169.0312
1240.122, 132.7500
1241.199, 143.1602
1242.277, 192.9062
1243.354, 434.6094
1244.431, 265.6094
1245.508, 37.62109
1246.585, 208.6055
1247.661, 31.13672
1248.738, 340.2656
1249.814, 193.2773
1250.890, 199.2383
1251.966, 337.4688
1253.042, 206.4375
1254.117, 211.3867
1255.193, 273.5312
1256.268, 272.4531
1257.343, 160.3555
1258.418, 306.6914
1259.493, 313.6133
1260.567, 77.46484
1261.642, 293.7422
1262.716, 414.5508
1263.790, 425.9688
1264.864, 270.7109
1265.938, 471.2891
1267.011, 397.3555
1268.085, 205.0664
1269.158, 169.8555
1270.231, 183.5273
1271.304, 223.1719
1272.377, 261.8398
1273.450, 160.2578
1274.522, 147.2969
1275.594, 355.9023
1276.666, 380.1055
1277.738, 148.0430
1278.810, 8.195313
1279.882, 102.6797
1280.953, 389.5742
1282.025, 452.4648
1283.096, 264.0664
1284.167, 118.4023
1285.238, 75.69141
1286.308, 183.3086
1287.379, 231.2656
1288.449, 279.8125
1289.519, 301.5312
1290.589, 395.5039
1291.659, 229.5938
