##NAMES=Andalusite
##RRUFFID=R050258
##IDEAL CHEMISTRY=Al_2_SiO_5_
##LOCALITY=Bautista Canyon, near Hemet, Riverside County, California, USA
##OWNER=RRUFF
##SOURCE=Marcus Origlieri
##DESCRIPTION=Brown fragment
##STATUS=The identification of this mineral has been confirmed by X-ray diffraction and chemical analysis
##URL=rruff.info/R050258
##MEASURED CHEMISTRY=Al_2.00_Si_1.00_O_5_
##PIN_ID=M00208
##ORIENTATION=Laser parallel to -c* (0 0 -1). Fiducial mark perpendicular to laser is parallel to a [1 0 0]
99.64900, 0.0000000E+00
100.8830, 216.0024
102.1160, 3.792969
103.3490, 65.34082
104.5820, 96.64990
105.8150, 361.3535
107.0470, 711.2471
108.2800, 882.5381
109.5120, 1362.652
110.7440, 1034.126
111.9760, 364.5894
113.2080, 278.7476
114.4400, 296.4453
115.6710, 585.5659
116.9030, 426.9668
118.1340, 285.4795
119.3650, 288.9590
120.5960, 165.2935
121.8270, 207.3862
123.0580, 295.1562
124.2880, 342.5371
125.5190, 152.4717
126.7490, 160.9150
127.9790, 222.8267
129.2090, 326.8477
130.4390, 360.1089
131.6680, 349.3267
132.8980, 246.1538
134.1270, 244.2109
135.3560, 424.4985
136.5850, 267.0137
137.8140, 436.7412
139.0430, 586.6812
140.2710, 540.8184
141.5000, 467.1577
142.7280, 305.6626
143.9560, 198.3276
145.1840, 175.1494
146.4120, 163.1230
147.6390, 148.2461
148.8670, 139.5151
150.0940, 171.9277
151.3210, 123.4819
152.5490, 144.1753
153.7750, 124.0044
155.0020, 216.9756
156.2290, 120.1079
157.4550, 93.42676
158.6810, 27.24805
159.9080, 31.20020
161.1340, 54.75439
162.3590, 42.13867
163.5850, 124.8325
164.8110, 184.7432
166.0360, 278.6191
167.2610, 396.6631
168.4860, 281.8667
169.7110, 374.2227
170.9360, 361.7251
172.1610, 264.3696
173.3850, 288.1182
174.6100, 219.8643
175.8340, 225.3652
177.0580, 272.4175
178.2820, 291.9194
179.5050, 308.7930
180.7290, 442.7217
181.9520, 495.4268
183.1760, 561.4702
184.3990, 700.5806
185.6220, 870.7603
186.8450, 1152.012
188.0670, 1323.336
189.2900, 1419.734
190.5120, 1344.206
191.7340, 1352.753
192.9560, 1494.375
194.1780, 1454.072
195.4000, 1503.844
196.6220, 1462.691
197.8430, 1556.614
199.0640, 1510.611
200.2860, 1605.683
201.5070, 1833.830
202.7270, 1814.049
203.9480, 1549.337
205.1690, 1032.698
206.3890, 643.1265
207.6090, 344.6250
208.8290, 109.2954
210.0490, 99.30713
211.2690, 12.66357
212.4890, 28.43896
213.7080, 12.60498
214.9280, 12.98730
216.1470, 51.49512
217.3660, 7.932617
218.5850, 80.32471
219.8030, 28.68262
221.0220, 45.99316
222.2400, 119.2954
223.4590, 20.45068
224.6770, 106.7681
225.8950, 64.95068
227.1120, 94.09766
228.3300, 76.20850
229.5480, 19.71680
230.7650, 13.67822
231.9820, 61.66455
233.1990, 239.6641
234.4160, 236.6807
235.6330, 253.7041
236.8490, 357.7251
238.0660, 382.7539
239.2820, 623.8213
240.4980, 567.9258
241.7140, 540.0684
242.9300, 414.2485
244.1460, 346.4663
245.3610, 258.7212
246.5770, 210.2427
247.7920, 246.7402
249.0070, 15.19287
250.2220, 102.2461
251.4370, 95.52051
252.6510, 11.99121
253.8660, 25.63770
255.0800, 20.32422
256.2940, 64.87891
257.5080, 19.48486
258.7220, 189.7007
259.9360, 444.0366
261.1490, 338.4844
262.3630, 21.96094
263.5760, 149.6914
264.7890, 27.43945
266.0020, 151.2788
267.2150, 219.2051
268.4270, 353.2163
269.6400, 401.3086
270.8520, 550.4785
272.0640, 733.7246
273.2760, 963.0449
274.4880, 1101.437
275.7000, 1600.890
276.9120, 2046.408
278.1230, 2515.988
279.3340, 3454.626
280.5450, 5027.322
281.7560, 6564.076
282.9670, 8570.884
284.1780, 10486.75
285.3880, 12281.67
286.5980, 13739.64
287.8090, 14907.66
289.0190, 15762.74
290.2290, 15272.86
291.4380, 13672.04
292.6480, 11508.27
293.8570, 9433.546
295.0670, 7450.873
296.2760, 5607.248
297.4850, 4353.670
298.6930, 3116.138
299.9020, 2075.652
301.1110, 1452.215
302.3190, 1101.822
303.5270, 850.4736
304.7350, 829.8281
305.9430, 873.5254
307.1510, 1359.230
308.3580, 1895.949
309.5660, 3150.671
310.7730, 5203.415
311.9800, 7472.203
313.1870, 10203.03
314.3940, 12438.91
315.6010, 14390.95
316.8070, 16876.30
318.0130, 18389.63
319.2200, 18093.78
320.4260, 16564.12
321.6310, 14269.85
322.8370, 11723.44
324.0430, 8899.753
325.2480, 6702.541
326.4540, 5203.154
327.6590, 3734.578
328.8640, 2808.069
330.0680, 2094.391
331.2730, 1547.770
332.4780, 1333.181
333.6820, 1117.363
334.8860, 1024.840
336.0900, 893.5576
337.2940, 949.8887
338.4980, 818.4609
339.7010, 962.0654
340.9050, 1103.700
342.1080, 1171.367
343.3110, 1450.064
344.5140, 1871.794
345.7170, 2641.554
346.9200, 3473.343
348.1220, 5084.164
349.3240, 6898.016
350.5270, 8818.897
351.7290, 10791.81
352.9310, 12623.75
354.1320, 13940.72
355.3340, 15260.72
356.5350, 15543.74
357.7370, 15261.79
358.9380, 13967.86
360.1390, 12333.95
361.3400, 10676.04
362.5400, 8947.062
363.7410, 7573.300
364.9410, 6342.990
366.1410, 5321.189
367.3410, 4579.090
368.5410, 3949.330
369.7410, 3483.722
370.9400, 3192.523
372.1400, 2621.387
373.3390, 2353.860
374.5380, 2121.204
375.7370, 1835.566
376.9360, 1602.950
378.1350, 1563.354
379.3330, 1620.778
380.5310, 1311.223
381.7300, 1427.687
382.9280, 1434.171
384.1260, 1431.676
385.3230, 1434.200
386.5210, 1547.743
387.7180, 1639.309
388.9160, 1824.891
390.1130, 1881.495
391.3100, 1853.139
392.5060, 1611.818
393.7030, 1505.536
394.9000, 1405.289
396.0960, 1158.075
397.2920, 1177.895
398.4880, 1114.747
399.6840, 1043.271
400.8800, 966.1855
402.0750, 1048.170
403.2710, 1073.862
404.4660, 1154.394
405.6610, 1233.345
406.8560, 1462.092
408.0510, 1485.283
409.2450, 1809.522
410.4400, 1976.789
411.6340, 2287.080
412.8280, 2387.407
414.0220, 2650.758
415.2160, 2767.135
416.4100, 2650.536
417.6030, 2534.961
418.7970, 2184.410
419.9900, 2043.884
421.1830, 1643.380
422.3760, 1232.899
423.5690, 1030.440
424.7610, 796.0039
425.9540, 702.5908
427.1460, 562.1992
428.3380, 604.8281
429.5300, 431.4805
430.7220, 376.1533
431.9140, 252.8467
433.1050, 403.5605
434.2970, 419.2959
435.4880, 327.0518
436.6790, 425.8271
437.8700, 461.6240
439.0610, 688.4414
440.2510, 664.2783
441.4420, 818.1357
442.6320, 1268.014
443.8220, 1313.913
445.0120, 1720.833
446.2020, 1674.773
447.3910, 1895.734
448.5810, 2024.717
449.7700, 1954.721
450.9600, 1676.745
452.1490, 1352.792
453.3370, 978.8584
454.5260, 582.9482
455.7150, 331.0566
456.9030, 145.1865
458.0910, 46.14160
459.2800, 124.5293
460.4670, 211.4482
461.6550, 190.4590
462.8430, 139.5547
464.0300, 300.7109
465.2180, 195.0068
466.4050, 340.3906
467.5920, 196.9336
468.7790, 244.5518
469.9650, 63.28223
471.1520, 64.03320
472.3380, 78.81250
473.5250, 62.37988
474.7110, 171.5918
475.8970, 1.825195
477.0820, 227.0664
478.2680, 263.3447
479.4540, 376.6592
480.6390, 434.9941
481.8240, 394.3643
483.0090, 459.7578
484.1940, 380.2051
485.3780, 422.6943
486.5630, 175.2432
487.7470, 238.8252
488.9320, 202.4688
490.1160, 175.1387
491.3000, 222.8359
492.4830, 172.5762
493.6670, 116.3408
494.8500, 296.1299
496.0340, 339.9404
497.2170, 465.7705
498.4000, 516.6172
499.5820, 486.4854
500.7650, 762.3711
501.9480, 838.2725
503.1300, 841.1904
504.3120, 970.1289
505.4940, 1036.083
506.6760, 1216.059
507.8580, 1238.049
509.0390, 1298.051
510.2210, 1529.080
511.4020, 1393.121
512.5830, 1323.188
513.7640, 1458.270
514.9450, 1246.376
516.1250, 1142.502
517.3060, 1404.639
518.4860, 1335.785
519.6660, 1230.941
520.8460, 1200.109
522.0260, 1200.288
523.2060, 1247.005
524.3850, 1316.341
525.5650, 1453.878
526.7440, 1520.093
527.9230, 1667.316
529.1020, 1756.549
530.2810, 1919.790
531.4590, 2035.039
532.6380, 2160.820
533.8160, 2274.085
534.9940, 2512.358
536.1720, 2899.018
537.3500, 3186.305
538.5270, 3454.598
539.7050, 3785.211
540.8820, 4374.516
542.0590, 4726.113
543.2360, 5371.967
544.4130, 5792.405
545.5900, 6427.440
546.7660, 6763.986
547.9430, 7093.434
549.1190, 7325.625
550.2950, 7355.001
551.4710, 7275.623
552.6470, 6658.971
553.8220, 6131.699
554.9980, 5681.047
556.1730, 5409.408
557.3480, 4891.754
558.5230, 4584.104
559.6980, 4137.451
560.8730, 4031.798
562.0470, 3936.146
563.2220, 3880.491
564.3960, 3764.836
565.5700, 3726.178
566.7440, 3734.521
567.9170, 3915.859
569.0910, 3871.197
570.2640, 3849.203
571.4380, 3665.873
572.6110, 3645.216
573.7840, 3448.567
574.9570, 3214.939
576.1290, 3076.336
577.3020, 2973.772
578.4740, 2741.248
579.6460, 2752.784
580.8180, 2434.375
581.9900, 2421.023
583.1620, 2330.744
584.3330, 2151.489
585.5040, 2090.312
586.6760, 1931.180
587.8470, 1933.082
589.0180, 1835.016
590.1880, 1762.002
591.3590, 1627.991
592.5290, 1789.229
593.7000, 1690.280
594.8700, 1588.384
596.0400, 1959.445
597.2090, 1592.521
598.3790, 1661.969
599.5490, 1860.929
600.7180, 1991.553
601.8870, 2059.637
603.0560, 2111.289
604.2250, 2105.793
605.3940, 2300.053
606.5620, 2614.343
607.7300, 2572.599
608.8990, 2740.535
610.0670, 2869.376
611.2350, 2910.242
612.4020, 3185.870
613.5700, 3192.443
614.7370, 3327.312
615.9050, 3479.103
617.0720, 3609.461
618.2390, 3581.791
619.4060, 3642.905
620.5720, 3732.062
621.7390, 3855.639
622.9050, 3824.098
624.0710, 3939.070
625.2370, 4038.670
626.4030, 4028.309
627.5690, 4267.909
628.7340, 4193.421
629.9000, 4062.970
631.0650, 4356.506
632.2300, 4173.624
633.3950, 4029.819
634.5600, 4037.760
635.7240, 3884.059
636.8890, 4026.186
638.0530, 3776.698
639.2170, 3830.074
640.3810, 3609.570
641.5450, 3691.258
642.7080, 3580.855
643.8720, 3713.955
645.0350, 3599.128
646.1980, 3591.773
647.3610, 3222.400
648.5240, 3332.005
649.6870, 2927.590
650.8490, 2717.155
652.0120, 2555.698
653.1740, 2331.220
654.3360, 2023.718
655.4980, 2026.195
656.6600, 1927.648
657.8210, 1890.081
658.9830, 1670.488
660.1440, 1647.873
661.3050, 1467.233
662.4660, 1239.570
663.6270, 1063.882
664.7870, 776.1699
665.9480, 510.4316
667.1080, 456.6699
668.2680, 290.8818
669.4280, 312.0674
670.5880, 251.2275
671.7480, 11.63965
672.9070, 179.4609
674.0670, 86.53418
675.2260, 1.421875
676.3850, 102.5918
677.5440, 82.57715
678.7030, 8.535156
679.8610, 149.4600
681.0200, 20.35645
682.1780, 140.7783
683.3360, 65.97949
684.4940, 31.29102
685.6520, 118.6133
686.8090, 37.02832
687.9670, 48.49707
689.1240, 67.02441
690.2810, 42.37695
691.4380, 133.7471
692.5950, 23.91504
693.7520, 205.3750
694.9080, 115.6338
696.0650, 213.8594
697.2210, 393.0527
698.3770, 358.2148
699.5330, 458.3438
700.6880, 520.4404
701.8440, 707.5039
702.9990, 696.5342
704.1550, 780.5303
705.3100, 953.4932
706.4650, 1053.439
707.6190, 1391.443
708.7740, 1624.525
709.9290, 1956.783
711.0830, 2295.350
712.2370, 2480.541
713.3910, 2767.095
714.5450, 2923.410
715.6980, 2830.045
716.8520, 2551.459
718.0050, 2259.040
719.1580, 1974.581
720.3110, 1717.031
721.4640, 1310.914
722.6170, 1043.298
723.7700, 821.6592
724.9220, 607.4209
726.0740, 554.1240
727.2260, 389.3926
728.3780, 362.3203
729.5300, 424.6826
730.6810, 269.8760
731.8330, 456.5078
732.9840, 325.1250
734.1350, 435.3047
735.2860, 436.2793
736.4370, 271.3105
737.5880, 365.4014
738.7380, 152.0645
739.8880, 113.8916
741.0390, 195.3311
742.1890, 196.0098
743.3380, 171.7158
744.4880, 206.1309
745.6380, 117.8564
746.7870, 25.71387
747.9360, 135.4375
749.0850, 80.16504
750.2340, 190.8477
751.3830, 109.4941
752.5310, 179.1016
753.6800, 196.6484
754.8280, 79.13574
755.9760, 11.56152
757.1240, 15.89160
758.2720, 148.1299
759.4190, 28.30469
760.5670, 121.3926
761.7140, 61.58691
762.8610, 7.700195
764.0080, 71.92090
765.1550, 28.71973
766.3020, 85.72852
767.4480, 61.67578
768.5950, 62.00098
769.7410, 15.75098
770.8870, 76.38281
772.0330, 88.44238
773.1780, 131.4277
774.3240, 145.1445
775.4690, 238.1953
776.6140, 122.9834
777.7590, 235.7012
778.9040, 192.3584
780.0490, 204.9521
781.1940, 320.4814
782.3380, 299.9512
783.4820, 483.3613
784.6260, 514.7158
785.7700, 554.6738
786.9140, 643.2568
788.0580, 634.4434
789.2010, 631.5752
790.3450, 695.6504
791.4880, 844.6699
792.6310, 854.6338
793.7730, 994.1611
794.9160, 1083.393
796.0590, 1199.188
797.2010, 1343.929
798.3430, 1394.613
799.4850, 1529.240
800.6270, 1750.813
801.7690, 1932.330
802.9100, 2006.790
804.0520, 2245.195
805.1930, 2512.393
806.3340, 2830.967
807.4750, 3213.074
808.6160, 3473.255
809.7560, 3962.858
810.8970, 3979.928
812.0370, 4529.943
813.1770, 4806.522
814.3170, 5188.426
815.4570, 5399.273
816.5960, 5572.244
817.7360, 5876.491
818.8750, 5682.890
820.0140, 5678.982
821.1530, 5454.438
822.2920, 5081.248
823.4310, 4825.499
824.5690, 4411.798
825.7070, 3791.304
826.8460, 3421.574
827.9840, 3101.548
829.1220, 2726.747
830.2590, 2537.511
831.3970, 2310.605
832.5340, 2091.637
833.6710, 1944.629
834.8080, 1696.950
835.9450, 1518.681
837.0820, 1269.300
838.2190, 1099.086
839.3550, 924.8223
840.4910, 655.5068
841.6270, 566.1396
842.7630, 411.7217
843.8990, 389.2529
845.0350, 362.7314
846.1700, 121.1572
847.3060, 89.51953
848.4410, 48.81543
849.5760, 6.958984
850.7100, 35.87988
851.8450, 89.57031
852.9800, 86.92969
854.1140, 170.1846
855.2480, 154.6191
856.3820, 154.2256
857.5160, 226.0020
858.6500, 43.98633
859.7830, 236.0830
860.9170, 122.3916
862.0500, 78.85156
863.1830, 79.44043
864.3160, 155.1572
865.4480, 43.95801
866.5810, 34.99414
867.7130, 123.2773
868.8460, 78.52051
869.9780, 7.797852
871.1100, 22.14453
872.2410, 56.58496
873.3730, 104.5176
874.5050, 163.9385
875.6360, 125.3730
876.7670, 206.3613
877.8980, 145.9355
879.0290, 378.4512
880.1590, 205.8076
881.2900, 428.2529
882.4200, 340.0020
883.5500, 463.6006
884.6800, 549.4512
885.8100, 661.4482
886.9400, 574.5986
888.0690, 708.9570
889.1990, 730.9443
890.3280, 1017.961
891.4570, 1127.623
892.5860, 1409.999
893.7140, 1340.540
894.8430, 1691.991
895.9710, 2013.970
897.1000, 2183.018
898.2280, 2632.500
899.3560, 3089.305
900.4830, 3360.021
901.6110, 3994.728
902.7380, 4737.469
903.8660, 5099.125
904.9930, 6125.742
906.1200, 7062.729
907.2460, 8500.590
908.3730, 10437.65
909.5000, 13084.31
910.6260, 16659.09
911.7520, 21240.42
912.8780, 26874.85
914.0040, 33176.12
915.1290, 38711.13
916.2550, 42976.18
917.3800, 44426.69
918.5050, 43680.07
919.6300, 39922.93
920.7550, 34648.76
921.8800, 30162.56
923.0040, 26049.33
924.1290, 22922.07
925.2530, 20331.79
926.3770, 17899.47
927.5010, 15875.14
928.6250, 13955.77
929.7480, 12162.37
930.8720, 10352.96
931.9950, 8830.511
933.1180, 7531.037
934.2410, 6478.541
935.3640, 5826.020
936.4860, 4808.471
937.6090, 4579.902
938.7310, 4004.307
939.8530, 3647.691
940.9750, 3497.051
942.0970, 3289.387
943.2180, 3236.701
944.3400, 3308.994
945.4610, 3501.270
946.5820, 3683.531
947.7030, 3598.771
948.8240, 3623.996
949.9450, 3545.197
951.0650, 3370.381
952.1860, 3064.545
953.3060, 2743.689
954.4260, 2273.816
955.5460, 1998.979
956.6650, 1816.123
957.7850, 1494.258
958.9040, 1463.410
960.0230, 1200.795
961.1420, 1298.949
962.2610, 1028.105
963.3800, 926.2441
964.4990, 1110.387
965.6170, 1034.531
966.7350, 1088.648
967.8530, 900.7988
968.9710, 919.5527
970.0890, 843.6719
971.2070, 1021.777
972.3240, 1042.869
973.4410, 1013.945
974.5580, 964.0098
975.6750, 1092.061
976.7920, 1011.102
977.9090, 991.1094
979.0250, 941.0137
980.1410, 1019.811
981.2580, 927.4023
982.3740, 1143.641
983.4890, 1114.916
984.6050, 1120.367
985.7200, 1224.715
986.8360, 1078.705
987.9510, 1204.865
989.0660, 1212.814
990.1810, 1285.758
991.2950, 1246.750
992.4100, 1363.264
993.5240, 1637.236
994.6390, 1782.184
995.7530, 2263.307
996.8660, 2552.209
997.9800, 2916.121
999.0940, 3644.328
1000.207, 4262.059
1001.320, 5061.941
1002.433, 5247.340
1003.546, 5533.709
1004.659, 5434.375
1005.772, 5122.297
1006.884, 4787.146
1007.996, 4307.459
1009.108, 3757.582
1010.220, 3207.268
1011.332, 2815.516
1012.444, 2609.631
1013.555, 2617.713
1014.666, 2587.119
1015.777, 2307.248
1016.888, 2639.637
1017.999, 2329.885
1019.110, 2254.051
1020.220, 2124.650
1021.331, 2008.848
1022.441, 1839.061
1023.551, 1664.324
1024.661, 1401.604
1025.770, 1305.904
1026.880, 1193.236
1027.989, 1272.596
1029.098, 1013.977
1030.207, 1051.418
1031.316, 999.8770
1032.425, 817.3887
1033.533, 1021.938
1034.642, 1104.547
1035.750, 950.1836
1036.858, 772.8906
1037.966, 904.6191
1039.073, 697.3770
1040.181, 627.1758
1041.288, 607.0039
1042.396, 502.8594
1043.503, 618.7422
1044.610, 544.6426
1045.716, 338.5645
1046.823, 304.5059
1047.929, 438.4688
1049.036, 494.4492
1050.142, 569.4980
1051.248, 416.5684
1052.353, 526.6758
1053.459, 520.8301
1054.564, 485.0137
1055.670, 781.2207
1056.775, 1059.482
1057.880, 1165.771
1058.985, 1432.082
1060.089, 1900.408
1061.194, 2480.773
1062.298, 2711.156
1063.402, 2832.557
1064.506, 2813.977
1065.610, 2506.414
1066.713, 2153.873
1067.817, 1961.355
1068.920, 1644.857
1070.023, 1418.408
1071.126, 952.9785
1072.229, 782.5645
1073.332, 743.1914
1074.435, 698.8359
1075.537, 627.4980
1076.639, 534.1797
1077.741, 463.8750
1078.843, 641.4473
1079.945, 507.1836
1081.046, 462.9375
1082.148, 178.7129
1083.249, 416.5098
1084.350, 234.3242
1085.451, 233.1582
1086.551, 216.0098
1087.652, 204.9062
1088.752, 288.7969
1089.853, 340.7051
1090.953, 187.6348
1092.053, 22.41797
1093.152, 104.9824
1094.252, 65.96680
1095.351, 184.9707
1096.451, 112.6348
1097.550, 4.759766
1098.649, 135.8164
1099.748, 160.9492
1100.846, 42.84570
1101.945, 208.2578
1103.043, 235.5254
1104.141, 296.6641
1105.239, 181.8223
1106.337, 284.9961
1107.434, 278.1855
1108.532, 391.3965
1109.629, 491.6621
1110.726, 392.9082
1111.823, 466.9863
1112.920, 429.6328
1114.017, 226.7090
1115.113, 363.0391
1116.210, 259.6680
1117.306, 236.0664
1118.402, 406.5137
1119.498, 416.0234
1120.593, 605.5918
1121.689, 666.2422
1122.784, 759.1895
1123.879, 984.9941
1124.974, 716.7656
1126.069, 791.7188
1127.164, 816.7715
1128.259, 512.5684
1129.353, 586.7461
1130.447, 356.9805
1131.541, 135.2930
1132.635, 13.11523
1133.729, 15.49805
1134.822, 73.94531
1135.916, 48.58008
1137.009, 82.91992
1138.102, 0.5625000
1139.195, 189.8496
1140.288, 9.701172
1141.380, 40.72852
1142.473, 47.14648
1143.565, 105.4453
1144.657, 65.27930
1145.749, 35.90625
1146.841, 132.4473
1147.932, 116.4766
1149.024, 6.869141
1150.115, 162.0762
1151.206, 25.04883
1152.297, 29.59766
1153.388, 81.25781
1154.479, 169.4590
1155.569, 82.14648
1156.659, 102.0957
1157.750, 39.81250
1158.839, 32.53906
1159.929, 117.9668
1161.019, 41.51367
1162.108, 183.4668
1163.198, 158.5781
1164.287, 125.4609
1165.376, 69.50781
1166.465, 191.7383
1167.553, 252.8887
1168.642, 85.78711
1169.730, 234.2930
1170.818, 208.1426
1171.906, 38.99805
1172.994, 151.0742
1174.082, 247.1836
1175.170, 124.1562
1176.257, 122.3379
1177.344, 178.6660
1178.431, 68.57422
1179.518, 223.4902
1180.605, 157.9824
1181.691, 259.9668
1182.778, 117.9648
1183.864, 149.8652
1184.950, 244.9004
1186.036, 126.2852
1187.122, 388.5762
1188.207, 466.6328
1189.292, 308.7773
1190.378, 140.1719
1191.463, 64.25391
1192.548, 205.4746
1193.632, 280.7246
1194.717, 266.7070
1195.801, 91.61914
1196.886, 282.9336
1197.970, 199.2930
1199.054, 362.7285
1200.137, 87.25000
1201.221, 188.2363
1202.305, 220.3262
1203.388, 128.9707
1204.471, 120.9609
1205.554, 117.9512
1206.637, 345.9375
1207.719, 217.9238
1208.802, 30.82227
1209.884, 217.1445
1210.966, 261.1660
1212.048, 142.8105
1213.130, 289.9766
1214.212, 266.3027
1215.293, 91.51758
1216.374, 65.47852
1217.456, 46.55664
1218.536, 113.3809
1219.617, 110.3164
1220.698, 177.2441
1221.778, 166.6836
1222.859, 32.00586
1223.939, 275.8945
1225.019, 205.7891
1226.099, 50.31445
1227.178, 37.54102
1228.258, 97.38086
1229.337, 149.7715
1230.417, 37.99023
1231.496, 71.13477
1232.574, 32.89648
1233.653, 260.6543
1234.732, 353.4043
1235.810, 277.1484
1236.888, 219.8887
1237.966, 180.6270
1239.044, 71.24609
1240.122, 159.0781
1241.199, 41.20117
1242.277, 29.52539
1243.354, 124.1152
1244.431, 218.7559
1245.508, 31.39062
1246.585, 157.0156
1247.661, 261.6328
1248.738, 334.2422
1249.814, 134.8418
1250.890, 143.4316
1251.966, 53.01562
1253.042, 287.5879
1254.117, 19.14844
1255.193, 290.8652
1256.268, 301.3984
1257.343, 26.92188
1258.418, 305.4238
1259.493, 152.9141
1260.567, 235.4727
1261.642, 68.06250
1262.716, 327.3340
1263.790, 223.7148
1264.864, 130.0898
1265.938, 269.7734
1267.011, 107.1211
1268.085, 339.4258
1269.158, 195.1504
1270.231, 161.4531
1271.304, 271.0039
1272.377, 156.3711
1273.450, 82.35352
1274.522, 247.5938
1275.594, 238.8203
1276.666, 54.00977
1277.738, 156.8281
1278.810, 59.90625
1279.882, 81.06641
1280.953, 319.7930
