##NAMES=Andalusite
##RRUFFID=R050449
##IDEAL CHEMISTRY=Al_2_SiO_5_
##LOCALITY=Itinga, Minas Gerais, Brazil
##OWNER=RRUFF
##SOURCE=Marcus Origlieri
##DESCRIPTION=Green fragment
##STATUS=The identification of this mineral has been confirmed by X-ray diffraction and chemical analysis
##URL=rruff.info/R050449
##MEASURED CHEMISTRY=Al_2.00_Fe^3+^_0.01_Si_0.99_O_5_
##PIN_ID=L00608
##ORIENTATION=Laser parallel to b* (0 1 0). Fiducial mark perpendicular to laser is parallel to -c [0 0 -1]
119.3650, 0.0000000E+00
120.5960, 0.5915530
121.8270, 92.84692
123.0580, 24.03076
124.2880, 0.1540530
125.5190, 50.09717
126.7490, 30.37256
127.9790, 47.60474
129.2090, 187.1790
130.4390, 241.4934
131.6680, 257.0195
132.8980, 95.46240
134.1270, 71.41040
135.3560, 139.4976
136.5850, 202.9280
137.8140, 306.7651
139.0430, 324.8875
140.2710, 634.9729
141.5000, 404.0298
142.7280, 237.2473
143.9560, 346.5115
145.1840, 364.8062
146.4120, 333.1221
147.6390, 392.8040
148.8670, 361.7686
150.0940, 377.8599
151.3210, 323.3101
152.5490, 375.0984
153.7750, 331.6382
155.0020, 290.9622
156.2290, 156.0969
157.4550, 80.06909
158.6810, 32.09937
159.9080, 16.38916
161.1340, 37.78467
162.3590, 80.72876
163.5850, 230.1616
164.8110, 316.5239
166.0360, 466.8242
167.2610, 499.0654
168.4860, 549.1558
169.7110, 469.3923
170.9360, 538.4956
172.1610, 501.5750
173.3850, 404.6401
174.6100, 395.0659
175.8340, 351.9846
177.0580, 366.7104
178.2820, 453.7026
179.5050, 531.7598
180.7290, 519.5530
181.9520, 487.5200
183.1760, 501.2261
184.3990, 621.9878
185.6220, 634.8015
186.8450, 867.6606
188.0670, 1027.562
189.2900, 1117.504
190.5120, 1311.487
191.7340, 1508.511
192.9560, 1612.589
194.1780, 1760.729
195.4000, 1820.926
196.6220, 1840.177
197.8430, 1798.479
199.0640, 1758.833
200.2860, 1953.233
201.5070, 2082.676
202.7270, 2148.160
203.9480, 2011.675
205.1690, 1276.220
206.3890, 990.7942
207.6090, 791.3977
208.8290, 696.0298
210.0490, 534.6897
211.2690, 469.3772
212.4890, 302.0625
213.7080, 330.6797
214.9280, 271.2969
216.1470, 201.9434
217.3660, 137.6201
218.5850, 143.3254
219.8030, 68.06030
221.0220, 166.8833
222.2400, 36.83130
223.4590, 97.88110
224.6770, 70.01611
225.8950, 48.22412
227.1120, 74.48950
228.3300, 39.77466
229.5480, 1.926758
230.7650, 44.38770
231.9820, 50.28125
233.1990, 11.06519
234.4160, 6.426514
235.6330, 51.19629
236.8490, 67.80273
238.0660, 81.39258
239.2820, 72.41553
240.4980, 54.48462
241.7140, 18.99731
242.9300, 2.492188
244.1460, 22.03101
245.3610, 139.5725
246.5770, 200.1326
247.7920, 183.7061
249.0070, 263.2744
250.2220, 194.8384
251.4370, 292.3601
252.6510, 250.8032
253.8660, 326.2004
255.0800, 415.6074
256.2940, 411.0398
257.5080, 573.4976
258.7220, 821.9807
259.9360, 789.9653
261.1490, 829.4905
262.3630, 898.5837
263.5760, 909.0364
264.7890, 903.7830
266.0020, 1012.979
267.2150, 1058.048
268.4270, 1151.485
269.6400, 1368.781
270.8520, 1540.905
272.0640, 1654.297
273.2760, 2002.583
274.4880, 2300.922
275.7000, 2881.283
276.9120, 3580.601
278.1230, 4295.888
279.3340, 5195.155
280.5450, 6237.369
281.7560, 7773.608
282.9670, 9684.837
284.1780, 12069.06
285.3880, 14614.14
286.5980, 17770.02
287.8090, 22154.92
289.0190, 27576.82
290.2290, 34405.75
291.4380, 42124.68
292.6480, 48390.65
293.8570, 50829.62
295.0670, 47924.61
296.2760, 40794.61
297.4850, 31555.61
298.6930, 23110.60
299.9020, 16586.62
301.1110, 12003.64
302.3190, 8831.664
303.5270, 6755.534
304.7350, 5359.593
305.9430, 4344.675
307.1510, 3748.453
308.3580, 3314.406
309.5660, 3136.504
310.7730, 3173.615
311.9800, 3635.741
313.1870, 4195.881
314.3940, 4744.035
315.6010, 5595.204
316.8070, 6921.388
318.0130, 8837.588
319.2200, 11706.81
320.4260, 15680.27
321.6310, 19341.21
322.8370, 21890.55
324.0430, 21618.25
325.2480, 18893.43
326.4540, 15362.72
327.6590, 11702.65
328.8640, 8861.561
330.0680, 6532.969
331.2730, 4989.801
332.4780, 4013.850
333.6820, 3577.999
334.8860, 3095.132
336.0900, 2612.284
337.2940, 2499.457
338.4980, 2349.650
339.7010, 2141.863
340.9050, 1947.315
342.1080, 1890.569
343.3110, 1739.841
344.5140, 1720.134
345.7170, 1648.445
346.9200, 1647.777
348.1220, 1714.127
349.3240, 1936.497
350.5270, 2117.886
351.7290, 2386.296
352.9310, 2658.723
354.1320, 3264.171
355.3340, 3841.637
356.5350, 4840.116
357.7370, 5901.000
358.9380, 6902.524
360.1390, 7750.680
361.3400, 7926.246
362.5400, 7460.830
363.7410, 6688.434
364.9410, 5790.059
366.1410, 4871.703
367.3410, 3966.365
368.5410, 3435.045
369.7410, 2902.744
370.9400, 2621.461
372.1400, 2230.195
373.3390, 2069.947
374.5380, 1845.815
375.7370, 1817.602
376.9360, 1583.547
378.1350, 1500.253
379.3330, 1381.836
380.5310, 1460.891
381.7300, 1581.959
382.9280, 1590.230
384.1260, 1435.120
385.3230, 1278.188
386.5210, 1270.538
387.7180, 1057.946
388.9160, 1034.930
390.1130, 883.9319
391.3100, 748.9517
392.5060, 694.9897
393.7030, 681.0454
394.9000, 707.1194
396.0960, 573.2144
397.2920, 536.3274
398.4880, 454.4597
399.6840, 421.6116
400.8800, 463.7822
402.0750, 406.9731
403.2710, 439.1929
404.4660, 391.4316
405.6610, 467.7065
406.8560, 530.0007
408.0510, 599.3237
409.2450, 710.6833
410.4400, 843.0554
411.6340, 868.4553
412.8280, 1072.871
414.0220, 1266.302
415.2160, 1431.751
416.4100, 1717.215
417.6030, 2120.696
418.7970, 2458.193
419.9900, 2661.706
421.1830, 2697.236
422.3760, 2314.781
423.5690, 1845.344
424.7610, 1472.923
425.9540, 1055.520
427.1460, 814.1323
428.3380, 530.7627
429.5300, 422.4097
430.7220, 224.0762
431.9140, 218.7603
433.1050, 207.4629
434.2970, 160.1841
435.4880, 87.92383
436.6790, 12.68164
437.8700, 59.45752
439.0610, 81.25195
440.2510, 71.06494
441.4420, 178.8970
442.6320, 261.7471
443.8220, 373.6167
445.0120, 576.5054
446.2020, 700.4131
447.3910, 786.3408
448.5810, 1148.305
449.7700, 1655.302
450.9600, 2378.336
452.1490, 3227.392
453.3370, 3777.468
454.5260, 3523.566
455.7150, 2611.689
456.9030, 1584.840
458.0910, 888.0234
459.2800, 383.2397
460.4670, 104.4893
461.6550, 84.76221
462.8430, 59.93848
464.0300, 111.6406
465.2180, 99.36035
466.4050, 67.09473
467.5920, 79.69971
468.7790, 102.5771
469.9650, 53.33496
471.1520, 74.07471
472.3380, 62.81689
473.5250, 49.56104
474.7110, 54.29883
475.8970, 32.03320
477.0820, 31.24268
478.2680, 37.54150
479.4540, 50.86523
480.6390, 68.20898
481.8240, 73.50000
483.0090, 8.030762
484.1940, 111.3789
485.3780, 108.8145
486.5630, 173.2827
487.7470, 92.78467
488.9320, 216.3115
490.1160, 141.8696
491.3000, 110.4556
492.4830, 128.0645
493.6670, 107.7158
494.8500, 25.40674
496.0340, 28.11621
497.2170, 54.84521
498.4000, 32.39795
499.5820, 14.61523
500.7650, 24.18555
501.9480, 21.99316
503.1300, 96.84473
504.3120, 82.70215
505.4940, 116.5776
506.6760, 128.4707
507.8580, 240.3818
509.0390, 172.3105
510.2210, 312.2563
511.4020, 433.2197
512.5830, 394.2002
513.7640, 512.1978
514.9450, 554.2129
516.1250, 457.2441
517.3060, 555.2979
518.4860, 562.3677
519.6660, 542.4717
520.8460, 457.5928
522.0260, 552.7329
523.2060, 584.9058
524.3850, 433.1162
525.5650, 544.3667
526.7440, 506.6558
527.9230, 577.9780
529.1020, 720.3232
530.2810, 763.6875
531.4590, 786.0679
532.6380, 756.4634
533.8160, 877.8740
534.9940, 1003.300
536.1720, 1145.741
537.3500, 1295.492
538.5270, 1563.900
539.7050, 1690.394
540.8820, 1975.894
542.0590, 2343.408
543.2360, 2771.291
544.4130, 3330.719
545.5900, 3925.275
546.7660, 4636.924
547.9430, 5428.315
549.1190, 6249.151
550.2950, 7187.718
551.4710, 8176.343
552.6470, 8697.219
553.8220, 8906.863
554.9980, 8338.524
556.1730, 7329.196
557.3480, 6028.880
558.5230, 4800.575
559.6980, 4054.281
560.8730, 3313.000
562.0470, 2725.729
563.2220, 2413.470
564.3960, 2222.222
565.5700, 2071.985
566.7440, 1882.758
567.9170, 1711.543
569.0910, 1685.339
570.2640, 1500.145
571.4380, 1631.961
572.6110, 1480.787
573.7840, 1371.623
574.9570, 1388.470
576.1290, 1296.326
577.3020, 1230.198
578.4740, 1124.080
579.6460, 1092.999
580.8180, 983.9624
581.9900, 908.9526
583.1620, 846.9902
584.3330, 730.0693
585.5040, 707.1826
586.6760, 585.3296
587.8470, 596.5146
589.0180, 412.7441
590.1880, 529.0181
591.3590, 504.3330
592.5290, 341.6602
593.7000, 428.1519
594.8700, 441.9551
596.0400, 460.5078
597.2090, 414.5469
598.3790, 456.6323
599.5490, 561.0068
600.7180, 667.2871
601.8870, 516.6006
603.0560, 616.4609
604.2250, 749.6284
605.3940, 689.2598
606.5620, 799.2793
607.7300, 919.2168
608.8990, 998.4990
610.0670, 1044.097
611.2350, 915.9497
612.4020, 1074.044
613.5700, 1056.136
614.7370, 1013.344
615.9050, 1097.159
617.0720, 1100.694
618.2390, 1065.759
619.4060, 1094.272
620.5720, 1141.750
621.7390, 1243.604
622.9050, 1211.120
624.0710, 1295.031
625.2370, 1294.909
626.4030, 1442.235
627.5690, 1429.851
628.7340, 1466.588
629.9000, 1485.706
631.0650, 1479.936
632.2300, 1526.378
633.3950, 1413.122
634.5600, 1389.240
635.7240, 1264.759
636.8890, 1308.542
638.0530, 1203.770
639.2170, 1214.407
640.3810, 1137.247
641.5450, 1089.281
642.7080, 1105.141
643.8720, 1008.037
645.0350, 1033.535
646.1980, 1000.031
647.3610, 1019.526
648.5240, 1021.018
649.6870, 1049.508
650.8490, 962.9951
652.0120, 1000.480
653.1740, 922.9619
654.3360, 977.4414
655.4980, 913.9175
656.6600, 826.3901
657.8210, 768.8599
658.9830, 890.3262
660.1440, 863.7881
661.3050, 1059.247
662.4660, 1093.702
663.6270, 1135.151
664.7870, 1130.597
665.9480, 1074.038
667.1080, 797.4731
668.2680, 599.9038
669.4280, 315.3296
670.5880, 271.7485
671.7480, 190.1626
672.9070, 27.57080
674.0670, 6.972656
675.2260, 126.3687
676.3850, 10.24170
677.5440, 38.13770
678.7030, 2.510742
679.8610, 23.87646
681.0200, 39.23535
682.1780, 5.412598
683.3360, 43.06982
684.4940, 33.24609
685.6520, 71.44580
686.8090, 35.81982
687.9670, 43.92139
689.1240, 71.69238
690.2810, 24.49316
691.4380, 43.32861
692.5950, 125.8198
693.7520, 53.96045
694.9080, 83.09277
696.0650, 40.21729
697.2210, 86.33252
698.3770, 110.4395
699.5330, 133.5381
700.6880, 129.6279
701.8440, 120.7085
702.9990, 187.7803
704.1550, 205.0669
705.3100, 237.8965
706.4650, 318.9409
707.6190, 386.9761
708.7740, 488.0015
709.9290, 682.0176
711.0830, 724.0239
712.2370, 883.0205
713.3910, 938.0073
714.5450, 1199.984
715.6980, 1353.064
716.8520, 1389.021
718.0050, 1495.010
719.1580, 1407.298
720.3110, 1285.922
721.4640, 1128.673
722.6170, 864.9639
723.7700, 633.6089
724.9220, 529.1152
726.0740, 350.5518
727.2260, 261.7988
728.3780, 209.9141
729.5300, 92.20361
730.6810, 122.8145
731.8330, 59.20801
732.9840, 44.88818
734.1350, 21.63623
735.2860, 11.35645
736.4370, 5.880859
737.5880, 10.25732
738.7380, 8.374512
739.8880, 30.43066
741.0390, 16.75732
742.1890, 90.46973
743.3380, 28.96826
744.4880, 36.46191
745.6380, 68.94922
746.7870, 147.4312
747.9360, 25.91016
749.0850, 20.61768
750.2340, 44.81201
751.3830, 94.23340
752.5310, 45.64893
753.6800, 55.05029
754.8280, 67.44141
755.9760, 42.81836
757.1240, 28.17285
758.2720, 129.5005
759.4190, 19.81104
760.5670, 77.09131
761.7140, 41.35400
762.8610, 19.59570
764.0080, 6.193359
765.1550, 10.77295
766.3020, 23.09668
767.4480, 2.810059
768.5950, 12.24219
769.7410, 31.26123
770.8870, 44.74609
772.0330, 34.81641
773.1780, 80.05518
774.3240, 56.90967
775.4690, 11.74463
776.6140, 27.45410
777.7590, 37.29883
778.9040, 44.02979
780.0490, 28.73877
781.1940, 49.42480
782.3380, 90.08936
783.4820, 109.7383
784.6260, 124.9155
785.7700, 149.0430
786.9140, 134.5854
788.0580, 186.1680
789.2010, 168.7349
790.3450, 195.2847
791.4880, 152.8188
792.6310, 297.3369
793.7730, 304.8389
794.9160, 282.3247
796.0590, 371.7944
797.2010, 390.2485
798.3430, 483.6860
799.4850, 563.1084
800.6270, 668.5151
801.7690, 750.9062
802.9100, 908.2817
804.0520, 970.6421
805.1930, 1193.987
806.3340, 1371.315
807.4750, 1329.629
808.6160, 1499.927
809.7560, 1652.211
810.8970, 1734.480
812.0370, 1881.745
813.1770, 2000.972
814.3170, 2085.963
815.4570, 2218.172
816.5960, 2268.358
817.7360, 2496.539
818.8750, 2601.705
820.0140, 2819.746
821.1530, 2862.754
822.2920, 2948.878
823.4310, 2993.102
824.5690, 2828.198
825.7070, 2721.042
826.8460, 2813.154
827.9840, 2570.211
829.1220, 2486.013
830.2590, 2458.046
831.3970, 2485.066
832.5340, 2555.073
833.6710, 2444.069
834.8080, 2459.053
835.9450, 2460.025
837.0820, 2195.985
838.2190, 1953.935
839.3550, 1616.873
840.4910, 1347.799
841.6270, 1123.715
842.7630, 857.6191
843.8990, 673.5132
845.0350, 512.3960
846.1700, 458.2686
847.3060, 262.1309
848.4410, 193.9819
849.5760, 188.8242
850.7100, 59.65625
851.8450, 6.521973
852.9800, 70.27783
854.1140, 85.93213
855.2480, 123.2046
856.3820, 49.55957
857.5160, 131.9570
858.6500, 109.4399
859.7830, 83.99658
860.9170, 82.61377
862.0500, 98.28906
863.1830, 128.0303
864.3160, 126.8530
865.4480, 114.6670
866.5810, 8.731445
867.7130, 38.72412
868.8460, 11.89355
869.9780, 84.62061
871.1100, 67.38477
872.2410, 22.66357
873.3730, 1.896973
874.5050, 5.474121
875.6360, 5.279785
876.7670, 12.87744
877.8980, 43.33203
879.0290, 78.66553
880.1590, 156.1694
881.2900, 183.3325
882.4200, 240.5698
883.5500, 319.0366
884.6800, 340.8286
885.8100, 374.0190
886.9400, 441.3765
888.0690, 526.2646
889.1990, 620.6348
890.3280, 722.2080
891.4570, 822.9844
892.5860, 988.2773
893.7140, 1084.125
894.8430, 1259.011
895.9710, 1408.522
897.1000, 1570.377
898.2280, 1858.619
899.3560, 2164.121
900.4830, 2520.176
901.6110, 2934.945
902.7380, 3330.594
903.8660, 3742.866
904.9930, 4379.029
906.1200, 5152.984
907.2460, 6065.635
908.3730, 7293.925
909.5000, 8925.814
910.6260, 10863.45
911.7520, 13597.63
912.8780, 16923.43
914.0040, 21321.63
915.1290, 26317.03
916.2550, 32558.99
917.3800, 39876.53
918.5050, 46710.46
919.6300, 51380.41
920.7550, 52467.37
921.8800, 48892.32
923.0040, 41889.29
924.1290, 34600.25
925.2530, 28689.23
926.3770, 23858.22
927.5010, 20956.21
928.6250, 18817.21
929.7480, 16915.21
930.8720, 14979.22
931.9950, 12712.25
933.1180, 10902.28
934.2410, 9026.315
935.3640, 7533.358
936.4860, 6382.413
937.6090, 5523.476
938.7310, 4656.548
939.8530, 4085.629
940.9750, 3684.718
942.0970, 3593.818
943.2180, 3452.928
944.3400, 3366.047
945.4610, 3445.175
946.5820, 3613.315
947.7030, 3828.466
948.8240, 4000.627
949.9450, 4161.801
951.0650, 4282.987
952.1860, 4218.183
953.3060, 4170.390
954.4260, 3558.608
955.5460, 3038.840
956.6650, 2620.099
957.7850, 2077.368
958.9040, 1709.667
960.0230, 1569.985
961.1420, 1175.327
962.2610, 1128.699
963.3800, 1005.092
964.4990, 910.5146
965.6170, 832.8418
966.7350, 749.7031
967.8530, 673.8623
968.9710, 625.3389
970.0890, 580.3325
971.2070, 535.2349
972.3240, 531.8701
973.4410, 467.4092
974.5580, 558.9731
975.6750, 588.5518
976.7920, 503.1582
977.9090, 555.7793
979.0250, 466.4155
980.1410, 474.0679
981.2580, 565.7456
982.3740, 538.4443
983.4890, 534.1660
984.6050, 470.9038
985.7200, 492.6572
986.8360, 438.3145
987.9510, 504.1060
989.0660, 504.8916
990.1810, 551.4102
991.2950, 522.6221
992.4100, 541.7173
993.5240, 581.2842
994.6390, 719.5112
995.7530, 728.8823
996.8660, 785.3320
997.9800, 891.9844
999.0940, 1139.775
1000.207, 1292.403
1001.320, 1587.715
1002.433, 1933.252
1003.546, 2212.507
1004.659, 2432.699
1005.772, 2623.919
1006.884, 2794.188
1007.996, 2689.423
1009.108, 2620.470
1010.220, 2472.589
1011.332, 2396.225
1012.444, 2238.910
1013.555, 2272.505
1014.666, 2273.987
1015.777, 2358.618
1016.888, 2587.159
1017.999, 2855.739
1019.110, 2911.266
1020.220, 2998.141
1021.331, 3132.466
1022.441, 2887.162
1023.551, 2741.304
1024.661, 2442.055
1025.770, 2087.585
1026.880, 1737.389
1027.989, 1504.222
1029.098, 1411.080
1030.207, 1202.347
1031.316, 1303.261
1032.425, 1175.890
1033.533, 1186.953
1034.642, 1030.970
1035.750, 906.0254
1036.858, 856.1177
1037.966, 930.2471
1039.073, 919.4150
1040.181, 922.6172
1041.288, 815.9082
1042.396, 878.2139
1043.503, 915.0400
1044.610, 1023.413
1045.716, 1019.820
1046.823, 1044.280
1047.929, 1147.771
1049.036, 1315.289
1050.142, 1431.837
1051.248, 1612.419
1052.353, 1955.027
1053.459, 2123.974
1054.564, 2511.657
1055.670, 3130.366
1056.775, 3855.099
1057.880, 4872.859
1058.985, 6145.947
1060.089, 7736.755
1061.194, 9594.592
1062.298, 11896.45
1063.402, 14243.35
1064.506, 15885.29
1065.610, 16684.25
1066.713, 15730.24
1067.817, 13830.26
1068.920, 11424.30
1070.023, 9147.403
1071.126, 7143.492
1072.229, 5775.604
1073.332, 4574.741
1074.435, 3765.907
1075.537, 3054.096
1076.639, 2638.315
1077.741, 2099.558
1078.843, 1796.826
1079.945, 1671.274
1081.046, 1438.590
1082.148, 1180.930
1083.249, 1147.293
1084.350, 933.6787
1085.451, 811.0879
1086.551, 782.5205
1087.652, 791.9771
1088.752, 628.2817
1089.853, 625.7842
1090.953, 583.3096
1092.053, 474.2300
1093.152, 478.8105
1094.252, 439.4033
1095.351, 387.9507
1096.451, 370.6733
1097.550, 512.3350
1098.649, 486.0186
1099.748, 544.7246
1100.846, 480.4512
1101.945, 509.5674
1103.043, 544.3379
1104.141, 551.1284
1105.239, 635.9409
1106.337, 647.2861
1107.434, 762.1401
1108.532, 715.8130
1109.629, 814.7075
1110.726, 850.6230
1111.823, 793.7627
1112.920, 709.8447
1114.017, 716.9946
1115.113, 536.6572
1116.210, 518.6714
1117.306, 326.7046
1118.402, 382.7573
1119.498, 149.1567
1120.593, 212.8940
1121.689, 330.9263
1122.784, 267.4775
1123.879, 164.5103
1124.974, 152.9751
1126.069, 169.8037
1127.164, 165.2183
1128.259, 121.9863
1129.353, 112.0078
1130.447, 52.40479
1131.541, 46.86182
1132.635, 41.48389
1133.729, 12.12646
1134.822, 113.7974
1135.916, 63.48926
1137.009, 77.13281
1138.102, 8.1055000E-02
1139.195, 59.65625
1140.288, 48.02246
1141.380, 44.79297
1142.473, 73.57959
1143.565, 30.62012
1144.657, 11.92529
1145.749, 73.89648
1146.841, 9.857910
1147.932, 29.06982
1149.024, 0.8901370
1150.115, 44.23730
1151.206, 109.7837
1152.297, 42.22070
1153.388, 31.67090
1154.479, 24.67920
1155.569, 19.23242
1156.659, 65.84473
1157.750, 37.07324
1158.839, 35.00244
1159.929, 19.01807
1161.019, 21.98633
1162.108, 45.08203
1163.198, 32.93994
1164.287, 6.885254
1165.376, 51.58105
1166.465, 85.57275
1167.553, 78.89258
1168.642, 12.14648
1169.730, 36.35547
1170.818, 12.51318
1171.906, 41.42334
1172.994, 9.111816
1174.082, 23.68457
1175.170, 6.687012
1176.257, 5.328125
1177.344, 53.46484
1178.431, 41.51025
1179.518, 58.78613
1180.605, 24.45410
1181.691, 53.08545
1182.778, 35.42334
1183.864, 13.48682
1184.950, 10.00000
1186.036, 99.09619
1187.122, 61.19678
1188.207, 51.85449
1189.292, 12.82812
1190.378, 80.34326
1191.463, 34.73486
1192.548, 57.43457
1193.632, 36.89844
1194.717, 82.50684
1195.801, 38.81543
1196.886, 96.92676
1197.970, 60.65430
1199.054, 101.7856
1200.137, 8.5937999E-02
1201.221, 16.04736
1202.305, 44.22217
1203.388, 56.45459
1204.471, 25.56689
1205.554, 66.87988
1206.637, 101.2300
1207.719, 162.3608
1208.802, 9.773438
1209.884, 2.896484
1210.966, 10.26904
1212.048, 63.39453
1213.130, 39.51807
1214.212, 69.86035
1215.293, 29.76221
1216.374, 56.88184
1217.456, 70.06885
1218.536, 16.71777
1219.617, 21.38672
1220.698, 57.48975
1221.778, 26.41016
1222.859, 5.673828
1223.939, 14.85059
1225.019, 35.07275
1226.099, 18.52979
1227.178, 20.60498
1228.258, 131.8032
1229.337, 69.83789
1230.417, 63.86865
1231.496, 21.10498
1232.574, 21.90332
1233.653, 47.90771
1234.732, 73.90674
1235.810, 37.09863
1236.888, 29.90381
1237.966, 40.13574
1239.044, 98.79443
1240.122, 84.71875
1241.199, 6.638184
1242.277, 26.45117
1243.354, 10.56592
1244.431, 17.69873
1245.508, 38.14746
1246.585, 41.98682
1247.661, 57.81934
1248.738, 9.351563
1249.814, 61.54150
1250.890, 80.77930
1251.966, 71.58252
1253.042, 1.574707
1254.117, 3.791504
1255.193, 8.176270
1256.268, 21.41602
1257.343, 12.99902
1258.418, 5.432129
1259.493, 53.11572
1260.567, 4.656250
1261.642, 47.17822
1262.716, 64.69873
1263.790, 80.20850
1264.864, 88.70752
1265.938, 45.19775
1267.011, 113.6768
1268.085, 43.12842
1269.158, 15.58643
1270.231, 48.02686
1271.304, 88.46240
1272.377, 59.88672
1273.450, 5.209961
1274.522, 51.03223
1275.594, 3.402344
1276.666, 37.63232
1277.738, 12.96436
1278.810, 75.26270
1279.882, 9.632813
1280.953, 39.90723
1282.025, 95.28369
1283.096, 19.53174
1284.167, 99.52539
1285.238, 79.78223
1286.308, 79.18896
1287.379, 84.37793
1288.449, 49.55322
1289.519, 59.33398
1290.589, 48.10254
1291.659, 70.23584
1292.729, 53.66699
1293.798, 6.680664
1294.868, 113.8013
1295.937, 9.863281
1297.006, 47.89844
1298.075, 14.91699
1299.143, 16.91016
