##NAMES=Andalusite
##RRUFFID=R050561
##IDEAL CHEMISTRY=Al_2_SiO_5_
##LOCALITY=Cargo Muchacho Mountain, Imperial County, California
##OWNER=RRUFF
##SOURCE=Dave Bunk Minerals
##DESCRIPTION=Brown coarsely crystalline massive
##STATUS=The identification of this mineral has been confirmed by X-ray diffraction and chemical analysis
##URL=rruff.info/R050561
##MEASURED CHEMISTRY=(Al_1.98_Fe^3+^_0.02_)_Î£=2_Si_1.00_O_5_
##PIN_ID=M00245
##ORIENTATION=Laser parallel to -b* (0 -1 0). Fiducial mark perpendicular to laser is parallel to -c [0 0 -1]
157.4550, 0.0000000E+00
158.6810, 94.63135
159.9080, 70.99756
161.1340, 1.302246
162.3590, 14.47217
163.5850, 95.54541
164.8110, 99.66211
166.0360, 206.7378
167.2610, 152.9795
168.4860, 125.2041
169.7110, 52.39844
170.9360, 32.07178
172.1610, 1.071289
173.3850, 4.779297
174.6100, 18.19092
175.8340, 3.690918
177.0580, 51.76611
178.2820, 28.06055
179.5050, 0.1235350
180.7290, 72.23828
181.9520, 25.78613
183.1760, 122.9937
184.3990, 110.5322
185.6220, 284.7930
186.8450, 830.7402
188.0670, 1605.342
189.2900, 1823.566
190.5120, 1755.383
191.7340, 2778.767
192.9560, 785.6924
194.1780, 648.1353
195.4000, 815.0586
196.6220, 873.4194
197.8430, 831.1860
199.0640, 902.3291
200.2860, 981.8281
201.5070, 1048.664
202.7270, 921.7666
203.9480, 982.2837
205.1690, 592.0439
206.3890, 433.0952
207.6090, 225.4448
208.8290, 210.1055
210.0490, 338.0864
211.2690, 347.3867
212.4890, 239.9946
213.7080, 258.8970
214.9280, 343.0840
216.1470, 277.5454
217.3660, 244.2710
218.5850, 384.2529
219.8030, 393.4829
221.0220, 331.9526
222.2400, 300.6558
223.4590, 344.5854
224.6770, 281.7354
225.8950, 309.1001
227.1120, 296.6748
228.3300, 275.4541
229.5480, 284.7695
230.7650, 347.5620
231.9820, 303.7046
233.1990, 250.8389
234.4160, 316.0024
235.6330, 345.2070
236.8490, 283.4629
238.0660, 339.7783
239.2820, 214.1553
240.4980, 296.6060
241.7140, 340.1299
242.9300, 389.7378
244.1460, 441.4331
245.3610, 480.3848
246.5770, 529.1108
247.7920, 549.0977
249.0070, 563.1851
250.2220, 569.3770
251.4370, 588.6729
252.6510, 541.0747
253.8660, 558.6377
255.0800, 574.4429
256.2940, 681.5669
257.5080, 756.0312
258.7220, 943.8369
259.9360, 952.2207
261.1490, 1017.737
262.3630, 1068.052
263.5760, 1091.865
264.7890, 1263.756
266.0020, 1380.735
267.2150, 1707.790
268.4270, 1794.921
269.6400, 2205.146
270.8520, 2335.446
272.0640, 2745.823
273.2760, 3222.276
274.4880, 3982.806
275.7000, 4688.412
276.9120, 5792.095
278.1230, 7179.854
279.3340, 8755.690
280.5450, 10676.60
281.7560, 13335.59
282.9670, 16322.66
284.1780, 19397.80
285.3880, 22604.02
286.5980, 26015.32
287.8090, 30103.69
289.0190, 35379.13
290.2290, 39896.64
291.4380, 43882.24
292.6480, 45500.90
293.8570, 44098.64
295.0670, 39729.45
296.2760, 33396.34
297.4850, 26041.29
298.6930, 19818.33
299.9020, 15127.42
301.1110, 11289.59
302.3190, 8850.823
303.5270, 6905.625
304.7350, 5762.125
305.9430, 4910.323
307.1510, 4279.530
308.3580, 3970.303
309.5660, 4231.291
310.7730, 4695.475
311.9800, 5141.722
313.1870, 6017.363
314.3940, 6871.062
315.6010, 8030.922
316.8070, 9486.958
318.0130, 11316.09
319.2200, 13862.34
320.4260, 15860.48
321.6310, 16901.14
322.8370, 16781.95
324.0430, 14984.42
325.2480, 12653.48
326.4540, 10150.69
327.6590, 7852.688
328.8640, 6233.136
330.0680, 5024.702
331.2730, 4038.380
332.4780, 3627.171
333.6820, 3153.070
334.8860, 2662.076
336.0900, 2496.184
337.2940, 2381.394
338.4980, 2134.701
339.7010, 2108.105
340.9050, 1985.454
342.1080, 1836.195
343.3110, 1884.877
344.5140, 1791.648
345.7170, 1821.508
346.9200, 1864.453
348.1220, 2023.175
349.3240, 2268.734
350.5270, 2524.620
351.7290, 2900.283
352.9310, 3271.824
354.1320, 3862.203
355.3340, 4349.935
356.5350, 4994.779
357.7370, 5645.957
358.9380, 6116.269
360.1390, 6024.024
361.3400, 5818.609
362.5400, 5173.939
363.7410, 4652.064
364.9410, 3897.734
366.1410, 3212.008
367.3410, 2684.951
368.5410, 2399.370
369.7410, 2073.703
370.9400, 1863.095
372.1400, 1666.397
373.3390, 1594.908
374.5380, 1567.477
375.7370, 1469.102
376.9360, 1497.001
378.1350, 1456.523
379.3330, 1566.653
380.5310, 1630.508
381.7300, 1714.419
382.9280, 1483.387
384.1260, 1572.412
385.3230, 1344.494
386.5210, 1050.632
387.7180, 937.8252
388.9160, 857.0752
390.1130, 798.3799
391.3100, 685.7393
392.5060, 657.1543
393.7030, 545.6230
394.9000, 496.1455
396.0960, 480.3916
397.2920, 493.3516
398.4880, 495.0332
399.6840, 492.7666
400.8800, 567.5508
402.0750, 528.3818
403.2710, 563.2617
404.4660, 572.1875
405.6610, 651.1572
406.8560, 626.1709
408.0510, 668.2266
409.2450, 896.3262
410.4400, 917.4668
411.6340, 933.6494
412.8280, 1138.875
414.0220, 1151.141
415.2160, 1386.448
416.4100, 1294.797
417.6030, 1621.186
418.7970, 1724.614
419.9900, 1691.084
421.1830, 1795.592
422.3760, 1658.141
423.5690, 1894.727
424.7610, 1730.354
425.9540, 1616.018
427.1460, 1747.720
428.3380, 1633.461
429.5300, 1770.239
430.7220, 1880.056
431.9140, 1938.907
433.1050, 1958.797
434.2970, 2068.723
435.4880, 2102.686
436.6790, 2113.684
437.8700, 2324.720
439.0610, 2413.789
440.2510, 2447.895
441.4420, 2624.035
442.6320, 2690.211
443.8220, 2991.422
445.0120, 3215.668
446.2020, 3289.947
447.3910, 3473.283
448.5810, 3781.676
449.7700, 4212.126
450.9600, 4706.639
452.1490, 4925.209
453.3370, 4769.832
454.5260, 4484.521
455.7150, 3610.283
456.9030, 4072.103
458.0910, 2138.977
459.2800, 1883.906
460.4670, 1618.891
461.6550, 1541.925
462.8430, 1421.011
464.0300, 1275.147
465.2180, 1267.337
466.4050, 1144.579
467.5920, 1068.875
468.7790, 998.2168
469.9650, 810.6055
471.1520, 638.0391
472.3380, 634.5176
473.5250, 538.0391
474.7110, 558.6035
475.8970, 502.2246
477.0820, 407.9082
478.2680, 292.6318
479.4540, 259.4072
480.6390, 418.2324
481.8240, 367.1045
483.0090, 314.0361
484.1940, 350.0195
485.3780, 182.0586
486.5630, 104.1670
487.7470, 382.3320
488.9320, 31.56934
490.1160, 83.87988
491.3000, 165.7344
492.4830, 53.34180
493.6670, 128.8945
494.8500, 183.4287
496.0340, 157.9766
497.2170, 162.5371
498.4000, 255.1250
499.5820, 203.7930
500.7650, 87.50391
501.9480, 173.1855
503.1300, 167.9023
504.3120, 234.6602
505.4940, 210.4912
506.6760, 84.38867
507.8580, 32.29590
509.0390, 66.19434
510.2210, 15.90234
511.4020, 53.02441
512.5830, 79.17578
513.7640, 1.642578
514.9450, 233.5566
516.1250, 94.78418
517.3060, 75.04004
518.4860, 284.3252
519.6660, 125.6377
520.8460, 10.02246
522.0260, 113.3291
523.2060, 75.70801
524.3850, 127.1133
525.5650, 46.54492
526.7440, 156.0029
527.9230, 83.48730
529.1020, 241.9961
530.2810, 141.5303
531.4590, 198.0898
532.6380, 261.6729
533.8160, 383.2812
534.9940, 420.9121
536.1720, 499.5684
537.3500, 710.2471
538.5270, 899.9482
539.7050, 1063.673
540.8820, 1312.420
542.0590, 1833.189
543.2360, 2190.980
544.4130, 2795.793
545.5900, 3316.627
546.7660, 3926.483
547.9430, 4720.358
549.1190, 5312.256
550.2950, 6080.172
551.4710, 6611.110
552.6470, 6438.067
553.8220, 6188.043
554.9980, 5439.040
556.1730, 4571.056
557.3480, 3654.088
558.5230, 3182.141
559.6980, 2454.211
560.8730, 2161.300
562.0470, 1834.405
563.2220, 1625.529
564.3960, 1535.670
565.5700, 1427.829
566.7440, 1396.005
567.9170, 1342.196
569.0910, 1204.404
570.2640, 1177.629
571.4380, 1154.869
572.6110, 1309.125
573.7840, 1200.412
574.9570, 1375.715
576.1290, 1346.042
577.3020, 1205.386
578.4740, 1387.747
579.6460, 1496.150
580.8180, 1447.596
581.9900, 1550.080
583.1620, 1658.587
584.3330, 1603.111
585.5040, 1746.669
586.6760, 1748.246
587.8470, 1943.840
589.0180, 2104.447
590.1880, 1984.066
591.3590, 2161.696
592.5290, 2341.382
593.7000, 2429.035
594.8700, 2515.858
596.0400, 2664.627
597.2090, 2752.566
598.3790, 2889.417
599.5490, 3127.452
600.7180, 3192.955
601.8870, 3452.671
603.0560, 3499.965
604.2250, 3574.693
605.3940, 3751.674
606.5620, 3811.580
607.7300, 3899.500
608.8990, 3782.254
610.0670, 3863.310
611.2350, 3758.074
612.4020, 3710.842
613.5700, 3703.730
614.7370, 3708.506
615.9050, 3588.614
617.0720, 3484.450
618.2390, 3432.235
619.4060, 3381.331
620.5720, 3246.884
621.7390, 3334.216
622.9050, 3071.324
624.0710, 2964.848
625.2370, 2928.330
626.4030, 2922.470
627.5690, 2700.021
628.7340, 2521.020
629.9000, 2491.076
631.0650, 2413.758
632.2300, 2111.498
633.3950, 2137.253
634.5600, 1807.968
635.7240, 1715.233
636.8890, 1555.490
638.0530, 1597.410
639.2170, 1357.542
640.3810, 1345.574
641.5450, 1165.896
642.7080, 1216.021
643.8720, 1108.063
645.0350, 845.3311
646.1980, 982.1113
647.3610, 931.5410
648.5240, 775.1221
649.6870, 683.1221
650.8490, 726.6758
652.0120, 779.3730
653.1740, 641.0654
654.3360, 572.9014
655.4980, 596.5830
656.6600, 704.2607
657.8210, 709.9326
658.9830, 624.5977
660.1440, 587.2578
661.3050, 643.5791
662.4660, 718.2275
663.6270, 784.8691
664.7870, 576.5039
665.9480, 730.1318
667.1080, 605.7539
668.2680, 603.3682
669.4280, 544.9756
670.5880, 559.5742
671.7480, 595.1650
672.9070, 589.1846
674.0670, 657.3242
675.2260, 629.8916
676.3850, 650.4492
677.5440, 656.9990
678.7030, 778.5391
679.8610, 767.0703
681.0200, 791.5928
682.1780, 779.1055
683.3360, 859.6094
684.4940, 745.1025
685.6520, 996.5859
686.8090, 788.0586
687.9670, 908.5225
689.1240, 933.9746
690.2810, 1016.417
691.4380, 939.8477
692.5950, 853.2676
693.7520, 949.6768
694.9080, 1003.074
696.0650, 871.4600
697.2210, 996.8340
698.3770, 809.1963
699.5330, 1021.547
700.6880, 1022.885
701.8440, 1025.211
702.9990, 1066.525
704.1550, 1077.685
705.3100, 1123.114
706.4650, 1149.390
707.6190, 1219.651
708.7740, 1296.901
709.9290, 1329.138
711.0830, 1406.365
712.2370, 1463.026
713.3910, 1472.222
714.5450, 1462.167
715.6980, 1445.938
716.8520, 1362.643
718.0050, 1255.115
719.1580, 1180.650
720.3110, 1025.248
721.4640, 815.3369
722.6170, 759.1865
723.7700, 461.5498
724.9220, 443.0381
726.0740, 233.7197
727.2260, 254.0127
728.3780, 244.0010
729.5300, 205.9717
730.6810, 94.00586
731.8330, 115.9395
732.9840, 7.855469
734.1350, 23.26953
735.2860, 29.55078
736.4370, 85.33887
737.5880, 27.10742
738.7380, 46.84277
739.8880, 107.5527
741.0390, 58.05957
742.1890, 106.9102
743.3380, 29.55762
744.4880, 32.17383
745.6380, 31.75879
746.7870, 203.3145
747.9360, 76.84961
749.0850, 156.3633
750.2340, 164.8574
751.3830, 94.33203
752.5310, 121.7852
753.6800, 10.78027
754.8280, 22.39551
755.9760, 116.9316
757.1240, 5.239258
758.2720, 15.50391
759.4190, 20.73242
760.5670, 27.07422
761.7140, 1.940430
762.8610, 17.36035
764.0080, 75.81738
765.1550, 18.86719
766.3020, 89.97266
767.4480, 91.16895
768.5950, 101.4580
769.7410, 120.8438
770.8870, 130.3018
772.0330, 109.3760
773.1780, 83.48535
774.3240, 48.16016
775.4690, 0.1328130
776.6140, 49.41992
777.7590, 23.26074
778.9040, 108.9473
780.0490, 0.7128910
781.1940, 30.51855
782.3380, 33.76172
783.4820, 83.02930
784.6260, 67.32715
785.7700, 126.6240
786.9140, 104.9121
788.0580, 124.2002
789.2010, 193.4717
790.3450, 213.6348
791.4880, 316.9580
792.6310, 332.1787
793.7730, 451.3818
794.9160, 545.5654
796.0590, 709.7305
797.2010, 662.8789
798.3430, 775.0088
799.4850, 1128.127
800.6270, 1071.228
801.7690, 1371.312
802.9100, 1521.377
804.0520, 1822.425
805.1930, 1878.454
806.3340, 2002.466
807.4750, 1932.461
808.6160, 1942.438
809.7560, 1850.397
810.8970, 1520.339
812.0370, 1327.264
813.1770, 1224.172
814.3170, 1014.208
815.4570, 1001.935
816.5960, 753.7910
817.7360, 768.6299
818.8750, 663.4521
820.0140, 577.2568
821.1530, 545.0449
822.2920, 588.8174
823.4310, 611.8662
824.5690, 616.3105
825.7070, 780.0322
826.8460, 816.7383
827.9840, 931.4277
829.1220, 849.1016
830.2590, 1062.760
831.3970, 1118.401
832.5340, 1308.027
833.6710, 1372.637
834.8080, 1281.230
835.9450, 1065.810
837.0820, 1036.373
838.2190, 781.9199
839.3550, 621.4512
840.4910, 533.9678
841.6270, 308.4697
842.7630, 292.9561
843.8990, 96.42773
845.0350, 198.8838
846.1700, 127.3252
847.3060, 81.75195
848.4410, 41.83691
849.5760, 179.5293
850.7100, 18.12012
851.8450, 27.19727
852.9800, 19.49707
854.1140, 90.22363
855.2480, 92.01367
856.3820, 77.87402
857.5160, 22.79785
858.6500, 2.246094
859.7830, 60.73242
860.9170, 15.76270
862.0500, 5.178711
863.1830, 32.10059
864.3160, 86.00684
865.4480, 117.8994
866.5810, 51.78125
867.7130, 95.60645
868.8460, 98.46191
869.9780, 155.1465
871.1100, 245.8818
872.2410, 110.4453
873.3730, 127.0957
874.5050, 214.5586
875.6360, 217.5498
876.7670, 270.3311
877.8980, 302.5312
879.0290, 227.2910
880.1590, 259.7998
881.2900, 304.3760
882.4200, 397.9346
883.5500, 368.6553
884.6800, 419.0713
885.8100, 497.7744
886.9400, 514.4688
888.0690, 545.0400
889.1990, 645.7178
890.3280, 721.0742
891.4570, 802.4736
892.5860, 881.3672
893.7140, 1032.724
894.8430, 1202.618
895.9710, 1398.729
897.1000, 1502.057
898.2280, 1720.964
899.3560, 2008.906
900.4830, 2392.186
901.6110, 2518.047
902.7380, 2950.454
903.8660, 3656.814
904.9930, 4365.543
906.1200, 5163.072
907.2460, 6443.051
908.3730, 8059.370
909.5000, 10341.34
910.6260, 13302.56
911.7520, 16736.83
912.8780, 21159.86
914.0040, 25795.72
915.1290, 30951.24
916.2550, 36704.61
917.3800, 41526.29
918.5050, 44561.07
919.6300, 45132.62
920.7550, 42139.05
921.8800, 36335.77
923.0040, 29963.47
924.1290, 24102.21
925.2530, 19223.95
926.3770, 15699.68
927.5010, 13394.42
928.6250, 11607.17
929.7480, 9806.917
930.8720, 8438.688
931.9950, 7179.462
933.1180, 6145.236
934.2410, 5138.028
935.3640, 4453.855
936.4860, 3788.688
937.6090, 3302.523
938.7310, 2979.360
939.8530, 2595.200
940.9750, 2530.044
942.0970, 2389.890
943.2180, 2423.739
944.3400, 2459.591
945.4610, 2570.447
946.5820, 2448.311
947.7030, 2752.181
948.8240, 2810.055
949.9450, 2733.932
951.0650, 2627.817
952.1860, 2508.578
953.3060, 2337.604
954.4260, 2112.504
955.5460, 1721.434
956.6650, 1430.368
957.7850, 1304.310
958.9040, 1013.256
960.0230, 781.2070
961.1420, 810.1631
962.2610, 600.1260
963.3800, 552.0918
964.4990, 385.0635
965.6170, 249.0420
966.7350, 255.0234
967.8530, 325.0117
968.9710, 111.0059
970.0890, 187.0049
971.2070, 108.0107
972.3240, 141.0225
973.4410, 246.0400
974.5580, 172.0645
975.6750, 164.0957
976.7920, 264.1328
977.9090, 208.1768
979.0250, 194.2266
980.1410, 138.2842
981.2580, 126.3477
982.3740, 221.4268
983.4890, 237.0645
984.6050, 214.1729
985.7200, 31.38672
986.8360, 119.0566
987.9510, 87.64648
989.0660, 127.4824
990.1810, 131.2480
991.2950, 135.9424
992.4100, 128.1406
993.5240, 111.5713
994.6390, 26.48242
995.7530, 22.25977
996.8660, 52.30664
997.9800, 119.7979
999.0940, 168.0557
1000.207, 286.4697
1001.320, 375.6660
1002.433, 366.9561
1003.546, 499.2559
1004.659, 579.5781
1005.772, 799.9297
1006.884, 960.2998
1007.996, 1242.681
1009.108, 1479.079
1010.220, 1691.289
1011.332, 1996.713
1012.444, 2372.151
1013.555, 2722.601
1014.666, 3174.067
1015.777, 3458.552
1016.888, 3854.054
1017.999, 4016.564
1019.110, 4064.095
1020.220, 4103.635
1021.331, 3932.341
1022.441, 3617.904
1023.551, 3312.550
1024.661, 2961.343
1025.770, 2525.976
1026.880, 2253.281
1027.989, 2070.947
1029.098, 1954.634
1030.207, 1672.339
1031.316, 1394.074
1032.425, 1302.841
1033.533, 1208.637
1034.642, 1156.476
1035.750, 1077.563
1036.858, 976.7607
1037.966, 999.7236
1039.073, 817.7373
1040.181, 959.2812
1041.288, 938.4199
1042.396, 1091.538
1043.503, 880.7588
1044.610, 1025.050
1045.716, 1037.379
1046.823, 1221.674
1047.929, 1289.577
1049.036, 1426.895
1050.142, 1610.290
1051.248, 1993.699
1052.353, 2414.517
1053.459, 2934.703
1054.564, 3460.152
1055.670, 4309.874
1056.775, 5708.338
1057.880, 7199.900
1058.985, 8516.432
1060.089, 10735.04
1061.194, 12636.93
1062.298, 14616.66
1063.402, 16009.21
1064.506, 16294.84
1065.610, 15391.37
1066.713, 13644.05
1067.817, 11324.81
1068.920, 8985.806
1070.023, 7168.381
1071.126, 5500.960
1072.229, 4453.548
1073.332, 3581.145
1074.435, 3102.748
1075.537, 2558.425
1076.639, 2248.180
1077.741, 1931.932
1078.843, 1628.048
1079.945, 1569.514
1081.046, 1354.319
1082.148, 1322.021
1083.249, 1265.049
1084.350, 1257.227
1085.451, 1105.993
1086.551, 967.7783
1087.652, 1127.420
1088.752, 1082.137
1089.853, 902.3701
1090.953, 918.1729
1092.053, 657.9082
1093.152, 678.6514
1094.252, 656.5107
1095.351, 703.2637
1096.451, 684.0635
1097.550, 738.8350
1098.649, 746.6084
1099.748, 738.3867
1100.846, 758.1719
1101.945, 799.8818
1103.043, 745.7578
1104.141, 915.7256
1105.239, 939.5820
1106.337, 1015.526
1107.434, 1014.433
1108.532, 1056.185
1109.629, 986.0205
1110.726, 901.8633
1111.823, 966.7100
1112.920, 674.5615
1114.017, 713.5996
1115.113, 532.4609
1116.210, 401.8047
1117.306, 362.6904
1118.402, 380.2812
1119.498, 338.1875
1120.593, 273.5312
1121.689, 311.4756
1122.784, 218.4512
1123.879, 349.5801
1124.974, 183.5977
1126.069, 268.9199
1127.164, 130.9668
1128.259, 112.0898
1129.353, 125.1523
1130.447, 185.3984
1131.541, 9.532227
1132.635, 17.53711
1133.729, 88.60938
1134.822, 192.6855
1135.916, 41.76367
1137.009, 121.1104
1138.102, 68.19238
1139.195, 102.2754
1140.288, 37.36133
1141.380, 29.55176
1142.473, 124.5332
1143.565, 10.62598
1144.657, 145.8916
1145.749, 128.9951
1146.841, 44.14746
1147.932, 40.25293
1149.024, 24.35840
1150.115, 93.20605
1151.206, 111.3125
1152.297, 6.581055
1153.388, 146.5234
1154.479, 63.37305
1155.569, 7.296875
1156.659, 70.77539
1157.750, 19.15039
1158.839, 7.914063
1159.929, 38.97852
1161.019, 18.06543
1162.108, 17.12891
1163.198, 125.4922
1164.287, 68.55469
1165.376, 113.6143
1166.465, 4.327148
1167.553, 58.27344
1168.642, 68.74902
1169.730, 91.76758
1170.818, 91.21680
1171.906, 19.25098
1172.994, 17.29004
1174.082, 75.65918
1175.170, 8.603516
1176.257, 33.45703
1177.344, 29.45898
1178.431, 56.62695
1179.518, 77.75195
1180.605, 45.07422
1181.691, 116.8965
1182.778, 51.28809
1183.864, 40.50879
1184.950, 28.24023
1186.036, 1.983398
1187.122, 54.71680
1188.207, 11.44336
1189.292, 22.87402
1190.378, 8.876953
1191.463, 1.582031
1192.548, 11.65820
1193.632, 55.98340
1194.717, 17.65039
1195.801, 73.27539
1196.886, 40.10645
1197.970, 120.4395
1199.054, 4.066406
1200.137, 54.55957
1201.221, 75.13281
1202.305, 168.6572
1203.388, 113.4141
1204.471, 107.8057
1205.554, 36.34668
1206.637, 20.79492
1207.719, 24.23340
1208.802, 7.664063
1209.884, 2.575195
1210.966, 23.33887
1212.048, 50.87207
1213.130, 13.83301
1214.212, 11.20117
1215.293, 46.55664
1216.374, 45.09473
1217.456, 75.57031
1218.536, 124.0596
1219.617, 13.43457
1220.698, 51.68750
1221.778, 133.0127
1222.859, 123.2939
1223.939, 45.51855
1225.019, 118.7314
1226.099, 64.93555
1227.178, 73.50781
1228.258, 88.60352
1229.337, 96.78027
1230.417, 128.9453
1231.496, 176.1006
1232.574, 178.2471
1233.653, 40.55859
1234.732, 69.80371
1235.810, 50.91699
1236.888, 126.9561
1237.966, 115.0498
1239.044, 89.13281
1240.122, 135.2051
1241.199, 112.2676
1242.277, 102.3271
1243.354, 22.54297
1244.431, 91.48340
1245.508, 10.44629
1246.585, 121.5225
1247.661, 13.52051
1248.738, 165.4023
1249.814, 40.68457
1250.890, 115.1797
1251.966, 99.03125
1253.042, 66.87305
1254.117, 143.7021
1255.193, 40.51758
1256.268, 135.3203
1257.343, 84.10938
1258.418, 141.8867
1259.493, 58.76660
1260.567, 120.5176
1261.642, 109.1436
1262.716, 162.8691
1263.790, 110.7373
1264.864, 210.4385
1265.938, 50.24219
1267.011, 161.9150
1268.085, 147.5762
1269.158, 175.2246
1270.231, 146.9736
1271.304, 227.0293
1272.377, 218.0078
1273.450, 72.07520
1274.522, 173.2705
1275.594, 101.8936
1276.666, 166.4521
1277.738, 126.9961
1278.810, 32.69043
1279.882, 299.2002
1280.953, 129.6982
1282.025, 178.0420
1283.096, 243.5156
1284.167, 239.0107
1285.238, 150.2754
1286.308, 168.7568
1287.379, 316.5234
1288.449, 305.1445
1289.519, 110.6553
1290.589, 270.0713
1291.659, 17.65723
1292.729, 272.3184
1293.798, 226.6562
1294.868, 335.1279
1295.937, 134.3750
1297.006, 125.3916
1298.075, 221.8428
1299.143, 178.1152
1300.212, 304.0557
1301.280, 158.6406
1302.348, 201.1904
1303.416, 222.4102
1304.484, 288.6133
1305.552, 287.1924
1306.620, 305.1699
1307.687, 273.7959
1308.754, 278.0049
1309.821, 222.2080
1310.888, 157.3701
1311.955, 205.1084
1313.021, 253.4658
1314.088, 163.5635
1315.154, 173.3867
1316.220, 165.4639
1317.286, 277.4385
1318.352, 211.4414
1319.417, 146.3652
1320.483, 87.99512
1321.548, 193.7842
1322.613, 146.7490
1323.678, 148.6387
1324.743, 115.6133
1325.807, 77.52832
1326.872, 161.2783
1327.936, 135.7861
1329.000, 69.71973
