##NAMES=Andalusite
##RRUFFID=R060197
##IDEAL CHEMISTRY=Al_2_SiO_5_
##LOCALITY=Brazil
##OWNER=RRUFF
##SOURCE=Marcus Origlieri
##DESCRIPTION=Green colored water worn pebble
##STATUS=The identification of this mineral has been confirmed by X-ray diffraction and chemical analysis
##URL=rruff.info/R060197
##MEASURED CHEMISTRY=(Al_1.97_Mn^3+^_0.03_)_Î£=2_Si_1.00_O_5_
##PIN_ID=M00466
##ORIENTATION=Laser parallel to a* (1 0 0). Fiducial mark perpendicular to laser is parallel to -b [0 -1 0]
91.01200, 0.0000000E+00
92.24600, 8.518555
93.48000, 230.7754
94.71400, 138.3418
95.94800, 187.6831
97.18200, 64.69336
98.41600, 22.48291
99.64900, 89.86328
100.8830, 225.0439
102.1160, 14.47070
103.3490, 95.55273
104.5820, 183.7935
105.8150, 500.8003
107.0470, 1040.330
108.2800, 1812.567
109.5120, 2774.727
110.7440, 2184.369
111.9760, 891.1333
113.2080, 655.7598
114.4400, 639.0596
115.6710, 888.8906
116.9030, 875.1533
118.1340, 833.7720
119.3650, 563.6934
120.5960, 433.8716
121.8270, 375.7920
123.0580, 667.9106
124.2880, 825.8564
125.5190, 541.5625
126.7490, 522.9980
127.9790, 531.8955
129.2090, 700.2500
130.4390, 843.1216
131.6680, 884.5679
132.8980, 871.6372
134.1270, 890.3755
135.3560, 1035.822
136.5850, 1234.013
137.8140, 1433.980
139.0430, 2009.750
140.2710, 2429.348
141.5000, 2709.810
142.7280, 2917.173
143.9560, 2807.454
145.1840, 2565.668
146.4120, 2113.821
147.6390, 1926.924
148.8670, 1570.981
150.0940, 1310.002
151.3210, 1273.277
152.5490, 1249.999
153.7750, 993.7119
155.0020, 1082.899
156.2290, 1020.215
157.4550, 977.3003
158.6810, 963.8662
159.9080, 940.6890
161.1340, 1000.339
162.3590, 939.9009
163.5850, 1101.173
164.8110, 1221.541
166.0360, 1348.972
167.2610, 1422.481
168.4860, 1263.076
169.7110, 1316.764
170.9360, 1287.555
172.1610, 1263.453
173.3850, 998.4595
174.6100, 1016.574
175.8340, 906.7964
177.0580, 1063.127
178.2820, 847.5645
179.5050, 1006.106
180.7290, 857.7534
181.9520, 895.5020
183.1760, 977.3496
184.3990, 1044.293
185.6220, 1198.332
186.8450, 1406.461
188.0670, 1713.695
189.2900, 1855.051
190.5120, 1902.678
191.7340, 2148.653
192.9560, 2094.899
194.1780, 2132.274
195.4000, 2254.722
196.6220, 2158.232
197.8430, 2022.801
199.0640, 1899.416
200.2860, 2030.072
201.5070, 2272.771
202.7270, 2138.513
203.9480, 1825.299
205.1690, 1124.130
206.3890, 609.0078
207.6090, 225.9316
208.8290, 256.9053
210.0490, 55.07324
211.2690, 251.9990
212.4890, 108.1201
213.7080, 106.2939
214.9280, 172.5186
216.1470, 84.79492
217.3660, 117.1240
218.5850, 22.50684
219.8030, 93.05664
221.0220, 174.5635
222.2400, 192.0117
223.4590, 239.4307
224.6770, 224.7598
225.8950, 231.1016
227.1120, 166.3604
228.3300, 103.5654
229.5480, 70.83105
230.7650, 7.502930
231.9820, 3.119141
233.1990, 133.3809
234.4160, 206.6289
235.6330, 246.9297
236.8490, 440.3076
238.0660, 475.1807
239.2820, 430.4873
240.4980, 580.0840
241.7140, 494.7959
242.9300, 565.8867
244.1460, 341.1221
245.3610, 406.0244
246.5770, 202.6055
247.7920, 187.3320
249.0070, 82.18750
250.2220, 130.1611
251.4370, 230.2422
252.6510, 447.4229
253.8660, 434.6953
255.0800, 726.0527
256.2940, 640.4873
257.5080, 788.9912
258.7220, 1311.559
259.9360, 1305.406
261.1490, 1506.793
262.3630, 1587.613
263.5760, 1674.408
264.7890, 1594.254
266.0020, 1638.152
267.2150, 1816.100
268.4270, 2005.092
269.6400, 2319.130
270.8520, 2911.203
272.0640, 3657.292
273.2760, 4543.395
274.4880, 5440.512
275.7000, 5708.650
276.9120, 6100.809
278.1230, 6990.990
279.3340, 8632.195
280.5450, 10423.43
281.7560, 12362.69
282.9670, 14469.98
284.1780, 16999.10
285.3880, 19535.45
286.5980, 22269.58
287.8090, 24159.45
289.0190, 24864.04
290.2290, 24285.05
291.4380, 22127.35
292.6480, 19085.88
293.8570, 15761.57
295.0670, 12727.60
296.2760, 10168.26
297.4850, 8112.334
298.6930, 6718.006
299.9020, 5601.712
301.1110, 4717.441
302.3190, 4246.031
303.5270, 3807.405
304.7350, 3645.561
305.9430, 3480.601
307.1510, 4039.625
308.3580, 4492.688
309.5660, 5485.802
310.7730, 6570.970
311.9800, 7863.191
313.1870, 9214.469
314.3940, 11305.80
315.6010, 13330.18
316.8070, 15684.61
318.0130, 17136.10
319.2200, 16972.64
320.4260, 15144.24
321.6310, 15694.88
322.8370, 10783.58
324.0430, 9389.328
325.2480, 7592.131
326.4540, 6445.984
327.6590, 5437.887
328.8640, 4771.842
330.0680, 4354.848
331.2730, 4075.904
332.4780, 3948.012
333.6820, 3538.168
334.8860, 3672.376
336.0900, 3705.633
337.2940, 3535.937
338.4980, 3653.288
339.7010, 3666.687
340.9050, 3752.131
342.1080, 4132.622
343.3110, 4418.163
344.5140, 4793.785
345.7170, 5360.480
346.9200, 6178.239
348.1220, 6971.089
349.3240, 8209.009
350.5270, 9353.017
351.7290, 10598.11
352.9310, 11620.25
354.1320, 12702.45
355.3340, 13251.60
356.5350, 13474.90
357.7370, 12901.24
358.9380, 11743.62
360.1390, 10107.06
361.3400, 8513.537
362.5400, 7183.065
363.7410, 5852.551
364.9410, 4902.273
366.1410, 3959.643
367.3410, 3372.142
368.5410, 2998.143
369.7410, 2583.057
370.9400, 2099.706
372.1400, 1962.958
373.3390, 1694.715
374.5380, 1405.335
375.7370, 1233.973
376.9360, 1177.483
378.1350, 1062.682
379.3330, 1055.936
380.5310, 1006.240
381.7300, 1103.600
382.9280, 1040.347
384.1260, 978.4941
385.3230, 996.0283
386.5210, 938.6191
387.7180, 925.2666
388.9160, 1025.969
390.1130, 902.7275
391.3100, 809.5410
392.5060, 694.4082
393.7030, 551.5771
394.9000, 252.2998
396.0960, 284.3242
397.2920, 155.4023
398.4880, 81.53223
399.6840, 136.7139
400.8800, 225.9473
402.0750, 158.2324
403.2710, 184.5703
404.4660, 274.9600
405.6610, 225.4023
406.8560, 374.8965
408.0510, 448.4424
409.2450, 590.0410
410.4400, 544.6914
411.6340, 606.3945
412.8280, 854.1494
414.0220, 1177.958
415.2160, 1221.818
416.4100, 1469.730
417.6030, 1388.697
418.7970, 1322.717
419.9900, 1116.789
421.1830, 863.9160
422.3760, 693.0967
423.5690, 454.3320
424.7610, 311.6211
425.9540, 290.9658
427.1460, 49.63477
428.3380, 52.80273
429.5300, 72.70410
430.7220, 214.1807
431.9140, 147.6826
433.1050, 296.1855
434.2970, 201.7480
435.4880, 206.3311
436.6790, 104.9365
437.8700, 66.52148
439.0610, 61.92773
440.2510, 14.56543
441.4420, 240.9961
442.6320, 199.6152
443.8220, 391.2939
445.0120, 303.0322
446.2020, 523.8291
447.3910, 429.6885
448.5810, 583.6094
449.7700, 603.6006
450.9600, 495.6533
452.1490, 430.7715
453.3370, 269.9531
454.5260, 235.2100
455.7150, 118.5283
456.9030, 148.9102
458.0910, 213.3564
459.2800, 405.8633
460.4670, 502.4336
461.6550, 602.0664
462.8430, 847.7627
464.0300, 1039.520
465.2180, 1080.339
466.4050, 1312.222
467.5920, 1429.166
468.7790, 1725.172
469.9650, 1907.241
471.1520, 2059.372
472.3380, 2160.564
473.5250, 2457.818
474.7110, 2562.133
475.8970, 2705.511
477.0820, 2701.949
478.2680, 2938.449
479.4540, 2862.010
480.6390, 2639.633
481.8240, 2881.315
483.0090, 2819.061
484.1940, 1814.864
485.3780, 1648.239
486.5630, 1257.525
487.7470, 1080.930
488.9320, 774.2373
490.1160, 438.1650
491.3000, 279.4795
492.4830, 86.31641
493.6670, 122.5586
494.8500, 133.8945
496.0340, 65.63574
497.2170, 22.08594
498.4000, 224.6162
499.5820, 190.2021
500.7650, 110.8438
501.9480, 579.5420
503.1300, 1124.296
504.3120, 574.1064
505.4940, 863.9707
506.6760, 899.8994
507.8580, 750.9121
509.0390, 934.0303
510.2210, 793.5195
511.4020, 1032.708
512.5830, 950.1680
513.7640, 877.7441
514.9450, 827.1357
516.1250, 714.4189
517.3060, 592.7402
518.4860, 505.6426
519.6660, 478.6084
520.8460, 390.6270
522.0260, 355.6982
523.2060, 230.8223
524.3850, 299.9990
525.5650, 158.2295
526.7440, 268.5107
527.9230, 213.8457
529.1020, 388.2324
530.2810, 317.6689
531.4590, 350.1592
532.6380, 306.6992
533.8160, 424.2910
534.9940, 347.9336
536.1720, 601.6270
537.3500, 858.3711
538.5270, 1088.167
539.7050, 1485.021
540.8820, 2096.963
542.0590, 2588.964
543.2360, 3173.041
544.4130, 3824.186
545.5900, 4269.436
546.7660, 4765.738
547.9430, 5193.125
549.1190, 4937.568
550.2950, 4569.067
551.4710, 3864.625
552.6470, 3154.232
553.8220, 2635.893
554.9980, 1979.642
556.1730, 1613.022
557.3480, 1215.358
558.5230, 1033.312
559.6980, 901.3262
560.8730, 819.4385
562.0470, 818.6201
563.2220, 905.8799
564.3960, 910.2168
565.5700, 916.6973
566.7440, 1039.302
567.9170, 1120.039
569.0910, 1235.122
570.2640, 1184.132
571.4380, 1190.972
572.6110, 1001.328
573.7840, 1038.521
574.9570, 882.4121
576.1290, 736.1543
577.3020, 763.8066
578.4740, 619.4268
579.6460, 566.8203
580.8180, 548.6689
581.9900, 508.3330
583.1620, 506.0625
584.3330, 549.0459
585.5040, 607.0723
586.6760, 705.1396
587.8470, 837.2520
589.0180, 955.4229
590.1880, 912.6914
591.3590, 892.9277
592.5290, 1036.359
593.7000, 1235.676
594.8700, 1135.504
596.0400, 1180.899
597.2090, 1282.334
598.3790, 1256.807
599.5490, 1261.316
600.7180, 1272.866
601.8870, 1353.452
603.0560, 1190.075
604.2250, 1307.733
605.3940, 1265.430
606.5620, 1101.159
607.7300, 984.9258
608.8990, 1004.726
610.0670, 819.5615
611.2350, 675.4307
612.4020, 590.3330
613.5700, 354.2695
614.7370, 644.2373
615.9050, 506.2383
617.0720, 331.2715
618.2390, 438.3359
619.4060, 222.4316
620.5720, 179.5566
621.7390, 172.7139
622.9050, 18.89941
624.0710, 211.1162
625.2370, 17.63965
626.4030, 170.3730
627.5690, 151.1445
628.7340, 85.94824
629.9000, 215.7549
631.0650, 124.6230
632.2300, 192.5117
633.3950, 198.4521
634.5600, 17.55371
635.7240, 64.41504
636.8890, 56.61621
638.0530, 185.6719
639.2170, 275.7529
640.3810, 289.8574
641.5450, 428.9844
642.7080, 382.1348
643.8720, 456.3086
645.0350, 394.7549
646.1980, 363.7227
647.3610, 205.9619
648.5240, 145.2217
649.6870, 6.496094
650.8490, 153.2002
652.0120, 118.0518
653.1740, 92.32324
654.3360, 21.38867
655.4980, 200.9092
656.6600, 209.2236
657.8210, 470.5537
658.9830, 692.9004
660.1440, 918.2627
661.3050, 1044.639
662.4660, 1050.031
663.6270, 1002.437
664.7870, 874.8574
665.9480, 845.2910
667.1080, 649.7383
668.2680, 526.1982
669.4280, 570.6709
670.5880, 846.1562
671.7480, 910.6533
672.9070, 1051.162
674.0670, 1033.682
675.2260, 1180.212
676.3850, 1194.752
677.5440, 1526.540
678.7030, 1402.846
679.8610, 1620.468
681.0200, 1607.830
682.1780, 1873.235
683.3360, 1809.518
684.4940, 1812.568
685.6520, 1749.413
686.8090, 2077.699
687.9670, 2150.820
689.1240, 2104.935
690.2810, 2377.674
691.4380, 2315.423
692.5950, 2279.241
693.7520, 2588.934
694.9080, 2633.168
696.0650, 2655.273
697.2210, 2751.278
698.3770, 2865.081
699.5330, 2819.031
700.6880, 2947.590
701.8440, 3177.421
702.9990, 3428.768
704.1550, 3482.203
705.3100, 3608.961
706.4650, 3727.575
707.6190, 3829.057
708.7740, 3812.397
709.9290, 3889.033
711.0830, 3829.638
712.2370, 3603.410
713.3910, 3440.005
714.5450, 3324.419
715.6980, 3099.605
716.8520, 2813.334
718.0050, 2393.410
719.1580, 2181.033
720.3110, 1753.353
721.4640, 1449.998
722.6170, 1092.621
723.7700, 893.2197
724.9220, 433.7959
726.0740, 188.3486
727.2260, 144.8799
728.3780, 82.38477
729.5300, 176.8535
730.6810, 131.2988
731.8330, 192.7148
732.9840, 46.10645
734.1350, 255.4482
735.2860, 328.7646
736.4370, 757.0527
737.5880, 663.4854
738.7380, 676.5527
739.8880, 764.7617
741.0390, 757.9434
742.1890, 891.9287
743.3380, 1167.226
744.4880, 1089.324
745.6380, 1278.395
746.7870, 1249.436
747.9360, 1489.448
749.0850, 1544.432
750.2340, 1534.384
751.3830, 1399.309
752.5310, 1355.202
753.6800, 1496.065
754.8280, 1432.899
755.9760, 1430.702
757.1240, 1361.475
758.2720, 1460.216
759.4190, 1273.924
760.5670, 1307.602
761.7140, 1305.247
762.8610, 1090.862
764.0080, 1067.935
765.1550, 1107.127
766.3020, 922.2275
767.4480, 1226.454
768.5950, 1120.088
769.7410, 901.3633
770.8870, 1094.146
772.0330, 1227.550
773.1780, 1281.887
774.3240, 1324.848
775.4690, 1480.615
776.6140, 1614.554
777.7590, 1851.595
778.9040, 2004.784
780.0490, 2403.947
781.1940, 2669.078
782.3380, 3104.180
783.4820, 3559.192
784.6260, 4173.297
785.7700, 4568.310
786.9140, 5151.293
788.0580, 5693.983
789.2010, 5947.063
790.3450, 5928.959
791.4880, 5881.822
792.6310, 5675.942
793.7730, 5158.748
794.9160, 4714.521
796.0590, 4169.267
797.2010, 3830.981
798.3430, 3399.055
799.4850, 2830.317
800.6270, 2613.939
801.7690, 2212.531
802.9100, 1741.091
804.0520, 1557.621
805.1930, 1454.118
806.3340, 1154.585
807.4750, 1079.020
808.6160, 811.4219
809.7560, 762.7930
810.8970, 672.1328
812.0370, 473.4395
813.1770, 414.7129
814.3170, 201.9541
815.4570, 88.16016
816.5960, 50.68457
817.7360, 88.36426
818.8750, 14.63672
820.0140, 21.27344
821.1530, 119.8857
822.2920, 124.8105
823.4310, 27.53809
824.5690, 60.01660
825.7070, 112.5137
826.8460, 78.96289
827.9840, 244.3584
829.1220, 135.7178
830.2590, 64.97070
831.3970, 9.771484
832.5340, 7.663086
833.6710, 70.35938
834.8080, 38.86523
835.9450, 100.7725
837.0820, 0.9931640
838.2190, 35.32422
839.3550, 27.74023
840.4910, 284.2578
841.6270, 210.0039
842.7630, 239.9434
843.8990, 286.0947
845.0350, 236.4746
846.1700, 194.0645
847.3060, 257.8359
848.4410, 10.17578
849.5760, 114.8906
850.7100, 96.09766
851.8450, 188.4375
852.9800, 85.95508
854.1140, 28.60156
855.2480, 162.6582
856.3820, 193.8730
857.5160, 495.0488
858.6500, 412.1875
859.7830, 581.2910
860.9170, 816.3594
862.0500, 799.3945
863.1830, 775.3965
864.3160, 965.3438
865.4480, 968.2012
866.5810, 1246.100
867.7130, 1294.807
868.8460, 1337.637
869.9780, 1430.963
871.1100, 1453.725
872.2410, 1174.455
873.3730, 1326.154
874.5050, 1189.816
875.6360, 1273.447
876.7670, 992.0469
877.8980, 1108.613
879.0290, 1119.146
880.1590, 1221.650
881.2900, 989.1211
882.4200, 911.5625
883.5500, 1076.973
884.6800, 1196.373
885.8100, 924.7441
886.9400, 1051.084
888.0690, 1001.398
889.1990, 1165.684
890.3280, 1274.309
891.4570, 1340.164
892.5860, 1560.363
893.7140, 1501.531
894.8430, 1600.674
895.9710, 1750.807
897.1000, 1974.967
898.2280, 2378.125
899.3560, 2551.285
900.4830, 3132.461
901.6110, 3525.582
902.7380, 4543.875
903.8660, 4780.113
904.9930, 5392.422
906.1200, 6594.736
907.2460, 8139.072
908.3730, 10469.48
909.5000, 13172.91
910.6260, 16411.39
911.7520, 20963.89
912.8780, 26058.40
914.0040, 31200.89
915.1290, 36834.40
916.2550, 41386.91
917.3800, 43245.41
918.5050, 41994.94
919.6300, 38269.46
920.7550, 33285.99
921.8800, 28695.48
923.0040, 25403.98
924.1290, 22714.51
925.2530, 20627.04
926.3770, 19044.55
927.5010, 17184.04
928.6250, 15652.50
929.7480, 13910.95
930.8720, 12022.40
931.9950, 10514.83
933.1180, 9421.230
934.2410, 8226.609
935.3640, 7380.502
936.4860, 6807.293
937.6090, 6184.605
938.7310, 6068.895
939.8530, 6019.156
940.9750, 5972.391
942.0970, 6127.602
943.2180, 6687.789
944.3400, 6968.949
945.4610, 7027.082
946.5820, 7243.191
947.7030, 7460.275
948.8240, 7398.334
949.9450, 7172.131
951.0650, 6593.395
952.1860, 6130.326
953.3060, 5451.502
954.4260, 4763.617
955.5460, 4247.842
956.6650, 3781.260
957.7850, 3380.908
958.9040, 3140.080
960.0230, 2809.396
961.1420, 2697.271
962.2610, 2636.365
963.3800, 2499.004
964.4990, 2440.553
965.6170, 2490.205
966.7350, 2371.301
967.8530, 2215.506
968.9710, 2074.795
970.0890, 2312.262
971.2070, 2041.564
972.3240, 2113.238
973.4410, 1849.617
974.5580, 1823.461
975.6750, 1694.197
976.7920, 1464.590
977.9090, 1302.105
979.0250, 1088.730
980.1410, 1193.484
981.2580, 938.9199
982.3740, 1030.379
983.4890, 924.6914
984.6050, 736.1875
985.7200, 715.8965
986.8360, 769.8496
987.9510, 716.2812
989.0660, 781.3574
990.1810, 723.4570
991.2950, 692.5977
992.4100, 633.1289
993.5240, 550.5801
994.6390, 543.0293
995.7530, 395.4766
996.8660, 508.9219
997.9800, 453.3672
999.0940, 633.8086
1000.207, 500.2539
1001.320, 759.7012
1002.433, 970.1445
1003.546, 1099.590
1004.659, 969.0430
1005.772, 1446.498
1006.884, 1526.949
1007.996, 2024.402
1009.108, 2176.852
1010.220, 2771.303
1011.332, 3246.750
1012.444, 3858.199
1013.555, 4583.873
1014.666, 4838.551
1015.777, 5171.096
1016.888, 5492.012
1017.999, 5596.920
1019.110, 5421.555
1020.220, 5307.430
1021.331, 4828.619
1022.441, 4466.465
1023.551, 3926.521
1024.661, 3528.539
1025.770, 3158.980
1026.880, 2863.102
1027.989, 2632.258
1029.098, 2289.342
1030.207, 2305.734
1031.316, 2063.232
1032.425, 1876.564
1033.533, 1742.309
1034.642, 1670.422
1035.750, 1545.645
1036.858, 1391.393
1037.966, 1305.951
1039.073, 1337.760
1040.181, 1307.658
1041.288, 1381.148
1042.396, 1349.494
1043.503, 1128.945
1044.610, 1348.730
1045.716, 1318.266
1046.823, 1369.584
1047.929, 1738.625
1049.036, 1820.000
1050.142, 1948.896
1051.248, 2116.178
1052.353, 2580.047
1053.459, 2966.072
1054.564, 3713.646
1055.670, 4242.164
1056.775, 4869.648
1057.880, 5677.348
1058.985, 6261.148
1060.089, 6394.730
1061.194, 6319.773
1062.298, 5868.516
1063.402, 5144.316
1064.506, 4278.225
1065.610, 3879.416
1066.713, 3227.594
1067.817, 2791.445
1068.920, 2810.600
1070.023, 2539.498
1071.126, 2484.896
1072.229, 2239.016
1073.332, 2125.119
1074.435, 2205.211
1075.537, 2008.291
1076.639, 2247.357
1077.741, 2017.414
1078.843, 1997.457
1079.945, 1921.490
1081.046, 2135.508
1082.148, 2136.518
1083.249, 2207.516
1084.350, 2319.508
1085.451, 2283.510
1086.551, 2198.547
1087.652, 2183.578
1088.752, 2169.615
1089.853, 1952.699
1090.953, 2061.775
1092.053, 2244.873
1093.152, 2137.969
1094.252, 2363.062
1095.351, 2318.154
1096.451, 2217.234
1097.550, 2415.311
1098.649, 2461.416
1099.748, 2671.539
1100.846, 2672.676
1101.945, 2992.811
1103.043, 3086.949
1104.141, 3368.131
1105.239, 3537.320
1106.337, 3422.535
1107.434, 3492.773
1108.532, 3532.094
1109.629, 3000.486
1110.726, 2759.955
1111.823, 2387.508
1112.920, 2017.137
1114.017, 1906.830
1115.113, 1939.604
1116.210, 1678.387
1117.306, 1493.211
1118.402, 1780.074
1119.498, 1469.994
1120.593, 1631.953
1121.689, 1376.926
1122.784, 1661.893
1123.879, 1542.854
1124.974, 1543.801
1126.069, 1535.736
1127.164, 1478.660
1128.259, 1015.574
1129.353, 848.4746
1130.447, 777.3613
1131.541, 493.2383
1132.635, 489.1016
1133.729, 357.9531
1134.822, 457.7910
1135.916, 496.6191
1137.009, 242.4336
1138.102, 264.2363
1139.195, 297.0273
1140.288, 273.8047
1141.380, 209.5703
1142.473, 191.0215
1143.565, 216.0625
1144.657, 117.7871
1145.749, 117.5000
1146.841, 150.1973
1147.932, 61.87891
1149.024, 58.45703
1150.115, 131.1523
1151.206, 74.74414
1152.297, 13.32031
1153.388, 82.87891
1154.479, 33.41602
1155.569, 44.19531
1156.659, 201.4375
1157.750, 25.92383
1158.839, 22.39258
1159.929, 39.15820
1161.019, 202.7598
1162.108, 76.49609
1163.198, 73.30273
1164.287, 143.1797
1165.376, 5.160156
1166.465, 86.17383
1167.553, 78.26367
1168.642, 186.4258
1169.730, 1.283203
1170.818, 16.03711
1171.906, 200.4004
1172.994, 115.8965
1174.082, 297.4902
1175.170, 77.27148
1176.257, 121.1230
1177.344, 22.07031
1178.431, 161.0605
1179.518, 23.16797
1180.605, 79.32031
1181.691, 101.5449
1182.778, 158.8574
1183.864, 2.281250
1184.950, 125.2598
1186.036, 106.2168
1187.122, 153.7793
1188.207, 86.54688
1189.292, 57.85352
1190.378, 107.1445
1191.463, 15.41602
1192.548, 61.66797
1193.632, 113.1016
1194.717, 23.04102
1195.801, 283.1621
1196.886, 220.2715
1197.970, 23.36523
1199.054, 347.4414
1200.137, 5.496094
1201.221, 114.5352
1202.305, 254.5508
1203.388, 222.5508
1204.471, 327.5410
1205.554, 287.5176
1206.637, 254.4824
1207.719, 481.4336
1208.802, 412.3711
1209.884, 403.2988
1210.966, 658.2188
1212.048, 636.1270
1213.130, 476.0234
1214.212, 766.9082
1215.293, 928.7793
1216.374, 1154.639
1217.456, 1433.488
1218.536, 1519.324
1219.617, 1759.148
1220.698, 1990.961
1221.778, 2378.762
1222.859, 2745.549
1223.939, 2901.324
1225.019, 3386.113
1226.099, 3655.891
1227.178, 4189.652
1228.258, 4658.422
1229.337, 4706.182
1230.417, 5342.928
1231.496, 5372.664
1232.574, 5492.385
1233.653, 5718.094
1234.732, 5559.793
1235.810, 6135.479
1236.888, 6254.152
1237.966, 6781.812
1239.044, 6811.459
1240.122, 7082.094
1241.199, 7199.715
1242.277, 7246.320
1243.354, 7748.918
1244.431, 8164.496
1245.508, 8085.061
1246.585, 8319.617
1247.661, 8278.154
1248.738, 8194.676
1249.814, 8238.184
1250.890, 8131.795
1251.966, 7963.152
1253.042, 7950.617
1254.117, 7795.068
1255.193, 7636.506
1256.268, 7559.932
1257.343, 7505.342
1258.418, 7070.750
1259.493, 7119.146
1260.567, 6526.551
1261.642, 6612.943
1262.716, 6447.324
1263.790, 6248.691
1264.864, 5852.051
1265.938, 5468.395
1267.011, 5338.746
1268.085, 4855.080
1269.158, 4762.406
1270.231, 4401.719
1271.304, 4263.020
1272.377, 3951.312
1273.450, 3732.590
1274.522, 3409.633
