##NAMES=Andalusite
##RRUFFID=R050626
##IDEAL CHEMISTRY=Al_2_SiO_5_
##LOCALITY=Minas Gerais, Brazil
##OWNER=RRUFF
##SOURCE=Gemological Center
##DESCRIPTION=Grayish brown fragment
##STATUS=The identification of this mineral has been confirmed by X-ray diffraction and chemical analysis
##URL=rruff.info/R050626
##MEASURED CHEMISTRY=(Al_1.99_Fe^3+^_0.01_)_Î£=1_Si_1.00_O_5_
##PIN_ID=L00923
##ORIENTATION=Laser parallel to a* (1 0 0). Fiducial mark perpendicular to laser is parallel to -b [0 -1 0]
123.0580, 0.0000000E+00
124.2880, 425.8232
125.5190, 601.1738
126.7490, 231.7078
127.9790, 8.456543
129.2090, 245.7903
130.4390, 278.5476
131.6680, 402.3594
132.8980, 423.3130
134.1270, 270.4431
135.3560, 130.0432
136.5850, 140.1072
137.8140, 263.9702
139.0430, 379.5977
140.2710, 591.6738
141.5000, 620.4697
142.7280, 475.6350
143.9560, 296.6736
145.1840, 301.5347
146.4120, 218.5186
147.6390, 316.0366
148.8670, 258.3806
150.0940, 271.9785
151.3210, 80.89258
152.5490, 272.5898
153.7750, 458.2229
155.0020, 447.9255
156.2290, 255.8086
157.4550, 181.9673
158.6810, 63.48315
159.9080, 13.42896
161.1340, 26.87109
162.3590, 77.86694
163.5850, 164.4678
164.8110, 370.7175
166.0360, 509.6550
167.2610, 731.3203
168.4860, 740.4438
169.7110, 723.5369
170.9360, 847.6011
172.1610, 960.4382
173.3850, 933.6089
174.6100, 871.0107
175.8340, 794.0793
177.0580, 828.6216
178.2820, 809.7437
179.5050, 809.8611
180.7290, 758.7534
181.9520, 786.7388
183.1760, 694.8149
184.3990, 732.9736
185.6220, 818.2024
186.8450, 1082.487
188.0670, 1205.824
189.2900, 1507.211
190.5120, 1964.651
191.7340, 2498.143
192.9560, 2934.687
194.1780, 2984.654
195.4000, 3354.934
196.6220, 2882.663
197.8430, 2601.517
199.0640, 2403.445
200.2860, 2183.445
201.5070, 2330.536
202.7270, 2507.711
203.9480, 2568.966
205.1690, 2110.299
206.3890, 1424.705
207.6090, 921.1777
208.8290, 684.7515
210.0490, 555.4883
211.2690, 362.3162
212.4890, 189.1929
213.7080, 142.1162
214.9280, 67.06445
216.1470, 5.016357
217.3660, 107.0298
218.5850, 42.92773
219.8030, 78.84570
221.0220, 8.272949
222.2400, 127.5483
223.4590, 85.24023
224.6770, 106.7827
225.8950, 131.2373
227.1120, 89.65625
228.3300, 37.05273
229.5480, 40.43750
230.7650, 53.81055
231.9820, 36.83057
233.1990, 115.4854
234.4160, 96.15576
235.6330, 134.8428
236.8490, 341.5459
238.0660, 540.2671
239.2820, 942.0073
240.4980, 1348.766
241.7140, 1981.543
242.9300, 2375.318
244.1460, 2507.066
245.3610, 2399.725
246.5770, 2277.258
247.7920, 1758.641
249.0070, 1416.908
250.2220, 1090.118
251.4370, 964.3350
252.6510, 1053.588
253.8660, 739.8784
255.0800, 661.2075
256.2940, 651.5742
257.5080, 500.9795
258.7220, 702.4233
259.9360, 872.9048
261.1490, 797.1890
262.3630, 778.2852
263.5760, 839.5830
264.7890, 794.1362
266.0020, 693.9023
267.2150, 815.6240
268.4270, 818.3887
269.6400, 879.3921
270.8520, 1001.591
272.0640, 1120.959
273.2760, 1211.370
274.4880, 1414.181
275.7000, 1732.624
276.9120, 2440.072
278.1230, 3058.529
279.3340, 3670.979
280.5450, 4135.422
281.7560, 4250.701
282.9670, 4484.023
284.1780, 5233.423
285.3880, 6466.812
286.5980, 8342.190
287.8090, 10570.49
289.0190, 13799.73
290.2290, 18290.97
291.4380, 24250.21
292.6480, 31539.34
293.8570, 37622.92
295.0670, 39706.43
296.2760, 36816.00
297.4850, 29721.19
298.6930, 21765.31
299.9020, 15538.40
301.1110, 10944.47
302.3190, 7935.532
303.5270, 5865.522
304.7350, 4423.874
305.9430, 3595.597
307.1510, 2953.535
308.3580, 2420.998
309.5660, 1994.900
310.7730, 1780.939
311.9800, 1786.983
313.1870, 2015.033
314.3940, 2255.086
315.6010, 2650.096
316.8070, 3568.044
318.0130, 4932.884
319.2200, 6973.751
320.4260, 10281.35
321.6310, 14827.27
322.8370, 19597.10
324.0430, 22061.14
325.2480, 21150.40
326.4540, 17742.51
327.6590, 13848.17
328.8640, 10309.27
330.0680, 7623.422
331.2730, 5793.856
332.4780, 4756.319
333.6820, 4062.812
334.8860, 3894.334
336.0900, 3556.885
337.2940, 3351.465
338.4980, 3275.073
339.7010, 3202.710
340.9050, 3177.375
342.1080, 2948.070
343.3110, 2874.792
344.5140, 2810.543
345.7170, 2714.320
346.9200, 2738.125
348.1220, 2805.956
349.3240, 3135.815
350.5270, 3539.700
351.7290, 4127.612
352.9310, 5012.551
354.1320, 6259.515
355.3340, 8414.508
356.5350, 10890.52
357.7370, 14485.54
358.9380, 18496.41
360.1390, 21748.88
361.3400, 23648.11
362.5400, 23098.96
363.7410, 20560.01
364.9410, 17080.93
366.1410, 13651.38
367.3410, 10904.44
368.5410, 8421.255
369.7410, 6768.807
370.9400, 5421.914
372.1400, 4605.716
373.3390, 3698.905
374.5380, 3350.968
375.7370, 2881.278
376.9360, 2495.248
378.1350, 2039.657
379.3330, 1781.026
380.5310, 1718.543
381.7300, 1392.086
382.9280, 1286.652
384.1260, 1347.245
385.3230, 1247.862
386.5210, 1296.504
387.7180, 1341.171
388.9160, 1174.864
390.1130, 1133.583
391.3100, 1294.327
392.5060, 1448.099
393.7030, 1713.899
394.9000, 2010.727
396.0960, 2104.589
397.2920, 1761.479
398.4880, 1285.413
399.6840, 910.3867
400.8800, 809.4185
402.0750, 600.4819
403.2710, 552.6050
404.4660, 437.7695
405.6610, 466.9844
406.8560, 493.2422
408.0510, 484.5366
409.2450, 605.8608
410.4400, 570.2256
411.6340, 682.6719
412.8280, 676.1475
414.0220, 697.6689
415.2160, 920.2290
416.4100, 971.8115
417.6030, 1118.433
418.7970, 1590.086
419.9900, 1871.759
421.1830, 2118.451
422.3760, 1949.164
423.5690, 1786.897
424.7610, 1433.649
425.9540, 1101.423
427.1460, 739.2158
428.3380, 524.0298
429.5300, 428.8633
430.7220, 269.7168
431.9140, 195.5908
433.1050, 118.4858
434.2970, 54.40137
435.4880, 62.66260
436.6790, 14.72314
437.8700, 119.7686
439.0610, 121.8315
440.2510, 19.91309
441.4420, 31.02246
442.6320, 23.98047
443.8220, 138.9609
445.0120, 179.9634
446.2020, 176.9888
447.3910, 266.0366
448.5810, 308.1104
449.7700, 429.2129
450.9600, 669.3428
452.1490, 763.4990
453.3370, 1238.679
454.5260, 1235.882
455.7150, 1213.109
456.9030, 764.3589
458.0910, 415.6328
459.2800, 205.9316
460.4670, 80.25537
461.6550, 44.39551
462.8430, 70.03027
464.0300, 126.6606
465.2180, 148.3062
466.4050, 108.9751
467.5920, 195.6523
468.7790, 60.37256
469.9650, 14.08496
471.1520, 28.76025
472.3380, 59.41455
473.5250, 85.94434
474.7110, 174.3301
475.8970, 218.7417
477.0820, 288.1787
478.2680, 320.6475
479.4540, 431.1440
480.6390, 454.6646
481.8240, 590.2251
483.0090, 828.8145
484.1940, 1027.434
485.3780, 1059.079
486.5630, 1094.760
487.7470, 957.4790
488.9320, 746.2241
490.1160, 701.0186
491.3000, 511.8457
492.4830, 476.7031
493.6670, 394.6182
494.8500, 203.5605
496.0340, 176.5547
497.2170, 135.5898
498.4000, 138.6606
499.5820, 87.76807
500.7650, 50.91162
501.9480, 135.0981
503.1300, 52.31836
504.3120, 193.5796
505.4940, 212.8677
506.6760, 271.2002
507.8580, 350.5874
509.0390, 417.0073
510.2210, 434.5029
511.4020, 437.0552
512.5830, 595.6660
513.7640, 565.3418
514.9450, 640.0713
516.1250, 601.8403
517.3060, 587.6489
518.4860, 637.5005
519.6660, 624.3740
520.8460, 595.2671
522.0260, 530.1802
523.2060, 604.1133
524.3850, 568.0649
525.5650, 575.5889
526.7440, 583.7534
527.9230, 546.0322
529.1020, 616.0581
530.2810, 523.1025
531.4590, 630.1641
532.6380, 729.2437
533.8160, 760.3408
534.9940, 753.4551
536.1720, 937.5864
537.3500, 948.9492
538.5270, 1115.124
539.7050, 1210.483
540.8820, 1407.368
542.0590, 1502.360
543.2360, 1761.194
544.4130, 2019.816
545.5900, 2445.953
546.7660, 2832.450
547.9430, 3323.101
549.1190, 4160.476
550.2950, 4921.180
551.4710, 5468.455
552.6470, 6094.562
553.8220, 6215.405
554.9980, 6139.023
556.1730, 5898.246
557.3480, 5137.054
558.5230, 4503.505
559.6980, 3716.965
560.8730, 3265.385
562.0470, 3016.788
563.2220, 2698.200
564.3960, 2548.677
565.5700, 2338.104
566.7440, 2311.539
567.9170, 2226.979
569.0910, 2360.429
570.2640, 2458.883
571.4380, 2660.345
572.6110, 2677.812
573.7840, 3038.286
574.9570, 2963.766
576.1290, 2977.261
577.3020, 2850.862
578.4740, 2354.045
579.6460, 2151.297
580.8180, 2064.489
581.9900, 1643.630
583.1620, 1538.298
584.3330, 1438.990
585.5040, 1279.687
586.6760, 1317.423
587.8470, 1158.193
589.0180, 1078.986
590.1880, 1062.812
591.3590, 910.6738
592.5290, 1022.567
593.7000, 817.4736
594.8700, 807.3867
596.0400, 849.3193
597.2090, 822.2539
598.3790, 857.2954
599.5490, 912.4346
600.7180, 906.6299
601.8870, 880.8970
603.0560, 1056.041
604.2250, 1101.910
605.3940, 1131.251
606.5620, 1334.600
607.7300, 1402.761
608.8990, 1453.774
610.0670, 1436.944
611.2350, 1538.698
612.4020, 1496.526
613.5700, 1386.664
614.7370, 1479.771
615.9050, 1534.732
617.0720, 1458.687
618.2390, 1546.899
619.4060, 1512.220
620.5720, 1659.171
621.7390, 1562.036
622.9050, 1671.958
624.0710, 1750.023
625.2370, 1747.244
626.4030, 1848.646
627.5690, 1854.266
628.7340, 1936.781
629.9000, 2188.444
631.0650, 2223.156
632.2300, 2216.565
633.3950, 2360.171
634.5600, 2067.872
635.7240, 1993.232
636.8890, 1908.153
638.0530, 1916.703
639.2170, 1828.552
640.3810, 1842.512
641.5450, 1770.490
642.7080, 1699.180
643.8720, 1785.318
645.0350, 1769.885
646.1980, 1971.721
647.3610, 2102.688
648.5240, 2050.053
649.6870, 2019.011
650.8490, 1899.328
652.0120, 1696.094
653.1740, 1674.885
654.3360, 1444.627
655.4980, 1417.355
656.6600, 1200.070
657.8210, 1089.771
658.9830, 909.4575
660.1440, 858.1294
661.3050, 930.7866
662.4660, 810.4297
663.6270, 1056.057
664.7870, 1001.668
665.9480, 967.2642
667.1080, 962.8442
668.2680, 656.4087
669.4280, 488.9570
670.5880, 352.4893
671.7480, 178.0044
672.9070, 98.50293
674.0670, 172.9839
675.2260, 137.4482
676.3850, 5.104492
677.5440, 37.31201
678.7030, 35.29053
679.8610, 26.94043
681.0200, 91.63428
682.1780, 7.592773
683.3360, 100.2061
684.4940, 28.08887
685.6520, 65.01758
686.8090, 35.01270
687.9670, 14.05811
689.1240, 17.85645
690.2810, 27.25342
691.4380, 183.4111
692.5950, 16.30127
693.7520, 95.01270
694.9080, 56.41016
696.0650, 20.12891
697.2210, 43.35840
698.3770, 45.09668
699.5330, 57.53076
700.6880, 77.94336
701.8440, 67.33594
702.9990, 51.70752
704.1550, 123.0576
705.3100, 179.3867
706.4650, 174.6943
707.6190, 226.9810
708.7740, 336.2471
709.9290, 353.4907
711.0830, 490.5254
712.2370, 629.9150
713.3910, 777.0942
714.5450, 924.4048
715.6980, 1145.541
716.8520, 1368.460
718.0050, 1480.024
719.1580, 1693.567
720.3110, 1865.890
721.4640, 1845.947
722.6170, 1711.380
723.7700, 1457.407
724.9220, 1171.966
726.0740, 921.9253
727.2260, 689.7769
728.3780, 560.9194
729.5300, 419.9092
730.6810, 320.5498
731.8330, 269.2295
732.9840, 195.5469
734.1350, 179.8608
735.2860, 160.6216
736.4370, 134.6343
737.5880, 122.5010
738.7380, 117.5151
739.8880, 112.1567
741.0390, 104.7930
742.1890, 139.3496
743.3380, 171.9136
744.4880, 171.4707
745.6380, 275.0244
746.7870, 152.5669
747.9360, 158.1157
749.0850, 18.64404
750.2340, 96.11768
751.3830, 79.56055
752.5310, 129.9746
753.6800, 160.3579
754.8280, 205.7129
755.9760, 67.03857
757.1240, 110.3237
758.2720, 166.5767
759.4190, 22.80029
760.5670, 77.96875
761.7140, 72.09863
762.8610, 117.1899
764.0080, 32.24951
765.1550, 27.25781
766.3020, 96.21191
767.4480, 24.86719
768.5950, 48.97314
769.7410, 57.76904
770.8870, 56.47803
772.0330, 84.17920
773.1780, 37.19971
774.3240, 1.336426
775.4690, 25.80713
776.6140, 19.22510
777.7590, 16.58789
778.9040, 1.106445
780.0490, 44.13428
781.1940, 60.32959
782.3380, 82.48486
783.4820, 147.6055
784.6260, 119.6982
785.7700, 88.76172
786.9140, 32.79248
788.0580, 88.77539
789.2010, 145.7256
790.3450, 135.6479
791.4880, 183.5435
792.6310, 219.4121
793.7730, 308.2539
794.9160, 249.0693
796.0590, 226.8579
797.2010, 264.6201
798.3430, 422.3564
799.4850, 432.0669
800.6270, 453.7505
801.7690, 390.4087
802.9100, 539.0405
804.0520, 535.6475
805.1930, 748.2285
806.3340, 800.7842
807.4750, 884.3145
808.6160, 1001.820
809.7560, 1149.300
810.8970, 1123.756
812.0370, 1221.187
813.1770, 1576.593
814.3170, 1580.762
815.4570, 1757.110
816.5960, 1879.266
817.7360, 2079.890
818.8750, 2244.397
820.0140, 2477.057
821.1530, 2576.920
822.2920, 2700.261
823.4310, 2627.233
824.5690, 2733.044
825.7070, 2595.125
826.8460, 2365.865
827.9840, 2135.031
829.1220, 1929.353
830.2590, 1821.932
831.3970, 1630.728
832.5340, 1497.576
833.6710, 1376.732
834.8080, 1246.440
835.9450, 1140.363
837.0820, 1051.318
838.2190, 943.2803
839.3550, 723.2271
840.4910, 774.1001
841.6270, 599.0166
842.7630, 604.9170
843.8990, 469.8027
845.0350, 272.6738
846.1700, 230.5308
847.3060, 99.37256
848.4410, 71.20020
849.5760, 121.0146
850.7100, 30.18506
851.8450, 38.58008
852.9800, 73.66797
854.1140, 84.97266
855.2480, 101.3403
856.3820, 66.77881
857.5160, 159.2686
858.6500, 70.85840
859.7830, 27.49951
860.9170, 123.1553
862.0500, 114.8882
863.1830, 66.69531
864.3160, 104.5498
865.4480, 126.4712
866.5810, 105.4707
867.7130, 40.53613
868.8460, 13.63184
869.9780, 66.74463
871.1100, 18.09912
872.2410, 13.06641
873.3730, 12.34814
874.5050, 124.2646
875.6360, 34.81396
876.7670, 47.28516
877.8980, 29.64404
879.0290, 137.3320
880.1590, 73.10059
881.2900, 61.86621
882.4200, 226.6240
883.5500, 199.3398
884.6800, 168.0723
885.8100, 187.6895
886.9400, 316.8330
888.0690, 389.6270
889.1990, 507.1973
890.3280, 600.9087
891.4570, 614.6211
892.5860, 617.0781
893.7140, 743.4243
894.8430, 849.5498
895.9710, 923.9263
897.1000, 1191.655
898.2280, 1298.239
899.3560, 1516.662
900.4830, 1656.900
901.6110, 2029.916
902.7380, 2199.038
903.8660, 2678.008
904.9930, 3052.928
906.1200, 3500.147
907.2460, 3829.167
908.3730, 4387.085
909.5000, 5311.343
910.6260, 6251.042
911.7520, 7454.108
912.8780, 9425.877
914.0040, 11389.53
915.1290, 14480.17
916.2550, 18449.09
917.3800, 23621.56
918.5050, 30518.62
919.6300, 37951.40
920.7550, 44038.06
921.8800, 46145.32
923.0040, 43223.98
924.1290, 36705.28
925.2530, 29938.13
926.3770, 24226.96
927.5010, 20233.82
928.6250, 17944.70
929.7480, 16178.59
930.8720, 14973.48
931.9950, 13496.39
933.1180, 12059.31
934.2410, 10411.23
935.3640, 9141.167
936.4860, 8032.117
937.6090, 7348.076
938.7310, 6967.048
939.8530, 6761.030
940.9750, 6597.025
942.0970, 6818.031
943.2180, 7016.052
944.3400, 7571.085
945.4610, 8688.131
946.5820, 9925.189
947.7030, 11779.27
948.8240, 14009.39
949.9450, 16728.54
951.0650, 18887.70
952.1860, 20696.88
953.3060, 21094.10
954.4260, 20043.36
955.5460, 17450.65
956.6650, 14590.97
957.7850, 11778.33
958.9040, 9481.732
960.0230, 7690.172
961.1420, 6198.640
962.2610, 5096.130
963.3800, 4174.648
964.4990, 3486.240
965.6170, 3022.853
966.7350, 2463.516
967.8530, 2254.221
968.9710, 1949.973
970.0890, 1856.761
971.2070, 1596.573
972.3240, 1614.403
973.4410, 1350.276
974.5580, 1257.172
975.6750, 1215.086
976.7920, 1234.020
977.9090, 1201.975
979.0250, 1171.272
980.1410, 1143.770
981.2580, 1064.975
982.3740, 1039.025
983.4890, 911.0972
984.6050, 813.1899
985.7200, 930.1523
986.8360, 856.2871
987.9510, 890.6484
989.0660, 837.3701
990.1810, 787.1509
991.2950, 848.1753
992.4100, 824.4678
993.5240, 883.3853
994.6390, 918.7104
995.7530, 954.5039
996.8660, 909.9009
997.9800, 1022.406
999.0940, 1063.620
1000.207, 1198.547
1001.320, 1528.885
1002.433, 1759.391
1003.546, 2251.437
1004.659, 2416.487
1005.772, 2877.094
1006.884, 3121.315
1007.996, 3277.988
1009.108, 3374.685
1010.220, 3204.414
1011.332, 3078.176
1012.444, 2851.033
1013.555, 2941.863
1014.666, 3023.373
1015.777, 3117.267
1016.888, 3811.192
1017.999, 4271.147
1019.110, 5060.136
1020.220, 5357.168
1021.331, 5882.237
1022.441, 5902.348
1023.551, 5611.503
1024.661, 5017.690
1025.770, 4456.333
1026.880, 3552.948
1027.989, 3062.246
1029.098, 2494.575
1030.207, 2150.950
1031.316, 2077.815
1032.425, 1725.273
1033.533, 1584.765
1034.642, 1499.302
1035.750, 1322.312
1036.858, 1292.944
1037.966, 1150.302
1039.073, 1174.296
1040.181, 1194.071
1041.288, 974.9131
1042.396, 977.0688
1043.503, 932.2729
1044.610, 992.2646
1045.716, 840.4800
1046.823, 899.4824
1047.929, 970.6143
1049.036, 883.4512
1050.142, 719.6787
1051.248, 893.2520
1052.353, 774.3828
1053.459, 996.6885
1054.564, 979.0967
1055.670, 1142.433
1056.775, 1303.920
1057.880, 1428.110
1058.985, 1739.666
1060.089, 2150.253
1061.194, 2612.871
1062.298, 3429.525
1063.402, 4286.210
1064.506, 5402.929
1065.610, 6610.680
1066.713, 7190.460
1067.817, 6965.426
1068.920, 6475.271
1070.023, 5494.151
1071.126, 4326.064
1072.229, 3490.009
1073.332, 2610.984
1074.435, 2184.995
1075.537, 1750.036
1076.639, 1542.124
1077.741, 1191.244
1078.843, 1111.398
1079.945, 914.9224
1081.046, 866.9829
1082.148, 796.2344
1083.249, 581.5171
1084.350, 548.8301
1085.451, 540.2021
1086.551, 564.6069
1087.652, 563.0420
1088.752, 405.5278
1089.853, 495.0435
1090.953, 502.5884
1092.053, 346.0864
1093.152, 389.6890
1094.252, 335.3818
1095.351, 471.0430
1096.451, 362.7324
1097.550, 440.4502
1098.649, 425.1958
1099.748, 476.3413
1100.846, 539.9893
1101.945, 606.8184
1103.043, 672.1978
1104.141, 815.0820
1105.239, 895.3867
1106.337, 1187.665
1107.434, 1305.628
1108.532, 1491.617
1109.629, 1630.631
1110.726, 1987.672
1111.823, 2030.738
1112.920, 1962.185
1114.017, 2009.301
1115.113, 1757.443
1116.210, 1672.609
1117.306, 1475.801
1118.402, 1365.028
1119.498, 1312.280
1120.593, 1430.339
1121.689, 1394.457
1122.784, 1451.739
1123.879, 1343.183
1124.974, 1396.693
1126.069, 1221.552
1127.164, 1051.130
1128.259, 955.3687
1129.353, 799.0581
1130.447, 679.7891
1131.541, 288.5703
1132.635, 290.9443
1133.729, 122.8315
1134.822, 226.7510
1135.916, 44.69580
1137.009, 115.0317
1138.102, 68.03613
1139.195, 25.93506
1140.288, 97.11328
1141.380, 75.67676
1142.473, 133.7666
1143.565, 5.124023
1144.657, 77.18213
1145.749, 36.15723
1146.841, 61.00488
1147.932, 29.26758
1149.024, 4.496094
1150.115, 88.71484
1151.206, 34.17285
1152.297, 46.42871
1153.388, 60.66797
1154.479, 43.58984
1155.569, 10.89941
1156.659, 57.77197
1157.750, 21.43848
1158.839, 88.86182
1159.929, 126.2290
1161.019, 43.77539
1162.108, 23.84863
1163.198, 10.58643
1164.287, 72.27686
1165.376, 61.78467
1166.465, 52.79688
1167.553, 57.56152
1168.642, 29.72119
1169.730, 14.20312
1170.818, 48.32666
1171.906, 32.99561
1172.994, 14.44922
1174.082, 45.44580
1175.170, 10.11865
1176.257, 42.30566
1177.344, 34.72998
1178.431, 118.5474
1179.518, 25.92969
1180.605, 21.66650
1181.691, 89.09326
1182.778, 29.39014
1183.864, 57.30371
1184.950, 49.57568
1186.036, 29.83984
1187.122, 12.40771
1188.207, 22.80078
1189.292, 78.79102
1190.378, 99.42041
1191.463, 128.0283
1192.548, 144.6006
1193.632, 137.0801
1194.717, 85.87744
1195.801, 78.51123
1196.886, 72.77393
1197.970, 3.653809
1199.054, 70.99561
1200.137, 26.83984
1201.221, 10.09131
1202.305, 40.75586
1203.388, 54.47363
1204.471, 26.76221
1205.554, 33.43994
1206.637, 43.65381
1207.719, 40.43311
1208.802, 169.0566
1209.884, 50.40479
1210.966, 113.7324
1212.048, 16.12793
1213.130, 110.7524
1214.212, 131.4985
1215.293, 36.01660
1216.374, 101.1377
1217.456, 87.95850
1218.536, 25.49268
1219.617, 22.16260
1220.698, 17.80957
1221.778, 32.55811
1222.859, 116.0566
1223.939, 9.671387
1225.019, 19.46680
1226.099, 93.07812
1227.178, 58.68848
1228.258, 25.29785
1229.337, 3.003906
1230.417, 94.38135
1231.496, 31.35254
1232.574, 1.128906
1233.653, 87.74414
1234.732, 83.71777
1235.810, 6.861328
1236.888, 55.34180
1237.966, 155.8198
1239.044, 80.29395
1240.122, 38.76562
1241.199, 47.23340
1242.277, 45.30225
1243.354, 37.12646
1244.431, 86.58984
1245.508, 393.0107
1246.585, 413.4268
1247.661, 343.8379
1248.738, 72.41260
1249.814, 4.819336
1250.890, 45.78760
1251.966, 3.566406
1253.042, 78.91553
1254.117, 62.24805
1255.193, 18.97803
1256.268, 44.29150
1257.343, 12.59766
1258.418, 50.88818
1259.493, 117.1699
1260.567, 47.60059
1261.642, 16.86523
1262.716, 111.1162
1263.790, 54.44873
1264.864, 60.67920
1265.938, 24.89990
1267.011, 76.10596
1268.085, 46.39160
1269.158, 63.19678
1270.231, 23.36963
1271.304, 148.5273
1272.377, 115.6733
1273.450, 10.74609
1274.522, 26.03857
1275.594, 142.4980
1276.666, 42.59082
1277.738, 46.67090
1278.810, 77.73584
1279.882, 38.79004
1280.953, 116.8286
1282.025, 1.855469
1283.096, 8.149414
1284.167, 68.86426
1285.238, 61.23633
1286.308, 157.1064
1287.379, 3.664063
1288.449, 177.7578
1289.519, 48.74023
1290.589, 7.382324
1291.659, 62.94922
1292.729, 51.56738
1293.798, 63.46240
1294.868, 6.243652
1295.937, 33.81445
1297.006, 25.80664
1298.075, 93.99707
1299.143, 89.69678
1300.212, 63.35059
1301.280, 177.9858
1302.348, 51.32715
