##NAMES=Andalusite
##RRUFFID=R060197
##IDEAL CHEMISTRY=Al_2_SiO_5_
##LOCALITY=Brazil
##OWNER=RRUFF
##SOURCE=Marcus Origlieri
##DESCRIPTION=Green colored water worn pebble
##STATUS=The identification of this mineral has been confirmed by X-ray diffraction and chemical analysis
##URL=rruff.info/R060197
##MEASURED CHEMISTRY=(Al_1.97_Mn^3+^_0.03_)_Î£=2_Si_1.00_O_5_
##PIN_ID=M00401
##ORIENTATION=Laser parallel to c* (0 0 1). Fiducial mark perpendicular to laser is parallel to a [1 0 0]
91.01200, 0.0000000E+00
92.24600, 1.039551
93.48000, 1.015625
94.71400, 66.87012
95.94800, 103.4478
97.18200, 41.88330
98.41600, 149.5234
99.64900, 320.1807
100.8830, 412.2310
102.1160, 675.7334
103.3490, 821.7988
104.5820, 1323.715
105.8150, 1722.747
107.0470, 2319.866
108.2800, 2770.240
109.5120, 3530.941
110.7440, 3132.679
111.9760, 2131.359
113.2080, 1787.670
114.4400, 1982.393
115.6710, 2175.373
116.9030, 1706.501
118.1340, 972.7012
119.3650, 440.9160
120.5960, 128.1079
121.8270, 85.25000
123.0580, 418.3228
124.2880, 363.6187
125.5190, 56.52246
126.7490, 49.05664
127.9790, 44.17529
129.2090, 187.6348
130.4390, 111.4917
131.6680, 259.4961
132.8980, 74.74121
134.1270, 79.30811
135.3560, 88.26465
136.5850, 190.6719
137.8140, 250.5801
139.0430, 268.2012
140.2710, 424.0801
141.5000, 286.7520
142.7280, 142.0864
143.9560, 81.11377
145.1840, 218.8604
146.4120, 325.3496
147.6390, 221.6021
148.8670, 191.6367
150.0940, 246.4702
151.3210, 342.1187
152.5490, 608.5967
153.7750, 613.9185
155.0020, 496.0977
156.2290, 402.1445
157.4550, 354.6201
158.6810, 434.9165
159.9080, 637.5742
161.1340, 805.0918
162.3590, 974.2275
163.5850, 1196.569
164.8110, 1392.712
166.0360, 1569.981
167.2610, 1711.386
168.4860, 1721.316
169.7110, 1557.608
170.9360, 1639.422
172.1610, 1507.368
173.3850, 1414.463
174.6100, 1342.721
175.8340, 1294.093
177.0580, 1247.574
178.2820, 1240.160
179.5050, 1128.848
180.7290, 1162.637
181.9520, 1217.521
183.1760, 1361.435
184.3990, 1784.417
185.6220, 2571.485
186.8450, 3064.637
188.0670, 3538.869
189.2900, 3668.185
190.5120, 3584.584
191.7340, 3728.062
192.9560, 4191.610
194.1780, 4636.229
195.4000, 5044.918
196.6220, 4954.044
197.8430, 4992.498
199.0640, 4490.376
200.2860, 4031.295
201.5070, 3546.248
202.7270, 3297.237
203.9480, 2614.264
205.1690, 1926.327
206.3890, 1570.429
207.6090, 1309.571
208.8290, 1381.755
210.0490, 1334.980
211.2690, 1273.249
212.4890, 1255.562
213.7080, 1428.918
214.9280, 1583.321
216.1470, 1499.771
217.3660, 1505.266
218.5850, 1158.810
219.8030, 844.4033
221.0220, 542.0479
222.2400, 180.7466
223.4590, 34.47754
224.6770, 228.6118
225.8950, 226.6743
227.1120, 280.6772
228.3300, 266.6245
229.5480, 287.5142
230.7650, 218.3804
231.9820, 139.4678
233.1990, 77.85205
234.4160, 113.5229
235.6330, 142.6562
236.8490, 197.7793
238.0660, 183.5894
239.2820, 358.6602
240.4980, 413.9580
241.7140, 361.4282
242.9300, 336.0293
244.1460, 386.7305
245.3610, 448.5259
246.5770, 464.4248
247.7920, 652.3667
249.0070, 795.3486
250.2220, 1220.359
251.4370, 2388.398
252.6510, 4414.466
253.8660, 6690.560
255.0800, 7652.282
256.2940, 6810.404
257.5080, 5982.367
258.7220, 6780.365
259.9360, 8855.377
261.1490, 10761.41
262.3630, 11871.46
263.5760, 12238.53
264.7890, 11305.62
266.0020, 9139.735
267.2150, 7029.865
268.4270, 5148.015
269.6400, 4425.185
270.8520, 4236.374
272.0640, 4640.564
273.2760, 5322.733
274.4880, 6311.892
275.7000, 7365.022
276.9120, 9000.139
278.1230, 10525.25
279.3340, 12285.35
280.5450, 14499.45
281.7560, 16448.56
282.9670, 18199.66
284.1780, 19596.86
285.3880, 20930.89
286.5980, 21612.54
287.8090, 22351.68
289.0190, 22646.18
290.2290, 21898.35
291.4380, 21052.53
292.6480, 19052.73
293.8570, 17291.96
295.0670, 14522.20
296.2760, 12333.46
297.4850, 9935.750
298.6930, 8187.059
299.9020, 6819.392
301.1110, 5716.750
302.3190, 5079.134
303.5270, 4615.475
304.7350, 4517.503
305.9430, 4925.185
307.1510, 5661.559
308.3580, 6705.787
309.5660, 8322.974
310.7730, 9680.210
311.9800, 10991.50
313.1870, 12021.84
314.3940, 12966.24
315.6010, 14064.69
316.8070, 14614.19
318.0130, 15211.74
319.2200, 15190.35
320.4260, 14563.00
321.6310, 13409.71
322.8370, 11835.46
324.0430, 10164.27
325.2480, 8485.130
326.4540, 7159.037
327.6590, 5957.994
328.8640, 5341.004
330.0680, 4808.061
331.2730, 4358.170
332.4780, 4133.327
333.6820, 3849.535
334.8860, 3989.793
336.0900, 3991.102
337.2940, 4061.460
338.4980, 4101.867
339.7010, 4457.325
340.9050, 4604.832
342.1080, 5307.390
343.3110, 5780.998
344.5140, 6634.682
345.7170, 7709.443
346.9200, 8620.289
348.1220, 10051.23
349.3240, 11347.27
350.5270, 12517.38
351.7290, 13655.59
352.9310, 14594.63
354.1320, 15130.87
355.3340, 15402.73
356.5350, 15513.16
357.7370, 15017.08
358.9380, 14396.04
360.1390, 13286.63
361.3400, 11547.29
362.5400, 10352.99
363.7410, 8459.739
364.9410, 7256.545
366.1410, 6057.400
367.3410, 4914.307
368.5410, 4168.172
369.7410, 3549.777
370.9400, 3233.662
372.1400, 2754.333
373.3390, 2352.048
374.5380, 2242.618
375.7370, 1783.546
376.9360, 1723.241
378.1350, 1509.703
379.3330, 1336.243
380.5310, 1391.729
381.7300, 1341.642
382.9280, 1276.642
384.1260, 1231.386
385.3230, 1163.296
386.5210, 1198.979
387.7180, 1059.758
388.9160, 931.5449
390.1130, 799.7686
391.3100, 875.0869
392.5060, 677.0518
393.7030, 418.1152
394.9000, 323.2266
396.0960, 26.38672
397.2920, 14.59668
398.4880, 76.14453
399.6840, 40.86035
400.8800, 28.46094
402.0750, 6.458984
403.2710, 69.73438
404.4660, 31.72559
405.6610, 122.2500
406.8560, 85.82617
408.0510, 46.45410
409.2450, 178.1338
410.4400, 367.8652
411.6340, 475.6504
412.8280, 467.4873
414.0220, 504.3779
415.2160, 521.3223
416.4100, 628.3203
417.6030, 554.3867
418.7970, 570.5205
419.9900, 501.7100
421.1830, 493.9541
422.3760, 432.2539
423.5690, 293.6113
424.7610, 183.0244
425.9540, 117.4951
427.1460, 151.0254
428.3380, 72.61328
429.5300, 24.73730
430.7220, 88.96582
431.9140, 18.27051
433.1050, 145.5508
434.2970, 127.4346
435.4880, 48.38184
436.6790, 251.3936
437.8700, 321.4697
439.0610, 362.6113
440.2510, 527.8174
441.4420, 678.0889
442.6320, 999.4258
443.8220, 1348.829
445.0120, 1343.299
446.2020, 1200.834
447.3910, 1405.436
448.5810, 1642.104
449.7700, 1867.843
450.9600, 1838.652
452.1490, 1953.533
453.3370, 1571.488
454.5260, 1511.515
455.7150, 1134.613
456.9030, 934.7832
458.0910, 864.0264
459.2800, 1078.342
460.4670, 1024.729
461.6550, 1285.189
462.8430, 1495.721
464.0300, 1653.324
465.2180, 1953.998
466.4050, 2074.746
467.5920, 2480.564
468.7790, 2629.455
469.9650, 2826.418
471.1520, 2829.451
472.3380, 2994.558
473.5250, 2983.734
474.7110, 2987.983
475.8970, 3098.305
477.0820, 3087.695
478.2680, 3087.159
479.4540, 2796.693
480.6390, 2600.300
481.8240, 2472.979
483.0090, 2276.727
484.1940, 1891.545
485.3780, 1642.436
486.5630, 1128.941
487.7470, 969.8594
488.9320, 702.0898
490.1160, 445.3193
491.3000, 300.8828
492.4830, 154.7852
493.6670, 20.80469
494.8500, 22.45898
496.0340, 54.95996
497.2170, 43.41504
498.4000, 29.81738
499.5820, 12.16797
500.7650, 11.45703
501.9480, 176.3125
503.1300, 347.1494
504.3120, 379.0508
505.4940, 437.0166
506.6760, 516.0488
507.8580, 636.1465
509.0390, 788.3086
510.2210, 578.5371
511.4020, 779.8613
512.5830, 686.3291
513.7640, 565.9414
514.9450, 599.7109
516.1250, 454.6309
517.3060, 429.7100
518.4860, 169.9287
519.6660, 279.2656
520.8460, 123.7070
522.0260, 88.25879
523.2060, 10.12598
524.3850, 11.45215
525.5650, 33.72070
526.7440, 88.93945
527.9230, 106.1260
529.1020, 83.28613
530.2810, 129.4150
531.4590, 223.5254
532.6380, 92.65723
533.8160, 57.75879
534.9940, 73.18066
536.1720, 304.1816
537.3500, 581.2441
538.5270, 886.3682
539.7050, 1486.555
540.8820, 1945.202
542.0590, 2429.319
543.2360, 2818.691
544.4130, 3227.116
545.5900, 3510.623
546.7660, 3840.204
547.9430, 3869.875
549.1190, 3883.631
550.2950, 3760.484
551.4710, 3367.407
552.6470, 2758.396
553.8220, 2388.467
554.9980, 1862.608
556.1730, 1588.833
557.3480, 1179.127
558.5230, 1037.514
559.6980, 883.9658
560.8730, 959.5049
562.0470, 863.1221
563.2220, 938.8389
564.3960, 838.6660
565.5700, 976.6523
566.7440, 1090.805
567.9170, 1190.120
569.0910, 1223.622
570.2640, 1296.310
571.4380, 1349.669
572.6110, 1370.742
573.7840, 1313.292
574.9570, 1069.989
576.1290, 1115.547
577.3020, 1034.310
578.4740, 896.2090
579.6460, 977.1973
580.8180, 1146.269
581.9900, 983.4053
583.1620, 1043.604
584.3330, 1062.854
585.5040, 1484.160
586.6760, 1338.206
587.8470, 1751.923
589.0180, 1332.380
590.1880, 1407.885
591.3590, 1537.439
592.5290, 1609.044
593.7000, 1623.695
594.8700, 1704.395
596.0400, 1692.142
597.2090, 1720.814
598.3790, 1837.773
599.5490, 1742.660
600.7180, 1513.592
601.8870, 1509.566
603.0560, 1474.587
604.2250, 1440.651
605.3940, 1248.758
606.5620, 1303.910
607.7300, 1034.103
608.8990, 1067.339
610.0670, 967.5654
611.2350, 926.9336
612.4020, 833.2930
613.5700, 644.6924
614.7370, 599.1318
615.9050, 515.6094
617.0720, 450.1279
618.2390, 360.6836
619.4060, 434.2764
620.5720, 272.9072
621.7390, 143.5752
622.9050, 191.2803
624.0710, 47.02051
625.2370, 12.79688
626.4030, 123.3955
627.5690, 129.6045
628.7340, 153.8350
629.9000, 231.0967
631.0650, 216.4248
632.2300, 100.8125
633.3950, 162.2139
634.5600, 214.6504
635.7240, 34.10645
636.8890, 112.7383
638.0530, 110.8408
639.2170, 182.4512
640.3810, 308.6475
641.5450, 284.8955
642.7080, 336.5781
643.8720, 585.2881
645.0350, 331.0264
646.1980, 466.7930
647.3610, 298.5879
648.5240, 321.4082
649.6870, 181.2568
650.8490, 334.1299
652.0120, 79.03027
653.1740, 129.9551
654.3360, 129.9033
655.4980, 457.8750
656.6600, 504.8691
657.8210, 496.8848
658.9830, 795.9219
660.1440, 744.9785
661.3050, 984.0547
662.4660, 1065.150
663.6270, 1081.906
664.7870, 1240.646
665.9480, 1342.713
667.1080, 1575.684
668.2680, 1439.949
669.4280, 1593.186
670.5880, 1729.479
671.7480, 2033.403
672.9070, 2226.299
674.0670, 2405.613
675.2260, 2564.896
676.3850, 2759.194
677.5440, 2989.508
678.7030, 3110.837
679.8610, 3367.180
681.0200, 3427.549
682.1780, 3728.418
683.3360, 3795.428
684.4940, 3974.008
685.6520, 4272.283
686.8090, 4442.702
687.9670, 4760.965
689.1240, 4742.632
690.2810, 4950.279
691.4380, 5077.882
692.5950, 5384.113
693.7520, 5684.906
694.9080, 6026.912
696.0650, 6463.161
697.2210, 6905.780
698.3770, 7503.883
699.5330, 8116.008
700.6880, 8517.004
701.8440, 9359.466
702.9990, 9726.083
704.1550, 10088.33
705.3100, 10576.18
706.4650, 10706.06
707.6190, 10934.33
708.7740, 10213.54
709.9290, 9791.812
711.0830, 9181.438
712.2370, 8456.960
713.3910, 7425.004
714.5450, 6853.770
715.6980, 6004.439
716.8520, 5290.482
718.0050, 4650.236
719.1580, 3958.754
720.3110, 3355.046
721.4640, 2669.065
722.6170, 2258.673
723.7700, 1686.560
724.9220, 1331.182
726.0740, 1082.936
727.2260, 790.0820
728.3780, 663.1982
729.5300, 603.2852
730.6810, 571.3438
731.8330, 535.3691
732.9840, 583.3652
734.1350, 559.3311
735.2860, 728.2646
736.4370, 801.1660
737.5880, 837.0361
738.7380, 1015.873
739.8880, 1341.677
741.0390, 1370.447
742.1890, 1644.185
743.3380, 1769.887
744.4880, 1795.556
745.6380, 2019.190
746.7870, 2051.790
747.9360, 2106.353
749.0850, 2133.880
750.2340, 2179.371
751.3830, 2193.826
752.5310, 2258.244
753.6800, 2193.627
754.8280, 2098.971
755.9760, 2073.277
757.1240, 1908.545
758.2720, 1873.777
759.4190, 1757.970
760.5670, 1540.125
761.7140, 1785.241
762.8610, 1618.319
764.0080, 1384.357
765.1550, 1542.814
766.3020, 1548.892
767.4480, 1410.686
768.5950, 1369.512
769.7410, 1349.037
770.8870, 1303.254
772.0330, 1345.386
773.1780, 1591.829
774.3240, 1721.538
775.4690, 2098.219
776.6140, 2220.873
777.7590, 2618.497
778.9040, 2965.088
780.0490, 3309.645
781.1940, 3915.164
782.3380, 4606.650
783.4820, 5019.098
784.6260, 5723.508
785.7700, 6402.883
786.9140, 6583.221
788.0580, 7243.521
789.2010, 7374.785
790.3450, 7675.008
791.4880, 7429.195
792.6310, 7243.344
793.7730, 6681.457
794.9160, 5992.531
796.0590, 5630.562
797.2010, 5024.559
798.3430, 4463.516
799.4850, 3834.433
800.6270, 3269.311
801.7690, 2988.152
802.9100, 2596.956
804.0520, 2379.727
805.1930, 1981.473
806.3340, 1852.197
807.4750, 1726.895
808.6160, 1654.573
809.7560, 1496.254
810.8970, 1476.909
812.0370, 1340.171
813.1770, 1130.113
814.3170, 1088.654
815.4570, 981.1523
816.5960, 793.6074
817.7360, 603.0215
818.8750, 291.3916
820.0140, 277.7139
821.1530, 148.9863
822.2920, 114.1943
823.4310, 17.33203
824.5690, 43.36719
825.7070, 17.68750
826.8460, 156.1357
827.9840, 234.8945
829.1220, 47.59570
830.2590, 153.2090
831.3970, 38.75488
832.5340, 165.2070
833.6710, 1.593750
834.8080, 208.8662
835.9450, 28.07910
837.0820, 60.19141
838.2190, 26.78320
839.3550, 69.88672
840.4910, 253.1436
841.6270, 287.6484
842.7630, 272.4199
843.8990, 358.4502
845.0350, 357.7852
846.1700, 359.4229
847.3060, 429.3643
848.4410, 173.6475
849.5760, 342.1357
850.7100, 306.9189
851.8450, 449.9775
852.9800, 186.3848
854.1140, 8.002930
855.2480, 10.26270
856.3820, 119.4209
857.5160, 203.5068
858.6500, 402.5303
859.7830, 328.5068
860.9170, 794.4316
862.0500, 763.3125
863.1830, 969.1484
864.3160, 982.9414
865.4480, 1092.688
866.5810, 1192.394
867.7130, 1263.053
868.8460, 1334.670
869.9780, 1267.243
871.1100, 1162.773
872.2410, 1204.260
873.3730, 1294.703
874.5050, 1248.104
875.6360, 1084.462
876.7670, 1208.776
877.8980, 1104.050
879.0290, 1263.281
880.1590, 1023.470
881.2900, 1106.616
882.4200, 1073.724
883.5500, 1118.793
884.6800, 1206.823
885.8100, 1161.817
886.9400, 1186.797
888.0690, 1204.739
889.1990, 1224.643
890.3280, 1389.508
891.4570, 1365.350
892.5860, 1738.168
893.7140, 1675.982
894.8430, 1759.772
895.9710, 2076.547
897.1000, 2191.335
898.2280, 2673.102
899.3560, 2945.865
900.4830, 3373.655
901.6110, 4033.489
902.7380, 4632.325
903.8660, 5440.199
904.9930, 6699.125
906.1200, 8404.101
907.2460, 10589.11
908.3730, 13216.15
909.5000, 16840.23
910.6260, 21311.35
911.7520, 26173.45
912.8780, 30896.57
914.0040, 35598.66
915.1290, 39017.77
916.2550, 41662.85
917.3800, 42730.95
918.5050, 41994.01
919.6300, 40028.06
920.7550, 36764.09
921.8800, 32731.13
923.0040, 28371.17
924.1290, 24749.16
925.2530, 21465.12
926.3770, 19535.07
927.5010, 17787.99
928.6250, 15448.91
929.7480, 13803.78
930.8720, 12454.63
931.9950, 11203.44
933.1180, 9921.226
934.2410, 9004.974
935.3640, 8394.688
936.4860, 7538.370
937.6090, 7076.015
938.7310, 6980.625
939.8530, 7134.201
940.9750, 7138.742
942.0970, 7492.250
943.2180, 7667.725
944.3400, 8096.164
945.4610, 8134.568
946.5820, 8766.938
947.7030, 8701.274
948.8240, 8550.581
949.9450, 8505.848
951.0650, 8203.085
952.1860, 7731.285
953.3060, 7178.454
954.4260, 6543.107
955.5460, 6015.603
956.6650, 5295.506
957.7850, 4946.693
958.9040, 4467.719
960.0230, 4390.877
961.1420, 4073.609
962.2610, 3860.339
963.3800, 3760.092
964.4990, 3594.192
965.6170, 3293.710
966.7350, 3375.392
967.8530, 3203.005
968.9710, 2914.625
970.0890, 2936.741
971.2070, 2727.806
972.3240, 2754.977
973.4410, 2428.658
974.5580, 2388.598
975.6750, 2110.006
976.7920, 2045.223
977.9090, 1960.376
979.0250, 1968.120
980.1410, 1751.795
981.2580, 1659.201
982.3740, 1332.904
983.4890, 1375.293
984.6050, 1171.136
985.7200, 1067.229
986.8360, 1032.391
987.9510, 872.1514
989.0660, 729.1699
990.1810, 715.3994
991.2950, 638.8252
992.4100, 635.4941
993.5240, 675.5459
994.6390, 504.2871
995.7530, 596.6836
996.8660, 592.0781
997.9800, 532.4697
999.0940, 661.8594
1000.207, 694.2490
1001.320, 875.6377
1002.433, 1127.023
1003.546, 1010.409
1004.659, 1156.791
1005.772, 1513.175
1006.884, 1684.558
1007.996, 2195.938
1009.108, 2475.320
1010.220, 2954.699
1011.332, 3242.080
1012.444, 3829.459
1013.555, 4341.838
1014.666, 4869.266
1015.777, 5059.014
1016.888, 5335.125
1017.999, 5256.131
1019.110, 5533.416
1020.220, 5649.740
1021.331, 5012.678
1022.441, 4625.458
1023.551, 4284.599
1024.661, 3935.125
1025.770, 3670.553
1026.880, 3288.777
1027.989, 3122.954
1029.098, 2755.675
1030.207, 2592.647
1031.316, 2373.755
1032.425, 2195.925
1033.533, 2031.733
1034.642, 1923.964
1035.750, 1835.395
1036.858, 1710.606
1037.966, 1773.878
1039.073, 1603.595
1040.181, 1751.517
1041.288, 1687.996
1042.396, 1643.551
1043.503, 1818.795
1044.610, 1812.704
1045.716, 2085.851
1046.823, 2059.996
1047.929, 2302.148
1049.036, 2461.126
1050.142, 2879.906
1051.248, 3157.709
1052.353, 3541.346
1053.459, 4116.491
1054.564, 4735.488
1055.670, 5087.258
1056.775, 5549.443
1057.880, 5990.193
1058.985, 6275.412
1060.089, 6218.022
1061.194, 6159.058
1062.298, 6186.741
1063.402, 5639.945
1064.506, 5325.082
1065.610, 5056.021
1066.713, 4825.438
1067.817, 4331.619
1068.920, 4183.721
1070.023, 4018.756
1071.126, 4047.782
1072.229, 3854.792
1073.332, 3670.797
1074.435, 3595.787
1075.537, 3298.865
1076.639, 3339.830
1077.741, 3198.785
1078.843, 3017.729
1079.945, 3034.657
1081.046, 3015.582
1082.148, 3089.492
1083.249, 3127.391
1084.350, 2962.275
1085.451, 3030.147
1086.551, 2993.007
1087.652, 2961.856
1088.752, 3007.019
1089.853, 2922.537
1090.953, 3064.378
1092.053, 3004.234
1093.152, 3051.104
1094.252, 3069.998
1095.351, 3152.891
1096.451, 3052.775
1097.550, 3263.680
1098.649, 3392.582
1099.748, 3710.506
1100.846, 3676.430
1101.945, 3799.379
1103.043, 3957.324
1104.141, 3929.289
1105.239, 4013.277
1106.337, 4089.297
1107.434, 3874.357
1108.532, 3860.508
1109.629, 3496.756
1110.726, 3122.109
1111.823, 2998.586
1112.920, 2585.188
1114.017, 2393.922
1115.113, 2245.793
1116.210, 1985.766
1117.306, 2242.846
1118.402, 2118.031
1119.498, 2259.352
1120.593, 2347.744
1121.689, 2584.156
1122.784, 2495.586
1123.879, 2367.016
1124.974, 2191.439
1126.069, 1860.850
1127.164, 1776.248
1128.259, 1449.633
1129.353, 1245.004
1130.447, 1013.355
1131.541, 701.6973
1132.635, 613.0215
1133.729, 471.3301
1134.822, 363.9727
1135.916, 448.8984
1137.009, 326.1602
1138.102, 372.4043
1139.195, 516.6367
1140.288, 534.8477
1141.380, 496.8242
1142.473, 323.2207
1143.565, 343.3848
1144.657, 327.5293
1145.749, 248.6562
1146.841, 173.7656
1147.932, 88.85547
1149.024, 115.9180
1150.115, 50.96094
1151.206, 80.02344
1152.297, 137.9180
1153.388, 176.8359
1154.479, 92.73047
1155.569, 30.39844
1156.659, 27.58008
1157.750, 102.8125
1158.839, 21.13477
1159.929, 60.50781
1161.019, 158.9512
1162.108, 32.51758
1163.198, 96.14062
1164.287, 200.8555
1165.376, 174.7168
1166.465, 1.712891
1167.553, 124.7500
1168.642, 108.8965
1169.730, 115.1465
1170.818, 149.5000
1171.906, 77.97656
1172.994, 62.54102
1174.082, 232.1816
1175.170, 50.99414
1176.257, 133.8750
1177.344, 5.876953
1178.431, 132.9277
1179.518, 34.09570
1180.605, 78.33203
1181.691, 170.3418
1182.778, 123.0078
1183.864, 83.52734
1184.950, 143.9668
1186.036, 12.58789
1187.122, 343.7344
1188.207, 167.0371
1189.292, 66.68555
1190.378, 194.5039
1191.463, 47.33203
1192.548, 170.7578
1193.632, 281.8223
1194.717, 70.03320
1195.801, 100.0449
1196.886, 222.0234
1197.970, 275.0293
1199.054, 290.9629
1200.137, 370.7227
1201.221, 322.3535
1202.305, 442.2246
1203.388, 432.2695
1204.471, 425.2031
1205.554, 283.1758
1206.637, 425.9570
1207.719, 534.1562
1208.802, 688.1074
1209.884, 913.8242
1210.966, 1015.832
1212.048, 1223.574
1213.130, 1383.156
1214.212, 1598.783
1215.293, 1795.393
1216.374, 2002.977
1217.456, 2402.539
1218.536, 2653.215
1219.617, 3133.885
1220.698, 3574.447
1221.778, 3868.920
1222.859, 4515.496
1223.939, 5391.080
1225.019, 5971.482
1226.099, 6564.863
1227.178, 6937.766
1228.258, 7501.137
1229.337, 8293.145
1230.417, 8701.988
1231.496, 9213.195
1232.574, 9501.459
1233.653, 10009.69
1234.732, 10167.00
1235.810, 10396.59
1236.888, 10763.73
1237.966, 11125.84
1239.044, 11614.02
1240.122, 12017.84
1241.199, 12348.53
1242.277, 12783.21
1243.354, 13188.94
1244.431, 13462.89
1245.508, 13853.42
1246.585, 14014.31
1247.661, 13975.18
1248.738, 14200.02
1249.814, 14355.82
1250.890, 14098.59
1251.966, 13904.33
1253.042, 13902.04
1254.117, 13334.72
1255.193, 13329.37
1256.268, 13046.98
1257.343, 13039.56
1258.418, 12779.11
1259.493, 12337.63
1260.567, 12109.11
1261.642, 11911.57
1262.716, 11229.99
1263.790, 11087.38
1264.864, 10853.74
1265.938, 10168.07
1267.011, 9672.371
1268.085, 9332.635
1269.158, 8752.865
1270.231, 8379.068
1271.304, 7803.240
1272.377, 7347.379
1273.450, 6988.490
1274.522, 6536.566
