##NAMES=Andalusite
##RRUFFID=R050561
##IDEAL CHEMISTRY=Al_2_SiO_5_
##LOCALITY=Cargo Muchacho Mountain, Imperial County, California
##OWNER=RRUFF
##SOURCE=Dave Bunk Minerals
##DESCRIPTION=Brown coarsely crystalline massive
##STATUS=The identification of this mineral has been confirmed by X-ray diffraction and chemical analysis
##URL=rruff.info/R050561
##MEASURED CHEMISTRY=(Al_1.98_Fe^3+^_0.02_)_Î£=2_Si_1.00_O_5_
##PIN_ID=M00417
##ORIENTATION=Laser parallel to a* (1 0 0). Fiducial mark perpendicular to laser is parallel to b [0 1 0]
99.64900, 0.0000000E+00
100.8830, 50.52026
102.1160, 1.552002
103.3490, 1.683838
104.5820, 85.96069
105.8150, 185.4976
107.0470, 407.4233
108.2800, 639.7227
109.5120, 885.7783
110.7440, 699.0962
111.9760, 318.3193
113.2080, 179.1802
114.4400, 335.6138
115.6710, 468.2637
116.9030, 510.9082
118.1340, 431.4604
119.3650, 281.8486
120.5960, 211.0049
121.8270, 159.8677
123.0580, 134.2446
124.2880, 141.5107
125.5190, 155.2104
126.7490, 245.4419
127.9790, 249.6753
129.2090, 392.6182
130.4390, 467.3115
131.6680, 388.4956
132.8980, 284.0625
134.1270, 170.0029
135.3560, 160.3071
136.5850, 168.9658
137.8140, 254.9570
139.0430, 347.2534
140.2710, 317.8350
141.5000, 244.6875
142.7280, 304.7974
143.9560, 246.6035
145.1840, 134.7598
146.4120, 195.5947
147.6390, 145.6562
148.8670, 100.9370
150.0940, 65.43115
151.3210, 47.13379
152.5490, 183.0371
153.7750, 46.13623
155.0020, 72.42773
156.2290, 10.09229
157.4550, 27.42822
158.6810, 2.416504
159.9080, 87.91846
161.1340, 24.25684
162.3590, 128.2690
163.5850, 117.5376
164.8110, 187.9946
166.0360, 220.6489
167.2610, 261.5049
168.4860, 223.5562
169.7110, 262.7988
170.9360, 284.2275
172.1610, 292.8374
173.3850, 202.5859
174.6100, 86.34180
175.8340, 120.1201
177.0580, 166.9399
178.2820, 143.8120
179.5050, 220.7451
180.7290, 184.7456
181.9520, 186.8198
183.1760, 295.9707
184.3990, 335.2095
185.6220, 465.5771
186.8450, 591.0396
188.0670, 670.5957
189.2900, 785.0054
190.5120, 892.9819
191.7340, 940.8071
192.9560, 936.7412
194.1780, 935.7642
195.4000, 892.8774
196.6220, 912.0811
197.8430, 877.3755
199.0640, 912.7612
200.2860, 886.2388
201.5070, 1009.805
202.7270, 830.7012
203.9480, 808.1733
205.1690, 490.9761
206.3890, 314.8691
207.6090, 116.8511
208.8290, 99.92334
210.0490, 122.0835
211.2690, 100.3325
212.4890, 139.6689
213.7080, 76.09326
214.9280, 78.60547
216.1470, 36.20410
217.3660, 82.88965
218.5850, 56.33838
219.8030, 78.48096
221.0220, 43.53809
222.2400, 56.51025
223.4590, 108.3984
224.6770, 24.79834
225.8950, 46.09766
227.1120, 136.5977
228.3300, 328.3154
229.5480, 554.2993
230.7650, 881.5444
231.9820, 1329.999
233.1990, 1805.630
234.4160, 2561.331
235.6330, 3348.074
236.8490, 4235.880
238.0660, 4808.751
239.2820, 4918.688
240.4980, 5140.687
241.7140, 4920.747
242.9300, 4532.873
244.1460, 4164.062
245.3610, 3631.312
246.5770, 3277.475
247.7920, 2895.137
249.0070, 2366.666
250.2220, 2270.973
251.4370, 2098.537
252.6510, 1962.312
253.8660, 2115.278
255.0800, 2026.421
256.2940, 2042.729
257.5080, 2152.189
258.7220, 2284.795
259.9360, 2344.565
261.1490, 2474.833
262.3630, 2559.408
263.5760, 2728.519
264.7890, 2903.741
266.0020, 3156.919
267.2150, 3503.506
268.4270, 3789.765
269.6400, 4172.025
270.8520, 4589.925
272.0640, 5414.750
273.2760, 6166.666
274.4880, 7253.667
275.7000, 8566.575
276.9120, 10235.69
278.1230, 12345.88
279.3340, 15163.16
280.5450, 18835.52
281.7560, 23542.96
282.9670, 28724.47
284.1780, 33988.24
285.3880, 39808.90
286.5980, 45806.63
287.8090, 51253.43
289.0190, 54633.31
290.2290, 55628.25
291.4380, 52857.26
292.6480, 47950.35
293.8570, 41221.49
295.0670, 34049.70
296.2760, 26766.97
297.4850, 20242.31
298.6930, 15147.72
299.9020, 11414.18
301.1110, 8680.709
302.3190, 6955.196
303.5270, 5694.487
304.7350, 4865.192
305.9430, 4626.983
307.1510, 4557.409
308.3580, 5141.224
309.5660, 6232.097
310.7730, 7523.025
311.9800, 9326.011
313.1870, 11481.06
314.3940, 13741.15
315.6010, 16867.30
316.8070, 19941.51
318.0130, 21906.77
319.2200, 22461.07
320.4260, 21419.44
321.6310, 19378.86
322.8370, 16740.32
324.0430, 13302.85
325.2480, 10542.42
326.4540, 7868.044
327.6590, 6038.720
328.8640, 4848.449
330.0680, 3973.227
331.2730, 3402.057
332.4780, 3190.937
333.6820, 2778.867
334.8860, 2670.848
336.0900, 2735.877
337.2940, 2716.955
338.4980, 2973.083
339.7010, 3190.259
340.9050, 3671.483
342.1080, 4343.755
343.3110, 5149.077
344.5140, 6471.446
345.7170, 8184.863
346.9200, 10449.33
348.1220, 13241.84
349.3240, 16641.39
350.5270, 20426.58
351.7290, 24706.09
352.9310, 29303.67
354.1320, 33153.85
355.3340, 36490.13
356.5350, 37830.50
357.7370, 37223.17
358.9380, 35194.68
360.1390, 31231.35
361.3400, 27045.57
362.5400, 22528.08
363.7410, 18328.78
364.9410, 14694.33
366.1410, 11805.02
367.3410, 9307.336
368.5410, 7477.549
369.7410, 5961.831
370.9400, 5079.148
372.1400, 4202.504
373.3390, 3579.897
374.5380, 3126.325
375.7370, 2686.787
376.9360, 2443.283
378.1350, 2273.813
379.3330, 2056.382
380.5310, 2010.985
381.7300, 1907.629
382.9280, 1794.316
384.1260, 1612.041
385.3230, 1439.806
386.5210, 1410.605
387.7180, 1295.438
388.9160, 1226.302
390.1130, 1192.197
391.3100, 1149.141
392.5060, 904.1372
393.7030, 810.1855
394.9000, 719.2832
396.0960, 543.4287
397.2920, 405.6216
398.4880, 355.8604
399.6840, 224.1455
400.8800, 321.4751
402.0750, 336.8486
403.2710, 243.2651
404.4660, 282.7241
405.6610, 225.2256
406.8560, 251.7690
408.0510, 142.3530
409.2450, 84.97803
410.4400, 24.64355
411.6340, 17.94873
412.8280, 40.91504
414.0220, 29.15674
415.2160, 12.62842
416.4100, 93.45166
417.6030, 50.31250
418.7970, 18.78906
419.9900, 133.1372
421.1830, 97.10010
422.3760, 25.09961
423.5690, 46.13525
424.7610, 71.20654
425.9540, 26.31348
427.1460, 25.54346
428.3380, 95.62158
429.5300, 101.8218
430.7220, 182.0566
431.9140, 83.32520
433.1050, 201.6284
434.2970, 221.9658
435.4880, 408.3369
436.6790, 370.7417
437.8700, 404.1807
439.0610, 566.6523
440.2510, 653.1572
441.4420, 800.6948
442.6320, 951.2651
443.8220, 1124.869
445.0120, 1354.505
446.2020, 1515.174
447.3910, 1932.876
448.5810, 2454.610
449.7700, 2771.385
450.9600, 2601.191
452.1490, 2389.030
453.3370, 2089.899
454.5260, 1754.800
455.7150, 1241.729
456.9030, 1157.703
458.0910, 977.7070
459.2800, 967.7388
460.4670, 1080.801
461.6550, 1244.892
462.8430, 1328.010
464.0300, 1358.203
465.2180, 1341.348
466.4050, 1285.659
467.5920, 1149.769
468.7790, 1032.027
469.9650, 848.3125
471.1520, 606.6250
472.3380, 500.9644
473.5250, 398.3315
474.7110, 408.7256
475.8970, 423.1489
477.0820, 500.5991
478.2680, 334.0811
479.4540, 415.5918
480.6390, 350.1338
481.8240, 343.7300
483.0090, 472.3574
484.1940, 442.0332
485.3780, 192.7598
486.5630, 284.5332
487.7470, 187.3462
488.9320, 67.20605
490.1160, 100.0996
491.3000, 64.03760
492.4830, 47.98975
493.6670, 109.0029
494.8500, 90.01074
496.0340, 118.0420
497.2170, 100.1123
498.4000, 226.2017
499.5820, 67.37939
500.7650, 173.5771
501.9480, 209.8428
503.1300, 36.19775
504.3120, 151.5581
505.4940, 114.9814
506.6760, 8.445313
507.8580, 6.097656
509.0390, 54.65039
510.2210, 33.22607
511.4020, 56.82764
512.5830, 166.4473
513.7640, 238.0850
514.9450, 133.7407
516.1250, 157.4150
517.3060, 55.10645
518.4860, 125.8149
519.6660, 84.29004
520.8460, 107.0781
522.0260, 69.83789
523.2060, 62.58252
524.3850, 74.85547
525.5650, 124.7104
526.7440, 158.1362
527.9230, 245.8677
529.1020, 277.3076
530.2810, 271.1768
531.4590, 342.0605
532.6380, 449.9590
533.8160, 436.8711
534.9940, 603.7974
536.1720, 750.7373
537.3500, 737.6904
538.5270, 1003.657
539.7050, 1247.749
540.8820, 1541.741
542.0590, 2178.744
543.2360, 2620.760
544.4130, 3140.789
545.5900, 3950.827
546.7660, 4533.879
547.9430, 5107.939
549.1190, 5350.012
550.2950, 5385.095
551.4710, 5272.188
552.6470, 4609.292
553.8220, 4226.682
554.9980, 3725.181
556.1730, 3016.144
557.3480, 2531.285
558.5230, 2333.437
559.6980, 2286.597
560.8730, 2205.205
562.0470, 2261.494
563.2220, 2434.300
564.3960, 2599.494
565.5700, 2843.698
566.7440, 3288.922
567.9170, 3470.155
569.0910, 3946.213
570.2640, 4098.482
571.4380, 4288.785
572.6110, 4035.123
573.7840, 3673.503
574.9570, 3436.913
576.1290, 2972.366
577.3020, 2663.835
578.4740, 2197.318
579.6460, 1854.833
580.8180, 1804.366
581.9900, 1618.915
583.1620, 1495.493
584.3330, 1492.307
585.5040, 1326.896
586.6760, 1224.487
587.8470, 1197.128
589.0180, 1145.728
590.1880, 1118.333
591.3590, 1193.951
592.5290, 1221.562
593.7000, 1211.342
594.8700, 1220.019
596.0400, 1216.135
597.2090, 1175.114
598.3790, 1204.734
599.5490, 1149.357
600.7180, 1144.979
601.8870, 1140.604
603.0560, 1163.928
604.2250, 1233.854
605.3940, 1224.479
606.5620, 1202.104
607.7300, 1168.729
608.8990, 1243.354
610.0670, 1310.979
611.2350, 1234.602
612.4020, 1147.224
613.5700, 1237.037
614.7370, 1242.917
615.9050, 1358.206
617.0720, 1203.131
618.2390, 1408.076
619.4060, 1425.408
620.5720, 1576.347
621.7390, 1597.503
622.9050, 1503.726
624.0710, 1656.642
625.2370, 1816.290
626.4030, 1739.165
627.5690, 1757.078
628.7340, 1674.110
629.9000, 1461.865
631.0650, 1365.306
632.2300, 1171.416
633.3950, 949.0781
634.5600, 902.9004
635.7240, 794.1440
636.8890, 764.4170
638.0530, 826.1982
639.2170, 716.7852
640.3810, 801.0967
641.5450, 782.9546
642.7080, 788.7651
643.8720, 766.0210
645.0350, 693.1025
646.1980, 684.2920
647.3610, 539.8882
648.5240, 464.1943
649.6870, 321.6494
650.8490, 381.8286
652.0120, 272.2710
653.1740, 233.7075
654.3360, 200.1372
655.4980, 121.5601
656.6600, 88.97656
657.8210, 118.3862
658.9830, 40.78906
660.1440, 0.1816410
661.3050, 118.5513
662.4660, 7.086914
663.6270, 15.75195
664.7870, 10.55176
665.9480, 6.163086
667.1080, 26.82031
668.2680, 26.33984
669.4280, 97.56934
670.5880, 79.79053
671.7480, 136.0034
672.9070, 140.2075
674.0670, 107.4023
675.2260, 151.5894
676.3850, 142.7666
677.5440, 181.9351
678.7030, 54.09375
679.8610, 191.2422
681.0200, 190.3813
682.1780, 148.5103
683.3360, 314.6299
684.4940, 277.7402
685.6520, 188.8403
686.8090, 412.9307
687.9670, 219.0112
689.1240, 347.0811
690.2810, 312.1416
691.4380, 406.1909
692.5950, 312.2295
693.7520, 360.2622
694.9080, 336.2925
696.0650, 323.3184
697.2210, 297.3330
698.3770, 339.3369
699.5330, 405.3296
700.6880, 371.3164
701.8440, 342.2915
702.9990, 457.3608
704.1550, 502.4492
705.3100, 415.1919
706.4650, 344.4165
707.6190, 475.6440
708.7740, 491.7920
709.9290, 621.7266
711.0830, 583.3193
712.2370, 656.3564
713.3910, 628.6387
714.5450, 525.5293
715.6980, 529.3730
716.8520, 425.0059
718.0050, 336.5728
719.1580, 361.4194
720.3110, 287.2852
721.4640, 157.2959
722.6170, 93.03564
723.7700, 122.0239
724.9220, 160.8154
726.0740, 113.5039
727.2260, 138.5752
728.3780, 130.0679
729.5300, 119.6650
730.6810, 126.2871
731.8330, 98.89258
732.9840, 111.4795
734.1350, 269.0488
735.2860, 0.3984380
736.4370, 221.1113
737.5880, 174.6040
738.7380, 330.0801
739.8880, 285.5391
741.0390, 228.9814
742.1890, 186.4067
743.3380, 184.4414
744.4880, 234.2080
745.6380, 201.5825
746.7870, 198.9409
747.9360, 217.2822
749.0850, 194.6069
750.2340, 137.9146
751.3830, 93.20557
752.5310, 84.76562
753.6800, 54.73047
754.8280, 79.95947
755.9760, 27.16895
757.1240, 50.34912
758.2720, 26.50488
759.4190, 63.36914
760.5670, 17.68262
761.7140, 44.29834
762.8610, 56.34229
764.0080, 44.45752
765.1550, 13.63672
766.3020, 47.86230
767.4480, 3.845703
768.5950, 39.48291
769.7410, 2.871582
770.8870, 53.30078
772.0330, 124.7812
773.1780, 12.66504
774.3240, 23.10645
775.4690, 24.44629
776.6140, 9.978516
777.7590, 45.43115
778.9040, 28.54395
780.0490, 105.3564
781.1940, 25.86865
782.3380, 92.37061
783.4820, 71.89795
784.6260, 156.4404
785.7700, 174.9771
786.9140, 239.5044
788.0580, 283.1206
789.2010, 355.5156
790.3450, 357.9995
791.4880, 396.4688
792.6310, 414.9224
793.7730, 494.3623
794.9160, 558.7866
796.0590, 650.1978
797.2010, 816.3345
798.3430, 947.1812
799.4850, 1091.548
800.6270, 1399.932
801.7690, 1453.792
802.9100, 1722.071
804.0520, 1825.459
805.1930, 1858.188
806.3340, 1787.888
807.4750, 1707.161
808.6160, 1645.422
809.7560, 1467.669
810.8970, 1319.671
812.0370, 1003.127
813.1770, 945.3369
814.3170, 792.5347
815.4570, 644.7207
816.5960, 588.7822
817.7360, 564.9434
818.8750, 587.0942
820.0140, 486.2319
821.1530, 483.3594
822.2920, 440.4746
823.4310, 330.5786
824.5690, 356.6714
825.7070, 379.7529
826.8460, 386.8232
827.9840, 494.8828
829.1220, 258.9316
830.2590, 425.9697
831.3970, 271.9976
832.5340, 208.0142
833.6710, 369.0200
834.8080, 183.0161
835.9450, 196.0020
837.0820, 147.9766
838.2190, 93.94189
839.3550, 35.89795
840.4910, 29.84131
841.6270, 37.22607
842.7630, 13.67041
843.8990, 11.55469
845.0350, 61.57471
846.1700, 90.75195
847.3060, 101.9922
848.4410, 125.7793
849.5760, 76.68896
850.7100, 131.1318
851.8450, 29.65625
852.9800, 27.20996
854.1140, 90.79004
855.2480, 48.40137
856.3820, 33.73438
857.5160, 84.81201
858.6500, 42.42822
859.7830, 0.4277340
860.9170, 15.64893
862.0500, 79.86230
863.1830, 40.02441
864.3160, 0.2236330
865.4480, 48.41309
866.5810, 77.58545
867.7130, 117.7622
868.8460, 158.7686
869.9780, 82.87549
871.1100, 224.0386
872.2410, 229.3374
873.3730, 178.4893
874.5050, 338.6357
875.6360, 280.8394
876.7670, 443.9155
877.8980, 351.0479
879.0290, 286.1763
880.1590, 467.2993
881.2900, 510.4189
882.4200, 569.5347
883.5500, 617.6465
884.6800, 668.7544
885.8100, 695.8594
886.9400, 847.9604
888.0690, 782.8672
889.1990, 1021.703
890.3280, 1179.125
891.4570, 1182.905
892.5860, 1308.662
893.7140, 1519.027
894.8430, 1688.781
895.9710, 1901.313
897.1000, 2160.056
898.2280, 2479.537
899.3560, 2741.564
900.4830, 3030.358
901.6110, 3412.113
902.7380, 4051.752
903.8660, 4665.662
904.9930, 5512.881
906.1200, 6567.429
907.2460, 8101.849
908.3730, 10241.84
909.5000, 12997.39
910.6260, 16852.37
911.7520, 21459.77
912.8780, 27003.32
914.0040, 33447.91
915.1290, 39075.13
916.2550, 43804.29
917.3800, 45482.49
918.5050, 44015.61
919.6300, 39981.57
920.7550, 34084.79
921.8800, 27633.01
923.0040, 21797.22
924.1290, 17216.48
925.2530, 13944.73
926.3770, 11548.02
927.5010, 9827.314
928.6250, 8803.614
929.7480, 7887.922
930.8720, 7654.241
931.9950, 7360.565
933.1180, 7371.896
934.2410, 7765.242
935.3640, 8112.606
936.4860, 8701.987
937.6090, 9523.386
938.7310, 10592.80
939.8530, 12115.23
940.9750, 13984.67
942.0970, 16369.13
943.2180, 19696.62
944.3400, 23711.13
945.4610, 28041.64
946.5820, 32456.18
947.7030, 36217.71
948.8240, 38713.27
949.9450, 39452.82
951.0650, 38300.40
952.1860, 35162.00
953.3060, 30713.60
954.4260, 25903.22
955.5460, 21125.84
956.6650, 17002.47
957.7850, 14027.11
958.9040, 11188.76
960.0230, 9056.422
961.1420, 7568.090
962.2610, 6318.780
963.3800, 5178.477
964.4990, 4498.190
965.6170, 3762.911
966.7350, 3191.643
967.8530, 2792.383
968.9710, 2420.135
970.0890, 2250.896
971.2070, 1999.667
972.3240, 1814.449
973.4410, 1515.241
974.5580, 1491.938
975.6750, 1237.627
976.7920, 1123.660
977.9090, 1112.211
979.0250, 1048.760
980.1410, 914.3945
981.2580, 801.2417
982.3740, 772.4297
983.4890, 711.1729
984.6050, 684.0479
985.7200, 594.7510
986.8360, 481.4927
987.9510, 444.6519
989.0660, 389.8789
990.1810, 359.8477
991.2950, 318.7974
992.4100, 255.6021
993.5240, 281.6763
994.6390, 291.5010
995.7530, 291.5229
996.8660, 204.6470
997.9800, 261.7886
999.0940, 418.7549
1000.207, 346.9321
1001.320, 234.1270
1002.433, 399.8789
1003.546, 542.3364
1004.659, 713.5884
1005.772, 617.8569
1006.884, 805.1553
1007.996, 898.4697
1009.108, 1070.806
1010.220, 1209.153
1011.332, 1493.518
1012.444, 1625.900
1013.555, 1586.298
1014.666, 1574.725
1015.777, 1764.169
1016.888, 1725.635
1017.999, 1751.119
1019.110, 1572.619
1020.220, 1620.135
1021.331, 1502.669
1022.441, 1429.222
1023.551, 1290.792
1024.661, 1172.382
1025.770, 1053.991
1026.880, 913.6245
1027.989, 860.2778
1029.098, 764.9546
1030.207, 583.6777
1031.316, 650.4263
1032.425, 726.2158
1033.533, 548.0488
1034.642, 546.6729
1035.750, 437.6494
1036.858, 408.6240
1037.966, 502.5996
1039.073, 396.0972
1040.181, 450.2222
1041.288, 499.0728
1042.396, 444.2188
1043.503, 478.4756
1044.610, 619.6680
1045.716, 584.8936
1046.823, 803.1440
1047.929, 835.0962
1049.036, 881.3872
1050.142, 1027.793
1051.248, 1133.124
1052.353, 1509.471
1053.459, 1874.170
1054.564, 2173.550
1055.670, 2879.946
1056.775, 3666.803
1057.880, 4614.680
1058.985, 5708.602
1060.089, 6919.059
1061.194, 7878.530
1062.298, 8672.254
1063.402, 8591.057
1064.506, 7898.573
1065.610, 6642.107
1066.713, 5526.656
1067.817, 4518.211
1068.920, 3404.790
1070.023, 2507.383
1071.126, 2018.990
1072.229, 1668.614
1073.332, 1396.319
1074.435, 1123.443
1075.537, 820.4761
1076.639, 799.1704
1077.741, 673.9370
1078.843, 542.5508
1079.945, 410.3008
1081.046, 421.0786
1082.148, 379.8486
1083.249, 305.2085
1084.350, 216.8550
1085.451, 106.9746
1086.551, 96.23975
1087.652, 183.6816
1088.752, 82.58203
1089.853, 122.4653
1090.953, 148.3882
1092.053, 107.8628
1093.152, 148.7852
1094.252, 224.5908
1095.351, 16.53662
1096.451, 180.3193
1097.550, 141.2876
1098.649, 188.2671
1099.748, 197.2573
1100.846, 152.2588
1101.945, 192.3218
1103.043, 296.3452
1104.141, 343.4873
1105.239, 434.6079
1106.337, 452.2983
1107.434, 552.0352
1108.532, 428.1113
1109.629, 384.2119
1110.726, 261.7622
1111.823, 297.8848
1112.920, 188.0449
1114.017, 180.5601
1115.113, 274.4600
1116.210, 164.7319
1117.306, 248.0361
1118.402, 274.3862
1119.498, 385.2231
1120.593, 503.8960
1121.689, 457.4370
1122.784, 463.0044
1123.879, 544.4844
1124.974, 470.0508
1126.069, 428.6353
1127.164, 302.1816
1128.259, 272.9136
1129.353, 224.4990
1130.447, 219.8818
1131.541, 117.4375
1132.635, 68.19385
1133.729, 28.70801
1134.822, 15.30518
1135.916, 71.41211
1137.009, 30.98145
1138.102, 73.55664
1139.195, 108.1377
1140.288, 2.786133
1141.380, 141.3784
1142.473, 143.9771
1143.565, 88.62646
1144.657, 46.23486
1145.749, 55.69873
1146.841, 17.31689
1147.932, 74.12744
1149.024, 83.75586
1150.115, 59.38818
1151.206, 110.0249
1152.297, 17.66553
1153.388, 202.3096
1154.479, 128.9585
1155.569, 34.60986
1156.659, 119.2646
1157.750, 23.92578
1158.839, 85.58936
1159.929, 74.25586
1161.019, 7.023926
1162.108, 83.69580
1163.198, 31.36914
1164.287, 72.04590
1165.376, 25.27539
1166.465, 32.59863
1167.553, 6.8847999E-02
1168.642, 14.73682
1169.730, 16.59473
1170.818, 30.93164
1171.906, 108.2788
1172.994, 9.323730
1174.082, 64.07373
1175.170, 7.500977
1176.257, 66.07520
1177.344, 86.64941
1178.431, 38.70117
1179.518, 35.85400
1180.605, 1.680664
1181.691, 109.5396
1182.778, 39.08838
1183.864, 29.36426
1184.950, 79.16748
1186.036, 20.69727
1187.122, 92.77637
1188.207, 9.313477
1189.292, 107.8301
1190.378, 19.58008
1191.463, 30.98730
1192.548, 2.605957
1193.632, 22.53809
1194.717, 5.846191
1195.801, 51.24414
1196.886, 55.64062
1197.970, 46.92285
1199.054, 86.53662
1200.137, 69.91211
1201.221, 28.29443
1202.305, 92.15137
1203.388, 5.825195
1204.471, 66.61719
1205.554, 64.32227
1206.637, 41.16455
1207.719, 9.377930
1208.802, 36.55420
1209.884, 76.67920
1210.966, 48.36719
1212.048, 3.424805
1213.130, 3.987305
1214.212, 15.83398
1215.293, 6.680176
1216.374, 63.94287
1217.456, 72.07275
1218.536, 33.21240
1219.617, 53.34863
1220.698, 36.63623
1221.778, 9.310547
1222.859, 61.48145
1223.939, 11.26904
1225.019, 69.78662
1226.099, 6.834473
1227.178, 85.86572
1228.258, 106.8896
1229.337, 116.9053
1230.417, 103.9131
1231.496, 45.05420
1232.574, 131.0449
1233.653, 36.03076
1234.732, 43.00342
1235.810, 116.9663
1236.888, 12.07861
1237.966, 84.84570
1239.044, 162.7617
1240.122, 24.75342
1241.199, 121.6460
1242.277, 68.53027
1243.354, 189.4043
1244.431, 78.26904
1245.508, 175.1230
1246.585, 105.9673
1247.661, 110.8008
1248.738, 25.37598
1249.814, 37.40576
1250.890, 50.82617
1251.966, 53.88623
1253.042, 78.58594
1254.117, 66.27344
1255.193, 64.94922
1256.268, 77.61230
1257.343, 48.42529
1258.418, 74.30811
1259.493, 25.68604
1260.567, 87.28955
1261.642, 53.07666
1262.716, 11.65332
1263.790, 130.7466
1264.864, 129.3164
1265.938, 133.9692
1267.011, 139.6147
1268.085, 101.1138
1269.158, 83.72607
1270.231, 179.1938
1271.304, 164.6523
1272.377, 90.09766
1273.450, 210.5376
1274.522, 7.044434
1275.594, 175.3350
1276.666, 24.70117
1277.738, 186.3091
1278.810, 159.6426
