##NAMES=Andalusite
##RRUFFID=R050561
##IDEAL CHEMISTRY=Al_2_SiO_5_
##LOCALITY=Cargo Muchacho Mountain, Imperial County, California
##OWNER=RRUFF
##SOURCE=Dave Bunk Minerals
##DESCRIPTION=Brown coarsely crystalline massive
##STATUS=The identification of this mineral has been confirmed by X-ray diffraction and chemical analysis
##URL=rruff.info/R050561
##MEASURED CHEMISTRY=(Al_1.98_Fe^3+^_0.02_)_Î£=2_Si_1.00_O_5_
##PIN_ID=M00237
##ORIENTATION=Laser parallel to c* (0 0 1). Fiducial mark perpendicular to laser is parallel to 1 0 0
157.4550, 0.0000000E+00
158.6810, 68.15186
159.9080, 23.96558
161.1340, 6.516846
162.3590, 47.19287
163.5850, 155.7986
164.8110, 148.3845
166.0360, 305.9204
167.2610, 219.1831
168.4860, 255.3118
169.7110, 210.9922
170.9360, 300.4622
172.1610, 325.7668
173.3850, 269.5486
174.6100, 248.6414
175.8340, 303.6565
177.0580, 314.0530
178.2820, 319.1753
179.5050, 199.2871
180.7290, 243.5928
181.9520, 277.2515
183.1760, 324.3801
184.3990, 492.7866
185.6220, 514.1526
186.8450, 528.1895
188.0670, 703.5752
189.2900, 815.2947
190.5120, 915.3325
191.7340, 1081.675
192.9560, 1051.319
194.1780, 1147.259
195.4000, 971.4758
196.6220, 881.9548
197.8430, 847.6809
199.0640, 838.6411
200.2860, 955.8235
201.5070, 941.2161
202.7270, 1000.807
203.9480, 769.5872
205.1690, 317.5464
206.3890, 111.6775
207.6090, 5.970947
208.8290, 104.5781
210.0490, 125.9819
211.2690, 166.1826
212.4890, 42.24390
213.7080, 16.15186
214.9280, 116.0891
216.1470, 66.47437
217.3660, 70.99951
218.5850, 85.66162
219.8030, 69.45605
221.0220, 267.3809
222.2400, 216.4316
223.4590, 205.6067
224.6770, 351.9031
225.8950, 257.3328
227.1120, 378.9592
228.3300, 468.8013
229.5480, 746.7473
230.7650, 1010.788
231.9820, 1279.899
233.1990, 1494.069
234.4160, 1798.310
235.6330, 2028.622
236.8490, 2640.005
238.0660, 3028.455
239.2820, 3875.970
240.4980, 4433.547
241.7140, 4723.186
242.9300, 4680.882
244.1460, 4357.629
245.3610, 3873.414
246.5770, 3279.237
247.7920, 2857.103
249.0070, 2646.012
250.2220, 2306.966
251.4370, 2044.966
252.6510, 2123.013
253.8660, 1964.110
255.0800, 2013.257
256.2940, 2024.413
257.5080, 2145.514
258.7220, 2258.755
259.9360, 2320.629
261.1490, 2673.877
262.3630, 2568.610
263.5760, 2581.412
264.7890, 2852.282
266.0020, 3125.208
267.2150, 3464.183
268.4270, 3759.205
269.6400, 4230.277
270.8520, 4692.398
272.0640, 5359.568
273.2760, 6028.789
274.4880, 7073.059
275.7000, 8464.380
276.9120, 10009.75
278.1230, 11791.17
279.3340, 14438.64
280.5450, 17128.16
281.7560, 20564.73
282.9670, 24261.35
284.1780, 27503.02
285.3880, 30726.74
286.5980, 34179.50
287.8090, 38521.32
289.0190, 43343.19
290.2290, 47894.10
291.4380, 50958.07
292.6480, 50787.07
293.8570, 47315.46
295.0670, 41286.64
296.2760, 33485.86
297.4850, 26059.46
298.6930, 19548.62
299.9020, 15027.85
301.1110, 11339.11
302.3190, 9121.410
303.5270, 7371.384
304.7350, 6336.256
305.9430, 5670.051
307.1510, 5859.246
308.3580, 5881.197
309.5660, 6828.207
310.7730, 7940.259
311.9800, 9165.337
313.1870, 10394.44
314.3940, 11360.57
315.6010, 12391.72
316.8070, 14480.86
318.0130, 17123.96
319.2200, 20313.05
320.4260, 22198.13
321.6310, 22646.23
322.8370, 21093.32
324.0430, 17976.44
325.2480, 14347.58
326.4540, 11074.74
327.6590, 8487.937
328.8640, 6653.938
330.0680, 5298.513
331.2730, 4569.030
332.4780, 4200.612
333.6820, 3862.258
334.8860, 3574.967
336.0900, 3449.738
337.2940, 3406.568
338.4980, 3601.458
339.7010, 3813.405
340.9050, 4115.409
342.1080, 4569.468
343.3110, 5285.581
344.5140, 6481.748
345.7170, 7642.968
346.9200, 9567.240
348.1220, 11564.56
349.3240, 14037.94
350.5270, 16550.36
351.7290, 19064.84
352.9310, 21962.78
354.1320, 25131.51
355.3340, 28461.82
356.5350, 31690.08
357.7370, 34284.47
358.9380, 34920.71
360.1390, 33918.68
361.3400, 30720.02
362.5400, 26649.16
363.7410, 22083.80
364.9410, 17735.67
366.1410, 14177.14
367.3410, 11427.25
368.5410, 9326.351
369.7410, 7689.256
370.9400, 6390.552
372.1400, 5374.770
373.3390, 4712.024
374.5380, 3977.314
375.7370, 3526.643
376.9360, 3207.010
378.1350, 2863.424
379.3330, 2575.889
380.5310, 2462.390
381.7300, 2311.936
382.9280, 2248.518
384.1260, 2196.138
385.3230, 1949.792
386.5210, 1874.480
387.7180, 1796.204
388.9160, 1641.962
390.1130, 1620.754
391.3100, 1598.579
392.5060, 1485.438
393.7030, 1397.331
394.9000, 1362.257
396.0960, 1128.217
397.2920, 1038.209
398.4880, 980.2354
399.6840, 847.2935
400.8800, 726.3848
402.0750, 669.5088
403.2710, 653.6650
404.4660, 491.8525
405.6610, 410.0718
406.8560, 493.3203
408.0510, 426.5991
409.2450, 451.9077
410.4400, 362.2461
411.6340, 374.6133
412.8280, 240.0098
414.0220, 420.4351
415.2160, 354.8892
416.4100, 434.3716
417.6030, 300.8828
418.7970, 332.4219
419.9900, 350.9893
421.1830, 267.5840
422.3760, 208.2070
423.5690, 120.8569
424.7610, 35.53369
425.9540, 53.23828
427.1460, 9.968750
428.3380, 42.27393
429.5300, 22.50342
430.7220, 60.69287
431.9140, 46.87354
433.1050, 23.03564
434.2970, 110.1748
435.4880, 39.69092
436.6790, 39.58203
437.8700, 29.49121
439.0610, 13.41553
440.2510, 3.353516
441.4420, 131.2954
442.6320, 343.2622
443.8220, 610.2534
445.0120, 680.2690
446.2020, 761.3096
447.3910, 763.3765
448.5810, 1062.477
449.7700, 1300.610
450.9600, 1624.790
452.1490, 1629.853
453.3370, 1869.292
454.5260, 1547.586
455.7150, 1300.906
456.9030, 1119.252
458.0910, 991.3110
459.2800, 944.0244
460.4670, 959.4497
461.6550, 1099.901
462.8430, 1306.379
464.0300, 1488.883
465.2180, 1469.414
466.4050, 1667.970
467.5920, 1495.552
468.7790, 1420.161
469.9650, 1458.796
471.1520, 1327.457
472.3380, 1211.144
473.5250, 1083.859
474.7110, 989.6035
475.8970, 889.3770
477.0820, 793.1797
478.2680, 802.0195
479.4540, 685.9043
480.6390, 575.8389
481.8240, 681.8188
483.0090, 572.8545
484.1940, 538.9536
485.3780, 565.0913
486.5630, 399.2891
487.7470, 378.5493
488.9320, 212.8647
490.1160, 212.2534
491.3000, 153.7241
492.4830, 168.2422
493.6670, 90.99902
494.8500, 11.58105
496.0340, 48.91895
497.2170, 104.1875
498.4000, 164.4346
499.5820, 166.6650
500.7650, 184.4771
501.9480, 149.0874
503.1300, 154.3594
504.3120, 93.67090
505.4940, 40.99951
506.6760, 44.32471
507.8580, 9.646973
509.0390, 24.95508
510.2210, 102.7456
511.4020, 17.53320
512.5830, 25.80176
513.7640, 189.9380
514.9450, 170.6968
516.1250, 60.47510
517.3060, 76.27246
518.4860, 162.7524
519.6660, 176.5591
520.8460, 189.6826
522.0260, 202.8052
523.2060, 169.3862
524.3850, 184.2910
525.5650, 143.7588
526.7440, 139.6982
527.9230, 191.6538
529.1020, 195.6606
530.2810, 224.6484
531.4590, 260.6519
532.6380, 337.6714
533.8160, 397.7061
534.9940, 617.7559
536.1720, 723.8208
537.3500, 945.8999
538.5270, 1017.994
539.7050, 1328.103
540.8820, 1635.225
542.0590, 1948.360
543.2360, 2401.511
544.4130, 2715.673
545.5900, 3105.850
546.7660, 3612.040
547.9430, 4161.242
549.1190, 4640.458
550.2950, 5024.685
551.4710, 4996.204
552.6470, 5083.177
553.8220, 4557.440
554.9980, 3962.716
556.1730, 3414.003
557.3480, 2903.301
558.5230, 2428.610
559.6980, 2266.930
560.8730, 2024.260
562.0470, 1945.601
563.2220, 2050.952
564.3960, 2067.313
565.5700, 2231.684
566.7440, 2476.064
567.9170, 2693.455
569.0910, 3003.858
570.2640, 3281.034
571.4380, 3432.455
572.6110, 3701.906
573.7840, 3641.929
574.9570, 3320.808
576.1290, 2945.986
577.3020, 2318.468
578.4740, 2080.973
579.6460, 1765.501
580.8180, 1467.051
581.9900, 1292.587
583.1620, 1187.152
584.3330, 1100.728
585.5040, 946.3105
586.6760, 982.8999
587.8470, 870.4980
589.0180, 901.0312
590.1880, 826.7163
591.3590, 863.7124
592.5290, 795.9365
593.7000, 680.0571
594.8700, 759.7949
596.0400, 654.4683
597.2090, 625.1226
598.3790, 599.7803
599.5490, 580.4434
600.7180, 561.3916
601.8870, 462.7788
603.0560, 524.4526
604.2250, 454.1294
605.3940, 414.8091
606.5620, 425.4922
607.7300, 400.1772
608.8990, 414.8652
610.0670, 465.6279
611.2350, 411.3208
612.4020, 395.0151
613.5700, 482.7114
614.7370, 366.4092
615.9050, 497.1079
617.0720, 682.2183
618.2390, 753.8164
619.4060, 697.0171
620.5720, 907.9521
621.7390, 938.4849
622.9050, 1073.885
624.0710, 1073.962
625.2370, 1000.125
626.4030, 1052.797
627.5690, 1017.022
628.7340, 945.1685
629.9000, 933.2036
631.0650, 836.1812
632.2300, 776.7490
633.3950, 598.2607
634.5600, 600.5181
635.7240, 379.6045
636.8890, 410.3735
638.0530, 332.7725
639.2170, 414.7769
640.3810, 318.6997
641.5450, 311.8076
642.7080, 349.2305
643.8720, 496.3911
645.0350, 547.7178
646.1980, 491.5723
647.3610, 457.3037
648.5240, 318.4043
649.6870, 357.8911
650.8490, 277.4233
652.0120, 293.1812
653.1740, 198.5786
654.3360, 123.0835
655.4980, 115.5786
656.6600, 87.06396
657.8210, 34.54004
658.9830, 3.998535
660.1440, 17.57275
661.3050, 61.81396
662.4660, 6.188965
663.6270, 79.53467
664.7870, 40.86963
665.9480, 136.1875
667.1080, 113.4951
668.2680, 69.79053
669.4280, 115.0752
670.5880, 150.3481
671.7480, 104.6099
672.9070, 162.8604
674.0670, 315.0991
675.2260, 269.3267
676.3850, 180.5425
677.5440, 319.7461
678.7030, 243.9380
679.8610, 260.1182
681.0200, 235.2852
682.1780, 265.4414
683.3360, 214.5845
684.4940, 239.3345
685.6520, 336.8340
686.8090, 261.9399
687.9670, 263.0337
689.1240, 268.6021
690.2810, 444.1821
691.4380, 325.2373
692.5950, 401.2788
693.7520, 444.3086
694.9080, 401.3247
696.0650, 450.3276
697.2210, 454.3174
698.3770, 448.2939
699.5330, 459.2568
700.6880, 449.2065
701.8440, 426.1426
702.9990, 480.0649
704.1550, 465.9746
705.3100, 472.8696
706.4650, 570.7510
707.6190, 555.1152
708.7740, 634.9692
709.9290, 551.8159
711.0830, 713.3750
712.2370, 735.2031
713.3910, 622.4253
714.5450, 724.2358
715.6980, 664.0522
716.8520, 602.0811
718.0050, 656.4321
719.1580, 498.5825
720.3110, 509.3389
721.4640, 444.1494
722.6170, 254.1680
723.7700, 231.8853
724.9220, 177.5806
726.0740, 146.2603
727.2260, 42.92529
728.3780, 38.81982
729.5300, 6.567871
730.6810, 58.00293
731.8330, 60.48779
732.9840, 88.21045
734.1350, 97.33350
735.2860, 101.7700
736.4370, 149.1895
737.5880, 243.5938
738.7380, 123.9819
739.8880, 122.3545
741.0390, 213.7114
742.1890, 188.0518
743.3380, 129.3765
744.4880, 197.6855
745.6380, 182.9785
746.7870, 194.2563
747.9360, 88.51758
749.0850, 126.7622
750.2340, 121.9912
751.3830, 191.2046
752.5310, 140.4023
753.6800, 142.5845
754.8280, 59.75098
755.9760, 14.89746
757.1240, 11.99072
758.2720, 39.92725
759.4190, 17.92676
760.5670, 63.97656
761.7140, 91.10205
762.8610, 2.684082
764.0080, 85.56885
765.1550, 94.90723
766.3020, 62.33545
767.4480, 140.8364
768.5950, 172.4502
769.7410, 39.19434
770.8870, 54.99707
772.0330, 19.86621
773.1780, 72.78418
774.3240, 76.77295
775.4690, 43.17041
776.6140, 97.88330
777.7590, 67.98877
778.9040, 88.12842
780.0490, 100.6919
781.1940, 16.53125
782.3380, 139.3794
783.4820, 111.2344
784.6260, 61.08594
785.7700, 127.9336
786.9140, 164.7725
788.0580, 197.6055
789.2010, 322.4258
790.3450, 217.2393
791.4880, 212.0483
792.6310, 303.8447
793.7730, 388.6309
794.9160, 522.4053
796.0590, 550.5054
797.2010, 695.2861
798.3430, 831.3564
799.4850, 971.4263
800.6270, 1170.269
801.7690, 1355.983
802.9100, 1564.142
804.0520, 1634.837
805.1930, 1711.522
806.3340, 1731.165
807.4750, 1683.222
808.6160, 1700.493
809.7560, 1490.144
810.8970, 1335.788
812.0370, 1174.423
813.1770, 994.0513
814.3170, 852.6714
815.4570, 760.2847
816.5960, 599.8906
817.7360, 528.4897
818.8750, 436.0820
820.0140, 444.6675
821.1530, 395.2466
822.2920, 469.8193
823.4310, 434.3857
824.5690, 391.9473
825.7070, 371.5029
826.8460, 399.0518
827.9840, 472.5962
829.1220, 464.1348
830.2590, 471.6694
831.3970, 420.1978
832.5340, 392.7217
833.6710, 410.2417
834.8080, 444.7573
835.9450, 444.2676
837.0820, 317.7744
838.2190, 224.2778
839.3550, 242.7769
840.4910, 54.27295
841.6270, 158.7656
842.7630, 98.25488
843.8990, 19.25879
845.0350, 36.21826
846.1700, 16.69287
847.3060, 44.83496
848.4410, 65.61621
849.5760, 40.93408
850.7100, 57.49902
851.8450, 31.92920
852.9800, 74.64160
854.1140, 81.24561
855.2480, 61.88379
856.3820, 17.45215
857.5160, 2.990723
858.6500, 15.87842
859.7830, 4.451172
860.9170, 18.77979
862.0500, 16.10791
863.1830, 36.57666
864.3160, 15.16455
865.4480, 53.08789
866.5810, 26.03662
867.7130, 9.764160
868.8460, 51.39746
869.9780, 34.17480
871.1100, 53.11475
872.2410, 42.43066
873.3730, 65.74902
874.5050, 113.0703
875.6360, 139.3955
876.7670, 183.7231
877.8980, 216.7593
879.0290, 249.4531
880.1590, 282.7280
881.2900, 290.0703
882.4200, 318.4180
883.5500, 283.7695
884.6800, 499.0532
885.8100, 489.4146
886.9400, 586.7808
888.0690, 598.1523
889.1990, 741.5288
890.3280, 865.9116
891.4570, 851.8906
892.5860, 1067.400
893.7140, 1159.316
894.8430, 1228.504
895.9710, 1564.109
897.1000, 1708.853
898.2280, 2064.928
899.3560, 2283.925
900.4830, 2542.435
901.6110, 3062.402
902.7380, 3498.457
903.8660, 4165.644
904.9930, 4883.896
906.1200, 5876.564
907.2460, 7171.331
908.3730, 9014.358
909.5000, 11561.12
910.6260, 14710.72
911.7520, 18489.01
912.8780, 22813.45
914.0040, 27515.85
915.1290, 31867.07
916.2550, 37017.92
917.3800, 40649.71
918.5050, 42750.62
919.6300, 41700.55
920.7550, 37503.46
921.8800, 31995.44
923.0040, 26978.44
924.1290, 19954.46
925.2530, 15717.50
926.3770, 12631.55
927.5010, 10720.63
928.6250, 9002.731
929.7480, 7953.850
930.8720, 7410.000
931.9950, 7016.176
933.1180, 6647.377
934.2410, 6713.613
935.3640, 6902.196
936.4860, 7255.171
937.6090, 7970.494
938.7310, 8856.841
939.8530, 9882.215
940.9750, 11287.61
942.0970, 13112.03
943.2180, 15321.47
944.3400, 18162.92
945.4610, 21010.41
946.5820, 24088.94
947.7030, 27194.49
948.8240, 29588.08
949.9450, 31367.69
951.0650, 32194.33
952.1860, 30659.01
953.3060, 27981.71
954.4260, 24450.44
955.5460, 20352.18
956.6650, 16900.95
957.7850, 13708.74
958.9040, 11147.55
960.0230, 9229.382
961.1420, 7789.238
962.2610, 6515.115
963.3800, 5797.015
964.4990, 5145.940
965.6170, 4753.888
966.7350, 4497.859
967.8530, 4579.852
968.9710, 4653.867
970.0890, 5042.904
971.2070, 5706.965
972.3240, 6259.050
973.4410, 6274.154
974.5580, 5633.292
975.6750, 4691.453
976.7920, 3589.636
977.9090, 2818.857
979.0250, 2074.606
980.1410, 1736.876
981.2580, 1365.169
982.3740, 1246.760
983.4890, 1091.102
984.6050, 881.0674
985.7200, 860.4565
986.8360, 894.8701
987.9510, 796.0801
989.0660, 843.9771
990.1810, 867.0869
991.2950, 856.6191
992.4100, 858.2920
993.5240, 859.3950
994.6390, 769.9956
995.7530, 753.6260
996.8660, 621.2817
997.9800, 560.9624
999.0940, 431.4175
1000.207, 445.1582
1001.320, 402.9404
1002.433, 487.7759
1003.546, 542.3867
1004.659, 534.6060
1005.772, 647.5220
1006.884, 779.4629
1007.996, 922.4287
1009.108, 1114.420
1010.220, 1365.437
1011.332, 1812.479
1012.444, 2148.545
1013.555, 2523.638
1014.666, 3172.756
1015.777, 3597.898
1016.888, 4094.067
1017.999, 4645.260
1019.110, 4731.480
1020.220, 4782.725
1021.331, 4717.995
1022.441, 4135.291
1023.551, 3774.611
1024.661, 3225.979
1025.770, 2867.175
1026.880, 2386.583
1027.989, 2144.032
1029.098, 1794.128
1030.207, 1691.668
1031.316, 1433.381
1032.425, 1316.051
1033.533, 1145.051
1034.642, 890.9556
1035.750, 922.7852
1036.858, 866.6938
1037.966, 660.6763
1039.073, 643.7139
1040.181, 588.8008
1041.288, 613.9336
1042.396, 665.1665
1043.503, 565.8530
1044.610, 643.3760
1045.716, 750.3594
1046.823, 733.2852
1047.929, 964.3662
1049.036, 1091.833
1050.142, 1063.179
1051.248, 1328.488
1052.353, 1635.302
1053.459, 1822.043
1054.564, 2370.618
1055.670, 3063.213
1056.775, 3737.828
1057.880, 4480.462
1058.985, 5468.115
1060.089, 6378.418
1061.194, 7184.473
1062.298, 7960.189
1063.402, 8284.697
1064.506, 8059.443
1065.610, 7273.209
1066.713, 6264.991
1067.817, 5048.890
1068.920, 4020.445
1070.023, 3302.822
1071.126, 2633.614
1072.229, 2002.226
1073.332, 1743.759
1074.435, 1506.665
1075.537, 1364.587
1076.639, 1173.525
1077.741, 1071.883
1078.843, 797.3218
1079.945, 759.3076
1081.046, 765.8945
1082.148, 555.4238
1083.249, 502.6118
1084.350, 499.3506
1085.451, 453.5083
1086.551, 437.1113
1087.652, 432.7700
1088.752, 386.9023
1089.853, 378.0483
1090.953, 320.2070
1092.053, 285.3794
1093.152, 336.7075
1094.252, 422.9893
1095.351, 438.3340
1096.451, 555.2671
1097.550, 534.5010
1098.649, 568.7476
1099.748, 694.0273
1100.846, 849.2979
1101.945, 1018.671
1103.043, 1172.050
1104.141, 1382.353
1105.239, 1519.668
1106.337, 1735.041
1107.434, 1916.387
1108.532, 1980.732
1109.629, 1986.549
1110.726, 1780.066
1111.823, 1646.631
1112.920, 1491.020
1114.017, 1275.719
1115.113, 1063.523
1116.210, 833.9482
1117.306, 713.3892
1118.402, 647.9072
1119.498, 511.3643
1120.593, 550.8447
1121.689, 301.0996
1122.784, 204.8354
1123.879, 172.3667
1124.974, 215.9058
1126.069, 203.6250
1127.164, 205.1807
1128.259, 125.7432
1129.353, 178.3130
1130.447, 89.88916
1131.541, 44.54932
1132.635, 100.1392
1133.729, 41.76660
1134.822, 99.36572
1135.916, 139.9761
1137.009, 69.80029
1138.102, 65.42285
1139.195, 120.0503
1140.288, 55.68213
1141.380, 44.33301
1142.473, 16.98779
1143.565, 103.6450
1144.657, 50.38330
1145.749, 34.04590
1146.841, 79.79297
1147.932, 29.47656
1149.024, 60.17236
1150.115, 96.84375
1151.206, 93.59277
1152.297, 88.29004
1153.388, 114.1143
1154.479, 94.79150
1155.569, 0.4697270
1156.659, 68.85156
1157.750, 57.80176
1158.839, 108.4551
1159.929, 43.88867
1161.019, 29.75146
1162.108, 4.149414
1163.198, 31.48633
1164.287, 67.87939
1165.376, 30.27783
1166.465, 93.99414
1167.553, 60.42041
1168.642, 1.135254
1169.730, 5.811035
1170.818, 136.6416
1171.906, 95.83691
1172.994, 0.3120120
1174.082, 77.20947
1175.170, 72.78564
1176.257, 94.70312
1177.344, 60.07959
1178.431, 76.79150
1179.518, 23.44775
1180.605, 14.31885
1181.691, 92.10254
1182.778, 1.944336
1183.864, 80.70996
1184.950, 30.38428
1186.036, 22.47070
1187.122, 29.55078
1188.207, 54.62305
1189.292, 45.68799
1190.378, 19.25098
1191.463, 1.790527
1192.548, 11.81738
1193.632, 35.16455
1194.717, 102.8184
1195.801, 53.79248
1196.886, 59.75732
1197.970, 5.284668
1199.054, 1.202148
1200.137, 10.85596
1201.221, 0.5297850
1202.305, 3.351563
1203.388, 5.900879
1204.471, 55.00977
1205.554, 49.86768
1206.637, 62.69287
1207.719, 19.46875
1208.802, 51.68701
1209.884, 58.04346
1210.966, 52.20557
1212.048, 15.82178
1213.130, 3.829102
1214.212, 19.25195
1215.293, 8.284668
1216.374, 48.39453
1217.456, 82.96875
1218.536, 119.6709
1219.617, 104.2295
1220.698, 97.23682
1221.778, 92.02637
1222.859, 44.80225
1223.939, 53.29248
1225.019, 48.74756
1226.099, 25.18750
1227.178, 101.6069
1228.258, 85.21582
1229.337, 75.50391
1230.417, 90.29980
1231.496, 62.42773
1232.574, 64.77637
1233.653, 125.1094
1234.732, 105.4282
1235.810, 3.732910
1236.888, 89.00391
1237.966, 123.2925
1239.044, 17.26416
1240.122, 65.93115
1241.199, 63.10986
1242.277, 167.3774
1243.354, 56.57422
1244.431, 52.74854
1245.508, 135.0259
1246.585, 142.1182
1247.661, 89.25049
1248.738, 137.3105
1249.814, 133.3848
1250.890, 43.43359
1251.966, 23.56201
1253.042, 122.3892
1254.117, 124.3481
1255.193, 80.29395
1256.268, 143.4404
1257.343, 144.6641
1258.418, 119.5288
1259.493, 184.8120
1260.567, 102.7002
1261.642, 192.5122
1262.716, 115.3438
1263.790, 140.1211
1264.864, 180.8804
1265.938, 86.62207
1267.011, 134.3438
1268.085, 140.2632
1269.158, 150.9492
1270.231, 177.4370
1271.304, 183.0859
1272.377, 182.7163
1273.450, 118.3286
1274.522, 139.1011
1275.594, 119.4951
1276.666, 136.1040
1277.738, 134.6689
1278.810, 199.1860
1279.882, 124.6841
1280.953, 138.1621
1282.025, 109.6572
1283.096, 180.1021
1284.167, 220.5278
1285.238, 190.1909
1286.308, 170.8184
1287.379, 159.2710
1288.449, 219.1709
1289.519, 255.9014
1290.589, 1.142090
1291.659, 172.8477
1292.729, 274.8843
1293.798, 305.4331
1294.868, 65.87939
1295.937, 179.0332
1297.006, 148.3442
1298.075, 114.7866
1299.143, 277.3843
1300.212, 176.9092
1301.280, 144.9956
1302.348, 138.1025
1303.416, 235.8594
1304.484, 221.6475
1305.552, 262.9829
1306.620, 186.5640
1307.687, 121.8730
1308.754, 179.8340
1309.821, 152.9194
1310.888, 197.0503
1311.955, 96.73926
1313.021, 183.4458
1314.088, 172.3213
1315.154, 271.2969
1316.220, 217.2827
1317.286, 152.2490
1318.352, 195.0874
1319.417, 147.1870
1320.483, 244.6040
1321.548, 203.3560
1322.613, 169.3374
1323.678, 185.0654
1324.743, 115.7793
1325.807, 120.9570
1326.872, 214.5396
1327.936, 131.9756
1329.000, 140.0840
1330.064, 111.7793
