##NAMES=Andalusite
##RRUFFID=R050449
##IDEAL CHEMISTRY=Al_2_SiO_5_
##LOCALITY=Itinga, Minas Gerais, Brazil
##OWNER=RRUFF
##SOURCE=Marcus Origlieri
##DESCRIPTION=Green fragment
##STATUS=The identification of this mineral has been confirmed by X-ray diffraction and chemical analysis
##URL=rruff.info/R050449
##MEASURED CHEMISTRY=Al_2.00_Fe^3+^_0.01_Si_0.99_O_5_
##PIN_ID=L00614
##ORIENTATION=Laser parallel to a* (1 0 0). Fiducial mark perpendicular to laser is parallel to b [0 1 0]
121.8270, 0.0000000E+00
123.0580, 16.58691
124.2880, 1.253906
125.5190, 94.19922
126.7490, 60.50684
127.9790, 206.8462
129.2090, 491.4546
130.4390, 498.9990
131.6680, 579.1421
132.8980, 590.8066
134.1270, 649.0059
135.3560, 769.9004
136.5850, 805.9365
137.8140, 898.1230
139.0430, 867.7046
140.2710, 928.7012
141.5000, 980.9634
142.7280, 805.4092
143.9560, 810.6099
145.1840, 634.4385
146.4120, 542.8442
147.6390, 492.7852
148.8670, 322.2354
150.0940, 221.1733
151.3210, 314.5835
152.5490, 412.4497
153.7750, 338.7578
155.0020, 123.5566
156.2290, 79.65332
157.4550, 40.65967
158.6810, 95.42041
159.9080, 94.92676
161.1340, 10.18555
162.3590, 31.20117
163.5850, 129.0181
164.8110, 185.4648
166.0360, 345.1343
167.2610, 358.0195
168.4860, 355.1094
169.7110, 385.3887
170.9360, 379.8574
172.1610, 346.5190
173.3850, 363.3955
174.6100, 404.5127
175.8340, 265.8809
177.0580, 324.4980
178.2820, 348.3574
179.5050, 499.4551
180.7290, 645.7866
181.9520, 830.3481
183.1760, 962.1357
184.3990, 1159.359
185.6220, 1343.428
186.8450, 1552.835
188.0670, 1723.855
189.2900, 1957.818
190.5120, 2117.305
191.7340, 2186.168
192.9560, 2170.818
194.1780, 2252.021
195.4000, 2338.341
196.6220, 2308.791
197.8430, 2124.371
199.0640, 2038.082
200.2860, 2119.920
201.5070, 2236.879
202.7270, 2250.957
203.9480, 1905.149
205.1690, 1105.446
206.3890, 649.8359
207.6090, 459.3223
208.8290, 366.9092
210.0490, 309.6021
211.2690, 186.4038
212.4890, 295.3145
213.7080, 277.2021
214.9280, 317.0205
216.1470, 261.8906
217.3660, 224.8931
218.5850, 301.0288
219.8030, 312.2988
221.0220, 229.7402
222.2400, 367.4287
223.4590, 319.5879
224.6770, 332.1914
225.8950, 247.1499
227.1120, 338.4263
228.3300, 308.9541
229.5480, 307.6196
230.7650, 232.3950
231.9820, 306.2803
233.1990, 356.2769
234.4160, 460.3862
235.6330, 565.7959
236.8490, 753.9492
238.0660, 807.4043
239.2820, 1010.978
240.4980, 1122.670
241.7140, 1091.481
242.9300, 1107.414
244.1460, 1115.468
245.3610, 895.6465
246.5770, 605.9478
247.7920, 620.3740
249.0070, 466.9253
250.2220, 285.6025
251.4370, 145.4053
252.6510, 33.66455
253.8660, 24.60742
255.0800, 164.4238
256.2940, 123.1108
257.5080, 87.66992
258.7220, 199.8989
259.9360, 49.64111
261.1490, 509.4155
262.3630, 57.70410
263.5760, 121.7290
264.7890, 50.61621
266.0020, 12.60596
267.2150, 91.94238
268.4270, 143.4360
269.6400, 306.4321
270.8520, 291.3110
272.0640, 509.6104
273.2760, 517.9697
274.4880, 879.3662
275.7000, 1217.804
276.9120, 1700.290
278.1230, 2141.758
279.3340, 3176.208
280.5450, 4311.676
281.7560, 5874.182
282.9670, 7843.746
284.1780, 9449.382
285.3880, 10708.08
286.5980, 12222.39
287.8090, 13497.47
289.0190, 14778.57
290.2290, 15450.81
291.4380, 15481.20
292.6480, 14698.73
293.8570, 13749.41
295.0670, 11899.22
296.2760, 9692.168
297.4850, 6898.254
298.6930, 4728.475
299.9020, 2949.825
301.1110, 1894.309
302.3190, 1134.482
303.5270, 452.7510
304.7350, 55.07129
305.9430, 106.8486
307.1510, 233.9492
308.3580, 964.5781
309.5660, 1786.495
310.7730, 3240.944
311.9800, 5044.511
313.1870, 6861.195
314.3940, 8189.996
315.6010, 9549.915
316.8070, 10928.95
318.0130, 11863.72
319.2200, 12176.82
320.4260, 11421.70
321.6310, 10671.95
322.8370, 9437.834
324.0430, 8027.104
325.2480, 6147.008
326.4540, 4375.145
327.6590, 2952.638
328.8640, 1911.208
330.0680, 1091.088
331.2730, 848.4688
332.4780, 533.6377
333.6820, 435.3018
334.8860, 204.4678
336.0900, 312.1338
337.2940, 338.9053
338.4980, 548.7354
339.7010, 612.6592
340.9050, 764.6875
342.1080, 896.8213
343.3110, 1305.059
344.5140, 1996.402
345.7170, 2754.850
346.9200, 3705.402
348.1220, 5123.062
349.3240, 6557.822
350.5270, 8291.691
351.7290, 9910.663
352.9310, 11375.74
354.1320, 13043.92
355.3340, 14337.22
356.5350, 14856.61
357.7370, 15301.11
358.9380, 15053.72
360.1390, 14392.43
361.3400, 13114.25
362.5400, 11802.17
363.7410, 10115.21
364.9410, 8725.343
366.1410, 7318.588
367.3410, 6147.938
368.5410, 5236.391
369.7410, 4632.944
370.9400, 4154.600
372.1400, 3910.354
373.3390, 3457.208
374.5380, 3234.160
375.7370, 3051.211
376.9360, 2896.360
378.1350, 2754.606
379.3330, 2700.953
380.5310, 2920.396
381.7300, 2871.938
382.9280, 3162.578
384.1260, 3303.314
385.3230, 3444.148
386.5210, 3633.081
387.7180, 3766.111
388.9160, 3875.237
390.1130, 3888.461
391.3100, 3858.781
392.5060, 3702.197
393.7030, 3494.710
394.9000, 3307.320
396.0960, 3199.047
397.2920, 3032.803
398.4880, 2896.504
399.6840, 2767.595
400.8800, 2680.250
402.0750, 2539.356
403.2710, 2565.868
404.4660, 2566.537
405.6610, 2472.357
406.8560, 2571.082
408.0510, 2649.730
409.2450, 2489.930
410.4400, 2539.258
411.6340, 2510.691
412.8280, 2627.235
414.0220, 2492.885
415.2160, 2602.641
416.4100, 2554.501
417.6030, 2510.467
418.7970, 2460.537
419.9900, 2278.712
421.1830, 2211.992
422.3760, 1959.377
423.5690, 1836.868
424.7610, 1758.465
425.9540, 1535.167
427.1460, 1572.977
428.3380, 1316.891
429.5300, 1341.911
430.7220, 1231.039
431.9140, 1194.276
433.1050, 1297.622
434.2970, 1276.078
435.4880, 1527.643
436.6790, 1757.315
437.8700, 1759.098
439.0610, 2004.988
440.2510, 2219.990
441.4420, 2479.100
442.6320, 2753.320
443.8220, 3014.650
445.0120, 3414.092
446.2020, 3473.646
447.3910, 3371.334
448.5810, 3398.171
449.7700, 3181.154
450.9600, 2769.262
452.1490, 2593.498
453.3370, 2113.847
454.5260, 1694.305
455.7150, 1498.874
456.9030, 865.5537
458.0910, 523.3438
459.2800, 204.2451
460.4670, 59.74512
461.6550, 31.64355
462.8430, 86.44336
464.0300, 272.1396
465.2180, 415.8115
466.4050, 290.4990
467.5920, 389.1641
468.7790, 257.8477
469.9650, 287.5029
471.1520, 191.1426
472.3380, 243.7256
473.5250, 229.2783
474.7110, 197.7998
475.8970, 4.723633
477.0820, 57.65039
478.2680, 81.06934
479.4540, 153.9102
480.6390, 134.8623
481.8240, 220.9258
483.0090, 174.1094
484.1940, 259.4170
485.3780, 295.8477
486.5630, 137.4062
487.7470, 300.0957
488.9320, 249.9053
490.1160, 519.8428
491.3000, 604.9209
492.4830, 700.1279
493.6670, 801.4707
494.8500, 1111.928
496.0340, 1282.494
497.2170, 1717.161
498.4000, 2026.930
499.5820, 2231.797
500.7650, 2557.762
501.9480, 3036.826
503.1300, 3071.988
504.3120, 3531.246
505.4940, 3684.602
506.6760, 3870.053
507.8580, 4126.598
509.0390, 4308.241
510.2210, 4359.979
511.4020, 4353.811
512.5830, 4346.734
513.7640, 4333.633
514.9450, 4341.865
516.1250, 4255.069
517.3060, 4185.365
518.4860, 4118.752
519.6660, 4145.441
520.8460, 4179.781
522.0260, 4262.460
523.2060, 4387.211
524.3850, 4507.049
525.5650, 4703.977
526.7440, 4982.990
527.9230, 5217.094
529.1020, 5597.343
530.2810, 5942.561
531.4590, 6427.924
532.6380, 6844.372
533.8160, 7309.906
534.9940, 7864.526
536.1720, 8483.229
537.3500, 9034.322
538.5270, 9634.500
539.7050, 10094.97
540.8820, 10897.92
542.0590, 11445.88
543.2360, 11893.67
544.4130, 12581.92
545.5900, 12962.01
546.7660, 13488.31
547.9430, 13924.39
549.1190, 14107.58
550.2950, 14139.51
551.4710, 14136.18
552.6470, 13856.05
553.8220, 13546.68
554.9980, 12981.68
556.1730, 12707.75
557.3480, 12319.89
558.5230, 11952.10
559.6980, 11469.37
560.8730, 11236.71
562.0470, 11079.11
563.2220, 11044.57
564.3960, 11111.10
565.5700, 11206.69
566.7440, 11316.34
567.9170, 11287.06
569.0910, 11339.83
570.2640, 11408.67
571.4380, 11388.56
572.6110, 11094.52
573.7840, 10970.55
574.9570, 10481.68
576.1290, 10101.94
577.3020, 9548.325
578.4740, 8904.904
579.6460, 8684.664
580.8180, 8150.619
581.9900, 7662.757
583.1620, 7341.086
584.3330, 7048.613
585.5040, 6830.326
586.6760, 6536.373
587.8470, 6093.320
589.0180, 6031.543
590.1880, 5861.909
591.3590, 5636.410
592.5290, 5699.039
593.7000, 5686.788
594.8700, 5584.632
596.0400, 5618.158
597.2090, 5644.584
598.3790, 5683.672
599.5490, 5797.823
600.7180, 6063.027
601.8870, 6265.679
603.0560, 6664.172
604.2250, 6995.631
605.3940, 7418.602
606.5620, 7599.145
607.7300, 8108.127
608.8990, 8468.670
610.0670, 9117.919
611.2350, 9304.521
612.4020, 10033.85
613.5700, 10388.29
614.7370, 10375.00
615.9050, 11041.06
617.0720, 11303.90
618.2390, 11406.18
619.4060, 11625.54
620.5720, 11862.65
621.7390, 12166.66
622.9050, 12353.84
624.0710, 12619.20
625.2370, 12876.27
626.4030, 13064.40
627.5690, 13348.30
628.7340, 13291.38
629.9000, 13435.88
631.0650, 13413.63
632.2300, 13259.03
633.3950, 13061.65
634.5600, 12817.42
635.7240, 12472.68
636.8890, 12251.86
638.0530, 11939.30
639.2170, 11847.51
640.3810, 11609.73
641.5450, 11536.96
642.7080, 11399.21
643.8720, 11398.46
645.0350, 11124.72
646.1980, 10560.98
647.3610, 10097.26
648.5240, 9374.537
649.6870, 8728.815
650.8490, 8039.104
652.0120, 7438.393
653.1740, 6401.684
654.3360, 5849.975
655.4980, 5220.267
656.6600, 4519.558
657.8210, 4125.848
658.9830, 3622.135
660.1440, 3065.420
661.3050, 2516.698
662.4660, 2046.974
663.6270, 1663.123
664.7870, 1532.508
665.9480, 1055.763
667.1080, 826.0098
668.2680, 648.2490
669.4280, 335.4766
670.5880, 329.6953
671.7480, 359.9023
672.9070, 222.0967
674.0670, 177.2773
675.2260, 42.44531
676.3850, 65.40234
677.5440, 17.69141
678.7030, 177.2412
679.8610, 183.2871
681.0200, 88.45117
682.1780, 63.69238
683.3360, 212.9980
684.4940, 224.4414
685.6520, 208.0293
686.8090, 201.7559
687.9670, 20.61816
689.1240, 159.5332
690.2810, 5.568359
691.4380, 7.649414
692.5950, 20.21777
693.7520, 131.0469
694.9080, 210.8486
696.0650, 223.6240
697.2210, 413.3691
698.3770, 444.0859
699.5330, 514.1426
700.6880, 533.4297
701.8440, 653.0537
702.9990, 689.6465
704.1550, 819.2080
705.3100, 1015.735
706.4650, 1106.230
707.6190, 1306.688
708.7740, 1457.112
709.9290, 1696.500
711.0830, 1668.352
712.2370, 1930.200
713.3910, 2065.498
714.5450, 2024.059
715.6980, 1945.642
716.8520, 1684.143
718.0050, 1552.622
719.1580, 1279.303
720.3110, 1053.980
721.4640, 831.7529
722.6170, 599.3203
723.7700, 474.2266
724.9220, 449.0293
726.0740, 567.2324
727.2260, 491.2490
728.3780, 517.2979
729.5300, 450.4336
730.6810, 481.1074
731.8330, 776.8340
732.9840, 656.9053
734.1350, 734.9375
735.2860, 751.6328
736.4370, 715.0156
737.5880, 544.5186
738.7380, 522.3672
739.8880, 533.8965
741.0390, 530.2266
742.1890, 205.9912
743.3380, 405.9160
744.4880, 216.6338
745.6380, 304.6348
746.7870, 353.1025
747.9360, 368.5420
749.0850, 404.9307
750.2340, 312.2764
751.3830, 417.5479
752.5310, 501.7686
753.6800, 544.9424
754.8280, 452.0625
755.9760, 379.0947
757.1240, 268.0400
758.2720, 385.8643
759.4190, 372.5908
760.5670, 284.2158
761.7140, 243.7236
762.8610, 256.1006
764.0080, 222.3525
765.1550, 201.4678
766.3020, 262.4395
767.4480, 217.2842
768.5950, 130.9893
769.7410, 193.5264
770.8870, 161.9160
772.0330, 328.1465
773.1780, 355.2607
774.3240, 532.2637
775.4690, 481.1748
776.6140, 545.9902
777.7590, 644.7139
778.9040, 867.3457
780.0490, 791.8848
781.1940, 1076.332
782.3380, 1085.685
783.4820, 1110.947
784.6260, 1230.115
785.7700, 1380.190
786.9140, 1539.172
788.0580, 1665.061
789.2010, 1912.854
790.3450, 2126.557
791.4880, 2113.162
792.6310, 2511.675
793.7730, 2683.095
794.9160, 3092.419
796.0590, 3317.648
797.2010, 3638.786
798.3430, 4180.827
799.4850, 4370.774
800.6270, 5131.627
801.7690, 5601.385
802.9100, 6382.047
804.0520, 6964.615
805.1930, 7853.092
806.3340, 8565.468
807.4750, 9504.753
808.6160, 10605.94
809.7560, 11687.04
810.8970, 12662.04
812.0370, 13942.94
813.1770, 15257.76
814.3170, 16509.16
815.4570, 17453.47
816.5960, 18180.50
817.7360, 18485.02
818.8750, 18469.53
820.0140, 18122.24
821.1530, 17389.46
822.2920, 16175.85
823.4310, 14938.01
824.5690, 13700.37
825.7070, 12227.62
826.8460, 11178.11
827.9840, 9988.869
829.1220, 8798.400
830.2590, 7892.160
831.3970, 7147.527
832.5340, 6319.809
833.6710, 5504.002
834.8080, 4923.111
835.9450, 4252.135
837.0820, 3677.072
838.2190, 3071.926
839.3550, 2562.694
840.4910, 2074.378
841.6270, 1665.979
842.7630, 1296.303
843.8990, 1053.924
845.0350, 689.2715
846.1700, 503.5352
847.3060, 273.7158
848.4410, 268.7988
849.5760, 24.78320
850.7100, 109.4004
851.8450, 79.82031
852.9800, 335.4609
854.1140, 305.4541
855.2480, 358.7852
856.3820, 313.4795
857.5160, 349.5127
858.6500, 396.9023
859.7830, 325.6709
860.9170, 422.7803
862.0500, 257.2803
863.1830, 194.0762
864.3160, 214.1377
865.4480, 171.4756
866.5810, 152.0635
867.7130, 140.8877
868.8460, 38.94238
869.9780, 4.170898
871.1100, 63.55371
872.2410, 63.88477
873.3730, 55.20605
874.5050, 94.40918
875.6360, 24.50977
876.7670, 64.48145
877.8980, 73.34668
879.0290, 94.27832
880.1590, 160.2080
881.2900, 216.1504
882.4200, 313.6436
883.5500, 442.0215
884.6800, 571.5371
885.8100, 684.4229
886.9400, 765.5830
888.0690, 812.3965
889.1990, 1096.511
890.3280, 1189.562
891.4570, 1623.402
892.5860, 1938.279
893.7140, 2094.640
894.8430, 2726.409
895.9710, 2992.852
897.1000, 3626.285
898.2280, 4195.515
899.3560, 4629.001
900.4830, 5521.398
901.6110, 6125.996
902.7380, 6972.375
903.8660, 7871.313
904.9930, 9018.963
906.1200, 10178.93
907.2460, 12122.66
908.3730, 13876.20
909.5000, 16246.22
910.6260, 19453.29
911.7520, 23482.07
912.8780, 28092.05
914.0040, 32526.99
915.1290, 36922.88
916.2550, 40128.74
917.3800, 41652.56
918.5050, 41433.34
919.6300, 38975.09
920.7550, 36083.79
921.8800, 32269.47
923.0040, 28026.12
924.1290, 24419.73
925.2530, 20944.30
926.3770, 18132.86
927.5010, 15736.38
928.6250, 13872.87
929.7480, 12375.33
930.8720, 10599.78
931.9950, 9597.188
933.1180, 8466.577
934.2410, 7882.943
935.3640, 7217.288
936.4860, 6782.611
937.6090, 6585.912
938.7310, 6438.193
939.8530, 6156.456
940.9750, 6452.699
942.0970, 6531.926
943.2180, 6823.137
944.3400, 7604.330
945.4610, 8109.510
946.5820, 8995.675
947.7030, 10158.83
948.8240, 10819.97
949.9450, 11315.12
951.0650, 11593.27
952.1860, 11467.45
953.3060, 10596.68
954.4260, 9564.922
955.5460, 8348.185
956.6650, 7133.498
957.7850, 6268.869
958.9040, 5386.291
960.0230, 4678.768
961.1420, 4366.256
962.2610, 3826.791
963.3800, 3688.334
964.4990, 3418.888
965.6170, 3244.449
966.7350, 3222.010
967.8530, 3256.574
968.9710, 3342.142
970.0890, 3221.712
971.2070, 3235.285
972.3240, 3047.864
973.4410, 3234.448
974.5580, 3150.039
975.6750, 3305.639
976.7920, 3273.245
977.9090, 3239.861
979.0250, 3236.486
980.1410, 3162.124
981.2580, 3226.771
982.3740, 3139.932
983.4890, 3339.070
984.6050, 3280.736
985.7200, 3293.146
986.8360, 3419.479
987.9510, 3606.870
989.0660, 3753.260
990.1810, 3944.426
991.2950, 4214.570
992.4100, 4651.599
993.5240, 5341.806
994.6390, 6067.655
995.7530, 7195.586
996.8660, 8711.252
997.9800, 10270.92
999.0940, 12270.54
1000.207, 14206.10
1001.320, 15766.45
1002.433, 17040.33
1003.546, 17267.97
1004.659, 17180.18
1005.772, 16280.60
1006.884, 14729.85
1007.996, 12751.84
1009.108, 11105.48
1010.220, 9674.405
1011.332, 7985.523
1012.444, 7000.196
1013.555, 6317.678
1014.666, 5823.391
1015.777, 5087.852
1016.888, 5200.867
1017.999, 4780.953
1019.110, 4556.107
1020.220, 4285.333
1021.331, 3954.634
1022.441, 3836.004
1023.551, 3482.442
1024.661, 3289.959
1025.770, 2912.543
1026.880, 2835.204
1027.989, 2989.960
1029.098, 2720.802
1030.207, 2738.743
1031.316, 2758.805
1032.425, 2697.989
1033.533, 2541.309
1034.642, 2391.764
1035.750, 2333.361
1036.858, 2224.081
1037.966, 2057.925
1039.073, 2005.914
1040.181, 1857.050
1041.288, 1518.305
1042.396, 1583.675
1043.503, 1278.195
1044.610, 1125.854
1045.716, 1005.623
1046.823, 868.5498
1047.929, 744.6543
1049.036, 853.8760
1050.142, 663.2432
1051.248, 627.7441
1052.353, 774.3936
1053.459, 775.1445
1054.564, 806.0244
1055.670, 907.0283
1056.775, 1204.166
1057.880, 1566.408
1058.985, 1876.801
1060.089, 2192.293
1061.194, 2732.898
1062.298, 2892.620
1063.402, 3007.456
1064.506, 3117.400
1065.610, 2959.442
1066.713, 2854.583
1067.817, 2413.828
1068.920, 2236.170
1070.023, 2002.600
1071.126, 1822.121
1072.229, 1531.730
1073.332, 1464.441
1074.435, 1245.243
1075.537, 1210.135
1076.639, 992.1377
1077.741, 1072.231
1078.843, 1094.413
1079.945, 930.6836
1081.046, 925.0420
1082.148, 751.4912
1083.249, 667.0293
1084.350, 581.6562
1085.451, 504.2227
1086.551, 468.6289
1087.652, 409.0732
1088.752, 449.0576
1089.853, 407.1309
1090.953, 468.2920
1092.053, 309.5439
1093.152, 253.8828
1094.252, 249.3096
1095.351, 291.8252
1096.451, 126.4307
1097.550, 311.1240
1098.649, 211.9053
1099.748, 124.7754
1100.846, 162.7363
1101.945, 237.7842
1103.043, 219.9199
1104.141, 242.1455
1105.239, 215.4600
1106.337, 342.8633
1107.434, 210.3564
1108.532, 394.9375
1109.629, 348.6084
1110.726, 296.3682
1111.823, 309.2158
1112.920, 252.5146
1114.017, 250.1807
1115.113, 153.3047
1116.210, 116.5244
1117.306, 4.875977
1118.402, 98.39453
1119.498, 71.07129
1120.593, 168.9717
1121.689, 190.0908
1122.784, 183.0898
1123.879, 288.0049
1124.974, 160.7988
1126.069, 86.83008
1127.164, 52.08105
1128.259, 119.4248
1129.353, 25.25684
1130.447, 26.12305
1131.541, 0.8251950
1132.635, 52.60156
1133.729, 108.7881
1134.822, 55.66016
1135.916, 90.02539
1137.009, 103.1631
1138.102, 15.22070
1139.195, 55.82812
1140.288, 230.9854
1141.380, 63.24121
1142.473, 262.6113
1143.565, 257.0830
1144.657, 128.6553
1145.749, 267.3232
1146.841, 119.0791
1147.932, 322.9209
1149.024, 344.8457
1150.115, 263.8506
1151.206, 353.9375
1152.297, 251.1045
1153.388, 364.3525
1154.479, 252.6797
1155.569, 427.3623
1156.659, 508.8477
1157.750, 335.4111
1158.839, 280.4336
1159.929, 437.7227
1161.019, 432.8926
1162.108, 390.1338
1163.198, 552.3398
1164.287, 439.3906
1165.376, 546.6562
1166.465, 689.6455
1167.553, 547.6631
1168.642, 512.6494
1169.730, 822.2441
1170.818, 649.8984
1171.906, 749.0391
1172.994, 648.5293
1174.082, 737.5566
1175.170, 688.5205
1176.257, 718.7139
1177.344, 823.7822
1178.431, 835.2002
1179.518, 851.9541
1180.605, 838.0801
1181.691, 863.0371
1182.778, 911.6562
1183.864, 925.5947
1184.950, 995.3506
1186.036, 1004.520
1187.122, 1005.872
1188.207, 908.3682
1189.292, 1010.962
1190.378, 905.8730
1191.463, 993.2480
1192.548, 986.0391
1193.632, 940.7812
1194.717, 1075.305
1195.801, 1097.516
1196.886, 1085.232
1197.970, 985.1543
1199.054, 1065.042
1200.137, 914.2598
1201.221, 891.8105
1202.305, 863.9111
1203.388, 806.3750
1204.471, 871.0781
1205.554, 779.7002
1206.637, 808.6865
1207.719, 845.0332
1208.802, 718.0791
1209.884, 746.1582
1210.966, 699.2656
1212.048, 660.4043
1213.130, 776.5742
1214.212, 590.8486
1215.293, 673.0742
1216.374, 556.3281
1217.456, 540.6074
1218.536, 509.9141
1219.617, 307.2441
1220.698, 591.6006
1221.778, 596.9805
1222.859, 433.3838
1223.939, 419.8096
1225.019, 361.2578
1226.099, 413.7275
1227.178, 334.2168
1228.258, 324.7256
1229.337, 365.2549
1230.417, 326.8027
1231.496, 308.3711
1232.574, 355.9551
1233.653, 300.5586
1234.732, 248.1807
1235.810, 388.8203
1236.888, 386.4766
1237.966, 163.1494
1239.044, 407.8408
1240.122, 277.5518
1241.199, 160.2910
1242.277, 211.0449
1243.354, 211.8125
1244.431, 259.6104
1245.508, 167.4375
1246.585, 309.2754
1247.661, 305.0928
1248.738, 250.9580
1249.814, 346.8320
1250.890, 334.7266
1251.966, 259.6309
1253.042, 285.5381
1254.117, 375.4512
1255.193, 323.3691
1256.268, 353.2959
1257.343, 541.2188
1258.418, 302.9805
1259.493, 380.8965
1260.567, 489.8096
1261.642, 364.6602
1262.716, 254.1631
1263.790, 351.0508
1264.864, 375.5078
1265.938, 474.3730
1267.011, 522.2529
1268.085, 383.9775
1269.158, 288.8008
1270.231, 453.6064
1271.304, 200.3965
1272.377, 405.1680
1273.450, 361.9199
1274.522, 347.6494
1275.594, 378.3574
1276.666, 354.0430
1277.738, 207.7031
1278.810, 213.3418
1279.882, 116.9512
1280.953, 144.5342
1282.025, 57.08887
1283.096, 192.6123
1284.167, 2.893555
1285.238, 104.5508
1286.308, 86.96387
1287.379, 3.341797
1288.449, 2.668945
1289.519, 39.41016
1290.589, 67.90820
1291.659, 78.77539
1292.729, 103.7881
1293.798, 86.92383
1294.868, 94.17480
1295.937, 58.54785
1297.006, 22.01562
1298.075, 43.57227
1299.143, 88.26172
1300.212, 39.90234
1301.280, 14.14648
