##NAMES=Andalusite
##RRUFFID=R050258
##IDEAL CHEMISTRY=Al_2_SiO_5_
##LOCALITY=Bautista Canyon, near Hemet, Riverside County, California, USA
##OWNER=RRUFF
##SOURCE=Marcus Origlieri
##DESCRIPTION=Brown fragment
##STATUS=The identification of this mineral has been confirmed by X-ray diffraction and chemical analysis
##URL=rruff.info/R050258
##MEASURED CHEMISTRY=Al_2.00_Si_1.00_O_5_
##PIN_ID=M00208
##ORIENTATION=Laser parallel to -c* (0 0 -1). Fiducial mark perpendicular to laser is parallel to a [1 0 0]
99.64900, 0.0000000E+00
100.8830, 3.851563
102.1160, 131.9424
103.3490, 239.3975
104.5820, 69.70215
105.8150, 427.4512
107.0470, 308.4668
108.2800, 513.2852
109.5120, 516.1475
110.7440, 778.4355
111.9760, 451.3926
113.2080, 248.2588
114.4400, 158.6660
115.6710, 325.3311
116.9030, 284.0186
118.1340, 276.5127
119.3650, 363.6270
120.5960, 58.20215
121.8270, 121.0986
123.0580, 147.1943
124.2880, 300.3857
125.5190, 290.5898
126.7490, 70.73242
127.9790, 260.7510
129.2090, 90.58594
130.4390, 385.3301
131.6680, 411.9072
132.8980, 166.1406
134.1270, 307.9951
135.3560, 154.4414
136.5850, 74.45020
137.8140, 298.9805
139.0430, 354.9834
140.2710, 390.4229
141.5000, 442.2734
142.7280, 341.5127
143.9560, 165.1191
145.1840, 226.0781
146.4120, 212.3770
147.6390, 269.0078
148.8670, 347.9766
150.0940, 144.2754
151.3210, 270.8984
152.5490, 191.8301
153.7750, 318.0586
155.0020, 254.5781
156.2290, 271.3770
157.4550, 206.4492
158.6810, 216.7891
159.9080, 119.9980
161.1340, 376.8438
162.3590, 191.3594
163.5850, 328.5781
164.8110, 318.0352
166.0360, 404.7266
167.2610, 516.6523
168.4860, 292.8047
169.7110, 325.1816
170.9360, 391.7715
172.1610, 397.5762
173.3850, 287.5371
174.6100, 359.4531
175.8340, 95.37305
177.0580, 320.3262
178.2820, 343.3262
179.5050, 453.3906
180.7290, 327.5254
181.9520, 322.7441
183.1760, 465.0547
184.3990, 407.4707
185.6220, 444.9980
186.8450, 861.6289
188.0670, 750.3652
189.2900, 1090.211
190.5120, 1170.168
191.7340, 856.2656
192.9560, 969.5449
194.1780, 981.9746
195.4000, 739.6172
196.6220, 790.6504
197.8430, 857.8613
199.0640, 791.1992
200.2860, 839.6992
201.5070, 869.3008
202.7270, 750.0039
203.9480, 827.8047
205.1690, 325.7070
206.3890, 97.70703
207.6090, 150.8066
208.8290, 142.0059
210.0490, 103.3027
211.2690, 139.7188
212.4890, 107.7070
213.7080, 151.9609
214.9280, 59.74219
216.1470, 81.61523
217.3660, 14.88672
218.5850, 65.65039
219.8030, 34.19336
221.0220, 84.94727
222.2400, 92.60547
223.4590, 10.17188
224.6770, 23.64648
225.8950, 32.99414
227.1120, 52.72656
228.3300, 246.5508
229.5480, 372.4707
230.7650, 489.5371
231.9820, 783.7539
233.1990, 812.1270
234.4160, 1260.580
235.6330, 1512.109
236.8490, 1974.719
238.0660, 2278.406
239.2820, 2568.195
240.4980, 2415.062
241.7140, 2303.008
242.9300, 2140.033
244.1460, 1632.135
245.3610, 1420.314
246.5770, 1428.094
247.7920, 1105.385
249.0070, 1265.746
250.2220, 1205.543
251.4370, 1150.713
252.6510, 959.2148
253.8660, 1102.014
255.0800, 1058.084
256.2940, 1130.402
257.5080, 1295.953
258.7220, 1246.717
259.9360, 1312.684
261.1490, 1457.842
262.3630, 1303.178
263.5760, 1422.684
264.7890, 1496.352
266.0020, 1645.176
267.2150, 1857.146
268.4270, 1950.551
269.6400, 2293.801
270.8520, 2760.184
272.0640, 2897.695
273.2760, 3712.330
274.4880, 4445.082
275.7000, 4977.953
276.9120, 5792.934
278.1230, 6543.023
279.3340, 7904.221
280.5450, 10189.52
281.7560, 12823.10
282.9670, 16261.49
284.1780, 19812.83
285.3880, 23433.90
286.5980, 27392.45
287.8090, 32094.32
289.0190, 36040.80
290.2290, 38156.90
291.4380, 36073.09
292.6480, 30733.55
293.8570, 23887.84
295.0670, 17829.21
296.2760, 12896.22
297.4850, 9547.898
298.6930, 6913.299
299.9020, 5380.971
301.1110, 4336.715
302.3190, 3533.531
303.5270, 2977.416
304.7350, 2276.373
305.9430, 2340.395
307.1510, 2160.459
308.3580, 2321.588
309.5660, 2854.783
310.7730, 3570.045
311.9800, 4947.369
313.1870, 6156.758
314.3940, 7733.207
315.6010, 9488.719
316.8070, 12102.29
318.0130, 14569.92
319.2200, 16532.61
320.4260, 15763.61
321.6310, 13733.06
322.8370, 10989.09
324.0430, 8088.535
325.2480, 6630.750
326.4540, 5238.799
327.6590, 4418.906
328.8640, 3889.072
330.0680, 3526.297
331.2730, 3356.578
332.4780, 2995.920
333.6820, 3044.318
334.8860, 2799.770
336.0900, 2714.281
337.2940, 2552.848
338.4980, 2507.469
339.7010, 2714.146
340.9050, 2422.877
342.1080, 2610.658
343.3110, 2813.494
344.5140, 3312.379
345.7170, 3907.316
346.9200, 4829.301
348.1220, 6271.340
349.3240, 7871.432
350.5270, 10075.04
351.7290, 12031.22
352.9310, 14602.46
354.1320, 17606.74
355.3340, 20079.36
356.5350, 21726.03
357.7370, 21526.45
358.9380, 19703.16
360.1390, 16669.89
361.3400, 13752.55
362.5400, 11176.16
363.7410, 8772.660
364.9410, 6816.369
366.1410, 5687.117
367.3410, 4402.777
368.5410, 3633.541
369.7410, 3005.242
370.9400, 2685.156
372.1400, 2350.111
373.3390, 1758.107
374.5380, 1747.143
375.7370, 1496.867
376.9360, 1253.988
378.1350, 1336.148
379.3330, 1147.352
380.5310, 1194.594
381.7300, 1117.875
382.9280, 1028.084
384.1260, 1057.564
385.3230, 893.9727
386.5210, 849.4199
387.7180, 815.9160
388.9160, 778.4570
390.1130, 734.2344
391.3100, 712.5215
392.5060, 614.3984
393.7030, 640.1875
394.9000, 515.0371
396.0960, 415.9492
397.2920, 271.9199
398.4880, 249.9785
399.6840, 217.1191
400.8800, 323.3477
402.0750, 191.6484
403.2710, 258.0020
404.4660, 247.1934
405.6610, 214.8613
406.8560, 226.3730
408.0510, 249.9531
409.2450, 203.6016
410.4400, 77.30273
411.6340, 34.94922
412.8280, 126.8359
414.0220, 30.66602
415.2160, 166.5410
416.4100, 311.4648
417.6030, 71.43164
418.7970, 43.44531
419.9900, 207.5410
421.1830, 174.6816
422.3760, 126.8652
423.5690, 110.0918
424.7610, 3.361328
425.9540, 66.33008
427.1460, 62.00586
428.3380, 28.66797
429.5300, 37.30078
430.7220, 14.09180
431.9140, 160.4785
433.1050, 10.92578
434.2970, 323.6328
435.4880, 232.2891
436.6790, 101.9961
437.8700, 31.32031
439.0610, 2.316406
440.2510, 40.92188
441.4420, 76.51172
442.6320, 150.9023
443.8220, 448.3535
445.0120, 538.8398
446.2020, 770.3652
447.3910, 964.9258
448.5810, 1454.523
449.7700, 1941.158
450.9600, 1574.828
452.1490, 1330.533
453.3370, 722.2754
454.5260, 387.0508
455.7150, 302.8594
456.9030, 214.7207
458.0910, 51.61914
459.2800, 82.93164
460.4670, 96.53906
461.6550, 121.5488
462.8430, 9.406250
464.0300, 5.662109
465.2180, 6.394531
466.4050, 78.10742
467.5920, 20.02148
468.7790, 156.1797
469.9650, 215.3750
471.1520, 254.6152
472.3380, 469.8887
473.5250, 383.1973
474.7110, 618.5391
475.8970, 471.9121
477.0820, 237.3184
478.2680, 341.7539
479.4540, 125.2188
480.6390, 253.7148
481.8240, 383.2383
483.0090, 251.7930
484.1940, 377.3750
485.3780, 426.9883
486.5630, 136.6309
487.7470, 245.2988
488.9320, 83.99609
490.1160, 64.77734
491.3000, 13.41211
492.4830, 24.40625
493.6670, 116.2480
494.8500, 126.1152
496.0340, 71.00781
497.2170, 33.92969
498.4000, 34.89844
499.5820, 74.90430
500.7650, 54.05664
501.9480, 33.01758
503.1300, 69.98047
504.3120, 65.03320
505.4940, 83.92773
506.6760, 31.90625
507.8580, 136.1094
509.0390, 199.1543
510.2210, 174.2305
511.4020, 163.3340
512.5830, 149.4648
513.7640, 64.61719
514.9450, 217.7930
516.1250, 139.4902
517.3060, 4.830078
518.4860, 155.0566
519.6660, 129.4277
520.8460, 223.8496
522.0260, 262.4883
523.2060, 202.4492
524.3850, 255.7793
525.5650, 297.1973
526.7440, 140.5664
527.9230, 210.9590
529.1020, 251.8379
530.2810, 261.9590
531.4590, 334.4082
532.6380, 137.8770
533.8160, 434.9316
534.9940, 585.4863
536.1720, 357.0078
537.3500, 640.6855
538.5270, 559.2422
539.7050, 1051.117
540.8820, 1150.301
542.0590, 1565.910
543.2360, 1930.504
544.4130, 2511.137
545.5900, 2926.787
546.7660, 3379.447
547.9430, 3689.973
549.1190, 3637.479
550.2950, 3813.656
551.4710, 3493.914
552.6470, 3177.826
553.8220, 2650.297
554.9980, 2037.045
556.1730, 1665.805
557.3480, 1687.576
558.5230, 1342.355
559.6980, 1191.373
560.8730, 1101.189
562.0470, 1135.008
563.2220, 1119.840
564.3960, 1219.686
565.5700, 1289.553
566.7440, 1548.258
567.9170, 1592.279
569.0910, 1605.457
570.2640, 1806.027
571.4380, 1631.211
572.6110, 1598.172
573.7840, 1603.645
574.9570, 1209.574
576.1290, 976.5488
577.3020, 613.3262
578.4740, 662.3730
579.6460, 831.4258
580.8180, 555.9258
581.9900, 360.8359
583.1620, 440.1133
584.3330, 350.1992
585.5040, 439.2949
586.6760, 542.4023
587.8470, 440.5156
589.0180, 454.6387
590.1880, 231.0215
591.3590, 218.1816
592.5290, 253.3770
593.7000, 276.5781
594.8700, 155.8105
596.0400, 411.0449
597.2090, 555.7207
598.3790, 484.3828
599.5490, 551.1074
600.7180, 564.8145
601.8870, 721.0781
603.0560, 575.3477
604.2250, 498.3984
605.3940, 603.0332
606.5620, 651.3223
607.7300, 499.0938
608.8990, 513.1562
610.0670, 563.9375
611.2350, 541.5039
612.4020, 611.9922
613.5700, 629.1738
614.7370, 582.6602
615.9050, 537.0703
617.0720, 545.4941
618.2390, 530.8027
619.4060, 649.1113
620.5720, 518.4219
621.7390, 595.1992
622.9050, 732.5664
624.0710, 773.8789
625.2370, 727.1934
626.4030, 803.2246
627.5690, 799.6855
628.7340, 825.7715
629.9000, 814.6016
631.0650, 805.9141
632.2300, 729.5879
633.3950, 606.4238
634.5600, 583.7305
635.7240, 494.2070
636.8890, 468.7051
638.0530, 376.6309
639.2170, 482.3594
640.3810, 403.3789
641.5450, 484.0742
642.7080, 611.1484
643.8720, 581.3398
645.0350, 612.6250
646.1980, 587.0801
647.3610, 632.0938
648.5240, 577.0000
649.6870, 392.0840
650.8490, 427.9121
652.0120, 368.1758
653.1740, 190.4570
654.3360, 187.7148
655.4980, 151.9668
656.6600, 61.21484
657.8210, 282.8086
658.9830, 93.04492
660.1440, 91.27148
661.3050, 325.4922
662.4660, 120.7090
663.6270, 280.9219
664.7870, 4.873047
665.9480, 117.3008
667.1080, 197.4707
668.2680, 5.632813
669.4280, 23.76562
670.5880, 230.8809
671.7480, 147.9883
672.9070, 4.089844
674.0670, 106.1621
675.2260, 232.2266
676.3850, 96.28516
677.5440, 117.3340
678.7030, 76.62109
679.8610, 47.55859
681.0200, 88.73047
682.1780, 2.888672
683.3360, 127.9199
684.4940, 244.7227
685.6520, 206.5156
686.8090, 53.30469
687.9670, 34.92383
689.1240, 12.18945
690.2810, 67.48633
691.4380, 91.16016
692.5950, 111.8242
693.7520, 252.4844
694.9080, 167.1406
696.0650, 268.7871
697.2210, 351.4297
698.3770, 86.06055
699.5330, 107.3770
700.6880, 216.1602
701.8440, 150.6895
702.9990, 299.9434
704.1550, 219.1875
705.3100, 413.6133
706.4650, 224.6094
707.6190, 340.1133
708.7740, 140.9434
709.9290, 615.7598
711.0830, 697.2656
712.2370, 763.1055
713.3910, 1104.037
714.5450, 1189.660
715.6980, 1109.242
716.8520, 1112.863
718.0050, 956.4727
719.1580, 949.0762
720.3110, 844.6719
721.4640, 816.2676
722.6170, 632.8691
723.7700, 622.4629
724.9220, 322.7910
726.0740, 303.3633
727.2260, 438.9258
728.3780, 102.4785
729.5300, 296.2051
730.6810, 233.5430
731.8330, 181.0625
732.9840, 257.6094
734.1350, 154.1074
735.2860, 0.4062500
736.4370, 50.24023
737.5880, 47.66016
738.7380, 100.0566
739.8880, 272.4375
741.0390, 190.8086
742.1890, 65.16602
743.3380, 200.5098
744.4880, 32.15430
745.6380, 296.1328
746.7870, 306.4297
747.9360, 42.71680
749.0850, 1.023438
750.2340, 118.1992
751.3830, 68.41016
752.5310, 70.59766
753.6800, 94.76758
754.8280, 125.9258
755.9760, 222.0684
757.1240, 162.1816
758.2720, 171.3262
759.4190, 91.43750
760.5670, 131.5352
761.7140, 144.6191
762.8610, 248.6934
764.0080, 76.75781
765.1550, 176.8066
766.3020, 329.8438
767.4480, 173.1289
768.5950, 181.7715
769.7410, 93.66211
770.8870, 215.5488
772.0330, 138.4297
773.1780, 112.3008
774.3240, 102.1582
775.4690, 53.99609
776.6140, 18.16992
777.7590, 18.92578
778.9040, 0.7441410
780.0490, 150.9609
781.1940, 240.6699
782.3380, 230.3926
783.4820, 8.109375
784.6260, 274.8203
785.7700, 76.53711
786.9140, 196.2441
788.0580, 16.93750
789.2010, 253.6113
790.3450, 122.2754
791.4880, 135.9297
792.6310, 272.5762
793.7730, 164.2129
794.9160, 219.2188
796.0590, 322.8477
797.2010, 188.3398
798.3430, 279.8008
799.4850, 306.4062
800.6270, 305.0059
801.7690, 541.5957
802.9100, 331.1152
804.0520, 414.6934
805.1930, 427.2656
806.3340, 212.3594
807.4750, 447.2285
808.6160, 303.7793
809.7560, 305.3242
810.8970, 465.2988
812.0370, 368.7832
813.1770, 475.3145
814.3170, 396.7012
815.4570, 285.2207
816.5960, 329.4355
817.7360, 187.3477
818.8750, 392.8496
820.0140, 317.3789
821.1530, 480.8770
822.2920, 366.3711
823.4310, 342.8672
824.5690, 423.5098
825.7070, 222.1816
826.8460, 321.1914
827.9840, 167.1328
829.1220, 333.4297
830.2590, 428.8867
831.3970, 376.3672
832.5340, 441.8438
833.6710, 302.3184
834.8080, 271.7910
835.9450, 28.96094
837.0820, 70.48633
838.2190, 285.9355
839.3550, 30.61328
840.4910, 48.17773
841.6270, 17.77344
842.7630, 113.3770
843.8990, 344.9629
845.0350, 60.69922
846.1700, 3.392578
847.3060, 345.9141
848.4410, 45.78320
849.5760, 30.50000
850.7100, 77.23438
851.8450, 111.2930
852.9800, 138.5234
854.1140, 180.7559
855.2480, 310.9863
856.3820, 163.2188
857.5160, 98.44922
858.6500, 75.68164
859.7830, 141.9160
860.9170, 21.84961
862.0500, 195.3750
863.1830, 164.6016
864.3160, 13.83008
865.4480, 102.1934
866.5810, 130.1191
867.7130, 120.1172
868.8460, 101.7539
869.9780, 15.34766
871.1100, 272.4531
872.2410, 9.875000
873.3730, 74.82422
874.5050, 157.4648
875.6360, 152.1328
876.7670, 266.2500
877.8980, 268.3711
879.0290, 236.4727
880.1590, 159.5977
881.2900, 143.5742
882.4200, 153.4648
883.5500, 361.8828
884.6800, 245.5547
885.8100, 371.4492
886.9400, 498.4297
888.0690, 473.7266
889.1990, 378.0781
890.3280, 609.8164
891.4570, 560.8945
892.5860, 828.1016
893.7140, 1020.309
894.8430, 905.5273
895.9710, 962.2812
897.1000, 1353.453
898.2280, 1510.707
899.3560, 1587.996
900.4830, 1557.652
901.6110, 2000.965
902.7380, 2443.285
903.8660, 2774.094
904.9930, 2909.430
906.1200, 3800.398
907.2460, 4321.750
908.3730, 5643.129
909.5000, 6945.352
910.6260, 8920.504
911.7520, 11613.05
912.8780, 14729.77
914.0040, 18465.49
915.1290, 22764.30
916.2550, 27010.78
917.3800, 29625.26
918.5050, 30038.74
919.6300, 27417.21
920.7550, 23160.72
921.8800, 18300.79
923.0040, 14464.31
924.1290, 11107.30
925.2530, 9267.844
926.3770, 7472.383
927.5010, 6850.961
928.6250, 5850.547
929.7480, 5309.145
930.8720, 4852.762
931.9950, 4672.504
933.1180, 4169.258
934.2410, 4102.043
935.3640, 4328.875
936.4860, 4664.727
937.6090, 4987.578
938.7310, 5097.477
939.8530, 6163.379
940.9750, 7275.301
942.0970, 8463.242
943.2180, 10059.20
944.3400, 11593.18
945.4610, 14222.17
946.5820, 16236.18
947.7030, 18575.20
948.8240, 19942.25
949.9450, 19817.30
951.0650, 19074.37
952.1860, 16616.48
953.3060, 13862.63
954.4260, 11539.84
955.5460, 8997.066
956.6650, 7354.312
957.7850, 5988.668
958.9040, 4495.941
960.0230, 3729.234
961.1420, 3125.555
962.2610, 2459.914
963.3800, 2153.281
964.4990, 1993.668
965.6170, 1608.070
966.7350, 1284.484
967.8530, 1258.910
968.9710, 1070.355
970.0890, 968.8125
971.2070, 902.7188
972.3240, 746.9023
973.4410, 799.4570
974.5580, 663.2969
975.6750, 684.3086
976.7920, 299.8242
977.9090, 475.9453
979.0250, 366.5742
980.1410, 207.8945
981.2580, 365.2461
982.3740, 135.9219
983.4890, 448.2734
984.6050, 430.5703
985.7200, 105.7891
986.8360, 344.9531
987.9510, 214.7148
989.0660, 283.4961
990.1810, 449.3008
991.2950, 268.1250
992.4100, 596.9609
993.5240, 152.8164
994.6390, 472.6875
995.7530, 283.8281
996.8660, 401.7305
997.9800, 294.6484
999.0940, 228.5898
1000.207, 399.8633
1001.320, 385.5273
1002.433, 619.5234
1003.546, 867.4453
1004.659, 820.4727
1005.772, 970.5195
1006.884, 1123.066
1007.996, 1313.840
1009.108, 1217.285
1010.220, 1814.430
1011.332, 2143.594
1012.444, 2347.773
1013.555, 3114.977
1014.666, 3529.543
1015.777, 3920.633
1016.888, 4527.910
1017.999, 4747.570
1019.110, 4506.887
1020.220, 4700.457
1021.331, 3703.656
1022.441, 3160.047
1023.551, 2914.461
1024.661, 2118.895
1025.770, 1828.344
1026.880, 1403.812
1027.989, 1211.578
1029.098, 1007.078
1030.207, 843.0117
1031.316, 814.2500
1032.425, 745.1836
1033.533, 642.7734
1034.642, 732.6914
1035.750, 628.3164
1036.858, 504.9609
1037.966, 305.6758
1039.073, 275.4102
1040.181, 399.1602
1041.288, 476.5156
1042.396, 838.2969
1043.503, 676.0977
1044.610, 319.0664
1045.716, 736.3750
1046.823, 582.2695
1047.929, 468.1836
1049.036, 956.1250
1050.142, 933.0859
1051.248, 913.0625
1052.353, 783.0586
1053.459, 1010.078
1054.564, 1428.113
1055.670, 1567.164
1056.775, 2274.230
1057.880, 2389.320
1058.985, 3062.426
1060.089, 3950.531
1061.194, 4909.664
1062.298, 5735.812
1063.402, 6402.980
1064.506, 6661.012
1065.610, 6212.203
1066.713, 5020.340
1067.817, 4067.941
1068.920, 3153.168
1070.023, 2691.406
1071.126, 1853.949
1072.229, 1360.223
1073.332, 1492.512
1074.435, 988.8086
1075.537, 822.1172
1076.639, 567.4375
1077.741, 552.7695
1078.843, 572.1133
1079.945, 424.4688
1081.046, 336.8320
1082.148, 538.2109
1083.249, 235.6016
1084.350, 364.0195
1085.451, 267.1953
1086.551, 55.63281
1087.652, 265.0820
1088.752, 197.5391
1089.853, 44.98828
1090.953, 230.4805
1092.053, 450.9609
1093.152, 404.4492
1094.252, 384.9453
1095.351, 426.4570
1096.451, 461.5039
1097.550, 560.5039
1098.649, 585.0391
1099.748, 744.9258
1100.846, 763.4844
1101.945, 831.0469
1103.043, 1077.828
1104.141, 1206.422
1105.239, 1498.020
1106.337, 1493.633
1107.434, 1960.258
1108.532, 1848.898
1109.629, 2025.684
1110.726, 1958.379
1111.823, 1594.086
1112.920, 1189.805
1114.017, 1026.543
1115.113, 1085.289
1116.210, 853.0469
1117.306, 799.8203
1118.402, 644.4492
1119.498, 635.2578
1120.593, 1004.070
1121.689, 639.0391
1122.784, 880.8672
1123.879, 812.6992
1124.974, 595.5391
1126.069, 805.3867
1127.164, 676.2305
1128.259, 459.0898
1129.353, 213.9570
1130.447, 198.8203
1131.541, 146.6953
1132.635, 177.6016
1133.729, 266.5430
1134.822, 84.51172
1135.916, 104.4219
1137.009, 90.36328
1138.102, 20.69141
1139.195, 309.2539
1140.288, 231.1953
1141.380, 501.1523
1142.473, 47.11328
1143.565, 152.0742
1144.657, 27.04297
1145.749, 52.25781
1146.841, 22.03516
1147.932, 22.90625
1149.024, 9.144531
1150.115, 192.8008
1151.206, 4.242188
1152.297, 20.28906
1153.388, 417.6562
1154.479, 161.6094
1155.569, 265.5586
1156.659, 106.5117
1157.750, 205.5664
1158.839, 4.480469
1159.929, 252.4727
1161.019, 51.48047
1162.108, 54.56250
1163.198, 121.2812
1164.287, 190.6875
1165.376, 39.40625
1166.465, 196.4766
1167.553, 25.35938
1168.642, 195.2383
1169.730, 93.17969
1170.818, 67.06250
1171.906, 72.05469
1172.994, 124.7812
1174.082, 254.6211
1175.170, 31.53906
1176.257, 35.72266
1177.344, 178.0703
1178.431, 35.85938
1179.518, 365.6484
1180.605, 123.1875
1181.691, 96.98828
1182.778, 38.78516
1183.864, 44.11328
1184.950, 139.9180
1186.036, 165.7148
1187.122, 80.51172
1188.207, 39.30078
1189.292, 46.14453
1190.378, 5.121094
1191.463, 61.64844
1192.548, 63.41797
1193.632, 114.1875
1194.717, 431.0469
1195.801, 212.4766
1196.886, 49.00000
1197.970, 119.5195
1199.054, 196.8867
1200.137, 288.2852
1201.221, 21.18359
1202.305, 86.31641
1203.388, 220.7188
1204.471, 114.1211
1205.554, 273.5117
1206.637, 71.12500
1207.719, 133.5547
1208.802, 165.9375
1209.884, 96.31250
1210.966, 159.6836
1212.048, 86.04688
1213.130, 211.4883
1214.212, 135.7422
1215.293, 5.839844
1216.374, 127.5039
1217.456, 70.84375
1218.536, 262.1797
1219.617, 232.3320
1220.698, 153.5586
1221.778, 186.8945
1222.859, 188.2227
1223.939, 147.7578
1225.019, 263.0742
1226.099, 120.5391
1227.178, 234.8438
1228.258, 149.1445
1229.337, 28.42969
1230.417, 194.4297
1231.496, 320.7109
1232.574, 24.02344
1233.653, 267.2070
1234.732, 333.4297
1235.810, 170.6484
1236.888, 216.8555
1237.966, 299.0625
1239.044, 62.42969
1240.122, 237.6172
1241.199, 122.7969
1242.277, 305.9648
1243.354, 120.2656
1244.431, 211.4258
1245.508, 123.5703
1246.585, 64.29297
1247.661, 72.78906
1248.738, 111.1680
1249.814, 450.2422
1250.890, 1.699219
1251.966, 280.3281
1253.042, 322.4258
1254.117, 228.4570
1255.193, 329.4805
1256.268, 312.1836
1257.343, 126.5117
1258.418, 303.5117
1259.493, 290.5039
1260.567, 182.4805
1261.642, 286.4570
1262.716, 288.4219
1263.790, 372.8047
1264.864, 477.7930
1265.938, 258.7266
1267.011, 216.6523
1268.085, 318.3320
1269.158, 177.2305
1270.231, 331.6250
1271.304, 357.5039
1272.377, 224.3711
1273.450, 232.5586
1274.522, 426.4062
1275.594, 273.4375
1276.666, 438.4336
1277.738, 296.2383
1278.810, 321.6797
1279.882, 507.1445
1280.953, 161.7070
