##NAMES=Andalusite
##RRUFFID=R050561
##IDEAL CHEMISTRY=Al_2_SiO_5_
##LOCALITY=Cargo Muchacho Mountain, Imperial County, California
##OWNER=RRUFF
##SOURCE=Dave Bunk Minerals
##DESCRIPTION=Brown coarsely crystalline massive
##STATUS=The identification of this mineral has been confirmed by X-ray diffraction and chemical analysis
##URL=rruff.info/R050561
##MEASURED CHEMISTRY=(Al_1.98_Fe^3+^_0.02_)_Î£=2_Si_1.00_O_5_
##PIN_ID=M00245
##ORIENTATION=Laser parallel to -b* (0 -1 0). Fiducial mark perpendicular to laser is parallel to -c [0 0 -1]
157.4550, 0.0000000E+00
158.6810, 186.3379
159.9080, 1.959473
161.1340, 39.70117
162.3590, 56.64258
163.5850, 77.49756
164.8110, 135.9185
166.0360, 240.0967
167.2610, 333.4565
168.4860, 361.8604
169.7110, 274.6841
170.9360, 378.5830
172.1610, 206.0400
173.3850, 189.3101
174.6100, 158.8228
175.8340, 90.48291
177.0580, 114.6807
178.2820, 135.6108
179.5050, 144.4141
180.7290, 193.1943
181.9520, 149.0303
183.1760, 243.9844
184.3990, 310.1152
185.6220, 434.4658
186.8450, 563.1841
188.0670, 863.1084
189.2900, 1158.014
190.5120, 1379.958
191.7340, 1703.801
192.9560, 1929.859
194.1780, 1845.256
195.4000, 1685.166
196.6220, 1601.553
197.8430, 1547.387
199.0640, 1416.645
200.2860, 1516.305
201.5070, 1717.350
202.7270, 1633.763
203.9480, 1394.532
205.1690, 797.6436
206.3890, 442.0908
207.6090, 236.8989
208.8290, 218.0942
210.0490, 94.67236
211.2690, 65.61230
212.4890, 75.89990
213.7080, 67.52344
214.9280, 4.473145
216.1470, 75.25928
217.3660, 90.68213
218.5850, 83.80225
219.8030, 145.6250
221.0220, 16.15771
222.2400, 68.40479
223.4590, 21.37061
224.6770, 46.93896
225.8950, 91.47852
227.1120, 23.62793
228.3300, 5.511719
229.5480, 225.8652
230.7650, 183.4546
231.9820, 217.1006
233.1990, 429.8184
234.4160, 371.6240
235.6330, 610.5283
236.8490, 732.5386
238.0660, 1200.661
239.2820, 1322.900
240.4980, 1581.261
241.7140, 1711.745
242.9300, 1949.354
244.1460, 1764.094
245.3610, 1689.965
246.5770, 1422.965
247.7920, 1126.091
249.0070, 798.3438
250.2220, 677.7275
251.4370, 477.2437
252.6510, 294.8955
253.8660, 137.7070
255.0800, 276.9263
256.2940, 26.73193
257.5080, 203.0811
258.7220, 284.9756
259.9360, 187.1431
261.1490, 195.5049
262.3630, 167.7622
263.5760, 51.13330
264.7890, 102.5986
266.0020, 159.1528
267.2150, 229.8281
268.4270, 331.6265
269.6400, 475.5493
270.8520, 675.5972
272.0640, 734.7715
273.2760, 986.0747
274.4880, 1450.506
275.7000, 1846.067
276.9120, 2438.760
278.1230, 3086.583
279.3340, 3901.539
280.5450, 4805.628
281.7560, 6068.850
282.9670, 7407.208
284.1780, 8736.696
285.3880, 10126.32
286.5980, 11509.08
287.8090, 13568.98
289.0190, 15514.01
290.2290, 17448.17
291.4380, 19331.48
292.6480, 20576.91
293.8570, 18755.49
295.0670, 16551.20
296.2760, 13445.04
297.4850, 10279.02
298.6930, 7382.141
299.9020, 5378.396
301.1110, 3608.788
302.3190, 2748.316
303.5270, 1908.784
304.7350, 1386.949
305.9430, 1274.812
307.1510, 1511.576
308.3580, 1852.595
309.5660, 2569.845
310.7730, 3817.312
311.9800, 5376.977
313.1870, 6694.828
314.3940, 7921.855
315.6010, 9559.054
316.8070, 11496.42
318.0130, 14552.95
319.2200, 18059.61
320.4260, 20629.41
321.6310, 21994.33
322.8370, 21355.38
324.0430, 18621.57
325.2480, 14850.89
326.4540, 10774.35
327.6590, 7875.943
328.8640, 5541.671
330.0680, 3911.533
331.2730, 2731.531
332.4780, 2042.592
333.6820, 1703.647
334.8860, 1375.716
336.0900, 1256.867
337.2940, 1118.102
338.4980, 1155.463
339.7010, 1338.969
340.9050, 1313.614
342.1080, 1733.400
343.3110, 2035.325
344.5140, 2307.389
345.7170, 3423.588
346.9200, 4301.923
348.1220, 5780.461
349.3240, 7200.012
350.5270, 8893.111
351.7290, 10618.00
352.9310, 12669.16
354.1320, 14773.65
355.3340, 17266.50
356.5350, 19871.28
357.7370, 22322.76
358.9380, 23748.71
360.1390, 23486.80
361.3400, 21901.98
362.5400, 19052.41
363.7410, 16070.33
364.9410, 13305.79
366.1410, 10635.58
367.3410, 8545.658
368.5410, 6896.585
369.7410, 5565.271
370.9400, 4604.976
372.1400, 3995.260
373.3390, 3150.145
374.5380, 2851.278
375.7370, 2373.523
376.9360, 1992.879
378.1350, 1695.346
379.3330, 1400.922
380.5310, 1229.610
381.7300, 1111.410
382.9280, 1004.319
384.1260, 967.1387
385.3230, 961.4785
386.5210, 1017.710
387.7180, 1048.061
388.9160, 1206.521
390.1130, 1288.092
391.3100, 1379.771
392.5060, 1440.562
393.7030, 1505.459
394.9000, 1480.467
396.0960, 1090.583
397.2920, 882.8076
398.4880, 789.1416
399.6840, 634.5801
400.8800, 569.1240
402.0750, 581.7715
403.2710, 619.5176
404.4660, 600.3633
405.6610, 754.3086
406.8560, 884.3535
408.0510, 951.4980
409.2450, 1167.741
410.4400, 1071.085
411.6340, 1144.527
412.8280, 1167.069
414.0220, 1347.710
415.2160, 1504.448
416.4100, 1561.287
417.6030, 1792.223
418.7970, 1919.257
419.9900, 1940.389
421.1830, 1913.618
422.3760, 1835.943
423.5690, 1872.367
424.7610, 1852.887
425.9540, 1753.503
427.1460, 1791.985
428.3380, 1925.023
429.5300, 1840.927
430.7220, 1869.926
431.9140, 2012.020
433.1050, 1986.689
434.2970, 1882.492
435.4880, 2070.871
436.6790, 2141.344
437.8700, 2162.910
439.0610, 2376.572
440.2510, 2455.327
441.4420, 2619.176
442.6320, 2927.120
443.8220, 3000.157
445.0120, 3011.288
446.2020, 3231.514
447.3910, 3226.854
448.5810, 3396.314
449.7700, 3719.896
450.9600, 3956.596
452.1490, 4166.410
453.3370, 4146.341
454.5260, 3764.387
455.7150, 3111.547
456.9030, 2490.821
458.0910, 1899.208
459.2800, 1616.709
460.4670, 1486.321
461.6550, 1290.045
462.8430, 1184.881
464.0300, 987.8271
465.2180, 964.8848
466.4050, 778.0527
467.5920, 728.3311
468.7790, 703.7188
469.9650, 554.2158
471.1520, 471.8223
472.3380, 502.5371
473.5250, 447.3643
474.7110, 554.3018
475.8970, 635.3457
477.0820, 634.4990
478.2680, 592.7715
479.4540, 811.1836
480.6390, 950.7129
481.8240, 950.3711
483.0090, 896.1670
484.1940, 886.1104
485.3780, 751.2158
486.5630, 482.4805
487.7470, 489.9219
488.9320, 63.56348
490.1160, 8.394531
491.3000, 63.58984
492.4830, 320.4141
493.6670, 334.1885
494.8500, 466.9150
496.0340, 449.6299
497.2170, 367.3164
498.4000, 427.9580
499.5820, 418.5781
500.7650, 404.2119
501.9480, 181.8438
503.1300, 178.3965
504.3120, 39.11914
505.4940, 111.7646
506.6760, 190.5293
507.8580, 364.4170
509.0390, 534.4053
510.2210, 667.5000
511.4020, 695.6934
512.5830, 711.9824
513.7640, 889.3799
514.9450, 668.8750
516.1250, 621.4658
517.3060, 675.1494
518.4860, 567.9277
519.6660, 578.7969
520.8460, 519.7588
522.0260, 449.8125
523.2060, 418.9570
524.3850, 354.1924
525.5650, 387.5186
526.7440, 370.7256
527.9230, 398.1895
529.1020, 440.0322
530.2810, 523.7139
531.4590, 651.4834
532.6380, 815.3408
533.8160, 809.2852
534.9940, 965.3154
536.1720, 1165.432
537.3500, 1365.634
538.5270, 1638.921
539.7050, 1906.292
540.8820, 2052.748
542.0590, 2521.287
543.2360, 2768.908
544.4130, 3078.613
545.5900, 3695.398
546.7660, 4114.267
547.9430, 4431.216
549.1190, 4958.245
550.2950, 5339.355
551.4710, 5588.543
552.6470, 5529.812
553.8220, 5577.160
554.9980, 5208.583
556.1730, 4934.086
557.3480, 4476.666
558.5230, 4066.323
559.6980, 3830.056
560.8730, 3501.864
562.0470, 3530.747
563.2220, 3391.705
564.3960, 3244.737
565.5700, 3315.844
566.7440, 3294.023
567.9170, 3302.273
569.0910, 3341.599
570.2640, 3500.996
571.4380, 3560.472
572.6110, 3687.029
573.7840, 3642.677
574.9570, 3633.430
576.1290, 3613.233
577.3020, 3513.289
578.4740, 3482.370
579.6460, 3258.562
580.8180, 3160.879
581.9900, 3204.300
583.1620, 3049.852
584.3330, 3087.957
585.5040, 2918.301
586.6760, 3077.185
587.8470, 3001.192
589.0180, 2917.296
590.1880, 3105.484
591.3590, 3156.771
592.5290, 3160.136
593.7000, 3199.575
594.8700, 3344.085
596.0400, 3438.662
597.2090, 3587.302
598.3790, 3826.003
599.5490, 4041.763
600.7180, 4186.579
601.8870, 4366.452
603.0560, 4552.382
604.2250, 4828.369
605.3940, 4869.406
606.5620, 5077.666
607.7300, 5147.639
608.8990, 5373.830
610.0670, 5451.072
611.2350, 5616.365
612.4020, 5550.705
613.5700, 5702.862
614.7370, 5713.457
615.9050, 5702.938
617.0720, 5761.466
618.2390, 5691.135
619.4060, 5619.518
620.5720, 5536.830
621.7390, 5388.770
622.9050, 5256.934
624.0710, 5178.646
625.2370, 5021.770
626.4030, 4979.652
627.5690, 4874.667
628.7340, 4733.393
629.9000, 4768.740
631.0650, 4551.283
632.2300, 4664.149
633.3950, 4529.417
634.5600, 4368.819
635.7240, 4367.445
636.8890, 4256.045
638.0530, 4254.119
639.2170, 4128.947
640.3810, 4124.994
641.5450, 4018.148
642.7080, 3788.551
643.8720, 4032.708
645.0350, 3758.367
646.1980, 3750.213
647.3610, 3491.521
648.5240, 3516.848
649.6870, 3046.191
650.8490, 2855.551
652.0120, 2752.924
653.1740, 2327.312
654.3360, 2113.715
655.4980, 1933.131
656.6600, 1747.559
657.8210, 1650.998
658.9830, 1480.448
660.1440, 1473.909
661.3050, 1438.380
662.4660, 1409.858
663.6270, 1376.346
664.7870, 1363.878
665.9480, 1357.342
667.1080, 1348.850
668.2680, 1263.362
669.4280, 1259.880
670.5880, 1364.401
671.7480, 1421.926
672.9070, 1532.454
674.0670, 1674.983
675.2260, 1727.515
676.3850, 1822.047
677.5440, 1818.578
678.7030, 1935.108
679.8610, 1860.639
681.0200, 2016.166
682.1780, 1985.690
683.3360, 2119.213
684.4940, 2209.729
685.6520, 2104.242
686.8090, 2203.750
687.9670, 2181.251
689.1240, 2334.745
690.2810, 2426.232
691.4380, 2470.713
692.5950, 2436.183
693.7520, 2454.544
694.9080, 2318.096
696.0650, 2375.536
697.2210, 2372.965
698.3770, 2294.383
699.5330, 2431.789
700.6880, 2309.181
701.8440, 2312.559
702.9990, 2450.923
704.1550, 2585.271
705.3100, 2495.605
706.4650, 2607.922
707.6190, 2624.377
708.7740, 2739.700
709.9290, 2922.014
711.0830, 2992.472
712.2370, 3057.079
713.3910, 3082.154
714.5450, 3159.045
715.6980, 2959.421
716.8520, 2955.910
718.0050, 2716.417
719.1580, 2569.825
720.3110, 2035.231
721.4640, 1609.063
722.6170, 1415.358
723.7700, 1091.603
724.9220, 810.8418
726.0740, 725.5205
727.2260, 613.7300
728.3780, 319.4258
729.5300, 302.4551
730.6810, 308.9775
731.8330, 189.2207
732.9840, 164.3789
734.1350, 355.7012
735.2860, 306.3867
736.4370, 359.8638
737.5880, 368.6919
738.7380, 325.5273
739.8880, 416.4546
741.0390, 346.0903
742.1890, 429.8169
743.3380, 306.1143
744.4880, 421.3657
745.6380, 386.5718
746.7870, 421.7329
747.9360, 232.8467
749.0850, 326.9141
750.2340, 329.9331
751.3830, 104.9043
752.5310, 148.8174
753.6800, 231.6787
754.8280, 183.4907
755.9760, 59.25195
757.1240, 29.05908
758.2720, 79.51367
759.4190, 14.01758
760.5670, 19.57422
761.7140, 58.27979
762.8610, 110.7593
764.0080, 105.1250
765.1550, 169.2915
766.3020, 258.6553
767.4480, 219.2627
768.5950, 222.0947
769.7410, 192.1523
770.8870, 108.4106
772.0330, 135.7822
773.1780, 188.2778
774.3240, 237.9019
775.4690, 168.3721
776.6140, 176.2197
777.7590, 28.65137
778.9040, 66.75635
780.0490, 39.93945
781.1940, 65.76953
782.3380, 61.41992
783.4820, 135.9790
784.6260, 331.4639
785.7700, 287.8896
786.9140, 359.2563
788.0580, 311.5645
789.2010, 474.8130
790.3450, 603.0015
791.4880, 635.1309
792.6310, 787.1997
793.7730, 890.2085
794.9160, 939.1572
796.0590, 1081.045
797.2010, 1291.872
798.3430, 1602.638
799.4850, 1718.343
800.6270, 2117.987
801.7690, 2270.568
802.9100, 2588.089
804.0520, 3059.547
805.1930, 3363.944
806.3340, 3621.279
807.4750, 3700.551
808.6160, 3885.760
809.7560, 3934.907
810.8970, 3931.992
812.0370, 4116.013
813.1770, 4242.973
814.3170, 4226.868
815.4570, 4422.699
816.5960, 4586.468
817.7360, 4577.174
818.8750, 4868.816
820.0140, 4792.396
821.1530, 4800.910
822.2920, 4743.362
823.4310, 4555.750
824.5690, 4351.076
825.7070, 4027.334
826.8460, 3764.531
827.9840, 3473.663
829.1220, 3141.731
830.2590, 2903.735
831.3970, 2716.675
832.5340, 2456.069
833.6710, 2274.117
834.8080, 2034.109
835.9450, 1887.792
837.0820, 1692.412
838.2190, 1491.965
839.3550, 1132.455
840.4910, 983.8813
841.6270, 709.2432
842.7630, 619.5396
843.8990, 362.7729
845.0350, 460.9390
846.1700, 178.0410
847.3060, 171.0601
848.4410, 65.99414
849.5760, 13.17578
850.7100, 74.48145
851.8450, 34.95459
852.9800, 10.42432
854.1140, 38.31543
855.2480, 101.2036
856.3820, 22.26855
857.5160, 125.4727
858.6500, 101.8711
859.7830, 6.449707
860.9170, 55.15918
862.0500, 111.0239
863.1830, 9.068848
864.3160, 42.77734
865.4480, 24.47412
866.5810, 83.13818
867.7130, 93.67139
868.8460, 149.1113
869.9780, 203.3408
871.1100, 250.6680
872.2410, 269.9927
873.3730, 345.1631
874.5050, 335.2715
875.6360, 318.3154
876.7670, 359.2930
877.8980, 330.2085
879.0290, 463.0591
880.1590, 510.8496
881.2900, 624.5806
882.4200, 591.2515
883.5500, 701.8633
884.6800, 708.4199
885.8100, 823.9165
886.9400, 895.3574
888.0690, 994.9712
889.1990, 1081.137
890.3280, 1151.405
891.4570, 1406.617
892.5860, 1474.672
893.7140, 1657.005
894.8430, 1915.392
895.9710, 2189.140
897.1000, 2467.664
898.2280, 2621.594
899.3560, 3111.117
900.4830, 3507.865
901.6110, 3891.465
902.7380, 4439.342
903.8660, 5252.583
904.9930, 6202.544
906.1200, 7284.285
907.2460, 8755.191
908.3730, 10639.29
909.5000, 13405.01
910.6260, 16865.53
911.7520, 21001.33
912.8780, 25632.56
914.0040, 31071.97
915.1290, 36533.93
916.2550, 42449.48
917.3800, 47606.39
918.5050, 50792.11
919.6300, 51722.63
920.7550, 48754.66
921.8800, 42710.67
923.0040, 35789.64
924.1290, 29377.57
925.2530, 24086.46
926.3770, 20419.34
927.5010, 17737.18
928.6250, 15452.99
929.7480, 13243.76
930.8720, 11503.51
931.9950, 9805.220
933.1180, 8466.903
934.2410, 7293.556
935.3640, 6283.180
936.4860, 5467.772
937.6090, 4970.338
938.7310, 4371.873
939.8530, 3749.380
940.9750, 3443.859
942.0970, 3084.312
943.2180, 2882.737
944.3400, 2610.135
945.4610, 2514.507
946.5820, 2479.851
947.7030, 2395.172
948.8240, 2311.466
949.9450, 2258.736
951.0650, 2219.980
952.1860, 1954.202
953.3060, 1873.416
954.4260, 1758.606
955.5460, 1560.773
956.6650, 1446.919
957.7850, 1197.043
958.9040, 1097.146
960.0230, 908.2261
961.1420, 804.2856
962.2610, 782.3252
963.3800, 739.3433
964.4990, 705.3423
965.6170, 699.1938
966.7350, 718.2847
967.8530, 700.2285
968.9710, 711.8203
970.0890, 738.0635
971.2070, 729.9580
972.3240, 699.8364
973.4410, 760.7051
974.5580, 706.5576
975.6750, 660.3940
976.7920, 764.2158
977.9090, 812.0215
979.0250, 866.6582
980.1410, 741.4341
981.2580, 814.1074
982.3740, 818.6421
983.4890, 704.0029
984.6050, 925.8623
985.7200, 845.9219
986.8360, 861.4141
987.9510, 767.5894
989.0660, 797.8848
990.1810, 825.5825
991.2950, 991.5684
992.4100, 954.4346
993.5240, 1097.805
994.6390, 1217.188
995.7530, 1339.543
996.8660, 1523.250
997.9800, 1822.718
999.0940, 2315.096
1000.207, 2609.745
1001.320, 3046.467
1002.433, 3662.618
1003.546, 4002.800
1004.659, 4246.213
1005.772, 4376.104
1006.884, 4280.438
1007.996, 4025.439
1009.108, 3606.781
1010.220, 3247.990
1011.332, 2958.454
1012.444, 2758.816
1013.555, 2645.508
1014.666, 2554.236
1015.777, 2550.976
1016.888, 2593.721
1017.999, 2643.057
1019.110, 2652.713
1020.220, 2762.053
1021.331, 2661.838
1022.441, 2466.635
1023.551, 2372.718
1024.661, 2098.542
1025.770, 1780.377
1026.880, 1622.231
1027.989, 1456.129
1029.098, 1367.045
1030.207, 1169.994
1031.316, 1211.987
1032.425, 1103.285
1033.533, 968.4844
1034.642, 876.7754
1035.750, 806.6895
1036.858, 808.3809
1037.966, 839.9551
1039.073, 675.5723
1040.181, 676.3018
1041.288, 565.1104
1042.396, 479.9971
1043.503, 512.9736
1044.610, 422.0576
1045.716, 302.2334
1046.823, 336.5029
1047.929, 271.8223
1049.036, 282.2383
1050.142, 375.7188
1051.248, 316.2354
1052.353, 223.7832
1053.459, 466.3555
1054.564, 461.9473
1055.670, 785.5566
1056.775, 861.1865
1057.880, 1050.019
1058.985, 1333.415
1060.089, 1454.115
1061.194, 1954.835
1062.298, 2241.592
1063.402, 2199.367
1064.506, 2394.159
1065.610, 2130.969
1066.713, 1897.805
1067.817, 1628.662
1068.920, 1421.538
1070.023, 950.4316
1071.126, 840.3467
1072.229, 571.2812
1073.332, 604.2480
1074.435, 567.2334
1075.537, 461.2490
1076.639, 518.2832
1077.741, 546.3340
1078.843, 418.4053
1079.945, 471.4971
1081.046, 374.6162
1082.148, 413.7803
1083.249, 409.0791
1084.350, 327.1650
1085.451, 397.0762
1086.551, 487.3154
1087.652, 421.5752
1088.752, 334.8535
1089.853, 256.3682
1090.953, 285.6865
1092.053, 402.0234
1093.152, 279.3828
1094.252, 428.7607
1095.351, 324.1572
1096.451, 358.5732
1097.550, 165.0088
1098.649, 307.1826
1099.748, 212.6562
1100.846, 371.1504
1101.945, 335.7842
1103.043, 293.1025
1104.141, 379.6543
1105.239, 449.9160
1106.337, 499.5439
1107.434, 522.5928
1108.532, 529.7412
1109.629, 521.6748
1110.726, 479.3428
1111.823, 454.0303
1112.920, 382.7373
1114.017, 305.4736
1115.113, 283.6172
1116.210, 137.4229
1117.306, 3.716797
1118.402, 41.21387
1119.498, 48.95410
1120.593, 91.70410
1121.689, 55.20117
1122.784, 60.96191
1123.879, 114.2324
1124.974, 111.9297
1126.069, 21.37988
1127.164, 51.81641
1128.259, 46.55664
1129.353, 159.9814
1130.447, 84.58301
1131.541, 16.72656
1132.635, 135.0547
1133.729, 67.61523
1134.822, 82.68848
1135.916, 25.98047
1137.009, 91.21875
1138.102, 98.48535
1139.195, 34.75293
1140.288, 86.12988
1141.380, 40.89648
1142.473, 7.682617
1143.565, 61.48926
1144.657, 12.31543
1145.749, 6.159180
1146.841, 34.97754
1147.932, 38.85645
1149.024, 31.24707
1150.115, 77.53906
1151.206, 25.53516
1152.297, 60.97461
1153.388, 42.94531
1154.479, 15.84473
1155.569, 47.19727
1156.659, 185.2061
1157.750, 112.3457
1158.839, 94.45215
1159.929, 84.60449
1161.019, 5.878906
1162.108, 89.80859
1163.198, 13.11133
1164.287, 2.560547
1165.376, 2.968750
1166.465, 26.92969
1167.553, 13.57324
1168.642, 2.267578
1169.730, 30.93555
1170.818, 81.23730
1171.906, 146.7471
1172.994, 74.97656
1174.082, 100.4385
1175.170, 19.84473
1176.257, 7.430664
1177.344, 39.58105
1178.431, 53.99512
1179.518, 146.3535
1180.605, 81.04492
1181.691, 132.4648
1182.778, 22.06055
1183.864, 56.37598
1184.950, 137.2090
1186.036, 103.5703
1187.122, 125.0117
1188.207, 3.689453
1189.292, 21.76562
1190.378, 69.08496
1191.463, 95.47754
1192.548, 191.8203
1193.632, 77.44336
1194.717, 194.9023
1195.801, 136.4355
1196.886, 107.2500
1197.970, 93.36035
1199.054, 76.89453
1200.137, 104.6895
1201.221, 88.09961
1202.305, 129.8711
1203.388, 107.1211
1204.471, 126.8838
1205.554, 176.8555
1206.637, 116.4570
1207.719, 108.7588
1208.802, 278.4736
1209.884, 106.2334
1210.966, 124.5918
1212.048, 289.4131
1213.130, 90.70703
1214.212, 183.1562
1215.293, 67.55273
1216.374, 103.0479
1217.456, 77.29980
1218.536, 42.06250
1219.617, 6.399414
1220.698, 53.88086
1221.778, 71.37402
1222.859, 69.04297
1223.939, 97.49805
1225.019, 125.7266
1226.099, 43.97266
1227.178, 114.1924
1228.258, 2.522461
1229.337, 72.75977
1230.417, 70.04004
1231.496, 15.23535
1232.574, 1.576172
1233.653, 84.59961
1234.732, 18.22852
1235.810, 21.92188
1236.888, 96.06543
1237.966, 15.20312
1239.044, 156.3301
1240.122, 39.45117
1241.199, 52.56543
1242.277, 68.67383
1243.354, 41.77930
1244.431, 6.119141
1245.508, 117.9609
1246.585, 115.0342
1247.661, 66.04883
1248.738, 16.10645
1249.814, 95.33789
1250.890, 92.39844
1251.966, 95.45215
1253.042, 42.49707
1254.117, 20.53027
1255.193, 42.80469
1256.268, 92.81152
1257.343, 34.80566
1258.418, 63.92871
1259.493, 7.843750
1260.567, 24.13672
1261.642, 60.93652
1262.716, 12.97363
1263.790, 12.09082
1264.864, 95.80078
1265.938, 58.24707
1267.011, 111.9395
1268.085, 84.41016
1269.158, 33.62207
1270.231, 159.4189
1271.304, 149.2041
1272.377, 123.9756
1273.450, 141.7314
1274.522, 76.47461
1275.594, 7.217773
1276.666, 151.9238
1277.738, 125.6357
1278.810, 6.273438
1279.882, 148.7354
1280.953, 19.04785
1282.025, 84.79102
1283.096, 9.614258
1284.167, 78.85742
1285.238, 92.88574
1286.308, 67.40820
1287.379, 81.06250
1288.449, 75.67480
1289.519, 52.40527
1290.589, 20.93652
1291.659, 0.4355470
1292.729, 23.28613
1293.798, 38.87891
1294.868, 113.3359
1295.937, 80.99609
1297.006, 75.96387
1298.075, 1.126953
1299.143, 47.50098
1300.212, 2.275391
1301.280, 110.8115
1302.348, 58.87891
1303.416, 76.13867
1304.484, 18.16113
1305.552, 30.15039
1306.620, 84.17969
1307.687, 90.88086
1308.754, 3.4180000E-02
1309.821, 26.77148
1310.888, 60.54492
1311.955, 121.2939
1313.021, 19.02148
1314.088, 115.7129
1315.154, 30.38281
1316.220, 135.0205
1317.286, 48.44922
1318.352, 30.69824
1319.417, 33.82812
1320.483, 37.67969
1321.548, 71.74805
1322.613, 105.1553
1323.678, 70.53418
1324.743, 14.88867
1325.807, 34.21289
1326.872, 93.49609
1327.936, 62.74609
1329.000, 62.97461
