##NAMES=Andalusite
##RRUFFID=R050258
##IDEAL CHEMISTRY=Al_2_SiO_5_
##LOCALITY=Bautista Canyon, near Hemet, Riverside County, California, USA
##OWNER=RRUFF
##SOURCE=Marcus Origlieri
##DESCRIPTION=Brown fragment
##STATUS=The identification of this mineral has been confirmed by X-ray diffraction and chemical analysis
##URL=rruff.info/R050258
##MEASURED CHEMISTRY=Al_2.00_Si_1.00_O_5_
##PIN_ID=L01170
##ORIENTATION=Laser parallel to a* (1 0 0). Fiducial mark perpendicular to laser is parallel to -b [0 -1 0]
113.2080, 0.0000000E+00
114.4400, 1.927734
115.6710, 59.31836
116.9030, 157.0977
118.1340, 147.8574
119.3650, 80.19434
120.5960, 45.55176
121.8270, 23.25391
123.0580, 137.4893
124.2880, 3.333984
125.5190, 160.3320
126.7490, 5.137695
127.9790, 88.80273
129.2090, 228.1045
130.4390, 136.8535
131.6680, 135.9014
132.8980, 238.1182
134.1270, 123.3867
135.3560, 276.6084
136.5850, 111.6963
137.8140, 325.5762
139.0430, 330.2119
140.2710, 367.5186
141.5000, 289.4521
142.7280, 343.9688
143.9560, 199.0322
145.1840, 363.6064
146.4120, 156.6650
147.6390, 181.1816
148.8670, 335.1348
150.0940, 24.49902
151.3210, 193.2412
152.5490, 134.3291
153.7750, 370.7334
155.0020, 489.4336
156.2290, 321.4141
157.4550, 171.6641
158.6810, 339.1670
159.9080, 356.9189
161.1340, 155.9189
162.3590, 343.1523
163.5850, 199.0586
164.8110, 314.7217
166.0360, 130.5967
167.2610, 415.6816
168.4860, 423.9697
169.7110, 264.4541
170.9360, 186.1250
172.1610, 409.9775
173.3850, 351.0059
174.6100, 318.2041
175.8340, 208.5732
177.0580, 222.1094
178.2820, 373.8125
179.5050, 421.6768
180.7290, 293.7012
181.9520, 403.8789
183.1760, 311.2051
184.3990, 552.6797
185.6220, 198.2949
186.8450, 449.0000
188.0670, 532.6758
189.2900, 427.3516
190.5120, 445.0391
191.7340, 442.7578
192.9560, 483.5137
194.1780, 488.3145
195.4000, 564.1680
196.6220, 464.0781
197.8430, 360.0469
199.0640, 431.1289
200.2860, 467.2949
201.5070, 611.5391
202.7270, 625.8535
203.9480, 611.2656
205.1690, 489.8262
206.3890, 297.5371
207.6090, 215.3867
208.8290, 379.2988
210.0490, 202.2715
211.2690, 243.3105
212.4890, 148.4102
213.7080, 23.42969
214.9280, 240.7949
216.1470, 121.0820
217.3660, 170.4922
218.5850, 168.0957
219.8030, 235.7539
221.0220, 158.5371
222.2400, 91.37305
223.4590, 121.2617
224.6770, 201.2051
225.8950, 236.1992
227.1120, 211.4688
228.3300, 105.3457
229.5480, 176.4941
230.7650, 188.6973
231.9820, 262.9551
233.1990, 473.2832
234.4160, 483.6621
235.6330, 633.1523
236.8490, 655.8242
238.0660, 835.5547
239.2820, 962.3262
240.4980, 1028.186
241.7140, 1047.148
242.9300, 1006.166
244.1460, 1099.275
245.3610, 906.4824
246.5770, 951.4922
247.7920, 672.0527
249.0070, 879.3887
250.2220, 592.7676
251.4370, 475.1816
252.6510, 432.6289
253.8660, 238.1504
255.0800, 378.7051
256.2940, 455.2891
257.5080, 488.9023
258.7220, 697.5449
259.9360, 677.3945
261.1490, 693.5879
262.3630, 590.2402
263.5760, 550.1992
264.7890, 549.4219
266.0020, 643.8711
267.2150, 546.5254
268.4270, 802.3652
269.6400, 728.3711
270.8520, 863.5137
272.0640, 1182.818
273.2760, 1524.258
274.4880, 1771.979
275.7000, 2128.496
276.9120, 2394.283
278.1230, 2635.178
279.3340, 2953.172
280.5450, 3232.256
281.7560, 3709.434
282.9670, 4691.035
284.1780, 5862.375
285.3880, 7092.623
286.5980, 8457.867
287.8090, 10306.44
289.0190, 12150.38
290.2290, 14506.08
291.4380, 16602.85
292.6480, 16591.68
293.8570, 16114.75
295.0670, 13732.69
296.2760, 11425.43
297.4850, 9062.488
298.6930, 6620.939
299.9020, 4977.129
301.1110, 3741.340
302.3190, 2861.602
303.5270, 2343.908
304.7350, 2035.262
305.9430, 1551.658
307.1510, 1210.100
308.3580, 996.5801
309.5660, 1333.102
310.7730, 1322.664
311.9800, 1645.266
313.1870, 2130.904
314.3940, 2478.582
315.6010, 3077.291
316.8070, 3771.041
318.0130, 4677.822
319.2200, 5911.541
320.4260, 7113.900
321.6310, 7801.035
322.8370, 7571.947
324.0430, 6843.889
325.2480, 5753.859
326.4540, 4851.418
327.6590, 3956.445
328.8640, 3467.498
330.0680, 2927.578
331.2730, 2510.684
332.4780, 2490.816
333.6820, 2349.973
334.8860, 2452.156
336.0900, 2396.365
337.2940, 2058.600
338.4980, 2083.857
339.7010, 1747.141
340.9050, 1878.449
342.1080, 1841.779
343.3110, 1907.139
344.5140, 1791.520
345.7170, 1769.926
346.9200, 2090.352
348.1220, 2181.805
349.3240, 2510.646
350.5270, 3135.178
351.7290, 3518.691
352.9310, 4361.227
354.1320, 5155.779
355.3340, 6236.543
356.5350, 7282.135
357.7370, 8519.637
358.9380, 8777.078
360.1390, 8685.727
361.3400, 8019.387
362.5400, 7078.062
363.7410, 5782.752
364.9410, 4942.908
366.1410, 3800.646
367.3410, 3042.912
368.5410, 2599.748
369.7410, 1979.498
370.9400, 1698.303
372.1400, 1579.484
373.3390, 1311.082
374.5380, 934.9297
375.7370, 735.9336
376.9360, 623.8066
378.1350, 721.6914
379.3330, 480.6777
380.5310, 577.5801
381.7300, 675.4902
382.9280, 399.4102
384.1260, 504.0430
385.3230, 489.9766
386.5210, 418.5293
387.7180, 264.4824
388.9160, 457.4414
390.1130, 394.4043
391.3100, 284.6816
392.5060, 364.2559
393.7030, 205.2754
394.9000, 269.3008
396.0960, 321.3516
397.2920, 264.4082
398.4880, 185.4668
399.6840, 161.5293
400.8800, 37.59766
402.0750, 331.6719
403.2710, 169.7539
404.4660, 158.8594
405.6610, 293.9902
406.8560, 76.14258
408.0510, 227.3125
409.2450, 211.5000
410.4400, 248.7070
411.6340, 338.9297
412.8280, 286.1934
414.0220, 190.4746
415.2160, 155.7676
416.4100, 302.0762
417.6030, 419.3965
418.7970, 392.7305
419.9900, 288.0781
421.1830, 183.4473
422.3760, 149.8242
423.5690, 135.2090
424.7610, 23.60352
425.9540, 75.99414
427.1460, 115.3848
428.3380, 20.22852
429.5300, 17.84570
430.7220, 120.5352
431.9140, 5.082031
433.1050, 53.30469
434.2970, 63.69336
435.4880, 15.08594
436.6790, 84.51562
437.8700, 120.8496
439.0610, 146.7832
440.2510, 21.51758
441.4420, 84.17969
442.6320, 58.91211
443.8220, 166.3281
445.0120, 150.5703
446.2020, 175.0156
447.3910, 224.2598
448.5810, 295.5039
449.7700, 294.7500
450.9600, 544.9941
452.1490, 734.2402
453.3370, 628.4863
454.5260, 513.7324
455.7150, 324.9785
456.9030, 350.2227
458.0910, 214.4727
459.2800, 37.72656
460.4670, 141.9824
461.6550, 5.761719
462.8430, 123.5156
464.0300, 118.3398
465.2180, 180.7988
466.4050, 104.9355
467.5920, 101.0703
468.7790, 86.79688
469.9650, 211.2852
471.1520, 263.3633
472.3380, 142.4414
473.5250, 249.5156
474.7110, 244.5859
475.8970, 295.6523
477.0820, 235.9414
478.2680, 389.0059
479.4540, 242.0664
480.6390, 147.1289
481.8240, 140.2246
483.0090, 214.3086
484.1940, 123.3867
485.3780, 377.9453
486.5630, 218.1758
487.7470, 54.27344
488.9320, 253.3672
490.1160, 253.4512
491.3000, 0.5292970
492.4830, 7.595703
493.6670, 190.6445
494.8500, 81.68750
496.0340, 60.72070
497.2170, 75.25391
498.4000, 106.7070
499.5820, 164.3418
500.7650, 21.50195
501.9480, 148.2988
503.1300, 74.09180
504.3120, 127.8965
505.4940, 175.9883
506.6760, 41.12695
507.8580, 54.58984
509.0390, 54.38867
510.2210, 19.25977
511.4020, 22.39648
512.5830, 79.03125
513.7640, 15.66992
514.9450, 86.97266
516.1250, 300.0234
517.3060, 43.70898
518.4860, 192.7324
519.6660, 173.1621
520.8460, 61.57812
522.0260, 342.9805
523.2060, 107.4199
524.3850, 394.7949
525.5650, 40.15430
526.7440, 182.4961
527.9230, 44.81836
529.1020, 197.2148
530.2810, 152.5020
531.4590, 209.7754
532.6380, 22.80859
533.8160, 53.95508
534.9940, 109.2715
536.1720, 303.4355
537.3500, 281.1680
538.5270, 409.2988
539.7050, 429.5781
540.8820, 499.0625
542.0590, 485.1504
543.2360, 778.6406
544.4130, 1145.334
545.5900, 1398.723
546.7660, 1818.949
547.9430, 2275.943
549.1190, 2443.920
550.2950, 2350.873
551.4710, 2393.035
552.6470, 2252.303
553.8220, 2146.580
554.9980, 1920.637
556.1730, 1381.703
557.3480, 1432.084
558.5230, 946.9766
559.6980, 920.7422
560.8730, 944.2227
562.0470, 711.2207
563.2220, 727.1348
564.3960, 610.8301
565.5700, 607.5020
566.7440, 740.5820
567.9170, 700.8633
569.0910, 781.4688
570.2640, 944.2266
571.4380, 1053.051
572.6110, 992.6289
573.7840, 803.8750
574.9570, 928.4395
576.1290, 956.9805
577.3020, 560.5059
578.4740, 381.8438
579.6460, 412.3379
580.8180, 389.0762
581.9900, 287.5215
583.1620, 228.6016
584.3330, 313.9824
585.5040, 232.3711
586.6760, 112.7324
587.8470, 419.0859
589.0180, 328.4102
590.1880, 386.0254
591.3590, 209.2988
592.5290, 324.9980
593.7000, 582.2715
594.8700, 304.6992
596.0400, 421.1875
597.2090, 428.7109
598.3790, 450.3242
599.5490, 342.4707
600.7180, 537.6133
601.8870, 589.6582
603.0560, 882.4160
604.2250, 618.5020
605.3940, 525.8262
606.5620, 728.8770
607.7300, 602.5293
608.8990, 682.9238
610.0670, 581.1641
611.2350, 392.2422
612.4020, 301.2441
613.5700, 280.6426
614.7370, 467.6719
615.9050, 325.5566
617.0720, 135.3691
618.2390, 393.8418
619.4060, 324.5938
620.5720, 332.6855
621.7390, 198.6895
622.9050, 355.6230
624.0710, 342.9219
625.2370, 117.8652
626.4030, 184.9434
627.5690, 553.4277
628.7340, 369.0254
629.9000, 590.8984
631.0650, 433.2812
632.2300, 585.0977
633.3950, 485.7500
634.5600, 324.4434
635.7240, 452.1309
636.8890, 298.7070
638.0530, 234.7656
639.2170, 304.2949
640.3810, 282.7422
641.5450, 245.4609
642.7080, 216.6289
643.8720, 210.4629
645.0350, 141.3730
646.1980, 189.8965
647.3610, 232.6953
648.5240, 49.82422
649.6870, 320.0879
650.8490, 110.3066
652.0120, 255.9629
653.1740, 214.7383
654.3360, 83.66211
655.4980, 38.68555
656.6600, 77.39258
657.8210, 329.1328
658.9830, 234.0566
660.1440, 244.8457
661.3050, 390.0508
662.4660, 201.0742
663.6270, 370.5605
664.7870, 245.2812
665.9480, 279.3984
667.1080, 245.8398
668.2680, 53.87109
669.4280, 256.7910
670.5880, 217.0527
671.7480, 179.7441
672.9070, 45.90625
674.0670, 23.37109
675.2260, 265.9316
676.3850, 46.61328
677.5440, 245.3184
678.7030, 182.0762
679.8610, 128.9414
681.0200, 266.7695
682.1780, 35.56445
683.3360, 86.31641
684.4940, 136.1504
685.6520, 171.1562
686.8090, 237.7754
687.9670, 238.5449
689.1240, 335.3848
690.2810, 168.9277
691.4380, 139.4375
692.5950, 60.48828
693.7520, 180.8965
694.9080, 173.4805
696.0650, 98.79492
697.2210, 205.0723
698.3770, 57.31641
699.5330, 78.86328
700.6880, 4.025391
701.8440, 180.3691
702.9990, 245.4434
704.1550, 246.4863
705.3100, 123.6016
706.4650, 381.5723
707.6190, 283.1211
708.7740, 339.2402
709.9290, 370.5781
711.0830, 467.5020
712.2370, 427.6719
713.3910, 604.3262
714.5450, 452.5020
715.6980, 719.2227
716.8520, 774.2637
718.0050, 1057.293
719.1580, 1050.404
720.3110, 967.0566
721.4640, 871.6758
722.6170, 968.7578
723.7700, 652.0391
724.9220, 432.5879
726.0740, 476.0273
727.2260, 278.5059
728.3780, 174.9512
729.5300, 260.7930
730.6810, 143.1660
731.8330, 239.5000
732.9840, 196.3672
734.1350, 197.1621
735.2860, 182.6133
736.4370, 53.27148
737.5880, 28.78125
738.7380, 315.8711
739.8880, 85.30859
741.0390, 128.4512
742.1890, 135.4258
743.3380, 54.32422
744.4880, 292.9219
745.6380, 125.7910
746.7870, 182.3047
747.9360, 104.3809
749.0850, 244.1523
750.2340, 80.04297
751.3830, 153.7363
752.5310, 235.3867
753.6800, 263.0020
754.8280, 349.5801
755.9760, 10.89258
757.1240, 358.3770
758.2720, 17.82617
759.4190, 16.77930
760.5670, 0.4765630
761.7140, 116.7793
762.8610, 50.00391
764.0080, 46.66211
765.1550, 27.60742
766.3020, 246.6328
767.4480, 172.6230
768.5950, 81.57617
769.7410, 31.48828
770.8870, 53.66602
772.0330, 183.1816
773.1780, 175.9727
774.3240, 194.7266
775.4690, 318.4434
776.6140, 189.1543
777.7590, 226.8301
778.9040, 302.5215
780.0490, 122.1953
781.1940, 95.83008
782.3380, 82.40430
783.4820, 140.6465
784.6260, 198.0469
785.7700, 129.5508
786.9140, 123.7031
788.0580, 76.84180
789.2010, 78.04102
790.3450, 250.3730
791.4880, 118.6562
792.6310, 228.1680
793.7730, 213.9570
794.9160, 205.4336
796.0590, 165.6641
797.2010, 189.8594
798.3430, 75.02344
799.4850, 116.8184
800.6270, 237.1953
801.7690, 172.2578
802.9100, 139.2871
804.0520, 222.2852
805.1930, 165.2520
806.3340, 88.09961
807.4750, 256.0020
808.6160, 125.8770
809.7560, 124.5566
810.8970, 292.8262
812.0370, 164.4922
813.1770, 120.2617
814.3170, 274.4160
815.4570, 16.87305
816.5960, 436.6270
817.7360, 403.8770
818.8750, 277.4766
820.0140, 225.6289
821.1530, 185.5430
822.2920, 135.7168
823.4310, 139.0527
824.5690, 390.4922
825.7070, 188.9434
826.8460, 303.3887
827.9840, 405.5801
829.1220, 65.62109
830.2590, 296.6035
831.3970, 145.7559
832.5340, 300.8477
833.6710, 321.5840
834.8080, 432.7559
835.9450, 116.0098
837.0820, 250.5000
838.2190, 139.4219
839.3550, 211.3828
840.4910, 314.5117
841.6270, 166.6152
842.7630, 277.2656
843.8990, 48.32031
845.0350, 142.3477
846.1700, 53.64844
847.3060, 79.71094
848.4410, 105.1523
849.5760, 109.0078
850.7100, 87.39258
851.8450, 15.88672
852.9800, 5.634766
854.1140, 21.99219
855.2480, 71.60547
856.3820, 292.1797
857.5160, 184.7305
858.6500, 41.74609
859.7830, 17.73047
860.9170, 277.1719
862.0500, 37.40234
863.1830, 358.9727
864.3160, 178.3242
865.4480, 66.33594
866.5810, 215.6406
867.7130, 214.4766
868.8460, 30.69531
869.9780, 174.2969
871.1100, 110.5547
872.2410, 78.67578
873.3730, 71.92969
874.5050, 234.9570
875.6360, 64.94531
876.7670, 122.9805
877.8980, 160.3516
879.0290, 84.73438
880.1590, 161.9062
881.2900, 223.8867
882.4200, 40.94922
883.5500, 73.44531
884.6800, 198.3867
885.8100, 102.0078
886.9400, 167.6523
888.0690, 325.8555
889.1990, 354.3828
890.3280, 397.8867
891.4570, 454.6680
892.5860, 374.6172
893.7140, 520.2344
894.8430, 425.4766
895.9710, 482.7539
897.1000, 476.0625
898.2280, 587.9531
899.3560, 716.1602
900.4830, 585.1797
901.6110, 771.7539
902.7380, 962.1641
903.8660, 1302.258
904.9930, 1391.797
906.1200, 1730.512
907.2460, 1869.688
908.3730, 2193.812
909.5000, 2476.902
910.6260, 3354.086
911.7520, 4191.547
912.8780, 5272.691
914.0040, 6771.980
915.1290, 8882.430
916.2550, 11029.33
917.3800, 13130.06
918.5050, 15391.67
919.6300, 16485.62
920.7550, 16198.81
921.8800, 15099.70
923.0040, 13052.61
924.1290, 10256.61
925.2530, 8437.230
926.3770, 6652.648
927.5010, 5810.512
928.6250, 4846.828
929.7480, 4473.086
930.8720, 3738.316
931.9950, 3346.367
933.1180, 2856.516
934.2410, 2803.113
935.3640, 2506.941
936.4860, 2362.273
937.6090, 2052.324
938.7310, 2469.234
939.8530, 2789.488
940.9750, 2846.512
942.0970, 3183.215
943.2180, 3706.539
944.3400, 4691.395
945.4610, 5239.238
946.5820, 6219.570
947.7030, 7451.656
948.8240, 8237.547
949.9450, 8734.898
951.0650, 9138.383
952.1860, 9081.723
953.3060, 8392.059
954.4260, 7443.391
955.5460, 5895.652
956.6650, 5071.855
957.7850, 4244.301
958.9040, 3109.309
960.0230, 2464.617
961.1420, 2014.031
962.2610, 1858.336
963.3800, 1480.633
964.4990, 1324.324
965.6170, 978.6406
966.7350, 815.7188
967.8530, 735.0234
968.9710, 694.3320
970.0890, 774.6328
971.2070, 282.5898
972.3240, 522.8906
973.4410, 338.0000
974.5580, 250.3477
975.6750, 358.6875
976.7920, 229.9531
977.9090, 480.3203
979.0250, 331.0938
980.1410, 154.2578
981.2580, 273.1680
982.3740, 137.4727
983.4890, 149.5000
984.6050, 27.98828
985.7200, 72.95312
986.8360, 25.67578
987.9510, 221.3242
989.0660, 401.3242
990.1810, 212.2148
991.2950, 370.5586
992.4100, 112.9023
993.5240, 221.7656
994.6390, 204.4102
995.7530, 291.7461
996.8660, 368.9609
997.9800, 367.6641
999.0940, 395.1172
1000.207, 409.5586
1001.320, 362.9023
1002.433, 385.2578
1003.546, 354.0703
1004.659, 415.9805
1005.772, 456.0977
1006.884, 577.9258
1007.996, 665.9297
1009.108, 752.3164
1010.220, 1022.324
1011.332, 1224.586
1012.444, 1364.984
1013.555, 1883.105
1014.666, 2270.211
1015.777, 2711.961
1016.888, 3477.184
1017.999, 3884.355
1019.110, 4265.820
1020.220, 4110.133
1021.331, 4410.609
1022.441, 3447.098
1023.551, 3446.633
1024.661, 2791.125
1025.770, 1867.621
1026.880, 1998.133
1027.989, 1646.648
1029.098, 1233.305
1030.207, 1129.863
1031.316, 1082.438
1032.425, 895.0195
1033.533, 611.6328
1034.642, 622.2617
1035.750, 336.8984
1036.858, 288.5430
1037.966, 350.1953
1039.073, 363.1914
1040.181, 419.8672
1041.288, 373.5547
1042.396, 88.40625
1043.503, 281.8672
1044.610, 215.5742
1045.716, 240.2773
1046.823, 424.9844
1047.929, 154.3320
1049.036, 325.1484
1050.142, 186.8750
1051.248, 558.6133
1052.353, 621.3594
1053.459, 502.1211
1054.564, 362.8906
1055.670, 756.6641
1056.775, 739.4453
1057.880, 958.2656
1058.985, 1093.094
1060.089, 1916.922
1061.194, 2093.758
1062.298, 2533.598
1063.402, 3228.629
1064.506, 3590.480
1065.610, 4119.344
1066.713, 4223.211
1067.817, 3917.086
1068.920, 3238.969
1070.023, 2685.855
1071.126, 2271.836
1072.229, 1721.738
1073.332, 1180.887
1074.435, 978.9883
1075.537, 604.1562
1076.639, 729.2539
1077.741, 625.4531
1078.843, 389.5273
1079.945, 288.4688
1081.046, 451.4766
1082.148, 75.43359
1083.249, 328.3906
1084.350, 67.36719
1085.451, 295.3516
1086.551, 206.3359
1087.652, 74.67188
1088.752, 236.2969
1089.853, 43.64453
1090.953, 180.3203
1092.053, 173.2891
1093.152, 114.6289
1094.252, 446.3047
1095.351, 416.3906
1096.451, 301.3359
1097.550, 578.3320
1098.649, 369.2930
1099.748, 181.2500
1100.846, 535.2148
1101.945, 772.1875
1103.043, 468.2188
1104.141, 1054.582
1105.239, 901.4492
1106.337, 1202.195
1107.434, 1436.238
1108.532, 1540.629
1109.629, 1515.730
1110.726, 1565.348
1111.823, 1544.945
1112.920, 1440.883
1114.017, 1392.766
1115.113, 1266.082
1116.210, 992.1914
1117.306, 885.6797
1118.402, 847.8320
1119.498, 400.4258
1120.593, 716.6016
1121.689, 504.0273
1122.784, 620.2188
1123.879, 661.4141
1124.974, 462.6133
1126.069, 196.8359
1127.164, 267.0586
1128.259, 416.2852
1129.353, 238.7656
1130.447, 321.1875
1131.541, 372.4414
1132.635, 201.7344
1133.729, 170.0312
1134.822, 15.32812
1135.916, 116.0117
1137.009, 31.36328
1138.102, 203.9883
1139.195, 281.3711
1140.288, 62.77344
1141.380, 118.1758
1142.473, 106.5820
1143.565, 165.0078
1144.657, 216.4375
1145.749, 86.87500
1146.841, 62.64453
1147.932, 129.6797
1149.024, 295.7227
1150.115, 202.1250
1151.206, 322.5312
1152.297, 260.9414
1153.388, 246.3516
1154.479, 27.76172
1155.569, 232.1719
1156.659, 83.58203
1157.750, 227.9961
1158.839, 312.4102
1159.929, 14.82812
1161.019, 100.2461
1162.108, 52.66016
1163.198, 262.0781
1164.287, 243.2773
1165.376, 164.9180
1166.465, 263.3398
1167.553, 192.7539
1168.642, 84.17578
1169.730, 120.4062
1170.818, 215.9492
1171.906, 386.3047
1172.994, 15.65234
1174.082, 109.9727
1175.170, 214.3398
1176.257, 165.6836
1177.344, 203.1680
1178.431, 74.48828
1179.518, 177.1836
1180.605, 124.0781
1181.691, 177.3438
1182.778, 65.62500
1183.864, 139.2578
1184.950, 148.5352
1186.036, 244.8125
1187.122, 246.0859
1188.207, 239.3594
1189.292, 256.6250
1190.378, 106.8984
1191.463, 285.1719
1192.548, 130.4453
1193.632, 9.949219
1194.717, 272.3086
1195.801, 198.7969
1196.886, 169.0508
1197.970, 218.3008
1199.054, 155.4922
1200.137, 187.2578
1201.221, 60.50000
1202.305, 102.7461
1203.388, 44.64844
1204.471, 38.58203
1205.554, 26.50781
1206.637, 45.03125
1207.719, 22.25000
1208.802, 55.92578
1209.884, 181.6836
1210.966, 75.89062
1212.048, 181.0977
1213.130, 109.3008
1214.212, 136.5000
1215.293, 112.7031
1216.374, 135.9023
1217.456, 172.1094
1218.536, 149.6797
1219.617, 74.88281
1220.698, 224.6289
1221.778, 338.8203
1222.859, 72.00391
1223.939, 209.9922
1225.019, 59.18359
1226.099, 330.3672
1227.178, 84.55469
1228.258, 202.7305
1229.337, 119.8984
1230.417, 330.0703
1231.496, 183.2344
1232.574, 87.47266
1233.653, 12.62500
1234.732, 115.2305
1235.810, 16.65625
1236.888, 95.44141
1237.966, 106.5156
1239.044, 97.27734
1240.122, 190.8320
1241.199, 165.7930
1242.277, 202.7500
1243.354, 13.29688
1244.431, 69.63281
1245.508, 120.5508
1246.585, 291.4648
1247.661, 165.3750
1248.738, 255.2773
1249.814, 144.1758
1250.890, 67.07422
1251.966, 209.9570
1253.042, 226.0156
1254.117, 366.8867
1255.193, 293.7461
1256.268, 379.6484
1257.343, 325.4961
1258.418, 75.33203
1259.493, 90.16406
1260.567, 147.2148
1261.642, 227.8594
1262.716, 147.6641
1263.790, 263.4531
1264.864, 54.19922
1265.938, 293.0938
1267.011, 3.851563
1268.085, 187.9336
1269.158, 417.2070
1270.231, 155.9180
1271.304, 190.6211
1272.377, 387.4648
1273.450, 406.4062
1274.522, 159.0703
1275.594, 270.9766
1276.666, 33.57812
1277.738, 238.7539
1278.810, 175.3711
1279.882, 565.9961
1280.953, 210.5977
1282.025, 518.1992
1283.096, 299.9531
1284.167, 612.5508
1285.238, 345.4180
1286.308, 427.9570
1287.379, 339.4844
1288.449, 386.9961
1289.519, 355.4102
1290.589, 248.4727
1291.659, 287.9492
1292.729, 284.6211
