##NAMES=Andalusite
##RRUFFID=R050561
##IDEAL CHEMISTRY=Al_2_SiO_5_
##LOCALITY=Cargo Muchacho Mountain, Imperial County, California
##OWNER=RRUFF
##SOURCE=Dave Bunk Minerals
##DESCRIPTION=Brown coarsely crystalline massive
##STATUS=The identification of this mineral has been confirmed by X-ray diffraction and chemical analysis
##URL=rruff.info/R050561
##MEASURED CHEMISTRY=(Al_1.98_Fe^3+^_0.02_)_Î£=2_Si_1.00_O_5_
##PIN_ID=M00417
##ORIENTATION=Laser parallel to a* (1 0 0). Fiducial mark perpendicular to laser is parallel to b [0 1 0]
99.64900, 0.0000000E+00
100.8830, 27.77466
102.1160, 63.66211
103.3490, 4.522461
104.5820, 99.06006
105.8150, 161.5029
107.0470, 416.0684
108.2800, 557.0610
109.5120, 799.7341
110.7440, 766.4995
111.9760, 247.0535
113.2080, 137.1973
114.4400, 137.0361
115.6710, 236.5115
116.9030, 351.6843
118.1340, 184.5510
119.3650, 181.1946
120.5960, 88.78101
121.8270, 159.3984
123.0580, 230.0376
124.2880, 291.6943
125.5190, 234.3713
126.7490, 255.0740
127.9790, 298.8215
129.2090, 417.8972
130.4390, 455.8818
131.6680, 454.1147
132.8980, 402.4453
134.1270, 448.8352
135.3560, 421.2981
136.5850, 505.8447
137.8140, 588.4800
139.0430, 624.4927
140.2710, 664.3123
141.5000, 617.7029
142.7280, 578.1841
143.9560, 450.6355
145.1840, 365.0698
146.4120, 380.4990
147.6390, 320.9385
148.8670, 259.4094
150.0940, 238.9241
151.3210, 178.4875
152.5490, 247.0996
153.7750, 143.7644
155.0020, 123.4868
156.2290, 60.70190
157.4550, 20.64404
158.6810, 48.63257
159.9080, 87.84570
161.1340, 64.37915
162.3590, 59.88574
163.5850, 48.71753
164.8110, 159.3579
166.0360, 138.1416
167.2610, 236.0645
168.4860, 180.1243
169.7110, 181.3193
170.9360, 236.6509
172.1610, 190.1189
173.3850, 136.7073
174.6100, 147.3584
175.8340, 71.05054
177.0580, 75.80127
178.2820, 239.3691
179.5050, 141.0938
180.7290, 237.5969
181.9520, 303.2253
183.1760, 351.7671
184.3990, 412.2253
185.6220, 456.7832
186.8450, 653.4407
188.0670, 777.1978
189.2900, 797.0498
190.5120, 761.9956
191.7340, 898.0361
192.9560, 913.1729
194.1780, 903.4604
195.4000, 937.9680
196.6220, 959.7107
197.8430, 871.6150
199.0640, 789.6084
200.2860, 1017.691
201.5070, 1105.864
202.7270, 1263.077
203.9480, 964.2822
205.1690, 711.5752
206.3890, 427.9580
207.6090, 300.4346
208.8290, 182.0054
210.0490, 88.67090
211.2690, 137.4326
212.4890, 32.28955
213.7080, 27.24121
214.9280, 15.28662
216.1470, 0.4257810
217.3660, 27.34131
218.5850, 65.01221
219.8030, 10.58691
221.0220, 4.936523
222.2400, 36.44189
223.4590, 16.27979
224.6770, 32.80273
225.8950, 47.45557
227.1120, 24.97168
228.3300, 43.82227
229.5480, 67.72021
230.7650, 63.70264
231.9820, 258.7524
233.1990, 293.8384
234.4160, 420.9932
235.6330, 683.2178
236.8490, 870.5220
238.0660, 996.9170
239.2820, 1082.413
240.4980, 1054.012
241.7140, 1077.714
242.9300, 903.5190
244.1460, 672.4277
245.3610, 563.4424
246.5770, 450.6753
247.7920, 334.6602
249.0070, 200.4473
250.2220, 162.3555
251.4370, 38.48340
252.6510, 59.74316
253.8660, 14.87500
255.0800, 32.38770
256.2940, 106.8042
257.5080, 135.1440
258.7220, 60.41553
259.9360, 42.39355
261.1490, 226.2900
262.3630, 87.74219
263.5760, 79.72021
264.7890, 97.64014
266.0020, 11.49512
267.2150, 73.70654
268.4270, 126.9956
269.6400, 282.3618
270.8520, 466.8062
272.0640, 572.3286
273.2760, 900.9302
274.4880, 1075.610
275.7000, 1493.241
276.9120, 1994.825
278.1230, 2718.480
279.3340, 3639.219
280.5450, 4858.039
281.7560, 6343.942
282.9670, 7982.928
284.1780, 9839.997
285.3880, 11707.15
286.5980, 13904.47
287.8090, 15972.70
289.0190, 16882.49
290.2290, 16866.64
291.4380, 15543.09
292.6480, 13627.64
293.8570, 10938.87
295.0670, 8731.643
296.2760, 6582.490
297.4850, 4787.418
298.6930, 3300.425
299.9020, 2326.512
301.1110, 1449.679
302.3190, 1055.921
303.5270, 718.0356
304.7350, 618.6455
305.9430, 906.8618
307.1510, 1316.230
308.3580, 2124.577
309.5660, 3405.816
310.7730, 5256.895
311.9800, 7875.155
313.1870, 10346.95
314.3940, 13462.83
315.6010, 17164.80
316.8070, 20727.85
318.0130, 23207.98
319.2200, 23749.20
320.4260, 21626.50
321.6310, 18712.88
322.8370, 15276.35
324.0430, 11949.83
325.2480, 8974.330
326.4540, 6486.914
327.6590, 4639.523
328.8640, 3373.183
330.0680, 2377.930
331.2730, 1840.767
332.4780, 1455.694
333.6820, 1244.710
334.8860, 976.8164
336.0900, 999.0117
337.2940, 928.2974
338.4980, 1099.672
339.7010, 1327.137
340.9050, 1427.691
342.1080, 1828.335
343.3110, 2218.068
344.5140, 2980.889
345.7170, 3956.825
346.9200, 5141.536
348.1220, 6787.780
349.3240, 8778.655
350.5270, 11187.32
351.7290, 13737.72
352.9310, 16482.56
354.1320, 18799.49
355.3340, 20661.69
356.5350, 21467.42
357.7370, 21088.08
358.9380, 19640.77
360.1390, 17235.29
361.3400, 15061.37
362.5400, 12332.30
363.7410, 10430.63
364.9410, 8492.588
366.1410, 7123.381
367.3410, 5864.422
368.5410, 5028.811
369.7410, 4238.282
370.9400, 3588.129
372.1400, 3304.199
373.3390, 2712.227
374.5380, 2411.346
375.7370, 2044.555
376.9360, 1746.854
378.1350, 1486.244
379.3330, 1327.726
380.5310, 1326.299
381.7300, 1082.963
382.9280, 1316.719
384.1260, 1222.566
385.3230, 1270.504
386.5210, 1441.535
387.7180, 1349.655
388.9160, 1343.869
390.1130, 1380.173
391.3100, 1311.578
392.5060, 1231.083
393.7030, 1142.691
394.9000, 843.4058
396.0960, 752.2222
397.2920, 640.1406
398.4880, 600.1025
399.6840, 482.4404
400.8800, 506.5557
402.0750, 482.8638
403.2710, 480.9644
404.4660, 528.4946
405.6610, 611.1265
406.8560, 640.7051
408.0510, 682.7705
409.2450, 879.1318
410.4400, 828.1318
411.6340, 918.2793
412.8280, 1229.529
414.0220, 1169.884
415.2160, 1349.341
416.4100, 1330.902
417.6030, 1323.567
418.7970, 1167.335
419.9900, 939.2085
421.1830, 750.1865
422.3760, 614.2695
423.5690, 494.4580
424.7610, 328.7515
425.9540, 240.1509
427.1460, 92.65527
428.3380, 78.26416
429.5300, 37.02100
430.7220, 146.2134
431.9140, 133.3457
433.1050, 114.4136
434.2970, 147.4111
435.4880, 197.3481
436.6790, 54.24121
437.8700, 67.95605
439.0610, 205.2603
440.2510, 437.6729
441.4420, 714.1929
442.6320, 995.8218
443.8220, 1445.560
445.0120, 1770.406
446.2020, 2236.362
447.3910, 2882.439
448.5810, 3681.642
449.7700, 4254.981
450.9600, 3829.434
452.1490, 2954.997
453.3370, 2338.674
454.5260, 1630.464
455.7150, 1083.364
456.9030, 655.3770
458.0910, 411.5020
459.2800, 187.7373
460.4670, 209.0859
461.6550, 269.5454
462.8430, 248.1167
464.0300, 278.7993
465.2180, 249.5938
466.4050, 240.4995
467.5920, 240.5181
468.7790, 247.6475
469.9650, 277.5825
471.1520, 357.2432
472.3380, 372.7109
473.5250, 449.2920
474.7110, 534.9858
475.8970, 703.7930
477.0820, 716.7197
478.2680, 785.7686
479.4540, 630.9380
480.6390, 633.2402
481.8240, 490.6670
483.0090, 452.2451
484.1940, 352.9805
485.3780, 193.8813
486.5630, 19.99023
487.7470, 8.283203
488.9320, 135.2456
490.1160, 296.6025
491.3000, 332.8525
492.4830, 369.9888
493.6670, 271.0522
494.8500, 327.0054
496.0340, 181.8979
497.2170, 102.6548
498.4000, 79.70264
499.5820, 161.1860
500.7650, 212.8145
501.9480, 563.5654
503.1300, 729.4292
504.3120, 736.4072
505.4940, 1062.504
506.6760, 1208.725
507.8580, 1351.059
509.0390, 1467.504
510.2210, 1612.067
511.4020, 1535.737
512.5830, 1672.523
513.7640, 1565.415
514.9450, 1513.421
516.1250, 1501.530
517.3060, 1407.900
518.4860, 1373.063
519.6660, 1284.486
520.8460, 1163.012
522.0260, 1113.642
523.2060, 1184.374
524.3850, 1142.209
525.5650, 1246.147
526.7440, 1162.186
527.9230, 1306.327
529.1020, 1363.569
530.2810, 1633.912
531.4590, 1723.356
532.6380, 2001.901
533.8160, 2190.546
534.9940, 2421.757
536.1720, 2598.133
537.3500, 3009.076
538.5270, 3215.116
539.7050, 3670.256
540.8820, 4053.496
542.0590, 4489.845
543.2360, 5022.313
544.4130, 5550.903
545.5900, 6142.605
546.7660, 6831.402
547.9430, 7226.294
549.1190, 7521.301
550.2950, 7784.417
551.4710, 7654.648
552.6470, 7165.976
553.8220, 6833.394
554.9980, 6312.904
556.1730, 5952.508
557.3480, 5645.203
558.5230, 5286.989
559.6980, 4931.865
560.8730, 4921.833
562.0470, 4513.889
563.2220, 4602.035
564.3960, 4575.270
565.5700, 4601.593
566.7440, 4513.004
567.9170, 4621.501
569.0910, 4622.086
570.2640, 4606.761
571.4380, 4472.433
572.6110, 4390.382
573.7840, 4432.950
574.9570, 4144.366
576.1290, 4093.713
577.3020, 3905.180
578.4740, 3535.193
579.6460, 3412.907
580.8180, 3172.789
581.9900, 2995.834
583.1620, 2821.999
584.3330, 2666.388
585.5040, 2468.900
586.6760, 2344.563
587.8470, 2193.384
589.0180, 2074.350
590.1880, 2041.458
591.3590, 2040.680
592.5290, 1950.016
593.7000, 1939.445
594.8700, 2001.967
596.0400, 2019.578
597.2090, 2046.272
598.3790, 2130.468
599.5490, 2247.894
600.7180, 2315.822
601.8870, 2508.824
603.0560, 2660.896
604.2250, 2787.040
605.3940, 2958.253
606.5620, 3065.535
607.7300, 3320.884
608.8990, 3439.302
610.0670, 3566.786
611.2350, 3960.336
612.4020, 4191.103
613.5700, 4334.850
614.7370, 4355.629
615.9050, 4598.485
617.0720, 4557.855
618.2390, 4799.885
619.4060, 4661.605
620.5720, 4922.663
621.7390, 4891.520
622.9050, 4994.193
624.0710, 4914.350
625.2370, 5170.623
626.4030, 5203.237
627.5690, 5339.197
628.7340, 5305.133
629.9000, 5437.105
631.0650, 5518.578
632.2300, 5307.989
633.3950, 5301.960
634.5600, 5283.250
635.7240, 5141.035
636.8890, 5074.058
638.0530, 5049.620
639.2170, 4901.149
640.3810, 4887.321
641.5450, 4922.664
642.7080, 4770.032
643.8720, 4655.235
645.0350, 4448.275
646.1980, 4444.308
647.3610, 4212.374
648.5240, 4001.470
649.6870, 3676.595
650.8490, 3225.750
652.0120, 2935.935
653.1740, 2614.147
654.3360, 2448.388
655.4980, 2196.654
656.6600, 2027.946
657.8210, 1963.264
658.9830, 1836.604
660.1440, 1784.970
661.3050, 1828.357
662.4660, 1576.768
663.6270, 1480.199
664.7870, 1253.650
665.9480, 1259.122
667.1080, 1386.614
668.2680, 1389.123
669.4280, 1555.650
670.5880, 1656.193
671.7480, 1788.753
672.9070, 2025.329
674.0670, 1981.918
675.2260, 2218.522
676.3850, 2213.140
677.5440, 2449.770
678.7030, 2452.411
679.8610, 2544.064
681.0200, 2566.727
682.1780, 2604.400
683.3360, 2733.081
684.4940, 2790.770
685.6520, 2792.466
686.8090, 2895.169
687.9670, 2997.876
689.1240, 2996.589
690.2810, 2995.306
691.4380, 3021.258
692.5950, 3039.749
693.7520, 2982.473
694.9080, 2949.197
696.0650, 2866.924
697.2210, 2787.648
698.3770, 2902.373
699.5330, 2997.096
700.6880, 2985.816
701.8440, 3171.533
702.9990, 3146.246
704.1550, 3322.955
705.3100, 3507.658
706.4650, 3498.354
707.6190, 3715.046
708.7740, 3789.281
709.9290, 4052.025
711.0830, 4117.126
712.2370, 4236.627
713.3910, 4196.977
714.5450, 4160.405
715.6980, 3720.689
716.8520, 3487.076
718.0050, 3002.019
719.1580, 2549.097
720.3110, 2034.177
721.4640, 1654.070
722.6170, 1167.564
723.7700, 945.5132
724.9220, 692.8101
726.0740, 442.3477
727.2260, 543.6128
728.3780, 529.4976
729.5300, 495.9849
730.6810, 540.7251
731.8330, 556.1528
732.9840, 510.0552
734.1350, 515.3691
735.2860, 405.4746
736.4370, 422.3882
737.5880, 429.7969
738.7380, 493.0332
739.8880, 470.4326
741.0390, 531.5132
742.1890, 417.5522
743.3380, 393.5488
744.4880, 419.5029
745.6380, 256.4131
746.7870, 305.2793
747.9360, 308.1011
749.0850, 241.8779
750.2340, 156.6089
751.3830, 170.2900
752.5310, 181.9219
753.6800, 182.5054
754.8280, 91.03857
755.9760, 69.50732
757.1240, 86.90479
758.2720, 19.12207
759.4190, 54.47412
760.5670, 51.36523
761.7140, 72.33594
762.8610, 103.4502
764.0080, 265.7256
765.1550, 173.2495
766.3020, 154.9736
767.4480, 259.8892
768.5950, 225.0352
769.7410, 294.3667
770.8870, 200.9150
772.0330, 198.6245
773.1780, 82.51367
774.3240, 180.5122
775.4690, 1.301270
776.6140, 56.00977
777.7590, 12.37549
778.9040, 99.11230
780.0490, 218.5171
781.1940, 244.8594
782.3380, 276.1396
783.4820, 415.3604
784.6260, 501.5215
785.7700, 540.6245
786.9140, 583.6685
788.0580, 804.6523
789.2010, 795.5762
790.3450, 968.4399
791.4880, 1161.244
792.6310, 1182.987
793.7730, 1418.669
794.9160, 1588.290
796.0590, 1882.850
797.2010, 2209.348
798.3430, 2624.785
799.4850, 2984.158
800.6270, 3430.471
801.7690, 3811.721
802.9100, 4301.907
804.0520, 4674.031
805.1930, 5061.093
806.3340, 5325.090
807.4750, 5637.025
808.6160, 5896.896
809.7560, 6025.704
810.8970, 6334.446
812.0370, 6772.124
813.1770, 6873.739
814.3170, 7366.289
815.4570, 7554.775
816.5960, 7862.195
817.7360, 7952.552
818.8750, 8247.844
820.0140, 8113.069
821.1530, 7842.229
822.2920, 7463.325
823.4310, 7033.355
824.5690, 6551.318
825.7070, 6011.218
826.8460, 5395.051
827.9840, 4876.818
829.1220, 4511.521
830.2590, 4075.155
831.3970, 3748.725
832.5340, 3377.135
833.6710, 2905.664
834.8080, 2675.035
835.9450, 2331.340
837.0820, 1960.578
838.2190, 1674.750
839.3550, 1267.855
840.4910, 1074.894
841.6270, 831.8672
842.7630, 703.7734
843.8990, 532.6138
845.0350, 307.3872
846.1700, 267.0884
847.3060, 130.7139
848.4410, 28.24316
849.5760, 12.64551
850.7100, 116.0903
851.8450, 50.03125
852.9800, 147.1440
854.1140, 124.4785
855.2480, 175.0239
856.3820, 159.8047
857.5160, 109.8140
858.6500, 168.0249
859.7830, 128.4673
860.9170, 119.1196
862.0500, 155.9775
863.1830, 105.0596
864.3160, 100.3379
865.4480, 0.1909180
866.5810, 9.581543
867.7130, 95.84814
868.8460, 111.0200
869.9780, 135.0972
871.1100, 199.0942
872.2410, 287.0112
873.3730, 241.8672
874.5050, 250.6504
875.6360, 329.3638
876.7670, 402.0146
877.8980, 427.6035
879.0290, 533.1309
880.1590, 590.5962
881.2900, 498.0059
882.4200, 667.3535
883.5500, 727.6475
884.6800, 851.8799
885.8100, 1002.052
886.9400, 1015.014
888.0690, 1189.010
889.1990, 1323.120
890.3280, 1478.873
891.4570, 1664.257
892.5860, 1909.987
893.7140, 2121.026
894.8430, 2468.732
895.9710, 2710.643
897.1000, 3075.736
898.2280, 3548.349
899.3560, 4056.324
900.4830, 4625.003
901.6110, 5369.814
902.7380, 6156.629
903.8660, 7058.722
904.9930, 8242.871
906.1200, 9802.545
907.2460, 11860.96
908.3730, 14801.41
909.5000, 18321.03
910.6260, 23305.39
911.7520, 29561.06
912.8780, 36765.31
914.0040, 44591.92
915.1290, 54206.35
916.2550, 59804.76
917.3800, 59139.34
918.5050, 57062.08
919.6300, 50872.82
920.7550, 43739.52
921.8800, 36280.20
923.0040, 30295.85
924.1290, 25169.46
925.2530, 21033.04
926.3770, 18248.59
927.5010, 15520.12
928.6250, 13285.61
929.7480, 11485.07
930.8720, 9726.499
931.9950, 8452.904
933.1180, 7252.281
934.2410, 6280.631
935.3640, 5653.952
936.4860, 5029.247
937.6090, 4472.516
938.7310, 4169.759
939.8530, 3703.977
940.9750, 3515.171
942.0970, 3313.340
943.2180, 3290.485
944.3400, 3191.607
945.4610, 3318.707
946.5820, 3288.784
947.7030, 3294.839
948.8240, 3322.873
949.9450, 3230.885
951.0650, 3083.877
952.1860, 2814.848
953.3060, 2635.801
954.4260, 2318.734
955.5460, 2142.649
956.6650, 1807.545
957.7850, 1655.424
958.9040, 1379.285
960.0230, 1497.130
961.1420, 1363.958
962.2610, 1340.771
963.3800, 1218.568
964.4990, 1148.351
965.6170, 1195.119
966.7350, 1091.874
967.8530, 1161.616
968.9710, 1218.345
970.0890, 1172.062
971.2070, 1241.766
972.3240, 1307.463
973.4410, 1320.148
974.5580, 1390.831
975.6750, 1411.849
976.7920, 1426.980
977.9090, 1442.818
979.0250, 1428.462
980.1410, 1395.546
981.2580, 1356.562
982.3740, 1301.187
983.4890, 1332.591
984.6050, 1398.546
985.7200, 1462.422
986.8360, 1403.449
987.9510, 1448.387
989.0660, 1445.761
990.1810, 1631.980
991.2950, 1684.182
992.4100, 1791.550
993.5240, 2078.301
994.6390, 2282.577
995.7530, 2773.488
996.8660, 3337.140
997.9800, 3994.045
999.0940, 4762.311
1000.207, 5675.447
1001.320, 6593.713
1002.433, 7261.051
1003.546, 7665.667
1004.659, 7709.003
1005.772, 7451.379
1006.884, 6663.595
1007.996, 5846.712
1009.108, 5106.301
1010.220, 4585.716
1011.332, 4150.560
1012.444, 3690.673
1013.555, 3562.558
1014.666, 3219.674
1015.777, 2939.605
1016.888, 2988.028
1017.999, 2907.001
1019.110, 2821.998
1020.220, 2680.018
1021.331, 2577.498
1022.441, 2444.568
1023.551, 2327.663
1024.661, 2013.791
1025.770, 1985.952
1026.880, 1816.149
1027.989, 1716.380
1029.098, 1609.681
1030.207, 1618.045
1031.316, 1479.498
1032.425, 1394.039
1033.533, 1374.691
1034.642, 1194.510
1035.750, 1223.443
1036.858, 1109.474
1037.966, 1094.641
1039.073, 972.9536
1040.181, 806.4155
1041.288, 849.0098
1042.396, 652.7349
1043.503, 611.5522
1044.610, 536.4946
1045.716, 400.5098
1046.823, 425.5928
1047.929, 433.7515
1049.036, 287.9692
1050.142, 310.2329
1051.248, 264.5493
1052.353, 365.9165
1053.459, 335.3467
1054.564, 491.8296
1055.670, 633.3555
1056.775, 704.9287
1057.880, 1044.540
1058.985, 1158.187
1060.089, 1508.880
1061.194, 1747.640
1062.298, 1871.440
1063.402, 1981.289
1064.506, 1675.172
1065.610, 1443.090
1066.713, 1318.061
1067.817, 1074.075
1068.920, 930.1372
1070.023, 736.2539
1071.126, 679.4072
1072.229, 731.5986
1073.332, 598.8296
1074.435, 598.0986
1075.537, 594.4062
1076.639, 553.7510
1077.741, 579.8921
1078.843, 600.5547
1079.945, 601.0122
1081.046, 593.5171
1082.148, 582.0596
1083.249, 581.3096
1084.350, 578.2646
1085.451, 585.9233
1086.551, 559.7480
1087.652, 540.4829
1088.752, 511.7617
1089.853, 481.9478
1090.953, 465.8003
1092.053, 428.6914
1093.152, 368.6206
1094.252, 297.5889
1095.351, 173.5942
1096.451, 335.6392
1097.550, 208.7222
1098.649, 266.1519
1099.748, 101.3125
1100.846, 88.51172
1101.945, 63.75000
1103.043, 121.0273
1104.141, 269.1445
1105.239, 119.4995
1106.337, 175.4028
1107.434, 200.8359
1108.532, 144.3081
1109.629, 146.8198
1110.726, 82.37109
1111.823, 30.96094
1112.920, 37.40625
1114.017, 35.73340
1115.113, 46.01074
1116.210, 11.77783
1117.306, 18.64062
1118.402, 206.6128
1119.498, 236.6768
1120.593, 330.8574
1121.689, 326.1499
1122.784, 320.5664
1123.879, 475.1030
1124.974, 454.7466
1126.069, 487.5122
1127.164, 297.3887
1128.259, 261.3740
1129.353, 79.47754
1130.447, 65.68506
1131.541, 37.00391
1132.635, 101.6221
1133.729, 87.18604
1134.822, 33.70801
1135.916, 122.1797
1137.009, 33.62354
1138.102, 105.0244
1139.195, 38.40381
1140.288, 53.74561
1141.380, 54.05176
1142.473, 20.67188
1143.565, 20.56641
1144.657, 79.22900
1145.749, 67.93848
1146.841, 11.42432
1147.932, 77.68164
1149.024, 132.2358
1150.115, 24.18896
1151.206, 9.255371
1152.297, 110.7197
1153.388, 19.31885
1154.479, 139.3936
1155.569, 118.9932
1156.659, 90.13818
1157.750, 17.31787
1158.839, 30.53223
1159.929, 36.68311
1161.019, 124.4595
1162.108, 22.54541
1163.198, 132.0635
1164.287, 123.1611
1165.376, 103.0879
1166.465, 119.9927
1167.553, 66.50488
1168.642, 102.0586
1169.730, 155.8169
1170.818, 80.07178
1171.906, 74.22314
1172.994, 134.7607
1174.082, 160.5840
1175.170, 129.5293
1176.257, 215.7148
1177.344, 231.1982
1178.431, 238.2441
1179.518, 224.0210
1180.605, 239.0034
1181.691, 229.2368
1182.778, 243.8555
1183.864, 198.7617
1184.950, 176.9395
1186.036, 334.0923
1187.122, 132.0361
1188.207, 273.6943
1189.292, 237.9624
1190.378, 246.6484
1191.463, 267.2056
1192.548, 262.8149
1193.632, 287.0928
1194.717, 284.2603
1195.801, 247.2534
1196.886, 255.0439
1197.970, 248.1592
1199.054, 194.7266
1200.137, 274.2510
1201.221, 284.4561
1202.305, 130.8306
1203.388, 119.6387
1204.471, 167.1338
1205.554, 154.6958
1206.637, 165.0322
1207.719, 165.3296
1208.802, 139.6504
1209.884, 233.8652
1210.966, 188.2529
1212.048, 185.5547
1213.130, 135.2573
1214.212, 180.7480
1215.293, 181.9453
1216.374, 91.15625
1217.456, 127.8701
1218.536, 137.2480
1219.617, 162.5806
1220.698, 82.79883
1221.778, 63.02295
1222.859, 47.25293
1223.939, 155.4897
1225.019, 124.7324
1226.099, 97.98047
1227.178, 119.2339
1228.258, 1.492676
1229.337, 96.75244
1230.417, 53.01611
1231.496, 127.2876
1232.574, 57.56592
1233.653, 11.14844
1234.732, 69.13330
1235.810, 28.58350
1236.888, 82.68799
1237.966, 23.96094
1239.044, 67.23828
1240.122, 66.51758
1241.199, 62.79932
1242.277, 35.10547
1243.354, 59.23291
1244.431, 54.57471
1245.508, 88.54346
1246.585, 76.85791
1247.661, 76.17725
1248.738, 92.49561
1249.814, 96.67627
1250.890, 100.1250
1251.966, 115.4351
1253.042, 105.7417
1254.117, 90.04443
1255.193, 78.90332
1256.268, 176.6333
1257.343, 75.91846
1258.418, 71.19824
1259.493, 158.4727
1260.567, 97.73828
1261.642, 93.50293
1262.716, 95.78809
1263.790, 71.41699
1264.864, 127.1958
1265.938, 67.81055
1267.011, 159.5640
1268.085, 65.63525
1269.158, 39.27979
1270.231, 193.5928
1271.304, 174.8901
1272.377, 161.0420
1273.450, 42.93262
1274.522, 143.0581
1275.594, 10.95898
1276.666, 37.04980
1277.738, 89.65674
1278.810, 36.72070
1279.882, 28.76904
