##NAMES=Andalusite
##RRUFFID=R050561
##IDEAL CHEMISTRY=Al_2_SiO_5_
##LOCALITY=Cargo Muchacho Mountain, Imperial County, California
##OWNER=RRUFF
##SOURCE=Dave Bunk Minerals
##DESCRIPTION=Brown coarsely crystalline massive
##STATUS=The identification of this mineral has been confirmed by X-ray diffraction and chemical analysis
##URL=rruff.info/R050561
##MEASURED CHEMISTRY=(Al_1.98_Fe^3+^_0.02_)_Î£=2_Si_1.00_O_5_
##PIN_ID=M00237
##ORIENTATION=Laser parallel to c* (0 0 1). Fiducial mark perpendicular to laser is parallel to 1 0 0
91.01200, 0.0000000E+00
92.24600, 115.6973
93.48000, 67.35278
94.71400, 93.77905
95.94800, 71.64233
97.18200, 9.314209
98.41600, 10.76709
99.64900, 6.718750
100.8830, 4.007080
102.1160, 19.81982
103.3490, 52.01147
104.5820, 167.0825
105.8150, 304.9834
107.0470, 476.6338
108.2800, 716.7485
109.5120, 967.7876
110.7440, 686.3767
111.9760, 203.6106
113.2080, 192.5623
114.4400, 278.2915
115.6710, 406.8455
116.9030, 304.2622
118.1340, 264.5742
119.3650, 80.80713
120.5960, 143.9822
121.8270, 125.1177
123.0580, 177.2285
124.2880, 228.0732
125.5190, 138.1001
126.7490, 146.7202
127.9790, 122.9177
129.2090, 194.1855
130.4390, 214.5227
131.6680, 181.9285
132.8980, 145.4031
134.1270, 196.9468
135.3560, 196.5601
136.5850, 160.2429
137.8140, 261.9954
139.0430, 345.8169
140.2710, 327.7073
141.5000, 177.6672
142.7280, 135.6968
143.9560, 93.79541
145.1840, 115.9624
146.4120, 106.1934
147.6390, 134.4878
148.8670, 113.2881
150.0940, 53.26978
151.3210, 69.75830
152.5490, 90.31274
153.7750, 60.93311
155.0020, 101.6199
156.2290, 23.62598
157.4550, 5.197998
158.6810, 51.89917
159.9080, 70.13379
161.1340, 38.50122
162.3590, 42.92554
163.5850, 58.08618
164.8110, 170.0974
166.0360, 91.16455
167.2610, 162.2800
168.4860, 157.4346
169.7110, 116.6191
170.9360, 204.8513
172.1610, 139.1321
173.3850, 47.46265
174.6100, 102.8423
175.8340, 48.27148
177.0580, 100.7500
178.2820, 163.2771
179.5050, 112.8538
180.7290, 136.4797
181.9520, 106.1541
183.1760, 221.8723
184.3990, 98.63452
185.6220, 266.4417
186.8450, 344.2937
188.0670, 333.1919
189.2900, 321.1357
190.5120, 392.1292
191.7340, 546.1692
192.9560, 640.2566
194.1780, 613.3911
195.4000, 525.5730
196.6220, 704.8025
197.8430, 639.0632
199.0640, 654.3196
200.2860, 741.5637
201.5070, 864.8438
202.7270, 897.1731
203.9480, 689.5520
205.1690, 407.9802
206.3890, 296.4587
207.6090, 184.9868
208.8290, 142.5645
210.0490, 93.19238
211.2690, 50.86963
212.4890, 106.5972
213.7080, 97.37451
214.9280, 73.20190
216.1470, 43.07910
217.3660, 41.00659
218.5850, 32.98340
219.8030, 20.80420
221.0220, 29.08716
222.2400, 21.26099
223.4590, 16.58618
224.6770, 45.10620
225.8950, 68.80054
227.1120, 38.62207
228.3300, 35.48413
229.5480, 66.54541
230.7650, 57.56470
231.9820, 16.54150
233.1990, 12.52124
234.4160, 92.40308
235.6330, 50.29395
236.8490, 23.82544
238.0660, 115.2207
239.2820, 130.5398
240.4980, 171.7742
241.7140, 196.9167
242.9300, 268.9724
244.1460, 406.7844
245.3610, 342.7729
246.5770, 475.1558
247.7920, 526.2583
249.0070, 548.5693
250.2220, 558.9238
251.4370, 690.3193
252.6510, 693.7561
253.8660, 777.2339
255.0800, 923.7461
256.2940, 963.2839
257.5080, 1114.850
258.7220, 1391.445
259.9360, 1439.994
261.1490, 1764.729
262.3630, 1728.421
263.5760, 1896.146
264.7890, 2151.905
266.0020, 2522.699
267.2150, 2793.528
268.4270, 3347.393
269.6400, 3835.293
270.8520, 4301.201
272.0640, 5176.032
273.2760, 6212.821
274.4880, 7377.649
275.7000, 9063.519
276.9120, 11049.43
278.1230, 13763.37
279.3340, 17393.36
280.5450, 21956.39
281.7560, 26972.45
282.9670, 32202.56
284.1780, 37168.70
285.3880, 41764.88
286.5980, 45987.10
287.8090, 49185.48
289.0190, 51753.77
290.2290, 51695.10
291.4380, 50447.47
292.6480, 46800.87
293.8570, 41846.32
295.0670, 35773.80
296.2760, 29235.31
297.4850, 23070.87
298.6930, 18037.46
299.9020, 13937.08
301.1110, 10958.74
302.3190, 9011.154
303.5270, 7530.852
304.7350, 6533.008
305.9430, 5977.192
307.1510, 5738.834
308.3580, 6353.317
309.5660, 7455.138
310.7730, 9165.995
311.9800, 10899.89
313.1870, 12449.81
314.3940, 14328.78
315.6010, 16159.78
316.8070, 17935.81
318.0130, 19323.88
319.2200, 19943.99
320.4260, 19977.13
321.6310, 18908.30
322.8370, 17193.51
324.0430, 14836.76
325.2480, 12594.04
326.4540, 10150.35
327.6590, 8259.697
328.8640, 6836.081
330.0680, 5633.498
331.2730, 4909.947
332.4780, 4313.434
333.6820, 3883.952
334.8860, 3514.504
336.0900, 3356.089
337.2940, 3050.710
338.4980, 2877.362
339.7010, 2642.048
340.9050, 2657.768
342.1080, 2525.521
343.3110, 2593.307
344.5140, 2724.126
345.7170, 2832.979
346.9200, 3223.867
348.1220, 3604.787
349.3240, 4199.742
350.5270, 4827.489
351.7290, 5403.138
352.9310, 6094.750
354.1320, 6675.677
355.3340, 7134.500
356.5350, 7461.069
357.7370, 7626.934
358.9380, 7462.255
360.1390, 7175.250
361.3400, 6453.593
362.5400, 5831.467
363.7410, 5121.371
364.9410, 4372.795
366.1410, 3817.279
367.3410, 3237.796
368.5410, 2841.361
369.7410, 2626.965
370.9400, 2351.635
372.1400, 2335.359
373.3390, 2244.271
374.5380, 2197.038
375.7370, 2182.215
376.9360, 2187.770
378.1350, 2168.634
379.3330, 2060.408
380.5310, 2034.989
381.7300, 1930.930
382.9280, 1545.901
384.1260, 1444.902
385.3230, 1226.933
386.5210, 1098.996
387.7180, 1001.089
388.9160, 819.2148
390.1130, 720.3726
391.3100, 581.5647
392.5060, 489.7881
393.7030, 452.0422
394.9000, 457.3264
396.0960, 392.6406
397.2920, 326.9849
398.4880, 243.3591
399.6840, 186.7629
400.8800, 304.1963
402.0750, 233.6594
403.2710, 330.1521
404.4660, 265.6738
405.6610, 310.2249
406.8560, 359.8049
408.0510, 514.4141
409.2450, 465.0522
410.4400, 658.7188
411.6340, 607.4141
412.8280, 766.1382
414.0220, 947.8901
415.2160, 998.6707
416.4100, 956.4797
417.6030, 1064.318
418.7970, 952.1848
419.9900, 884.0806
421.1830, 844.0044
422.3760, 741.9570
423.5690, 523.9370
424.7610, 428.9453
425.9540, 312.9819
427.1460, 226.0459
428.3380, 214.1377
429.5300, 89.25635
430.7220, 5.597168
431.9140, 38.57373
433.1050, 43.77197
434.2970, 33.99756
435.4880, 108.2505
436.6790, 12.52979
437.8700, 98.83594
439.0610, 226.1689
440.2510, 369.5288
441.4420, 610.9155
442.6320, 1036.329
443.8220, 1444.769
445.0120, 1691.234
446.2020, 1948.733
447.3910, 2265.258
448.5810, 2706.820
449.7700, 2775.425
450.9600, 2565.065
452.1490, 2322.745
453.3370, 2107.460
454.5260, 1493.208
455.7150, 1084.995
456.9030, 697.8101
458.0910, 341.6523
459.2800, 247.5244
460.4670, 100.4209
461.6550, 131.3423
462.8430, 133.2881
464.0300, 54.25830
465.2180, 81.25244
466.4050, 69.27051
467.5920, 100.3130
468.7790, 171.3789
469.9650, 93.46826
471.1520, 182.5806
472.3380, 217.7163
473.5250, 317.8750
474.7110, 344.0566
475.8970, 381.3179
477.0820, 352.4902
478.2680, 428.7402
479.4540, 430.0132
480.6390, 452.3081
481.8240, 373.6426
483.0090, 384.0024
484.1940, 350.4019
485.3780, 293.8340
486.5630, 309.2920
487.7470, 244.2896
488.9320, 202.3511
490.1160, 110.9434
491.3000, 103.5679
492.4830, 43.76807
493.6670, 121.0630
494.8500, 60.35645
496.0340, 196.6250
497.2170, 120.9570
498.4000, 188.3140
499.5820, 119.7344
500.7650, 127.1870
501.9480, 119.4409
503.1300, 2.951660
504.3120, 56.59619
505.4940, 10.71533
506.6760, 77.25293
507.8580, 101.3252
509.0390, 173.4565
510.2210, 137.2744
511.4020, 161.2983
512.5830, 271.3936
513.7640, 194.3931
514.9450, 259.2236
516.1250, 228.7959
517.3060, 267.4443
518.4860, 208.1138
519.6660, 307.7979
520.8460, 289.4956
522.0260, 267.2192
523.2060, 224.9624
524.3850, 233.7183
525.5650, 255.1035
526.7440, 325.2666
527.9230, 340.0596
529.1020, 438.8633
530.2810, 489.6792
531.4590, 500.5063
532.6380, 499.3442
533.8160, 630.1943
534.9940, 771.0542
536.1720, 1025.925
537.3500, 1283.807
538.5270, 1609.698
539.7050, 2076.600
540.8820, 2727.511
542.0590, 3453.432
543.2360, 4317.362
544.4130, 5066.302
545.5900, 5786.250
546.7660, 6650.208
547.9430, 7172.176
549.1190, 7556.149
550.2950, 7602.133
551.4710, 7388.125
552.6470, 6629.125
553.8220, 5908.132
554.9980, 5083.147
556.1730, 4050.170
557.3480, 3399.198
558.5230, 2740.235
559.6980, 2211.278
560.8730, 1823.328
562.0470, 1582.385
563.2220, 1358.447
564.3960, 1155.516
565.5700, 1081.591
566.7440, 993.6709
567.9170, 889.7568
569.0910, 776.8477
570.2640, 760.9575
571.4380, 623.0850
572.6110, 586.0977
573.7840, 507.2578
574.9570, 495.4438
576.1290, 475.6396
577.3020, 494.8643
578.4740, 390.1172
579.6460, 436.3901
580.8180, 368.6997
581.9900, 386.0366
583.1620, 297.3887
584.3330, 224.7588
585.5040, 293.1440
586.6760, 296.5322
587.8470, 239.9326
589.0180, 290.3354
590.1880, 259.7456
591.3590, 234.1680
592.5290, 291.3242
593.7000, 282.5698
594.8700, 288.5679
596.0400, 378.8462
597.2090, 405.9175
598.3790, 405.5698
599.5490, 479.9233
600.7180, 512.3369
601.8870, 538.7500
603.0560, 575.9326
604.2250, 603.5718
605.3940, 619.9810
606.5620, 623.7705
607.7300, 644.7930
608.8990, 590.1968
610.0670, 609.5977
611.2350, 514.9956
612.4020, 598.3916
613.5700, 575.7847
614.7370, 522.1748
615.9050, 549.7529
617.0720, 609.2334
618.2390, 574.6133
619.4060, 606.5889
620.5720, 645.5166
621.7390, 627.6060
622.9050, 629.7832
624.0710, 660.1436
625.2370, 640.8477
626.4030, 531.2729
627.5690, 549.8706
628.7340, 542.6694
629.9000, 557.4194
631.0650, 424.1875
632.2300, 308.8550
633.3950, 231.2432
634.5600, 194.1562
635.7240, 130.8564
636.8890, 158.8369
638.0530, 105.9150
639.2170, 124.7925
640.3810, 82.36621
641.5450, 7.347656
642.7080, 4.758301
643.8720, 13.38379
645.0350, 30.98389
646.1980, 32.37646
647.3610, 82.28369
648.5240, 22.74268
649.6870, 45.24512
650.8490, 14.28125
652.0120, 112.3491
653.1740, 78.50000
654.3360, 40.28320
655.4980, 14.05469
656.6600, 87.80713
657.8210, 271.5508
658.9830, 190.2852
660.1440, 180.0098
661.3050, 298.7256
662.4660, 374.4321
663.6270, 516.1279
664.7870, 319.8145
665.9480, 334.4917
667.1080, 335.1582
668.2680, 346.8154
669.4280, 278.4619
670.5880, 375.0981
671.7480, 367.7246
672.9070, 396.3398
674.0670, 505.9453
675.2260, 543.5396
676.3850, 534.1235
677.5440, 538.6973
678.7030, 619.2588
679.8610, 695.8105
681.0200, 664.3516
682.1780, 755.8809
683.3360, 805.3989
684.4940, 789.9062
685.6520, 845.4019
686.8090, 878.8867
687.9670, 879.3599
689.1240, 835.8213
690.2810, 1011.271
691.4380, 909.7100
692.5950, 993.1367
693.7520, 1026.552
694.9080, 1008.956
696.0650, 1113.348
697.2210, 1087.728
698.3770, 1133.096
699.5330, 1160.847
700.6880, 1091.795
701.8440, 1193.127
702.9990, 1207.447
704.1550, 1217.754
705.3100, 1301.050
706.4650, 1379.334
707.6190, 1543.604
708.7740, 1709.672
709.9290, 1790.659
711.0830, 1839.892
712.2370, 1871.170
713.3910, 1857.807
714.5450, 1801.979
715.6980, 1724.922
716.8520, 1592.460
718.0050, 1411.042
719.1580, 1218.568
720.3110, 1008.015
721.4640, 928.7559
722.6170, 678.9302
723.7700, 413.4717
724.9220, 310.6284
726.0740, 301.6338
727.2260, 162.6621
728.3780, 190.7354
729.5300, 118.7314
730.6810, 62.71094
731.8330, 29.66650
732.9840, 35.58838
734.1350, 8.478516
735.2860, 65.32617
736.4370, 90.14990
737.5880, 53.95508
738.7380, 128.7349
739.8880, 180.4980
741.0390, 191.2451
742.1890, 213.9766
743.3380, 137.6909
744.4880, 156.3892
745.6380, 167.0713
746.7870, 195.7378
747.9360, 254.3877
749.0850, 227.0220
750.2340, 160.6396
751.3830, 151.2417
752.5310, 188.8281
753.6800, 87.39844
754.8280, 97.95020
755.9760, 154.4854
757.1240, 110.0044
758.2720, 91.50781
759.4190, 11.00635
760.5670, 50.42969
761.7140, 16.15771
762.8610, 10.20264
764.0080, 39.52539
765.1550, 53.17822
766.3020, 40.95264
767.4480, 24.79004
768.5950, 6.316895
769.7410, 24.61475
770.8870, 96.60107
772.0330, 71.67090
773.1780, 67.79395
774.3240, 53.02002
775.4690, 20.85645
776.6140, 93.68945
777.7590, 132.5488
778.9040, 75.41943
780.0490, 77.06836
781.1940, 154.0488
782.3380, 144.9731
783.4820, 203.4614
784.6260, 272.8633
785.7700, 288.1655
786.9140, 308.4131
788.0580, 382.9780
789.2010, 410.2261
790.3450, 430.6382
791.4880, 499.0342
792.6310, 613.6040
793.7730, 669.4395
794.9160, 812.2124
796.0590, 908.9766
797.2010, 1254.731
798.3430, 1428.477
799.4850, 1650.213
800.6270, 1897.942
801.7690, 2066.660
802.9100, 2359.371
804.0520, 2476.074
805.1930, 2459.769
806.3340, 2325.454
807.4750, 2242.132
808.6160, 2030.803
809.7560, 1846.465
810.8970, 1612.120
812.0370, 1546.768
813.1770, 1349.407
814.3170, 1095.040
815.4570, 822.6660
816.5960, 871.2856
817.7360, 797.8979
818.8750, 710.5039
820.0140, 710.1035
821.1530, 716.3721
822.2920, 773.2832
823.4310, 818.8643
824.5690, 892.4390
825.7070, 970.0078
826.8460, 1147.571
827.9840, 1200.130
829.1220, 1335.682
830.2590, 1365.230
831.3970, 1411.772
832.5340, 1462.310
833.6710, 1278.843
834.8080, 1128.370
835.9450, 893.8931
837.0820, 883.4121
838.2190, 526.9268
839.3550, 487.4375
840.4910, 240.9438
841.6270, 253.4463
842.7630, 102.9453
843.8990, 86.44043
845.0350, 53.06787
846.1700, 52.60596
847.3060, 29.82666
848.4410, 90.74463
849.5760, 84.36475
850.7100, 24.02881
851.8450, 102.7065
852.9800, 98.43750
854.1140, 68.21924
855.2480, 132.0356
856.3820, 99.91943
857.5160, 57.85254
858.6500, 65.81348
859.7830, 56.80469
860.9170, 3.821777
862.0500, 49.84082
863.1830, 65.11914
864.3160, 35.92139
865.4480, 49.02490
866.5810, 39.96191
867.7130, 22.16602
868.8460, 55.28174
869.9780, 130.6460
871.1100, 136.7314
872.2410, 187.0254
873.3730, 254.7388
874.5050, 211.7529
875.6360, 216.7085
876.7670, 286.6655
877.8980, 308.6255
879.0290, 339.5874
880.1590, 384.5518
881.2900, 346.5190
882.4200, 512.4893
883.5500, 462.4629
884.6800, 593.4399
885.8100, 692.4209
886.9400, 724.4053
888.0690, 888.3936
889.1990, 906.3853
890.3280, 1155.190
891.4570, 1240.095
892.5860, 1538.102
893.7140, 1664.095
894.8430, 1745.989
895.9710, 2088.305
897.1000, 2378.534
898.2280, 2795.587
899.3560, 3277.299
900.4830, 3631.289
901.6110, 4362.108
902.7380, 5085.729
903.8660, 5921.399
904.9930, 7378.054
906.1200, 8909.808
907.2460, 11141.09
908.3730, 14495.97
909.5000, 18516.14
910.6260, 24084.76
911.7520, 30650.45
912.8780, 37870.65
914.0040, 44325.90
915.1290, 49731.02
916.2550, 53492.22
917.3800, 54932.53
918.5050, 53464.89
919.6300, 49145.26
920.7550, 43439.68
921.8800, 36375.14
923.0040, 29981.62
924.1290, 24102.15
925.2530, 19534.73
926.3770, 16418.35
927.5010, 13808.01
928.6250, 11788.70
929.7480, 10092.41
930.8720, 8670.139
931.9950, 7478.880
933.1180, 6268.636
934.2410, 5427.420
935.3640, 4577.228
936.4860, 4201.050
937.6090, 3815.903
938.7310, 3566.771
939.8530, 3298.653
940.9750, 3280.555
942.0970, 3329.469
943.2180, 3326.398
944.3400, 3354.340
945.4610, 3427.297
946.5820, 3516.275
947.7030, 3566.270
948.8240, 3496.290
949.9450, 3370.571
951.0650, 3217.412
952.1860, 2879.495
953.3060, 2552.596
954.4260, 2124.711
955.5460, 1898.842
956.6650, 1559.987
957.7850, 1344.146
958.9040, 1157.321
960.0230, 913.5112
961.1420, 904.7183
962.2610, 753.9473
963.3800, 594.1968
964.4990, 493.4653
965.6170, 540.7490
966.7350, 419.0488
967.8530, 426.3643
968.9710, 312.6953
970.0890, 265.0415
971.2070, 299.4038
972.3240, 284.7822
973.4410, 304.1768
974.5580, 190.5869
975.6750, 261.0132
976.7920, 252.4561
977.9090, 277.9194
979.0250, 317.4077
980.1410, 306.8574
981.2580, 323.6582
982.3740, 312.4604
983.4890, 324.9751
984.6050, 323.8501
985.7200, 321.7002
986.8360, 275.6401
987.9510, 265.9170
989.0660, 208.1538
990.1810, 160.4512
991.2950, 181.8423
992.4100, 189.9448
993.5240, 318.6172
994.6390, 220.9512
995.7530, 299.6743
996.8660, 270.5537
997.9800, 286.4141
999.0940, 389.2349
1000.207, 513.1367
1001.320, 577.0591
1002.433, 809.0068
1003.546, 858.9829
1004.659, 1148.988
1005.772, 1397.027
1006.884, 1701.091
1007.996, 1933.183
1009.108, 2473.301
1010.220, 2988.440
1011.332, 3554.600
1012.444, 4219.780
1013.555, 4854.981
1014.666, 5317.203
1015.777, 5796.446
1016.888, 6205.710
1017.999, 6373.994
1019.110, 6199.299
1020.220, 5953.626
1021.331, 5441.974
1022.441, 5211.342
1023.551, 4495.731
1024.661, 4140.142
1025.770, 3696.720
1026.880, 3295.172
1027.989, 2892.040
1029.098, 2515.534
1030.207, 2371.067
1031.316, 2092.914
1032.425, 1945.509
1033.533, 1719.134
1034.642, 1608.785
1035.750, 1563.648
1036.858, 1457.442
1037.966, 1422.396
1039.073, 1390.038
1040.181, 1368.891
1041.288, 1404.802
1042.396, 1418.857
1043.503, 1565.171
1044.610, 1658.317
1045.716, 1778.657
1046.823, 1997.314
1047.929, 2097.581
1049.036, 2473.783
1050.142, 2871.919
1051.248, 3385.125
1052.353, 3990.376
1053.459, 4996.024
1054.564, 6392.830
1055.670, 7933.961
1056.775, 10073.14
1057.880, 12474.99
1058.985, 15073.26
1060.089, 17239.55
1061.194, 18848.17
1062.298, 19699.04
1063.402, 19270.12
1064.506, 17733.46
1065.610, 15760.83
1066.713, 13136.54
1067.817, 10944.40
1068.920, 8552.799
1070.023, 6796.990
1071.126, 5625.420
1072.229, 4468.877
1073.332, 3778.649
1074.435, 3212.157
1075.537, 2823.643
1076.639, 2489.142
1077.741, 2166.653
1078.843, 1955.202
1079.945, 1807.787
1081.046, 1727.032
1082.148, 1544.176
1083.249, 1523.750
1084.350, 1397.338
1085.451, 1369.625
1086.551, 1292.296
1087.652, 1157.921
1088.752, 1230.556
1089.853, 1166.215
1090.953, 1141.885
1092.053, 1047.566
1093.152, 1089.558
1094.252, 1099.775
1095.351, 1024.519
1096.451, 1157.051
1097.550, 1025.797
1098.649, 1180.548
1099.748, 1274.309
1100.846, 1295.078
1101.945, 1498.857
1103.043, 1543.648
1104.141, 1590.449
1105.239, 1734.258
1106.337, 1931.078
1107.434, 1923.948
1108.532, 1877.914
1109.629, 1856.542
1110.726, 1623.367
1111.823, 1535.283
1112.920, 1251.904
1114.017, 1084.684
1115.113, 960.5938
1116.210, 874.3760
1117.306, 815.4199
1118.402, 734.4170
1119.498, 682.5996
1120.593, 790.7793
1121.689, 684.8447
1122.784, 659.4453
1123.879, 687.6924
1124.974, 561.8457
1126.069, 695.4927
1127.164, 565.9243
1128.259, 500.2363
1129.353, 471.4473
1130.447, 272.6641
1131.541, 159.9741
1132.635, 133.2939
1133.729, 150.5293
1134.822, 72.76904
1135.916, 67.01270
1137.009, 113.2593
1138.102, 173.6860
1139.195, 157.8188
1140.288, 162.7632
1141.380, 135.1040
1142.473, 99.37061
1143.565, 46.63867
1144.657, 37.31934
1145.749, 97.23828
1146.841, 33.62793
1147.932, 36.90381
1149.024, 92.18066
1150.115, 33.45850
1151.206, 107.0195
1152.297, 48.29932
1153.388, 28.58984
1154.479, 88.91504
1155.569, 86.19629
1156.659, 7.464844
1157.750, 56.81445
1158.839, 73.90576
1159.929, 8.342773
1161.019, 3.589844
1162.108, 36.16406
1163.198, 55.06934
1164.287, 50.30029
1165.376, 33.53076
1166.465, 6.241211
1167.553, 1.017090
1168.642, 19.20312
1169.730, 39.42139
1170.818, 25.17578
1171.906, 17.86035
1172.994, 25.71777
1174.082, 28.51660
1175.170, 104.3213
1176.257, 90.23340
1177.344, 13.11816
1178.431, 55.05273
1179.518, 37.02100
1180.605, 44.98682
1181.691, 35.01025
1182.778, 0.9677730
1183.864, 24.06055
1184.950, 40.10889
1186.036, 15.81396
1187.122, 109.2690
1188.207, 23.41846
1189.292, 56.41064
1190.378, 20.23486
1191.463, 48.94824
1192.548, 4.166992
1193.632, 22.39746
1194.717, 50.49658
1195.801, 27.23584
1196.886, 46.03223
1197.970, 31.33594
1199.054, 27.32959
1200.137, 67.01221
1201.221, 23.59717
1202.305, 22.19873
1203.388, 10.14404
1204.471, 19.73682
1205.554, 60.68115
1206.637, 68.23779
1207.719, 33.85156
1208.802, 18.60840
1209.884, 25.35156
1210.966, 28.13916
1212.048, 57.66260
1213.130, 56.98047
1214.212, 182.4976
1215.293, 6.236328
1216.374, 31.07861
1217.456, 69.46143
1218.536, 50.83496
1219.617, 65.36182
1220.698, 101.7158
1221.778, 61.06006
1222.859, 23.32520
1223.939, 1.354004
1225.019, 7.256836
1226.099, 12.21729
1227.178, 61.71826
1228.258, 73.05859
1229.337, 127.2944
1230.417, 125.5195
1231.496, 115.7334
1232.574, 102.6475
1233.653, 99.03125
1234.732, 88.05908
1235.810, 81.41992
1236.888, 64.57812
1237.966, 47.81348
1239.044, 20.13916
1240.122, 1.939941
1241.199, 2.855957
1242.277, 23.19775
1243.354, 20.23193
1244.431, 91.24658
1245.508, 22.24854
1246.585, 67.22998
1247.661, 82.23389
1248.738, 53.18945
1249.814, 58.12988
1250.890, 137.0562
1251.966, 6.030762
1253.042, 64.85840
1254.117, 121.7212
1255.193, 52.43018
1256.268, 52.35791
1257.343, 68.12939
1258.418, 117.0103
1259.493, 135.9834
1260.567, 78.71143
1261.642, 78.42432
1262.716, 149.1216
1263.790, 105.9121
1264.864, 166.5801
1265.938, 125.2339
1267.011, 66.89404
1268.085, 22.51660
1269.158, 55.36230
1270.231, 88.94092
1271.304, 236.6304
1272.377, 113.1777
