##NAMES=Andalusite
##RRUFFID=R060197
##IDEAL CHEMISTRY=Al_2_SiO_5_
##LOCALITY=Brazil
##OWNER=RRUFF
##SOURCE=Marcus Origlieri
##DESCRIPTION=Green colored water worn pebble
##STATUS=The identification of this mineral has been confirmed by X-ray diffraction and chemical analysis
##URL=rruff.info/R060197
##MEASURED CHEMISTRY=(Al_1.97_Mn^3+^_0.03_)_Î£=2_Si_1.00_O_5_
##PIN_ID=M00466
##ORIENTATION=Laser parallel to a* (1 0 0). Fiducial mark perpendicular to laser is parallel to -b [0 -1 0]
91.01200, 0.0000000E+00
92.24600, 208.6187
93.48000, 181.4287
94.71400, 67.09375
95.94800, 169.9385
97.18200, 2.756348
98.41600, 15.42627
99.64900, 182.9092
100.8830, 228.6074
102.1160, 51.14648
103.3490, 169.0679
104.5820, 244.9961
105.8150, 419.6318
107.0470, 852.7397
108.2800, 1398.333
109.5120, 1136.805
110.7440, 1707.692
111.9760, 762.0015
113.2080, 433.1758
114.4400, 384.0952
115.6710, 582.6665
116.9030, 705.8140
118.1340, 458.4819
119.3650, 351.6191
120.5960, 237.1865
121.8270, 189.1479
123.0580, 142.2129
124.2880, 102.3481
125.5190, 192.3916
126.7490, 115.4272
127.9790, 304.4736
129.2090, 419.5371
130.4390, 406.3203
131.6680, 440.7310
132.8980, 483.8726
134.1270, 301.0527
135.3560, 392.2783
136.5850, 374.5562
137.8140, 477.8926
139.0430, 671.2896
140.2710, 848.7563
141.5000, 757.3047
142.7280, 813.9404
143.9560, 753.6641
145.1840, 803.4746
146.4120, 601.3730
147.6390, 561.3564
148.8670, 491.4263
150.0940, 441.3340
151.3210, 411.8198
152.5490, 430.1421
153.7750, 327.5474
155.0020, 328.1987
156.2290, 336.5635
157.4550, 228.1416
158.6810, 279.9336
159.9080, 317.5825
161.1340, 401.1196
162.3590, 455.8540
163.5850, 454.5938
164.8110, 599.4897
166.0360, 752.4009
167.2610, 794.3408
168.4860, 768.3164
169.7110, 766.3433
170.9360, 819.4307
172.1610, 820.5845
173.3850, 597.8091
174.6100, 581.1069
175.8340, 618.4805
177.0580, 615.9312
178.2820, 685.4600
179.5050, 753.0796
180.7290, 688.7910
181.9520, 626.5796
183.1760, 603.4458
184.3990, 808.3882
185.6220, 881.4053
186.8450, 1014.521
188.0670, 1217.733
189.2900, 1238.115
190.5120, 1428.687
191.7340, 1504.382
192.9560, 1746.154
194.1780, 1698.989
195.4000, 1829.885
196.6220, 1849.841
197.8430, 1705.855
199.0640, 1473.920
200.2860, 1554.036
201.5070, 1665.202
202.7270, 1645.417
203.9480, 1320.683
205.1690, 735.9971
206.3890, 309.3618
207.6090, 18.77637
208.8290, 124.2393
210.0490, 82.75098
211.2690, 40.31152
212.4890, 27.92090
213.7080, 22.33496
214.9280, 7.242188
216.1470, 49.03613
217.3660, 28.16406
218.5850, 7.317871
219.8030, 86.42383
221.0220, 79.40918
222.2400, 132.2285
223.4590, 238.8423
224.6770, 188.2510
225.8950, 151.4800
227.1120, 34.66113
228.3300, 47.82031
229.5480, 125.0078
230.7650, 273.7603
231.9820, 522.6665
233.1990, 798.0308
234.4160, 1207.690
235.6330, 1710.386
236.8490, 2201.118
238.0660, 2504.681
239.2820, 2585.593
240.4980, 2518.750
241.7140, 2630.056
242.9300, 2250.599
244.1460, 2110.211
245.3610, 1999.713
246.5770, 1934.813
247.7920, 1706.063
249.0070, 1730.451
250.2220, 1703.962
251.4370, 1834.590
252.6510, 1930.936
253.8660, 2234.161
255.0800, 2277.091
256.2940, 2493.107
257.5080, 2757.205
258.7220, 3287.379
259.9360, 4044.625
261.1490, 4071.942
262.3630, 4485.322
263.5760, 3851.767
264.7890, 4110.272
266.0020, 4155.834
267.2150, 4591.896
268.4270, 5118.570
269.6400, 5739.297
270.8520, 6601.070
272.0640, 7706.879
273.2760, 9046.725
274.4880, 10301.60
275.7000, 11544.52
276.9120, 13031.47
278.1230, 15306.46
279.3340, 18387.48
280.5450, 21870.54
281.7560, 25729.89
282.9670, 30088.06
284.1780, 34624.22
285.3880, 39324.33
286.5980, 43582.96
287.8090, 46487.78
289.0190, 46826.95
290.2290, 44524.79
291.4380, 39710.21
292.6480, 33613.60
293.8570, 27192.02
295.0670, 21510.47
296.2760, 16938.95
297.4850, 13418.46
298.6930, 10638.00
299.9020, 8846.571
301.1110, 7514.155
302.3190, 6466.709
303.5270, 5741.142
304.7350, 5434.474
305.9430, 5409.813
307.1510, 5894.974
308.3580, 6646.590
309.5660, 7809.025
310.7730, 9255.494
311.9800, 10810.99
313.1870, 12663.52
314.3940, 14972.08
315.6010, 17467.68
316.8070, 19705.30
318.0130, 20651.95
319.2200, 19571.64
320.4260, 17147.35
321.6310, 14101.09
322.8370, 11515.86
324.0430, 10281.66
325.2480, 7875.494
326.4540, 6759.352
327.6590, 5891.237
328.8640, 5516.149
330.0680, 5131.090
331.2730, 4869.057
332.4780, 4798.050
333.6820, 4713.070
334.8860, 4583.115
336.0900, 4838.184
337.2940, 4882.276
338.4980, 5136.395
339.7010, 5432.535
340.9050, 5884.697
342.1080, 6525.883
343.3110, 7160.092
344.5140, 8344.320
345.7170, 9841.646
346.9200, 11880.92
348.1220, 13924.16
349.3240, 16443.03
350.5270, 19207.53
351.7290, 22402.78
352.9310, 25175.31
354.1320, 28128.22
355.3340, 30203.27
356.5350, 29597.70
357.7370, 28355.48
358.9380, 25779.01
360.1390, 22038.77
361.3400, 18273.28
362.5400, 15255.08
363.7410, 12320.44
364.9410, 9945.967
366.1410, 8179.812
367.3410, 6808.306
368.5410, 5715.400
369.7410, 4918.145
370.9400, 4220.742
372.1400, 3644.400
373.3390, 3251.586
374.5380, 3067.248
375.7370, 2851.937
376.9360, 2696.639
378.1350, 2543.233
379.3330, 2601.171
380.5310, 2298.008
381.7300, 2179.883
382.9280, 2105.795
384.1260, 1809.735
385.3230, 1674.733
386.5210, 1534.756
387.7180, 1301.813
388.9160, 1308.916
390.1130, 1171.049
391.3100, 1049.209
392.5060, 968.4043
393.7030, 916.6191
394.9000, 672.8535
396.0960, 633.1055
397.2920, 491.3750
398.4880, 429.6641
399.6840, 431.9688
400.8800, 386.2910
402.0750, 387.6299
403.2710, 354.9844
404.4660, 233.3545
405.6610, 311.7412
406.8560, 200.1416
408.0510, 295.5576
409.2450, 59.98828
410.4400, 16.56836
411.6340, 21.87500
412.8280, 167.3311
414.0220, 30.79980
415.2160, 286.2822
416.4100, 242.7773
417.6030, 212.2852
418.7970, 41.80566
419.9900, 141.3379
421.1830, 199.8838
422.3760, 60.44141
423.5690, 63.00879
424.7610, 46.41113
425.9540, 22.14941
427.1460, 50.72070
428.3380, 75.69727
429.5300, 66.14746
430.7220, 68.62891
431.9140, 74.13965
433.1050, 7.316406
434.2970, 22.22461
435.4880, 115.2246
436.6790, 69.68555
437.8700, 36.15723
439.0610, 137.6416
440.2510, 103.1357
441.4420, 261.6436
442.6320, 401.4404
443.8220, 697.6895
445.0120, 803.2305
446.2020, 1112.783
447.3910, 1379.347
448.5810, 1855.924
449.7700, 2219.514
450.9600, 1901.118
452.1490, 1269.732
453.3370, 794.3613
454.5260, 770.0029
455.7150, 319.6572
456.9030, 199.3223
458.0910, 96.00000
459.2800, 110.6875
460.4670, 62.38770
461.6550, 79.83887
462.8430, 100.3916
464.0300, 153.5537
465.2180, 163.2969
466.4050, 211.0498
467.5920, 238.8145
468.7790, 260.3799
469.9650, 311.3740
471.1520, 292.1670
472.3380, 329.9707
473.5250, 314.3545
474.7110, 347.0273
475.8970, 337.4395
477.0820, 369.2793
478.2680, 353.1289
479.4540, 273.9883
480.6390, 344.8555
481.8240, 258.7324
483.0090, 266.6162
484.1940, 308.5078
485.3780, 262.4082
486.5630, 212.3174
487.7470, 43.23438
488.9320, 180.1572
490.1160, 59.91211
491.3000, 53.02051
492.4830, 80.16113
493.6670, 109.3525
494.8500, 96.54395
496.0340, 170.9121
497.2170, 87.31445
498.4000, 144.7695
499.5820, 150.3037
500.7650, 48.07715
501.9480, 4.462891
503.1300, 103.8418
504.3120, 49.22559
505.4940, 144.6201
506.6760, 89.02148
507.8580, 136.4424
509.0390, 166.8828
510.2210, 316.3506
511.4020, 298.2988
512.5830, 331.4297
513.7640, 341.0205
514.9450, 339.6230
516.1250, 390.3984
517.3060, 373.1328
518.4860, 259.9658
519.6660, 495.1230
520.8460, 325.9805
522.0260, 375.5732
523.2060, 445.9355
524.3850, 389.2676
525.5650, 475.1582
526.7440, 409.9570
527.9230, 541.6094
529.1020, 538.2988
530.2810, 774.5879
531.4590, 643.5518
532.6380, 893.2422
533.8160, 962.7100
534.9940, 1106.367
536.1720, 1372.026
537.3500, 1478.684
538.5270, 1940.343
539.7050, 2428.002
540.8820, 2946.660
542.0590, 3693.318
543.2360, 4297.977
544.4130, 5313.633
545.5900, 5615.291
546.7660, 6278.945
547.9430, 6315.602
549.1190, 6250.254
550.2950, 5878.908
551.4710, 4990.562
552.6470, 4259.770
553.8220, 3533.419
554.9980, 3001.068
556.1730, 2719.715
557.3480, 2322.360
558.5230, 2300.005
559.6980, 2222.648
560.8730, 2140.290
562.0470, 2412.930
563.2220, 2412.568
564.3960, 2721.204
565.5700, 3027.839
566.7440, 3206.213
567.9170, 3468.804
569.0910, 3714.443
570.2640, 3720.189
571.4380, 3566.476
572.6110, 3089.651
573.7840, 2757.561
574.9570, 2294.887
576.1290, 2064.695
577.3020, 1870.631
578.4740, 1551.625
579.6460, 1539.654
580.8180, 1267.707
581.9900, 1328.767
583.1620, 1182.838
584.3330, 1217.947
585.5040, 1221.056
586.6760, 1063.225
587.8470, 993.4336
589.0180, 1184.646
590.1880, 1139.017
591.3590, 1004.224
592.5290, 1224.430
593.7000, 1286.705
594.8700, 1231.205
596.0400, 1231.412
597.2090, 1205.616
598.3790, 1257.816
599.5490, 1299.016
600.7180, 1145.209
601.8870, 1190.400
603.0560, 1306.588
604.2250, 1130.772
605.3940, 1164.953
606.5620, 1195.130
607.7300, 937.3037
608.8990, 955.4727
610.0670, 972.6377
611.2350, 896.7998
612.4020, 932.9570
613.5700, 920.1094
614.7370, 916.9688
615.9050, 1100.402
617.0720, 918.5420
618.2390, 982.6768
619.4060, 943.8076
620.5720, 806.9316
621.7390, 994.0527
622.9050, 986.1680
624.0710, 943.2783
625.2370, 1129.384
626.4030, 1004.483
627.5690, 918.5791
628.7340, 882.5986
629.9000, 777.6816
631.0650, 749.8164
632.2300, 676.2031
633.3950, 591.8896
634.5600, 561.4160
635.7240, 429.3281
636.8890, 390.8623
638.0530, 319.2881
639.2170, 419.3398
640.3810, 342.0615
641.5450, 182.0410
642.7080, 359.8096
643.8720, 470.8496
645.0350, 380.8320
646.1980, 339.8672
647.3610, 242.8994
648.5240, 264.9287
649.6870, 174.9580
650.8490, 161.9824
652.0120, 162.0049
653.1740, 47.02441
654.3360, 116.0400
655.4980, 24.05273
656.6600, 21.93945
657.8210, 21.04297
658.9830, 45.98047
660.1440, 185.0420
661.3050, 69.21191
662.4660, 81.43164
663.6270, 14.70508
664.7870, 18.80859
665.9480, 104.3037
667.1080, 47.32617
668.2680, 21.04785
669.4280, 64.44629
670.5880, 8.890625
671.7480, 4.352539
672.9070, 34.83008
674.0670, 97.66016
675.2260, 70.14746
676.3850, 95.62988
677.5440, 213.1094
678.7030, 126.5850
679.8610, 137.0586
681.0200, 221.5254
682.1780, 280.9902
683.3360, 350.4512
684.4940, 407.9277
685.6520, 209.3809
686.8090, 382.8311
687.9670, 288.2764
689.1240, 406.7188
690.2810, 414.1562
691.4380, 529.5908
692.5950, 565.0293
693.7520, 462.4639
694.9080, 505.8955
696.0650, 525.3242
697.2210, 712.7490
698.3770, 831.1689
699.5330, 809.5850
700.6880, 924.0088
701.8440, 997.4189
702.9990, 1182.825
704.1550, 1236.228
705.3100, 1353.685
706.4650, 1558.094
707.6190, 1457.443
708.7740, 1389.502
709.9290, 1294.085
711.0830, 1414.102
712.2370, 1246.500
713.3910, 1159.590
714.5450, 1314.928
715.6980, 1070.160
716.8520, 1130.611
718.0050, 986.3438
719.1580, 736.8691
720.3110, 665.8145
721.4640, 405.3213
722.6170, 446.2949
723.7700, 370.7051
724.9220, 185.3213
726.0740, 162.1094
727.2260, 166.1787
728.3780, 112.5439
729.5300, 154.8965
730.6810, 146.2373
731.8330, 121.5664
732.9840, 99.42773
734.1350, 143.8916
735.2860, 137.5029
736.4370, 157.1123
737.5880, 196.5723
738.7380, 213.8291
739.8880, 278.0752
741.0390, 344.3096
742.1890, 422.5332
743.3380, 610.7461
744.4880, 555.9482
745.6380, 611.1387
746.7870, 535.3174
747.9360, 677.4873
749.0850, 700.6436
750.2340, 559.7910
751.3830, 730.9277
752.5310, 553.0518
753.6800, 820.1670
754.8280, 735.2725
755.9760, 769.3662
757.1240, 665.4492
758.2720, 533.5225
759.4190, 573.5859
760.5670, 727.6387
761.7140, 600.6816
762.8610, 680.7129
764.0080, 498.7363
765.1550, 570.7490
766.3020, 537.7539
767.4480, 495.7490
768.5950, 656.7354
769.7410, 737.7363
770.8870, 574.7490
772.0330, 708.7803
773.1780, 835.8389
774.3240, 866.9209
775.4690, 948.0459
776.6140, 958.1914
777.7590, 1285.375
778.9040, 1453.596
780.0490, 1411.811
781.1940, 1907.026
782.3380, 2031.233
783.4820, 2346.437
784.6260, 2648.633
785.7700, 2949.822
786.9140, 3365.007
788.0580, 3557.185
789.2010, 3654.357
790.3450, 3737.523
791.4880, 3736.686
792.6310, 3617.840
793.7730, 3404.830
794.9160, 3080.860
796.0590, 2774.792
797.2010, 2323.398
798.3430, 2192.307
799.4850, 1870.479
800.6270, 1677.882
801.7690, 1537.314
802.9100, 1242.188
804.0520, 1152.153
805.1930, 1119.265
806.3340, 934.3389
807.4750, 913.8125
808.6160, 804.6113
809.7560, 518.6836
810.8970, 571.9775
812.0370, 350.0791
813.1770, 474.1807
814.3170, 108.2812
815.4570, 222.3809
816.5960, 128.4795
817.7360, 64.57715
818.8750, 151.6748
820.0140, 86.77148
821.1530, 40.86621
822.2920, 105.9619
823.4310, 100.0557
824.5690, 120.1504
825.7070, 111.2441
826.8460, 167.3369
827.9840, 126.4307
829.1220, 132.5234
830.2590, 40.61621
831.3970, 95.70996
832.5340, 166.8027
833.6710, 114.8955
834.8080, 183.9893
835.9450, 188.0830
837.0820, 34.17578
838.2190, 98.26953
839.3550, 80.36328
840.4910, 66.45703
841.6270, 21.55176
842.7630, 63.64551
843.8990, 18.51953
845.0350, 30.18555
846.1700, 134.1387
847.3060, 141.1729
848.4410, 163.2910
849.5760, 174.5049
850.7100, 194.9014
851.8450, 177.7490
852.9800, 213.7803
854.1140, 123.4316
855.2480, 73.15723
856.3820, 16.92871
857.5160, 26.71777
858.6500, 146.5283
859.7830, 31.57812
860.9170, 222.3145
862.0500, 146.3291
863.1830, 8.426758
864.3160, 105.4678
865.4480, 154.2031
866.5810, 82.10059
867.7130, 39.00000
868.8460, 26.17090
869.9780, 315.4238
871.1100, 232.3135
872.2410, 242.2051
873.3730, 337.0986
874.5050, 254.9951
875.6360, 207.8955
876.7670, 163.7979
877.8980, 184.7041
879.0290, 386.6152
880.1590, 436.5283
881.2900, 411.4453
882.4200, 536.3672
883.5500, 494.2930
884.6800, 530.2217
885.8100, 601.5391
886.9400, 645.0996
888.0690, 680.0449
889.1990, 854.0117
890.3280, 818.9834
891.4570, 1100.959
892.5860, 1042.939
893.7140, 1167.926
894.8430, 1334.939
895.9710, 1617.959
897.1000, 1743.984
898.2280, 2068.016
899.3560, 2174.092
900.4830, 2514.198
901.6110, 3097.352
902.7380, 3608.550
903.8660, 4132.795
904.9930, 5081.045
906.1200, 5842.350
907.2460, 7446.678
908.3730, 9234.037
909.5000, 11785.45
910.6260, 14987.90
911.7520, 19343.40
912.8780, 23695.94
914.0040, 28876.52
915.1290, 33972.12
916.2550, 37651.76
917.3800, 38793.44
918.5050, 36816.14
919.6300, 32377.89
920.7550, 26660.67
921.8800, 21892.46
923.0040, 17419.26
924.1290, 14143.08
925.2530, 11793.93
926.3770, 10037.79
927.5010, 8847.651
928.6250, 8034.534
929.7480, 7370.423
930.8720, 6834.339
931.9950, 6641.266
933.1180, 6677.213
934.2410, 6948.221
935.3640, 7174.258
936.4860, 7298.326
937.6090, 8309.412
938.7310, 9226.515
939.8530, 10422.66
940.9750, 11888.80
942.0970, 13820.97
943.2180, 15747.17
944.3400, 18164.39
945.4610, 20516.62
946.5820, 22512.87
947.7030, 23993.12
948.8240, 24756.38
949.9450, 24321.65
951.0650, 22853.92
952.1860, 21066.21
953.3060, 18383.49
954.4260, 16072.79
955.5460, 13498.09
956.6650, 11403.37
957.7850, 9939.684
958.9040, 8665.004
960.0230, 7647.328
961.1420, 6902.658
962.2610, 6417.996
963.3800, 5975.336
964.4990, 5328.688
965.6170, 5304.043
966.7350, 5114.402
967.8530, 4835.773
968.9710, 4520.145
970.0890, 4236.037
971.2070, 3874.914
972.3240, 3581.295
973.4410, 3317.695
974.5580, 2999.096
975.6750, 2757.508
976.7920, 2343.867
977.9090, 2151.289
979.0250, 1929.777
980.1410, 1650.559
981.2580, 1664.840
982.3740, 1445.709
983.4890, 1250.223
984.6050, 1241.066
985.7200, 958.6699
986.8360, 707.3906
987.9510, 960.8965
989.0660, 815.1250
990.1810, 563.5586
991.2950, 746.5781
992.4100, 589.0371
993.5240, 595.0332
994.6390, 411.5957
995.7530, 593.9531
996.8660, 506.1406
997.9800, 424.0488
999.0940, 452.6660
1000.207, 641.2969
1001.320, 857.9395
1002.433, 837.5977
1003.546, 905.7246
1004.659, 1099.414
1005.772, 1209.113
1006.884, 1385.830
1007.996, 1582.559
1009.108, 2108.301
1010.220, 2413.057
1011.332, 2888.828
1012.444, 3502.648
1013.555, 4065.445
1014.666, 4440.256
1015.777, 5003.080
1016.888, 5420.014
1017.999, 5198.863
1019.110, 5190.996
1020.220, 4986.875
1021.331, 4369.980
1022.441, 4176.176
1023.551, 3688.090
1024.661, 3368.107
1025.770, 2940.049
1026.880, 2756.158
1027.989, 2353.697
1029.098, 2165.807
1030.207, 2040.957
1031.316, 1802.086
1032.425, 1695.777
1033.533, 1548.305
1034.642, 1372.697
1035.750, 1393.506
1036.858, 1399.760
1037.966, 1369.895
1039.073, 1220.850
1040.181, 1252.699
1041.288, 1214.355
1042.396, 1223.412
1043.503, 1182.986
1044.610, 1304.910
1045.716, 1460.619
1046.823, 1505.707
1047.929, 1882.225
1049.036, 1854.689
1050.142, 2042.668
1051.248, 2518.406
1052.353, 3046.100
1053.459, 3648.422
1054.564, 4413.930
1055.670, 5504.523
1056.775, 6246.098
1057.880, 7156.742
1058.985, 8012.182
1060.089, 8266.549
1061.194, 8013.746
1062.298, 6873.018
1063.402, 6032.324
1064.506, 5286.871
1065.610, 4326.020
1066.713, 3608.248
1067.817, 3141.504
1068.920, 2769.652
1070.023, 2490.061
1071.126, 1978.178
1072.229, 1844.396
1073.332, 1843.537
1074.435, 1665.678
1075.537, 1769.104
1076.639, 1463.238
1077.741, 1191.373
1078.843, 1457.506
1079.945, 1312.633
1081.046, 1423.760
1082.148, 1173.883
1083.249, 1154.006
1084.350, 1148.123
1085.451, 1080.238
1086.551, 1281.352
1087.652, 1152.461
1088.752, 1284.568
1089.853, 1165.672
1090.953, 1358.773
1092.053, 1452.871
1093.152, 1215.965
1094.252, 1304.055
1095.351, 1572.143
1096.451, 1585.227
1097.550, 1732.305
1098.649, 1894.379
1099.748, 2251.451
1100.846, 2295.520
1101.945, 2537.584
1103.043, 2685.643
1104.141, 2892.699
1105.239, 2983.750
1106.337, 3030.449
1107.434, 3139.842
1108.532, 2953.881
1109.629, 2811.918
1110.726, 2583.949
1111.823, 2205.990
1112.920, 1914.035
1114.017, 1299.119
1115.113, 1409.240
1116.210, 1192.406
1117.306, 1382.615
1118.402, 1295.879
1119.498, 1460.186
1120.593, 1225.551
1121.689, 1312.947
1122.784, 1159.361
1123.879, 1145.779
1124.974, 1137.201
1126.069, 1246.662
1127.164, 1141.115
1128.259, 1021.627
1129.353, 665.1738
1130.447, 678.7207
1131.541, 424.2598
1132.635, 330.7949
1133.729, 311.3203
1134.822, 334.8398
1135.916, 467.3652
1137.009, 72.88086
1138.102, 385.3887
1139.195, 219.8926
1140.288, 314.3867
1141.380, 175.8770
1142.473, 214.3555
1143.565, 55.83008
1144.657, 173.2930
1145.749, 88.75195
1146.841, 244.2012
1147.932, 47.64453
1149.024, 152.0781
1150.115, 9.500000
1151.206, 209.9121
1152.297, 24.31641
1153.388, 41.29297
1154.479, 173.0605
1155.569, 59.40430
1156.659, 118.7383
1157.750, 46.06445
1158.839, 58.62305
1159.929, 54.64062
1161.019, 49.89258
1162.108, 58.13477
1163.198, 121.6328
1164.287, 70.48633
1165.376, 131.4004
1166.465, 121.4102
1167.553, 127.9023
1168.642, 79.31250
1169.730, 153.8809
1170.818, 40.18164
1171.906, 52.52539
1172.994, 185.9238
1174.082, 34.44336
1175.170, 199.0078
1176.257, 83.70312
1177.344, 89.46680
1178.431, 48.30273
1179.518, 63.18945
1180.605, 87.13477
1181.691, 83.15039
1182.778, 114.2383
1183.864, 60.41016
1184.950, 0.3613280
1186.036, 16.89648
1187.122, 18.81250
1188.207, 65.49609
1189.292, 35.13672
1190.378, 52.75781
1191.463, 10.63672
1192.548, 75.93945
1193.632, 12.49609
1194.717, 21.03320
1195.801, 134.5488
1196.886, 86.05469
1197.970, 79.54883
1199.054, 185.0312
1200.137, 42.50391
1201.221, 10.03711
1202.305, 87.39062
1203.388, 228.8066
1204.471, 245.2148
1205.554, 15.38867
1206.637, 289.9746
1207.719, 343.3281
1208.802, 231.6719
1209.884, 492.0039
1210.966, 119.3262
1212.048, 385.6387
1213.130, 381.9414
1214.212, 570.2402
1215.293, 533.5254
1216.374, 635.8027
1217.456, 760.0703
1218.536, 836.3262
1219.617, 1105.574
1220.698, 991.8105
1221.778, 1292.039
1222.859, 1650.256
1223.939, 1395.463
1225.019, 1818.662
1226.099, 2120.850
1227.178, 2111.029
1228.258, 2443.199
1229.337, 2404.385
1230.417, 2675.562
1231.496, 2607.730
1232.574, 2950.891
1233.653, 3212.043
1234.732, 3147.184
1235.810, 3086.316
1236.888, 3449.438
1237.966, 3510.553
1239.044, 3710.070
1240.122, 3766.168
1241.199, 3716.254
1242.277, 4002.344
1243.354, 4320.428
1244.431, 4314.502
1245.508, 4390.570
1246.585, 4510.629
1247.661, 4462.680
1248.738, 4435.727
1249.814, 4362.766
1250.890, 4346.795
1251.966, 4295.346
1253.042, 4221.830
1254.117, 4198.834
1255.193, 4071.830
1256.268, 3993.830
1257.343, 3885.721
1258.418, 3886.797
1259.493, 3682.768
1260.567, 3553.730
1261.642, 3540.680
1262.716, 3519.623
1263.790, 3327.557
1264.864, 2984.480
1265.938, 2844.395
1267.011, 2673.301
1268.085, 2557.195
1269.158, 2447.080
1270.231, 2391.955
1271.304, 2272.822
1272.377, 2216.680
1273.450, 2055.490
1274.522, 1852.330
