##NAMES=Andalusite
##RRUFFID=R060197
##IDEAL CHEMISTRY=Al_2_SiO_5_
##LOCALITY=Brazil
##OWNER=RRUFF
##SOURCE=Marcus Origlieri
##DESCRIPTION=Green colored water worn pebble
##STATUS=The identification of this mineral has been confirmed by X-ray diffraction and chemical analysis
##URL=rruff.info/R060197
##MEASURED CHEMISTRY=(Al_1.97_Mn^3+^_0.03_)_Î£=2_Si_1.00_O_5_
##PIN_ID=M00466
##ORIENTATION=Laser parallel to a* (1 0 0). Fiducial mark perpendicular to laser is parallel to -b [0 -1 0]
91.01200, 0.0000000E+00
92.24600, 2.021729
93.48000, 71.36841
94.71400, 0.5788570
95.94800, 206.1177
97.18200, 127.6870
98.41600, 82.68091
99.64900, 206.1924
100.8830, 153.3855
102.1160, 57.87280
103.3490, 134.2239
104.5820, 167.0522
105.8150, 328.0444
107.0470, 597.0049
108.2800, 963.1157
109.5120, 1470.627
110.7440, 1109.263
111.9760, 537.7388
113.2080, 329.8188
114.4400, 446.3184
115.6710, 521.1055
116.9030, 555.0864
118.1340, 470.1938
119.3650, 245.3789
120.5960, 260.6055
121.8270, 195.0444
123.0580, 373.9829
124.2880, 414.9487
125.5190, 389.4355
126.7490, 313.3789
127.9790, 230.3462
129.2090, 343.6968
130.4390, 423.5122
131.6680, 437.1992
132.8980, 474.3774
134.1270, 464.0645
135.3560, 388.3135
136.5850, 468.1680
137.8140, 496.6699
139.0430, 654.8540
140.2710, 734.7520
141.5000, 597.3921
142.7280, 669.7998
143.9560, 586.9980
145.1840, 588.0063
146.4120, 535.8428
147.6390, 485.5225
148.8670, 1038.059
150.0940, 1327.465
151.3210, 1260.662
152.5490, 1169.137
153.7750, 1171.812
155.0020, 1502.532
156.2290, 1438.844
157.4550, 931.7651
158.6810, 1152.187
159.9080, 523.9229
161.1340, 546.3906
162.3590, 532.0635
163.5850, 780.5752
164.8110, 739.1924
166.0360, 762.2563
167.2610, 856.4023
168.4860, 707.6387
169.7110, 779.7310
170.9360, 796.9858
172.1610, 748.2559
173.3850, 665.6250
174.6100, 606.0957
175.8340, 595.6650
177.0580, 634.3306
178.2820, 553.0889
179.5050, 580.9404
180.7290, 502.8813
181.9520, 434.9097
183.1760, 507.0225
184.3990, 474.2168
185.6220, 564.4902
186.8450, 709.8403
188.0670, 727.2642
189.2900, 931.7612
190.5120, 896.3291
191.7340, 1006.968
192.9560, 1063.679
194.1780, 1107.458
195.4000, 1157.304
196.6220, 1165.215
197.8430, 1216.186
199.0640, 1068.209
200.2860, 1097.278
201.5070, 1175.392
202.7270, 1259.549
203.9480, 988.7520
205.1690, 572.0005
206.3890, 350.2944
207.6090, 233.6353
208.8290, 95.02344
210.0490, 28.46045
211.2690, 78.94775
212.4890, 33.48535
213.7080, 68.07471
214.9280, 4.716309
216.1470, 41.41016
217.3660, 4.841797
218.5850, 2.039063
219.8030, 120.1802
221.0220, 106.2646
222.2400, 123.2749
223.4590, 66.16309
224.6770, 90.96973
225.8950, 216.7095
227.1120, 145.4072
228.3300, 151.0767
229.5480, 120.8013
230.7650, 66.59277
231.9820, 109.4565
233.1990, 38.43066
234.4160, 34.46240
235.6330, 10.48633
236.8490, 23.52930
238.0660, 122.3994
239.2820, 235.3979
240.4980, 284.7783
241.7140, 309.3545
242.9300, 115.1001
244.1460, 151.9849
245.3610, 37.98877
246.5770, 8.902832
247.7920, 5.708496
249.0070, 89.43896
250.2220, 94.87988
251.4370, 4.734375
252.6510, 88.70654
253.8660, 96.20508
255.0800, 193.7568
256.2940, 282.3535
257.5080, 267.0254
258.7220, 643.7002
259.9360, 960.4102
261.1490, 1027.152
262.3630, 891.9272
263.5760, 836.7334
264.7890, 859.5703
266.0020, 918.4385
267.2150, 899.3374
268.4270, 1018.266
269.6400, 1134.223
270.8520, 1323.197
272.0640, 1825.182
273.2760, 2261.167
274.4880, 2617.155
275.7000, 3349.147
276.9120, 3992.149
278.1230, 4917.159
279.3340, 6054.179
280.5450, 7676.213
281.7560, 9386.264
282.9670, 11771.33
284.1780, 14055.42
285.3880, 16639.53
286.5980, 19577.66
287.8090, 22365.82
289.0190, 23832.00
290.2290, 24261.21
291.4380, 22633.44
292.6480, 20070.86
293.8570, 17003.15
295.0670, 13893.48
296.2760, 11062.84
297.4850, 8705.221
298.6930, 6975.618
299.9020, 5509.022
301.1110, 4556.418
302.3190, 3728.693
303.5270, 3327.878
304.7350, 2849.919
305.9430, 2799.834
307.1510, 3197.683
308.3580, 3415.489
309.5660, 4432.314
310.7730, 5304.173
311.9800, 6822.085
313.1870, 8456.055
314.3940, 10812.08
315.6010, 13637.13
316.8070, 16878.20
318.0130, 19089.31
319.2200, 19734.48
320.4260, 18657.70
321.6310, 16396.98
322.8370, 14072.31
324.0430, 11422.71
325.2480, 9087.151
326.4540, 7222.654
327.6590, 5652.211
328.8640, 4665.823
330.0680, 4006.492
331.2730, 3244.216
332.4780, 2742.995
333.6820, 2777.829
334.8860, 2472.720
336.0900, 2382.664
337.2940, 2250.665
338.4980, 2364.721
339.7010, 2357.832
340.9050, 2552.999
342.1080, 2583.221
343.3110, 3018.501
344.5140, 3186.837
345.7170, 3654.228
346.9200, 4419.701
348.1220, 5260.286
349.3240, 6206.975
350.5270, 7366.756
351.7290, 8808.264
352.9310, 10433.78
354.1320, 11920.47
355.3340, 13166.36
356.5350, 13541.96
357.7370, 13631.40
358.9380, 12958.85
360.1390, 11545.40
361.3400, 10162.38
362.5400, 8443.669
363.7410, 6877.234
364.9410, 5810.501
366.1410, 4571.664
367.3410, 3936.031
368.5410, 3382.629
369.7410, 3045.000
370.9400, 2449.503
372.1400, 2203.158
373.3390, 1855.628
374.5380, 1571.871
375.7370, 1327.193
376.9360, 1196.318
378.1350, 1054.414
379.3330, 895.8330
380.5310, 800.0664
381.7300, 723.9160
382.9280, 639.4111
384.1260, 625.0605
385.3230, 645.7715
386.5210, 590.5430
387.7180, 679.3740
388.9160, 522.2656
390.1130, 527.2168
391.3100, 333.8516
392.5060, 381.7256
393.7030, 285.4248
394.9000, 201.6123
396.0960, 151.7617
397.2920, 139.0684
398.4880, 7.432617
399.6840, 85.85742
400.8800, 0.6591800
402.0750, 22.88281
403.2710, 127.4854
404.4660, 53.14746
405.6610, 138.8691
406.8560, 270.6523
408.0510, 204.4951
409.2450, 573.3994
410.4400, 590.3652
411.6340, 877.3916
412.8280, 1256.479
414.0220, 1332.631
415.2160, 1625.843
416.4100, 1801.117
417.6030, 2068.455
418.7970, 2182.855
419.9900, 1957.319
421.1830, 1587.848
422.3760, 1352.440
423.5690, 949.0977
424.7610, 743.8193
425.9540, 586.6084
427.1460, 447.4639
428.3380, 335.8438
429.5300, 259.3740
430.7220, 159.4307
431.9140, 96.09473
433.1050, 57.74902
434.2970, 10.01172
435.4880, 14.65820
436.6790, 11.96680
437.8700, 136.2080
439.0610, 157.7441
440.2510, 234.3506
441.4420, 351.0264
442.6320, 371.7715
443.8220, 436.5869
445.0120, 426.4727
446.2020, 471.4307
447.3910, 346.4580
448.5810, 337.5596
449.7700, 470.7344
450.9600, 291.9824
452.1490, 296.3047
453.3370, 106.7002
454.5260, 183.1709
455.7150, 169.7168
456.9030, 255.3350
458.0910, 292.0293
459.2800, 360.7959
460.4670, 499.6377
461.6550, 670.5537
462.8430, 859.5449
464.0300, 1066.209
465.2180, 1337.749
466.4050, 1539.962
467.5920, 1803.249
468.7790, 2078.610
469.9650, 2195.045
471.1520, 2403.554
472.3380, 2660.136
473.5250, 2807.793
474.7110, 3134.521
475.8970, 3256.324
477.0820, 3310.201
478.2680, 3554.151
479.4540, 3201.174
480.6390, 3180.270
481.8240, 2910.439
483.0090, 2523.681
484.1940, 2263.996
485.3780, 1904.572
486.5630, 1396.032
487.7470, 1118.565
488.9320, 901.7607
490.1160, 619.2998
491.3000, 395.5957
492.4830, 142.3564
493.6670, 108.6787
494.8500, 130.4062
496.0340, 71.17480
497.2170, 43.67578
498.4000, 89.98730
499.5820, 21.15723
500.7650, 5.647461
501.9480, 76.61035
503.1300, 173.9443
504.3120, 419.3477
505.4940, 589.8252
506.6760, 636.3799
507.8580, 733.4082
509.0390, 765.1611
510.2210, 866.0156
511.4020, 892.9580
512.5830, 1009.992
513.7640, 1050.150
514.9450, 937.4131
516.1250, 660.7803
517.3060, 689.2471
518.4860, 581.7969
519.6660, 626.4424
520.8460, 438.1660
522.0260, 514.9668
523.2060, 259.8340
524.3850, 340.7744
525.5650, 219.7773
526.7440, 389.8428
527.9230, 241.9697
529.1020, 267.1572
530.2810, 232.4082
531.4590, 155.7197
532.6380, 223.0928
533.8160, 139.5342
534.9940, 147.0420
536.1720, 294.6348
537.3500, 479.2881
538.5270, 648.0068
539.7050, 842.7852
540.8820, 1195.622
542.0590, 1640.540
543.2360, 2228.490
544.4130, 2923.568
545.5900, 3719.724
546.7660, 4441.961
547.9430, 5041.258
549.1190, 5266.672
550.2950, 4986.191
551.4710, 4775.783
552.6470, 3945.455
553.8220, 3190.197
554.9980, 2540.014
556.1730, 2002.125
557.3480, 1524.874
558.5230, 1247.928
559.6980, 1101.069
560.8730, 1046.311
562.0470, 776.6582
563.2220, 690.1055
564.3960, 812.6680
565.5700, 813.3555
566.7440, 840.1885
567.9170, 1002.140
569.0910, 1065.232
570.2640, 1052.434
571.4380, 1157.770
572.6110, 1174.209
573.7840, 1086.778
574.9570, 1046.411
576.1290, 923.1270
577.3020, 1133.765
578.4740, 1042.611
579.6460, 999.5166
580.8180, 1082.480
581.9900, 939.4961
583.1620, 1113.560
584.3330, 1056.674
585.5040, 950.8350
586.6760, 999.0449
587.8470, 1282.302
589.0180, 1370.605
590.1880, 1406.955
591.3590, 1495.352
592.5290, 1561.794
593.7000, 1550.281
594.8700, 1594.814
596.0400, 1693.393
597.2090, 1746.014
598.3790, 1683.678
599.5490, 1587.388
600.7180, 1712.139
601.8870, 1645.932
603.0560, 1717.768
604.2250, 1569.645
605.3940, 1516.562
606.5620, 1330.521
607.7300, 1495.519
608.8990, 1394.559
610.0670, 1088.637
611.2350, 1121.754
612.4020, 916.9092
613.5700, 955.1016
614.7370, 823.3330
615.9050, 761.6016
617.0720, 849.9062
618.2390, 587.2471
619.4060, 627.6230
620.5720, 451.0352
621.7390, 229.4814
622.9050, 317.9619
624.0710, 42.47656
625.2370, 13.02441
626.4030, 103.6025
627.5690, 106.2119
628.7340, 109.1465
629.9000, 247.5254
631.0650, 203.9863
632.2300, 153.5098
633.3950, 175.0762
634.5600, 199.3242
635.7240, 199.5400
636.8890, 146.8916
638.0530, 129.5576
639.2170, 158.7422
640.3810, 186.4023
641.5450, 59.44141
642.7080, 195.6416
643.8720, 137.8691
645.0350, 192.1240
646.1980, 263.4043
647.3610, 40.28809
648.5240, 172.0195
649.6870, 69.35254
650.8490, 242.7100
652.0120, 287.0908
653.1740, 238.4961
654.3360, 349.9229
655.4980, 630.3730
656.6600, 836.8438
657.8210, 997.3350
658.9830, 1275.848
660.1440, 1541.381
661.3050, 1842.933
662.4660, 1932.503
663.6270, 1968.092
664.7870, 1901.699
665.9480, 1598.325
667.1080, 1394.968
668.2680, 1511.628
669.4280, 1500.305
670.5880, 1641.997
671.7480, 1718.705
672.9070, 1858.430
674.0670, 2066.168
675.2260, 2219.921
676.3850, 2330.180
677.5440, 2523.471
678.7030, 2520.265
679.8610, 2652.071
681.0200, 2729.944
682.1780, 2706.979
683.3360, 2930.846
684.4940, 3087.071
685.6520, 3138.932
686.8090, 3303.831
687.9670, 3462.365
689.1240, 3695.150
690.2810, 3637.370
691.4380, 3680.979
692.5950, 3624.976
693.7520, 3964.291
694.9080, 3865.311
696.0650, 4068.430
697.2210, 4058.561
698.3770, 4046.980
699.5330, 4324.143
700.6880, 4349.355
701.8440, 4408.176
702.9990, 4623.131
704.1550, 4915.715
705.3100, 5052.014
706.4650, 5146.479
707.6190, 5128.799
708.7740, 5256.922
709.9290, 5390.848
711.0830, 5432.340
712.2370, 5321.771
713.3910, 5148.092
714.5450, 4915.006
715.6980, 4488.137
716.8520, 4185.664
718.0050, 3634.398
719.1580, 3064.787
720.3110, 2610.006
721.4640, 2221.728
722.6170, 1847.435
723.7700, 1482.361
724.9220, 1069.789
726.0740, 846.4375
727.2260, 609.0684
728.3780, 370.6768
729.5300, 301.2656
730.6810, 342.8330
731.8330, 431.3799
732.9840, 439.9053
734.1350, 448.4092
735.2860, 576.8916
736.4370, 709.3516
737.5880, 715.7881
738.7380, 944.2021
739.8880, 993.5938
741.0390, 1149.961
742.1890, 1408.304
743.3380, 1615.623
744.4880, 1707.917
745.6380, 1760.188
746.7870, 1781.432
747.9360, 1811.649
749.0850, 1917.842
750.2340, 1919.679
751.3830, 1998.149
752.5310, 1962.264
753.6800, 1936.351
754.8280, 1918.411
755.9760, 2003.443
757.1240, 1922.450
758.2720, 1836.429
759.4190, 1792.377
760.5670, 1678.299
761.7140, 1629.433
762.8610, 1567.057
764.0080, 1515.702
765.1550, 1494.850
766.3020, 1337.286
767.4480, 1438.443
768.5950, 1417.301
769.7410, 1341.443
770.8870, 1504.166
772.0330, 1458.726
773.1780, 1517.009
774.3240, 1515.356
775.4690, 1620.472
776.6140, 1667.440
777.7590, 1833.982
778.9040, 2256.521
780.0490, 2635.033
781.1940, 2867.521
782.3380, 3200.985
783.4820, 3774.423
784.6260, 4317.836
785.7700, 4932.850
786.9140, 5390.213
788.0580, 6091.550
789.2010, 6466.860
790.3450, 6750.146
791.4880, 6671.406
792.6310, 6600.640
793.7730, 6132.848
794.9160, 5604.025
796.0590, 5248.180
797.2010, 4634.305
798.3430, 3867.403
799.4850, 3440.475
800.6270, 3134.518
801.7690, 2698.533
802.9100, 2337.521
804.0520, 2021.480
805.1930, 1738.621
806.3340, 1494.164
807.4750, 1313.188
808.6160, 1080.032
809.7560, 946.8477
810.8970, 750.6338
812.0370, 681.3906
813.1770, 453.1191
814.3170, 325.8154
815.4570, 387.4834
816.5960, 298.1211
817.7360, 18.72754
818.8750, 123.2646
820.0140, 45.24023
821.1530, 36.14941
822.2920, 3.476563
823.4310, 232.7246
824.5690, 134.0605
825.7070, 89.99805
826.8460, 74.93750
827.9840, 8.819336
829.1220, 47.62305
830.2590, 38.36621
831.3970, 20.53516
832.5340, 18.55176
833.6710, 14.81348
834.8080, 19.36914
835.9450, 79.01758
837.0820, 95.79102
838.2190, 73.69531
839.3550, 139.7227
840.4910, 165.9053
841.6270, 257.2588
842.7630, 148.8291
843.8990, 242.5605
845.0350, 112.5020
846.1700, 221.5830
847.3060, 103.8633
848.4410, 199.2783
849.5760, 71.11914
850.7100, 32.53906
851.8450, 34.70703
852.9800, 57.88770
854.1140, 94.01172
855.2480, 113.0840
856.3820, 206.3291
857.5160, 352.0967
858.6500, 414.0527
859.7830, 666.9766
860.9170, 806.8691
862.0500, 1027.729
863.1830, 1058.558
864.3160, 1105.354
865.4480, 1288.118
866.5810, 1456.852
867.7130, 1395.554
868.8460, 1732.225
869.9780, 1584.864
871.1100, 1526.474
872.2410, 1564.051
873.3730, 1544.598
874.5050, 1458.113
875.6360, 1487.599
876.7670, 1419.054
877.8980, 1537.479
879.0290, 1298.873
880.1590, 1313.237
881.2900, 1389.572
882.4200, 1185.877
883.5500, 1119.156
884.6800, 1108.405
885.8100, 1306.630
886.9400, 1246.843
888.0690, 1283.030
889.1990, 1257.198
890.3280, 1322.336
891.4570, 1381.459
892.5860, 1546.556
893.7140, 1741.625
894.8430, 1841.682
895.9710, 1962.711
897.1000, 2100.720
898.2280, 2373.733
899.3560, 2671.725
900.4830, 2853.744
901.6110, 3447.762
902.7380, 3996.773
903.8660, 4830.823
904.9930, 5531.959
906.1200, 6626.156
907.2460, 8325.420
908.3730, 10099.73
909.5000, 12711.08
910.6260, 15957.47
911.7520, 20484.87
912.8780, 25613.31
914.0040, 31946.77
915.1290, 38741.21
916.2550, 45337.70
917.3800, 49286.18
918.5050, 49604.70
919.6300, 46624.21
920.7550, 41850.71
921.8800, 36347.21
923.0040, 31880.69
924.1290, 28443.14
925.2530, 26174.57
926.3770, 24025.96
927.5010, 21936.34
928.6250, 19929.69
929.7480, 17648.01
930.8720, 15385.32
931.9950, 13082.59
933.1180, 11013.85
934.2410, 9659.070
935.3640, 8225.271
936.4860, 7033.444
937.6090, 6158.600
938.7310, 5422.729
939.8530, 4804.834
940.9750, 4466.912
942.0970, 4238.966
943.2180, 3638.993
944.3400, 3560.996
945.4610, 3276.974
946.5820, 3349.924
947.7030, 3055.850
948.8240, 2883.750
949.9450, 2716.626
951.0650, 2520.476
952.1860, 2297.300
953.3060, 2310.047
954.4260, 2077.620
955.5460, 1937.346
956.6650, 1878.698
957.7850, 1947.404
958.9040, 1794.058
960.0230, 1770.060
961.1420, 1682.796
962.2610, 1512.085
963.3800, 1740.968
964.4990, 1766.446
965.6170, 1596.591
966.7350, 1615.015
967.8530, 1722.320
968.9710, 1652.601
970.0890, 1808.574
971.2070, 1670.786
972.3240, 1421.931
973.4410, 1461.449
974.5580, 1374.816
975.6750, 1244.445
976.7920, 1325.520
977.9090, 1088.316
979.0250, 863.2412
980.1410, 887.3447
981.2580, 724.6221
982.3740, 709.3145
983.4890, 723.0459
984.6050, 732.8691
985.7200, 532.1357
986.8360, 488.0459
987.9510, 439.5977
989.0660, 445.9199
990.1810, 327.5654
991.2950, 445.3594
992.4100, 278.6250
993.5240, 219.8857
994.6390, 73.14062
995.7530, 134.3916
996.8660, 193.6377
997.9800, 292.8799
999.0940, 168.1172
1000.207, 311.3486
1001.320, 286.5771
1002.433, 295.8018
1003.546, 370.0215
1004.659, 444.2373
1005.772, 488.5254
1006.884, 690.7334
1007.996, 702.9375
1009.108, 896.1377
1010.220, 1045.681
1011.332, 1190.873
1012.444, 1481.062
1013.555, 1758.248
1014.666, 1909.490
1015.777, 1976.967
1016.888, 2420.734
1017.999, 2407.262
1019.110, 2380.213
1020.220, 2454.688
1021.331, 2361.659
1022.441, 2224.566
1023.551, 2092.925
1024.661, 1846.658
1025.770, 1680.475
1026.880, 1602.121
1027.989, 1574.541
1029.098, 1497.087
1030.207, 1321.648
1031.316, 1200.156
1032.425, 1129.457
1033.533, 1102.771
1034.642, 936.8643
1035.750, 999.8867
1036.858, 797.0459
1037.966, 844.0967
1039.073, 866.5928
1040.181, 838.9648
1041.288, 990.5840
1042.396, 877.0693
1043.503, 947.8311
1044.610, 844.3320
1045.716, 931.0225
1046.823, 968.8350
1047.929, 1120.426
1049.036, 1287.389
1050.142, 1280.120
1051.248, 1642.195
1052.353, 1810.064
1053.459, 2336.001
1054.564, 2774.732
1055.670, 3125.084
1056.775, 3950.271
1057.880, 4582.934
1058.985, 5310.039
1060.089, 5673.119
1061.194, 5614.498
1062.298, 5217.855
1063.402, 4770.134
1064.506, 4049.513
1065.610, 3718.513
1066.713, 3011.308
1067.817, 2586.096
1068.920, 2497.318
1070.023, 2333.182
1071.126, 2037.209
1072.229, 1886.096
1073.332, 1778.825
1074.435, 1795.543
1075.537, 1835.451
1076.639, 1727.143
1077.741, 1793.821
1078.843, 1829.485
1079.945, 1812.137
1081.046, 1770.775
1082.148, 1775.400
1083.249, 1835.015
1084.350, 1870.615
1085.451, 1843.203
1086.551, 1808.799
1087.652, 1809.387
1088.752, 1822.000
1089.853, 1700.617
1090.953, 1895.245
1092.053, 1762.861
1093.152, 1673.526
1094.252, 1764.226
1095.351, 1757.926
1096.451, 1768.635
1097.550, 1797.348
1098.649, 1619.064
1099.748, 1682.788
1100.846, 1623.521
1101.945, 1592.130
1103.043, 1613.037
1104.141, 1624.838
1105.239, 1641.678
1106.337, 1765.549
1107.434, 1638.471
1108.532, 1678.449
1109.629, 1728.509
1110.726, 1478.619
1111.823, 1257.806
1112.920, 1292.034
1114.017, 1180.335
1115.113, 1056.674
1116.210, 1062.079
1117.306, 926.4824
1118.402, 859.9053
1119.498, 1090.333
1120.593, 1000.760
1121.689, 1114.184
1122.784, 1069.604
1123.879, 1028.012
1124.974, 989.4092
1126.069, 842.7939
1127.164, 783.1660
1128.259, 814.5244
1129.353, 601.8691
1130.447, 531.2031
1131.541, 260.5225
1132.635, 409.8291
1133.729, 323.1230
1134.822, 352.4033
1135.916, 183.6709
1137.009, 158.9248
1138.102, 319.1650
1139.195, 219.3906
1140.288, 327.6045
1141.380, 97.80469
1142.473, 268.9873
1143.565, 220.1572
1144.657, 204.3135
1145.749, 169.4551
1146.841, 113.5820
1147.932, 46.69336
1149.024, 101.7852
1150.115, 25.55957
1151.206, 50.08594
1152.297, 23.91211
1153.388, 8.109375
1154.479, 141.8350
1155.569, 20.23633
1156.659, 43.65234
1157.750, 72.52051
1158.839, 29.62891
1159.929, 96.17383
1161.019, 0.9599610
1162.108, 93.28613
1163.198, 6.387695
1164.287, 168.9668
1165.376, 69.44043
1166.465, 51.98438
1167.553, 117.5869
1168.642, 179.2861
1169.730, 138.3418
1170.818, 168.0420
1171.906, 108.0947
1172.994, 26.23633
1174.082, 62.42676
1175.170, 91.31641
1176.257, 124.9580
1177.344, 36.66699
1178.431, 43.72852
1179.518, 161.1826
1180.605, 125.7539
1181.691, 131.3564
1182.778, 112.3213
1183.864, 2.069336
1184.950, 14.97266
1186.036, 95.08301
1187.122, 131.1201
1188.207, 36.14062
1189.292, 143.1406
1190.378, 145.1230
1191.463, 70.09180
1192.548, 72.04102
1193.632, 86.61133
1194.717, 58.88379
1195.801, 145.7773
1196.886, 217.6553
1197.970, 255.1406
1199.054, 83.25684
1200.137, 13.08984
1201.221, 122.8965
1202.305, 156.3193
1203.388, 362.0928
1204.471, 217.8545
1205.554, 139.6230
1206.637, 291.3535
1207.719, 237.0723
1208.802, 481.7764
1209.884, 505.4668
1210.966, 526.1436
1212.048, 516.8076
1213.130, 514.4570
1214.212, 612.0947
1215.293, 916.7188
1216.374, 980.3281
1217.456, 1223.925
1218.536, 1263.509
1219.617, 1585.080
1220.698, 1731.637
1221.778, 2134.180
1222.859, 2364.710
1223.939, 2722.228
1225.019, 2966.730
1226.099, 3462.220
1227.178, 3848.696
1228.258, 4176.158
1229.337, 4451.605
1230.417, 4852.038
1231.496, 5066.459
1232.574, 5445.865
1233.653, 5291.273
1234.732, 5667.665
1235.810, 5729.043
1236.888, 5980.406
1237.966, 5894.758
1239.044, 6154.122
1240.122, 6326.470
1241.199, 6674.805
1242.277, 6858.119
1243.354, 7306.422
1244.431, 7510.705
1245.508, 7724.976
1246.585, 7911.227
1247.661, 7824.463
1248.738, 7998.681
1249.814, 7843.883
1250.890, 7941.069
1251.966, 7863.238
1253.042, 7978.391
1254.117, 7752.525
1255.193, 7469.648
1256.268, 7237.754
1257.343, 7048.844
1258.418, 7002.919
1259.493, 6689.977
1260.567, 6597.020
1261.642, 6537.045
1262.716, 6193.061
1263.790, 5907.062
1264.864, 5881.047
1265.938, 5770.016
1267.011, 5373.895
1268.085, 5057.834
1269.158, 4570.758
1270.231, 4356.477
1271.304, 4103.314
1272.377, 3886.098
1273.450, 3719.965
1274.522, 3503.818
