##NAMES=Andalusite
##RRUFFID=R050449
##IDEAL CHEMISTRY=Al_2_SiO_5_
##LOCALITY=Itinga, Minas Gerais, Brazil
##OWNER=RRUFF
##SOURCE=Marcus Origlieri
##DESCRIPTION=Green fragment
##STATUS=The identification of this mineral has been confirmed by X-ray diffraction and chemical analysis
##URL=rruff.info/R050449
##MEASURED CHEMISTRY=Al_2.00_Fe^3+^_0.01_Si_0.99_O_5_
##PIN_ID=L00614
##ORIENTATION=Laser parallel to a* (1 0 0). Fiducial mark perpendicular to laser is parallel to b [0 1 0]
121.8270, 0.0000000E+00
123.0580, 196.7207
124.2880, 51.28467
125.5190, 0.6083980
126.7490, 51.77588
127.9790, 196.6040
129.2090, 333.9155
130.4390, 518.2295
131.6680, 696.5742
132.8980, 700.6689
134.1270, 792.2910
135.3560, 835.4966
136.5850, 1022.320
137.8140, 1059.162
139.0430, 1266.020
140.2710, 1386.998
141.5000, 1323.901
142.7280, 1156.759
143.9560, 1004.124
145.1840, 881.7583
146.4120, 787.4409
147.6390, 689.3936
148.8670, 494.0967
150.0940, 394.5000
151.3210, 359.5591
152.5490, 441.2329
153.7750, 304.4897
155.0020, 301.3003
156.2290, 268.6416
157.4550, 1.509766
158.6810, 155.1714
159.9080, 70.36816
161.1340, 49.12402
162.3590, 54.46436
163.5850, 14.40967
164.8110, 124.0176
166.0360, 293.7983
167.2610, 246.0054
168.4860, 249.3560
169.7110, 333.1284
170.9360, 288.0244
172.1610, 405.0518
173.3850, 261.2183
174.6100, 306.5391
175.8340, 372.0874
177.0580, 404.8853
178.2820, 502.9028
179.5050, 663.1450
180.7290, 627.6094
181.9520, 821.2954
183.1760, 907.2012
184.3990, 962.3257
185.6220, 1217.669
186.8450, 1318.230
188.0670, 1435.010
189.2900, 1718.007
190.5120, 1644.221
191.7340, 1854.652
192.9560, 1972.301
194.1780, 2240.168
195.4000, 2221.232
196.6220, 2412.430
197.8430, 2328.762
199.0640, 2345.227
200.2860, 2584.820
201.5070, 2693.535
202.7270, 2816.366
203.9480, 2285.312
205.1690, 1715.357
206.3890, 1244.485
207.6090, 1064.701
208.8290, 1015.010
210.0490, 909.4199
211.2690, 869.9355
212.4890, 997.2852
213.7080, 992.6284
214.9280, 974.5796
216.1470, 1048.991
217.3660, 1011.537
218.5850, 1105.243
219.8030, 1185.113
221.0220, 1096.146
222.2400, 1125.345
223.4590, 1133.708
224.6770, 1186.253
225.8950, 1082.065
227.1120, 1160.218
228.3300, 994.7300
229.5480, 1022.138
230.7650, 951.3760
231.9820, 958.0938
233.1990, 880.1743
234.4160, 853.4258
235.6330, 894.8174
236.8490, 860.3491
238.0660, 852.0225
239.2820, 840.4233
240.4980, 792.8794
241.7140, 797.8965
242.9300, 745.1348
244.1460, 734.5107
245.3610, 804.0293
246.5770, 594.6895
247.7920, 567.4941
249.0070, 372.4424
250.2220, 485.5361
251.4370, 367.7754
252.6510, 412.1611
253.8660, 346.6943
255.0800, 200.3750
256.2940, 171.2051
257.5080, 132.1836
258.7220, 316.3115
259.9360, 173.8115
261.1490, 163.3496
262.3630, 57.60254
263.5760, 41.33984
264.7890, 66.23535
266.0020, 102.2920
267.2150, 26.50977
268.4270, 87.58984
269.6400, 136.8750
270.8520, 188.2842
272.0640, 352.7695
273.2760, 570.3184
274.4880, 545.8926
275.7000, 783.4932
276.9120, 1117.136
278.1230, 1652.734
279.3340, 2468.279
280.5450, 3412.814
281.7560, 4787.376
282.9670, 6246.984
284.1780, 7748.662
285.3880, 8754.418
286.5980, 9854.674
287.8090, 10270.62
289.0190, 10462.33
290.2290, 10237.34
291.4380, 9759.599
292.6480, 8581.933
293.8570, 7257.434
295.0670, 5467.101
296.2760, 4184.929
297.4850, 2929.916
298.6930, 1672.061
299.9020, 812.3594
301.1110, 163.8125
302.3190, 115.5840
303.5270, 317.1191
304.7350, 515.5801
305.9430, 353.3896
307.1510, 32.42676
308.3580, 595.3662
309.5660, 1951.082
310.7730, 3697.479
311.9800, 6071.014
313.1870, 8071.693
314.3940, 9752.500
315.6010, 11354.44
316.8070, 12848.51
318.0130, 13526.70
319.2200, 13257.03
320.4260, 12106.49
321.6310, 10476.07
322.8370, 8705.790
324.0430, 6699.633
325.2480, 5093.604
326.4540, 3484.561
327.6590, 2194.432
328.8640, 1329.545
330.0680, 633.9277
331.2730, 313.7070
332.4780, 186.4014
333.6820, 24.12695
334.8860, 81.85645
336.0900, 140.3242
337.2940, 237.3594
338.4980, 406.4717
339.7010, 550.9453
340.9050, 857.9443
342.1080, 997.8242
343.3110, 1365.205
344.5140, 2133.398
345.7170, 2758.439
346.9200, 3924.598
348.1220, 5283.876
349.3240, 6977.273
350.5270, 8668.793
351.7290, 10350.43
352.9310, 11480.19
354.1320, 12898.06
355.3340, 13893.06
356.5350, 14047.18
357.7370, 13639.39
358.9380, 12927.49
360.1390, 11928.62
361.3400, 10898.87
362.5400, 9537.255
363.7410, 8565.768
364.9410, 7622.406
366.1410, 6740.172
367.3410, 6224.065
368.5410, 5782.086
369.7410, 5331.231
370.9400, 4995.504
372.1400, 4723.900
373.3390, 4398.421
374.5380, 4309.045
375.7370, 4040.792
376.9360, 3914.658
378.1350, 3808.643
379.3330, 3829.746
380.5310, 3983.968
381.7300, 4066.307
382.9280, 4212.766
384.1260, 4433.342
385.3230, 4579.035
386.5210, 4758.848
387.7180, 4754.779
388.9160, 4961.826
390.1130, 4771.992
391.3100, 4830.275
392.5060, 4736.676
393.7030, 4580.192
394.9000, 4583.828
396.0960, 4311.578
397.2920, 4108.465
398.4880, 4030.484
399.6840, 3816.633
400.8800, 4077.953
402.0750, 3749.445
403.2710, 3928.128
404.4660, 3818.004
405.6610, 3824.070
406.8560, 4031.312
408.0510, 4097.712
409.2450, 4011.239
410.4400, 4088.881
411.6340, 3939.638
412.8280, 4243.520
414.0220, 4105.527
415.2160, 4120.656
416.4100, 4207.912
417.6030, 3973.293
418.7970, 3935.797
419.9900, 3745.428
421.1830, 3577.184
422.3760, 3363.064
423.5690, 3332.072
424.7610, 3253.208
425.9540, 2895.471
427.1460, 2766.860
428.3380, 2525.378
429.5300, 2440.023
430.7220, 2370.800
431.9140, 2397.707
433.1050, 2524.748
434.2970, 2572.921
435.4880, 2741.856
436.6790, 2935.665
437.8700, 3129.236
439.0610, 3388.943
440.2510, 3654.783
441.4420, 3990.757
442.6320, 4451.862
443.8220, 4844.107
445.0120, 5017.487
446.2020, 5234.434
447.3910, 5066.834
448.5810, 4996.959
449.7700, 4610.388
450.9600, 4421.590
452.1490, 3632.957
453.3370, 2993.480
454.5260, 2258.140
455.7150, 1869.940
456.9030, 1492.878
458.0910, 1008.954
459.2800, 778.1680
460.4670, 550.5215
461.6550, 499.0137
462.8430, 231.6465
464.0300, 184.4268
465.2180, 86.35449
466.4050, 66.42676
467.5920, 36.64355
468.7790, 61.99512
469.9650, 114.5107
471.1520, 143.9277
472.3380, 199.2500
473.5250, 229.5000
474.7110, 175.6875
475.8970, 293.7988
477.0820, 273.8721
478.2680, 180.4961
479.4540, 173.4404
480.6390, 469.2959
481.8240, 299.1738
483.0090, 374.9961
484.1940, 255.7871
485.3780, 114.5010
486.5630, 3.060547
487.7470, 191.5332
488.9320, 314.2920
490.1160, 585.1973
491.3000, 1019.262
492.4830, 1234.507
493.6670, 1615.897
494.8500, 1942.424
496.0340, 2227.087
497.2170, 2652.099
498.4000, 3047.801
499.5820, 3475.851
500.7650, 3825.028
501.9480, 4267.335
503.1300, 4648.770
504.3120, 4985.334
505.4940, 5553.023
506.6760, 5818.843
507.8580, 6099.788
509.0390, 6241.859
510.2210, 6438.057
511.4020, 6232.378
512.5830, 6396.826
513.7640, 6359.398
514.9450, 6279.096
516.1250, 6220.916
517.3060, 6025.857
518.4860, 6143.922
519.6660, 6107.111
520.8460, 6045.419
522.0260, 6353.850
523.2060, 6402.401
524.3850, 6455.072
525.5650, 6781.863
526.7440, 7099.775
527.9230, 7418.803
529.1020, 7860.949
530.2810, 8603.216
531.4590, 9022.599
532.6380, 9517.098
533.8160, 10514.71
534.9940, 10999.45
536.1720, 11764.29
537.3500, 12673.25
538.5270, 13240.63
539.7050, 14099.48
540.8820, 14751.35
542.0590, 15403.12
543.2360, 16311.23
544.4130, 16534.04
545.5900, 17291.04
546.7660, 17689.30
547.9430, 18248.06
549.1190, 18465.32
550.2950, 18828.83
551.4710, 18599.08
552.6470, 18344.44
553.8220, 18016.89
554.9980, 17282.45
556.1730, 16926.10
557.3480, 16257.85
558.5230, 15869.70
559.6980, 15426.64
560.8730, 15394.68
562.0470, 15127.82
563.2220, 15004.05
564.3960, 14995.37
565.5700, 15000.78
566.7440, 14979.48
567.9170, 15198.90
569.0910, 15014.59
570.2640, 15055.37
571.4380, 15061.25
572.6110, 14485.21
573.7840, 14213.27
574.9570, 13736.48
576.1290, 13071.88
577.3020, 12848.48
578.4740, 12235.30
579.6460, 11721.36
580.8180, 11176.68
581.9900, 10658.26
583.1620, 10055.11
584.3330, 9644.171
585.5040, 9276.621
586.6760, 8857.249
587.8470, 8700.104
589.0180, 8442.154
590.1880, 8158.467
591.3590, 7826.953
592.5290, 7810.594
593.7000, 7690.424
594.8700, 7790.391
596.0400, 7795.479
597.2090, 7659.744
598.3790, 8107.138
599.5490, 7975.654
600.7180, 8393.342
601.8870, 8558.148
603.0560, 9171.596
604.2250, 9348.317
605.3940, 10231.95
606.5620, 10610.56
607.7300, 11379.33
608.8990, 11964.71
610.0670, 12638.97
611.2350, 13126.71
612.4020, 13884.37
613.5700, 14440.96
614.7370, 14924.17
615.9050, 15385.81
617.0720, 15658.65
618.2390, 16067.78
619.4060, 16166.94
620.5720, 16545.12
621.7390, 16799.16
622.9050, 16856.85
624.0710, 17167.07
625.2370, 17670.67
626.4030, 17607.63
627.5690, 17881.62
628.7340, 18165.01
629.9000, 18232.16
631.0650, 18138.12
632.2300, 18000.92
633.3950, 17655.96
634.5600, 17272.65
635.7240, 16906.18
636.8890, 16279.65
638.0530, 16082.25
639.2170, 15723.80
640.3810, 15304.38
641.5450, 15125.00
642.7080, 14788.66
643.8720, 14727.34
645.0350, 14299.05
646.1980, 13788.79
647.3610, 13367.57
648.5240, 12709.36
649.6870, 11596.19
650.8490, 10674.04
652.0120, 9756.913
653.1740, 8900.807
654.3360, 8021.728
655.4980, 6979.668
656.6600, 6207.629
657.8210, 5538.606
658.9830, 4647.604
660.1440, 4196.617
661.3050, 3482.646
662.4660, 3085.693
663.6270, 2584.751
664.7870, 2062.822
665.9480, 1568.906
667.1080, 1311.000
668.2680, 1048.104
669.4280, 834.2168
670.5880, 719.3369
671.7480, 545.4639
672.9070, 537.5967
674.0670, 346.7334
675.2260, 248.8750
676.3850, 159.0186
677.5440, 64.83594
678.7030, 49.72754
679.8610, 46.64941
681.0200, 217.6035
682.1780, 238.6650
683.3360, 302.8447
684.4940, 321.5869
685.6520, 304.6689
686.8090, 255.3145
687.9670, 151.0947
689.1240, 34.96094
690.2810, 47.13379
691.4380, 121.0195
692.5950, 136.2939
693.7520, 238.3564
694.9080, 368.4072
696.0650, 427.4453
697.2210, 646.4678
698.3770, 611.4756
699.5330, 722.4668
700.6880, 933.4424
701.8440, 824.3994
702.9990, 1097.338
704.1550, 1159.256
705.3100, 1277.153
706.4650, 1575.030
707.6190, 1607.886
708.7740, 1907.717
709.9290, 2039.524
711.0830, 2375.555
712.2370, 2431.147
713.3910, 2532.919
714.5450, 2520.382
715.6980, 2463.221
716.8520, 2129.947
718.0050, 1921.516
719.1580, 1638.734
720.3110, 1290.071
721.4640, 876.0693
722.6170, 798.2930
723.7700, 567.9756
724.9220, 580.6533
726.0740, 619.8721
727.2260, 642.1758
728.3780, 590.8623
729.5300, 770.7822
730.6810, 848.1055
731.8330, 904.8301
732.9840, 906.3281
734.1350, 899.5703
735.2860, 952.6465
736.4370, 1008.021
737.5880, 777.4326
738.7380, 604.1279
739.8880, 499.1436
741.0390, 409.7461
742.1890, 336.8350
743.3380, 349.0693
744.4880, 356.8076
745.6380, 355.0234
746.7870, 384.2129
747.9360, 346.9717
749.0850, 511.6367
750.2340, 401.2324
751.3830, 513.7520
752.5310, 419.2139
753.6800, 543.6182
754.8280, 502.9590
755.9760, 458.2559
757.1240, 385.5029
758.2720, 346.9316
759.4190, 362.7529
760.5670, 254.8047
761.7140, 229.7656
762.8610, 200.6465
764.0080, 72.40820
765.1550, 222.9814
766.3020, 194.4043
767.4480, 338.6641
768.5950, 234.7969
769.7410, 106.7773
770.8870, 349.5576
772.0330, 429.2129
773.1780, 446.7529
774.3240, 696.1836
775.4690, 566.5137
776.6140, 774.7441
777.7590, 941.8740
778.9040, 911.9023
780.0490, 1105.831
781.1940, 1166.658
782.3380, 1294.383
783.4820, 1470.007
784.6260, 1591.528
785.7700, 1782.946
786.9140, 1944.263
788.0580, 2151.125
789.2010, 2405.584
790.3450, 2654.589
791.4880, 2927.491
792.6310, 3315.288
793.7730, 3532.981
794.9160, 3881.569
796.0590, 4327.053
797.2010, 4873.430
798.3430, 5419.701
799.4850, 6097.869
800.6270, 6750.930
801.7690, 7486.885
802.9100, 8260.733
804.0520, 9218.966
805.1930, 10311.11
806.3340, 11370.64
807.4750, 12692.06
808.6160, 13997.38
809.7560, 15511.59
810.8970, 17017.69
812.0370, 18597.68
813.1770, 20224.57
814.3170, 21898.35
815.4570, 23033.72
816.5960, 24133.62
817.7360, 24590.51
818.8750, 24621.50
820.0140, 23902.16
821.1530, 22878.12
822.2920, 21489.89
823.4310, 19984.40
824.5690, 18009.42
825.7070, 16170.94
826.8460, 14615.22
827.9840, 12934.74
829.1220, 11504.17
830.2590, 10108.49
831.3970, 9251.713
832.5340, 8132.836
833.6710, 7255.857
834.8080, 6317.779
835.9450, 5572.602
837.0820, 4754.322
838.2190, 4065.944
839.3550, 3152.465
840.4910, 2803.887
841.6270, 2209.209
842.7630, 1538.430
843.8990, 1396.553
845.0350, 947.5762
846.1700, 806.5000
847.3060, 483.3252
848.4410, 274.0469
849.5760, 31.64453
850.7100, 204.9600
851.8450, 148.8896
852.9800, 356.1143
854.1140, 323.7432
855.2480, 463.7568
856.3820, 436.2256
857.5160, 513.1357
858.6500, 535.5283
859.7830, 434.4111
860.9170, 421.7305
862.0500, 290.4795
863.1830, 40.58594
864.3160, 130.1650
865.4480, 58.48438
866.5810, 116.2852
867.7130, 238.3125
868.8460, 63.66113
869.9780, 15.76465
871.1100, 224.9912
872.2410, 43.05469
873.3730, 32.32812
874.5050, 216.7998
875.6360, 19.56836
876.7670, 32.47559
877.8980, 147.8203
879.0290, 187.8486
880.1590, 292.9395
881.2900, 161.0195
882.4200, 216.9150
883.5500, 433.1572
884.6800, 687.6494
885.8100, 797.8486
886.9400, 924.9854
888.0690, 1083.024
889.1990, 1347.150
890.3280, 1516.030
891.4570, 1791.783
892.5860, 2204.051
893.7140, 2623.221
894.8430, 2959.623
895.9710, 3693.181
897.1000, 4112.823
898.2280, 5045.504
899.3560, 5816.029
900.4830, 6375.790
901.6110, 7444.805
902.7380, 8504.662
903.8660, 9397.754
904.9930, 10849.76
906.1200, 12219.54
907.2460, 13987.53
908.3730, 16284.99
909.5000, 19278.46
910.6260, 22414.22
911.7520, 26750.71
912.8780, 31694.22
914.0040, 36673.68
915.1290, 41114.09
916.2550, 44095.44
917.3800, 45323.75
918.5050, 43731.99
919.6300, 40754.21
920.7550, 36441.36
921.8800, 32828.48
923.0040, 28535.54
924.1290, 25453.56
925.2530, 22280.54
926.3770, 19527.48
927.5010, 17557.37
928.6250, 15823.23
929.7480, 13763.05
930.8720, 11936.83
931.9950, 10506.57
933.1180, 9079.282
934.2410, 8076.955
935.3640, 7089.598
936.4860, 6521.205
937.6090, 5889.781
938.7310, 5597.328
939.8530, 5167.846
940.9750, 4784.334
942.0970, 4603.797
943.2180, 4413.232
944.3400, 4504.641
945.4610, 4516.025
946.5820, 4362.385
947.7030, 4490.724
948.8240, 4458.041
949.9450, 4396.336
951.0650, 4162.629
952.1860, 3982.920
953.3060, 3881.209
954.4260, 3773.532
955.5460, 3496.898
956.6650, 3227.321
957.7850, 3091.810
958.9040, 3063.358
960.0230, 3038.960
961.1420, 2949.588
962.2610, 2932.221
963.3800, 3004.845
964.4990, 2910.459
965.6170, 3213.067
966.7350, 3239.670
967.8530, 3453.267
968.9710, 3518.856
970.0890, 3481.444
971.2070, 3801.030
972.3240, 3912.612
973.4410, 3844.196
974.5580, 3920.779
975.6750, 3933.192
976.7920, 3974.949
977.9090, 3975.537
979.0250, 4071.130
980.1410, 4119.799
981.2580, 4021.332
982.3740, 4155.695
983.4890, 4040.880
984.6050, 4040.467
985.7200, 4253.509
986.8360, 4430.992
987.9510, 4500.570
989.0660, 4849.289
990.1810, 5119.952
991.2950, 5630.868
992.4100, 6040.104
993.5240, 7017.101
994.6390, 8153.621
995.7530, 9629.128
996.8660, 11542.08
997.9800, 13885.93
999.0940, 16247.38
1000.207, 18820.58
1001.320, 20932.36
1002.433, 22503.72
1003.546, 23209.29
1004.659, 22490.11
1005.772, 21197.06
1006.884, 19135.71
1007.996, 16571.30
1009.108, 14314.59
1010.220, 11939.55
1011.332, 10193.99
1012.444, 8536.750
1013.555, 7567.426
1014.666, 6486.580
1015.777, 6160.232
1016.888, 5580.889
1017.999, 5259.954
1019.110, 4961.102
1020.220, 4614.324
1021.331, 4349.625
1022.441, 4230.004
1023.551, 3921.462
1024.661, 3831.996
1025.770, 3602.611
1026.880, 3504.325
1027.989, 3385.125
1029.098, 3175.031
1030.207, 3322.062
1031.316, 3190.199
1032.425, 3264.451
1033.533, 3254.864
1034.642, 3076.419
1035.750, 3019.129
1036.858, 2972.985
1037.966, 2900.982
1039.073, 2463.133
1040.181, 2277.476
1041.288, 1880.991
1042.396, 1854.663
1043.503, 1665.509
1044.610, 1350.514
1045.716, 1185.681
1046.823, 979.0459
1047.929, 843.9521
1049.036, 751.2725
1050.142, 691.1445
1051.248, 589.1611
1052.353, 599.3340
1053.459, 574.6885
1054.564, 699.1904
1055.670, 806.8447
1056.775, 1000.640
1057.880, 1108.574
1058.985, 1329.641
1060.089, 1344.828
1061.194, 1719.141
1062.298, 1743.564
1063.402, 2026.108
1064.506, 1779.787
1065.610, 1765.577
1066.713, 1835.487
1067.817, 1599.531
1068.920, 1523.685
1070.023, 1493.947
1071.126, 1394.312
1072.229, 1395.779
1073.332, 1322.350
1074.435, 1341.025
1075.537, 1310.805
1076.639, 1458.688
1077.741, 1285.673
1078.843, 1245.764
1079.945, 1088.956
1081.046, 933.2529
1082.148, 866.6523
1083.249, 813.1572
1084.350, 829.7656
1085.451, 742.4688
1086.551, 755.2979
1087.652, 607.2207
1088.752, 593.2471
1089.853, 502.3486
1090.953, 460.6143
1092.053, 382.9541
1093.152, 418.3975
1094.252, 287.9453
1095.351, 266.5957
1096.451, 210.3516
1097.550, 373.2109
1098.649, 358.1758
1099.748, 218.2441
1100.846, 252.4170
1101.945, 160.6963
1103.043, 181.0781
1104.141, 104.5664
1105.239, 312.1611
1106.337, 163.8584
1107.434, 261.6631
1108.532, 139.5723
1109.629, 112.5869
1110.726, 268.7090
1111.823, 211.9355
1112.920, 75.26758
1114.017, 80.70605
1115.113, 57.74707
1116.210, 27.91504
1117.306, 24.26367
1118.402, 95.77539
1119.498, 58.02051
1120.593, 37.52441
1121.689, 82.72168
1122.784, 147.3125
1123.879, 147.6250
1124.974, 77.23828
1126.069, 95.15332
1127.164, 284.3447
1128.259, 174.8105
1129.353, 192.5127
1130.447, 98.38379
1131.541, 131.4512
1132.635, 157.6602
1133.729, 169.7666
1134.822, 200.6709
1135.916, 245.4580
1137.009, 326.3945
1138.102, 317.5430
1139.195, 177.8545
1140.288, 446.3242
1141.380, 351.0000
1142.473, 126.8291
1143.565, 436.7949
1144.657, 224.8779
1145.749, 311.0732
1146.841, 440.3721
1147.932, 364.7832
1149.024, 386.3008
1150.115, 396.9170
1151.206, 499.6328
1152.297, 609.4463
1153.388, 517.3584
1154.479, 620.3672
1155.569, 485.4727
1156.659, 605.6729
1157.750, 622.3184
1158.839, 698.7109
1159.929, 681.7598
1161.019, 690.1084
1162.108, 665.9639
1163.198, 583.3291
1164.287, 834.4980
1165.376, 915.4404
1166.465, 801.8203
1167.553, 814.5459
1168.642, 807.3389
1169.730, 891.9346
1170.818, 1007.294
1171.906, 1126.175
1172.994, 1111.987
1174.082, 1195.225
1175.170, 1148.258
1176.257, 1244.900
1177.344, 1139.739
1178.431, 1136.076
1179.518, 1250.504
1180.605, 1067.208
1181.691, 1263.768
1182.778, 1450.470
1183.864, 1260.515
1184.950, 1320.729
1186.036, 1404.963
1187.122, 1236.519
1188.207, 1367.596
1189.292, 1302.893
1190.378, 1458.634
1191.463, 1459.090
1192.548, 1487.308
1193.632, 1454.092
1194.717, 1452.233
1195.801, 1472.343
1196.886, 1377.440
1197.970, 1453.912
1199.054, 1363.524
1200.137, 1346.266
1201.221, 1375.445
1202.305, 1390.145
1203.388, 1216.594
1204.471, 1225.582
1205.554, 1220.104
1206.637, 1281.645
1207.719, 1313.008
1208.802, 1187.703
1209.884, 1036.150
1210.966, 1005.637
1212.048, 875.1641
1213.130, 988.7295
1214.212, 851.3359
1215.293, 989.2734
1216.374, 1019.953
1217.456, 833.6689
1218.536, 888.4180
1219.617, 775.2031
1220.698, 849.0215
1221.778, 843.8740
1222.859, 777.7568
1223.939, 735.6719
1225.019, 665.1074
1226.099, 585.1436
1227.178, 510.5967
1228.258, 411.6289
1229.337, 355.6895
1230.417, 273.7783
1231.496, 291.7637
1232.574, 501.0361
1233.653, 367.2051
1234.732, 427.4004
1235.810, 491.6230
1236.888, 343.8730
1237.966, 430.1592
1239.044, 499.4697
1240.122, 267.8145
1241.199, 308.1846
1242.277, 388.5889
1243.354, 468.0420
1244.431, 465.0977
1245.508, 463.6396
1246.585, 461.1982
1247.661, 456.6211
1248.738, 449.2285
1249.814, 560.8711
1250.890, 345.5342
1251.966, 279.6016
1253.042, 692.2900
1254.117, 465.9873
1255.193, 626.6895
1256.268, 480.3994
1257.343, 426.1152
1258.418, 610.8330
1259.493, 565.5635
1260.567, 567.2969
1261.642, 677.0264
1262.716, 477.7559
1263.790, 552.4795
1264.864, 305.1934
1265.938, 494.8994
1267.011, 607.5986
1268.085, 577.2852
1269.158, 408.9600
1270.231, 467.6221
1271.304, 499.2676
1272.377, 465.8955
1273.450, 436.5039
1274.522, 487.0908
1275.594, 440.6533
1276.666, 448.1943
1277.738, 314.7070
1278.810, 163.1943
1279.882, 345.6523
1280.953, 215.0811
1282.025, 200.4785
1283.096, 279.8438
1284.167, 253.1768
1285.238, 239.4951
1286.308, 37.26270
1287.379, 165.9258
1288.449, 15.92383
1289.519, 79.84277
1290.589, 44.13281
1291.659, 35.05859
1292.729, 124.0703
1293.798, 133.6611
1294.868, 100.6543
1295.937, 37.10352
1297.006, 80.65723
1298.075, 72.33887
1299.143, 127.1494
1300.212, 194.1221
1301.280, 140.3135
