##NAMES=Andalusite
##RRUFFID=R060212
##IDEAL CHEMISTRY=Al_2_SiO_5_
##LOCALITY=Brazil
##OWNER=RRUFF
##SOURCE=Marcus Origlieri
##DESCRIPTION=Transparent yellow-green water-worn pebble
##STATUS=The identification of this mineral is confirmed by single-crystal X-ray diffraction and chemical analysis.
##URL=rruff.info/R060212
##MEASURED CHEMISTRY=(Al_1.98_Fe^3+^_0.02_)_Î£=2_Si_1.00_O_5_
##PIN_ID=M00278
##ORIENTATION=Laser parallel to c* (0 0 1). Fiducial mark perpendicular to laser is parallel to -a [-1 0 0]
99.64900, 0.0000000E+00
100.8830, 1.221680
102.1160, 51.00684
103.3490, 34.99756
104.5820, 207.8086
105.8150, 412.2915
107.0470, 902.3022
108.2800, 1422.549
109.5120, 1707.972
110.7440, 904.3838
111.9760, 315.1245
113.2080, 223.4624
114.4400, 355.4517
115.6710, 587.1782
116.9030, 413.7852
118.1340, 343.0254
119.3650, 165.7021
120.5960, 25.68018
121.8270, 122.8652
123.0580, 4.523926
124.2880, 2.494629
125.5190, 18.90234
126.7490, 20.62549
127.9790, 98.18115
129.2090, 189.8506
130.4390, 151.3477
131.6680, 217.6523
132.8980, 156.3071
134.1270, 93.56689
135.3560, 125.4380
136.5850, 322.9653
137.8140, 325.1865
139.0430, 626.1357
140.2710, 653.8438
141.5000, 517.3374
142.7280, 446.6406
143.9560, 368.7739
145.1840, 303.7549
146.4120, 244.0547
147.6390, 245.3257
148.8670, 178.9487
150.0940, 240.4839
151.3210, 313.9414
152.5490, 287.3276
153.7750, 86.64941
155.0020, 214.9131
156.2290, 19.12549
157.4550, 20.29102
158.6810, 42.55322
159.9080, 107.4644
161.1340, 171.4849
162.3590, 258.8965
163.5850, 471.6934
164.8110, 506.6675
166.0360, 668.3975
167.2610, 579.3296
168.4860, 554.3115
169.7110, 665.3364
170.9360, 649.4033
172.1610, 519.5103
173.3850, 462.6616
174.6100, 498.8438
175.8340, 503.0688
177.0580, 452.3394
178.2820, 510.6577
179.5050, 560.0234
180.7290, 509.4351
181.9520, 636.8945
183.1760, 559.3984
184.3990, 754.9473
185.6220, 865.5381
186.8450, 1041.166
188.0670, 1312.836
189.2900, 1526.544
190.5120, 1610.291
191.7340, 1665.075
192.9560, 1669.893
194.1780, 1667.745
195.4000, 1731.661
196.6220, 1706.707
197.8430, 1713.821
199.0640, 1655.996
200.2860, 1875.195
201.5070, 1938.419
202.7270, 2012.665
203.9480, 1555.930
205.1690, 859.2075
206.3890, 495.4956
207.6090, 329.7939
208.8290, 79.10254
210.0490, 155.4717
211.2690, 27.86572
212.4890, 66.27002
213.7080, 65.68555
214.9280, 132.1123
216.1470, 13.44971
217.3660, 70.00049
218.5850, 62.53760
219.8030, 130.0640
221.0220, 66.57715
222.2400, 43.07764
223.4590, 121.5654
224.6770, 80.03955
225.8950, 30.50146
227.1120, 78.90723
228.3300, 41.27197
229.5480, 2.584473
230.7650, 2.839355
231.9820, 26.95166
233.1990, 32.70752
234.4160, 128.3750
235.6330, 160.9365
236.8490, 293.4365
238.0660, 511.8940
239.2820, 625.3574
240.4980, 828.8394
241.7140, 741.3418
242.9300, 801.8633
244.1460, 685.4043
245.3610, 643.9639
246.5770, 589.2104
247.7920, 637.1143
249.0070, 474.8828
250.2220, 449.7427
251.4370, 517.6753
252.6510, 623.6685
253.8660, 613.7104
255.0800, 667.7944
256.2940, 681.9165
257.5080, 794.0703
258.7220, 1211.250
259.9360, 1611.439
261.1490, 1293.654
262.3630, 1274.891
263.5760, 1245.146
264.7890, 1372.415
266.0020, 1554.698
267.2150, 1810.992
268.4270, 1843.297
269.6400, 2166.564
270.8520, 2756.890
272.0640, 3106.880
273.2760, 4233.222
274.4880, 4738.923
275.7000, 6413.934
276.9120, 6405.293
278.1230, 6842.646
279.3340, 8081.987
280.5450, 9851.321
281.7560, 12160.65
282.9670, 15094.97
284.1780, 18844.29
285.3880, 23711.61
286.5980, 30318.93
287.8090, 37653.25
289.0190, 45564.88
290.2290, 50756.83
291.4380, 50137.52
292.6480, 43980.11
293.8570, 35471.46
295.0670, 27207.13
296.2760, 20359.46
297.4850, 15240.81
298.6930, 11809.16
299.9020, 9241.506
301.1110, 7234.859
302.3190, 6051.218
303.5270, 5176.583
304.7350, 4259.934
305.9430, 3925.148
307.1510, 3653.284
308.3580, 3672.291
309.5660, 3922.229
310.7730, 4417.139
311.9800, 5312.055
313.1870, 6433.988
314.3940, 8028.936
315.6010, 10718.90
316.8070, 14627.88
318.0130, 19512.66
319.2200, 23432.05
320.4260, 23712.08
321.6310, 21353.12
322.8370, 18059.17
324.0430, 14343.24
325.2480, 11570.32
326.4540, 9189.415
327.6590, 7630.525
328.8640, 6621.648
330.0680, 5905.786
331.2730, 5473.936
332.4780, 5260.100
333.6820, 4996.277
334.8860, 4727.467
336.0900, 4645.667
337.2940, 4331.883
338.4980, 4232.112
339.7010, 3913.353
340.9050, 3666.605
342.1080, 3667.871
343.3110, 3445.148
344.5140, 3472.438
345.7170, 3437.739
346.9200, 3848.052
348.1220, 4131.376
349.3240, 4563.712
350.5270, 5523.062
351.7290, 6530.809
352.9310, 7925.312
354.1320, 9761.798
355.3340, 11830.20
356.5350, 13507.85
357.7370, 14036.58
358.9380, 13477.06
360.1390, 12177.77
361.3400, 10124.08
362.5400, 8543.442
363.7410, 7004.943
364.9410, 5753.343
366.1410, 4660.933
367.3410, 3889.032
368.5410, 3328.242
369.7410, 2939.102
370.9400, 2600.143
372.1400, 2300.190
373.3390, 1940.634
374.5380, 1774.444
375.7370, 1564.261
376.9360, 1651.919
378.1350, 1515.588
379.3330, 1581.268
380.5310, 1643.959
381.7300, 1527.663
382.9280, 1377.378
384.1260, 1255.104
385.3230, 1103.844
386.5210, 992.5952
387.7180, 751.3579
388.9160, 818.1328
390.1130, 873.9185
391.3100, 917.7144
392.5060, 714.5244
393.7030, 644.3467
394.9000, 433.1797
396.0960, 357.0234
397.2920, 349.8770
398.4880, 298.7417
399.6840, 150.6157
400.8800, 217.4990
402.0750, 140.3926
403.2710, 277.2959
404.4660, 230.2085
405.6610, 227.1304
406.8560, 302.0615
408.0510, 353.6479
409.2450, 452.9517
410.4400, 589.9106
411.6340, 738.8784
412.8280, 929.8560
414.0220, 1186.842
415.2160, 1380.837
416.4100, 1617.843
417.6030, 1730.858
418.7970, 1605.882
419.9900, 1346.914
421.1830, 939.9556
422.3760, 786.0054
423.5690, 523.0654
424.7610, 391.1333
425.9540, 253.2109
427.1460, 125.2969
428.3380, 170.3931
429.5300, 25.49805
430.7220, 70.61328
431.9140, 4.262207
433.1050, 70.13232
434.2970, 100.0259
435.4880, 2.957520
436.6790, 3.117676
437.8700, 99.79785
439.0610, 93.24902
440.2510, 4.306152
441.4420, 76.37305
442.6320, 139.4502
443.8220, 287.5381
445.0120, 525.6362
446.2020, 581.7456
447.3910, 1113.865
448.5810, 1779.996
449.7700, 2729.138
450.9600, 2953.292
452.1490, 2315.459
453.3370, 1485.651
454.5260, 871.8569
455.7150, 529.0762
456.9030, 319.3076
458.0910, 111.5522
459.2800, 96.81006
460.4670, 56.91992
461.6550, 49.66406
462.8430, 72.58203
464.0300, 16.84082
465.2180, 132.1118
466.4050, 32.39404
467.5920, 97.68896
468.7790, 134.9961
469.9650, 293.3145
471.1520, 289.6450
472.3380, 476.9893
473.5250, 421.3452
474.7110, 439.7139
475.8970, 456.0991
477.0820, 487.4966
478.2680, 589.9082
479.4540, 698.3335
480.6390, 731.7705
481.8240, 711.2383
483.0090, 699.7339
484.1940, 673.2783
485.3780, 541.8735
486.5630, 429.4961
487.7470, 323.1631
488.9320, 220.8633
490.1160, 151.7280
491.3000, 125.2974
492.4830, 27.04395
493.6670, 32.19971
494.8500, 100.4448
496.0340, 1.725098
497.2170, 9.002441
498.4000, 67.19873
499.5820, 30.47900
500.7650, 63.44482
501.9480, 29.70801
503.1300, 34.96289
504.3120, 113.2148
505.4940, 18.50977
506.6760, 20.78125
507.8580, 78.98535
509.0390, 86.78271
510.2210, 172.6050
511.4020, 291.2051
512.5830, 290.1523
513.7640, 221.7612
514.9450, 157.7153
516.1250, 210.7954
517.3060, 259.7842
518.4860, 184.7856
519.6660, 272.7949
520.8460, 261.8120
522.0260, 168.8364
523.2060, 185.8682
524.3850, 188.9077
525.5650, 172.9546
526.7440, 269.0083
527.9230, 319.0698
529.1020, 406.1387
530.2810, 332.2144
531.4590, 304.2964
532.6380, 383.3862
533.8160, 503.4819
534.9940, 490.5845
536.1720, 468.6943
537.3500, 619.8096
538.5270, 972.9316
539.7050, 1301.060
540.8820, 1632.195
542.0590, 2251.335
543.2360, 2909.481
544.4130, 3735.633
545.5900, 4810.792
546.7660, 5843.956
547.9430, 6540.125
549.1190, 7232.302
550.2950, 7289.483
551.4710, 7102.670
552.6470, 6245.861
553.8220, 5109.058
554.9980, 4056.261
556.1730, 3283.467
557.3480, 2545.679
558.5230, 1930.896
559.6980, 1688.119
560.8730, 1381.346
562.0470, 1202.577
563.2220, 1006.813
564.3960, 871.9922
565.5700, 835.2983
566.7440, 755.5479
567.9170, 793.8335
569.0910, 756.0649
570.2640, 793.4697
571.4380, 734.8154
572.6110, 697.2192
573.7840, 651.3281
574.9570, 525.1538
576.1290, 517.2676
577.3020, 397.5488
578.4740, 433.0908
579.6460, 257.3535
580.8180, 223.9805
581.9900, 220.6133
583.1620, 315.2544
584.3330, 164.8994
585.5040, 174.5679
586.6760, 60.25928
587.8470, 184.9546
589.0180, 179.6528
590.1880, 273.3545
591.3590, 250.0610
592.5290, 229.0903
593.7000, 273.2432
594.8700, 295.8745
596.0400, 310.9238
597.2090, 406.6978
598.3790, 462.4194
599.5490, 532.1436
600.7180, 704.8691
601.8870, 704.8110
603.0560, 785.1553
604.2250, 945.8867
605.3940, 791.6196
606.5620, 742.3535
607.7300, 848.0898
608.8990, 687.8267
610.0670, 580.5649
611.2350, 399.3042
612.4020, 290.3638
613.5700, 337.1050
614.7370, 268.0581
615.9050, 310.9258
617.0720, 289.6689
618.2390, 220.8770
619.4060, 166.0889
620.5720, 257.0874
621.7390, 342.7998
622.9050, 256.2803
624.0710, 423.6777
625.2370, 446.5864
626.4030, 312.9507
627.5690, 336.3604
628.7340, 485.0396
629.9000, 316.8926
631.0650, 280.6177
632.2300, 211.1377
633.3950, 134.8545
634.5600, 174.4771
635.7240, 14.05420
636.8890, 16.65771
638.0530, 11.34521
639.2170, 84.09521
640.3810, 0.1005860
641.5450, 49.65771
642.7080, 113.2554
643.8720, 215.3916
645.0350, 81.15527
646.1980, 205.0781
647.3610, 19.89600
648.5240, 99.54004
649.6870, 63.17920
650.8490, 27.18701
652.0120, 127.5757
653.1740, 42.04004
654.3360, 33.46436
655.4980, 0.9628910
656.6600, 147.4517
657.8210, 107.9351
658.9830, 294.4116
660.1440, 389.8818
661.3050, 560.3452
662.4660, 618.8022
663.6270, 393.2529
664.7870, 325.6973
665.9480, 124.1343
667.1080, 177.5649
668.2680, 111.9883
669.4280, 47.40527
670.5880, 16.81445
671.7480, 19.21680
672.9070, 85.61133
674.0670, 75.99902
675.2260, 60.37988
676.3850, 48.75293
677.5440, 56.06250
678.7030, 142.4766
679.8610, 66.82715
681.0200, 93.16992
682.1780, 81.50586
683.3360, 213.8330
684.4940, 223.1523
685.6520, 213.4648
686.8090, 184.7686
687.9670, 193.0645
689.1240, 231.3516
690.2810, 224.3984
691.4380, 245.2744
692.5950, 262.1670
693.7520, 262.4219
694.9080, 298.6680
696.0650, 294.9072
697.2210, 331.1367
698.3770, 327.3594
699.5330, 342.5723
700.6880, 369.7773
701.8440, 412.9736
702.9990, 535.1621
704.1550, 578.3408
705.3100, 526.5107
706.4650, 615.0137
707.6190, 886.8164
708.7740, 898.6689
709.9290, 1097.530
711.0830, 1285.055
712.2370, 1435.914
713.3910, 1624.004
714.5450, 1789.025
715.6980, 1833.172
716.8520, 1901.207
718.0050, 1898.106
719.1580, 1732.301
720.3110, 1440.558
721.4640, 1139.640
722.6170, 841.7080
723.7700, 623.0312
724.9220, 491.2471
726.0740, 290.2734
727.2260, 240.2861
728.3780, 134.0938
729.5300, 147.5283
730.6810, 63.49707
731.8330, 5.448242
732.9840, 75.36133
734.1350, 76.25879
735.2860, 83.14062
736.4370, 159.0049
737.5880, 159.8564
738.7380, 229.6924
739.8880, 219.5156
741.0390, 187.3359
742.1890, 223.1514
743.3380, 221.8086
744.4880, 204.7412
745.6380, 254.5146
746.7870, 223.2734
747.9360, 218.0166
749.0850, 190.3389
750.2340, 62.46094
751.3830, 103.1582
752.5310, 68.83984
753.6800, 30.50488
754.8280, 136.1445
755.9760, 53.77051
757.1240, 53.37598
758.2720, 64.96289
759.4190, 21.46875
760.5670, 17.95020
761.7140, 96.47949
762.8610, 104.8604
764.0080, 16.81152
765.1550, 81.57129
766.3020, 38.41406
767.4480, 71.68555
768.5950, 98.77051
769.7410, 5.160156
770.8870, 98.87012
772.0330, 56.88574
773.1780, 206.8916
774.3240, 122.9072
775.4690, 54.91016
776.6140, 84.83691
777.7590, 2.174805
778.9040, 61.52246
780.0490, 0.7128910
781.1940, 172.2578
782.3380, 98.12891
783.4820, 196.0127
784.6260, 233.8877
785.7700, 286.7559
786.9140, 342.4307
788.0580, 413.4531
789.2010, 444.5498
790.3450, 464.3213
791.4880, 472.0645
792.6310, 531.2354
793.7730, 464.9180
794.9160, 430.6914
796.0590, 439.7002
797.2010, 472.2070
798.3430, 501.9492
799.4850, 532.6797
800.6270, 638.4014
801.7690, 790.1123
802.9100, 798.8145
804.0520, 930.5068
805.1930, 899.1895
806.3340, 919.8613
807.4750, 824.5254
808.6160, 785.3145
809.7560, 560.8252
810.8970, 585.4609
812.0370, 436.0869
813.1770, 211.7051
814.3170, 153.3145
815.4570, 243.9150
816.5960, 150.5068
817.7360, 139.0918
818.8750, 173.6680
820.0140, 41.23633
821.1530, 103.7959
822.2920, 105.3486
823.4310, 121.8926
824.5690, 260.4287
825.7070, 306.9590
826.8460, 436.4814
827.9840, 327.9961
829.1220, 517.5049
830.2590, 547.0068
831.3970, 735.5020
832.5340, 840.9902
833.6710, 606.4717
834.8080, 737.9473
835.9450, 474.4170
837.0820, 404.8789
838.2190, 313.3379
839.3550, 239.7891
840.4910, 137.2354
841.6270, 79.67578
842.7630, 110.8896
843.8990, 68.52539
845.0350, 22.20898
846.1700, 54.91699
847.3060, 193.6641
848.4410, 24.52441
849.5760, 156.4072
850.7100, 44.38184
851.8450, 158.3896
852.9800, 157.4893
854.1140, 60.68066
855.2480, 81.91211
856.3820, 20.19434
857.5160, 8.505859
858.6500, 30.20215
859.7830, 72.10547
860.9170, 71.45703
862.0500, 21.14941
863.1830, 73.75293
864.3160, 126.3535
865.4480, 9.048828
866.5810, 60.54102
867.7130, 207.8096
868.8460, 104.9805
869.9780, 187.4219
871.1100, 149.8721
872.2410, 118.3975
873.3730, 291.9766
874.5050, 312.5537
875.6360, 159.1299
876.7670, 208.7061
877.8980, 388.2803
879.0290, 264.8535
880.1590, 351.4268
881.2900, 398.9990
882.4200, 401.5752
883.5500, 435.8506
884.6800, 392.7256
885.8100, 457.3008
886.9400, 537.5586
888.0690, 588.1357
889.1990, 689.0127
890.3280, 770.9697
891.4570, 894.5625
892.5860, 993.6904
893.7140, 1119.816
894.8430, 1316.166
895.9710, 1495.800
897.1000, 1654.681
898.2280, 1849.646
899.3560, 2118.104
900.4830, 2516.107
901.6110, 2684.068
902.7380, 3207.761
903.8660, 3827.282
904.9930, 4249.936
906.1200, 5087.803
907.2460, 6275.483
908.3730, 7806.879
909.5000, 9880.587
910.6260, 12698.31
911.7520, 16064.74
912.8780, 21100.48
914.0040, 27379.81
915.1290, 34176.45
916.2550, 42383.02
917.3800, 48633.81
918.5050, 50356.59
919.6300, 47029.41
920.7550, 39854.23
921.8800, 32602.08
923.0040, 26509.93
924.1290, 21865.82
925.2530, 18650.73
926.3770, 16611.68
927.5010, 14835.68
928.6250, 13240.70
929.7480, 11553.74
930.8720, 10054.80
931.9950, 8557.871
933.1180, 7458.955
934.2410, 6414.047
935.3640, 5726.168
936.4860, 5294.338
937.6090, 4865.540
938.7310, 4645.762
939.8530, 4680.996
940.9750, 4783.242
942.0970, 5141.499
943.2180, 5646.770
944.3400, 6024.052
945.4610, 7191.348
946.5820, 7792.650
947.7030, 8457.969
948.8240, 8824.300
949.9450, 8813.641
951.0650, 8460.012
952.1860, 7342.430
953.3060, 6248.885
954.4260, 5119.352
955.5460, 4285.830
956.6650, 3405.321
957.7850, 2957.827
958.9040, 2442.355
960.0230, 1979.905
961.1420, 1782.480
962.2610, 1511.077
963.3800, 1278.688
964.4990, 1073.311
965.6170, 957.9492
966.7350, 847.7598
967.8530, 843.2646
968.9710, 749.9443
970.0890, 788.6367
971.2070, 777.3438
972.3240, 721.6758
973.4410, 749.7998
974.5580, 620.5488
975.6750, 621.3135
976.7920, 538.0918
977.9090, 468.5430
979.0250, 426.7021
980.1410, 344.8154
981.2580, 432.9258
982.3740, 365.3809
983.4890, 436.5059
984.6050, 497.4102
985.7200, 433.4033
986.8360, 413.3027
987.9510, 401.3213
989.0660, 377.4746
990.1810, 382.3633
991.2950, 376.2246
992.4100, 412.2471
993.5240, 434.2900
994.6390, 481.0859
995.7530, 493.9971
996.8660, 582.1016
997.9800, 565.2295
999.0940, 666.3779
1000.207, 730.2871
1001.320, 847.4775
1002.433, 906.6904
1003.546, 1055.938
1004.659, 1078.208
1005.772, 1390.500
1006.884, 1614.813
1007.996, 1970.149
1009.108, 2348.507
1010.220, 2851.886
1011.332, 3407.288
1012.444, 4239.715
1013.555, 5423.162
1014.666, 6306.629
1015.777, 7343.541
1016.888, 8336.051
1017.999, 8751.585
1019.110, 8890.141
1020.220, 8572.721
1021.331, 7665.320
1022.441, 6580.134
1023.551, 5558.984
1024.661, 4887.658
1025.770, 4015.354
1026.880, 3360.074
1027.989, 3014.812
1029.098, 2542.582
1030.207, 2229.846
1031.316, 1840.694
1032.425, 1842.602
1033.533, 1761.573
1034.642, 1528.582
1035.750, 1433.647
1036.858, 1389.757
1037.966, 1262.077
1039.073, 1268.493
1040.181, 1278.478
1041.288, 1268.910
1042.396, 1226.988
1043.503, 1269.299
1044.610, 1263.644
1045.716, 1273.287
1046.823, 1326.557
1047.929, 1358.211
1049.036, 1500.662
1050.142, 1641.093
1051.248, 1891.544
1052.353, 1963.016
1053.459, 2581.895
1054.564, 2885.924
1055.670, 3451.456
1056.775, 4536.611
1057.880, 5479.184
1058.985, 7078.770
1060.089, 8725.239
1061.194, 10751.29
1062.298, 12540.94
1063.402, 13844.50
1064.506, 13539.82
1065.610, 12128.53
1066.713, 10086.25
1067.817, 7867.345
1068.920, 6371.541
1070.023, 5180.914
1071.126, 4067.350
1072.229, 3445.587
1073.332, 2838.415
1074.435, 2356.260
1075.537, 2236.297
1076.639, 1763.176
1077.741, 1686.068
1078.843, 1528.979
1079.945, 1390.903
1081.046, 1210.858
1082.148, 1151.911
1083.249, 1231.154
1084.350, 1094.316
1085.451, 1131.982
1086.551, 1206.015
1087.652, 1086.062
1088.752, 958.1240
1089.853, 881.2021
1090.953, 934.5576
1092.053, 1051.330
1093.152, 1090.286
1094.252, 998.0049
1095.351, 1196.152
1096.451, 1192.312
1097.550, 1362.485
1098.649, 1459.672
1099.748, 1558.870
1100.846, 1897.083
1101.945, 1941.309
1103.043, 2162.546
1104.141, 2335.798
1105.239, 2713.064
1106.337, 3046.344
1107.434, 3299.639
1108.532, 3467.948
1109.629, 3349.269
1110.726, 3332.633
1111.823, 2924.031
1112.920, 2668.449
1114.017, 2258.899
1115.113, 1919.416
1116.210, 1722.956
1117.306, 1614.945
1118.402, 1701.216
1119.498, 1720.930
1120.593, 2021.699
1121.689, 2337.498
1122.784, 2371.330
1123.879, 2011.185
1124.974, 1772.049
1126.069, 1309.923
1127.164, 1191.827
1128.259, 974.7617
1129.353, 726.7051
1130.447, 551.6592
1131.541, 403.8896
1132.635, 152.6084
1133.729, 199.6064
1134.822, 255.6123
1135.916, 237.6289
1137.009, 100.6543
1138.102, 174.6895
1139.195, 91.73340
1140.288, 91.78613
1141.380, 156.8457
1142.473, 58.07715
1143.565, 4.154297
1144.657, 201.2393
1145.749, 41.33203
1146.841, 20.56738
1147.932, 12.53613
1149.024, 168.6475
1150.115, 230.7646
1151.206, 73.88867
1152.297, 26.02051
1153.388, 9.841797
1154.479, 58.70117
1155.569, 129.4248
1156.659, 145.5586
1157.750, 63.71191
1158.839, 31.12891
1159.929, 91.02441
1161.019, 58.81641
1162.108, 89.32422
1163.198, 110.4697
1164.287, 181.1055
1165.376, 141.6191
1166.465, 50.60742
1167.553, 14.57812
1168.642, 5.847656
1169.730, 30.50293
1170.818, 39.93750
1171.906, 5.797852
1172.994, 56.65820
1174.082, 0.4560550
1175.170, 23.42871
1176.257, 7.322266
1177.344, 32.78223
1178.431, 4.113281
1179.518, 1.991211
1180.605, 191.0928
1181.691, 40.90723
1182.778, 92.00195
1183.864, 72.59180
1184.950, 25.52539
1186.036, 62.52734
1187.122, 105.4209
1188.207, 26.57422
1189.292, 13.43164
1190.378, 27.44824
1191.463, 83.48438
1192.548, 21.43262
1193.632, 41.65234
1194.717, 3.764648
1195.801, 155.1143
1196.886, 103.9922
1197.970, 46.13086
1199.054, 142.2861
1200.137, 64.52539
1201.221, 16.80566
1202.305, 3.896484
1203.388, 27.01562
1204.471, 44.15820
1205.554, 11.39844
1206.637, 74.08301
1207.719, 65.76465
1208.802, 107.2646
1209.884, 85.73145
1210.966, 110.8447
1212.048, 27.53711
1213.130, 51.77832
1214.212, 96.14941
1215.293, 71.50098
1216.374, 75.00879
1217.456, 110.5156
1218.536, 69.01855
1219.617, 35.61230
1220.698, 14.89355
1221.778, 4.884766
1222.859, 22.97461
1223.939, 2.556641
1225.019, 128.8408
1226.099, 94.23438
1227.178, 137.6230
1228.258, 191.0059
1229.337, 63.38477
1230.417, 205.7578
1231.496, 228.1553
1232.574, 336.5186
1233.653, 341.8760
1234.732, 268.9727
1235.810, 184.3174
1236.888, 175.4697
1237.966, 337.8037
1239.044, 373.1328
1240.122, 351.7744
1241.199, 307.7705
1242.277, 317.0781
1243.354, 332.8184
1244.431, 392.1143
1245.508, 396.5645
1246.585, 379.6094
1247.661, 263.8242
1248.738, 452.0879
1249.814, 459.5859
1250.890, 332.9121
1251.966, 409.1484
1253.042, 432.1514
1254.117, 458.3691
1255.193, 458.5840
1256.268, 594.7842
1257.343, 473.6943
1258.418, 512.8457
1259.493, 286.3252
1260.567, 430.4854
1261.642, 364.6055
1262.716, 241.9062
1263.790, 218.1582
1264.864, 328.3594
1265.938, 362.6768
1267.011, 335.9238
1268.085, 231.0098
1269.158, 266.2129
1270.231, 251.2842
1271.304, 72.36230
1272.377, 240.6484
1273.450, 210.6992
1274.522, 317.9834
1275.594, 189.0146
1276.666, 195.6855
1277.738, 231.9102
1278.810, 168.9072
1279.882, 168.8926
1280.953, 134.8672
