##NAMES=Andalusite
##RRUFFID=R050258
##IDEAL CHEMISTRY=Al_2_SiO_5_
##LOCALITY=Bautista Canyon, near Hemet, Riverside County, California, USA
##OWNER=RRUFF
##SOURCE=Marcus Origlieri
##DESCRIPTION=Brown fragment
##STATUS=The identification of this mineral has been confirmed by X-ray diffraction and chemical analysis
##URL=rruff.info/R050258
##MEASURED CHEMISTRY=Al_2.00_Si_1.00_O_5_
##PIN_ID=M00252
##ORIENTATION=Laser parallel to b* (0 1 0). Fiducial mark perpendicular to laser is parallel to c [0 0 1]
111.9760, 0.0000000E+00
113.2080, 103.0127
114.4400, 2.313477
115.6710, 215.6709
116.9030, 296.2617
118.1340, 161.3359
119.3650, 104.1748
120.5960, 13.23535
121.8270, 75.13281
123.0580, 201.5928
124.2880, 180.4014
125.5190, 127.4883
126.7490, 90.55176
127.9790, 100.4834
129.2090, 286.2090
130.4390, 320.6631
131.6680, 230.8174
132.8980, 274.5977
134.1270, 132.9326
135.3560, 273.8271
136.5850, 202.1074
137.8140, 230.0195
139.0430, 336.0352
140.2710, 413.4072
141.5000, 418.1172
142.7280, 383.1436
143.9560, 347.2402
145.1840, 311.8564
146.4120, 208.1172
147.6390, 208.4033
148.8670, 190.3086
150.0940, 130.4492
151.3210, 148.7734
152.5490, 305.2402
153.7750, 154.8438
155.0020, 172.5791
156.2290, 125.4395
157.4550, 0.5791020
158.6810, 158.5205
159.9080, 61.73535
161.1340, 72.06250
162.3590, 21.50098
163.5850, 140.0439
164.8110, 107.6973
166.0360, 169.4717
167.2610, 291.3750
168.4860, 105.4102
169.7110, 119.5713
170.9360, 246.8555
172.1610, 133.2588
173.3850, 294.7822
174.6100, 138.4180
175.8340, 243.1650
177.0580, 4.982422
178.2820, 188.9727
179.5050, 240.0293
180.7290, 141.1826
181.9520, 257.4307
183.1760, 288.1201
184.3990, 524.8633
185.6220, 428.8564
186.8450, 593.2793
188.0670, 693.4990
189.2900, 907.3857
190.5120, 573.6416
191.7340, 670.9277
192.9560, 704.2500
194.1780, 712.6123
195.4000, 667.0176
196.6220, 513.4688
197.8430, 592.9678
199.0640, 508.5146
200.2860, 505.1123
201.5070, 673.7598
202.7270, 535.4609
203.9480, 616.2129
205.1690, 459.0176
206.3890, 372.8760
207.6090, 303.7852
208.8290, 136.7490
210.0490, 255.7666
211.2690, 3.833008
212.4890, 182.9541
213.7080, 150.1299
214.9280, 122.3584
216.1470, 44.71582
217.3660, 222.2188
218.5850, 239.9844
219.8030, 179.9795
221.0220, 275.0820
222.2400, 174.2871
223.4590, 94.55469
224.6770, 164.9121
225.8950, 85.31543
227.1120, 195.7520
228.3300, 101.2383
229.5480, 329.7793
230.7650, 87.40332
231.9820, 55.05762
233.1990, 183.7451
234.4160, 239.4639
235.6330, 188.2158
236.8490, 283.0000
238.0660, 330.8174
239.2820, 358.6670
240.4980, 316.5518
241.7140, 294.4678
242.9300, 301.4150
244.1460, 306.3965
245.3610, 260.7002
246.5770, 141.4551
247.7920, 150.5312
249.0070, 133.6406
250.2220, 30.78223
251.4370, 130.9541
252.6510, 135.8428
253.8660, 148.3936
255.0800, 44.33984
256.2940, 78.07812
257.5080, 18.80078
258.7220, 54.17578
259.9360, 205.4316
261.1490, 8.986328
262.3630, 90.99609
263.5760, 170.1309
264.7890, 74.40137
266.0020, 23.20312
267.2150, 134.3027
268.4270, 226.9131
269.6400, 47.62305
270.8520, 108.4248
272.0640, 291.3105
273.2760, 346.2783
274.4880, 411.3242
275.7000, 723.4443
276.9120, 721.6348
278.1230, 875.8926
279.3340, 1110.217
280.5450, 1465.603
281.7560, 2152.048
282.9670, 3126.551
284.1780, 4356.105
285.3880, 4848.715
286.5980, 5180.378
287.8090, 5582.091
289.0190, 6117.855
290.2290, 6371.672
291.4380, 5959.533
292.6480, 4937.441
293.8570, 4150.396
295.0670, 3329.391
296.2760, 2514.429
297.4850, 1937.468
298.6930, 1080.625
299.9020, 889.7832
301.1110, 523.9795
302.3190, 150.2148
303.5270, 248.4766
304.7350, 6.787109
305.9430, 36.13672
307.1510, 203.5215
308.3580, 301.7207
309.5660, 656.1758
310.7730, 1162.668
311.9800, 1584.195
313.1870, 2494.756
314.3940, 2920.352
315.6010, 3794.979
316.8070, 5103.641
318.0130, 6028.801
319.2200, 6228.758
320.4260, 5766.416
321.6310, 4944.992
322.8370, 4199.457
324.0430, 3136.443
325.2480, 2125.273
326.4540, 1460.240
327.6590, 1043.129
328.8640, 671.2344
330.0680, 624.9766
331.2730, 371.9141
332.4780, 318.1309
333.6820, 198.1230
334.8860, 237.8379
336.0900, 333.7227
337.2940, 251.7930
338.4980, 292.8906
339.7010, 418.0137
340.9050, 428.1660
342.1080, 434.3418
343.3110, 576.8867
344.5140, 654.1172
345.7170, 855.3770
346.9200, 1225.113
348.1220, 1680.422
349.3240, 2109.760
350.5270, 2852.121
351.7290, 3635.508
352.9310, 4284.920
354.1320, 4988.357
355.3340, 5989.820
356.5350, 6336.309
357.7370, 6375.820
358.9380, 5564.359
360.1390, 5088.920
361.3400, 4367.506
362.5400, 3653.113
363.7410, 2894.744
364.9410, 2521.395
366.1410, 2019.068
367.3410, 1901.760
368.5410, 1710.475
369.7410, 1317.207
370.9400, 1267.959
372.1400, 1178.729
373.3390, 788.5195
374.5380, 1049.330
375.7370, 867.1562
376.9360, 791.0039
378.1350, 645.8672
379.3330, 772.7520
380.5310, 716.6523
381.7300, 558.5723
382.9280, 769.5117
384.1260, 820.4688
385.3230, 1151.439
386.5210, 950.4336
387.7180, 1047.439
388.9160, 1202.461
390.1130, 936.5039
391.3100, 1127.566
392.5060, 977.6602
393.7030, 922.7773
394.9000, 617.9121
396.0960, 585.0645
397.2920, 715.1484
398.4880, 552.3340
399.6840, 534.7031
400.8800, 699.0488
402.0750, 762.0332
403.2710, 642.2051
404.4660, 811.5449
405.6610, 659.8066
406.8560, 686.2207
408.0510, 709.6641
409.2450, 774.1797
410.4400, 790.2227
411.6340, 787.9551
412.8280, 851.5586
414.0220, 1033.219
415.2160, 1080.904
416.4100, 1086.617
417.6030, 1074.350
418.7970, 985.1055
419.9900, 842.8848
421.1830, 687.6855
422.3760, 627.2480
423.5690, 457.3535
424.7610, 485.2207
425.9540, 465.1055
427.1460, 405.0137
428.3380, 406.9375
429.5300, 417.8828
430.7220, 342.8477
431.9140, 294.8301
433.1050, 492.8301
434.2970, 119.8535
435.4880, 482.8926
436.6790, 325.9512
437.8700, 448.0254
439.0610, 537.1211
440.2510, 481.2344
441.4420, 509.3672
442.6320, 775.5195
443.8220, 1013.688
445.0120, 937.8750
446.2020, 1097.078
447.3910, 1129.303
448.5810, 1463.543
449.7700, 1549.799
450.9600, 1236.074
452.1490, 788.3691
453.3370, 692.6797
454.5260, 338.0098
455.7150, 402.3574
456.9030, 194.7285
458.0910, 46.11914
459.2800, 86.53320
460.4670, 99.02930
461.6550, 12.61719
462.8430, 87.19531
464.0300, 64.79688
465.2180, 228.4141
466.4050, 128.1191
467.5920, 142.8652
468.7790, 144.6641
469.9650, 5.515625
471.1520, 10.36328
472.3380, 84.20312
473.5250, 51.92969
474.7110, 32.91211
475.8970, 81.23633
477.0820, 61.59180
478.2680, 24.43359
479.4540, 158.7246
480.6390, 93.90430
481.8240, 249.1406
483.0090, 32.40430
484.1940, 243.6816
485.3780, 54.02148
486.5630, 97.28320
487.7470, 89.60547
488.9320, 76.04883
490.1160, 28.27539
491.3000, 87.62695
492.4830, 37.01562
493.6670, 32.42188
494.8500, 173.8398
496.0340, 310.2734
497.2170, 257.7227
498.4000, 485.1875
499.5820, 496.6660
500.7650, 642.1582
501.9480, 572.6602
503.1300, 655.1777
504.3120, 746.7031
505.4940, 777.2383
506.6760, 957.7871
507.8580, 974.3457
509.0390, 1047.914
510.2210, 975.4922
511.4020, 1208.078
512.5830, 857.6738
513.7640, 984.2812
514.9450, 985.8965
516.1250, 784.5215
517.3060, 879.1504
518.4860, 1058.793
519.6660, 929.4434
520.8460, 815.0996
522.0260, 1097.766
523.2060, 991.4355
524.3850, 1048.113
525.5650, 1243.799
526.7440, 1072.492
527.9230, 1277.191
529.1020, 1233.898
530.2810, 1378.611
531.4590, 1475.328
532.6380, 1616.336
533.8160, 1736.801
534.9940, 1775.260
536.1720, 2106.410
537.3500, 2264.455
538.5270, 2301.461
539.7050, 2592.512
540.8820, 2809.602
542.0590, 3006.832
543.2360, 3315.660
544.4130, 3190.162
545.5900, 3446.021
546.7660, 3751.164
547.9430, 3722.922
549.1190, 4111.029
550.2950, 3948.285
551.4710, 4189.777
552.6470, 3858.277
553.8220, 3550.920
554.9980, 3627.004
556.1730, 3382.072
557.3480, 3261.279
558.5230, 2850.092
559.6980, 2824.902
560.8730, 2799.045
562.0470, 2694.852
563.2220, 2787.230
564.3960, 2729.184
565.5700, 2833.980
566.7440, 2923.779
567.9170, 2680.570
569.0910, 2811.359
570.2640, 2795.148
571.4380, 2745.939
572.6110, 2861.729
573.7840, 2548.527
574.9570, 2355.367
576.1290, 2471.246
577.3020, 2556.211
578.4740, 2212.182
579.6460, 2161.207
580.8180, 2007.262
581.9900, 1939.314
583.1620, 1726.383
584.3330, 1795.525
585.5040, 1665.633
586.6760, 1761.736
587.8470, 1521.842
589.0180, 1539.947
590.1880, 1376.057
591.3590, 1438.189
592.5290, 1325.354
593.7000, 1307.521
594.8700, 1217.816
596.0400, 1373.775
597.2090, 1445.701
598.3790, 1378.652
599.5490, 1362.881
600.7180, 1289.965
601.8870, 1513.951
603.0560, 1853.174
604.2250, 1794.754
605.3940, 2011.426
606.5620, 2049.926
607.7300, 2156.158
608.8990, 2236.812
610.0670, 2250.586
611.2350, 2401.650
612.4020, 2353.518
613.5700, 2598.992
614.7370, 2634.066
615.9050, 2613.949
617.0720, 2801.352
618.2390, 2777.697
619.4060, 2879.377
620.5720, 2759.287
621.7390, 3051.035
622.9050, 2999.963
624.0710, 3119.699
625.2370, 3437.602
626.4030, 3279.246
627.5690, 3111.410
628.7340, 3469.033
629.9000, 2934.227
631.0650, 3084.576
632.2300, 3039.846
633.3950, 3125.527
634.5600, 3064.979
635.7240, 2974.564
636.8890, 2981.303
638.0530, 3018.268
639.2170, 2958.922
640.3810, 2796.361
641.5450, 2830.410
642.7080, 2913.439
643.8720, 2971.295
645.0350, 2781.277
646.1980, 2765.119
647.3610, 2593.967
648.5240, 2593.697
649.6870, 2317.406
650.8490, 2109.096
652.0120, 2031.055
653.1740, 1837.695
654.3360, 1510.312
655.4980, 1535.906
656.6600, 1235.479
657.8210, 1330.023
658.9830, 1142.545
660.1440, 977.0430
661.3050, 1061.516
662.4660, 741.9629
663.6270, 751.3848
664.7870, 767.7812
665.9480, 485.1504
667.1080, 457.4961
668.2680, 333.8105
669.4280, 214.1016
670.5880, 305.3672
671.7480, 53.60156
672.9070, 47.19141
674.0670, 1.951172
675.2260, 31.05859
676.3850, 60.13281
677.5440, 73.17383
678.7030, 70.93750
679.8610, 64.16602
681.0200, 36.11523
682.1780, 0.9726560
683.3360, 43.10156
684.4940, 48.29297
685.6520, 73.44531
686.8090, 45.84961
687.9670, 87.78906
689.1240, 164.6035
690.2810, 14.86914
691.4380, 15.30664
692.5950, 9.705078
693.7520, 112.9395
694.9080, 112.3125
696.0650, 81.52930
697.2210, 471.7090
698.3770, 379.8574
699.5330, 101.9707
700.6880, 348.0488
701.8440, 48.09375
702.9990, 151.0996
704.1550, 361.0664
705.3100, 436.5508
706.4650, 621.6348
707.6190, 492.8965
708.7740, 561.6875
709.9290, 788.3340
711.0830, 593.7539
712.2370, 964.1836
713.3910, 980.8359
714.5450, 1086.674
715.6980, 1126.004
716.8520, 1165.211
718.0050, 814.7871
719.1580, 759.4297
720.3110, 602.3711
721.4640, 721.3750
722.6170, 267.0801
723.7700, 587.6250
724.9220, 330.0840
726.0740, 313.4102
727.2260, 544.5996
728.3780, 311.4961
729.5300, 329.6172
730.6810, 352.3203
731.8330, 365.8184
732.9840, 306.9766
734.1350, 151.8867
735.2860, 160.5859
736.4370, 59.65430
737.5880, 114.7402
738.7380, 57.51172
739.8880, 115.0918
741.0390, 118.9160
742.1890, 119.8359
743.3380, 118.1914
744.4880, 185.8594
745.6380, 137.7559
746.7870, 301.4258
747.9360, 246.5273
749.0850, 339.0977
750.2340, 298.4668
751.3830, 149.0430
752.5310, 189.5391
753.6800, 173.9824
754.8280, 136.1406
755.9760, 193.2402
757.1240, 123.2949
758.2720, 95.29883
759.4190, 74.76562
760.5670, 48.03320
761.7140, 259.7559
762.8610, 217.4238
764.0080, 14.96680
765.1550, 160.5527
766.3020, 113.0117
767.4480, 57.40234
768.5950, 69.74219
769.7410, 19.99609
770.8870, 253.1602
772.0330, 305.2578
773.1780, 270.2988
774.3240, 230.2812
775.4690, 174.2051
776.6140, 244.0645
777.7590, 291.8652
778.9040, 381.6074
780.0490, 383.0137
781.1940, 420.9258
782.3380, 386.5039
783.4820, 416.0293
784.6260, 411.4961
785.7700, 485.9141
786.9140, 439.2734
788.0580, 497.5801
789.2010, 367.8340
790.3450, 686.0312
791.4880, 608.1738
792.6310, 812.2617
793.7730, 897.2949
794.9160, 614.2754
796.0590, 913.2012
797.2010, 843.0742
798.3430, 939.8906
799.4850, 925.6543
800.6270, 1406.363
801.7690, 1509.020
802.9100, 1536.621
804.0520, 1596.168
805.1930, 2114.660
806.3340, 2101.098
807.4750, 2559.480
808.6160, 2515.809
809.7560, 2875.801
810.8970, 3165.287
812.0370, 3399.727
813.1770, 3613.426
814.3170, 4081.184
815.4570, 4153.932
816.5960, 4342.602
817.7360, 4575.186
818.8750, 4462.582
820.0140, 4473.340
821.1530, 4182.375
822.2920, 3947.477
823.4310, 3591.301
824.5690, 3326.934
825.7070, 2997.164
826.8460, 2775.197
827.9840, 2576.941
829.1220, 2215.623
830.2590, 1912.113
831.3970, 2025.105
832.5340, 1820.066
833.6710, 1530.836
834.8080, 1376.943
835.9450, 1041.998
837.0820, 1048.672
838.2190, 791.6289
839.3550, 732.9531
840.4910, 642.6504
841.6270, 309.4512
842.7630, 397.1953
843.8990, 346.8887
845.0350, 211.5273
846.1700, 238.1055
847.3060, 99.62695
848.4410, 34.08203
849.5760, 109.5371
850.7100, 97.29883
851.8450, 281.1992
852.9800, 35.66406
854.1140, 159.5469
855.2480, 65.92578
856.3820, 117.5703
857.5160, 9.994141
858.6500, 10.35156
859.7830, 84.45312
860.9170, 158.6836
862.0500, 59.59961
863.1830, 65.76562
864.3160, 24.71289
865.4480, 51.41406
866.5810, 93.65039
867.7130, 3.982422
868.8460, 71.46680
869.9780, 12.86719
871.1100, 161.4727
872.2410, 27.04688
873.3730, 18.47461
874.5050, 7.667969
875.6360, 230.1230
876.7670, 20.41406
877.8980, 6.785156
879.0290, 23.26172
880.1590, 136.1133
881.2900, 317.8809
882.4200, 125.3789
883.5500, 255.5801
884.6800, 137.5059
885.8100, 136.7539
886.9400, 385.7773
888.0690, 120.0703
889.1990, 355.5215
890.3280, 410.8535
891.4570, 552.8594
892.5860, 686.2266
893.7140, 603.0820
894.8430, 685.4980
895.9710, 849.0195
897.1000, 982.3027
898.2280, 1089.725
899.3560, 1469.916
900.4830, 1751.973
901.6110, 1585.793
902.7380, 1965.094
903.8660, 2312.311
904.9930, 2555.770
906.1200, 2890.248
907.2460, 3454.260
908.3730, 3985.441
909.5000, 4776.430
910.6260, 6122.207
911.7520, 7409.699
912.8780, 9081.445
914.0040, 11416.34
915.1290, 13149.57
916.2550, 15359.77
917.3800, 16502.08
918.5050, 16481.21
919.6300, 15382.46
920.7550, 13514.60
921.8800, 11683.79
923.0040, 10007.96
924.1290, 8678.082
925.2530, 7642.877
926.3770, 6757.930
927.5010, 6266.949
928.6250, 5592.932
929.7480, 4784.877
930.8720, 4164.789
931.9950, 3474.668
933.1180, 3287.508
934.2410, 2949.320
935.3640, 2646.096
936.4860, 2484.840
937.6090, 2342.551
938.7310, 2167.227
939.8530, 2102.422
940.9750, 2017.482
942.0970, 2055.062
943.2180, 2182.613
944.3400, 2334.131
945.4610, 2518.619
946.5820, 2769.094
947.7030, 2702.539
948.8240, 3035.961
949.9450, 2556.355
951.0650, 2762.719
952.1860, 2702.443
953.3060, 2292.783
954.4260, 1991.094
955.5460, 1639.381
956.6650, 1342.656
957.7850, 1413.922
958.9040, 882.2031
960.0230, 1180.434
961.1420, 1023.703
962.2610, 864.9316
963.3800, 1063.133
964.4990, 735.3125
965.6170, 785.4727
966.7350, 819.6406
967.8530, 480.7832
968.9710, 883.9023
970.0890, 812.9980
971.2070, 616.0664
972.3240, 795.1094
973.4410, 978.1309
974.5580, 763.1289
975.6750, 793.1035
976.7920, 665.5098
977.9090, 815.2539
979.0250, 857.7695
980.1410, 893.6914
981.2580, 855.7109
982.3740, 584.8945
983.4890, 882.0078
984.6050, 651.8398
985.7200, 745.4336
986.8360, 884.4805
987.9510, 815.5820
989.0660, 653.2617
990.1810, 958.8164
991.2950, 832.0078
992.4100, 963.0820
993.5240, 1026.402
994.6390, 1072.828
995.7530, 1534.281
996.8660, 2168.809
997.9800, 2402.566
999.0940, 2853.406
1000.207, 3149.965
1001.320, 3772.289
1002.433, 4305.355
1003.546, 4286.707
1004.659, 4232.691
1005.772, 4227.066
1006.884, 3655.035
1007.996, 3303.004
1009.108, 2709.570
1010.220, 2402.129
1011.332, 2201.879
1012.444, 1935.773
1013.555, 2157.434
1014.666, 1659.727
1015.777, 1993.090
1016.888, 1686.344
1017.999, 1967.676
1019.110, 1553.047
1020.220, 1467.934
1021.331, 1479.285
1022.441, 1368.680
1023.551, 1212.129
1024.661, 1015.586
1025.770, 860.0859
1026.880, 997.3750
1027.989, 746.9570
1029.098, 1015.539
1030.207, 867.0391
1031.316, 708.5469
1032.425, 810.0508
1033.533, 578.5508
1034.642, 728.3672
1035.750, 790.8867
1036.858, 440.4102
1037.966, 716.0117
1039.073, 344.5430
1040.181, 479.1328
1041.288, 547.6914
1042.396, 350.2500
1043.503, 640.8086
1044.610, 141.3750
1045.716, 309.9414
1046.823, 399.5078
1047.929, 212.0781
1049.036, 298.7656
1050.142, 277.3398
1051.248, 175.9062
1052.353, 88.47266
1053.459, 342.0430
1054.564, 246.6133
1055.670, 574.1836
1056.775, 480.7500
1057.880, 643.3164
1058.985, 719.8867
1060.089, 836.4531
1061.194, 1002.059
1062.298, 1163.660
1063.402, 1206.266
1064.506, 1301.922
1065.610, 1339.582
1066.713, 946.5469
1067.817, 1208.227
1068.920, 697.9023
1070.023, 664.5977
1071.126, 582.2969
1072.229, 560.0195
1073.332, 545.9023
1074.435, 500.5664
1075.537, 438.0234
1076.639, 348.0195
1077.741, 281.7500
1078.843, 221.4805
1079.945, 142.2109
1081.046, 100.9453
1082.148, 76.67578
1083.249, 118.8984
1084.350, 0.9960940
1085.451, 225.2422
1086.551, 210.1055
1087.652, 156.8594
1088.752, 153.6172
1089.853, 180.3711
1090.953, 70.59375
1092.053, 117.3477
1093.152, 64.40234
1094.252, 164.1602
1095.351, 166.6094
1096.451, 159.7539
1097.550, 237.8242
1098.649, 130.5781
1099.748, 165.3320
1100.846, 169.0898
1101.945, 160.1758
1103.043, 258.9375
1104.141, 229.6992
1105.239, 220.9180
1106.337, 336.6758
1107.434, 402.4336
1108.532, 371.8203
1109.629, 254.7344
1110.726, 206.2305
1111.823, 307.7461
1112.920, 108.1211
1114.017, 214.1445
1115.113, 350.9258
1116.210, 368.8320
1117.306, 297.7695
1118.402, 248.6719
1119.498, 146.6719
1120.593, 130.6836
1121.689, 155.1875
1122.784, 111.2969
1123.879, 265.4102
1124.974, 156.9336
1126.069, 362.0938
1127.164, 227.4258
1128.259, 307.8203
1129.353, 31.96484
1130.447, 225.4453
1131.541, 106.6758
1132.635, 3.062500
1133.729, 179.2305
1134.822, 77.54297
1135.916, 39.10547
1137.009, 346.2422
1138.102, 266.7695
1139.195, 99.75000
1140.288, 46.75000
1141.380, 152.4297
1142.473, 190.0977
1143.565, 21.71094
1144.657, 78.49219
1145.749, 106.6680
1146.841, 295.2617
1147.932, 437.5469
1149.024, 83.25000
1150.115, 71.13281
1151.206, 39.04688
1152.297, 86.33984
1153.388, 51.71875
1154.479, 35.14453
1155.569, 268.5312
1156.659, 255.3555
1157.750, 124.0742
1158.839, 61.14844
1159.929, 24.89453
1161.019, 215.6016
1162.108, 304.3398
1163.198, 314.8672
1164.287, 308.2734
1165.376, 24.27734
1166.465, 133.4805
1167.553, 115.1094
1168.642, 80.30469
1169.730, 304.9141
1170.818, 91.57031
1171.906, 602.2070
1172.994, 357.0664
1174.082, 338.2422
1175.170, 149.4453
1176.257, 210.3242
1177.344, 110.7031
1178.431, 289.0859
1179.518, 76.51172
1180.605, 257.6328
1181.691, 379.6602
1182.778, 251.4961
1183.864, 182.7930
1184.950, 344.6133
1186.036, 254.0117
1187.122, 242.9062
1188.207, 265.0508
1189.292, 275.9336
1190.378, 254.0703
1191.463, 352.4336
1192.548, 143.6328
1193.632, 508.7422
1194.717, 309.9141
1195.801, 425.0000
1196.886, 72.87891
1197.970, 376.6992
1199.054, 391.8008
1200.137, 247.2383
1201.221, 384.2773
1202.305, 217.0508
1203.388, 249.0703
1204.471, 131.0742
1205.554, 178.0508
1206.637, 171.4336
1207.719, 295.9258
1208.802, 189.3359
1209.884, 229.2852
1210.966, 291.9648
1212.048, 265.8945
1213.130, 324.3203
1214.212, 103.7695
1215.293, 57.44141
1216.374, 150.2578
1217.456, 340.1758
1218.536, 408.2891
1219.617, 312.1445
1220.698, 68.01562
1221.778, 341.7305
1222.859, 109.4844
1223.939, 275.1602
1225.019, 330.9102
1226.099, 162.6758
1227.178, 109.4219
1228.258, 230.1523
1229.337, 277.3359
1230.417, 250.1641
1231.496, 110.1367
1232.574, 196.1367
1233.653, 224.7930
1234.732, 84.47656
1235.810, 389.1406
1236.888, 419.7930
1237.966, 48.44141
1239.044, 162.0742
1240.122, 23.69141
1241.199, 21.63281
1242.277, 57.20703
1243.354, 143.9570
1244.431, 214.4883
1245.508, 179.5781
1246.585, 185.5820
1247.661, 275.5664
1248.738, 293.5430
1249.814, 245.1953
1250.890, 111.9648
1251.966, 442.3867
1253.042, 262.7852
1254.117, 6.695313
1255.193, 377.1484
1256.268, 188.4727
1257.343, 177.0039
1258.418, 353.3828
1259.493, 175.8828
1260.567, 243.3984
1261.642, 312.6133
1262.716, 229.5430
1263.790, 276.7539
1264.864, 243.4219
1265.938, 301.0469
1267.011, 190.2539
1268.085, 204.9453
1269.158, 194.1875
1270.231, 159.5508
1271.304, 181.5586
1272.377, 202.7500
1273.450, 183.5469
1274.522, 94.94922
1275.594, 122.4961
1276.666, 139.0625
1277.738, 47.17578
1278.810, 243.7070
1279.882, 133.0742
1280.953, 256.3945
1282.025, 541.1172
1283.096, 228.5938
1284.167, 302.5234
1285.238, 69.13281
1286.308, 358.9062
1287.379, 307.8867
1288.449, 49.45703
1289.519, 159.8086
1290.589, 102.5859
1291.659, 155.4883
