##NAMES=Andalusite
##RRUFFID=R050626
##IDEAL CHEMISTRY=Al_2_SiO_5_
##LOCALITY=Minas Gerais, Brazil
##OWNER=RRUFF
##SOURCE=Gemological Center
##DESCRIPTION=Grayish brown fragment
##STATUS=The identification of this mineral has been confirmed by X-ray diffraction and chemical analysis
##URL=rruff.info/R050626
##MEASURED CHEMISTRY=(Al_1.99_Fe^3+^_0.01_)_Î£=1_Si_1.00_O_5_
##PIN_ID=L01690
##ORIENTATION=Laser parallel to b* (0 1 0). Fiducial mark perpendicular to laser is parallel to c [0 0 1]
123.0580, 0.0000000E+00
124.2880, 68.84351
125.5190, 29.95532
126.7490, 99.70337
127.9790, 123.8958
129.2090, 4.407227
130.4390, 206.1602
131.6680, 118.2881
132.8980, 105.0393
134.1270, 73.65723
135.3560, 73.18896
136.5850, 63.73901
137.8140, 123.3259
139.0430, 155.0059
140.2710, 135.8130
141.5000, 112.1726
142.7280, 160.8479
143.9560, 47.16260
145.1840, 82.75146
146.4120, 48.59521
147.6390, 111.7075
148.8670, 77.96582
150.0940, 94.63721
151.3210, 109.1235
152.5490, 92.00977
153.7750, 96.41699
155.0020, 106.3169
156.2290, 67.72656
157.4550, 64.42969
158.6810, 29.02979
159.9080, 11.08643
161.1340, 27.05908
162.3590, 29.96680
163.5850, 8.385254
164.8110, 7.214844
166.0360, 81.29639
167.2610, 108.9136
168.4860, 17.63232
169.7110, 53.44775
170.9360, 10.64648
172.1610, 98.34814
173.3850, 80.42920
174.6100, 41.59375
175.8340, 45.83984
177.0580, 89.16602
178.2820, 37.57080
179.5050, 51.44385
180.7290, 96.99219
181.9520, 28.61572
183.1760, 117.3179
184.3990, 140.1016
185.6220, 108.9697
186.8450, 169.9209
188.0670, 177.9546
189.2900, 185.0674
190.5120, 270.2568
191.7340, 257.5220
192.9560, 256.8604
194.1780, 308.2700
195.4000, 364.7500
196.6220, 340.2891
197.8430, 357.8545
199.0640, 442.4351
200.2860, 438.0093
201.5070, 432.6050
202.7270, 470.2236
203.9480, 554.8672
205.1690, 410.5376
206.3890, 336.2710
207.6090, 294.0303
208.8290, 132.8174
210.0490, 212.6333
211.2690, 90.47852
212.4890, 165.3550
213.7080, 100.2617
214.9280, 119.1992
216.1470, 111.1475
217.3660, 20.12109
218.5850, 108.1274
219.8030, 107.1689
221.0220, 133.2417
222.2400, 53.35010
223.4590, 109.4941
224.6770, 25.67773
225.8950, 155.9004
227.1120, 72.15820
228.3300, 155.4517
229.5480, 33.78076
230.7650, 10.14600
231.9820, 40.54639
233.1990, 99.98145
234.4160, 15.54883
235.6330, 49.95508
236.8490, 7.493652
238.0660, 40.07812
239.2820, 61.92480
240.4980, 59.31641
241.7140, 125.2109
242.9300, 101.1235
244.1460, 171.1089
245.3610, 226.1958
246.5770, 291.3657
247.7920, 250.5664
249.0070, 350.8330
250.2220, 381.1323
251.4370, 317.4575
252.6510, 460.8071
253.8660, 505.1836
255.0800, 471.5850
256.2940, 535.0117
257.5080, 526.4639
258.7220, 729.9404
259.9360, 848.4429
261.1490, 927.9697
262.3630, 1019.521
263.5760, 944.0991
264.7890, 1042.701
266.0020, 1175.328
267.2150, 1355.980
268.4270, 1486.657
269.6400, 1710.507
270.8520, 2100.170
272.0640, 2246.632
273.2760, 2659.944
274.4880, 3309.322
275.7000, 3941.271
276.9120, 4903.762
278.1230, 5820.305
279.3340, 7277.892
280.5450, 9227.521
281.7560, 11838.19
282.9670, 15366.90
284.1780, 19973.65
285.3880, 24179.45
286.5980, 28324.28
287.8090, 32566.37
289.0190, 38054.21
290.2290, 44169.08
291.4380, 49880.00
292.6480, 52672.96
293.8570, 51696.95
295.0670, 46325.98
296.2760, 38811.05
297.4850, 30441.15
298.6930, 22558.29
299.9020, 16352.46
301.1110, 11680.67
302.3190, 8697.907
303.5270, 6827.180
304.7350, 5633.485
305.9430, 4556.510
307.1510, 4071.975
308.3580, 3828.383
309.5660, 3893.810
310.7730, 4278.129
311.9800, 5273.614
313.1870, 6820.126
314.3940, 8579.669
315.6010, 9846.237
316.8070, 11399.66
318.0130, 13460.28
319.2200, 16384.93
320.4260, 19579.60
321.6310, 21880.30
322.8370, 21812.03
324.0430, 20208.78
325.2480, 17313.11
326.4540, 13899.90
327.6590, 10893.72
328.8640, 8502.571
330.0680, 6621.439
331.2730, 5598.332
332.4780, 4673.247
333.6820, 4339.184
334.8860, 3892.187
336.0900, 3543.168
337.2940, 3237.172
338.4980, 3107.197
339.7010, 2847.243
340.9050, 2516.311
342.1080, 2469.398
343.3110, 2274.506
344.5140, 2139.635
345.7170, 2176.785
346.9200, 2075.955
348.1220, 2270.147
349.3240, 2519.359
350.5270, 2872.592
351.7290, 3449.664
352.9310, 4126.937
354.1320, 4815.919
355.3340, 5417.883
356.5350, 6508.471
357.7370, 7392.104
358.9380, 8155.202
360.1390, 8465.511
361.3400, 8272.445
362.5400, 7717.553
363.7410, 6808.872
364.9410, 5632.700
366.1410, 4813.265
367.3410, 4107.177
368.5410, 3479.398
369.7410, 2944.938
370.9400, 2476.497
372.1400, 2228.146
373.3390, 1989.139
374.5380, 1708.750
375.7370, 1584.377
376.9360, 1527.032
378.1350, 1455.692
379.3330, 1385.217
380.5310, 1367.046
381.7300, 1497.756
382.9280, 1384.481
384.1260, 1397.224
385.3230, 1286.998
386.5210, 1200.770
387.7180, 1021.556
388.9160, 911.9429
390.1130, 795.4292
391.3100, 638.0400
392.5060, 595.8989
393.7030, 475.7832
394.9000, 435.6816
396.0960, 387.6060
397.2920, 415.5425
398.4880, 312.5107
399.6840, 252.4922
400.8800, 288.4863
402.0750, 191.4937
403.2710, 238.5122
404.4660, 234.5430
405.6610, 286.5859
406.8560, 231.6406
408.0510, 295.7065
409.2450, 346.7856
410.4400, 415.0474
411.6340, 512.9780
412.8280, 633.0908
414.0220, 679.2202
415.2160, 806.3657
416.4100, 958.5308
417.6030, 913.7134
418.7970, 984.9131
419.9900, 974.1357
421.1830, 901.3755
422.3760, 755.6313
423.5690, 552.9038
424.7610, 411.1914
425.9540, 219.4956
427.1460, 172.8154
428.3380, 187.1504
429.5300, 58.50000
430.7220, 61.13525
431.9140, 59.22363
433.1050, 143.5986
434.2970, 52.98730
435.4880, 1.391602
436.6790, 44.80859
437.8700, 14.24072
439.0610, 84.68652
440.2510, 168.1460
441.4420, 131.6191
442.6320, 299.1055
443.8220, 523.6055
445.0120, 933.1187
446.2020, 1217.645
447.3910, 1394.184
448.5810, 1589.735
449.7700, 2175.301
450.9600, 2829.882
452.1490, 3307.480
453.3370, 3217.092
454.5260, 2725.716
455.7150, 1887.350
456.9030, 1337.999
458.0910, 742.6592
459.2800, 402.3320
460.4670, 294.0161
461.6550, 195.7114
462.8430, 30.42041
464.0300, 114.1401
465.2180, 7.873047
466.4050, 32.62109
467.5920, 16.62012
468.7790, 99.14404
469.9650, 76.92041
471.1520, 105.7080
472.3380, 164.5049
473.5250, 60.31152
474.7110, 52.12793
475.8970, 210.9829
477.0820, 0.1518550
478.2680, 174.7397
479.4540, 61.64062
480.6390, 120.5640
481.8240, 153.5107
483.0090, 95.46582
484.1940, 106.4297
485.3780, 95.41064
486.5630, 100.4058
487.7470, 85.45605
488.9320, 35.51562
490.1160, 8.597656
491.3000, 4.687012
492.4830, 36.78418
493.6670, 35.10107
494.8500, 5.003906
496.0340, 31.86230
497.2170, 30.73828
498.4000, 2.618164
499.5820, 41.48340
500.7650, 83.36279
501.9480, 103.2524
503.1300, 7.178711
504.3120, 47.07959
505.4940, 31.97754
506.6760, 57.88574
507.8580, 86.81836
509.0390, 40.78955
510.2210, 8.760742
511.4020, 60.26611
512.5830, 55.29785
513.7640, 50.66455
514.9450, 20.64941
516.1250, 19.35693
517.3060, 74.36865
518.4860, 9.384766
519.6660, 48.40479
520.8460, 115.4292
522.0260, 5.458984
523.2060, 147.4912
524.3850, 130.5269
525.5650, 175.5669
526.7440, 11.61084
527.9230, 198.6577
529.1020, 77.70898
530.2810, 194.0308
531.4590, 383.7046
532.6380, 381.8315
533.8160, 486.9346
534.9940, 542.7666
536.1720, 620.9956
537.3500, 724.0029
538.5270, 950.0781
539.7050, 1199.394
540.8820, 1617.872
542.0590, 1986.952
543.2360, 2605.142
544.4130, 3360.226
545.5900, 4097.328
546.7660, 5040.496
547.9430, 5988.583
549.1190, 6924.674
550.2950, 7617.076
551.4710, 8195.169
552.6470, 8519.261
553.8220, 8353.354
554.9980, 7495.766
556.1730, 6360.860
557.3480, 5278.552
558.5230, 3860.648
559.6980, 3008.744
560.8730, 2330.840
562.0470, 1938.937
563.2220, 1554.033
564.3960, 1166.128
565.5700, 922.2236
566.7440, 854.3184
567.9170, 706.4131
569.0910, 732.5059
570.2640, 635.5991
571.4380, 559.6909
572.6110, 433.5513
573.7840, 461.6411
574.9570, 417.7300
576.1290, 374.8179
577.3020, 432.8970
578.4740, 242.9873
579.6460, 197.0767
580.8180, 276.1636
581.9900, 384.2505
583.1620, 189.3364
584.3330, 271.4204
585.5040, 231.5029
586.6760, 201.5830
587.8470, 231.6606
589.0180, 266.7368
590.1880, 194.8105
591.3590, 196.8818
592.5290, 148.9512
593.7000, 273.0181
594.8700, 162.0859
596.0400, 262.1514
597.2090, 321.6055
598.3790, 249.6650
599.5490, 346.9219
600.7180, 371.9756
601.8870, 428.0264
603.0560, 362.6494
604.2250, 405.6934
605.3940, 474.1611
606.5620, 521.1450
607.7300, 445.2803
608.8990, 451.8906
610.0670, 411.5083
611.2350, 378.5898
612.4020, 355.6079
613.5700, 442.6348
614.7370, 349.6450
615.9050, 301.3652
617.0720, 201.6582
618.2390, 317.4595
619.4060, 242.6694
620.5720, 285.5894
621.7390, 298.8984
622.9050, 342.8726
624.0710, 330.8418
625.2370, 375.0532
626.4030, 460.8008
627.5690, 440.9106
628.7340, 432.8599
629.9000, 433.5938
631.0650, 506.1396
632.2300, 416.0635
633.3950, 396.2515
634.5600, 363.3643
635.7240, 250.1182
636.8890, 224.3237
638.0530, 278.2871
639.2170, 199.4395
640.3810, 184.0298
641.5450, 156.8457
642.7080, 272.6509
643.8720, 193.5059
645.0350, 259.5132
646.1980, 217.5942
647.3610, 183.0591
648.5240, 125.7979
649.6870, 126.3267
650.8490, 116.0210
652.0120, 134.8149
653.1740, 206.6011
654.3360, 241.3076
655.4980, 258.6802
656.6600, 264.4438
657.8210, 323.2007
658.9830, 267.9395
660.1440, 296.6807
661.3050, 452.4150
662.4660, 425.0063
663.6270, 278.7251
664.7870, 469.4365
665.9480, 252.1401
667.1080, 261.8184
668.2680, 107.5073
669.4280, 0.1884770
670.5880, 41.84131
671.7480, 26.48096
672.9070, 76.10303
674.0670, 8.283203
675.2260, 65.29785
676.3850, 11.13037
677.5440, 95.40820
678.7030, 32.06201
679.8610, 50.42285
681.0200, 109.8965
682.1780, 68.36279
683.3360, 141.8198
684.4940, 77.26953
685.6520, 69.71094
686.8090, 108.1440
687.9670, 102.2275
689.1240, 52.98779
690.2810, 153.3955
691.4380, 148.7954
692.5950, 151.1875
693.7520, 51.57227
694.9080, 131.9468
696.0650, 38.31396
697.2210, 247.6680
698.3770, 205.0146
699.5330, 178.3540
700.6880, 303.6860
701.8440, 296.0107
702.9990, 274.3281
704.1550, 255.6387
705.3100, 489.9424
706.4650, 372.2383
707.6190, 565.5278
708.7740, 558.8096
709.9290, 782.0850
711.0830, 933.3535
712.2370, 1072.625
713.3910, 1303.890
714.5450, 1524.154
715.6980, 1620.413
716.8520, 1641.632
718.0050, 1696.881
719.1580, 1640.123
720.3110, 1655.650
721.4640, 1310.886
722.6170, 1157.115
723.7700, 886.3389
724.9220, 670.5557
726.0740, 602.7661
727.2260, 407.9697
728.3780, 309.1680
729.5300, 294.3599
730.6810, 282.5449
731.8330, 143.7241
732.9840, 159.7412
734.1350, 134.9082
735.2860, 35.06934
736.4370, 170.2202
737.5880, 43.36523
738.7380, 139.5020
739.8880, 60.63281
741.0390, 25.75732
742.1890, 88.87061
743.3380, 29.97852
744.4880, 14.07568
745.6380, 45.15869
746.7870, 42.23438
747.9360, 22.30664
749.0850, 46.36719
750.2340, 63.42236
751.3830, 49.47217
752.5310, 55.51660
753.6800, 85.44385
754.8280, 29.53271
755.9760, 40.49951
757.1240, 31.42969
758.2720, 25.64795
759.4190, 32.75684
760.5670, 58.10059
761.7140, 128.9531
762.8610, 8.198730
764.0080, 1.629395
765.1550, 160.5591
766.3020, 40.15283
767.4480, 37.13916
768.5950, 58.53516
769.7410, 62.20508
770.8870, 19.12793
772.0330, 31.51465
773.1780, 63.83838
774.3240, 123.7632
775.4690, 5.370605
776.6140, 26.02588
777.7590, 46.55420
778.9040, 79.85840
780.0490, 16.30176
781.1940, 78.73975
782.3380, 68.22510
783.4820, 15.25684
784.6260, 52.74365
785.7700, 82.24365
786.9140, 51.23535
788.0580, 74.26221
789.2010, 98.76221
790.3450, 23.26172
791.4880, 106.7593
792.6310, 56.27051
793.7730, 139.7876
794.9160, 104.3047
796.0590, 42.82178
797.2010, 133.3389
798.3430, 38.85547
799.4850, 266.3730
800.6270, 204.8916
801.7690, 107.4102
802.9100, 377.9302
804.0520, 374.4507
805.1930, 328.9727
806.3340, 313.4956
807.4750, 455.7524
808.6160, 419.6626
809.7560, 411.1235
810.8970, 364.6138
812.0370, 312.3804
813.1770, 352.7554
814.3170, 396.3560
815.4570, 428.8945
816.5960, 299.1982
817.7360, 466.3438
818.8750, 410.8926
820.0140, 557.3374
821.1530, 569.8936
822.2920, 430.4385
823.4310, 560.9214
824.5690, 619.4902
825.7070, 737.0625
826.8460, 957.3276
827.9840, 949.9097
829.1220, 1213.497
830.2590, 1149.089
831.3970, 1363.371
832.5340, 1484.973
833.6710, 1528.985
834.8080, 1594.600
835.9450, 1382.220
837.0820, 1425.846
838.2190, 1283.479
839.3550, 899.1187
840.4910, 845.7642
841.6270, 737.4170
842.7630, 424.0762
843.8990, 365.7422
845.0350, 233.4155
846.1700, 70.14990
847.3060, 235.8384
848.4410, 105.5425
849.5760, 101.2456
850.7100, 123.1782
851.8450, 38.25342
852.9800, 31.46924
854.1140, 23.25635
855.2480, 118.9893
856.3820, 12.26855
857.5160, 114.1514
858.6500, 80.02148
859.7830, 11.78516
860.9170, 90.55811
862.0500, 32.34814
863.1830, 119.1387
864.3160, 592.9385
865.4480, 269.0898
866.5810, 730.5664
867.7130, 17.39453
868.8460, 30.76758
869.9780, 105.0713
871.1100, 131.9209
872.2410, 92.39014
873.3730, 119.2598
874.5050, 195.9404
875.6360, 51.83154
876.7670, 237.7334
877.8980, 268.0703
879.0290, 358.9941
880.1590, 318.5015
881.2900, 357.5020
882.4200, 349.3589
883.5500, 326.8564
884.6800, 427.7295
885.8100, 474.5239
886.9400, 623.5269
888.0690, 627.5327
889.1990, 734.5640
890.3280, 718.8926
891.4570, 831.6577
892.5860, 1005.880
893.7140, 1125.746
894.8430, 1291.909
895.9710, 1396.693
897.1000, 1573.820
898.2280, 1990.970
899.3560, 2213.313
900.4830, 2603.276
901.6110, 2845.314
902.7380, 3190.522
903.8660, 3808.340
904.9930, 4495.584
906.1200, 5261.846
907.2460, 6124.854
908.3730, 7489.141
909.5000, 9383.614
910.6260, 11814.96
911.7520, 15191.59
912.8780, 19641.44
914.0040, 25233.86
915.1290, 31549.61
916.2550, 38160.22
917.3800, 44332.17
918.5050, 49722.85
919.6300, 52955.26
920.7550, 52159.81
921.8800, 47631.40
923.0040, 40375.29
924.1290, 32885.91
925.2530, 25956.55
926.3770, 20674.23
927.5010, 16646.93
928.6250, 14096.66
929.7480, 11698.41
930.8720, 9832.176
931.9950, 8473.963
933.1180, 7287.788
934.2410, 6138.635
935.3640, 5135.500
936.4860, 4504.404
937.6090, 3890.330
938.7310, 3564.275
939.8530, 3331.246
940.9750, 3211.236
942.0970, 3153.248
943.2180, 3401.290
944.3400, 3691.356
945.4610, 3951.447
946.5820, 4147.561
947.7030, 4555.707
948.8240, 4706.891
949.9450, 4994.109
951.0650, 4985.350
952.1860, 4664.635
953.3060, 4307.943
954.4260, 3824.274
955.5460, 3002.629
956.6650, 2444.016
957.7850, 1973.425
958.9040, 1555.855
960.0230, 1415.310
961.1420, 1040.797
962.2610, 900.3076
963.3800, 757.8398
964.4990, 667.3936
965.6170, 463.9697
966.7350, 328.5928
967.8530, 363.2373
968.9710, 239.9365
970.0890, 226.6562
971.2070, 330.3984
972.3240, 55.16309
973.4410, 100.9492
974.5580, 130.7568
975.6750, 135.5859
976.7920, 127.4385
977.9090, 37.31152
979.0250, 40.20703
980.1410, 5.875000
981.2580, 64.06348
982.3740, 2.034180
983.4890, 60.02734
984.6050, 65.95801
985.7200, 28.93066
986.8360, 38.88672
987.9510, 42.20996
989.0660, 67.29395
990.1810, 18.39941
991.2950, 81.76465
992.4100, 12.62012
993.5240, 56.54297
994.6390, 121.7305
995.7530, 1.939453
996.8660, 107.1709
997.9800, 159.4238
999.0940, 155.6992
1000.207, 434.9961
1001.320, 313.3164
1002.433, 474.6582
1003.546, 472.1875
1004.659, 409.5840
1005.772, 656.0010
1006.884, 797.4434
1007.996, 784.9072
1009.108, 882.3945
1010.220, 1153.912
1011.332, 1350.458
1012.444, 1679.033
1013.555, 2058.632
1014.666, 2433.255
1015.777, 2821.002
1016.888, 3312.674
1017.999, 3555.369
1019.110, 3909.088
1020.220, 3956.831
1021.331, 3908.595
1022.441, 3606.382
1023.551, 3218.189
1024.661, 2624.049
1025.770, 2226.931
1026.880, 1834.851
1027.989, 1584.796
1029.098, 1272.773
1030.207, 1278.021
1031.316, 1021.487
1032.425, 1089.546
1033.533, 671.2998
1034.642, 696.4150
1035.750, 709.5996
1036.858, 688.8037
1037.966, 692.0449
1039.073, 706.3125
1040.181, 682.6006
1041.288, 698.3760
1042.396, 751.9336
1043.503, 779.0977
1044.610, 894.5000
1045.716, 947.9258
1046.823, 1053.186
1047.929, 1166.663
1049.036, 1223.832
1050.142, 1426.383
1051.248, 1606.978
1052.353, 1867.090
1053.459, 2065.744
1054.564, 2630.787
1055.670, 3226.591
1056.775, 3961.318
1057.880, 4995.065
1058.985, 6409.810
1060.089, 8332.492
1061.194, 10405.29
1062.298, 12772.18
1063.402, 14921.02
1064.506, 16861.88
1065.610, 17499.79
1066.713, 17582.68
1067.817, 15831.61
1068.920, 13688.86
1070.023, 10988.83
1071.126, 8739.814
1072.229, 6801.661
1073.332, 5294.679
1074.435, 4038.714
1075.537, 3429.764
1076.639, 2806.830
1077.741, 2224.911
1078.843, 1992.008
1079.945, 1618.121
1081.046, 1380.893
1082.148, 1207.037
1083.249, 977.1943
1084.350, 709.6289
1085.451, 725.8164
1086.551, 728.0166
1087.652, 588.8281
1088.752, 657.4561
1089.853, 598.6992
1090.953, 569.9561
1092.053, 499.4443
1093.152, 559.5146
1094.252, 484.8115
1095.351, 625.1221
1096.451, 396.4678
1097.550, 527.8027
1098.649, 660.5908
1099.748, 609.9512
1100.846, 806.1582
1101.945, 866.5439
1103.043, 834.9395
1104.141, 1000.346
1105.239, 1083.763
1106.337, 1190.191
1107.434, 1370.631
1108.532, 1493.080
1109.629, 1612.540
1110.726, 1514.013
1111.823, 1420.497
1112.920, 1385.941
1114.017, 1412.682
1115.113, 1134.191
1116.210, 900.8359
1117.306, 939.1533
1118.402, 642.3457
1119.498, 585.3516
1120.593, 626.9229
1121.689, 502.5195
1122.784, 411.1084
1123.879, 469.0049
1124.974, 441.5029
1126.069, 392.1191
1127.164, 375.9775
1128.259, 390.3691
1129.353, 269.0107
1130.447, 205.6592
1131.541, 141.3164
1132.635, 155.9805
1133.729, 72.65234
1134.822, 79.42969
1135.916, 119.1191
1137.009, 112.8164
1138.102, 37.52148
1139.195, 208.2324
1140.288, 83.95020
1141.380, 105.4189
1142.473, 194.4238
1143.565, 53.16211
1144.657, 20.20898
1145.749, 91.95605
1146.841, 2.291992
1147.932, 172.4629
1149.024, 206.2236
1150.115, 67.98828
1151.206, 70.75684
1152.297, 40.53125
1153.388, 40.60938
1154.479, 83.09180
1155.569, 120.8799
1156.659, 56.67090
1157.750, 112.4648
1158.839, 173.2627
1159.929, 59.06445
1161.019, 4.130859
1162.108, 30.32520
1163.198, 21.46875
1164.287, 13.73438
1165.376, 16.78125
1166.465, 10.13574
1167.553, 56.74219
1168.642, 12.53906
1169.730, 21.41797
1170.818, 62.22070
1171.906, 60.97070
1172.994, 63.80762
1174.082, 99.58594
1175.170, 124.3652
1176.257, 23.14453
1177.344, 64.07422
1178.431, 88.67188
1179.518, 92.58203
1180.605, 89.11426
1181.691, 119.8145
1182.778, 3.486328
1183.864, 143.2061
1184.950, 53.09863
1186.036, 5.565430
1187.122, 23.22461
1188.207, 54.88184
1189.292, 27.46191
1190.378, 58.82617
1191.463, 111.7725
1192.548, 9.369141
1193.632, 213.3447
1194.717, 61.17383
1195.801, 58.13086
1196.886, 83.01465
1197.970, 177.0391
1199.054, 59.65527
1200.137, 114.9062
1201.221, 89.73828
1202.305, 1.759766
1203.388, 125.7305
1204.471, 120.2168
1205.554, 95.71973
1206.637, 27.21680
1207.719, 30.71094
1208.802, 41.19922
1209.884, 49.68457
1210.966, 43.82910
1212.048, 85.62109
1213.130, 79.07422
1214.212, 4.478516
1215.293, 81.95215
1216.374, 96.37793
1217.456, 8.797852
1218.536, 20.79297
1219.617, 160.5889
1220.698, 72.96387
1221.778, 21.33691
1222.859, 25.26855
1223.939, 224.0635
1225.019, 60.38672
1226.099, 33.70703
1227.178, 62.02051
1228.258, 65.49023
1229.337, 162.7666
1230.417, 86.97168
1231.496, 42.21289
1232.574, 162.3906
1233.653, 99.56152
1234.732, 152.7246
1235.810, 144.8799
1236.888, 135.0293
1237.966, 176.1719
1239.044, 128.3076
1240.122, 57.06152
1241.199, 95.39160
1242.277, 167.0459
1243.354, 9.566406
1244.431, 169.5098
1245.508, 40.01074
1246.585, 142.0723
1247.661, 110.1309
1248.738, 76.18359
1249.814, 137.2314
1250.890, 55.26953
1251.966, 98.29980
1253.042, 2.678711
1254.117, 60.32520
1255.193, 115.3193
1256.268, 191.3057
1257.343, 221.2832
1258.418, 136.2510
1259.493, 94.27734
1260.567, 98.22754
1261.642, 140.1689
1262.716, 185.1016
1263.790, 1.974609
1264.864, 240.9189
1265.938, 133.8330
1267.011, 114.7842
1268.085, 210.6504
1269.158, 151.5059
1270.231, 5.351563
1271.304, 15.17090
1272.377, 22.29199
1273.450, 47.75000
1274.522, 97.51758
1275.594, 160.2734
1276.666, 122.9238
1277.738, 120.6680
1278.810, 141.3936
1279.882, 190.1094
1280.953, 116.8135
1282.025, 184.5498
1283.096, 145.2607
1284.167, 178.9336
1285.238, 153.7686
1286.308, 223.4189
1287.379, 191.0586
1288.449, 170.6855
1289.519, 219.7578
1290.589, 180.1338
1291.659, 241.2969
1292.729, 107.8828
1293.798, 72.79004
1294.868, 121.3496
1295.937, 102.9385
1297.006, 142.8945
1298.075, 25.54980
1299.143, 207.0674
1300.212, 164.4414
1301.280, 143.4785
1302.348, 278.9600
