##NAMES=Andalusite
##RRUFFID=R050561
##IDEAL CHEMISTRY=Al_2_SiO_5_
##LOCALITY=Cargo Muchacho Mountain, Imperial County, California
##OWNER=RRUFF
##SOURCE=Dave Bunk Minerals
##DESCRIPTION=Brown coarsely crystalline massive
##STATUS=The identification of this mineral has been confirmed by X-ray diffraction and chemical analysis
##URL=rruff.info/R050561
##MEASURED CHEMISTRY=(Al_1.98_Fe^3+^_0.02_)_Î£=2_Si_1.00_O_5_
##PIN_ID=M00237
##ORIENTATION=Laser parallel to c* (0 0 1). Fiducial mark perpendicular to laser is parallel to 1 0 0
157.4550, 0.0000000E+00
158.6810, 8.656738
159.9080, 3.731934
161.1340, 49.15430
162.3590, 46.47607
163.5850, 231.3364
164.8110, 421.1963
166.0360, 613.1787
167.2610, 573.8232
168.4860, 454.6743
169.7110, 596.0093
170.9360, 691.1870
172.1610, 468.8242
173.3850, 456.3745
174.6100, 384.7148
175.8340, 383.8467
177.0580, 394.9771
178.2820, 478.5513
179.5050, 463.7202
180.7290, 531.0522
181.9520, 603.7051
183.1760, 557.7749
184.3990, 654.4219
185.6220, 820.1250
186.8450, 1060.556
188.0670, 1318.177
189.2900, 1552.544
190.5120, 1679.627
191.7340, 1881.872
192.9560, 1934.350
194.1780, 2023.088
195.4000, 2113.068
196.6220, 2197.274
197.8430, 2001.691
199.0640, 2013.307
200.2860, 2080.111
201.5070, 2384.092
202.7270, 2417.240
203.9480, 1890.545
205.1690, 1027.000
206.3890, 474.5957
207.6090, 62.34180
208.8290, 26.23828
210.0490, 125.2778
211.2690, 20.55762
212.4890, 28.72266
213.7080, 16.11572
214.9280, 146.6162
216.1470, 87.22168
217.3660, 13.92920
218.5850, 104.2646
219.8030, 37.29248
221.0220, 117.2300
222.2400, 87.07959
223.4590, 43.84229
224.6770, 83.52051
225.8950, 68.91162
227.1120, 138.8438
228.3300, 292.9272
229.5480, 552.0747
230.7650, 730.2690
231.9820, 1106.492
233.1990, 1391.756
234.4160, 1713.065
235.6330, 2123.421
236.8490, 2388.825
238.0660, 2529.277
239.2820, 2601.775
240.4980, 2491.316
241.7140, 2418.900
242.9300, 2339.523
244.1460, 2081.187
245.3610, 1985.887
246.5770, 1775.620
247.7920, 1798.377
249.0070, 1615.156
250.2220, 1656.960
251.4370, 1553.790
252.6510, 1595.646
253.8660, 1720.531
255.0800, 1698.577
256.2940, 1867.867
257.5080, 1945.278
258.7220, 2496.741
259.9360, 2494.299
261.1490, 3311.798
262.3630, 2925.225
263.5760, 3247.550
264.7890, 3835.828
266.0020, 4805.137
267.2150, 5384.121
268.4270, 6886.857
269.6400, 7224.269
270.8520, 8117.713
272.0640, 9527.191
273.2760, 10464.71
274.4880, 11554.26
275.7000, 12824.84
276.9120, 14544.47
278.1230, 16881.12
279.3340, 20518.82
280.5450, 24857.67
281.7560, 29880.41
282.9670, 35391.18
284.1780, 40357.99
285.3880, 44311.84
286.5980, 47797.72
287.8090, 50250.64
289.0190, 49912.59
290.2290, 48400.58
291.4380, 44817.61
292.6480, 40517.67
293.8570, 35848.00
295.0670, 30006.23
296.2760, 24772.68
297.4850, 19826.38
298.6930, 15835.47
299.9020, 12896.50
301.1110, 10758.56
302.3190, 9173.651
303.5270, 8103.357
304.7350, 7564.033
305.9430, 7513.826
307.1510, 7800.865
308.3580, 8623.002
309.5660, 10241.21
310.7730, 12560.48
311.9800, 14888.80
313.1870, 17160.15
314.3940, 19254.53
315.6010, 21121.93
316.8070, 23085.34
318.0130, 23565.78
319.2200, 23343.21
320.4260, 22350.63
321.6310, 20781.04
322.8370, 19284.44
324.0430, 17309.85
325.2480, 15310.25
326.4540, 13661.67
327.6590, 12371.10
328.8640, 11518.54
330.0680, 10958.94
331.2730, 10340.35
332.4780, 10132.79
333.6820, 9893.104
334.8860, 9415.248
336.0900, 9498.265
337.2940, 9184.234
338.4980, 8954.248
339.7010, 8771.302
340.9050, 8747.403
342.1080, 8754.542
343.3110, 9062.726
344.5140, 9795.951
345.7170, 10875.21
346.9200, 12365.52
348.1220, 14160.86
349.3240, 16312.24
350.5270, 18329.35
351.7290, 20490.10
352.9310, 21893.94
354.1320, 23571.86
355.3340, 23506.65
356.5350, 23066.24
357.7370, 21978.32
358.9380, 20241.14
360.1390, 17808.66
361.3400, 15487.18
362.5400, 13144.87
363.7410, 10849.83
364.9410, 9147.019
366.1410, 7497.420
367.3410, 6139.837
368.5410, 5218.958
369.7410, 4560.836
370.9400, 3889.813
372.1400, 3505.823
373.3390, 3093.858
374.5380, 2788.921
375.7370, 2538.010
376.9360, 2301.126
378.1350, 2250.269
379.3330, 2012.441
380.5310, 1842.640
381.7300, 1737.876
382.9280, 1547.140
384.1260, 1509.451
385.3230, 1256.787
386.5210, 1092.149
387.7180, 991.5361
388.9160, 899.9746
390.1130, 838.4443
391.3100, 755.9590
392.5060, 609.4980
393.7030, 481.0625
394.9000, 353.6509
396.0960, 299.2646
397.2920, 209.9028
398.4880, 99.56543
399.6840, 120.2515
400.8800, 113.9604
402.0750, 61.30811
403.2710, 80.43213
404.4660, 78.19434
405.6610, 125.9775
406.8560, 326.7837
408.0510, 317.6118
409.2450, 340.4634
410.4400, 448.3379
411.6340, 524.2344
412.8280, 561.1543
414.0220, 606.0967
415.2160, 528.0610
416.4100, 520.0479
417.6030, 593.0566
418.7970, 400.0874
419.9900, 472.1396
421.1830, 419.2134
422.3760, 230.3091
423.5690, 36.42627
424.7610, 42.54932
425.9540, 23.69385
427.1460, 17.14014
428.3380, 34.95801
429.5300, 191.7622
430.7220, 152.5889
431.9140, 123.4272
433.1050, 6.271973
434.2970, 9.901855
435.4880, 17.90381
436.6790, 26.69287
437.8700, 84.52002
439.0610, 129.6733
440.2510, 296.8184
441.4420, 516.9805
442.6320, 933.1587
443.8220, 1304.358
445.0120, 1447.580
446.2020, 1620.823
447.3910, 1844.091
448.5810, 2084.383
449.7700, 2027.699
450.9600, 1859.039
452.1490, 1552.401
453.3370, 1371.786
454.5260, 950.1919
455.7150, 706.6196
456.9030, 572.0693
458.0910, 443.5400
459.2800, 347.0317
460.4670, 300.7163
461.6550, 236.0796
462.8430, 310.6343
464.0300, 288.2109
465.2180, 408.8086
466.4050, 434.4272
467.5920, 467.0996
468.7790, 510.7290
469.9650, 536.4111
471.1520, 589.1147
472.3380, 627.8394
473.5250, 673.5850
474.7110, 583.3516
475.8970, 732.1396
477.0820, 692.9487
478.2680, 835.7827
479.4540, 703.6514
480.6390, 657.5503
481.8240, 673.4961
483.0090, 534.4775
484.1940, 510.5039
485.3780, 395.5977
486.5630, 310.7295
487.7470, 207.9229
488.9320, 13.16992
490.1160, 50.45947
491.3000, 14.82861
492.4830, 139.7275
493.6670, 132.2905
494.8500, 185.8472
496.0340, 172.4390
497.2170, 54.05029
498.4000, 94.62451
499.5820, 12.18506
500.7650, 34.72217
501.9480, 45.23242
503.1300, 44.73828
504.3120, 8.758301
505.4940, 225.2749
506.6760, 148.8389
507.8580, 327.4336
509.0390, 402.0791
510.2210, 382.7661
511.4020, 412.4839
512.5830, 429.2422
513.7640, 431.7969
514.9450, 460.0762
516.1250, 448.8848
517.3060, 459.7109
518.4860, 460.6396
519.6660, 465.4980
520.8460, 538.7100
522.0260, 499.9946
523.2060, 518.6484
524.3850, 454.8252
525.5650, 509.4438
526.7440, 465.3936
527.9230, 634.3574
529.1020, 601.3359
530.2810, 842.0249
531.4590, 709.9478
532.6380, 991.2637
533.8160, 1116.295
534.9940, 1403.338
536.1720, 1835.395
537.3500, 2316.462
538.5270, 3048.542
539.7050, 3917.634
540.8820, 4797.736
542.0590, 5782.850
543.2360, 6664.976
544.4130, 7305.463
545.5900, 7968.611
546.7660, 8146.768
547.9430, 8055.937
549.1190, 7854.115
550.2950, 7290.303
551.4710, 6676.504
552.6470, 6137.712
553.8220, 5343.931
554.9980, 4513.157
556.1730, 3796.394
557.3480, 3245.640
558.5230, 2743.895
559.6980, 2580.159
560.8730, 2464.431
562.0470, 2363.710
563.2220, 2364.999
564.3960, 2518.296
565.5700, 2586.601
566.7440, 2661.913
567.9170, 2640.232
569.0910, 2722.875
570.2640, 2776.803
571.4380, 2588.458
572.6110, 2379.416
573.7840, 2254.970
574.9570, 2161.143
576.1290, 1977.643
577.3020, 1781.460
578.4740, 1554.979
579.6460, 1452.604
580.8180, 1307.272
581.9900, 1210.602
583.1620, 1152.062
584.3330, 1086.459
585.5040, 1090.234
586.6760, 1072.037
587.8470, 1098.878
589.0180, 1169.727
590.1880, 1206.604
591.3590, 1103.487
592.5290, 1242.379
593.7000, 1426.275
594.8700, 1428.175
596.0400, 1691.081
597.2090, 1646.993
598.3790, 1827.909
599.5490, 1842.829
600.7180, 1774.752
601.8870, 1946.679
603.0560, 1939.609
604.2250, 1829.541
605.3940, 1696.477
606.5620, 1578.415
607.7300, 1445.724
608.8990, 1260.297
610.0670, 1171.241
611.2350, 987.1870
612.4020, 835.1338
613.5700, 793.0820
614.7370, 704.8804
615.9050, 670.1587
617.0720, 665.9644
618.2390, 717.2393
619.4060, 746.6587
620.5720, 936.1250
621.7390, 870.2061
622.9050, 843.9438
624.0710, 938.8359
625.2370, 845.9409
626.4030, 878.2822
627.5690, 818.3359
628.7340, 698.3325
629.9000, 675.7705
631.0650, 554.2642
632.2300, 448.6509
633.3950, 420.9741
634.5600, 410.3608
635.7240, 307.7124
636.8890, 398.1387
638.0530, 335.5698
639.2170, 333.3062
640.3810, 328.7544
641.5450, 318.2114
642.7080, 465.4727
643.8720, 333.7188
645.0350, 408.7637
646.1980, 436.5776
647.3610, 298.3818
648.5240, 340.1748
649.6870, 124.9575
650.8490, 94.72852
652.0120, 86.48877
653.1740, 9.236816
654.3360, 56.96826
655.4980, 137.6870
656.6600, 87.39453
657.8210, 20.08838
658.9830, 41.76807
660.1440, 9.655762
661.3050, 139.0830
662.4660, 20.28174
663.6270, 14.31738
664.7870, 60.10059
665.9480, 397.4233
667.1080, 142.1392
668.2680, 181.4307
669.4280, 75.08643
670.5880, 1.329590
671.7480, 52.28027
672.9070, 95.05518
674.0670, 118.3760
675.2260, 245.6821
676.3850, 79.97314
677.5440, 110.2495
678.7030, 234.5107
679.8610, 286.7568
681.0200, 346.9873
682.1780, 367.7930
683.3360, 403.4023
684.4940, 391.5991
685.6520, 413.7803
686.8090, 496.9458
687.9670, 422.0957
689.1240, 449.2285
690.2810, 517.3457
691.4380, 555.4458
692.5950, 475.5303
693.7520, 586.5981
694.9080, 502.6489
696.0650, 659.6831
697.2210, 673.7002
698.3770, 637.7012
699.5330, 719.6851
700.6880, 728.6514
701.8440, 899.6006
702.9990, 971.5322
704.1550, 1151.447
705.3100, 973.3438
706.4650, 1255.223
707.6190, 1432.125
708.7740, 1815.733
709.9290, 1947.223
711.0830, 2016.453
712.2370, 2258.501
713.3910, 2423.483
714.5450, 2344.744
715.6980, 2525.105
716.8520, 2176.846
718.0050, 2104.057
719.1580, 1818.874
720.3110, 1498.043
721.4640, 1358.995
722.6170, 1163.090
723.7700, 852.3975
724.9220, 701.7559
726.0740, 552.3638
727.2260, 446.2314
728.3780, 382.6284
729.5300, 317.5747
730.6810, 251.1807
731.8330, 339.7114
732.9840, 280.2163
734.1350, 459.6958
735.2860, 434.3843
736.4370, 460.8130
737.5880, 423.2168
738.7380, 492.5942
739.8880, 495.9468
741.0390, 496.2739
742.1890, 460.5752
743.3380, 496.8506
744.4880, 428.1011
745.6380, 445.3257
746.7870, 442.5244
747.9360, 363.6982
749.0850, 317.8452
750.2340, 308.9668
751.3830, 260.0635
752.5310, 203.1338
753.6800, 155.1782
754.8280, 179.1963
755.9760, 113.1890
757.1240, 28.15234
758.2720, 53.06641
759.4190, 18.06104
760.5670, 20.73975
761.7140, 15.51221
762.8610, 98.83545
764.0080, 8.726074
765.1550, 82.76953
766.3020, 50.37109
767.4480, 10.06201
768.5950, 154.8193
769.7410, 137.7202
770.8870, 52.75488
772.0330, 95.84814
773.1780, 33.02393
774.3240, 70.23535
775.4690, 81.50635
776.6140, 23.86768
777.7590, 28.71875
778.9040, 12.73584
780.0490, 66.75146
781.1940, 111.2153
782.3380, 108.6631
783.4820, 206.0840
784.6260, 184.4819
785.7700, 211.8569
786.9140, 167.2080
788.0580, 311.5366
789.2010, 292.8428
790.3450, 369.1265
791.4880, 528.1206
792.6310, 488.3594
793.7730, 673.5762
794.9160, 723.7715
796.0590, 940.8564
797.2010, 1152.008
798.3430, 1314.800
799.4850, 1559.909
800.6270, 1844.854
801.7690, 2009.666
802.9100, 2203.029
804.0520, 2357.056
805.1930, 2309.063
806.3340, 2099.051
807.4750, 2031.323
808.6160, 1840.355
809.7560, 1614.989
810.8970, 1373.902
812.0370, 1196.798
813.1770, 939.6768
814.3170, 1020.538
815.4570, 680.3813
816.5960, 666.2090
817.7360, 673.0186
818.8750, 481.8125
820.0140, 546.5898
821.1530, 560.3516
822.2920, 634.0967
823.4310, 638.8262
824.5690, 823.5400
825.7070, 802.2388
826.8460, 1047.923
827.9840, 1070.591
829.1220, 1230.245
830.2590, 1118.884
831.3970, 1107.510
832.5340, 1123.121
833.6710, 1045.718
834.8080, 854.3013
835.9450, 798.8716
837.0820, 586.4277
838.2190, 365.9712
839.3550, 385.5010
840.4910, 271.0186
841.6270, 170.5229
842.7630, 74.01562
843.8990, 43.49561
845.0350, 22.03711
846.1700, 148.6016
847.3060, 81.26416
848.4410, 8.012207
849.5760, 94.72705
850.7100, 68.53467
851.8450, 71.39600
852.9800, 174.3101
854.1140, 119.3330
855.2480, 130.4331
856.3820, 105.6162
857.5160, 87.70850
858.6500, 7.179199
859.7830, 80.50635
860.9170, 82.88623
862.0500, 120.3208
863.1830, 4.827148
864.3160, 88.34619
865.4480, 37.08008
866.5810, 13.50098
867.7130, 64.90332
868.8460, 124.3008
869.9780, 161.6909
871.1100, 9.516113
872.2410, 194.5542
873.3730, 317.0806
874.5050, 362.4238
875.6360, 99.40576
876.7670, 234.5312
877.8980, 210.0903
879.0290, 279.5557
880.1590, 475.8892
881.2900, 498.2178
882.4200, 666.5425
883.5500, 572.8633
884.6800, 777.1807
885.8100, 813.4946
886.9400, 845.8047
888.0690, 986.1123
889.1990, 1088.417
890.3280, 1298.688
891.4570, 1452.897
892.5860, 1599.968
893.7140, 1851.806
894.8430, 2059.595
895.9710, 2311.783
897.1000, 2517.312
898.2280, 2944.686
899.3560, 3380.846
900.4830, 3910.777
901.6110, 4690.996
902.7380, 5431.272
903.8660, 6292.109
904.9930, 7698.895
906.1200, 9351.786
907.2460, 11862.08
908.3730, 15248.70
909.5000, 19563.34
910.6260, 25372.67
911.7520, 32179.34
912.8780, 39351.67
914.0040, 45633.11
915.1290, 50413.25
916.2550, 52600.95
917.3800, 52187.29
918.5050, 49876.63
919.6300, 44995.20
920.7550, 38878.81
921.8800, 33171.43
923.0040, 27038.10
924.1290, 22530.78
925.2530, 18862.49
926.3770, 15748.21
927.5010, 13740.95
928.6250, 12304.70
929.7480, 10829.48
930.8720, 9885.270
931.9950, 9118.078
933.1180, 8509.902
934.2410, 8327.743
935.3640, 8265.017
936.4860, 8668.575
937.6090, 9068.528
938.7310, 9983.520
939.8530, 11235.55
940.9750, 12556.61
942.0970, 14239.69
943.2180, 16607.81
944.3400, 19110.96
945.4610, 21207.17
946.5820, 22912.41
947.7030, 23976.67
948.8240, 24176.96
949.9450, 23194.28
951.0650, 21171.62
952.1860, 19140.98
953.3060, 16303.38
954.4260, 13767.80
955.5460, 11429.23
956.6650, 9464.695
957.7850, 7768.177
958.9040, 6350.701
960.0230, 5156.261
961.1420, 4335.854
962.2610, 3651.477
963.3800, 2999.124
964.4990, 2584.788
965.6170, 2127.473
966.7350, 1879.174
967.8530, 1874.896
968.9710, 1537.637
970.0890, 1487.397
971.2070, 1073.177
972.3240, 1068.977
973.4410, 1157.795
974.5580, 1005.635
975.6750, 789.5029
976.7920, 745.3896
977.9090, 720.3145
979.0250, 752.2275
980.1410, 561.4385
981.2580, 671.7793
982.3740, 607.4248
983.4890, 725.2881
984.6050, 658.2480
985.7200, 517.9375
986.8360, 560.5371
987.9510, 613.7744
989.0660, 569.5742
990.1810, 682.7754
991.2950, 748.6328
992.4100, 536.7158
993.5240, 659.6660
994.6390, 761.4072
995.7530, 864.1006
996.8660, 911.5488
997.9800, 1170.741
999.0940, 1203.408
1000.207, 1411.913
1001.320, 1776.032
1002.433, 2233.593
1003.546, 2570.184
1004.659, 3045.805
1005.772, 3458.223
1006.884, 4393.901
1007.996, 5613.611
1009.108, 6860.350
1010.220, 8485.124
1011.332, 10357.93
1012.444, 12536.76
1013.555, 14627.61
1014.666, 16556.50
1015.777, 18018.41
1016.888, 18612.36
1017.999, 18588.34
1019.110, 17782.34
1020.220, 16399.37
1021.331, 14563.43
1022.441, 12735.52
1023.551, 11114.64
1024.661, 9600.087
1025.770, 8236.890
1026.880, 7038.754
1027.989, 5961.998
1029.098, 5199.306
1030.207, 4466.637
1031.316, 3978.012
1032.425, 3428.437
1033.533, 2991.810
1034.642, 2602.596
1035.750, 2375.204
1036.858, 2174.534
1037.966, 2065.282
1039.073, 2021.147
1040.181, 1912.268
1041.288, 1834.407
1042.396, 1799.150
1043.503, 1775.357
1044.610, 1784.948
1045.716, 1870.698
1046.823, 1899.943
1047.929, 2117.629
1049.036, 2290.383
1050.142, 2554.834
1051.248, 2965.216
1052.353, 3280.934
1053.459, 4225.650
1054.564, 5146.475
1055.670, 6758.275
1056.775, 8279.713
1057.880, 10415.32
1058.985, 13038.88
1060.089, 13999.46
1061.194, 14912.06
1062.298, 15143.33
1063.402, 14365.08
1064.506, 13103.87
1065.610, 11320.73
1066.713, 9555.524
1067.817, 7904.141
1068.920, 6378.900
1070.023, 5063.193
1071.126, 4245.988
1072.229, 3576.016
1073.332, 2965.935
1074.435, 2777.167
1075.537, 2352.229
1076.639, 2123.269
1077.741, 1921.511
1078.843, 1880.217
1079.945, 1848.759
1081.046, 1766.577
1082.148, 1685.045
1083.249, 1576.207
1084.350, 1528.418
1085.451, 1693.055
1086.551, 1610.272
1087.652, 1809.342
1088.752, 1715.426
1089.853, 1780.824
1090.953, 1922.561
1092.053, 2047.095
1093.152, 2117.289
1094.252, 2217.198
1095.351, 2498.203
1096.451, 2852.391
1097.550, 3178.656
1098.649, 3666.869
1099.748, 4121.212
1100.846, 4705.523
1101.945, 5284.931
1103.043, 6151.195
1104.141, 6650.470
1105.239, 7143.757
1106.337, 7263.662
1107.434, 7220.389
1108.532, 6970.710
1109.629, 6504.043
1110.726, 5918.992
1111.823, 5182.345
1112.920, 4334.720
1114.017, 3675.147
1115.113, 3069.609
1116.210, 2601.300
1117.306, 2023.701
1118.402, 1758.675
1119.498, 1404.821
1120.593, 1162.852
1121.689, 1178.946
1122.784, 923.4775
1123.879, 939.4668
1124.974, 1064.020
1126.069, 713.1670
1127.164, 706.9863
1128.259, 461.4072
1129.353, 345.2920
1130.447, 355.5518
1131.541, 317.9961
1132.635, 368.9434
1133.729, 188.8936
1134.822, 195.0967
1135.916, 257.9307
1137.009, 190.0830
1138.102, 221.1885
1139.195, 170.3086
1140.288, 184.6699
1141.380, 161.0674
1142.473, 171.0381
1143.565, 178.2471
1144.657, 162.1484
1145.749, 195.2812
1146.841, 181.7480
1147.932, 124.5068
1149.024, 170.6426
1150.115, 159.6123
1151.206, 141.8379
1152.297, 170.8252
1153.388, 119.8125
1154.479, 28.79883
1155.569, 42.78613
1156.659, 40.22852
1157.750, 28.25488
1158.839, 82.70996
1159.929, 80.32520
1161.019, 96.60840
1162.108, 27.53906
1163.198, 104.4678
1164.287, 54.60742
1165.376, 11.70605
1166.465, 47.18848
1167.553, 24.92090
1168.642, 33.04297
1169.730, 1.181641
1170.818, 118.3281
1171.906, 7.536133
1172.994, 91.75391
1174.082, 19.97852
1175.170, 35.70312
1176.257, 4.580078
1177.344, 22.12598
1178.431, 96.17676
1179.518, 47.53809
1180.605, 56.93164
1181.691, 13.63672
1182.778, 4.804688
1183.864, 72.26074
1184.950, 4.766602
1186.036, 118.2881
1187.122, 14.86914
1188.207, 48.48633
1189.292, 26.85547
1190.378, 131.1855
1191.463, 97.50488
1192.548, 53.18652
1193.632, 13.08496
1194.717, 14.33398
1195.801, 7.569336
1196.886, 26.78809
1197.970, 163.0059
1199.054, 50.09277
1200.137, 11.75000
1201.221, 106.3066
1202.305, 100.4082
1203.388, 41.62109
1204.471, 37.35742
1205.554, 21.54688
1206.637, 33.43555
1207.719, 49.69043
1208.802, 55.87109
1209.884, 12.89062
1210.966, 39.36914
1212.048, 16.67969
1213.130, 42.97070
1214.212, 37.60352
1215.293, 63.78125
1216.374, 47.77051
1217.456, 137.3018
1218.536, 104.8184
1219.617, 55.68066
1220.698, 12.22656
1221.778, 39.83105
1222.859, 17.49121
1223.939, 11.96973
1225.019, 23.27246
1226.099, 109.6416
1227.178, 90.84961
1228.258, 108.8594
1229.337, 82.21094
1230.417, 94.36328
1231.496, 76.49707
1232.574, 179.6836
1233.653, 286.7793
1234.732, 180.8555
1235.810, 58.91504
1236.888, 13.95215
1237.966, 149.9541
1239.044, 22.06348
1240.122, 18.86426
1241.199, 295.7578
1242.277, 178.9922
1243.354, 157.4863
1244.431, 203.3213
1245.508, 83.13672
1246.585, 42.92773
1247.661, 28.69043
1248.738, 6.377930
1249.814, 35.89551
1250.890, 27.76367
1251.966, 50.34570
1253.042, 37.89648
1254.117, 25.41504
1255.193, 77.89648
1256.268, 168.3506
1257.343, 65.78223
1258.418, 152.1855
1259.493, 81.56641
1260.567, 19.08008
1261.642, 150.2119
1262.716, 152.4795
1263.790, 98.84668
1264.864, 59.06445
1265.938, 112.2520
1267.011, 126.4141
1268.085, 124.5508
1269.158, 88.66406
1270.231, 44.74707
1271.304, 166.4004
1272.377, 133.2207
1273.450, 224.2188
1274.522, 135.1924
1275.594, 126.1475
1276.666, 157.0771
1277.738, 137.9805
1278.810, 141.8594
1279.882, 154.9170
1280.953, 181.0039
1282.025, 196.3799
1283.096, 249.1592
1284.167, 324.0918
1285.238, 335.8223
1286.308, 233.5518
1287.379, 226.6260
1288.449, 310.6885
1289.519, 178.2969
1290.589, 271.9062
1291.659, 328.4922
1292.729, 322.0537
1293.798, 372.7139
1294.868, 373.9854
1295.937, 432.4854
1297.006, 340.2998
1298.075, 412.7217
1299.143, 363.0889
1300.212, 456.2588
1301.280, 307.4434
1302.348, 281.0713
1303.416, 337.4043
1304.484, 319.7148
1305.552, 190.8457
1306.620, 399.1104
1307.687, 288.9482
1308.754, 442.7383
1309.821, 308.8389
1310.888, 345.0127
1311.955, 277.8535
1313.021, 251.6982
1314.088, 274.4365
1315.154, 152.2012
1316.220, 176.2510
1317.286, 414.2920
1318.352, 184.3018
1319.417, 233.2969
1320.483, 314.2695
1321.548, 148.5674
1322.613, 259.3867
1323.678, 221.1787
1324.743, 335.8838
1325.807, 266.6621
1326.872, 279.6201
1327.936, 125.4316
1329.000, 195.7109
1330.064, 83.48633
