##NAMES=Andalusite
##RRUFFID=R060197
##IDEAL CHEMISTRY=Al_2_SiO_5_
##LOCALITY=Brazil
##OWNER=RRUFF
##SOURCE=Marcus Origlieri
##DESCRIPTION=Green colored water worn pebble
##STATUS=The identification of this mineral has been confirmed by X-ray diffraction and chemical analysis
##URL=rruff.info/R060197
##MEASURED CHEMISTRY=(Al_1.97_Mn^3+^_0.03_)_Î£=2_Si_1.00_O_5_
##PIN_ID=L01138
##ORIENTATION=Laser parallel to -b* (0 -1 0). Fiducial mark perpendicular to laser is parallel to -c [0 0 -1]
123.0580, 0.0000000E+00
124.2880, 134.3848
125.5190, 72.43262
126.7490, 3.371094
127.9790, 96.38281
129.2090, 23.06836
130.4390, 182.2744
131.6680, 142.8145
132.8980, 15.42090
134.1270, 57.83398
135.3560, 78.88672
136.5850, 27.63574
137.8140, 191.1660
139.0430, 133.4346
140.2710, 316.1660
141.5000, 213.1777
142.7280, 36.35645
143.9560, 139.6221
145.1840, 88.09863
146.4120, 29.71387
147.6390, 92.34180
148.8670, 11.16992
150.0940, 155.9453
151.3210, 49.80859
152.5490, 113.1855
153.7750, 193.2598
155.0020, 100.8574
156.2290, 78.04590
157.4550, 98.87695
158.6810, 81.39746
159.9080, 105.6494
161.1340, 93.66602
162.3590, 121.4756
163.5850, 265.1045
164.8110, 298.5762
166.0360, 221.9102
167.2610, 419.8018
168.4860, 261.7598
169.7110, 379.6338
170.9360, 397.4375
172.1610, 348.3760
173.3850, 273.2012
174.6100, 250.5381
175.8340, 362.4668
177.0580, 321.9092
178.2820, 303.7070
179.5050, 393.6025
180.7290, 375.8799
181.9520, 530.1670
183.1760, 386.5488
184.3990, 298.0967
185.6220, 357.7314
186.8450, 570.4492
188.0670, 697.2480
189.2900, 791.1182
190.5120, 845.0605
191.7340, 951.0713
192.9560, 1166.152
194.1780, 1249.302
195.4000, 1373.521
196.6220, 1154.805
197.8430, 1102.142
199.0640, 912.5283
200.2860, 942.9707
201.5070, 945.4688
202.7270, 881.0254
203.9480, 881.6377
205.1690, 550.3076
206.3890, 237.0312
207.6090, 67.81152
208.8290, 175.6455
210.0490, 11.46875
211.2690, 115.4707
212.4890, 425.4580
213.7080, 334.4961
214.9280, 420.5801
216.1470, 173.7109
217.3660, 152.8877
218.5850, 168.1094
219.8030, 52.37598
221.0220, 1.314453
222.2400, 67.96289
223.4590, 27.57520
224.6770, 40.14941
225.8950, 22.68945
227.1120, 69.19824
228.3300, 45.21387
229.5480, 33.88477
230.7650, 15.47656
231.9820, 18.89648
233.1990, 89.76465
234.4160, 87.53906
235.6330, 65.19336
236.8490, 118.0137
238.0660, 128.0488
239.2820, 54.87109
240.4980, 1.608398
241.7140, 5.355469
242.9300, 9.094727
244.1460, 38.49805
245.3610, 101.9326
246.5770, 193.3418
247.7920, 174.7432
249.0070, 169.1172
250.2220, 337.5195
251.4370, 415.9473
252.6510, 503.3711
253.8660, 634.7402
255.0800, 700.0908
256.2940, 1062.480
257.5080, 1401.915
258.7220, 1893.394
259.9360, 2131.600
261.1490, 2333.521
262.3630, 2548.106
263.5760, 2502.768
264.7890, 2402.473
266.0020, 2307.225
267.2150, 2633.021
268.4270, 2925.861
269.6400, 3481.324
270.8520, 4056.828
272.0640, 4775.962
273.2760, 5826.744
274.4880, 6518.423
275.7000, 7517.163
276.9120, 8557.961
278.1230, 10166.80
279.3340, 12173.69
280.5450, 14609.62
281.7560, 17456.59
282.9670, 20852.59
284.1780, 24570.63
285.3880, 28420.69
286.5980, 31242.77
287.8090, 33472.89
289.0190, 33707.02
290.2290, 31910.18
291.4380, 29002.35
292.6480, 25190.56
293.8570, 21169.79
295.0670, 17761.03
296.2760, 14215.29
297.4850, 11887.55
298.6930, 9735.828
299.9020, 8165.109
301.1110, 6954.403
302.3190, 6001.705
303.5270, 5328.021
304.7350, 4944.352
305.9430, 4570.699
307.1510, 4619.063
308.3580, 4872.447
309.5660, 5513.850
310.7730, 6493.271
311.9800, 7391.717
313.1870, 9086.156
314.3940, 10529.62
315.6010, 12484.11
316.8070, 13919.61
318.0130, 14294.14
319.2200, 13766.61
320.4260, 12354.04
321.6310, 10779.43
322.8370, 9362.840
324.0430, 7876.270
325.2480, 6701.676
326.4540, 5951.965
327.6590, 5270.252
328.8640, 4708.570
330.0680, 4460.925
331.2730, 4145.312
332.4780, 4114.736
333.6820, 3834.197
334.8860, 3609.691
336.0900, 3764.221
337.2940, 3623.782
338.4980, 3453.380
339.7010, 3468.012
340.9050, 3508.678
342.1080, 3558.954
343.3110, 3749.106
344.5140, 3875.871
345.7170, 4189.670
346.9200, 4502.502
348.1220, 4987.482
349.3240, 5523.914
350.5270, 6098.795
351.7290, 6676.188
352.9310, 7254.078
354.1320, 7808.080
355.3340, 8166.969
356.5350, 8147.096
357.7370, 7768.416
358.9380, 6862.738
360.1390, 6178.182
361.3400, 5205.599
362.5400, 4611.050
363.7410, 3866.545
364.9410, 3499.069
366.1410, 2911.898
367.3410, 2483.218
368.5410, 2313.863
369.7410, 2290.906
370.9400, 1824.012
372.1400, 1886.666
373.3390, 1753.710
374.5380, 1896.576
375.7370, 1967.471
376.9360, 1925.128
378.1350, 1872.082
379.3330, 1867.211
380.5310, 1716.226
381.7300, 1347.762
382.9280, 1185.791
384.1260, 1117.983
385.3230, 931.8750
386.5210, 909.6523
387.7180, 861.8359
388.9160, 667.0469
390.1130, 476.2852
391.3100, 793.5508
392.5060, 558.8457
393.7030, 521.1670
394.9000, 224.5186
396.0960, 440.8955
397.2920, 308.3008
398.4880, 184.7354
399.6840, 300.1982
400.8800, 268.6904
402.0750, 357.2100
403.2710, 143.7578
404.4660, 194.3340
405.6610, 93.93848
406.8560, 215.5703
408.0510, 150.2295
409.2450, 284.9180
410.4400, 213.6318
411.6340, 340.3740
412.8280, 418.1445
414.0220, 457.9434
415.2160, 509.7705
416.4100, 655.6279
417.6030, 582.5156
418.7970, 458.4307
419.9900, 545.3750
421.1830, 423.3477
422.3760, 472.3477
423.5690, 445.3760
424.7610, 341.6025
425.9540, 121.5166
427.1460, 152.6289
428.3380, 139.7705
429.5300, 50.94043
430.7220, 195.1387
431.9140, 214.3662
433.1050, 170.0029
434.2970, 59.90918
435.4880, 60.22559
436.6790, 139.5713
437.8700, 16.94922
439.0610, 217.3555
440.2510, 179.7939
441.4420, 341.2637
442.6320, 425.7627
443.8220, 630.2930
445.0120, 857.8555
446.2020, 974.4482
447.3910, 1501.072
448.5810, 2097.728
449.7700, 2157.417
450.9600, 1678.138
452.1490, 1246.889
453.3370, 748.6699
454.5260, 600.4941
455.7150, 452.3584
456.9030, 474.2549
458.0910, 338.1807
459.2800, 271.1377
460.4670, 560.1260
461.6550, 579.1445
462.8430, 603.1943
464.0300, 665.2744
465.2180, 758.3867
466.4050, 775.5293
467.5920, 821.7031
468.7790, 1152.910
469.9650, 1325.148
471.1520, 1311.418
472.3380, 1351.720
473.5250, 1440.054
474.7110, 1481.419
475.8970, 1580.815
477.0820, 1512.244
478.2680, 1490.703
479.4540, 1408.613
480.6390, 1240.716
481.8240, 1097.268
483.0090, 890.8506
484.1940, 585.4648
485.3780, 582.1084
486.5630, 407.7842
487.7470, 176.4893
488.9320, 131.2256
490.1160, 6.009766
491.3000, 101.8486
492.4830, 130.9385
493.6670, 228.3848
494.8500, 159.4941
496.0340, 170.9434
497.2170, 12.99609
498.4000, 95.33008
499.5820, 31.67188
500.7650, 89.00000
501.9480, 1.712891
503.1300, 69.32617
504.3120, 149.0645
505.4940, 307.3789
506.6760, 354.8906
507.8580, 421.4297
509.0390, 479.2832
510.2210, 574.1367
511.4020, 566.7188
512.5830, 592.9609
513.7640, 586.0879
514.9450, 574.2246
516.1250, 518.2988
517.3060, 523.3965
518.4860, 465.5156
519.6660, 392.6641
520.8460, 368.8359
522.0260, 471.0508
523.2060, 587.2871
524.3850, 396.5742
525.5650, 618.9141
526.7440, 610.2891
527.9230, 546.6875
529.1020, 606.1094
530.2810, 704.5527
531.4590, 704.0176
532.6380, 760.5039
533.8160, 1073.012
534.9940, 1070.541
536.1720, 1355.092
537.3500, 1559.660
538.5270, 2024.254
539.7050, 2527.863
540.8820, 2961.494
542.0590, 3538.146
543.2360, 4681.820
544.4130, 5385.514
545.5900, 6197.227
546.7660, 6652.957
547.9430, 6739.711
549.1190, 6381.480
550.2950, 5809.270
551.4710, 5017.082
552.6470, 3987.912
553.8220, 3249.760
554.9980, 2689.627
556.1730, 1920.514
557.3480, 1704.418
558.5230, 1445.340
559.6980, 1303.281
560.8730, 1240.244
562.0470, 1044.223
563.2220, 1058.221
564.3960, 1006.246
565.5700, 962.9414
566.7440, 995.4434
567.9170, 966.6309
569.0910, 990.8887
570.2640, 1024.236
571.4380, 1083.631
572.6110, 1048.125
573.7840, 952.7363
574.9570, 953.8008
576.1290, 839.2168
577.3020, 866.0762
578.4740, 839.0312
579.6460, 815.0234
580.8180, 903.0449
581.9900, 576.1113
583.1620, 628.1992
584.3330, 943.3125
585.5040, 617.4434
586.6760, 785.5879
587.8470, 736.7461
589.0180, 841.2949
590.1880, 838.5410
591.3590, 926.8594
592.5290, 867.0742
593.7000, 1078.301
594.8700, 1041.770
596.0400, 997.0820
597.2090, 1285.346
598.3790, 1184.623
599.5490, 1086.914
600.7180, 1022.215
601.8870, 1056.527
603.0560, 1052.852
604.2250, 835.1875
605.3940, 836.5332
606.5620, 1101.889
607.7300, 914.2578
608.8990, 1371.635
610.0670, 755.0234
611.2350, 581.4199
612.4020, 551.8281
613.5700, 683.2461
614.7370, 627.6719
615.9050, 503.1055
617.0720, 485.5488
618.2390, 561.0020
619.4060, 470.4629
620.5720, 430.9336
621.7390, 363.4102
622.9050, 355.8945
624.0710, 245.3887
625.2370, 170.8887
626.4030, 158.3945
627.5690, 97.91016
628.7340, 174.4316
629.9000, 116.9590
631.0650, 37.62305
632.2300, 18.36719
633.3950, 182.0566
634.5600, 113.0039
635.7240, 265.4414
636.8890, 76.97656
638.0530, 118.8105
639.2170, 68.17969
640.3810, 73.39062
641.5450, 102.3574
642.7080, 9.220703
643.8720, 11.02344
645.0350, 39.83008
646.1980, 36.34180
647.3610, 73.47656
648.5240, 48.66797
649.6870, 150.1816
650.8490, 3.105469
652.0120, 109.0312
653.1740, 4.986328
654.3360, 2.994141
655.4980, 68.01953
656.6600, 82.03906
657.8210, 117.0625
658.9830, 343.0918
660.1440, 354.1230
661.3050, 541.1602
662.4660, 376.2012
663.6270, 452.2461
664.7870, 342.2949
665.9480, 285.3457
667.1080, 98.40039
668.2680, 93.45898
669.4280, 154.5195
670.5880, 132.8730
671.7480, 334.6504
672.9070, 327.7207
674.0670, 378.7910
675.2260, 629.8652
676.3850, 602.9395
677.5440, 407.0176
678.7030, 493.0996
679.8610, 661.1797
681.0200, 783.2656
682.1780, 770.3496
683.3360, 794.4355
684.4940, 696.5215
685.6520, 882.6113
686.8090, 970.7012
687.9670, 1153.791
689.1240, 1158.883
690.2810, 1192.975
691.4380, 1291.066
692.5950, 1201.162
693.7520, 1251.256
694.9080, 1445.350
696.0650, 1428.443
697.2210, 1470.537
698.3770, 1582.631
699.5330, 1610.725
700.6880, 1696.018
701.8440, 1820.109
702.9990, 1843.850
704.1550, 2123.469
705.3100, 2317.957
706.4650, 2284.527
707.6190, 2283.609
708.7740, 2150.283
709.9290, 2144.971
711.0830, 2079.330
712.2370, 2106.709
713.3910, 1995.844
714.5450, 1886.363
715.6980, 1749.170
716.8520, 1580.725
718.0050, 1352.705
719.1580, 1174.539
720.3110, 942.1875
721.4640, 649.7012
722.6170, 698.3086
723.7700, 256.2637
724.9220, 171.2051
726.0740, 194.1367
727.2260, 125.0547
728.3780, 149.9551
729.5300, 144.8223
730.6810, 186.7070
731.8330, 161.5625
732.9840, 60.40039
734.1350, 65.20508
735.2860, 372.9727
736.4370, 444.7266
737.5880, 369.4668
738.7380, 483.1914
739.8880, 545.9004
741.0390, 772.5957
742.1890, 891.2773
743.3380, 1136.939
744.4880, 976.5918
745.6380, 1107.229
746.7870, 1240.848
747.9360, 1269.453
749.0850, 1318.043
750.2340, 1318.617
751.3830, 1379.178
752.5310, 1331.852
753.6800, 1334.773
754.8280, 1338.768
755.9760, 1269.266
757.1240, 1487.750
758.2720, 1439.221
759.4190, 1410.674
760.5670, 1252.111
761.7140, 1357.539
762.8610, 1209.949
764.0080, 1178.643
765.1550, 1111.725
766.3020, 1108.090
767.4480, 1130.445
768.5950, 1182.781
769.7410, 1112.740
770.8870, 1087.697
772.0330, 1149.506
773.1780, 1222.699
774.3240, 1286.906
775.4690, 1481.320
776.6140, 1728.725
777.7590, 1907.488
778.9040, 2186.545
780.0490, 2462.928
781.1940, 2853.428
782.3380, 3344.816
783.4820, 3770.648
784.6260, 4186.006
785.7700, 4896.934
786.9140, 5079.273
788.0580, 5704.648
789.2010, 5909.320
790.3450, 6196.055
791.4880, 5940.102
792.6310, 5722.734
793.7730, 5481.023
794.9160, 5062.305
796.0590, 4432.576
797.2010, 3887.840
798.3430, 3639.094
799.4850, 3202.340
800.6270, 2663.578
801.7690, 2579.809
802.9100, 2257.031
804.0520, 1930.242
805.1930, 1687.447
806.3340, 1382.645
807.4750, 1150.832
808.6160, 945.0117
809.7560, 883.1797
810.8970, 863.3418
812.0370, 913.4980
813.1770, 497.6426
814.3170, 553.7773
815.4570, 133.9062
816.5960, 651.0254
817.7360, 395.1055
818.8750, 473.2363
820.0140, 293.3320
821.1530, 343.4160
822.2920, 284.4902
823.4310, 447.5566
824.5690, 437.6152
825.7070, 325.6641
826.8460, 537.7051
827.9840, 627.7363
829.1220, 487.7559
830.2590, 519.7715
831.3970, 658.7754
832.5340, 392.7715
833.6710, 426.7578
834.8080, 423.7383
835.9450, 370.7051
837.0820, 99.66797
838.2190, 241.6152
839.3550, 23.55664
840.4910, 73.53320
841.6270, 55.69727
842.7630, 120.9297
843.8990, 145.2656
845.0350, 218.7168
846.1700, 56.32227
847.3060, 265.9941
848.4410, 326.8457
849.5760, 153.9062
850.7100, 304.0859
851.8450, 133.4609
852.9800, 252.9453
854.1140, 21.59766
855.2480, 4.298828
856.3820, 66.03516
857.5160, 62.74023
858.6500, 3.083984
859.7830, 211.0586
860.9170, 339.1895
862.0500, 351.9434
863.1830, 284.0625
864.3160, 398.7969
865.4480, 594.8379
866.5810, 354.8164
867.7130, 436.9043
868.8460, 662.9824
869.9780, 572.8242
871.1100, 527.8320
872.2410, 429.8887
873.3730, 432.9395
874.5050, 441.9844
875.6360, 605.0254
876.7670, 722.0566
877.8980, 532.0840
879.0290, 555.1055
880.1590, 455.1211
881.2900, 569.1348
882.4200, 395.1426
883.5500, 609.1484
884.6800, 376.1738
885.8100, 400.1973
886.9400, 489.2109
888.0690, 488.2227
889.1990, 619.2383
890.3280, 612.8691
891.4570, 735.7891
892.5860, 730.3223
893.7140, 949.3770
894.8430, 1226.463
895.9710, 1311.605
897.1000, 1443.789
898.2280, 1710.992
899.3560, 1845.195
900.4830, 1900.424
901.6110, 2504.652
902.7380, 3030.906
903.8660, 3398.223
904.9930, 4152.633
906.1200, 5237.105
907.2460, 6545.625
908.3730, 8219.205
909.5000, 10380.87
910.6260, 13431.62
911.7520, 17098.41
912.8780, 21570.25
914.0040, 26250.09
915.1290, 31021.94
916.2550, 34167.83
917.3800, 34639.73
918.5050, 32744.65
919.6300, 29096.58
920.7550, 24414.50
921.8800, 20863.46
923.0040, 17575.42
924.1290, 15229.42
925.2530, 13352.41
926.3770, 11803.43
927.5010, 10614.45
928.6250, 9322.469
929.7480, 8067.488
930.8720, 7030.508
931.9950, 6171.523
933.1180, 5432.533
934.2410, 4787.348
935.3640, 4169.539
936.4860, 3891.539
937.6090, 3605.545
938.7310, 3461.543
939.8530, 2959.537
940.9750, 3071.527
942.0970, 2914.514
943.2180, 2860.496
944.3400, 3086.471
945.4610, 2765.441
946.5820, 3130.408
947.7030, 3079.369
948.8240, 2948.326
949.9450, 2841.279
951.0650, 2729.227
952.1860, 2573.166
953.3060, 2428.895
954.4260, 2287.039
955.5460, 2083.965
956.6650, 1962.889
957.7850, 1908.816
958.9040, 1933.719
960.0230, 1906.629
961.1420, 1899.531
962.2610, 2003.430
963.3800, 1913.324
964.4990, 2104.213
965.6170, 2163.098
966.7350, 2152.977
967.8530, 2011.852
968.9710, 2147.719
970.0890, 2161.584
971.2070, 2090.443
972.3240, 2106.098
973.4410, 1891.945
974.5580, 1681.141
975.6750, 1370.453
976.7920, 1341.889
977.9090, 1365.236
979.0250, 1174.066
980.1410, 1047.297
981.2580, 791.7402
982.3740, 803.0430
983.4890, 665.5527
984.6050, 435.9473
985.7200, 549.9531
986.8360, 401.7090
987.9510, 420.0117
989.0660, 289.5273
990.1810, 304.4668
991.2950, 45.91406
992.4100, 356.3945
993.5240, 189.6074
994.6390, 275.4629
995.7530, 48.67578
996.8660, 274.1816
997.9800, 273.0469
999.0940, 176.9180
1000.207, 285.7988
1001.320, 427.6855
1002.433, 648.5762
1003.546, 829.4746
1004.659, 668.3887
1005.772, 860.4844
1006.884, 826.4219
1007.996, 1266.363
1009.108, 1608.459
1010.220, 1925.410
1011.332, 2146.477
1012.444, 2628.514
1013.555, 3199.480
1014.666, 3353.102
1015.777, 3692.555
1016.888, 3864.240
1017.999, 3936.244
1019.110, 3605.682
1020.220, 3564.678
1021.331, 3448.037
1022.441, 3176.418
1023.551, 2926.881
1024.661, 2699.084
1025.770, 2576.338
1026.880, 2442.582
1027.989, 2230.656
1029.098, 2105.615
1030.207, 1814.348
1031.316, 1786.980
1032.425, 1496.590
1033.533, 1354.934
1034.642, 1374.789
1035.750, 1461.537
1036.858, 1116.025
1037.966, 1310.129
1039.073, 1185.156
1040.181, 1276.891
1041.288, 1296.506
1042.396, 1592.139
1043.503, 1611.664
1044.610, 1628.102
1045.716, 1846.746
1046.823, 1931.797
1047.929, 2117.859
1049.036, 2357.430
1050.142, 2781.898
1051.248, 3445.125
1052.353, 4597.531
1053.459, 5247.787
1054.564, 6636.131
1055.670, 8066.867
1056.775, 9186.781
1057.880, 10003.69
1058.985, 10275.59
1060.089, 9696.469
1061.194, 8743.342
1062.298, 7648.307
1063.402, 6232.543
1064.506, 5267.387
1065.610, 4665.482
1066.713, 3943.307
1067.817, 3440.715
1068.920, 2799.918
1070.023, 2633.162
1071.126, 2277.941
1072.229, 2083.713
1073.332, 2042.473
1074.435, 2017.219
1075.537, 1743.957
1076.639, 1799.684
1077.741, 1563.398
1078.843, 1589.104
1079.945, 1564.797
1081.046, 1525.477
1082.148, 1346.148
1083.249, 1502.807
1084.350, 1365.455
1085.451, 1618.092
1086.551, 1388.717
1087.652, 1430.332
1088.752, 1413.934
1089.853, 1311.525
1090.953, 1400.104
1092.053, 1381.672
1093.152, 1285.232
1094.252, 1384.775
1095.351, 1415.312
1096.451, 1554.834
1097.550, 1623.346
1098.649, 1702.846
1099.748, 1797.336
1100.846, 2202.812
1101.945, 2046.279
1103.043, 2388.732
1104.141, 2416.176
1105.239, 2325.607
1106.337, 2506.029
1107.434, 2426.445
1108.532, 2323.889
1109.629, 2261.867
1110.726, 1995.842
1111.823, 1894.377
1112.920, 1617.975
1114.017, 1300.590
1115.113, 1185.279
1116.210, 1074.057
1117.306, 784.8789
1118.402, 910.7812
1119.498, 1100.723
1120.593, 904.7363
1121.689, 838.7539
1122.784, 711.7754
1123.879, 754.2285
1124.974, 818.2617
1126.069, 551.2969
1127.164, 831.3203
1128.259, 483.6992
1129.353, 445.6992
1130.447, 402.6855
1131.541, 307.6602
1132.635, 382.6230
1133.729, 279.5742
1134.822, 382.5137
1135.916, 261.4395
1137.009, 111.3535
1138.102, 302.2520
1139.195, 211.1406
1140.288, 119.0156
1141.380, 345.8770
1142.473, 130.7246
1143.565, 139.5566
1144.657, 191.3770
1145.749, 17.18359
1146.841, 46.97070
1147.932, 12.74023
1149.024, 59.50977
1150.115, 58.17773
1151.206, 232.8477
1152.297, 80.50586
1153.388, 0.1503910
1154.479, 59.76172
1155.569, 91.64648
1156.659, 113.8711
1157.750, 59.62891
1158.839, 103.1914
1159.929, 198.8379
1161.019, 146.0098
1162.108, 64.50977
1163.198, 38.53516
1164.287, 75.44141
1165.376, 13.51367
1166.465, 81.55664
1167.553, 220.7051
1168.642, 325.9980
1169.730, 181.4941
1170.818, 129.1211
1171.906, 15.84570
1172.994, 175.6113
1174.082, 94.50195
1175.170, 77.47070
1176.257, 208.5117
1177.344, 162.3047
1178.431, 8.894531
1179.518, 65.12891
1180.605, 55.57227
1181.691, 28.74609
1182.778, 65.89062
1183.864, 98.50977
1184.950, 47.88867
1186.036, 10.66016
1187.122, 893.1836
1188.207, 822.6934
1189.292, 843.1914
1190.378, 260.6738
1191.463, 210.1426
1192.548, 2.599609
1193.632, 78.02734
1194.717, 298.4414
1195.801, 104.8418
1196.886, 317.2227
1197.970, 25.59180
1199.054, 70.94336
1200.137, 5.722656
1201.221, 176.5840
1202.305, 331.8770
1203.388, 176.1582
1204.471, 227.4277
1205.554, 402.6836
1206.637, 262.9277
1207.719, 334.1562
1208.802, 204.3770
1209.884, 164.5820
1210.966, 468.7754
1212.048, 541.9570
1213.130, 614.1289
1214.212, 586.2871
1215.293, 609.4355
1216.374, 696.5703
1217.456, 819.6992
1218.536, 842.8125
1219.617, 1092.918
1220.698, 1105.010
1221.778, 1378.123
1222.859, 1507.232
1223.939, 1488.334
1225.019, 1548.424
1226.099, 1881.506
1227.178, 2225.574
1228.258, 2099.662
1229.337, 2276.742
1230.417, 2356.285
1231.496, 2580.877
1232.574, 2436.930
1233.653, 2582.971
1234.732, 2541.873
1235.810, 2818.027
1236.888, 2955.039
1237.966, 2919.043
1239.044, 3389.037
1240.122, 3144.021
1241.199, 3350.053
1242.277, 3596.074
1243.354, 3594.121
1244.431, 3664.162
1245.508, 3964.244
1246.585, 3928.316
1247.661, 3805.379
1248.738, 3803.434
1249.814, 3917.475
1250.890, 3862.508
1251.966, 3818.531
1253.042, 3801.543
1254.117, 3632.547
1255.193, 3678.541
1256.268, 3668.527
1257.343, 3237.516
1258.418, 3703.500
1259.493, 2994.473
1260.567, 3058.443
1261.642, 3204.404
1262.716, 3220.359
1263.790, 2859.307
1264.864, 2895.246
1265.938, 2637.178
1267.011, 2658.934
1268.085, 2414.848
1269.158, 2306.754
1270.231, 2199.504
1271.304, 2066.400
1272.377, 2236.184
1273.450, 1748.990
1274.522, 1602.867
1275.594, 1784.086
1276.666, 1804.467
1277.738, 1419.617
1278.810, 1613.441
1279.882, 1417.834
1280.953, 1323.664
1282.025, 1094.143
1283.096, 1373.598
1284.167, 1143.967
1285.238, 1046.592
1286.308, 1206.164
1287.379, 1078.744
1288.449, 842.5586
1289.519, 897.3418
1290.589, 859.4180
1291.659, 912.5879
1292.729, 874.7754
1293.798, 935.2207
1294.868, 849.1484
1295.937, 766.1797
1297.006, 783.4629
1298.075, 764.1270
1299.143, 769.8789
1300.212, 618.8789
1301.280, 841.0098
1302.348, 825.1172
