##NAMES=Andalusite
##RRUFFID=R060212
##IDEAL CHEMISTRY=Al_2_SiO_5_
##LOCALITY=Brazil
##OWNER=RRUFF
##SOURCE=Marcus Origlieri
##DESCRIPTION=Transparent yellow-green water-worn pebble
##STATUS=The identification of this mineral is confirmed by single-crystal X-ray diffraction and chemical analysis.
##URL=rruff.info/R060212
##MEASURED CHEMISTRY=(Al_1.98_Fe^3+^_0.02_)_Î£=2_Si_1.00_O_5_
##PIN_ID=M00278
##ORIENTATION=Laser parallel to c* (0 0 1). Fiducial mark perpendicular to laser is parallel to -a [-1 0 0]
99.64900, 0.0000000E+00
100.8830, 134.7754
102.1160, 5.587891
103.3490, 84.04590
104.5820, 93.71094
105.8150, 435.4092
107.0470, 878.7119
108.2800, 1416.685
109.5120, 1872.753
110.7440, 889.3691
111.9760, 311.0557
113.2080, 254.4355
114.4400, 284.2354
115.6710, 628.4604
116.9030, 520.2231
118.1340, 316.2290
119.3650, 221.2017
120.5960, 85.94141
121.8270, 196.2993
123.0580, 356.1636
124.2880, 264.4521
125.5190, 191.1055
126.7490, 166.0776
127.9790, 377.3311
129.2090, 485.2627
130.4390, 568.3052
131.6680, 659.3408
132.8980, 798.6626
134.1270, 934.8447
135.3560, 1167.783
136.5850, 1375.514
137.8140, 1847.062
139.0430, 2300.449
140.2710, 2489.698
141.5000, 2560.828
142.7280, 2558.857
143.9560, 2365.802
145.1840, 2075.676
146.4120, 1777.492
147.6390, 1488.263
148.8670, 1266.234
150.0940, 957.7764
151.3210, 839.5444
152.5490, 712.3242
153.7750, 499.1187
155.0020, 509.9287
156.2290, 332.7583
157.4550, 195.0015
158.6810, 263.1665
159.9080, 196.7856
161.1340, 214.3633
162.3590, 282.7700
163.5850, 444.0718
164.8110, 621.0332
166.0360, 696.3984
167.2610, 599.4111
168.4860, 545.5186
169.7110, 615.7119
170.9360, 617.9873
172.1610, 664.3408
173.3850, 569.7573
174.6100, 466.1885
175.8340, 470.6494
177.0580, 502.1543
178.2820, 498.7124
179.5050, 473.3267
180.7290, 421.0015
181.9520, 486.7397
183.1760, 584.5410
184.3990, 669.1416
185.6220, 869.3369
186.8450, 1014.330
188.0670, 1191.387
189.2900, 1514.506
190.5120, 1618.686
191.7340, 1591.924
192.9560, 1769.222
194.1780, 1642.575
195.4000, 1688.126
196.6220, 1635.972
197.8430, 1646.109
199.0640, 1593.361
200.2860, 1765.658
201.5070, 1913.988
202.7270, 1898.351
203.9480, 1421.744
205.1690, 851.1616
206.3890, 491.6001
207.6090, 300.0586
208.8290, 78.55371
210.0490, 27.11426
211.2690, 68.70068
212.4890, 18.30713
213.7080, 58.93408
214.9280, 28.41846
216.1470, 42.74854
217.3660, 54.05811
218.5850, 11.65430
219.8030, 68.61035
221.0220, 59.85254
222.2400, 80.07324
223.4590, 81.27100
224.6770, 126.4458
225.8950, 181.5991
227.1120, 93.71826
228.3300, 125.8018
229.5480, 31.75391
230.7650, 19.63770
231.9820, 40.52930
233.1990, 124.5693
234.4160, 143.6235
235.6330, 383.6113
236.8490, 534.4819
238.0660, 662.2886
239.2820, 713.0938
240.4980, 904.9170
241.7140, 883.7676
242.9300, 939.6455
244.1460, 845.5513
245.3610, 616.4844
246.5770, 631.0273
247.7920, 480.4385
249.0070, 417.7114
250.2220, 534.6411
251.4370, 464.7651
252.6510, 466.0537
253.8660, 483.4854
255.0800, 579.0415
256.2940, 585.7085
257.5080, 723.4727
258.7220, 1131.325
259.9360, 1470.258
261.1490, 1245.263
262.3630, 1005.336
263.5760, 1219.467
264.7890, 1304.652
266.0020, 1408.884
267.2150, 1695.162
268.4270, 1955.483
269.6400, 2210.842
270.8520, 2552.239
272.0640, 3108.672
273.2760, 3791.140
274.4880, 4649.641
275.7000, 5513.171
276.9120, 6413.728
278.1230, 7472.299
279.3340, 8977.880
280.5450, 11006.47
281.7560, 13252.07
282.9670, 16070.69
284.1780, 19090.32
285.3880, 22320.96
286.5980, 26047.62
287.8090, 29944.29
289.0190, 34406.00
290.2290, 37093.52
291.4380, 37032.30
292.6480, 34749.25
293.8570, 30651.09
295.0670, 25002.66
296.2760, 19679.44
297.4850, 14945.63
298.6930, 11295.44
299.9020, 8688.273
301.1110, 6759.116
302.3190, 5664.975
303.5270, 4651.833
304.7350, 3961.651
305.9430, 3604.451
307.1510, 3626.194
308.3580, 3662.847
309.5660, 4356.376
310.7730, 5298.851
311.9800, 6181.315
313.1870, 7264.804
314.3940, 8516.314
315.6010, 10548.85
316.8070, 13015.99
318.0130, 15790.70
319.2200, 17663.30
320.4260, 18384.15
321.6310, 17955.79
322.8370, 16399.46
324.0430, 13902.15
325.2480, 11334.86
326.4540, 9046.597
327.6590, 7407.352
328.8640, 6201.126
330.0680, 5325.922
331.2730, 4973.738
332.4780, 4647.575
333.6820, 4252.431
334.8860, 4060.307
336.0900, 3932.202
337.2940, 3825.117
338.4980, 3630.052
339.7010, 3574.005
340.9050, 3372.977
342.1080, 3288.966
343.3110, 3283.971
344.5140, 3338.992
345.7170, 3474.028
346.9200, 3722.079
348.1220, 4088.146
349.3240, 4957.229
350.5270, 5929.327
351.7290, 6951.441
352.9310, 8449.441
354.1320, 9892.586
355.3340, 11407.14
356.5350, 12501.84
357.7370, 13115.13
358.9380, 12810.34
360.1390, 11764.16
361.3400, 10516.37
362.5400, 8864.030
363.7410, 7317.298
364.9410, 6152.259
366.1410, 5033.671
367.3410, 4062.063
368.5410, 3459.404
369.7410, 3037.301
370.9400, 2567.043
372.1400, 2292.749
373.3390, 2005.186
374.5380, 1705.614
375.7370, 1615.071
376.9360, 1541.573
378.1350, 1397.020
379.3330, 1301.483
380.5310, 1248.762
381.7300, 1216.456
382.9280, 1149.966
384.1260, 1114.493
385.3230, 1057.036
386.5210, 939.5962
387.7180, 902.1719
388.9160, 916.7642
390.1130, 1027.382
391.3100, 852.0269
392.5060, 883.6963
393.7030, 764.3901
394.9000, 607.1050
396.0960, 563.8408
397.2920, 461.5962
398.4880, 330.3706
399.6840, 245.1636
400.8800, 367.9751
402.0750, 318.8042
403.2710, 334.6504
404.4660, 501.5137
405.6610, 368.3931
406.8560, 574.2886
408.0510, 615.2012
409.2450, 625.1294
410.4400, 894.0728
411.6340, 1002.032
412.8280, 1229.006
414.0220, 1540.996
415.2160, 1783.000
416.4100, 1905.021
417.6030, 1879.054
418.7970, 1859.104
419.9900, 1467.167
421.1830, 1169.244
422.3760, 931.3369
423.5690, 675.4434
424.7610, 413.5649
425.9540, 220.6997
427.1460, 99.84961
428.3380, 46.01318
429.5300, 23.19189
430.7220, 33.38379
431.9140, 99.41016
433.1050, 147.2432
434.2970, 151.1392
435.4880, 171.1006
436.6790, 169.1362
437.8700, 130.2441
439.0610, 6.407227
440.2510, 14.56641
441.4420, 157.2754
442.6320, 398.1323
443.8220, 498.0034
445.0120, 672.8906
446.2020, 787.7935
447.3910, 1017.711
448.5810, 1596.644
449.7700, 1862.748
450.9600, 2157.712
452.1490, 1921.693
453.3370, 1379.705
454.5260, 1005.732
455.7150, 713.7783
456.9030, 300.8418
458.0910, 192.9224
459.2800, 40.98096
460.4670, 32.89209
461.6550, 35.19287
462.8430, 5.294434
464.0300, 86.40771
465.2180, 34.53809
466.4050, 56.68457
467.5920, 80.84766
468.7790, 105.0269
469.9650, 249.2222
471.1520, 353.4341
472.3380, 433.6616
473.5250, 511.9189
474.7110, 538.1924
475.8970, 480.4819
477.0820, 650.7959
478.2680, 870.1333
479.4540, 851.5000
480.6390, 890.8828
481.8240, 907.2920
483.0090, 1014.721
484.1940, 841.1670
485.3780, 870.6553
486.5630, 705.1841
487.7470, 533.7314
488.9320, 429.3203
490.1160, 429.9375
491.3000, 208.6006
492.4830, 228.3120
493.6670, 103.0664
494.8500, 34.12842
496.0340, 90.69434
497.2170, 4.432129
498.4000, 118.5176
499.5820, 145.6123
500.7650, 11.24365
501.9480, 54.87402
503.1300, 113.0015
504.3120, 144.9014
505.4940, 91.82666
506.6760, 246.7671
507.8580, 165.7354
509.0390, 262.7314
510.2210, 338.7583
511.4020, 412.8174
512.5830, 447.9185
513.7640, 362.0747
514.9450, 327.2651
516.1250, 288.4966
517.3060, 314.7495
518.4860, 293.0205
519.6660, 288.2368
520.8460, 305.6196
522.0260, 291.9390
523.2060, 216.2705
524.3850, 240.6143
525.5650, 205.9707
526.7440, 248.3389
527.9230, 262.0933
529.1020, 221.1138
530.2810, 332.5186
531.4590, 379.6953
532.6380, 444.9932
533.8160, 381.4331
534.9940, 336.8853
536.1720, 613.3477
537.3500, 877.8223
538.5270, 1031.307
539.7050, 1329.808
540.8820, 1760.319
542.0590, 2245.840
543.2360, 2956.373
544.4130, 3710.915
545.5900, 4137.468
546.7660, 4835.030
547.9430, 5304.604
549.1190, 5620.187
550.2950, 5790.780
551.4710, 5615.382
552.6470, 5117.993
553.8220, 4419.615
554.9980, 3669.246
556.1730, 2925.885
557.3480, 2284.535
558.5230, 1749.193
559.6980, 1359.860
560.8730, 1031.536
562.0470, 1105.221
563.2220, 912.9141
564.3960, 769.6152
565.5700, 895.3252
566.7440, 752.0439
567.9170, 601.7695
569.0910, 825.5215
570.2640, 690.2803
571.4380, 743.0723
572.6110, 677.8877
573.7840, 681.7314
574.9570, 573.7988
576.1290, 481.8896
577.3020, 412.1650
578.4740, 245.3623
579.6460, 239.6338
580.8180, 147.7432
581.9900, 100.4912
583.1620, 188.6406
584.3330, 16.80566
585.5040, 94.98145
586.6760, 129.1660
587.8470, 75.36035
589.0180, 17.56445
590.1880, 11.16211
591.3590, 19.05859
592.5290, 30.47852
593.7000, 101.6562
594.8700, 140.6729
596.0400, 266.0127
597.2090, 350.2754
598.3790, 416.5459
599.5490, 425.8242
600.7180, 452.5273
601.8870, 608.7002
603.0560, 651.0010
604.2250, 803.0918
605.3940, 639.4082
606.5620, 715.7314
607.7300, 673.0625
608.8990, 642.4014
610.0670, 516.7461
611.2350, 380.0977
612.4020, 342.4570
613.5700, 264.5850
614.7370, 206.9570
615.9050, 338.5498
617.0720, 281.6191
618.2390, 389.3457
619.4060, 306.6592
620.5720, 224.0596
621.7390, 221.6406
622.9050, 323.1357
624.0710, 372.6621
625.2370, 414.0850
626.4030, 390.2217
627.5690, 439.2744
628.7340, 455.5342
629.9000, 382.8145
631.0650, 407.2080
632.2300, 356.2021
633.3950, 276.0732
634.5600, 355.5352
635.7240, 270.0234
636.8890, 362.5010
638.0530, 314.0107
639.2170, 284.7832
640.3810, 304.4541
641.5450, 247.5488
642.7080, 474.1025
643.8720, 355.5322
645.0350, 335.9600
646.1980, 435.3857
647.3610, 264.8096
648.5240, 237.2314
649.6870, 185.6504
650.8490, 141.0684
652.0120, 136.4824
653.1740, 119.8936
654.3360, 102.3018
655.4980, 171.7061
656.6600, 226.1064
657.8210, 329.5039
658.9830, 436.8965
660.1440, 497.2861
661.3050, 518.4746
662.4660, 610.0518
663.6270, 507.4277
664.7870, 368.7998
665.9480, 353.1660
667.1080, 151.5283
668.2680, 105.8857
669.4280, 10.23828
670.5880, 30.41504
671.7480, 15.09180
672.9070, 45.21680
674.0670, 32.52051
675.2260, 62.42285
676.3850, 68.19238
677.5440, 104.3965
678.7030, 66.41504
679.8610, 112.6895
681.0200, 111.9590
682.1780, 48.22168
683.3360, 192.4795
684.4940, 291.7305
685.6520, 115.9746
686.8090, 79.21191
687.9670, 95.44434
689.1240, 150.6689
690.2810, 143.2012
691.4380, 203.0996
692.5950, 204.3047
693.7520, 195.5029
694.9080, 261.6943
696.0650, 309.8789
697.2210, 242.0566
698.3770, 265.2266
699.5330, 338.3896
700.6880, 412.5469
701.8440, 414.6943
702.9990, 402.8359
704.1550, 630.9697
705.3100, 601.0967
706.4650, 722.2158
707.6190, 812.6875
708.7740, 896.7900
709.9290, 1066.477
711.0830, 1224.791
712.2370, 1452.645
713.3910, 1482.077
714.5450, 1660.031
715.6980, 1646.606
716.8520, 1591.554
718.0050, 1701.576
719.1580, 1482.127
720.3110, 1215.405
721.4640, 1117.640
722.6170, 833.1475
723.7700, 628.3564
724.9220, 449.5527
726.0740, 291.7363
727.2260, 112.9053
728.3780, 73.06348
729.5300, 107.0508
730.6810, 143.1807
731.8330, 12.70215
732.9840, 120.3750
734.1350, 71.43652
735.2860, 121.4854
736.4370, 210.5205
737.5880, 151.5430
738.7380, 140.5508
739.8880, 87.55859
741.0390, 286.5625
742.1890, 252.5537
743.3380, 219.5332
744.4880, 205.4990
745.6380, 171.4502
746.7870, 319.3877
747.9360, 370.3135
749.0850, 194.2246
750.2340, 201.1211
751.3830, 8.995117
752.5310, 104.8477
753.6800, 59.67676
754.8280, 8.489258
755.9760, 15.27246
757.1240, 11.34668
758.2720, 129.7383
759.4190, 0.4375000
760.5670, 21.10156
761.7140, 71.74023
762.8610, 60.63672
764.0080, 56.08008
765.1550, 35.41113
766.3020, 58.11914
767.4480, 10.71582
768.5950, 76.35156
769.7410, 86.06348
770.8870, 68.30371
772.0330, 93.90625
773.1780, 44.66406
774.3240, 94.65918
775.4690, 85.87793
776.6140, 92.37598
777.7590, 11.89844
778.9040, 10.30176
780.0490, 72.45996
781.1940, 182.2197
782.3380, 131.9688
783.4820, 111.7041
784.6260, 293.4277
785.7700, 240.1396
786.9140, 219.8379
788.0580, 254.5254
789.2010, 341.2002
790.3450, 364.8633
791.4880, 403.5156
792.6310, 432.1562
793.7730, 450.7852
794.9160, 479.4043
796.0590, 332.0107
797.2010, 467.6064
798.3430, 463.1924
799.4850, 481.7666
800.6270, 601.3301
801.7690, 598.8838
802.9100, 657.4258
804.0520, 789.9580
805.1930, 663.4805
806.3340, 764.9912
807.4750, 639.4932
808.6160, 603.2256
809.7560, 472.8379
810.8970, 519.3105
812.0370, 354.7734
813.1770, 377.2266
814.3170, 193.6709
815.4570, 6.106445
816.5960, 106.5234
817.7360, 91.93066
818.8750, 80.32910
820.0140, 171.7178
821.1530, 196.1006
822.2920, 149.4727
823.4310, 195.8369
824.5690, 189.1924
825.7070, 284.5400
826.8460, 522.8799
827.9840, 717.2109
829.1220, 506.5352
830.2590, 766.8516
831.3970, 771.1592
832.5340, 867.4600
833.6710, 757.7539
834.8080, 571.0391
835.9450, 592.3184
837.0820, 365.5908
838.2190, 328.8545
839.3550, 334.1113
840.4910, 196.3633
841.6270, 122.6074
842.7630, 152.8457
843.8990, 47.92285
845.0350, 126.2705
846.1700, 84.54297
847.3060, 47.41309
848.4410, 152.3193
849.5760, 50.31836
850.7100, 170.3555
851.8450, 4.492188
852.9800, 154.6426
854.1140, 187.8848
855.2480, 69.23535
856.3820, 97.63184
857.5160, 59.91211
858.6500, 23.55078
859.7830, 27.96582
860.9170, 137.4775
862.0500, 41.76367
863.1830, 74.48438
864.3160, 12.98047
865.4480, 17.41113
866.5810, 150.8984
867.7130, 214.3818
868.8460, 106.9590
869.9780, 212.4336
871.1100, 159.8193
872.2410, 150.2891
873.3730, 189.7539
874.5050, 127.2158
875.6360, 251.6758
876.7670, 316.1230
877.8980, 326.5771
879.0290, 348.0283
880.1590, 343.4766
881.2900, 492.9238
882.4200, 405.3682
883.5500, 322.8115
884.6800, 359.2520
885.8100, 551.6934
886.9400, 540.1328
888.0690, 649.8086
889.1990, 821.2451
890.3280, 843.4658
891.4570, 931.2461
892.5860, 1021.373
893.7140, 1186.931
894.8430, 1307.760
895.9710, 1442.734
897.1000, 1646.140
898.2280, 1922.520
899.3560, 2171.016
900.4830, 2356.801
901.6110, 2870.677
902.7380, 3149.353
903.8660, 3550.022
904.9930, 4360.586
906.1200, 5336.566
907.2460, 6549.691
908.3730, 8094.229
909.5000, 10344.88
910.6260, 13218.42
911.7520, 16920.52
912.8780, 21212.27
914.0040, 26385.55
915.1290, 31858.54
916.2550, 37281.16
917.3800, 41675.84
918.5050, 43213.55
919.6300, 41632.27
920.7550, 37249.01
921.8800, 31829.79
923.0040, 26360.61
924.1290, 22655.46
925.2530, 19546.33
926.3770, 17270.25
927.5010, 15591.20
928.6250, 13735.18
929.7480, 12163.15
930.8720, 10470.14
931.9950, 9061.139
933.1180, 7578.148
934.2410, 6912.178
935.3640, 5975.217
936.4860, 5464.268
937.6090, 5095.330
938.7310, 4925.418
939.8530, 4967.525
940.9750, 4924.650
942.0970, 5284.792
943.2180, 5749.945
944.3400, 6511.120
945.4610, 6931.312
946.5820, 7687.518
947.7030, 8311.737
948.8240, 8709.967
949.9450, 8745.215
951.0650, 8436.739
952.1860, 7629.020
953.3060, 6691.317
954.4260, 5587.627
955.5460, 4637.951
956.6650, 3807.289
957.7850, 3118.641
958.9040, 2525.087
960.0230, 2149.386
961.1420, 1698.780
962.2610, 1553.188
963.3800, 1416.611
964.4990, 1134.050
965.6170, 1064.501
966.7350, 946.9678
967.8530, 936.4502
968.9710, 833.9473
970.0890, 886.4590
971.2070, 758.9873
972.3240, 663.5303
973.4410, 693.0879
974.5580, 633.6621
975.6750, 539.2520
976.7920, 652.8564
977.9090, 466.4775
979.0250, 538.7559
980.1410, 459.4092
981.2580, 488.4883
982.3740, 413.9492
983.4890, 329.8779
984.6050, 461.2656
985.7200, 495.1768
986.8360, 464.5176
987.9510, 485.5371
989.0660, 386.5361
990.1810, 317.0498
991.2950, 419.8496
992.4100, 316.7119
993.5240, 565.3076
994.6390, 498.2109
995.7530, 522.1357
996.8660, 471.0820
997.9800, 628.0508
999.0940, 522.0420
1000.207, 562.0547
1001.320, 722.0898
1002.433, 716.1475
1003.546, 973.2402
1004.659, 1029.357
1005.772, 1169.495
1006.884, 1350.656
1007.996, 1747.840
1009.108, 2214.045
1010.220, 2526.272
1011.332, 3174.524
1012.444, 3840.799
1013.555, 4625.096
1014.666, 5469.415
1015.777, 6215.757
1016.888, 7001.122
1017.999, 7304.512
1019.110, 7455.070
1020.220, 7302.507
1021.331, 6529.965
1022.441, 5751.459
1023.551, 5034.975
1024.661, 4444.025
1025.770, 3828.138
1026.880, 3326.063
1027.989, 2814.854
1029.098, 2471.516
1030.207, 2104.210
1031.316, 1812.935
1032.425, 1596.305
1033.533, 1614.251
1034.642, 1304.096
1035.750, 1212.967
1036.858, 1213.855
1037.966, 1094.811
1039.073, 1009.009
1040.181, 1194.420
1041.288, 1071.535
1042.396, 1207.709
1043.503, 990.9248
1044.610, 1075.200
1045.716, 1024.046
1046.823, 1164.278
1047.929, 1385.684
1049.036, 1333.510
1050.142, 1509.981
1051.248, 1748.932
1052.353, 1977.444
1053.459, 2283.040
1054.564, 2869.823
1055.670, 3584.342
1056.775, 4459.812
1057.880, 5464.651
1058.985, 6774.324
1060.089, 8071.181
1061.194, 9392.850
1062.298, 10462.54
1063.402, 10949.25
1064.506, 11002.97
1065.610, 9785.711
1066.713, 8655.052
1067.817, 6998.830
1068.920, 5493.627
1070.023, 4557.441
1071.126, 3785.909
1072.229, 2955.775
1073.332, 2756.837
1074.435, 2197.386
1075.537, 1977.285
1076.639, 1756.214
1077.741, 1455.157
1078.843, 1359.119
1079.945, 1322.114
1081.046, 1374.128
1082.148, 1193.950
1083.249, 992.9980
1084.350, 1095.586
1085.451, 1061.985
1086.551, 1164.086
1087.652, 1077.203
1088.752, 1009.338
1089.853, 1009.492
1090.953, 1161.674
1092.053, 1006.873
1093.152, 1019.085
1094.252, 1017.337
1095.351, 950.6025
1096.451, 1142.884
1097.550, 1256.181
1098.649, 1307.493
1099.748, 1466.822
1100.846, 1686.166
1101.945, 1899.524
1103.043, 1968.896
1104.141, 2450.285
1105.239, 2637.688
1106.337, 2576.104
1107.434, 2927.534
1108.532, 3125.979
1109.629, 2908.445
1110.726, 2893.923
1111.823, 2544.455
1112.920, 2215.000
1114.017, 2145.583
1115.113, 1827.197
1116.210, 1711.867
1117.306, 1624.565
1118.402, 1646.326
1119.498, 1704.104
1120.593, 1720.938
1121.689, 1975.838
1122.784, 1733.769
1123.879, 1713.740
1124.974, 1602.724
1126.069, 1204.727
1127.164, 1281.743
1128.259, 997.7695
1129.353, 722.8105
1130.447, 400.8613
1131.541, 219.9248
1132.635, 196.9990
1133.729, 207.0859
1134.822, 286.1826
1135.916, 102.3018
1137.009, 146.4316
1138.102, 131.5723
1139.195, 192.7227
1140.288, 182.8838
1141.380, 160.0557
1142.473, 94.23730
1143.565, 109.4287
1144.657, 196.6309
1145.749, 97.84180
1146.841, 68.06250
1147.932, 213.2920
1149.024, 84.53223
1150.115, 7.219727
1151.206, 53.03516
1152.297, 85.29980
1153.388, 95.57324
1154.479, 83.48242
1155.569, 128.8574
1156.659, 18.38086
1157.750, 46.37109
1158.839, 70.13379
1159.929, 134.0801
1161.019, 59.30273
1162.108, 47.53223
1163.198, 21.23340
1164.287, 69.00000
1165.376, 52.24219
1166.465, 34.48828
1167.553, 42.25781
1168.642, 57.98145
1169.730, 61.77344
1170.818, 46.55078
1171.906, 32.65234
1172.994, 49.86230
1174.082, 138.0752
1175.170, 87.29395
1176.257, 8.484375
1177.344, 84.26367
1178.431, 69.08496
1179.518, 74.93848
1180.605, 74.17090
1181.691, 40.71582
1182.778, 30.37695
1183.864, 32.52734
1184.950, 148.4502
1186.036, 79.45020
1187.122, 61.49121
1188.207, 66.56738
1189.292, 126.6787
1190.378, 96.85742
1191.463, 120.9082
1192.548, 37.03906
1193.632, 104.4482
1194.717, 20.22070
1195.801, 31.99316
1196.886, 17.23242
1197.970, 28.52734
1199.054, 46.28809
1200.137, 19.05078
1201.221, 33.18848
1202.305, 22.06055
1203.388, 7.550781
1204.471, 1.977539
1205.554, 26.67578
1206.637, 25.45898
1207.719, 63.42773
1208.802, 24.12695
1209.884, 108.0742
1210.966, 116.7725
1212.048, 5.878906
1213.130, 147.5664
1214.212, 5.734375
1215.293, 17.93750
1216.374, 97.60449
1217.456, 67.45215
1218.536, 145.1152
1219.617, 248.7129
1220.698, 178.1387
1221.778, 290.7959
1222.859, 162.4531
1223.939, 71.14941
1225.019, 270.8008
1226.099, 255.4502
1227.178, 265.2520
1228.258, 219.8955
1229.337, 342.7969
1230.417, 388.4346
1231.496, 612.0684
1232.574, 401.6992
1233.653, 474.3271
1234.732, 379.9512
1235.810, 336.5713
1236.888, 549.1885
1237.966, 439.8018
1239.044, 449.5391
1240.122, 399.1445
1241.199, 499.0439
1242.277, 450.6416
1243.354, 242.2334
1244.431, 457.8223
1245.508, 693.4072
1246.585, 590.9883
1247.661, 537.5645
1248.738, 539.4404
1249.814, 461.0059
1250.890, 490.5635
1251.966, 541.1152
1253.042, 608.6602
1254.117, 547.1992
1255.193, 619.7314
1256.268, 391.2559
1257.343, 358.7754
1258.418, 368.2871
1259.493, 394.7910
1260.567, 385.8271
1261.642, 380.7773
1262.716, 364.2607
1263.790, 384.7363
1264.864, 292.5010
1265.938, 355.9609
1267.011, 453.4141
1268.085, 378.8594
1269.158, 306.2969
1270.231, 211.7266
1271.304, 299.1484
1272.377, 285.5615
1273.450, 249.9678
1274.522, 380.3643
1275.594, 166.7549
1276.666, 167.1357
1277.738, 124.5088
1278.810, 225.8740
1279.882, 314.0801
1280.953, 189.4287
