##NAMES=Andalusite
##RRUFFID=R060212
##IDEAL CHEMISTRY=Al_2_SiO_5_
##LOCALITY=Brazil
##OWNER=RRUFF
##SOURCE=Marcus Origlieri
##DESCRIPTION=Transparent yellow-green water-worn pebble
##STATUS=The identification of this mineral is confirmed by single-crystal X-ray diffraction and chemical analysis.
##URL=rruff.info/R060212
##MEASURED CHEMISTRY=(Al_1.98_Fe^3+^_0.02_)_Î£=2_Si_1.00_O_5_
##PIN_ID=L00827
##ORIENTATION=Laser parallel to -b* (0 -1 0). Fiducial mark perpendicular to laser is parallel to c [0 0 1]
99.64900, 0.0000000E+00
100.8830, 0.9384770
102.1160, 71.01953
103.3490, 104.9932
104.5820, 10.09375
105.8150, 249.4004
107.0470, 307.8447
108.2800, 758.5107
109.5120, 1000.205
110.7440, 667.0557
111.9760, 299.4014
113.2080, 305.7236
114.4400, 272.6221
115.6710, 324.7773
116.9030, 545.9395
118.1340, 434.8877
119.3650, 413.4346
120.5960, 266.4160
121.8270, 321.6895
123.0580, 317.1289
124.2880, 445.6309
125.5190, 384.1064
126.7490, 499.4854
127.9790, 373.6982
129.2090, 359.6914
130.4390, 494.4336
131.6680, 653.9258
132.8980, 656.0752
134.1270, 643.8389
135.3560, 703.1611
136.5850, 760.0107
137.8140, 818.3457
139.0430, 1031.165
140.2710, 938.3877
141.5000, 1083.984
142.7280, 1044.935
143.9560, 1041.219
145.1840, 868.8203
146.4120, 946.7285
147.6390, 877.9355
148.8670, 725.4434
150.0940, 720.2500
151.3210, 739.3516
152.5490, 625.7344
153.7750, 464.3857
155.0020, 519.2979
156.2290, 579.4609
157.4550, 417.8730
158.6810, 408.5244
159.9080, 346.8232
161.1340, 411.9199
162.3590, 406.9082
163.5850, 539.3945
164.8110, 598.0869
166.0360, 624.1357
167.2610, 573.2041
168.4860, 507.4619
169.7110, 570.9072
170.9360, 603.5303
172.1610, 582.3301
173.3850, 576.2402
174.6100, 555.0684
175.8340, 478.9688
177.0580, 488.1670
178.2820, 384.0615
179.5050, 342.0059
180.7290, 446.0107
181.9520, 496.0840
183.1760, 533.2324
184.3990, 562.4590
185.6220, 622.7695
186.8450, 660.8066
188.0670, 738.6533
189.2900, 775.2305
190.5120, 849.9004
191.7340, 948.6631
192.9560, 983.5547
194.1780, 1094.646
195.4000, 901.0303
196.6220, 974.5293
197.8430, 957.2705
199.0640, 1017.238
200.2860, 953.3594
201.5070, 1076.587
202.7270, 1054.890
203.9480, 872.2695
205.1690, 726.7236
206.3890, 408.2520
207.6090, 164.8555
208.8290, 113.5439
210.0490, 135.3193
211.2690, 98.19141
212.4890, 151.2510
213.7080, 87.39648
214.9280, 55.60645
216.1470, 6.882813
217.3660, 112.2246
218.5850, 4.368164
219.8030, 18.89453
221.0220, 135.6416
222.2400, 6.244141
223.4590, 61.09375
224.6770, 40.63281
225.8950, 88.42090
227.1120, 18.29590
228.3300, 29.28223
229.5480, 26.35156
230.7650, 48.50977
231.9820, 99.69043
233.1990, 185.9844
234.4160, 123.3320
235.6330, 173.7275
236.8490, 232.2090
238.0660, 266.9043
239.2820, 445.3252
240.4980, 393.9668
241.7140, 400.6582
242.9300, 416.3994
244.1460, 217.1904
245.3610, 419.0283
246.5770, 20.53125
247.7920, 289.7080
249.0070, 55.39062
250.2220, 186.5088
251.4370, 159.8662
252.6510, 64.66895
253.8660, 57.24805
255.0800, 191.0830
256.2940, 164.6426
257.5080, 117.4102
258.7220, 220.3711
259.9360, 239.8906
261.1490, 305.7373
262.3630, 348.2783
263.5760, 454.8877
264.7890, 415.6357
266.0020, 455.5156
267.2150, 589.5195
268.4270, 732.6436
269.6400, 638.8799
270.8520, 877.2256
272.0640, 1030.676
273.2760, 1263.226
274.4880, 1527.871
275.7000, 1963.610
276.9120, 2105.439
278.1230, 2320.354
279.3340, 2725.352
280.5450, 3443.430
281.7560, 4471.586
282.9670, 5521.816
284.1780, 7041.119
285.3880, 8783.420
286.5980, 10905.92
287.8090, 13630.05
289.0190, 15572.04
290.2290, 16936.71
291.4380, 17065.41
292.6480, 15373.08
293.8570, 13186.54
295.0670, 10310.50
296.2760, 7939.633
297.4850, 6030.689
298.6930, 4682.969
299.9020, 3616.977
301.1110, 2821.148
302.3190, 2269.373
303.5270, 1832.643
304.7350, 1566.961
305.9430, 1382.324
307.1510, 1267.744
308.3580, 1217.211
309.5660, 1267.723
310.7730, 1680.277
311.9800, 2169.869
313.1870, 2936.500
314.3940, 3725.174
315.6010, 4853.887
316.8070, 6345.576
318.0130, 7614.463
319.2200, 8972.289
320.4260, 9327.949
321.6310, 9020.961
322.8370, 8032.363
324.0430, 6692.334
325.2480, 5487.562
326.4540, 4128.609
327.6590, 3188.693
328.8640, 2670.811
330.0680, 2207.965
331.2730, 1735.156
332.4780, 1695.381
333.6820, 1677.643
334.8860, 1552.941
336.0900, 1450.275
337.2940, 1478.641
338.4980, 1195.041
339.7010, 1298.473
340.9050, 1213.938
342.1080, 1271.434
343.3110, 1271.959
344.5140, 1093.512
345.7170, 1285.094
346.9200, 1388.703
348.1220, 1652.342
349.3240, 1991.006
350.5270, 2554.699
351.7290, 3026.596
352.9310, 3775.408
354.1320, 4472.193
355.3340, 5382.016
356.5350, 6013.582
357.7370, 6602.352
358.9380, 6138.246
360.1390, 5670.160
361.3400, 5076.104
362.5400, 4145.068
363.7410, 3455.971
364.9410, 3056.842
366.1410, 2369.102
367.3410, 1982.924
368.5410, 1460.275
369.7410, 1447.369
370.9400, 1230.014
372.1400, 981.1504
373.3390, 1019.305
374.5380, 998.4805
375.7370, 623.1484
376.9360, 534.3594
378.1350, 446.4219
379.3330, 329.9023
380.5310, 386.9375
381.7300, 337.2207
382.9280, 339.5195
384.1260, 466.8359
385.3230, 474.1699
386.5210, 339.5195
387.7180, 341.8848
388.9160, 262.2676
390.1130, 502.6621
391.3100, 309.1074
392.5060, 343.5918
393.7030, 103.1211
394.9000, 305.6816
396.0960, 138.2812
397.2920, 93.91797
398.4880, 142.8848
399.6840, 132.5859
400.8800, 39.31641
402.0750, 100.0781
403.2710, 153.8672
404.4660, 125.6855
405.6610, 39.52930
406.8560, 244.4043
408.0510, 318.2988
409.2450, 152.2227
410.4400, 346.1680
411.6340, 566.1367
412.8280, 642.1289
414.0220, 777.1465
415.2160, 960.1855
416.4100, 1260.244
417.6030, 1224.328
418.7970, 1307.426
419.9900, 1048.549
421.1830, 856.6875
422.3760, 539.8477
423.5690, 363.0273
424.7610, 261.2246
425.9540, 91.44141
427.1460, 63.67383
428.3380, 90.07617
429.5300, 91.84961
430.7220, 1.343750
431.9140, 243.4512
433.1050, 49.34570
434.2970, 42.74805
435.4880, 3.142578
436.6790, 135.0664
437.8700, 142.0039
439.0610, 68.99805
440.2510, 103.6152
441.4420, 17.33203
442.6320, 80.77539
443.8220, 151.7402
445.0120, 100.6816
446.2020, 225.6367
447.3910, 496.6035
448.5810, 882.5820
449.7700, 1092.512
450.9600, 1097.600
452.1490, 1029.627
453.3370, 556.7598
454.5260, 544.8145
455.7150, 356.8789
456.9030, 113.0703
458.0910, 55.17188
459.2800, 12.67773
460.4670, 35.42773
461.6550, 169.5449
462.8430, 8.328125
464.0300, 36.79297
465.2180, 166.0781
466.4050, 125.9688
467.5920, 5.023438
468.7790, 80.07422
469.9650, 375.1367
471.1520, 145.2070
472.3380, 335.2852
473.5250, 434.3711
474.7110, 239.4648
475.8970, 425.3516
477.0820, 383.4707
478.2680, 413.6152
479.4540, 560.0332
480.6390, 717.2129
481.8240, 503.4375
483.0090, 593.6836
484.1940, 591.9395
485.3780, 760.2207
486.5630, 518.5059
487.7470, 263.7988
488.9320, 306.1152
490.1160, 132.4434
491.3000, 215.9922
492.4830, 128.3828
493.6670, 16.77930
494.8500, 0.8300780
496.0340, 36.18555
497.2170, 95.99805
498.4000, 9.355469
499.5820, 29.69922
500.7650, 131.0410
501.9480, 28.38477
503.1300, 77.72266
504.3120, 173.0645
505.4940, 29.58789
506.6760, 143.7559
507.8580, 310.1055
509.0390, 98.45703
510.2210, 167.8086
511.4020, 114.1660
512.5830, 19.47461
513.7640, 203.1211
514.9450, 283.4492
516.1250, 159.7793
517.3060, 103.1094
518.4860, 165.4453
519.6660, 42.77930
520.8460, 221.1055
522.0260, 276.4316
523.2060, 120.7578
524.3850, 175.0840
525.5650, 320.4102
526.7440, 217.7363
527.9230, 146.0605
529.1020, 152.3848
530.2810, 421.7109
531.4590, 125.0332
532.6380, 252.3535
533.8160, 169.4434
534.9940, 115.7617
536.1720, 448.0801
537.3500, 523.3945
538.5270, 304.7051
539.7050, 720.4102
540.8820, 732.7207
542.0590, 1002.035
543.2360, 1074.348
544.4130, 1340.654
545.5900, 1611.135
546.7660, 2159.438
547.9430, 2337.738
549.1190, 2868.033
550.2950, 2641.322
551.4710, 2835.607
552.6470, 2584.889
553.8220, 2252.164
554.9980, 1740.434
556.1730, 1509.697
557.3480, 1189.957
558.5230, 842.2070
559.6980, 637.4570
560.8730, 682.6953
562.0470, 649.9316
563.2220, 498.1602
564.3960, 286.3809
565.5700, 350.5957
566.7440, 416.8047
567.9170, 473.0391
569.0910, 368.2656
570.2640, 355.5664
571.4380, 388.7363
572.6110, 586.3320
573.7840, 399.1465
574.9570, 325.3281
576.1290, 257.5781
577.3020, 39.95703
578.4740, 149.5781
579.6460, 88.77344
580.8180, 48.86133
581.9900, 135.0742
583.1620, 22.11523
584.3330, 31.51367
585.5040, 193.7207
586.6760, 251.9473
587.8470, 118.1699
589.0180, 81.38672
590.1880, 19.37305
591.3590, 4.257813
592.5290, 240.4336
593.7000, 65.69336
594.8700, 125.8242
596.0400, 190.9941
597.2090, 68.46289
598.3790, 252.6074
599.5490, 76.94922
600.7180, 476.1406
601.8870, 365.8535
603.0560, 420.9668
604.2250, 474.8633
605.3940, 502.8477
606.5620, 525.4961
607.7300, 609.5742
608.8990, 394.4258
610.0670, 307.4863
611.2350, 422.5723
612.4020, 268.7773
613.5700, 251.8145
614.7370, 213.8418
615.9050, 23.96680
617.0720, 148.1113
618.2390, 190.3164
619.4060, 56.43164
620.5720, 99.69336
621.7390, 338.9551
622.9050, 212.6035
624.0710, 259.9219
625.2370, 354.6484
626.4030, 241.5664
627.5690, 289.4766
628.7340, 197.8848
629.9000, 267.6758
631.0650, 76.43164
632.2300, 279.6992
633.3950, 167.5156
634.5600, 204.4902
635.7240, 105.6582
636.8890, 62.02539
638.0530, 196.7910
639.2170, 355.8027
640.3810, 254.4219
641.5450, 192.1250
642.7080, 237.1152
643.8720, 357.7910
645.0350, 383.7676
646.1980, 335.9531
647.3610, 277.8789
648.5240, 305.5000
649.6870, 196.1055
650.8490, 135.6973
652.0120, 168.2754
653.1740, 76.30859
654.3360, 173.8555
655.4980, 284.3906
656.6600, 227.9082
657.8210, 288.4160
658.9830, 214.9043
660.1440, 432.5488
661.3050, 496.0117
662.4660, 548.4609
663.6270, 478.8945
664.7870, 396.3145
665.9480, 510.7188
667.1080, 461.1113
668.2680, 418.4160
669.4280, 108.8457
670.5880, 270.1934
671.7480, 190.5234
672.9070, 43.83984
674.0670, 160.1348
675.2260, 189.4141
676.3850, 275.6777
677.5440, 147.9258
678.7030, 68.16211
679.8610, 271.3770
681.0200, 484.0234
682.1780, 262.2773
683.3360, 382.4473
684.4940, 89.47266
685.6520, 221.6094
686.8090, 399.7324
687.9670, 227.8379
689.1240, 254.9277
690.2810, 318.0020
691.4380, 264.0625
692.5950, 240.1055
693.7520, 159.1309
694.9080, 139.6250
696.0650, 154.0801
697.2210, 118.1211
698.3770, 243.0859
699.5330, 328.0332
700.6880, 437.9668
701.8440, 479.8848
702.9990, 487.7871
704.1550, 538.6719
705.3100, 546.5410
706.4650, 617.4922
707.6190, 665.1074
708.7740, 717.0801
709.9290, 772.9062
711.0830, 759.7363
712.2370, 1127.566
713.3910, 1214.424
714.5450, 1085.938
715.6980, 978.3047
716.8520, 955.2031
718.0050, 1006.486
719.1580, 983.9414
720.3110, 741.4023
721.4640, 687.2812
722.6170, 393.2734
723.7700, 254.5547
724.9220, 264.5430
726.0740, 245.3750
727.2260, 243.1855
728.3780, 204.9902
729.5300, 25.13672
730.6810, 86.80078
731.8330, 128.5176
732.9840, 61.12109
734.1350, 146.7910
735.2860, 5.556641
736.4370, 150.9473
737.5880, 110.5332
738.7380, 162.0586
739.8880, 75.65625
741.0390, 157.1875
742.1890, 81.70117
743.3380, 210.2012
744.4880, 140.7031
745.6380, 293.2129
746.7870, 160.7031
747.9360, 240.1816
749.0850, 139.6426
750.2340, 114.0859
751.3830, 209.5098
752.5310, 240.9141
753.6800, 15.30273
754.8280, 114.8770
755.9760, 21.79102
757.1240, 36.51172
758.2720, 101.4609
759.4190, 87.34570
760.5670, 14.24023
761.7140, 93.81445
762.8610, 32.14844
764.0080, 151.8262
765.1550, 362.7852
766.3020, 28.27148
767.4480, 57.61328
768.5950, 58.47266
769.7410, 138.9082
770.8870, 52.80859
772.0330, 94.50586
773.1780, 86.18555
774.3240, 26.83789
775.4690, 112.4180
776.6140, 221.0586
777.7590, 53.69141
778.9040, 177.3066
780.0490, 86.90625
781.1940, 143.4902
782.3380, 27.06055
783.4820, 66.39844
784.6260, 85.08984
785.7700, 263.5566
786.9140, 136.0117
788.0580, 135.4473
789.2010, 231.8711
790.3450, 261.2773
791.4880, 358.4219
792.6310, 153.8145
793.7730, 162.1934
794.9160, 335.5566
796.0590, 127.9043
797.2010, 221.2383
798.3430, 122.5605
799.4850, 377.8711
800.6270, 370.1660
801.7690, 414.4473
802.9100, 671.7129
804.0520, 426.9629
805.1930, 539.2012
806.3340, 197.4258
807.4750, 414.6328
808.6160, 322.8301
809.7560, 419.0098
810.8970, 327.4082
812.0370, 349.5625
813.1770, 333.7051
814.3170, 276.8340
815.4570, 101.9492
816.5960, 309.6523
817.7360, 3.740234
818.8750, 82.80273
820.0140, 225.8496
821.1530, 22.88477
822.2920, 227.7246
823.4310, 324.7266
824.5690, 257.7148
825.7070, 284.6895
826.8460, 334.6562
827.9840, 169.6094
829.1220, 296.5469
830.2590, 376.4785
831.3970, 435.3945
832.5340, 370.2969
833.6710, 393.1895
834.8080, 450.0723
835.9450, 372.9434
837.0820, 403.8027
838.2190, 301.6504
839.3550, 139.4863
840.4910, 162.3105
841.6270, 253.1250
842.7630, 107.0723
843.8990, 118.6523
845.0350, 16.63281
846.1700, 119.0527
847.3060, 128.7246
848.4410, 31.61133
849.5760, 125.0117
850.7100, 138.3730
851.8450, 120.8516
852.9800, 58.58398
854.1140, 19.01367
855.2480, 91.57031
856.3820, 96.77734
857.5160, 104.5391
858.6500, 51.13281
859.7830, 286.1582
860.9170, 35.44922
862.0500, 220.7324
863.1830, 161.0039
864.3160, 105.7344
865.4480, 60.45508
866.5810, 205.8027
867.7130, 231.4883
868.8460, 87.58789
869.9780, 179.7988
871.1100, 172.9590
872.2410, 236.8008
873.3730, 119.9668
874.5050, 139.1328
875.6360, 25.09961
876.7670, 117.5762
877.8980, 163.7480
879.0290, 243.3223
880.1590, 23.47656
881.2900, 265.5938
882.4200, 176.7344
883.5500, 90.86914
884.6800, 245.0195
885.8100, 257.1309
886.9400, 263.1641
888.0690, 344.3457
889.1990, 383.5215
890.3280, 469.5859
891.4570, 479.6289
892.5860, 445.5918
893.7140, 450.6309
894.8430, 528.0469
895.9710, 767.4121
897.1000, 689.9160
898.2280, 895.7383
899.3560, 962.1328
900.4830, 1320.322
901.6110, 1312.510
902.7380, 1329.184
903.8660, 1736.461
904.9930, 2006.760
906.1200, 2343.529
907.2460, 2710.736
908.3730, 3714.602
909.5000, 4634.367
910.6260, 6027.027
911.7520, 7263.152
912.8780, 9869.363
914.0040, 12672.77
915.1290, 16179.97
916.2550, 19020.89
917.3800, 22019.10
918.5050, 22867.00
919.6300, 21805.72
920.7550, 19439.66
921.8800, 16609.87
923.0040, 13992.09
924.1290, 11792.32
925.2530, 10550.55
926.3770, 9887.797
927.5010, 8851.035
928.6250, 8173.273
929.7480, 6879.520
930.8720, 5867.766
931.9950, 4971.012
933.1180, 4150.262
934.2410, 3445.512
935.3640, 3030.770
936.4860, 2434.031
937.6090, 2327.289
938.7310, 2432.551
939.8530, 2100.820
940.9750, 2096.090
942.0970, 1818.367
943.2180, 2100.641
944.3400, 2154.922
945.4610, 2272.211
946.5820, 2268.508
947.7030, 2565.809
948.8240, 2733.113
949.9450, 2901.426
951.0650, 2553.734
952.1860, 2171.059
953.3060, 2024.938
954.4260, 1654.199
955.5460, 1346.531
956.6650, 1182.000
957.7850, 809.3477
958.9040, 830.6992
960.0230, 592.0586
961.1420, 481.4180
962.2610, 413.7852
963.3800, 345.1602
964.4990, 526.5430
965.6170, 344.9297
966.7350, 99.32422
967.8530, 326.7266
968.9710, 306.1328
970.0890, 212.5430
971.2070, 90.96484
972.3240, 215.3906
973.4410, 302.8281
974.5580, 44.26562
975.6750, 239.7188
976.7920, 77.17578
977.9090, 207.7617
979.0250, 51.23438
980.1410, 24.56250
981.2580, 124.0547
982.3740, 132.5508
983.4890, 151.7578
984.6050, 248.5664
985.7200, 154.4336
986.8360, 226.4375
987.9510, 177.9531
989.0660, 15.06641
990.1810, 352.0430
991.2950, 89.37891
992.4100, 454.1836
993.5240, 260.6406
994.6390, 134.2891
995.7530, 143.7500
996.8660, 143.3594
997.9800, 73.98828
999.0940, 58.30469
1000.207, 6.042969
1001.320, 67.62891
1002.433, 109.3203
1003.546, 112.8320
1004.659, 208.7461
1005.772, 239.4766
1006.884, 350.3242
1007.996, 466.9766
1009.108, 600.8789
1010.220, 770.6250
1011.332, 949.1602
1012.444, 1192.996
1013.555, 1403.844
1014.666, 1777.691
1015.777, 2170.574
1016.888, 2558.465
1017.999, 2811.906
1019.110, 2852.828
1020.220, 2599.645
1021.331, 2753.598
1022.441, 2083.562
1023.551, 2095.543
1024.661, 1323.105
1025.770, 1488.125
1026.880, 1018.180
1027.989, 987.2656
1029.098, 630.2617
1030.207, 734.5430
1031.316, 472.7227
1032.425, 510.9258
1033.533, 343.1602
1034.642, 463.4102
1035.750, 454.6719
1036.858, 240.9648
1037.966, 224.2812
1039.073, 463.7070
1040.181, 350.1055
1041.288, 450.0703
1042.396, 260.5039
1043.503, 351.9570
1044.610, 271.4258
1045.716, 436.9180
1046.823, 445.5117
1047.929, 347.0312
1049.036, 450.7031
1050.142, 595.2539
1051.248, 643.8242
1052.353, 751.4141
1053.459, 711.4922
1054.564, 952.1406
1055.670, 1143.805
1056.775, 1462.867
1057.880, 1980.562
1058.985, 2555.504
1060.089, 3355.230
1061.194, 3974.977
1062.298, 4838.730
1063.402, 5047.504
1064.506, 5387.293
1065.610, 4989.102
1066.713, 4001.000
1067.817, 3273.836
1068.920, 2578.688
1070.023, 2152.551
1071.126, 1877.434
1072.229, 1519.336
1073.332, 1229.254
1074.435, 1031.656
1075.537, 806.2500
1076.639, 716.0898
1077.741, 557.0898
1078.843, 495.0859
1079.945, 529.0977
1081.046, 437.1250
1082.148, 483.1719
1083.249, 455.2266
1084.350, 528.3047
1085.451, 475.3945
1086.551, 573.5117
1087.652, 528.0703
1088.752, 483.7891
1089.853, 422.9570
1090.953, 414.1406
1092.053, 269.3398
1093.152, 381.5547
1094.252, 662.7930
1095.351, 622.0430
1096.451, 487.3086
1097.550, 234.5859
1098.649, 573.8867
1099.748, 396.1992
1100.846, 635.5312
1101.945, 755.8789
1103.043, 543.2461
1104.141, 535.6250
1105.239, 744.0195
1106.337, 906.4297
1107.434, 818.8594
1108.532, 1132.309
1109.629, 1005.770
1110.726, 849.2852
1111.823, 1100.809
1112.920, 977.3672
1114.017, 858.9414
1115.113, 618.5312
1116.210, 544.1523
1117.306, 248.7891
1118.402, 512.4805
1119.498, 445.2266
1120.593, 841.9922
1121.689, 865.7773
1122.784, 562.6016
1123.879, 645.0234
1124.974, 346.8828
1126.069, 590.7773
1127.164, 426.6875
1128.259, 382.6797
1129.353, 52.68750
1130.447, 151.7148
1131.541, 128.8008
1132.635, 80.85156
1133.729, 194.9766
1134.822, 79.13281
1135.916, 82.30469
1137.009, 276.4961
1138.102, 74.29688
1139.195, 89.08203
1140.288, 218.1172
1141.380, 52.66406
1142.473, 43.45703
1143.565, 108.7773
1144.657, 31.02344
1145.749, 67.28516
1146.841, 18.55859
1147.932, 94.85156
1149.024, 119.8398
1150.115, 155.4492
1151.206, 229.2383
1152.297, 63.98047
1153.388, 118.2188
1154.479, 55.47266
1155.569, 59.25391
1156.659, 112.0078
1157.750, 215.3086
1158.839, 39.63281
1159.929, 195.0195
1161.019, 0.2617190
1162.108, 177.5508
1163.198, 96.86328
1164.287, 159.1797
1165.376, 148.5117
1166.465, 89.89062
1167.553, 14.27344
1168.642, 53.67969
1169.730, 2.121094
1170.818, 57.40234
1171.906, 34.94531
1172.994, 189.5273
1174.082, 179.0195
1175.170, 256.5234
1176.257, 215.0391
1177.344, 2.570313
1178.431, 133.1094
1179.518, 24.33203
1180.605, 37.22266
1181.691, 212.8242
1182.778, 70.44141
1183.864, 6.937500
1184.950, 262.7188
1186.036, 98.38672
1187.122, 50.93359
1188.207, 90.72656
1189.292, 0.5937500
1190.378, 135.0898
1191.463, 309.7891
1192.548, 262.4961
1193.632, 265.2148
1194.717, 121.9492
1195.801, 296.6875
1196.886, 4.441406
1197.970, 155.1992
1199.054, 67.97656
1200.137, 70.75781
1201.221, 130.9609
1202.305, 216.3750
1203.388, 230.1914
1204.471, 280.0273
1205.554, 402.8672
1206.637, 189.7227
1207.719, 18.41406
1208.802, 85.44922
1209.884, 306.3242
1210.966, 259.2109
1212.048, 310.1055
1213.130, 138.0117
1214.212, 249.9336
1215.293, 181.8555
1216.374, 240.7930
1217.456, 115.7383
1218.536, 353.6953
1219.617, 79.65625
1220.698, 347.6328
1221.778, 293.6250
1222.859, 132.6211
1223.939, 159.6289
1225.019, 277.6484
1226.099, 129.6758
1227.178, 195.7109
1228.258, 245.7617
1229.337, 143.8164
1230.417, 223.8828
1231.496, 573.9531
1232.574, 388.0430
1233.653, 580.1328
1234.732, 261.2305
1235.810, 227.3359
1236.888, 489.4453
1237.966, 410.5625
1239.044, 460.6992
1240.122, 339.8398
1241.199, 487.9922
1242.277, 405.1758
1243.354, 394.3750
1244.431, 425.5742
1245.508, 303.7852
1246.585, 306.0000
1247.661, 644.2188
1248.738, 296.4453
1249.814, 258.6719
1250.890, 639.9102
1251.966, 119.1445
1253.042, 237.4023
1254.117, 268.6719
1255.193, 585.9414
1256.268, 298.3750
1257.343, 378.7305
1258.418, 384.0156
1259.493, 388.3008
1260.567, 411.9219
1261.642, 369.3672
1262.716, 399.6797
1263.790, 482.2344
1264.864, 455.5508
1265.938, 503.6680
1267.011, 685.1875
1268.085, 489.9102
1269.158, 246.3867
1270.231, 89.92969
1271.304, 418.1289
1272.377, 352.8828
1273.450, 437.2109
1274.522, 646.5312
1275.594, 332.8555
1276.666, 283.5977
1277.738, 448.0586
1278.810, 560.0078
1279.882, 207.5547
1280.953, 535.2852
