##NAMES=Andradite
##RRUFFID=R050311
##IDEAL CHEMISTRY=Ca_3_Fe^3+^_2_(SiO_4_)_3_
##LOCALITY=Calaveras County, California, USA
##OWNER=RRUFF
##SOURCE=Eugene Schlepp
##DESCRIPTION=Deep red crystals
##STATUS=The identification of this mineral has been confirmed by X-ray diffraction and chemical analysis
##URL=rruff.info/R050311
##MEASURED CHEMISTRY=(Ca_2.88_Mn_0.07_Fe^2+^_0.05_)_Σ=3_(Fe^3+^_1.39_Al_0.59_Ti_0.02_)_Σ=2_((Si_0.99_Al_0.01_)_Σ=1_O_4_)_3_
##PIN_ID=M00304
##ORIENTATION=Laser parallel to c* (0 0 1). Fiducial mark perpendicular to laser is parallel to a [1 0 0]
123.0580, 0.0000000E+00
124.2880, 131.3750
125.5190, 152.2539
126.7490, 0.2280270
127.9790, 11.25488
129.2090, 103.3804
130.4390, 194.1606
131.6680, 211.9561
132.8980, 108.1494
134.1270, 24.71338
135.3560, 110.2158
136.5850, 59.95801
137.8140, 121.4922
139.0430, 252.1138
140.2710, 305.9761
141.5000, 213.9585
142.7280, 123.7832
143.9560, 72.22852
145.1840, 17.32959
146.4120, 3.023438
147.6390, 4.859863
148.8670, 116.7939
150.0940, 15.91504
151.3210, 98.48193
152.5490, 291.4766
153.7750, 176.8818
155.0020, 69.68457
156.2290, 77.87061
157.4550, 19.57031
158.6810, 105.6489
159.9080, 6.373047
161.1340, 109.2441
162.3590, 254.1885
163.5850, 532.4434
164.8110, 713.9897
166.0360, 908.7266
167.2610, 1055.783
168.4860, 1119.089
169.7110, 1381.634
170.9360, 1513.408
172.1610, 1513.407
173.3850, 1573.623
174.6100, 1661.054
175.8340, 1742.694
177.0580, 1601.542
178.2820, 1621.593
179.5050, 1426.846
180.7290, 1234.297
181.9520, 986.9448
183.1760, 817.7861
184.3990, 666.9819
185.6220, 519.0454
186.8450, 443.4600
188.0670, 379.0625
189.2900, 341.8525
190.5120, 338.9155
191.7340, 354.9902
192.9560, 382.3359
194.1780, 399.2549
195.4000, 523.5781
196.6220, 456.4663
197.8430, 496.5020
199.0640, 530.6450
200.2860, 421.9160
201.5070, 488.3066
202.7270, 500.7637
203.9480, 281.2832
205.1690, 103.8672
206.3890, 120.5166
207.6090, 0.7685550
208.8290, 23.00537
210.0490, 16.82861
211.2690, 49.74463
212.4890, 167.7471
213.7080, 277.8320
214.9280, 338.9404
216.1470, 391.1426
217.3660, 324.4414
218.5850, 392.8398
219.8030, 532.3394
221.0220, 678.9414
222.2400, 915.6465
223.4590, 1162.457
224.6770, 1367.373
225.8950, 1856.394
227.1120, 2042.523
228.3300, 2625.761
229.5480, 2973.106
230.7650, 3471.562
231.9820, 3561.125
233.1990, 3652.799
234.4160, 3824.582
235.6330, 3860.476
236.8490, 3873.479
238.0660, 3862.593
239.2820, 3673.814
240.4980, 3420.145
241.7140, 2894.586
242.9300, 2381.139
244.1460, 1714.802
245.3610, 1384.578
246.5770, 885.4644
247.7920, 600.4624
249.0070, 418.5723
250.2220, 170.7959
251.4370, 177.1318
252.6510, 168.5815
253.8660, 134.1440
255.0800, 210.8218
256.2940, 180.6118
257.5080, 505.5176
258.7220, 1055.538
259.9360, 914.6113
261.1490, 1516.923
262.3630, 926.2886
263.5760, 802.7690
264.7890, 815.3662
266.0020, 932.0796
267.2150, 1074.909
268.4270, 934.0142
269.6400, 972.8682
270.8520, 879.1372
272.0640, 722.8516
273.2760, 796.1177
274.4880, 718.9458
275.7000, 543.0762
276.9120, 517.1738
278.1230, 452.4355
279.3340, 522.5371
280.5450, 295.8184
281.7560, 129.1460
282.9670, 187.7104
284.1780, 93.25830
285.3880, 175.9248
286.5980, 185.6812
287.8090, 70.39795
289.0190, 133.2427
290.2290, 212.2124
291.4380, 115.9424
292.6480, 231.1343
293.8570, 247.5317
295.0670, 317.9795
296.2760, 295.5293
297.4850, 469.2051
298.6930, 575.9922
299.9020, 740.8896
301.1110, 793.8950
302.3190, 989.0073
303.5270, 1096.490
304.7350, 1474.290
305.9430, 1683.526
307.1510, 2180.051
308.3580, 2438.676
309.5660, 2686.400
310.7730, 2916.223
311.9800, 3182.136
313.1870, 3420.146
314.3940, 3727.251
315.6010, 3712.450
316.8070, 3844.743
318.0130, 3797.128
319.2200, 3655.604
320.4260, 3477.173
321.6310, 3345.832
322.8370, 3196.581
324.0430, 3069.615
325.2480, 2945.167
326.4540, 2877.356
327.6590, 2789.457
328.8640, 2786.642
330.0680, 2894.913
331.2730, 2882.269
332.4780, 3078.709
333.6820, 2849.233
334.8860, 3075.840
336.0900, 2990.528
337.2940, 3123.298
338.4980, 3210.149
339.7010, 3476.081
340.9050, 3776.092
342.1080, 4288.182
343.3110, 4678.350
344.5140, 5367.596
345.7170, 6030.920
346.9200, 7030.321
348.1220, 8066.799
349.3240, 9069.355
350.5270, 10165.99
351.7290, 11544.70
352.9310, 12968.47
354.1320, 14544.07
355.3340, 16272.02
356.5350, 18439.04
357.7370, 21054.14
358.9380, 25036.32
360.1390, 28161.58
361.3400, 31713.93
362.5400, 35635.35
363.7410, 39132.84
364.9410, 42174.41
366.1410, 44786.07
367.3410, 47599.79
368.5410, 49441.59
369.7410, 50078.48
370.9400, 49696.47
372.1400, 47892.50
373.3390, 44533.65
374.5380, 39807.89
375.7370, 34633.23
376.9360, 29105.63
378.1350, 23873.12
379.3330, 19590.70
380.5310, 16061.34
381.7300, 13183.08
382.9280, 11076.90
384.1260, 9230.791
385.3230, 7553.771
386.5210, 6458.829
387.7180, 5628.974
388.9160, 4646.206
390.1130, 4081.519
391.3100, 3560.918
392.5060, 3026.395
393.7030, 2645.954
394.9000, 2121.597
396.0960, 1940.331
397.2920, 1469.161
398.4880, 1336.083
399.6840, 1068.071
400.8800, 882.1421
402.0750, 707.3130
403.2710, 441.5586
404.4660, 414.8965
405.6610, 360.3340
406.8560, 189.8564
408.0510, 42.46094
409.2450, 91.17090
410.4400, 15.04932
411.6340, 55.80420
412.8280, 55.24609
414.0220, 103.1665
415.2160, 144.9946
416.4100, 56.74658
417.6030, 204.4082
418.7970, 75.99219
419.9900, 109.4805
421.1830, 111.8794
422.3760, 58.18604
423.5690, 22.40039
424.7610, 2.805664
425.9540, 14.50293
427.1460, 79.60791
428.3380, 121.7949
429.5300, 181.0308
430.7220, 123.4023
431.9140, 248.8271
433.1050, 274.3330
434.2970, 299.9326
435.4880, 403.6123
436.6790, 415.3667
437.8700, 458.6553
439.0610, 396.0962
440.2510, 543.0615
441.4420, 518.1011
442.6320, 618.2046
443.8220, 695.3740
445.0120, 666.6030
446.2020, 646.8916
447.3910, 745.2432
448.5810, 813.6719
449.7700, 832.1611
450.9600, 832.7065
452.1490, 794.3086
453.3370, 683.9668
454.5260, 778.6816
455.7150, 845.4497
456.9030, 720.2725
458.0910, 610.1499
459.2800, 596.0796
460.4670, 608.0625
461.6550, 428.0972
462.8430, 377.1836
464.0300, 310.3213
465.2180, 156.5093
466.4050, 98.74707
467.5920, 118.0337
468.7790, 291.3701
469.9650, 231.7544
471.1520, 388.1865
472.3380, 421.6660
473.5250, 460.1924
474.7110, 730.7651
475.8970, 857.3823
477.0820, 1088.045
478.2680, 1296.753
479.4540, 1472.311
480.6390, 1602.300
481.8240, 1856.138
483.0090, 2073.019
484.1940, 2252.941
485.3780, 2266.905
486.5630, 2561.909
487.7470, 2668.954
488.9320, 2955.040
490.1160, 2925.164
491.3000, 3016.327
492.4830, 3157.527
493.6670, 2974.767
494.8500, 3252.043
496.0340, 3053.356
497.2170, 3016.036
498.4000, 2827.421
499.5820, 2735.244
500.7650, 2615.699
501.9480, 2382.189
503.1300, 2474.476
504.3120, 2357.050
505.4940, 2462.637
506.6760, 2553.382
507.8580, 2900.032
509.0390, 3251.712
510.2210, 3577.542
511.4020, 4181.272
512.5830, 5151.871
513.7640, 6092.665
514.9450, 7616.599
516.1250, 9091.681
517.3060, 10700.86
518.4860, 12420.00
519.6660, 13975.75
520.8460, 15369.59
522.0260, 16511.70
523.2060, 17112.38
524.3850, 17611.54
525.5650, 17195.79
526.7440, 16371.55
527.9230, 14872.11
529.1020, 13029.23
530.2810, 11045.28
531.4590, 8838.674
532.6380, 7045.157
533.8160, 5674.482
534.9940, 4511.722
536.1720, 3724.781
537.3500, 3016.986
538.5270, 2652.396
539.7050, 2346.758
540.8820, 2046.900
542.0590, 1922.550
543.2360, 1834.304
544.4130, 1854.291
545.5900, 1878.791
546.7660, 1823.833
547.9430, 1805.841
549.1190, 1725.889
550.2950, 1779.008
551.4710, 1969.588
552.6470, 1876.439
553.8220, 1936.839
554.9980, 1866.916
556.1730, 1813.630
557.3480, 1815.781
558.5230, 1775.731
559.6980, 1552.541
560.8730, 1484.012
562.0470, 1335.689
563.2220, 1267.274
564.3960, 1148.708
565.5700, 1048.275
566.7440, 936.4990
567.9170, 858.7578
569.0910, 759.7012
570.2640, 665.9077
571.4380, 586.8955
572.6110, 654.9180
573.7840, 682.1401
574.9570, 649.6885
576.1290, 610.4268
577.3020, 700.8926
578.4740, 793.9756
579.6460, 815.5601
580.8180, 875.9902
581.9900, 870.2520
583.1620, 940.9209
584.3330, 923.7822
585.5040, 952.8062
586.6760, 1036.795
587.8470, 1075.764
589.0180, 1138.507
590.1880, 1105.757
591.3590, 1220.660
592.5290, 1261.540
593.7000, 1212.396
594.8700, 1299.229
596.0400, 1247.038
597.2090, 1319.822
598.3790, 1474.581
599.5490, 1445.314
600.7180, 1541.022
601.8870, 1401.704
603.0560, 1562.358
604.2250, 1386.985
605.3940, 1423.584
606.5620, 1383.156
607.7300, 1401.700
608.8990, 1293.214
610.0670, 1269.998
611.2350, 1254.156
612.4020, 1163.582
613.5700, 1181.977
614.7370, 1146.342
615.9050, 968.6753
617.0720, 939.9775
618.2390, 816.2476
619.4060, 612.4863
620.5720, 680.6914
621.7390, 590.8638
622.9050, 441.0024
624.0710, 397.1074
625.2370, 248.1792
626.4030, 237.2153
627.5690, 231.2178
628.7340, 216.1846
629.9000, 236.1162
631.0650, 187.0117
632.2300, 148.8716
633.3950, 174.6953
634.5600, 111.4824
635.7240, 192.2324
636.8890, 21.94434
638.0530, 152.6143
639.2170, 14.75342
640.3810, 103.8159
641.5450, 67.34717
642.7080, 1.160156
643.8720, 40.27490
645.0350, 54.66895
646.1980, 13.02344
647.3610, 69.32471
648.5240, 78.58691
649.6870, 42.80957
650.8490, 45.01221
652.0120, 26.07910
653.1740, 76.12061
654.3360, 59.87939
655.4980, 28.97607
656.6600, 45.15381
657.8210, 23.57910
658.9830, 35.25635
660.1440, 20.11865
661.3050, 65.42822
662.4660, 15.07031
663.6270, 5.645508
664.7870, 31.70557
665.9480, 12.99805
667.1080, 7.219727
668.2680, 16.62988
669.4280, 14.74463
670.5880, 3.189453
671.7480, 19.65527
672.9070, 17.17676
674.0670, 14.05713
675.2260, 10.37256
676.3850, 43.76758
677.5440, 62.26123
678.7030, 44.86328
679.8610, 59.43555
681.0200, 16.31982
682.1780, 81.15918
683.3360, 11.88135
684.4940, 60.14893
685.6520, 84.28809
686.8090, 35.54932
687.9670, 19.90723
689.1240, 116.3535
690.2810, 24.06055
691.4380, 2.592773
692.5950, 88.32422
693.7520, 207.1807
694.9080, 91.22119
696.0650, 52.37988
697.2210, 14.63086
698.3770, 107.9644
699.5330, 77.41162
700.6880, 77.97217
701.8440, 93.64307
702.9990, 55.43213
704.1550, 93.32471
705.3100, 90.34229
706.4650, 90.48584
707.6190, 42.24707
708.7740, 32.91797
709.9290, 11.52686
711.0830, 10.06348
712.2370, 5.529297
713.3910, 48.07910
714.5450, 14.21045
715.6980, 54.43311
716.8520, 30.59766
718.0050, 101.7002
719.1580, 74.75391
720.3110, 9.755859
721.4640, 89.68896
722.6170, 76.57178
723.7700, 160.4038
724.9220, 188.1924
726.0740, 180.9390
727.2260, 153.6426
728.3780, 142.3042
729.5300, 172.9214
730.6810, 219.4971
731.8330, 221.0312
732.9840, 252.5239
734.1350, 302.9741
735.2860, 332.2666
736.4370, 348.1299
737.5880, 369.2900
738.7380, 357.3677
739.8880, 385.6138
741.0390, 368.8203
742.1890, 375.0938
743.3380, 393.1128
744.4880, 426.2002
745.6380, 454.2476
746.7870, 515.2549
747.9360, 461.2246
749.0850, 522.1543
750.2340, 544.0464
751.3830, 488.8994
752.5310, 553.7148
753.6800, 640.4927
754.8280, 580.2324
755.9760, 626.9351
757.1240, 626.6011
758.2720, 745.2290
759.4190, 758.8213
760.5670, 734.3765
761.7140, 779.7661
762.8610, 743.3794
764.0080, 774.8276
765.1550, 773.2407
766.3020, 758.6196
767.4480, 769.3291
768.5950, 782.2749
769.7410, 754.5508
770.8870, 738.7959
772.0330, 714.0156
773.1780, 701.2632
774.3240, 746.3838
775.4690, 699.2012
776.6140, 764.3281
777.7590, 814.0283
778.9040, 799.1113
780.0490, 840.1753
781.1940, 864.4448
782.3380, 972.4482
783.4820, 967.4434
784.6260, 1088.288
785.7700, 1111.243
786.9140, 1226.169
788.0580, 1350.947
789.2010, 1345.845
790.3450, 1614.886
791.4880, 1696.734
792.6310, 1911.445
793.7730, 2144.024
794.9160, 2537.504
796.0590, 2787.042
797.2010, 3063.971
798.3430, 3354.812
799.4850, 3875.436
800.6270, 4249.493
801.7690, 4659.070
802.9100, 5287.574
804.0520, 5802.577
805.1930, 6365.777
806.3340, 6976.438
807.4750, 7675.157
808.6160, 8453.554
809.7560, 9370.855
810.8970, 10258.32
812.0370, 11220.87
813.1770, 12128.59
814.3170, 12775.17
815.4570, 13552.54
816.5960, 14026.95
817.7360, 14555.57
818.8750, 14639.69
820.0140, 14532.69
821.1530, 14323.46
822.2920, 13528.71
823.4310, 13048.41
824.5690, 12389.14
825.7070, 11347.83
826.8460, 10608.43
827.9840, 9867.575
829.1220, 9345.282
830.2590, 8726.591
831.3970, 8391.427
832.5340, 8093.531
833.6710, 7974.067
834.8080, 7844.970
835.9450, 7949.011
837.0820, 8006.973
838.2190, 8264.901
839.3550, 8565.854
840.4910, 8857.218
841.6270, 9135.211
842.7630, 9461.410
843.8990, 9719.620
845.0350, 9711.294
846.1700, 9921.696
847.3060, 9632.309
848.4410, 9333.877
849.5760, 9165.237
850.7100, 8742.264
851.8450, 8462.093
852.9800, 7859.182
854.1140, 7357.645
855.2480, 7352.598
856.3820, 7045.155
857.5160, 6975.952
858.6500, 7059.791
859.7830, 7291.427
860.9170, 7105.889
862.0500, 7207.375
863.1830, 7481.874
864.3160, 7954.345
865.4480, 8324.778
866.5810, 8803.312
867.7130, 9502.851
868.8460, 9997.404
869.9780, 11078.97
871.1100, 11847.55
872.2410, 12800.14
873.3730, 13773.74
874.5050, 14534.36
875.6360, 15098.99
876.7670, 15415.64
877.8980, 15593.30
879.0290, 15422.97
880.1590, 14769.66
881.2900, 13709.36
882.4200, 12409.09
883.5500, 11172.82
884.6800, 9773.577
885.8100, 8677.349
886.9400, 7446.143
888.0690, 6435.954
889.1990, 5695.781
890.3280, 5019.627
891.4570, 4286.492
892.5860, 3897.377
893.7140, 3470.279
894.8430, 3039.207
895.9710, 2751.153
897.1000, 2509.125
898.2280, 2269.132
899.3560, 2054.166
900.4830, 1850.277
901.6110, 1716.581
902.7380, 1696.522
903.8660, 1485.672
904.9930, 1431.844
906.1200, 1302.441
907.2460, 1318.226
908.3730, 1266.783
909.5000, 988.0366
910.6260, 1047.034
911.7520, 1217.016
912.8780, 932.7388
914.0040, 1027.660
915.1290, 1099.683
916.2550, 1110.248
917.3800, 1033.185
918.5050, 1059.626
919.6300, 946.0913
920.7550, 959.6431
921.8800, 1011.180
923.0040, 1014.740
924.1290, 1097.555
925.2530, 1155.913
926.3770, 1268.945
927.5010, 1404.626
928.6250, 1522.679
929.7480, 1587.453
930.8720, 1678.526
931.9950, 1710.782
933.1180, 1772.620
934.2410, 1900.869
935.3640, 1905.794
936.4860, 1873.779
937.6090, 1968.719
938.7310, 1817.771
939.8530, 1744.056
940.9750, 1737.953
942.0970, 1589.220
943.2180, 1425.944
944.3400, 1386.195
945.4610, 1176.823
946.5820, 1243.151
947.7030, 1085.521
948.8240, 979.9321
949.9450, 1007.394
951.0650, 918.9106
952.1860, 941.4790
953.3060, 970.0762
954.4260, 1059.717
955.5460, 1083.419
956.6650, 1116.158
957.7850, 1210.955
958.9040, 1210.812
960.0230, 1298.721
961.1420, 1375.675
962.2610, 1491.701
963.3800, 1467.762
964.4990, 1516.864
965.6170, 1592.031
966.7350, 1734.295
967.8530, 1776.623
968.9710, 1905.847
970.0890, 2017.435
971.2070, 2120.932
972.3240, 2200.493
973.4410, 2282.114
974.5580, 2267.801
975.6750, 2374.545
976.7920, 2526.354
977.9090, 2439.229
979.0250, 2575.169
980.1410, 2673.143
981.2580, 2520.156
982.3740, 2693.218
983.4890, 2657.317
984.6050, 2761.460
985.7200, 2632.664
986.8360, 2798.919
987.9510, 2720.204
989.0660, 2845.526
990.1810, 3064.876
991.2950, 3104.256
992.4100, 3282.133
993.5240, 3223.127
994.6390, 3506.609
995.7530, 3561.127
996.8660, 3558.670
997.9800, 3547.236
999.0940, 3505.828
1000.207, 3455.447
1001.320, 3110.110
1002.433, 2815.797
1003.546, 2555.507
1004.659, 1935.239
1005.772, 1768.996
1006.884, 1409.792
1007.996, 1272.612
1009.108, 1074.454
1010.220, 945.3193
1011.332, 815.2109
1012.444, 860.1353
1013.555, 725.0825
1014.666, 690.0522
1015.777, 670.0454
1016.888, 617.4502
1017.999, 694.4858
1019.110, 633.6562
1020.220, 767.9639
1021.331, 558.0703
1022.441, 635.2241
1023.551, 567.4009
1024.661, 346.0840
1025.770, 237.3306
1026.880, 142.6001
1027.989, 137.1665
1029.098, 234.4756
1030.207, 97.04053
1031.316, 56.68750
1032.425, 85.91699
1033.533, 0.7158200
1034.642, 70.61230
1035.750, 2.045410
1036.858, 36.04150
1037.966, 10.70020
1039.073, 19.78320
1040.181, 53.13037
1041.288, 69.63184
1042.396, 37.13867
1043.503, 54.64014
1044.610, 75.14160
1045.716, 45.65283
1046.823, 71.16211
1047.929, 72.10498
1049.036, 6.203613
1050.142, 87.71436
1051.248, 32.23389
1052.353, 31.74902
1053.459, 76.25977
1054.564, 10.21582
1055.670, 14.70752
1056.775, 94.78662
1057.880, 69.30518
1058.985, 11.83643
1060.089, 43.64111
1061.194, 76.86816
1062.298, 64.60449
1063.402, 99.90967
1064.506, 7.545410
1065.610, 46.98682
1066.713, 175.5269
1067.817, 46.13672
1068.920, 22.24658
1070.023, 134.3594
1071.126, 51.98486
1072.229, 1.659668
1073.332, 77.29736
1074.435, 23.95898
1075.537, 52.62256
1076.639, 40.70117
1077.741, 47.96631
1078.843, 21.35352
1079.945, 66.68262
1081.046, 19.03320
1082.148, 95.39355
1083.249, 38.76270
1084.350, 47.13916
1085.451, 27.52490
1086.551, 23.97656
1087.652, 57.31787
1088.752, 52.72461
1089.853, 74.13770
1090.953, 124.5571
1092.053, 134.5977
1093.152, 154.4141
1094.252, 169.8506
1095.351, 189.2925
1096.451, 205.1079
1097.550, 245.1890
1098.649, 235.6436
1099.748, 214.1021
1100.846, 223.5625
1101.945, 184.0264
1103.043, 298.4927
1104.141, 399.9614
1105.239, 325.4307
1106.337, 337.9277
1107.434, 321.3999
1108.532, 314.8726
1109.629, 331.3452
1110.726, 246.1050
1111.823, 273.5771
1112.920, 272.5195
1114.017, 293.4131
1115.113, 372.8823
1116.210, 423.1055
1117.306, 659.3442
1118.402, 753.2295
1119.498, 821.6895
1120.593, 800.8232
1121.689, 863.4609
1122.784, 760.2891
1123.879, 849.1963
1124.974, 832.7397
1126.069, 702.1772
1127.164, 637.5781
1128.259, 494.0059
1129.353, 414.7930
1130.447, 335.6685
1131.541, 269.1714
1132.635, 223.8433
1133.729, 184.5435
1134.822, 197.9370
1135.916, 155.4619
1137.009, 254.9082
1138.102, 139.6841
1139.195, 238.0542
1140.288, 337.4116
1141.380, 127.7949
1142.473, 105.3979
1143.565, 58.95117
1144.657, 207.6431
1145.749, 197.1030
1146.841, 105.8120
1147.932, 36.11035
1149.024, 97.39502
1150.115, 48.25879
1151.206, 19.52539
1152.297, 96.83789
1153.388, 149.4370
1154.479, 97.29590
1155.569, 46.28857
1156.659, 233.3340
1157.750, 142.1030
1158.839, 29.27246
1159.929, 168.4180
1161.019, 31.55127
1162.108, 5.339844
1163.198, 19.85400
1164.287, 0.7158200
1165.376, 2.053223
1166.465, 84.65186
1167.553, 29.57568
1168.642, 68.51953
1169.730, 127.4204
1170.818, 39.16846
1171.906, 93.46729
1172.994, 253.0205
1174.082, 218.8652
1175.170, 98.97412
1176.257, 245.1108
1177.344, 193.5703
1178.431, 153.2124
1179.518, 327.5229
1180.605, 233.4434
1181.691, 224.5718
1182.778, 182.3745
1183.864, 251.2588
1184.950, 301.9209
1186.036, 342.9648
1187.122, 333.6802
1188.207, 340.5918
1189.292, 251.9976
1190.378, 303.2568
1191.463, 229.9502
1192.548, 198.2354
1193.632, 198.8350
1194.717, 244.7568
1195.801, 252.3208
1196.886, 337.9141
1197.970, 344.1230
1199.054, 267.8530
1200.137, 163.3623
1201.221, 280.1519
1202.305, 245.6348
1203.388, 253.9146
1204.471, 187.6035
1205.554, 263.9502
1206.637, 300.0293
1207.719, 298.4458
1208.802, 227.5146
1209.884, 192.9043
1210.966, 269.4082
1212.048, 310.8960
1213.130, 248.4014
1214.212, 216.7358
1215.293, 258.2212
1216.374, 265.6865
1217.456, 318.9785
1218.536, 325.2583
1219.617, 310.5234
1220.698, 275.7749
1221.778, 271.0122
1222.859, 251.3125
1223.939, 279.6255
1225.019, 305.8179
1226.099, 269.9961
1227.178, 301.1460
1228.258, 308.3086
1229.337, 274.4414
1230.417, 218.5601
1231.496, 215.6694
1232.574, 192.7612
1233.653, 149.8340
1234.732, 163.8906
1235.810, 81.93311
1236.888, 150.9595
1237.966, 163.9697
1239.044, 173.9658
1240.122, 45.94531
1241.199, 139.9067
1242.277, 2.852539
1243.354, 12.23096
1244.431, 163.6489
1245.508, 22.51172
1246.585, 1.646973
1247.661, 27.83838
1248.738, 106.9248
1249.814, 26.67139
1250.890, 32.39697
1251.966, 140.1016
1253.042, 38.79004
1254.117, 6.541504
1255.193, 145.0923
1256.268, 20.28955
1257.343, 115.2861
1258.418, 46.85059
1259.493, 40.39600
1260.567, 31.13281
1261.642, 48.36426
1262.716, 53.08252
1263.790, 131.5127
1264.864, 72.92676
1265.938, 90.32275
1267.011, 43.29688
1268.085, 106.0293
1269.158, 143.3394
1270.231, 99.63379
1271.304, 7.912109
1272.377, 8.836914
1273.450, 49.37842
1274.522, 74.57422
1275.594, 46.75439
1276.666, 114.9141
1277.738, 113.6680
1278.810, 33.79688
1279.882, 14.79346
1280.953, 91.65430
1282.025, 76.27832
1283.096, 29.71973
1284.167, 51.30371
1285.238, 4.848145
1286.308, 32.04053
1287.379, 129.9087
1288.449, 115.4429
1289.519, 145.3218
1290.589, 112.9077
1291.659, 73.41650
1292.729, 66.34570
1293.798, 57.14209
1294.868, 20.99561
1295.937, 112.7300
1297.006, 88.89551
1298.075, 146.4019
