##NAMES=Andradite
##RRUFFID=R050256
##IDEAL CHEMISTRY=Ca_3_Fe^3+^_2_(SiO_4_)_3_
##LOCALITY=Franklin, Sussex County, New Jersey, USA
##OWNER=RRUFF
##SOURCE=Marcus Origlieri
##DESCRIPTION=Reddish brown fragments
##STATUS=The identification of this mineral has been confirmed by X-ray diffraction and chemical analysis
##URL=rruff.info/R050256
##MEASURED CHEMISTRY=(Ca_2.27_Mn_0.73_)_Σ=3_(Fe^3+^_1.35_Al_0.65_)_Σ=2_(Si_1.00_O_4_)_3_
##PIN_ID=M00458
##ORIENTATION=Laser parallel to -c* (0 0 -1). Fiducial mark perpendicular to laser is parallel to a [1 0 0]
123.0580, 0.0000000E+00
124.2880, 30.01978
125.5190, 63.02246
126.7490, 31.94556
127.9790, 24.87744
129.2090, 131.3188
130.4390, 161.3245
131.6680, 171.1401
132.8980, 173.9888
134.1270, 123.4597
135.3560, 145.7351
136.5850, 142.9246
137.8140, 184.2036
139.0430, 222.9744
140.2710, 166.1558
141.5000, 197.6746
142.7280, 22.53613
143.9560, 49.45630
145.1840, 35.41821
146.4120, 48.22705
147.6390, 38.03223
148.8670, 9.888672
150.0940, 0.1550290
151.3210, 43.47412
152.5490, 66.52612
153.7750, 108.2803
155.0020, 143.5420
156.2290, 123.5337
157.4550, 190.2319
158.6810, 276.6177
159.9080, 268.6719
161.1340, 373.3706
162.3590, 442.6797
163.5850, 613.5620
164.8110, 777.9819
166.0360, 943.9058
167.2610, 1019.304
168.4860, 1117.417
169.7110, 1076.451
170.9360, 1155.171
172.1610, 1126.306
173.3850, 976.8452
174.6100, 1055.782
175.8340, 1038.107
177.0580, 998.8164
178.2820, 1039.902
179.5050, 983.3599
180.7290, 983.1846
181.9520, 778.3721
183.1760, 838.9180
184.3990, 805.8193
185.6220, 902.0728
186.8450, 806.6758
188.0670, 817.6260
189.2900, 672.9229
190.5120, 743.5635
191.7340, 706.5469
192.9560, 842.8711
194.1780, 722.5361
195.4000, 694.5415
196.6220, 604.8945
197.8430, 586.6099
199.0640, 736.1978
200.2860, 612.1260
201.5070, 750.2046
202.7270, 869.3970
203.9480, 677.6914
205.1690, 542.0977
206.3890, 339.6040
207.6090, 453.2012
208.8290, 582.8613
210.0490, 582.6450
211.2690, 669.5864
212.4890, 783.6914
213.7080, 881.9028
214.9280, 1001.520
216.1470, 1179.038
217.3660, 1286.843
218.5850, 1474.832
219.8030, 1705.006
221.0220, 1807.370
222.2400, 2113.923
223.4590, 2300.669
224.6770, 2515.609
225.8950, 2721.745
227.1120, 2941.076
228.3300, 3198.605
229.5480, 3496.333
230.7650, 3603.259
231.9820, 3740.384
233.1990, 3685.708
234.4160, 3763.232
235.6330, 3675.955
236.8490, 3458.880
238.0660, 3422.005
239.2820, 3189.329
240.4980, 2913.853
241.7140, 2451.579
242.9300, 2185.505
244.1460, 1928.633
245.3610, 1617.965
246.5770, 1357.501
247.7920, 1154.246
249.0070, 1009.197
250.2220, 897.3579
251.4370, 767.7314
252.6510, 742.3174
253.8660, 637.1172
255.0800, 673.1328
256.2940, 713.3628
257.5080, 667.8076
258.7220, 1394.468
259.9360, 1943.342
261.1490, 1299.430
262.3630, 769.7305
263.5760, 544.2432
264.7890, 571.9658
266.0020, 500.8979
267.2150, 531.1826
268.4270, 562.2871
269.6400, 521.7524
270.8520, 517.5767
272.0640, 479.0713
273.2760, 405.6367
274.4880, 356.4282
275.7000, 358.3638
276.9120, 566.1592
278.1230, 366.4619
279.3340, 411.8315
280.5450, 404.3159
281.7560, 313.5566
282.9670, 345.7729
284.1780, 311.2456
285.3880, 323.9673
286.5980, 397.9326
287.8090, 311.1367
289.0190, 485.7559
290.2290, 536.4204
291.4380, 571.6870
292.6480, 747.8955
293.8570, 899.1533
295.0670, 1069.106
296.2760, 1085.772
297.4850, 1306.720
298.6930, 1485.868
299.9020, 1727.215
301.1110, 2019.757
302.3190, 2176.492
303.5270, 2544.415
304.7350, 2821.525
305.9430, 3017.820
307.1510, 3294.297
308.3580, 3409.952
309.5660, 3736.786
310.7730, 3862.795
311.9800, 4055.977
313.1870, 4246.329
314.3940, 4525.851
315.6010, 4350.542
316.8070, 4404.401
318.0130, 4312.423
319.2200, 4456.610
320.4260, 4300.959
321.6310, 4334.468
322.8370, 4269.138
324.0430, 4426.965
325.2480, 4512.949
326.4540, 4737.088
327.6590, 4776.384
328.8640, 5022.829
330.0680, 5355.430
331.2730, 5743.178
332.4780, 6084.076
333.6820, 6385.123
334.8860, 6860.317
336.0900, 7197.654
337.2940, 7608.135
338.4980, 8317.763
339.7010, 8810.530
340.9050, 9336.438
342.1080, 10273.49
343.3110, 10988.67
344.5140, 12075.00
345.7170, 13053.46
346.9200, 14275.05
348.1220, 15493.79
349.3240, 17014.66
350.5270, 18745.67
351.7290, 20791.81
352.9310, 22861.10
354.1320, 25444.51
355.3340, 28174.07
356.5350, 31332.77
357.7370, 35131.61
358.9380, 38909.60
360.1390, 43028.72
361.3400, 46811.00
362.5400, 49620.44
363.7410, 52509.04
364.9410, 54540.80
366.1410, 55777.75
367.3410, 56410.88
368.5410, 56849.18
369.7410, 56118.66
370.9400, 54517.30
372.1400, 51281.13
373.3390, 47372.13
374.5380, 42614.33
375.7370, 37103.72
376.9360, 32258.29
378.1350, 27350.04
379.3330, 23128.98
380.5310, 19536.08
381.7300, 16319.35
382.9280, 13994.79
384.1260, 11489.38
385.3230, 9992.138
386.5210, 8541.038
387.7180, 7216.087
388.9160, 6132.280
390.1130, 5134.617
391.3100, 4511.084
392.5060, 3862.686
393.7030, 3147.415
394.9000, 2755.272
396.0960, 2292.252
397.2920, 1838.354
398.4880, 1632.574
399.6840, 1346.910
400.8800, 1072.357
402.0750, 739.9233
403.2710, 677.5986
404.4660, 524.3872
405.6610, 344.2896
406.8560, 295.3115
408.0510, 229.4536
409.2450, 14.27393
410.4400, 65.87549
411.6340, 80.36621
412.8280, 163.7480
414.0220, 147.9912
415.2160, 193.0791
416.4100, 203.0366
417.6030, 130.8560
418.7970, 206.5317
419.9900, 56.07373
421.1830, 149.4590
422.3760, 40.71045
423.5690, 43.80420
424.7610, 31.73633
425.9540, 156.5029
427.1460, 191.8979
428.3380, 194.4468
429.5300, 238.1416
430.7220, 285.9819
431.9140, 395.9624
433.1050, 422.0913
434.2970, 461.3472
435.4880, 590.7476
436.6790, 593.2847
437.8700, 606.9502
439.0610, 761.7485
440.2510, 736.6611
441.4420, 764.6929
442.6320, 818.8354
443.8220, 873.0923
445.0120, 978.4585
446.2020, 855.9380
447.3910, 877.5264
448.5810, 958.2192
449.7700, 926.0142
450.9600, 1020.910
452.1490, 1059.906
453.3370, 1003.001
454.5260, 926.1943
455.7150, 963.4873
456.9030, 923.8745
458.0910, 845.3604
459.2800, 808.9390
460.4670, 742.6104
461.6550, 708.3740
462.8430, 630.2280
464.0300, 543.1714
465.2180, 444.2026
466.4050, 363.3218
467.5920, 577.5269
468.7790, 460.5732
469.9650, 665.1943
471.1520, 528.6533
472.3380, 793.1943
473.5250, 1022.817
474.7110, 1201.520
475.8970, 1452.302
477.0820, 1845.163
478.2680, 2115.101
479.4540, 2393.116
480.6390, 2656.207
481.8240, 3047.373
483.0090, 3357.612
484.1940, 3502.925
485.3780, 3886.309
486.5630, 4109.764
487.7470, 4243.292
488.9320, 4425.887
490.1160, 4693.551
491.3000, 4815.282
492.4830, 4964.080
493.6670, 4996.943
494.8500, 5042.873
496.0340, 5081.084
497.2170, 5051.936
498.4000, 5051.199
499.5820, 4940.047
500.7650, 4827.909
501.9480, 4720.897
503.1300, 4564.485
504.3120, 4870.658
505.4940, 4839.887
506.6760, 4928.795
507.8580, 5392.886
509.0390, 5941.591
510.2210, 6469.994
511.4020, 7216.440
512.5830, 8175.762
513.7640, 9262.418
514.9450, 10750.79
516.1250, 12413.56
517.3060, 14374.73
518.4860, 16529.87
519.6660, 18607.35
520.8460, 20855.89
522.0260, 22858.33
523.2060, 24235.34
524.3850, 25222.39
525.5650, 25777.62
526.7440, 25838.19
527.9230, 25590.68
529.1020, 24573.96
530.2810, 23010.62
531.4590, 20823.75
532.6380, 18239.81
533.8160, 15565.68
534.9940, 12773.93
536.1720, 10465.50
537.3500, 8516.638
538.5270, 7177.969
539.7050, 5974.416
540.8820, 5100.338
542.0590, 4514.637
543.2360, 3830.188
544.4130, 3511.380
545.5900, 3261.359
546.7660, 3151.838
547.9430, 2848.761
549.1190, 2897.107
550.2950, 2765.837
551.4710, 2699.887
552.6470, 2618.142
553.8220, 2544.024
554.9980, 2519.570
556.1730, 2427.122
557.3480, 2425.912
558.5230, 2315.509
559.6980, 2255.372
560.8730, 2096.684
562.0470, 1959.484
563.2220, 1946.662
564.3960, 1737.315
565.5700, 1612.274
566.7440, 1387.985
567.9170, 1349.104
569.0910, 1268.515
570.2640, 1312.720
571.4380, 1240.043
572.6110, 1204.242
573.7840, 1273.971
574.9570, 1339.860
576.1290, 1406.334
577.3020, 1482.811
578.4740, 1522.016
579.6460, 1625.352
580.8180, 1559.485
581.9900, 1593.072
583.1620, 1514.025
584.3330, 1621.936
585.5040, 1551.919
586.6760, 1534.932
587.8470, 1582.348
589.0180, 1589.623
590.1880, 1704.163
591.3590, 1727.240
592.5290, 1796.237
593.7000, 1939.402
594.8700, 1977.664
596.0400, 2062.026
597.2090, 2110.744
598.3790, 2122.291
599.5490, 2233.043
600.7180, 2368.768
601.8870, 2323.510
603.0560, 2439.106
604.2250, 2346.681
605.3940, 2367.087
606.5620, 2400.520
607.7300, 2461.984
608.8990, 2426.379
610.0670, 2421.597
611.2350, 2210.769
612.4020, 2290.889
613.5700, 2216.960
614.7370, 1961.979
615.9050, 1861.947
617.0720, 1749.863
618.2390, 1552.726
619.4060, 1495.535
620.5720, 1302.291
621.7390, 1116.990
622.9050, 977.6355
624.0710, 900.2241
625.2370, 701.7559
626.4030, 675.2305
627.5690, 505.6470
628.7340, 438.0049
629.9000, 323.3037
631.0650, 282.5422
632.2300, 266.7209
633.3950, 158.8384
634.5600, 192.8943
635.7240, 104.8879
636.8890, 20.81885
638.0530, 48.67334
639.2170, 10.45972
640.3810, 13.16187
641.5450, 13.77979
642.7080, 10.88159
643.8720, 33.05737
645.0350, 46.93433
646.1980, 86.73584
647.3610, 118.6814
648.5240, 109.7893
649.6870, 166.0562
650.8490, 84.51294
652.0120, 64.11816
653.1740, 114.8623
654.3360, 155.7732
655.4980, 191.8738
656.6600, 148.1833
657.8210, 161.6812
658.9830, 133.3745
660.1440, 148.2495
661.3050, 97.31543
662.4660, 104.5461
663.6270, 71.94604
664.7870, 73.49878
665.9480, 61.20605
667.1080, 11.06226
668.2680, 54.04126
669.4280, 11.16675
670.5880, 17.41650
671.7480, 38.20557
672.9070, 4.726074
674.0670, 37.12891
675.2260, 31.42896
676.3850, 70.62305
677.5440, 39.72485
678.7030, 101.7227
679.8610, 84.63501
681.0200, 114.4565
682.1780, 67.19336
683.3360, 126.8340
684.4940, 91.39087
685.6520, 74.85693
686.8090, 35.22705
687.9670, 26.41089
689.1240, 14.36255
690.2810, 5.347900
691.4380, 36.53833
692.5950, 0.3190920
693.7520, 52.02222
694.9080, 94.50586
696.0650, 35.15601
697.2210, 67.93652
698.3770, 29.86426
699.5330, 64.92651
700.6880, 55.13379
701.8440, 25.49463
702.9990, 49.98608
704.1550, 71.62964
705.3100, 97.43604
706.4650, 35.41992
707.6190, 24.55054
708.7740, 5.821777
709.9290, 8.223633
711.0830, 9.242188
712.2370, 18.58618
713.3910, 71.81250
714.5450, 22.93823
715.6980, 74.94922
716.8520, 113.8608
718.0050, 21.68091
719.1580, 154.3865
720.3110, 77.00684
721.4640, 164.5295
722.6170, 103.9685
723.7700, 157.3149
724.9220, 95.57812
726.0740, 124.7478
727.2260, 199.8298
728.3780, 195.8323
729.5300, 231.7563
730.6810, 242.6040
731.8330, 211.3762
732.9840, 195.0713
734.1350, 179.6882
735.2860, 272.2256
736.4370, 157.6895
737.5880, 244.0725
738.7380, 240.3813
739.8880, 225.6167
741.0390, 249.7773
742.1890, 243.4946
743.3380, 287.8809
744.4880, 254.8250
745.6380, 235.6973
746.7870, 239.9556
747.9360, 277.2256
749.0850, 268.8843
750.2340, 277.4727
751.3830, 308.9917
752.5310, 320.4414
753.6800, 291.8230
754.8280, 373.1357
755.9760, 342.3806
757.1240, 292.5581
758.2720, 399.6680
759.4190, 334.7112
760.5670, 435.6875
761.7140, 311.5974
762.8610, 419.4421
764.0080, 392.2209
765.1550, 477.9348
766.3020, 459.5840
767.4480, 496.1685
768.5950, 524.6921
769.7410, 529.1523
770.8870, 591.5491
772.0330, 672.8848
773.1780, 635.1628
774.3240, 755.3789
775.4690, 716.5176
776.6140, 717.4661
777.7590, 773.8359
778.9040, 837.1929
780.0490, 832.4282
781.1940, 809.0620
782.3380, 948.1260
783.4820, 1049.136
784.6260, 1052.476
785.7700, 1147.651
786.9140, 1270.212
788.0580, 1329.093
789.2010, 1459.941
790.3450, 1638.926
791.4880, 1679.576
792.6310, 2014.528
793.7730, 2115.084
794.9160, 2400.256
796.0590, 2680.471
797.2010, 3094.350
798.3430, 3325.183
799.4850, 3908.109
800.6270, 4276.489
801.7690, 4795.823
802.9100, 5343.978
804.0520, 5946.824
805.1930, 6453.740
806.3340, 7212.889
807.4750, 7846.658
808.6160, 8516.963
809.7560, 9379.333
810.8970, 10049.88
812.0370, 10776.04
813.1770, 11722.88
814.3170, 12451.14
815.4570, 13313.20
816.5960, 13945.13
817.7360, 14770.58
818.8750, 15183.63
820.0140, 15716.41
821.1530, 16180.54
822.2920, 16395.87
823.4310, 16331.67
824.5690, 16276.01
825.7070, 15802.92
826.8460, 15435.42
827.9840, 14966.45
829.1220, 14337.64
830.2590, 13654.93
831.3970, 12962.91
832.5340, 12183.18
833.6710, 11594.15
834.8080, 11133.03
835.9450, 10544.27
837.0820, 10207.30
838.2190, 10012.92
839.3550, 9887.384
840.4910, 9890.299
841.6270, 9884.847
842.7630, 10146.77
843.8990, 10452.59
845.0350, 10697.09
846.1700, 11115.77
847.3060, 11225.32
848.4410, 11609.96
849.5760, 11647.05
850.7100, 11804.95
851.8450, 11887.24
852.9800, 11715.22
854.1140, 11536.08
855.2480, 11263.37
856.3820, 11069.90
857.5160, 10714.95
858.6500, 10378.60
859.7830, 10255.27
860.9170, 10167.84
862.0500, 9985.349
863.1830, 10095.42
864.3160, 10336.48
865.4480, 10772.51
866.5810, 11278.84
867.7130, 11791.01
868.8460, 12274.40
869.9780, 13164.45
871.1100, 13968.38
872.2410, 14989.91
873.3730, 16561.59
874.5050, 18223.03
875.6360, 20049.46
876.7670, 22099.85
877.8980, 24201.35
879.0290, 26253.84
880.1590, 27986.47
881.2900, 29421.04
882.4200, 30274.54
883.5500, 30735.08
884.6800, 30402.76
885.8100, 29448.45
886.9400, 27423.17
888.0690, 25383.90
889.1990, 22638.65
890.3280, 20181.42
891.4570, 17424.20
892.5860, 15225.01
893.7140, 13189.83
894.8430, 11395.68
895.9710, 9968.551
897.1000, 8785.442
898.2280, 7960.356
899.3560, 6956.295
900.4830, 6211.254
901.6110, 5691.237
902.7380, 5045.239
903.8660, 4673.688
904.9930, 4192.739
906.1200, 3743.814
907.2460, 3561.132
908.3730, 3270.081
909.5000, 3085.228
910.6260, 2913.400
911.7520, 2687.604
912.8780, 2599.047
914.0040, 2531.316
915.1290, 2326.944
916.2550, 2219.285
917.3800, 2118.491
918.5050, 2036.802
919.6300, 1954.992
920.7550, 1872.998
921.8800, 1902.123
923.0040, 1798.451
924.1290, 1912.476
925.2530, 1777.828
926.3770, 1818.017
927.5010, 1813.483
928.6250, 1892.068
929.7480, 1944.703
930.8720, 2043.408
931.9950, 2124.120
933.1180, 2123.283
934.2410, 2375.790
935.3640, 2294.451
936.4860, 2479.780
937.6090, 2525.757
938.7310, 2660.984
939.8530, 2688.708
940.9750, 2651.124
942.0970, 2595.234
943.2180, 2485.880
944.3400, 2377.332
945.4610, 2204.075
946.5820, 2112.492
947.7030, 1878.282
948.8240, 1865.841
949.9450, 1667.145
951.0650, 1563.545
952.1860, 1376.980
953.3060, 1338.453
954.4260, 1311.960
955.5460, 1267.824
956.6650, 1311.092
957.7850, 1318.713
958.9040, 1394.375
960.0230, 1496.085
961.1420, 1572.844
962.2610, 1657.663
963.3800, 1785.540
964.4990, 1919.465
965.6170, 2125.447
966.7350, 2195.500
967.8530, 2329.636
968.9710, 2386.838
970.0890, 2522.115
971.2070, 2624.458
972.3240, 2769.876
973.4410, 2904.365
974.5580, 3087.920
975.6750, 3245.547
976.7920, 3486.250
977.9090, 3539.037
979.0250, 3614.891
980.1410, 3787.811
981.2580, 3755.789
982.3740, 3755.827
983.4890, 3852.922
984.6050, 3901.070
985.7200, 4031.261
986.8360, 3983.506
987.9510, 4120.509
989.0660, 4136.125
990.1810, 4286.511
991.2950, 4273.931
992.4100, 4277.396
993.5240, 4426.898
994.6390, 4488.453
995.7530, 4634.046
996.8660, 4682.688
997.9800, 4780.367
999.0940, 4936.085
1000.207, 4950.839
1001.320, 4880.635
1002.433, 4894.477
1003.546, 4632.377
1004.659, 4364.342
1005.772, 4053.371
1006.884, 3553.453
1007.996, 3206.597
1009.108, 2685.780
1010.220, 2312.001
1011.332, 2012.259
1012.444, 1709.552
1013.555, 1468.886
1014.666, 1265.259
1015.777, 1029.666
1016.888, 984.1104
1017.999, 901.5891
1019.110, 761.1021
1020.220, 627.3750
1021.331, 620.0486
1022.441, 550.6758
1023.551, 439.3406
1024.661, 361.0493
1025.770, 302.1348
1026.880, 229.8860
1027.989, 214.8352
1029.098, 136.0879
1030.207, 130.9822
1031.316, 115.3225
1032.425, 46.28125
1033.533, 43.27661
1034.642, 14.30688
1035.750, 81.43945
1036.858, 24.30933
1037.966, 54.82031
1039.073, 25.97876
1040.181, 12.83423
1041.288, 37.62280
1042.396, 24.60962
1043.503, 54.87085
1044.610, 35.16284
1045.716, 46.51709
1046.823, 79.81567
1047.929, 47.82495
1049.036, 69.54614
1050.142, 82.05591
1051.248, 32.65967
1052.353, 77.24707
1053.459, 112.8350
1054.564, 18.43799
1055.670, 114.0217
1056.775, 84.62354
1057.880, 89.23120
1058.985, 37.84692
1060.089, 106.4531
1061.194, 86.07910
1062.298, 62.71655
1063.402, 122.3577
1064.506, 80.02832
1065.610, 43.71143
1066.713, 70.39185
1067.817, 91.08228
1068.920, 81.93921
1070.023, 92.57104
1071.126, 95.24341
1072.229, 83.00342
1073.332, 94.83496
1074.435, 86.58691
1075.537, 55.41162
1076.639, 49.24780
1077.741, 8.091064
1078.843, 3.072998
1079.945, 29.75244
1081.046, 2.419678
1082.148, 58.39893
1083.249, 42.76758
1084.350, 25.94727
1085.451, 21.13892
1086.551, 90.34302
1087.652, 156.5605
1088.752, 101.7891
1089.853, 97.02930
1090.953, 143.2820
1092.053, 132.5449
1093.152, 162.8186
1094.252, 219.1025
1095.351, 204.3962
1096.451, 244.6992
1097.550, 239.0112
1098.649, 240.5061
1099.748, 268.6611
1100.846, 249.9978
1101.945, 251.3418
1103.043, 285.6929
1104.141, 275.2983
1105.239, 277.4138
1106.337, 290.7832
1107.434, 327.1580
1108.532, 340.5371
1109.629, 289.9207
1110.726, 362.3083
1111.823, 259.6995
1112.920, 286.0933
1114.017, 375.4902
1115.113, 455.8894
1116.210, 529.2908
1117.306, 769.6934
1118.402, 1120.097
1119.498, 1326.884
1120.593, 1365.316
1121.689, 1568.722
1122.784, 1562.240
1123.879, 1462.651
1124.974, 1233.182
1126.069, 919.2307
1127.164, 608.1753
1128.259, 469.4766
1129.353, 342.1851
1130.447, 306.9998
1131.541, 291.2759
1132.635, 241.7314
1133.729, 189.7651
1134.822, 207.6665
1135.916, 179.8101
1137.009, 206.1936
1138.102, 154.2480
1139.195, 169.9287
1140.288, 215.4790
1141.380, 202.1274
1142.473, 159.6416
1143.565, 102.4819
1144.657, 189.7112
1145.749, 82.83081
1146.841, 122.7349
1147.932, 144.2151
1149.024, 107.2539
1150.115, 77.29395
1151.206, 45.77417
1152.297, 70.51807
1153.388, 112.2080
1154.479, 102.2336
1155.569, 154.5857
1156.659, 87.17383
1157.750, 62.33618
1158.839, 45.20874
1159.929, 66.62598
1161.019, 129.1394
1162.108, 40.11987
1163.198, 177.0930
1164.287, 111.9810
1165.376, 150.5146
1166.465, 89.58936
1167.553, 86.01318
1168.642, 145.0837
1169.730, 145.3975
1170.818, 170.6702
1171.906, 113.6667
1172.994, 177.6113
1174.082, 144.9978
1175.170, 151.0469
1176.257, 200.2571
1177.344, 202.0750
1178.431, 169.0664
1179.518, 256.7769
1180.605, 191.9719
1181.691, 304.1719
1182.778, 176.4338
1183.864, 241.8833
1184.950, 276.7749
1186.036, 270.5811
1187.122, 309.0378
1188.207, 273.0874
1189.292, 364.9880
1190.378, 306.7319
1191.463, 343.9846
1192.548, 345.2991
1193.632, 375.5452
1194.717, 347.7886
1195.801, 355.9434
1196.886, 360.4873
1197.970, 353.9097
1199.054, 339.3892
1200.137, 352.9741
1201.221, 296.4226
1202.305, 300.5002
1203.388, 320.3779
1204.471, 350.3530
1205.554, 372.7261
1206.637, 295.5559
1207.719, 357.8342
1208.802, 358.6653
1209.884, 298.9170
1210.966, 354.7271
1212.048, 331.7964
1213.130, 349.1404
1214.212, 365.6436
1215.293, 390.8232
1216.374, 394.0630
1217.456, 381.0613
1218.536, 360.7871
1219.617, 334.0583
1220.698, 305.4517
1221.778, 280.5984
1222.859, 312.7263
1223.939, 290.8953
1225.019, 313.9849
1226.099, 343.0552
1227.178, 372.1060
1228.258, 351.1372
1229.337, 315.1487
1230.417, 312.1401
1231.496, 262.1116
1232.574, 246.0632
1233.653, 241.9941
1234.732, 230.9053
1235.810, 227.7957
1236.888, 228.6655
1237.966, 222.4851
1239.044, 204.3435
1240.122, 214.1514
1241.199, 198.4092
1242.277, 185.7041
1243.354, 204.4490
1244.431, 140.1726
1245.508, 165.8750
1246.585, 112.5559
1247.661, 143.2153
1248.738, 49.85400
1249.814, 99.46704
1250.890, 114.0591
1251.966, 81.62964
1253.042, 108.1772
1254.117, 80.70288
1255.193, 7.794678
1256.268, 44.66211
1257.343, 29.09180
1258.418, 61.49097
1259.493, 53.68457
1260.567, 30.84375
1261.642, 24.53223
1262.716, 23.18164
1263.790, 52.94995
1264.864, 72.79102
1265.938, 76.69165
1267.011, 39.70703
1268.085, 65.77051
1269.158, 21.08911
1270.231, 17.91577
1271.304, 21.70825
1272.377, 52.46777
1273.450, 4.200195
1274.522, 5.892822
1275.594, 47.54688
1276.666, 21.17285
1277.738, 39.00293
1278.810, 38.46143
1279.882, 19.86523
1280.953, 42.64307
1282.025, 18.97437
1283.096, 4.447998
1284.167, 17.16772
1285.238, 63.16650
1286.308, 27.47534
1287.379, 5.319336
1288.449, 20.46655
1289.519, 6.674805
1290.589, 30.47192
1291.659, 28.17603
1292.729, 1.264160
1293.798, 7.314209
1294.868, 2.670166
1295.937, 8.760010
1297.006, 52.02759
1298.075, 67.93774
1299.143, 70.82422
