##NAMES=Andradite
##RRUFFID=R060449
##IDEAL CHEMISTRY=Ca_3_Fe^3+^_2_(SiO_4_)_3_
##LOCALITY=Namibia
##OWNER=RRUFF
##SOURCE=Gemological Institute of America
##DESCRIPTION=Blue fragment, variety demantoid
##STATUS=The identification of this mineral has been confirmed by X-ray diffraction and chemical analysis
##URL=rruff.info/R060449
##MEASURED CHEMISTRY=Ca_3.00_(Fe^3+^_1.93_Al_0.07_)_Î£=2_(Si_1.00_O_4_)_3__
##PIN_ID=L01084
##ORIENTATION=Laser parallel to a* (1 0 0). Fiducial mark perpendicular to laser is parallel to c [0 0 1]
51.43100, 0.0000000E+00
52.67100, 5.927582
53.91000, 0.2146000
55.14900, 8.566193
56.38700, 13.83282
57.62600, 1.509613
58.86400, 19.47693
60.10300, 5.133575
61.34100, 9.082458
62.57900, 3.317444
63.81700, 4.830994
65.05400, 9.412170
66.29200, 2.549164
67.52900, 0.6868290
68.76700, 1.974792
70.00400, 17.39093
71.24100, 31.95352
72.47700, 42.75369
73.71400, 20.76172
74.95100, 44.92157
76.18700, 37.19220
77.42300, 67.54340
78.65900, 39.95279
79.89500, 58.40646
81.13100, 58.91904
82.36700, 95.48520
83.60200, 97.09000
84.83700, 81.72211
86.07200, 67.37286
87.30800, 71.03580
88.54200, 95.76001
89.77700, 86.63538
91.01200, 92.06427
92.24600, 84.14749
93.48000, 106.2762
94.71400, 116.2788
95.94800, 85.16724
97.18200, 74.95239
98.41600, 109.6440
99.64900, 85.25046
100.8830, 68.77979
102.1160, 103.2389
103.3490, 79.63406
104.5820, 75.97101
105.8150, 103.2550
107.0470, 105.4907
108.2800, 125.8004
109.5120, 156.3393
110.7440, 133.9018
111.9760, 78.40298
113.2080, 62.84790
114.4400, 105.2409
115.6710, 96.58615
116.9030, 105.8876
118.1340, 102.1487
119.3650, 88.37280
120.5960, 67.56305
121.8270, 78.72232
123.0580, 86.85336
124.2880, 65.95886
125.5190, 52.78918
126.7490, 68.44775
127.9790, 67.50201
129.2090, 72.43100
130.4390, 80.34088
131.6680, 97.52512
132.8980, 97.00061
134.1270, 91.60123
135.3560, 104.8698
136.5850, 87.15216
137.8140, 99.44843
139.0430, 90.75864
140.2710, 81.08286
141.5000, 86.42108
142.7280, 102.7732
143.9560, 75.13928
145.1840, 60.51929
146.4120, 79.91290
147.6390, 86.31982
148.8670, 85.73993
150.0940, 94.17291
151.3210, 107.6187
152.5490, 75.07727
153.7750, 114.5485
155.0020, 101.0325
156.2290, 113.5290
157.4550, 163.0381
158.6810, 170.5598
159.9080, 222.0941
161.1340, 316.6411
162.3590, 510.2007
163.5850, 840.9748
164.8110, 1146.166
166.0360, 1434.052
167.2610, 1584.604
168.4860, 2022.648
169.7110, 2841.048
170.9360, 3662.463
172.1610, 4157.890
173.3850, 4498.331
174.6100, 4488.784
175.8340, 3980.251
177.0580, 2866.732
178.2820, 1999.226
179.5050, 1178.734
180.7290, 730.2567
181.9520, 433.7933
183.1760, 281.3438
184.3990, 180.9072
185.6220, 152.4841
186.8450, 82.07471
188.0670, 97.67938
189.2900, 64.29834
190.5120, 58.93195
191.7340, 55.58038
192.9560, 29.24396
194.1780, 24.92297
195.4000, 32.61761
196.6220, 22.32837
197.8430, 2.944641
199.0640, 2.150879
200.2860, 2.785461
201.5070, 17.24237
202.7270, 10.27899
203.9480, 4.694275
205.1690, 13.70483
206.3890, 58.71924
207.6090, 25.81024
208.8290, 78.81116
210.0490, 44.84222
211.2690, 57.84375
212.4890, 36.47424
213.7080, 26.47302
214.9280, 4.466370
216.1470, 17.55035
217.3660, 47.58014
218.5850, 104.6224
219.8030, 186.6764
221.0220, 281.7411
222.2400, 424.8159
223.4590, 538.9004
224.6770, 912.9944
225.8950, 1462.098
227.1120, 2159.210
228.3300, 2822.331
229.5480, 3203.461
230.7650, 3557.600
231.9820, 4902.749
233.1990, 5965.904
234.4160, 6842.071
235.6330, 7226.243
236.8490, 7133.426
238.0660, 6317.613
239.2820, 4746.803
240.4980, 3021.995
241.7140, 1838.190
242.9300, 1002.390
244.1460, 551.5947
245.3610, 311.8040
246.5770, 175.0189
247.7920, 70.23975
249.0070, 84.46692
250.2220, 40.70087
251.4370, 20.94189
252.6510, 20.19031
253.8660, 82.44647
255.0800, 168.7101
256.2940, 258.9801
257.5080, 372.2567
258.7220, 526.7253
259.9360, 614.8309
261.1490, 873.1291
262.3630, 1091.435
263.5760, 1271.749
264.7890, 1333.072
266.0020, 1276.403
267.2150, 1027.744
268.4270, 671.0930
269.6400, 373.4521
270.8520, 207.8207
272.0640, 55.18555
273.2760, 7.552307
274.4880, 48.08069
275.7000, 36.75800
276.9120, 20.48944
278.1230, 50.26843
279.3340, 64.08130
280.5450, 49.90100
281.7560, 48.71765
282.9670, 11.52118
284.1780, 20.67725
285.3880, 64.89001
286.5980, 32.11707
287.8090, 140.5235
289.0190, 164.7794
290.2290, 184.0615
291.4380, 311.3462
292.6480, 362.6451
293.8570, 469.9587
295.0670, 565.2868
296.2760, 619.6293
297.4850, 651.9863
298.6930, 752.3580
299.9020, 863.7442
301.1110, 1167.749
302.3190, 1457.561
303.5270, 1955.991
304.7350, 2399.436
305.9430, 2961.896
307.1510, 3797.371
308.3580, 4823.859
309.5660, 6067.350
310.7730, 6691.838
311.9800, 7034.307
313.1870, 6702.765
314.3940, 5823.235
315.6010, 4508.722
316.8070, 3442.224
318.0130, 2663.743
319.2200, 2371.278
320.4260, 2262.829
321.6310, 2562.396
322.8370, 2831.979
324.0430, 2931.578
325.2480, 2905.193
326.4540, 2704.825
327.6590, 2195.473
328.8640, 1716.137
330.0680, 1337.818
331.2730, 1204.514
332.4780, 1026.227
333.6820, 1040.961
334.8860, 1084.711
336.0900, 1189.479
337.2940, 1441.263
338.4980, 1692.065
339.7010, 2159.887
340.9050, 2731.732
342.1080, 3609.600
343.3110, 4721.647
344.5140, 6018.994
345.7170, 7625.492
346.9200, 9003.000
348.1220, 11360.75
349.3240, 13574.83
350.5270, 15693.45
351.7290, 16483.51
352.9310, 16512.53
354.1320, 15383.48
355.3340, 13867.45
356.5350, 12825.69
357.7370, 12787.24
358.9380, 14365.39
360.1390, 17271.77
361.3400, 21323.92
362.5400, 26255.09
363.7410, 31651.28
364.9410, 37946.49
366.1410, 44601.71
367.3410, 51209.96
368.5410, 55848.22
369.7410, 56910.51
370.9400, 55551.80
372.1400, 51209.13
373.3390, 44101.47
374.5380, 36111.83
375.7370, 27731.23
376.9360, 21020.64
378.1350, 16068.08
379.3330, 12593.53
380.5310, 9835.005
381.7300, 7978.506
382.9280, 6581.024
384.1260, 5352.561
385.3230, 4374.123
386.5210, 3552.714
387.7180, 2909.325
388.9160, 2398.954
390.1130, 2039.604
391.3100, 1818.274
392.5060, 1570.963
393.7030, 1390.671
394.9000, 1217.399
396.0960, 1045.145
397.2920, 1003.910
398.4880, 860.6929
399.6840, 809.4944
400.8800, 759.3179
402.0750, 631.1602
403.2710, 611.0259
404.4660, 556.9092
405.6610, 477.8140
406.8560, 442.7418
408.0510, 362.6985
409.2450, 342.6787
410.4400, 318.6832
411.6340, 295.7075
412.8280, 256.7542
414.0220, 211.8213
415.2160, 220.9084
416.4100, 162.0125
417.6030, 133.1400
418.7970, 97.83362
419.9900, 115.1776
421.1830, 49.37158
422.3760, 66.06091
423.5690, 29.03748
424.7610, 36.82446
425.9540, 0.7153320
427.1460, 47.47620
428.3380, 14.77380
429.5300, 9.089966
430.7220, 16.57581
431.9140, 15.77539
433.1050, 0.1447750
434.2970, 19.53210
435.4880, 55.93750
436.6790, 72.36169
437.8700, 110.8038
439.0610, 145.2665
440.2510, 195.7480
441.4420, 271.2473
442.6320, 433.7645
443.8220, 566.2998
445.0120, 776.8560
446.2020, 986.4346
447.3910, 1186.032
448.5810, 1412.647
449.7700, 1710.280
450.9600, 1812.930
452.1490, 1878.598
453.3370, 1657.283
454.5260, 1395.987
455.7150, 1068.712
456.9030, 743.4573
458.0910, 560.2203
459.2800, 312.0009
460.4670, 207.7988
461.6550, 151.6141
462.8430, 72.44641
464.0300, 32.29578
465.2180, 58.16235
466.4050, 29.04602
467.5920, 26.94641
468.7790, 18.86365
469.9650, 59.79773
471.1520, 63.74841
472.3380, 122.7159
473.5250, 151.7001
474.7110, 199.7010
475.8970, 221.7322
477.0820, 314.7657
478.2680, 307.0618
479.4540, 498.1279
480.6390, 638.5392
481.8240, 840.4351
483.0090, 1087.806
484.1940, 1473.552
485.3780, 1878.699
486.5630, 2354.864
487.7470, 2902.048
488.9320, 3605.251
490.1160, 4246.921
491.3000, 4913.177
492.4830, 5141.000
493.6670, 5208.275
494.8500, 4876.335
496.0340, 4352.666
497.2170, 3646.861
498.4000, 3217.255
499.5820, 2733.680
500.7650, 2596.279
501.9480, 2726.932
503.1300, 3057.423
504.3120, 3715.099
505.4940, 4836.617
506.6760, 6560.168
507.8580, 8554.927
509.0390, 10700.55
510.2210, 13300.41
511.4020, 16028.11
512.5830, 19009.72
513.7640, 21230.94
514.9450, 22026.54
516.1250, 21776.74
517.3060, 19828.86
518.4860, 17172.65
519.6660, 13742.75
520.8460, 10521.70
522.0260, 7968.386
523.2060, 5969.622
524.3850, 4563.945
525.5650, 3756.672
526.7440, 3020.922
527.9230, 2481.786
529.1020, 2187.506
530.2810, 1865.276
531.4590, 1679.990
532.6380, 1496.438
533.8160, 1466.519
534.9940, 1347.904
536.1720, 1286.084
537.3500, 1196.240
538.5270, 1151.294
539.7050, 1173.479
540.8820, 1181.483
542.0590, 1210.500
543.2360, 1229.648
544.4130, 1344.954
545.5900, 1402.926
546.7660, 1548.821
547.9430, 1727.037
549.1190, 1965.619
550.2950, 2152.010
551.4710, 2158.550
552.6470, 2246.063
553.8220, 2147.194
554.9980, 1936.829
556.1730, 1712.435
557.3480, 1247.401
558.5230, 1051.773
559.6980, 905.9377
560.8730, 670.4424
562.0470, 670.6389
563.2220, 604.6608
564.3960, 583.6998
565.5700, 569.7593
566.7440, 579.8354
567.9170, 572.9185
569.0910, 647.0336
570.2640, 700.1400
571.4380, 815.2515
572.6110, 899.3031
573.7840, 981.4247
574.9570, 1053.539
576.1290, 1035.671
577.3020, 967.9427
578.4740, 813.1039
579.6460, 658.7279
580.8180, 554.0888
581.9900, 486.2428
583.1620, 407.4011
584.3330, 341.6853
585.5040, 322.4692
586.6760, 279.6965
587.8470, 280.1082
589.0180, 232.3663
590.1880, 231.5535
591.3590, 248.7429
592.5290, 210.9405
593.7000, 208.2919
594.8700, 191.5629
596.0400, 188.5918
597.2090, 142.4794
598.3790, 138.6798
599.5490, 133.9060
600.7180, 119.1110
601.8870, 129.3182
603.0560, 135.5273
604.2250, 134.7386
605.3940, 96.97375
606.5620, 57.18848
607.7300, 68.40479
608.8990, 102.6227
610.0670, 28.84198
611.2350, 35.06250
612.4020, 27.34326
613.5700, 5.566162
614.7370, 43.86145
615.9050, 21.91376
617.0720, 2.302246
618.2390, 6.481262
619.4060, 24.82007
620.5720, 7.844116
621.7390, 16.40051
622.9050, 24.19666
624.0710, 30.00421
625.2370, 7.173645
626.4030, 5.351440
627.5690, 5.529175
628.7340, 8.920166
629.9000, 8.116211
631.0650, 1.055725
632.2300, 9.773621
633.3950, 4.390503
634.5600, 12.44604
635.7240, 4.709045
636.8890, 13.13678
638.0530, 8.008118
639.2170, 3.151794
640.3810, 17.70648
641.5450, 0.5768430
642.7080, 17.54883
643.8720, 34.32733
645.0350, 22.77570
646.1980, 14.12311
647.3610, 3.3202998E-02
648.5240, 3.051941
649.6870, 0.8660890
650.8490, 2.552368
652.0120, 12.71686
653.1740, 5.655579
654.3360, 11.60254
655.4980, 21.56091
656.6600, 19.53558
657.8210, 13.52588
658.9830, 1.528931
660.1440, 15.53906
661.3050, 10.56329
662.4660, 19.59937
663.6270, 3.651794
664.7870, 21.28699
665.9480, 35.77692
667.1080, 28.86584
668.2680, 8.976318
669.4280, 14.90137
670.5880, 8.224060
671.7480, 3.361328
672.9070, 3.491882
674.0670, 1.661133
675.2260, 2.176941
676.3850, 3.007813
677.5440, 5.831787
678.7030, 3.107300
679.8610, 8.461243
681.0200, 10.73267
682.1780, 5.059387
683.3360, 15.15503
684.4940, 12.61414
685.6520, 7.621277
686.8090, 12.86951
687.9670, 35.13324
689.1240, 15.42419
690.2810, 17.73199
691.4380, 5.7983000E-02
692.5950, 10.39343
693.7520, 1.743530
694.9080, 1.104065
696.0650, 36.52521
697.2210, 13.84943
698.3770, 9.759338
699.5330, 15.63782
700.6880, 9.947388
701.8440, 35.52649
702.9990, 29.10138
704.1550, 39.67200
705.3100, 43.23822
706.4650, 52.80005
707.6190, 22.35754
708.7740, 52.91022
709.9290, 29.45837
711.0830, 15.00189
712.2370, 39.54077
713.3910, 53.07501
714.5450, 29.60474
715.6980, 13.12994
716.8520, 22.64905
718.0050, 2.163147
719.1580, 9.667847
720.3110, 44.16589
721.4640, 38.65912
722.6170, 14.14771
723.7700, 0.3696290
724.9220, 7.897644
726.0740, 8.559998
727.2260, 17.01044
728.3780, 25.45538
729.5300, 25.74573
730.6810, 24.55627
731.8330, 11.76111
732.9840, 17.18512
734.1350, 4.396423
735.2860, 1.990417
736.4370, 47.40430
737.5880, 22.79437
738.7380, 63.17938
739.8880, 38.55975
741.0390, 53.93542
742.1890, 50.30646
743.3380, 22.67279
744.4880, 45.03418
745.6380, 54.39081
746.7870, 56.74292
747.9360, 58.09033
749.0850, 34.43317
750.2340, 17.77136
751.3830, 39.10431
752.5310, 16.43274
753.6800, 31.75580
754.8280, 49.06055
755.9760, 41.37469
757.1240, 13.43781
758.2720, 10.74213
759.4190, 4.712402
760.5670, 36.20837
761.7140, 40.24078
762.8610, 38.90924
764.0080, 51.20868
765.1550, 38.46973
766.3020, 53.74652
767.4480, 63.01935
768.5950, 59.83704
769.7410, 96.08057
770.8870, 88.77142
772.0330, 92.02881
773.1780, 108.5286
774.3240, 126.7828
775.4690, 136.2063
776.6140, 153.4752
777.7590, 177.7429
778.9040, 222.8667
780.0490, 228.9649
781.1940, 251.2397
782.3380, 276.3472
783.4820, 262.6318
784.6260, 287.8973
785.7700, 345.9745
786.9140, 433.2029
788.0580, 489.2145
789.2010, 545.4037
790.3450, 603.6923
791.4880, 684.3817
792.6310, 712.7074
793.7730, 873.4333
794.9160, 948.2623
796.0590, 1124.428
797.2010, 1303.282
798.3430, 1477.301
799.4850, 1627.598
800.6270, 1874.351
801.7690, 2229.027
802.9100, 2477.309
804.0520, 3045.078
805.1930, 3624.240
806.3340, 4517.556
807.4750, 5457.830
808.6160, 6852.170
809.7560, 8347.784
810.8970, 10083.78
812.0370, 11853.47
813.1770, 13419.38
814.3170, 14847.32
815.4570, 15338.37
816.5960, 15078.30
817.7360, 13788.42
818.8750, 11990.54
820.0140, 10281.53
821.1530, 8493.370
822.2920, 7126.555
823.4310, 6009.824
824.5690, 5357.780
825.7070, 4899.378
826.8460, 4814.175
827.9840, 4785.833
829.1220, 4848.523
830.2590, 5229.604
831.3970, 5606.188
832.5340, 6297.809
833.6710, 7313.078
834.8080, 8555.946
835.9450, 9891.032
837.0820, 11621.79
838.2190, 13165.88
839.3550, 14750.16
840.4910, 15994.43
841.6270, 16256.71
842.7630, 16110.98
843.8990, 14729.26
845.0350, 13250.53
846.1700, 11393.81
847.3060, 9570.096
848.4410, 8254.279
849.5760, 6868.564
850.7100, 6005.852
851.8450, 5239.142
852.9800, 4637.297
854.1140, 4289.570
855.2480, 4072.386
856.3820, 3872.473
857.5160, 3844.771
858.6500, 3899.072
859.7830, 4006.253
860.9170, 4299.941
862.0500, 4747.191
863.1830, 5495.263
864.3160, 6357.495
865.4480, 7767.802
866.5810, 9734.115
867.7130, 12194.42
868.8460, 15084.59
869.9780, 18496.83
871.1100, 21817.33
872.2410, 24873.97
873.3730, 26517.31
874.5050, 26200.62
875.6360, 23613.96
876.7670, 19399.31
877.8980, 15035.66
879.0290, 11009.01
880.1590, 8307.342
881.2900, 6129.699
882.4200, 4639.062
883.5500, 3565.427
884.6800, 2826.795
885.8100, 2291.168
886.9400, 1964.485
888.0690, 1601.865
889.1990, 1389.177
890.3280, 1192.564
891.4570, 1058.960
892.5860, 855.3597
893.7140, 774.6774
894.8430, 714.9653
895.9710, 683.1478
897.1000, 589.5704
898.2280, 532.0029
899.3560, 517.4470
900.4830, 453.0035
901.6110, 420.4557
902.7380, 409.9120
903.8660, 396.3724
904.9930, 346.8394
906.1200, 336.3109
907.2460, 331.7896
908.3730, 337.2726
909.5000, 327.6400
910.6260, 275.6603
911.7520, 241.6078
912.8780, 213.8506
914.0040, 260.7664
915.1290, 165.4807
916.2550, 182.0069
917.3800, 197.3608
918.5050, 159.7321
919.6300, 126.1118
920.7550, 156.3159
921.8800, 120.2832
923.0040, 119.1306
924.1290, 112.7379
925.2530, 128.5792
926.3770, 83.02289
927.5010, 66.83252
928.6250, 45.42902
929.7480, 76.03601
930.8720, 72.65308
931.9950, 24.27856
933.1180, 57.90985
934.2410, 41.55042
935.3640, 35.19897
936.4860, 40.85779
937.6090, 38.52319
938.7310, 9.192017
939.8530, 33.87549
940.9750, 19.57172
942.0970, 47.27600
943.2180, 20.98389
944.3400, 26.69958
945.4610, 57.42206
946.5820, 40.14978
947.7030, 82.88385
948.8240, 77.62341
949.9450, 45.36841
951.0650, 59.11823
952.1860, 61.87347
953.3060, 49.63318
954.4260, 79.40173
955.5460, 87.17535
956.6650, 65.95905
957.7850, 119.7468
958.9040, 89.54285
960.0230, 104.3484
961.1420, 83.16937
962.2610, 99.00049
963.3800, 97.84241
964.4990, 125.6907
965.6170, 150.5481
966.7350, 125.4124
967.8530, 142.2834
968.9710, 145.1581
970.0890, 200.0427
971.2070, 196.9318
972.3240, 221.8313
973.4410, 214.7354
974.5580, 248.6430
975.6750, 272.5544
976.7920, 314.4692
977.9090, 297.3893
979.0250, 314.3129
980.1410, 339.2449
981.2580, 402.1814
982.3740, 414.1242
983.4890, 494.0714
984.6050, 578.0231
985.7200, 700.9809
986.8360, 887.9423
987.9510, 1145.912
989.0660, 1407.887
990.1810, 1841.875
991.2950, 2389.877
992.4100, 2825.883
993.5240, 3190.894
994.6390, 3508.912
995.7530, 3524.942
996.8660, 3208.982
997.9800, 2700.033
999.0940, 2170.090
1000.207, 1675.155
1001.320, 1274.232
1002.433, 947.3141
1003.546, 727.4031
1004.659, 622.4962
1005.772, 470.6008
1006.884, 395.7137
1007.996, 335.8323
1009.108, 297.9545
1010.220, 246.0797
1011.332, 190.2083
1012.444, 201.3403
1013.555, 181.4757
1014.666, 143.6144
1015.777, 159.7620
1016.888, 117.9127
1017.999, 112.0668
1019.110, 117.2239
1020.220, 99.38403
1021.331, 92.54736
1022.441, 68.71350
1023.551, 80.88269
1024.661, 70.87653
1025.770, 50.22943
1026.880, 65.40662
1027.989, 65.58679
1029.098, 53.77014
1030.207, 12.95709
1031.316, 26.14642
1032.425, 19.33807
1033.533, 22.46790
1034.642, 8.718140
1035.750, 24.90643
1036.858, 5.096924
1037.966, 8.289673
1039.073, 2.484619
1040.181, 4.681396
1041.288, 20.88019
1042.396, 16.91907
1043.503, 10.72479
1044.610, 73.53394
1045.716, 13.37952
1046.823, 25.23029
1047.929, 37.09222
1049.036, 6.028076
1050.142, 30.84998
1051.248, 30.74274
1052.353, 14.65033
1053.459, 27.56445
1054.564, 39.49194
1055.670, 21.43927
1056.775, 17.39673
1057.880, 4.362488
1058.985, 14.33014
1060.089, 3.304749
1061.194, 5.719055
1062.298, 8.744019
1063.402, 21.77002
1064.506, 55.79694
1065.610, 28.82495
1066.713, 29.85382
1067.817, 46.88354
1068.920, 77.91412
1070.023, 70.94550
1071.126, 103.9775
1072.229, 96.01025
1073.332, 127.0436
1074.435, 96.07745
1075.537, 144.1118
1076.639, 145.1465
1077.741, 150.1818
1078.843, 163.2173
1079.945, 164.6676
1081.046, 162.2893
1082.148, 179.3257
1083.249, 184.3621
1084.350, 200.3989
1085.451, 238.4357
1086.551, 234.4725
1087.652, 248.5095
1088.752, 280.5463
1089.853, 275.5833
1090.953, 277.6199
1092.053, 265.6565
1093.152, 280.6927
1094.252, 289.6737
1095.351, 297.6724
1096.451, 325.7996
1097.550, 321.8342
1098.649, 342.8684
1099.748, 347.9020
1100.846, 368.9351
1101.945, 337.9673
1103.043, 370.9990
1104.141, 340.0298
1105.239, 345.0598
1106.337, 354.0890
1107.434, 321.1173
1108.532, 318.1447
1109.629, 301.4724
1110.726, 298.5079
1111.823, 288.8445
1112.920, 284.8160
1114.017, 275.4089
1115.113, 265.4904
1116.210, 268.7572
1117.306, 237.2856
1118.402, 207.3415
1119.498, 198.2257
1120.593, 223.6292
1121.689, 189.2468
1122.784, 197.3887
1123.879, 172.6725
1124.974, 160.9224
1126.069, 146.5018
1127.164, 160.0461
1128.259, 133.3002
1129.353, 146.5792
1130.447, 113.3183
1131.541, 97.20795
1132.635, 97.12738
1133.729, 96.69214
1134.822, 98.22064
1135.916, 97.30780
1137.009, 84.26648
1138.102, 98.62488
1139.195, 103.1990
1140.288, 112.2006
1141.380, 94.19244
1142.473, 96.23834
1143.565, 89.30511
1144.657, 98.34387
1145.749, 123.3351
1146.841, 116.6721
1147.932, 119.6705
1149.024, 135.7242
1150.115, 110.6682
1151.206, 136.7140
1152.297, 144.6483
1153.388, 138.6005
1154.479, 155.5471
1155.569, 158.4963
1156.659, 153.4188
1157.750, 157.5988
1158.839, 146.2478
1159.929, 156.1697
1161.019, 172.0751
1162.108, 183.9766
1163.198, 202.8936
1164.287, 209.7875
1165.376, 202.5884
1166.465, 217.5002
1167.553, 211.9851
1168.642, 221.2941
1169.730, 216.1925
1170.818, 228.0636
1171.906, 248.9307
1172.994, 254.7939
1174.082, 275.7769
1175.170, 267.1292
1176.257, 272.5367
1177.344, 265.6824
1178.431, 252.1098
1179.518, 263.7753
1180.605, 263.6128
1181.691, 268.6229
1182.778, 268.6259
1183.864, 246.6206
1184.950, 236.8000
1186.036, 246.2144
1187.122, 255.8225
1188.207, 245.6002
1189.292, 303.1664
1190.378, 246.1145
1191.463, 229.7003
1192.548, 222.5043
1193.632, 257.3054
1194.717, 247.1036
1195.801, 255.8992
1196.886, 235.6917
1197.970, 262.4814
1199.054, 225.2682
1200.137, 240.0521
1201.221, 212.8331
1202.305, 211.6111
1203.388, 217.3861
1204.471, 210.1583
1205.554, 202.9274
1206.637, 213.6935
1207.719, 194.4567
1208.802, 180.2167
1209.884, 182.9738
1210.966, 162.7278
1212.048, 169.4788
1213.130, 176.2266
1214.212, 146.9714
1215.293, 174.7131
1216.374, 130.4517
1217.456, 133.1872
1218.536, 158.9195
1219.617, 98.64868
1220.698, 92.37469
1221.778, 132.0975
1222.859, 124.8172
1223.939, 98.53369
1225.019, 81.24707
1226.099, 66.95721
1227.178, 57.66406
1228.258, 46.36780
1229.337, 50.06824
1230.417, 42.37024
1231.496, 45.45959
1232.574, 36.15045
1233.653, 33.83813
1234.732, 27.52252
1235.810, 36.20367
1236.888, 23.88159
