##NAMES=Andradite
##RRUFFID=R050311
##IDEAL CHEMISTRY=Ca_3_Fe^3+^_2_(SiO_4_)_3_
##LOCALITY=Calaveras County, California, USA
##OWNER=RRUFF
##SOURCE=Eugene Schlepp
##DESCRIPTION=Deep red crystals
##STATUS=The identification of this mineral has been confirmed by X-ray diffraction and chemical analysis
##URL=rruff.info/R050311
##MEASURED CHEMISTRY=(Ca_2.88_Mn_0.07_Fe^2+^_0.05_)_Σ=3_(Fe^3+^_1.39_Al_0.59_Ti_0.02_)_Σ=2_((Si_0.99_Al_0.01_)_Σ=1_O_4_)_3_
##PIN_ID=M00304
##ORIENTATION=Laser parallel to c* (0 0 1). Fiducial mark perpendicular to laser is parallel to a [1 0 0]
123.0580, 0.0000000E+00
124.2880, 164.0571
125.5190, 177.1245
126.7490, 63.75293
127.9790, 1.082520
129.2090, 184.2031
130.4390, 228.4565
131.6680, 217.9946
132.8980, 201.0732
134.1270, 112.6533
135.3560, 95.42090
136.5850, 73.52734
137.8140, 310.6035
139.0430, 309.9165
140.2710, 407.3647
141.5000, 197.0127
142.7280, 147.6313
143.9560, 124.8501
145.1840, 89.76367
146.4120, 74.17627
147.6390, 106.0259
148.8670, 43.70801
150.0940, 18.04297
151.3210, 55.00586
152.5490, 353.4238
153.7750, 135.1982
155.0020, 147.3174
156.2290, 46.77246
157.4550, 11.44727
158.6810, 44.34814
159.9080, 102.0615
161.1340, 15.22656
162.3590, 161.7749
163.5850, 407.0552
164.8110, 556.5996
166.0360, 831.4487
167.2610, 973.5806
168.4860, 1107.743
169.7110, 1260.369
170.9360, 1346.708
172.1610, 1439.498
173.3850, 1489.484
174.6100, 1496.665
175.8340, 1588.036
177.0580, 1560.594
178.2820, 1542.336
179.5050, 1335.259
180.7290, 1173.362
181.9520, 1021.642
183.1760, 847.2017
184.3990, 548.7246
185.6220, 562.5244
186.8450, 462.4951
188.0670, 388.6353
189.2900, 476.9443
190.5120, 335.4219
191.7340, 382.0664
192.9560, 389.8774
194.1780, 373.8545
195.4000, 508.9980
196.6220, 428.2969
197.8430, 445.7446
199.0640, 363.3066
200.2860, 419.9526
201.5070, 525.7329
202.7270, 513.6538
203.9480, 392.6245
205.1690, 200.6489
206.3890, 59.72998
207.6090, 6.129395
208.8290, 35.92480
210.0490, 26.72168
211.2690, 30.54102
212.4890, 41.87939
213.7080, 87.30518
214.9280, 247.7520
216.1470, 216.2871
217.3660, 316.9102
218.5850, 478.6201
219.8030, 498.4209
221.0220, 636.3125
222.2400, 698.2964
223.4590, 951.3740
224.6770, 1202.546
225.8950, 1470.813
227.1120, 1743.176
228.3300, 2053.634
229.5480, 2426.190
230.7650, 2871.844
231.9820, 3102.595
233.1990, 3226.443
234.4160, 3236.392
235.6330, 3285.438
236.8490, 3536.582
238.0660, 3517.825
239.2820, 3285.163
240.4980, 3071.592
241.7140, 2705.119
242.9300, 2186.746
244.1460, 1709.475
245.3610, 1200.303
246.5770, 846.2305
247.7920, 648.2607
249.0070, 332.3931
250.2220, 274.6279
251.4370, 165.9658
252.6510, 244.4077
253.8660, 212.9531
255.0800, 235.6021
256.2940, 302.3555
257.5080, 330.2129
258.7220, 959.1753
259.9360, 762.6729
261.1490, 1423.412
262.3630, 701.6870
263.5760, 787.0664
264.7890, 700.5508
266.0020, 803.1392
267.2150, 821.8330
268.4270, 907.6333
269.6400, 926.5923
270.8520, 809.7324
272.0640, 752.0762
273.2760, 729.4331
274.4880, 570.4053
275.7000, 604.2383
276.9120, 544.8574
278.1230, 534.9219
279.3340, 463.9077
280.5450, 326.3013
281.7560, 220.8052
282.9670, 173.6724
284.1780, 177.2642
285.3880, 145.9673
286.5980, 142.7515
287.8090, 171.4214
289.0190, 117.4888
290.2290, 221.5151
291.4380, 196.6509
292.6480, 173.8936
293.8570, 322.2432
295.0670, 414.8643
296.2760, 443.5254
297.4850, 487.1831
298.6930, 586.9404
299.9020, 726.7964
301.1110, 836.7495
302.3190, 894.7988
303.5270, 1118.233
304.7350, 1294.383
305.9430, 1440.713
307.1510, 1820.492
308.3580, 2032.003
309.5660, 2395.603
310.7730, 2673.291
311.9800, 2815.055
313.1870, 3001.899
314.3940, 3249.830
315.6010, 3343.846
316.8070, 3551.946
318.0130, 3511.129
319.2200, 3411.396
320.4260, 3197.744
321.6310, 3110.173
322.8370, 2911.685
324.0430, 2686.276
325.2480, 2564.946
326.4540, 2539.696
327.6590, 2550.524
328.8640, 2517.431
330.0680, 2704.413
331.2730, 2573.473
332.4780, 2716.607
333.6820, 2700.818
334.8860, 2693.103
336.0900, 2830.462
337.2940, 2890.895
338.4980, 3056.399
339.7010, 3281.978
340.9050, 3521.626
342.1080, 3990.347
343.3110, 4382.138
344.5140, 4950.000
345.7170, 5745.931
346.9200, 6604.932
348.1220, 7527.001
349.3240, 8371.142
350.5270, 9512.349
351.7290, 10799.62
352.9310, 11835.91
354.1320, 13257.77
355.3340, 15075.90
356.5350, 16761.45
357.7370, 18942.07
358.9380, 21896.76
360.1390, 24925.53
361.3400, 27846.36
362.5400, 31734.27
363.7410, 34592.26
364.9410, 37916.32
366.1410, 40082.49
367.3410, 42611.72
368.5410, 44398.03
369.7410, 45682.41
370.9400, 45586.88
372.1400, 44189.43
373.3390, 41436.06
374.5380, 37361.78
375.7370, 32568.57
376.9360, 27489.44
378.1350, 22613.40
379.3330, 18523.44
380.5310, 15214.54
381.7300, 12414.73
382.9280, 10833.00
384.1260, 9060.340
385.3230, 7215.753
386.5210, 6115.234
387.7180, 5173.787
388.9160, 4355.400
390.1130, 3848.107
391.3100, 3364.877
392.5060, 2854.735
393.7030, 2581.662
394.9000, 2112.651
396.0960, 1821.701
397.2920, 1551.815
398.4880, 1187.004
399.6840, 1029.258
400.8800, 822.5854
402.0750, 627.9844
403.2710, 475.4780
404.4660, 383.0527
405.6610, 292.6938
406.8560, 204.8750
408.0510, 219.2158
409.2450, 89.12744
410.4400, 63.13281
411.6340, 45.22559
412.8280, 42.59668
414.0220, 116.3496
415.2160, 108.0356
416.4100, 81.65039
417.6030, 143.1870
418.7970, 32.63574
419.9900, 19.99170
421.1830, 125.2544
422.3760, 154.4614
423.5690, 131.6108
424.7610, 54.69531
425.9540, 50.29346
427.1460, 120.3706
428.3380, 99.52539
429.5300, 141.7617
430.7220, 220.0635
431.9140, 165.4312
433.1050, 233.8623
434.2970, 340.3730
435.4880, 379.9614
436.6790, 395.6377
437.8700, 527.3774
439.0610, 393.1929
440.2510, 549.0771
441.4420, 516.0166
442.6320, 527.0117
443.8220, 519.0645
445.0120, 564.1704
446.2020, 695.3335
447.3910, 647.5522
448.5810, 747.8345
449.7700, 712.1685
450.9600, 583.5547
452.1490, 726.9917
453.3370, 661.4785
454.5260, 648.0146
455.7150, 774.5991
456.9030, 671.2314
458.0910, 617.9116
459.2800, 625.6387
460.4670, 562.4126
461.6550, 402.2329
462.8430, 393.0981
464.0300, 243.0083
465.2180, 359.9634
466.4050, 99.96240
467.5920, 162.0049
468.7790, 171.0903
469.9650, 339.2178
471.1520, 232.3882
472.3380, 452.6006
473.5250, 489.8530
474.7110, 532.1455
475.8970, 833.4795
477.0820, 950.8525
478.2680, 1197.265
479.4540, 1331.715
480.6390, 1476.204
481.8240, 1679.622
483.0090, 1817.294
484.1940, 2011.895
485.3780, 2186.531
486.5630, 2299.204
487.7470, 2390.911
488.9320, 2570.652
490.1160, 2686.430
491.3000, 2757.240
492.4830, 2784.084
493.6670, 2790.960
494.8500, 2789.973
496.0340, 2924.811
497.2170, 2723.786
498.4000, 2651.795
499.5820, 2586.834
500.7650, 2358.623
501.9480, 2312.722
503.1300, 2027.233
504.3120, 2154.458
505.4940, 2157.000
506.6760, 2258.880
507.8580, 2434.756
509.0390, 2730.722
510.2210, 3292.357
511.4020, 3693.597
512.5830, 4427.013
513.7640, 5209.489
514.9450, 6515.647
516.1250, 7738.909
517.3060, 9377.533
518.4860, 10797.66
519.6660, 12229.88
520.8460, 13641.75
522.0260, 14685.14
523.2060, 15430.21
524.3850, 15807.53
525.5650, 15714.23
526.7440, 15186.51
527.9230, 14061.94
529.1020, 12214.54
530.2810, 10557.32
531.4590, 8574.938
532.6380, 6893.806
533.8160, 5422.534
534.9940, 4290.139
536.1720, 3555.772
537.3500, 2921.996
538.5270, 2496.148
539.7050, 2201.714
540.8820, 2006.372
542.0590, 1906.708
543.2360, 1702.962
544.4130, 1698.914
545.5900, 1544.590
546.7660, 1661.946
547.9430, 1525.100
549.1190, 1720.846
550.2950, 1634.594
551.4710, 1750.843
552.6470, 1645.849
553.8220, 1700.229
554.9980, 1706.222
556.1730, 1749.753
557.3480, 1694.664
558.5230, 1620.262
559.6980, 1523.662
560.8730, 1431.913
562.0470, 1387.210
563.2220, 1193.150
564.3960, 1089.473
565.5700, 861.9517
566.7440, 892.4375
567.9170, 754.5879
569.0910, 786.6968
570.2640, 602.0283
571.4380, 598.9082
572.6110, 641.8345
573.7840, 676.3584
574.9570, 710.5303
576.1290, 796.4009
577.3020, 758.8599
578.4740, 871.8208
579.6460, 814.9756
580.8180, 764.2246
581.9900, 743.0010
583.1620, 817.6094
584.3330, 866.8242
585.5040, 864.3589
586.6760, 908.5640
587.8470, 917.9458
589.0180, 996.8105
590.1880, 1098.149
591.3590, 1180.466
592.5290, 1174.762
593.7000, 1113.033
594.8700, 1112.300
596.0400, 1221.525
597.2090, 1255.727
598.3790, 1240.903
599.5490, 1390.056
600.7180, 1365.183
601.8870, 1250.284
603.0560, 1350.360
604.2250, 1411.410
605.3940, 1366.432
606.5620, 1325.428
607.7300, 1409.396
608.8990, 1313.338
610.0670, 1303.250
611.2350, 1227.135
612.4020, 1172.990
613.5700, 1090.817
614.7370, 1040.613
615.9050, 901.3804
617.0720, 900.1172
618.2390, 826.8232
619.4060, 651.4985
620.5720, 494.1426
621.7390, 492.7554
622.9050, 552.3359
624.0710, 361.8843
625.2370, 388.4004
626.4030, 287.8848
627.5690, 259.3350
628.7340, 224.7520
629.9000, 243.1357
631.0650, 213.4214
632.2300, 195.6743
633.3950, 225.0820
634.5600, 120.3281
635.7240, 192.5396
636.8890, 97.71533
638.0530, 155.8555
639.2170, 131.9590
640.3810, 2.972656
641.5450, 79.04102
642.7080, 24.01758
643.8720, 10.95068
645.0350, 9.166016
646.1980, 13.15332
647.3610, 43.58447
648.5240, 4.093750
649.6870, 5.284180
650.8490, 2.275879
652.0120, 15.22168
653.1740, 62.78760
654.3360, 28.55273
655.4980, 41.15430
656.6600, 13.94580
657.8210, 20.80615
658.9830, 21.53467
660.1440, 14.74951
661.3050, 10.16943
662.4660, 31.97021
663.6270, 19.19141
664.7870, 29.51172
665.9480, 0.8364260
667.1080, 14.74756
668.2680, 12.27295
669.4280, 78.73828
670.5880, 82.83984
671.7480, 77.47070
672.9070, 67.26172
674.0670, 16.90186
675.2260, 45.00537
676.3850, 64.05713
677.5440, 31.06299
678.7030, 13.98730
679.8610, 19.88477
681.0200, 9.303711
682.1780, 7.567383
683.3360, 97.90625
684.4940, 45.36719
685.6520, 8.076660
686.8090, 4.546387
687.9670, 125.2437
689.1240, 125.0786
690.2810, 101.0518
691.4380, 81.14893
692.5950, 71.17041
693.7520, 10.68359
694.9080, 47.08057
696.0650, 49.56250
697.2210, 50.13330
698.3770, 121.7959
699.5330, 76.58057
700.6880, 74.47510
701.8440, 11.47852
702.9990, 47.54785
704.1550, 55.69873
705.3100, 24.93652
706.4650, 38.25488
707.6190, 6.165527
708.7740, 26.14844
709.9290, 48.28369
711.0830, 45.66211
712.2370, 62.98730
713.3910, 25.73779
714.5450, 21.54639
715.6980, 63.43555
716.8520, 39.57227
718.0050, 78.52686
719.1580, 71.43359
720.3110, 107.2930
721.4640, 127.1094
722.6170, 68.88379
723.7700, 163.6108
724.9220, 59.29785
726.0740, 172.9355
727.2260, 85.53467
728.3780, 172.0898
729.5300, 224.6050
730.6810, 304.0811
731.8330, 410.5181
732.9840, 153.9170
734.1350, 196.2769
735.2860, 227.5981
736.4370, 245.8813
737.5880, 287.1265
738.7380, 317.3633
739.8880, 417.5044
741.0390, 360.6372
742.1890, 402.7319
743.3380, 363.7905
744.4880, 442.8120
745.6380, 426.7964
746.7870, 410.7446
747.9360, 359.6562
749.0850, 474.5322
750.2340, 455.3726
751.3830, 528.1768
752.5310, 421.9458
753.6800, 510.6792
754.8280, 539.3784
755.9760, 504.0420
757.1240, 627.6709
758.2720, 653.2661
759.4190, 722.8267
760.5670, 798.3540
761.7140, 651.8472
762.8610, 656.3169
764.0080, 658.7529
765.1550, 634.1602
766.3020, 674.5352
767.4480, 665.8843
768.5950, 706.2002
769.7410, 643.4854
770.8870, 692.7402
772.0330, 670.9629
773.1780, 672.1562
774.3240, 702.3188
775.4690, 672.4512
776.6140, 715.5576
777.7590, 680.6367
778.9040, 658.9727
780.0490, 670.0132
781.1940, 716.6538
782.3380, 883.5952
783.4820, 903.2373
784.6260, 919.5493
785.7700, 904.8682
786.9140, 1015.114
788.0580, 1090.452
789.2010, 1235.702
790.3450, 1356.527
791.4880, 1546.295
792.6310, 1735.383
793.7730, 1827.365
794.9160, 2093.016
796.0590, 2483.173
797.2010, 2661.219
798.3430, 3021.657
799.4850, 3473.569
800.6270, 3892.804
801.7690, 4167.782
802.9100, 4737.381
804.0520, 5152.401
805.1930, 5750.271
806.3340, 6331.970
807.4750, 6952.489
808.6160, 7612.179
809.7560, 8401.625
810.8970, 9168.206
812.0370, 10022.91
813.1770, 10835.59
814.3170, 11499.67
815.4570, 12210.82
816.5960, 12809.54
817.7360, 13082.17
818.8750, 13542.11
820.0140, 13406.13
821.1530, 13103.44
822.2920, 12703.03
823.4310, 11933.93
824.5690, 11315.03
825.7070, 10668.52
826.8460, 9926.010
827.9840, 9288.988
829.1220, 8495.201
830.2590, 8169.030
831.3970, 7605.650
832.5340, 7251.980
833.6710, 7354.152
834.8080, 7030.286
835.9450, 7193.923
837.0820, 7249.401
838.2190, 7481.020
839.3550, 7762.601
840.4910, 7912.930
841.6270, 8170.759
842.7630, 8545.533
843.8990, 8757.488
845.0350, 8962.476
846.1700, 9038.230
847.3060, 9027.427
848.4410, 8669.565
849.5760, 8509.096
850.7100, 8139.973
851.8450, 7771.135
852.9800, 7289.700
854.1140, 7065.753
855.2480, 6690.602
856.3820, 6758.344
857.5160, 6544.547
858.6500, 6422.907
859.7830, 6411.650
860.9170, 6689.173
862.0500, 6716.787
863.1830, 6973.328
864.3160, 7413.372
865.4480, 7665.932
866.5810, 8176.500
867.7130, 8793.075
868.8460, 9473.664
869.9780, 10166.25
871.1100, 11063.85
872.2410, 12082.47
873.3730, 12843.11
874.5050, 13671.75
875.6360, 14384.41
876.7670, 14809.08
877.8980, 14710.76
879.0290, 14607.45
880.1590, 14125.16
881.2900, 13153.88
882.4200, 12154.61
883.5500, 10918.36
884.6800, 9782.123
885.8100, 8436.903
886.9400, 7212.693
888.0690, 6334.507
889.1990, 5475.337
890.3280, 4792.183
891.4570, 4277.042
892.5860, 3842.919
893.7140, 3397.814
894.8430, 2947.727
895.9710, 2603.655
897.1000, 2414.601
898.2280, 2198.489
899.3560, 1881.470
900.4830, 1649.148
901.6110, 1618.171
902.7380, 1465.531
903.8660, 1418.589
904.9930, 1309.665
906.1200, 1318.898
907.2460, 1229.850
908.3730, 1143.296
909.5000, 1126.485
910.6260, 1047.653
911.7520, 1045.707
912.8780, 937.2769
914.0040, 892.0957
915.1290, 960.1387
916.2550, 900.6899
917.3800, 905.5586
918.5050, 877.3467
919.6300, 1015.550
920.7550, 907.3428
921.8800, 990.8335
923.0040, 941.1084
924.1290, 958.9702
925.2530, 1061.899
926.3770, 1102.363
927.5010, 1191.126
928.6250, 1269.757
929.7480, 1293.628
930.8720, 1496.589
931.9950, 1647.997
933.1180, 1601.846
934.2410, 1764.699
935.3640, 1784.081
936.4860, 1862.293
937.6090, 1757.220
938.7310, 1721.142
939.8530, 1675.804
940.9750, 1621.851
942.0970, 1527.897
943.2180, 1350.779
944.3400, 1363.889
945.4610, 1215.034
946.5820, 1146.224
947.7030, 1093.852
948.8240, 989.9136
949.9450, 973.3530
951.0650, 863.6558
952.1860, 819.9971
953.3060, 812.5151
954.4260, 824.9287
955.5460, 878.3721
956.6650, 951.8228
957.7850, 1029.377
958.9040, 1128.966
960.0230, 1181.592
961.1420, 1235.286
962.2610, 1329.049
963.3800, 1391.875
964.4990, 1425.759
965.6170, 1507.697
966.7350, 1546.675
967.8530, 1646.701
968.9710, 1731.777
970.0890, 1817.902
971.2070, 1908.312
972.3240, 1999.346
973.4410, 2081.653
974.5580, 2108.999
975.6750, 2191.393
976.7920, 2276.838
977.9090, 2242.326
979.0250, 2296.859
980.1410, 2447.433
981.2580, 2411.048
982.3740, 2424.709
983.4890, 2424.396
984.6050, 2464.117
985.7200, 2561.884
986.8360, 2359.692
987.9510, 2465.555
989.0660, 2558.444
990.1810, 2759.357
991.2950, 2767.300
992.4100, 2855.267
993.5240, 3083.262
994.6390, 3099.297
995.7530, 3288.364
996.8660, 3223.462
997.9800, 3230.582
999.0940, 3091.735
1000.207, 3142.907
1001.320, 2933.106
1002.433, 2648.326
1003.546, 2337.566
1004.659, 1918.830
1005.772, 1652.115
1006.884, 1487.942
1007.996, 1238.274
1009.108, 1014.630
1010.220, 871.0093
1011.332, 837.4087
1012.444, 609.8374
1013.555, 556.2979
1014.666, 652.7783
1015.777, 562.2793
1016.888, 605.7993
1017.999, 588.7881
1019.110, 643.3457
1020.220, 673.9219
1021.331, 514.1909
1022.441, 507.8188
1023.551, 470.4644
1024.661, 392.1270
1025.770, 414.8101
1026.880, 263.4043
1027.989, 210.1235
1029.098, 117.8599
1030.207, 147.6152
1031.316, 62.61230
1032.425, 88.26660
1033.533, 29.35693
1034.642, 17.45166
1035.750, 45.69678
1036.858, 13.12988
1037.966, 22.98975
1039.073, 7.152344
1040.181, 46.71924
1041.288, 7.394043
1042.396, 5.7128999E-02
1043.503, 44.46240
1044.610, 29.60791
1045.716, 14.45410
1046.823, 45.50830
1047.929, 69.23584
1049.036, 78.18799
1050.142, 63.46875
1051.248, 98.48096
1052.353, 47.60205
1053.459, 12.72803
1054.564, 88.84473
1055.670, 64.98242
1056.775, 93.13330
1057.880, 11.31055
1058.985, 23.47119
1060.089, 28.62842
1061.194, 14.21533
1062.298, 137.9033
1063.402, 29.07471
1064.506, 15.24756
1065.610, 133.4150
1066.713, 3.368164
1067.817, 10.83740
1068.920, 5.039063
1070.023, 19.76416
1071.126, 19.42285
1072.229, 33.60986
1073.332, 19.80469
1074.435, 9.999023
1075.537, 72.18945
1076.639, 37.71143
1077.741, 57.37207
1078.843, 36.83887
1079.945, 2.062012
1081.046, 7.718262
1082.148, 37.50391
1083.249, 87.29736
1084.350, 43.09814
1085.451, 4.905273
1086.551, 100.7168
1087.652, 66.53369
1088.752, 11.64307
1089.853, 96.17676
1090.953, 67.00195
1092.053, 100.8325
1093.152, 104.6670
1094.252, 104.5063
1095.351, 171.3501
1096.451, 233.1978
1097.550, 224.0498
1098.649, 173.9058
1099.748, 250.8188
1100.846, 179.6797
1101.945, 203.5430
1103.043, 361.4077
1104.141, 119.2744
1105.239, 193.3096
1106.337, 315.1787
1107.434, 244.0479
1108.532, 136.9170
1109.629, 316.7871
1110.726, 172.6567
1111.823, 351.7461
1112.920, 248.6494
1114.017, 246.6426
1115.113, 292.5088
1116.210, 441.1064
1117.306, 470.8716
1118.402, 494.7329
1119.498, 656.1743
1120.593, 733.0303
1121.689, 728.8838
1122.784, 704.8149
1123.879, 657.9717
1124.974, 646.3672
1126.069, 617.0005
1127.164, 441.3853
1128.259, 448.3755
1129.353, 323.7935
1130.447, 288.7842
1131.541, 201.6968
1132.635, 190.7305
1133.729, 212.6924
1134.822, 165.9429
1135.916, 93.41602
1137.009, 123.5254
1138.102, 24.98438
1139.195, 148.9932
1140.288, 159.6353
1141.380, 105.4990
1142.473, 77.27979
1143.565, 134.3477
1144.657, 233.2256
1145.749, 118.2144
1146.841, 183.2305
1147.932, 141.1655
1149.024, 34.87988
1150.115, 135.7197
1151.206, 175.5146
1152.297, 12.01611
1153.388, 111.3750
1154.479, 103.0615
1155.569, 159.6831
1156.659, 101.0522
1157.750, 30.65381
1158.839, 83.53027
1159.929, 177.2183
1161.019, 104.2085
1162.108, 108.9287
1163.198, 55.63037
1164.287, 17.74023
1165.376, 169.9131
1166.465, 63.40137
1167.553, 105.5562
1168.642, 64.10205
1169.730, 175.5957
1170.818, 154.8960
1171.906, 143.3667
1172.994, 124.7280
1174.082, 65.23633
1175.170, 89.75244
1176.257, 57.45264
1177.344, 135.5205
1178.431, 25.61475
1179.518, 107.1587
1180.605, 76.92383
1181.691, 171.9351
1182.778, 151.7627
1183.864, 155.2363
1184.950, 186.2896
1186.036, 188.2920
1187.122, 177.9502
1188.207, 162.8115
1189.292, 229.9224
1190.378, 288.5591
1191.463, 167.7822
1192.548, 297.2031
1193.632, 152.1704
1194.717, 175.1934
1195.801, 314.1123
1196.886, 206.9858
1197.970, 216.5107
1199.054, 302.1157
1200.137, 65.01904
1201.221, 201.1001
1202.305, 301.2793
1203.388, 253.7295
1204.471, 213.7417
1205.554, 249.7715
1206.637, 142.9741
1207.719, 208.2285
1208.802, 229.2705
1209.884, 218.2646
1210.966, 181.8828
1212.048, 203.9229
1213.130, 226.8716
1214.212, 228.0444
1215.293, 242.9673
1216.374, 216.7305
1217.456, 234.6270
1218.536, 231.5688
1219.617, 136.4941
1220.698, 218.5215
1221.778, 209.3647
1222.859, 197.2061
1223.939, 263.0220
1225.019, 241.8242
1226.099, 177.6128
1227.178, 220.7300
1228.258, 93.49072
1229.337, 58.23730
1230.417, 130.9688
1231.496, 164.6870
1232.574, 98.39014
1233.653, 129.0796
1234.732, 41.75439
1235.810, 97.41309
1236.888, 126.0571
1237.966, 160.6870
1239.044, 112.3018
1240.122, 107.9023
1241.199, 40.48877
1242.277, 73.05811
1243.354, 42.28467
1244.431, 91.21875
1245.508, 4.014648
1246.585, 11.44385
1247.661, 102.8799
1248.738, 22.30078
1249.814, 117.7007
1250.890, 100.0864
1251.966, 7.457031
1253.042, 37.80225
1254.117, 0.8696290
1255.193, 36.57178
1256.268, 16.74756
1257.343, 5.892578
1258.418, 23.07959
1259.493, 10.75342
1260.567, 68.37891
1261.642, 4.495117
1262.716, 55.58447
1263.790, 30.65771
1264.864, 19.71143
1265.938, 39.39941
1267.011, 3.242188
1268.085, 46.22705
1269.158, 12.20459
1270.231, 6.147461
1271.304, 86.06543
1272.377, 13.38232
1273.450, 26.51660
1274.522, 46.30762
1275.594, 43.13525
1276.666, 50.92334
1277.738, 94.80420
1278.810, 61.10986
1279.882, 69.84961
1280.953, 22.42773
1282.025, 16.59277
1283.096, 84.25439
1284.167, 134.9009
1285.238, 14.53223
1286.308, 106.1421
1287.379, 40.84375
1288.449, 69.42139
1289.519, 29.98340
1290.589, 56.52734
1291.659, 76.05469
1292.729, 20.46777
1293.798, 17.61670
1294.868, 98.85449
1295.937, 150.2832
1297.006, 76.73193
