##NAMES=Andradite
##RRUFFID=R050377
##IDEAL CHEMISTRY=Ca_3_Fe^3+^_2_(SiO_4_)_3_
##LOCALITY=Zlatoust District, South Urals, Russia
##OWNER=RRUFF
##SOURCE=University of Arizona Mineral Museum
##DESCRIPTION=Dark red cubes
##STATUS=The identification of this mineral has been confirmed by X-ray diffraction and chemical analysis
##URL=rruff.info/R050377
##MEASURED CHEMISTRY=Ca_3.00_(Fe^3+^_1.48_Ti_0.31_Mg_0.14_Zr_0.07_)_Σ=2_(Si_2.73_Al_0.24_Ti_0.03_)_Σ=3_O_12_
##PIN_ID=M00110
##ORIENTATION=Laser parallel to a* (1 0 0). Fiducial mark perpendicular to laser is parallel to c [0 0 1]
99.64900, 0.0000000E+00
100.8830, 196.3267
102.1160, 0.8940430
103.3490, 39.74072
104.5820, 4.970215
105.8150, 266.9399
107.0470, 552.6206
108.2800, 663.5962
109.5120, 1013.299
110.7440, 445.8726
111.9760, 117.3291
113.2080, 27.29053
114.4400, 40.56152
115.6710, 208.5200
116.9030, 231.2817
118.1340, 84.59375
119.3650, 94.23242
120.5960, 49.00684
121.8270, 152.6904
123.0580, 263.1611
124.2880, 287.2637
125.5190, 263.8799
126.7490, 264.9053
127.9790, 333.2529
129.2090, 444.8521
130.4390, 454.6401
131.6680, 464.5576
132.8980, 502.5518
134.1270, 481.5693
135.3560, 509.5645
136.5850, 645.4902
137.8140, 772.2754
139.0430, 1003.846
140.2710, 935.1421
141.5000, 964.1147
142.7280, 910.7246
143.9560, 897.9380
145.1840, 863.7275
146.4120, 771.0684
147.6390, 646.9453
148.8670, 656.3516
150.0940, 477.2754
151.3210, 501.7002
152.5490, 565.6094
153.7750, 449.9980
155.0020, 563.8760
156.2290, 540.2617
157.4550, 470.1592
158.6810, 594.5527
159.9080, 744.4229
161.1340, 894.7549
162.3590, 1213.532
163.5850, 1639.741
164.8110, 2169.369
166.0360, 2453.404
167.2610, 2798.833
168.4860, 2896.646
169.7110, 3025.832
170.9360, 2640.383
172.1610, 2195.288
173.3850, 1628.454
174.6100, 1293.595
175.8340, 1070.738
177.0580, 1000.932
178.2820, 856.2002
179.5050, 834.5635
180.7290, 690.0361
181.9520, 555.6357
183.1760, 441.3750
184.3990, 557.2539
185.6220, 517.2920
186.8450, 744.4941
188.0670, 633.8672
189.2900, 696.4141
190.5120, 732.1416
191.7340, 768.0518
192.9560, 760.1572
194.1780, 821.4814
195.4000, 999.1201
196.6220, 999.1074
197.8430, 935.3506
199.0640, 679.8066
200.2860, 1058.447
201.5070, 1124.270
202.7270, 1108.278
203.9480, 846.4707
205.1690, 567.8584
206.3890, 226.5400
207.6090, 351.6289
208.8290, 272.2422
210.0490, 331.3789
211.2690, 268.1416
212.4890, 347.3662
213.7080, 412.8721
214.9280, 563.5479
216.1470, 683.3633
217.3660, 735.3174
218.5850, 699.4102
219.8030, 807.6426
221.0220, 1012.014
222.2400, 1020.524
223.4590, 1199.174
224.6770, 1251.961
225.8950, 1420.887
227.1120, 1397.949
228.3300, 1688.150
229.5480, 1821.488
230.7650, 1949.961
231.9820, 1938.568
233.1990, 2087.312
234.4160, 2045.187
235.6330, 1827.195
236.8490, 1953.334
238.0660, 1813.603
239.2820, 1859.002
240.4980, 1870.530
241.7140, 1770.187
242.9300, 1762.969
244.1460, 1797.877
245.3610, 1905.910
246.5770, 1961.835
247.7920, 1945.903
249.0070, 1964.116
250.2220, 1974.363
251.4370, 2059.037
252.6510, 2022.253
253.8660, 2275.870
255.0800, 2277.887
256.2940, 2472.279
257.5080, 2604.994
258.7220, 2976.044
259.9360, 3193.117
261.1490, 2896.785
262.3630, 2785.738
263.5760, 2836.969
264.7890, 2661.463
266.0020, 2781.210
267.2150, 2790.733
268.4270, 2608.962
269.6400, 2571.420
270.8520, 2495.101
272.0640, 2378.996
273.2760, 2370.104
274.4880, 2120.416
275.7000, 2070.927
276.9120, 2130.635
278.1230, 2239.534
279.3340, 2200.620
280.5450, 2229.889
281.7560, 2459.337
282.9670, 2749.959
284.1780, 2700.755
285.3880, 3085.314
286.5980, 3352.446
287.8090, 3680.622
289.0190, 3928.603
290.2290, 4129.037
291.4380, 4234.363
292.6480, 4427.996
293.8570, 4545.637
295.0670, 4571.139
296.2760, 4713.503
297.4850, 4814.012
298.6930, 4730.659
299.9020, 4746.449
301.1110, 4863.374
302.3190, 5077.436
303.5270, 5093.631
304.7350, 5116.955
305.9430, 5397.412
307.1510, 5371.994
308.3580, 5367.064
309.5660, 5405.896
310.7730, 5424.381
311.9800, 5570.379
313.1870, 5596.308
314.3940, 5684.070
315.6010, 5495.713
316.8070, 5604.031
318.0130, 5626.213
319.2200, 5732.342
320.4260, 5886.682
321.6310, 6139.389
322.8370, 6389.715
324.0430, 6696.802
325.2480, 7041.359
326.4540, 7269.377
327.6590, 7863.555
328.8640, 8492.152
330.0680, 9389.856
331.2730, 10184.66
332.4780, 11258.57
333.6820, 12588.58
334.8860, 14082.35
336.0900, 15801.90
337.2940, 17829.21
338.4980, 20085.62
339.7010, 22597.12
340.9050, 25706.73
342.1080, 28370.43
343.3110, 30692.21
344.5140, 32624.10
345.7170, 33629.07
346.9200, 33608.14
348.1220, 33141.30
349.3240, 31939.56
350.5270, 31232.90
351.7290, 30743.33
352.9310, 30917.84
354.1320, 31603.43
355.3340, 32610.12
356.5350, 34577.88
357.7370, 36735.71
358.9380, 38609.62
360.1390, 40716.62
361.3400, 42214.68
362.5400, 42575.82
363.7410, 42723.04
364.9410, 41210.33
366.1410, 39361.69
367.3410, 36878.12
368.5410, 33478.62
369.7410, 30055.20
370.9400, 26763.84
372.1400, 23953.56
373.3390, 20746.35
374.5380, 18265.20
375.7370, 15937.13
376.9360, 13998.12
378.1350, 12252.18
379.3330, 10824.31
380.5310, 9578.506
381.7300, 8504.770
382.9280, 7529.096
384.1260, 6584.489
385.3230, 5590.946
386.5210, 4686.469
387.7180, 3954.057
388.9160, 3570.705
390.1130, 3032.419
391.3100, 2477.237
392.5060, 2213.164
393.7030, 1741.204
394.9000, 1686.349
396.0960, 1382.595
397.2920, 1356.940
398.4880, 987.3838
399.6840, 921.9268
400.8800, 786.5693
402.0750, 685.3105
403.2710, 507.1855
404.4660, 473.1719
405.6610, 291.3242
406.8560, 254.6934
408.0510, 127.2119
409.2450, 147.9062
410.4400, 105.7969
411.6340, 148.8691
412.8280, 115.1826
414.0220, 144.7090
415.2160, 132.1396
416.4100, 111.2246
417.6030, 117.5117
418.7970, 95.86035
419.9900, 108.3945
421.1830, 164.0977
422.3760, 68.00195
423.5690, 106.0674
424.7610, 62.47461
425.9540, 46.72070
427.1460, 17.25391
428.3380, 10.09277
429.5300, 33.66895
430.7220, 69.46387
431.9140, 129.5303
433.1050, 64.57617
434.2970, 191.5762
435.4880, 58.59082
436.6790, 15.57227
437.8700, 80.50586
439.0610, 27.58496
440.2510, 48.73340
441.4420, 182.9414
442.6320, 112.2100
443.8220, 332.5352
445.0120, 326.9180
446.2020, 366.3584
447.3910, 328.8535
448.5810, 191.4053
449.7700, 320.0107
450.9600, 20.67090
452.1490, 81.37500
453.3370, 74.86816
454.5260, 145.1025
455.7150, 159.3613
456.9030, 191.6494
458.0910, 339.9844
459.2800, 214.4316
460.4670, 304.9355
461.6550, 285.5400
462.8430, 443.2354
464.0300, 303.0957
465.2180, 274.0605
466.4050, 108.1162
467.5920, 94.19238
468.7790, 15.28418
469.9650, 32.63965
471.1520, 117.5449
472.3380, 360.5947
473.5250, 301.6348
474.7110, 475.7168
475.8970, 557.8408
477.0820, 589.0059
478.2680, 848.2100
479.4540, 1088.455
480.6390, 1297.738
481.8240, 1372.061
483.0090, 1937.421
484.1940, 1972.818
485.3780, 2356.253
486.5630, 2595.725
487.7470, 2999.230
488.9320, 2990.773
490.1160, 3115.353
491.3000, 3123.966
492.4830, 3016.611
493.6670, 2832.291
494.8500, 2789.004
496.0340, 2751.750
497.2170, 2651.528
498.4000, 2874.340
499.5820, 3322.182
500.7650, 3702.055
501.9480, 4509.958
503.1300, 5522.891
504.3120, 6716.855
505.4940, 8346.850
506.6760, 10242.87
507.8580, 12535.92
509.0390, 15277.00
510.2210, 17537.11
511.4020, 19637.25
512.5830, 20895.41
513.7640, 21095.59
514.9450, 20401.81
516.1250, 18633.05
517.3060, 16665.32
518.4860, 14470.61
519.6660, 12663.93
520.8460, 10552.27
522.0260, 8999.635
523.2060, 7539.027
524.3850, 6698.441
525.5650, 5624.881
526.7440, 5026.342
527.9230, 4262.825
529.1020, 3952.331
530.2810, 3330.859
531.4590, 2928.410
532.6380, 2542.982
533.8160, 2488.576
534.9940, 2075.188
536.1720, 1980.822
537.3500, 1774.476
538.5270, 1560.147
539.7050, 1609.837
540.8820, 1558.988
542.0590, 1420.524
543.2360, 1461.254
544.4130, 1287.478
545.5900, 1345.873
546.7660, 1239.149
547.9430, 1369.126
549.1190, 1263.606
550.2950, 1318.418
551.4710, 1259.723
552.6470, 1010.371
553.8220, 963.1270
554.9980, 899.9775
556.1730, 752.3398
557.3480, 602.4219
558.5230, 470.8779
559.6980, 504.8584
560.8730, 408.8828
562.0470, 397.5879
563.2220, 492.5430
564.3960, 447.9805
565.5700, 510.9893
566.7440, 664.9697
567.9170, 790.7480
569.0910, 954.4727
570.2640, 1101.607
571.4380, 1374.943
572.6110, 1429.293
573.7840, 1517.518
574.9570, 1862.034
576.1290, 1882.047
577.3020, 1777.883
578.4740, 1853.319
579.6460, 1777.055
580.8180, 1596.533
581.9900, 1650.986
583.1620, 1479.416
584.3330, 1371.820
585.5040, 1450.201
586.6760, 1295.557
587.8470, 1362.888
589.0180, 1081.193
590.1880, 1275.473
591.3590, 1205.728
592.5290, 1213.594
593.7000, 1226.797
594.8700, 1214.443
596.0400, 1089.672
597.2090, 1097.061
598.3790, 1035.706
599.5490, 989.6904
600.7180, 997.5889
601.8870, 944.3203
603.0560, 995.7393
604.2250, 992.4590
605.3940, 992.6846
606.5620, 965.1104
607.7300, 915.4023
608.8990, 861.0410
610.0670, 790.3057
611.2350, 820.0381
612.4020, 781.3545
613.5700, 892.1934
614.7370, 921.0137
615.9050, 977.8174
617.0720, 1205.601
618.2390, 1219.367
619.4060, 1230.115
620.5720, 1495.847
621.7390, 1654.558
622.9050, 1636.253
624.0710, 1860.929
625.2370, 2127.588
626.4030, 2125.230
627.5690, 2438.855
628.7340, 2471.464
629.9000, 2582.057
631.0650, 2666.633
632.2300, 2893.193
633.3950, 2996.738
634.5600, 3025.268
635.7240, 3200.782
636.8890, 3128.280
638.0530, 3181.766
639.2170, 3220.237
640.3810, 3246.693
641.5450, 3231.135
642.7080, 3255.424
643.8720, 3236.309
645.0350, 3257.380
646.1980, 3218.768
647.3610, 3201.143
648.5240, 3235.504
649.6870, 3250.854
650.8490, 3258.180
652.0120, 3247.903
653.1740, 3266.826
654.3360, 3201.125
655.4980, 3156.413
656.6600, 3128.690
657.8210, 3090.954
658.9830, 3115.209
660.1440, 2898.451
661.3050, 2697.682
662.4660, 2563.902
663.6270, 2562.111
664.7870, 2228.312
665.9480, 2135.499
667.1080, 1806.678
668.2680, 1582.844
669.4280, 1363.002
670.5880, 1319.148
671.7480, 1093.284
672.9070, 997.4111
674.0670, 873.5283
675.2260, 768.6348
676.3850, 570.7314
677.5440, 330.8184
678.7030, 340.8955
679.8610, 217.9639
681.0200, 188.0166
682.1780, 176.0479
683.3360, 30.94238
684.4940, 58.97461
685.6520, 170.1582
686.8090, 373.4531
687.9670, 125.0166
689.1240, 229.7178
690.2810, 302.6094
691.4380, 261.7295
692.5950, 488.0557
693.7520, 395.7070
694.9080, 437.6318
696.0650, 291.8525
697.2210, 300.0000
698.3770, 485.9492
699.5330, 313.9238
700.6880, 261.1240
701.8440, 384.5186
702.9990, 249.1719
704.1550, 325.0107
705.3100, 248.0732
706.4650, 133.3174
707.6190, 118.6807
708.7740, 105.1523
709.9290, 67.72070
711.0830, 35.37109
712.2370, 78.37012
713.3910, 39.24316
714.5450, 347.5479
715.6980, 515.8906
716.8520, 675.2471
718.0050, 718.6113
719.1580, 987.9961
720.3110, 1167.382
721.4640, 1384.770
722.6170, 1645.158
723.7700, 1833.550
724.9220, 2105.136
726.0740, 2347.344
727.2260, 2665.744
728.3780, 3023.149
729.5300, 3395.560
730.6810, 3595.976
731.8330, 4158.400
732.9840, 4368.832
734.1350, 4763.293
735.2860, 4829.797
736.4370, 5006.350
737.5880, 5144.957
738.7380, 5253.652
739.8880, 5256.412
741.0390, 5242.102
742.1890, 5179.175
743.3380, 5057.213
744.4880, 5074.335
745.6380, 4932.538
746.7870, 5024.785
747.9360, 4919.072
749.0850, 4805.389
750.2340, 4872.721
751.3830, 4827.068
752.5310, 4865.428
753.6800, 4644.801
754.8280, 4763.189
755.9760, 4447.593
757.1240, 4446.039
758.2720, 4293.508
759.4190, 4192.006
760.5670, 4149.559
761.7140, 4102.193
762.8610, 3715.900
764.0080, 3809.693
765.1550, 3475.587
766.3020, 3537.543
767.4480, 3576.592
768.5950, 3436.729
769.7410, 3497.954
770.8870, 3466.262
772.0330, 3408.653
773.1780, 3421.111
774.3240, 3381.639
775.4690, 3522.244
776.6140, 3521.915
777.7590, 3727.662
778.9040, 3658.464
780.0490, 3728.330
781.1940, 3889.232
782.3380, 3816.182
783.4820, 3889.199
784.6260, 4042.274
785.7700, 3974.417
786.9140, 4170.613
788.0580, 4232.854
789.2010, 4443.174
790.3450, 4606.570
791.4880, 4783.031
792.6310, 4916.487
793.7730, 4955.061
794.9160, 5145.664
796.0590, 5246.299
797.2010, 5340.978
798.3430, 5507.691
799.4850, 5667.434
800.6270, 6000.217
801.7690, 6136.040
802.9100, 6418.895
804.0520, 6807.797
805.1930, 6871.736
806.3340, 7258.706
807.4750, 7240.705
808.6160, 7605.730
809.7560, 7743.789
810.8970, 7967.877
812.0370, 7850.994
813.1770, 7990.139
814.3170, 7958.312
815.4570, 7679.518
816.5960, 7667.751
817.7360, 7288.568
818.8750, 7452.051
820.0140, 7189.387
821.1530, 7029.274
822.2920, 6820.039
823.4310, 6799.967
824.5690, 6819.240
825.7070, 6669.055
826.8460, 6647.583
827.9840, 6719.664
829.1220, 6909.445
830.2590, 6979.164
831.3970, 7150.832
832.5340, 7293.031
833.6710, 7112.554
834.8080, 7680.749
835.9450, 7590.461
837.0820, 7970.172
838.2190, 7931.406
839.3550, 8207.112
840.4910, 8263.538
841.6270, 8304.437
842.7630, 8697.407
843.8990, 8791.614
845.0350, 8944.922
846.1700, 9336.264
847.3060, 9511.040
848.4410, 9832.500
849.5760, 10085.41
850.7100, 10565.30
851.8450, 10839.01
852.9800, 11426.78
854.1140, 11853.62
855.2480, 12319.52
856.3820, 12962.48
857.5160, 13524.52
858.6500, 13941.61
859.7830, 14751.77
860.9170, 15309.00
862.0500, 16029.29
863.1830, 16378.64
864.3160, 17182.07
865.4480, 17935.56
866.5810, 18767.11
867.7130, 19421.73
868.8460, 20214.41
869.9780, 20608.16
871.1100, 21012.98
872.2410, 21205.87
873.3730, 21012.82
874.5050, 20820.84
875.6360, 20205.85
876.7670, 19432.08
877.8980, 18371.31
879.0290, 17198.60
880.1590, 15732.96
881.2900, 14490.38
882.4200, 13385.86
883.5500, 12204.41
884.6800, 11100.71
885.8100, 9942.694
886.9400, 8987.429
888.0690, 8169.229
889.1990, 7261.086
890.3280, 6668.009
891.4570, 6142.079
892.5860, 5570.367
893.7140, 5137.047
894.8430, 4829.927
895.9710, 4489.504
897.1000, 4293.792
898.2280, 4118.308
899.3560, 3937.872
900.4830, 3907.304
901.6110, 3767.563
902.7380, 3686.736
903.8660, 3780.113
904.9930, 3714.508
906.1200, 3720.298
907.2460, 3653.621
908.3730, 3533.271
909.5000, 3614.712
910.6260, 3629.826
911.7520, 3694.850
912.8780, 3582.618
914.0040, 3545.605
915.1290, 3600.969
916.2550, 3470.985
917.3800, 3703.948
918.5050, 3588.371
919.6300, 3587.847
920.7550, 3480.461
921.8800, 3642.568
923.0040, 3598.559
924.1290, 3590.781
925.2530, 3733.457
926.3770, 3647.895
927.5010, 3551.695
928.6250, 3634.732
929.7480, 3437.430
930.8720, 3355.932
931.9950, 3314.432
933.1180, 3108.531
934.2410, 3069.448
935.3640, 2880.331
936.4860, 2770.489
937.6090, 2681.716
938.7310, 2583.719
939.8530, 2624.565
940.9750, 2447.632
942.0970, 2530.990
943.2180, 2521.947
944.3400, 2442.414
945.4610, 2433.922
946.5820, 2623.961
947.7030, 2659.210
948.8240, 2623.304
949.9450, 2740.423
951.0650, 2719.570
952.1860, 2822.741
953.3060, 2866.021
954.4260, 2882.404
955.5460, 3044.666
956.6650, 3108.073
957.7850, 2905.445
958.9040, 3138.919
960.0230, 3052.545
961.1420, 3047.260
962.2610, 3156.088
963.3800, 3164.051
964.4990, 3296.137
965.6170, 3273.272
966.7350, 3345.823
967.8530, 3200.411
968.9710, 3228.123
970.0890, 3100.964
971.2070, 3253.979
972.3240, 3229.126
973.4410, 3057.390
974.5580, 3245.797
975.6750, 2987.313
976.7920, 3038.018
977.9090, 3041.770
979.0250, 2894.598
980.1410, 2857.497
981.2580, 2962.463
982.3740, 2907.481
983.4890, 2921.551
984.6050, 2786.639
985.7200, 2762.755
986.8360, 2745.898
987.9510, 2759.067
989.0660, 2615.518
990.1810, 2462.458
991.2950, 2286.693
992.4100, 2140.961
993.5240, 1898.240
994.6390, 1730.537
995.7530, 1591.844
996.8660, 1368.157
997.9800, 1019.480
999.0940, 1091.812
1000.207, 1042.149
1001.320, 977.5059
1002.433, 1135.970
1003.546, 1283.363
1004.659, 1284.239
1005.772, 1429.854
1006.884, 1553.754
1007.996, 1622.942
1009.108, 1720.493
1010.220, 1724.236
1011.332, 1715.843
1012.444, 1563.938
1013.555, 1493.590
1014.666, 1347.327
1015.777, 957.1240
1016.888, 768.7666
1017.999, 631.6777
1019.110, 385.6484
1020.220, 224.9043
1021.331, 105.8770
1022.441, 51.32520
1023.551, 37.76562
1024.661, 3.212891
1025.770, 115.0781
1026.880, 21.72559
1027.989, 68.39453
1029.098, 139.0830
1030.207, 257.8779
1031.316, 199.8213
1032.425, 259.5391
1033.533, 300.7422
1034.642, 162.1348
1035.750, 268.6318
1036.858, 252.2920
1037.966, 233.0938
1039.073, 220.0459
1040.181, 225.1445
1041.288, 147.3916
1042.396, 156.7490
1043.503, 180.2139
1044.610, 143.8105
1045.716, 168.5205
1046.823, 89.35840
1047.929, 124.2852
1049.036, 4.319336
1050.142, 48.39746
1051.248, 132.5234
1052.353, 82.76758
1053.459, 114.1055
1054.564, 55.55176
1055.670, 35.08008
1056.775, 147.6807
1057.880, 136.4131
1058.985, 98.27246
1060.089, 99.75684
1061.194, 55.14746
1062.298, 63.23438
1063.402, 49.58496
1064.506, 7.635742
1065.610, 37.07520
1066.713, 139.7402
1067.817, 26.37305
1068.920, 6.960938
1070.023, 117.4805
1071.126, 2.033203
1072.229, 38.37891
1073.332, 172.7363
1074.435, 130.0596
1075.537, 228.4121
1076.639, 130.6680
1077.741, 132.8867
1078.843, 296.0684
1079.945, 193.2168
1081.046, 274.3271
1082.148, 256.4033
1083.249, 275.4443
1084.350, 329.4492
1085.451, 237.4180
1086.551, 223.3486
1087.652, 409.2412
1088.752, 249.0986
1089.853, 349.9160
1090.953, 343.6953
1092.053, 358.4346
1093.152, 373.1826
1094.252, 491.9209
1095.351, 513.0391
1096.451, 311.9805
1097.550, 522.7441
1098.649, 315.2871
1099.748, 364.2402
1100.846, 439.6387
1101.945, 432.1865
1103.043, 454.2432
1104.141, 499.9307
1105.239, 435.8838
1106.337, 468.0391
1107.434, 446.6230
1108.532, 318.1143
1109.629, 377.8174
1110.726, 448.6016
1111.823, 436.0977
1112.920, 532.3965
1114.017, 454.6865
1115.113, 470.0869
1116.210, 528.4414
1117.306, 498.8896
1118.402, 573.3828
1119.498, 659.8750
1120.593, 759.8760
1121.689, 730.3896
1122.784, 664.5205
1123.879, 705.2812
1124.974, 705.0654
1126.069, 760.7568
1127.164, 784.3818
1128.259, 537.8125
1129.353, 476.7656
1130.447, 526.5273
1131.541, 510.6875
1132.635, 444.2588
1133.729, 398.0303
1134.822, 418.0752
1135.916, 305.9346
1137.009, 370.7393
1138.102, 305.9229
1139.195, 272.9551
1140.288, 236.4053
1141.380, 232.5117
1142.473, 248.0859
1143.565, 299.1680
1144.657, 396.4541
1145.749, 388.0674
1146.841, 374.9209
1147.932, 413.3311
1149.024, 349.5303
1150.115, 382.5361
1151.206, 547.9482
1152.297, 352.1016
1153.388, 483.3545
1154.479, 565.8398
1155.569, 477.5234
1156.659, 413.0166
1157.750, 495.1670
1158.839, 541.8438
1159.929, 473.3018
1161.019, 530.7012
1162.108, 540.0596
1163.198, 369.9102
1164.287, 436.5088
1165.376, 427.5518
1166.465, 582.9004
1167.553, 415.8428
1168.642, 506.2715
1169.730, 406.0303
1170.818, 509.3818
1171.906, 419.5518
1172.994, 384.0234
1174.082, 457.1396
1175.170, 378.2256
1176.257, 426.6934
1177.344, 365.1865
1178.431, 526.5645
1179.518, 492.4014
1180.605, 422.4307
1181.691, 515.7832
1182.778, 480.4766
1183.864, 353.4131
1184.950, 382.9404
1186.036, 308.0674
1187.122, 362.4717
1188.207, 451.5547
1189.292, 354.9629
1190.378, 319.5801
1191.463, 222.6377
1192.548, 380.5938
1193.632, 351.2148
1194.717, 352.5732
1195.801, 415.3857
1196.886, 291.2451
1197.970, 351.2646
1199.054, 338.3271
1200.137, 297.9453
1201.221, 312.8340
1202.305, 247.5723
1203.388, 260.4482
1204.471, 301.2598
1205.554, 209.8018
1206.637, 314.0771
1207.719, 233.6084
1208.802, 309.8691
1209.884, 227.6016
1210.966, 323.0146
1212.048, 253.4922
1213.130, 336.9326
1214.212, 389.3184
1215.293, 247.6562
1216.374, 286.9512
1217.456, 333.0449
1218.536, 320.5693
1219.617, 317.1865
1220.698, 302.0850
1221.778, 267.9141
1222.859, 211.9307
1223.939, 203.9014
1225.019, 102.8262
1226.099, 134.7002
1227.178, 166.5264
1228.258, 208.3037
1229.337, 99.03809
1230.417, 222.7217
1231.496, 172.3604
1232.574, 191.9531
1233.653, 33.50098
1234.732, 61.99316
1235.810, 223.4355
1236.888, 101.7949
1237.966, 111.1855
1239.044, 64.42969
1240.122, 47.68359
1241.199, 74.88574
1242.277, 103.0420
1243.354, 90.89062
1244.431, 64.21289
1245.508, 62.22559
1246.585, 43.19141
1247.661, 24.89258
1248.738, 10.27734
1249.814, 73.91309
1250.890, 29.36230
1251.966, 24.71680
1253.042, 52.14551
1254.117, 67.33594
1255.193, 6.227539
1256.268, 72.14551
1257.343, 103.4727
1258.418, 20.81543
1259.493, 28.05176
1260.567, 120.2432
1261.642, 29.60840
1262.716, 2.531250
1263.790, 99.39355
1264.864, 127.3496
1265.938, 122.8584
1267.011, 35.44922
1268.085, 43.78516
1269.158, 8.792969
1270.231, 115.6035
1271.304, 85.72949
1272.377, 9.200195
1273.450, 116.0596
1274.522, 74.63867
1275.594, 81.51172
1276.666, 23.56250
