##NAMES=Andradite
##RRUFFID=R060423
##IDEAL CHEMISTRY=Ca_3_Fe^3+^_2_(SiO_4_)_3_
##LOCALITY=Mali
##OWNER=RRUFF
##SOURCE=Greg Schmidt
##DESCRIPTION=Black dodecahedron
##STATUS=The identification of this mineral has been confirmed by X-ray diffraction and chemical analysis
##URL=rruff.info/R060423
##MEASURED CHEMISTRY=(Ca_2.93_Mg_0.04_Mn_0.03_)_Σ=3_(Fe^3+^_0.99_Al_0.95_Ti_0.06_)_Σ=2_((Si_0.98_Fe^3+^_0.02_)_Σ=1_O_4_)_3_
##PIN_ID=L01089
##ORIENTATION=Laser parallel to a* (1 0 0). Fiducial mark perpendicular to laser is parallel to c [0 0 1]
91.01200, 0.0000000E+00
92.24600, 98.46277
93.48000, 60.11279
94.71400, 92.49121
95.94800, 12.63574
97.18200, 12.96045
98.41600, 89.03345
99.64900, 26.10364
100.8830, 57.86755
102.1160, 41.68799
103.3490, 45.02002
104.5820, 34.01294
105.8150, 220.9025
107.0470, 334.5950
108.2800, 633.0020
109.5120, 942.1118
110.7440, 567.1075
111.9760, 205.8309
113.2080, 161.2585
114.4400, 206.3542
115.6710, 278.0869
116.9030, 244.4341
118.1340, 101.3755
119.3650, 65.89087
120.5960, 10.96094
121.8270, 2.567383
123.0580, 44.85815
124.2880, 46.03931
125.5190, 84.56030
126.7490, 51.96704
127.9790, 2.088623
129.2090, 12.41602
130.4390, 25.48999
131.6680, 62.78101
132.8980, 31.43433
134.1270, 18.43115
135.3560, 75.75439
136.5850, 141.3882
137.8140, 240.3210
139.0430, 313.5637
140.2710, 343.1296
141.5000, 261.0220
142.7280, 185.2327
143.9560, 200.7520
145.1840, 155.5703
146.4120, 98.67993
147.6390, 143.0740
148.8670, 77.74561
150.0940, 93.68945
151.3210, 120.9009
152.5490, 158.3750
153.7750, 188.1082
155.0020, 127.0962
156.2290, 141.3364
157.4550, 33.82568
158.6810, 109.5608
159.9080, 176.5393
161.1340, 221.7583
162.3590, 353.2166
163.5850, 516.8555
164.8110, 719.8064
166.0360, 971.7952
167.2610, 1269.871
168.4860, 1609.027
169.7110, 1854.270
170.9360, 2116.601
172.1610, 2412.018
173.3850, 2850.525
174.6100, 3165.118
175.8340, 3158.802
177.0580, 3147.581
178.2820, 2702.464
179.5050, 2368.446
180.7290, 2030.500
181.9520, 1677.585
183.1760, 1330.807
184.3990, 1033.310
185.6220, 843.1694
186.8450, 707.4165
188.0670, 699.9573
189.2900, 773.7749
190.5120, 789.8367
191.7340, 758.0400
192.9560, 749.3611
194.1780, 759.7957
195.4000, 754.3459
196.6220, 776.0139
197.8430, 718.8010
199.0640, 678.7087
200.2860, 743.7385
201.5070, 727.8918
202.7270, 794.1694
203.9480, 609.5725
205.1690, 390.1023
206.3890, 267.7593
207.6090, 274.5452
208.8290, 218.4602
210.0490, 214.5054
211.2690, 225.3386
212.4890, 253.9895
213.7080, 262.4294
214.9280, 319.0022
216.1470, 344.7080
217.3660, 470.5471
218.5850, 566.6001
219.8030, 770.6265
221.0220, 862.8672
222.2400, 1114.242
223.4590, 1342.752
224.6770, 1668.396
225.8950, 2091.175
227.1120, 2450.089
228.3300, 2961.137
229.5480, 3462.320
230.7650, 4029.638
231.9820, 4550.091
233.1990, 5090.677
234.4160, 5474.399
235.6330, 5872.256
236.8490, 6260.246
238.0660, 6602.657
239.2820, 6814.037
240.4980, 6803.374
241.7140, 6070.720
242.9300, 5293.890
244.1460, 4493.049
245.3610, 3627.582
246.5770, 2832.986
247.7920, 2196.644
249.0070, 1791.261
250.2220, 1390.021
251.4370, 1260.718
252.6510, 1109.753
253.8660, 1005.761
255.0800, 972.6365
256.2940, 891.5708
257.5080, 1072.645
258.7220, 1050.878
259.9360, 1173.444
261.1490, 1418.811
262.3630, 1471.505
263.5760, 1595.350
264.7890, 1836.340
266.0020, 2007.477
267.2150, 2449.080
268.4270, 2696.694
269.6400, 3017.245
270.8520, 3043.130
272.0640, 2937.551
273.2760, 2927.308
274.4880, 2791.053
275.7000, 2620.268
276.9120, 2471.126
278.1230, 2410.822
279.3340, 2216.407
280.5450, 2054.358
281.7560, 2024.293
282.9670, 1819.462
284.1780, 1630.252
285.3880, 1520.567
286.5980, 1410.419
287.8090, 1330.600
289.0190, 1305.732
290.2290, 1247.668
291.4380, 1252.098
292.6480, 1265.081
293.8570, 1349.183
295.0670, 1320.401
296.2760, 1345.736
297.4850, 1435.188
298.6930, 1391.755
299.9020, 1450.436
301.1110, 1633.231
302.3190, 1627.140
303.5270, 1610.161
304.7350, 1840.293
305.9430, 1917.538
307.1510, 1957.893
308.3580, 2134.357
309.5660, 2443.931
310.7730, 2848.612
311.9800, 3192.403
313.1870, 3519.300
314.3940, 3915.307
315.6010, 4439.422
316.8070, 5022.645
318.0130, 5621.976
319.2200, 5699.415
320.4260, 5674.961
321.6310, 5521.616
322.8370, 5214.378
324.0430, 4997.247
325.2480, 4560.225
326.4540, 4378.311
327.6590, 4162.501
328.8640, 4012.801
330.0680, 3888.207
331.2730, 3920.717
332.4780, 3966.332
333.6820, 3981.047
334.8860, 4158.865
336.0900, 4157.784
337.2940, 4133.802
338.4980, 4100.921
339.7010, 4058.139
340.9050, 4041.456
342.1080, 4226.873
343.3110, 4447.388
344.5140, 4823.002
345.7170, 5347.234
346.9200, 5856.526
348.1220, 6809.434
349.3240, 7768.441
350.5270, 8952.544
351.7290, 10706.74
352.9310, 12239.04
354.1320, 14185.43
355.3340, 16096.92
356.5350, 18220.50
357.7370, 20577.18
358.9380, 22869.95
360.1390, 24640.82
361.3400, 26816.78
362.5400, 28606.83
363.7410, 30904.98
364.9410, 33836.22
366.1410, 37170.55
367.3410, 41177.98
368.5410, 44492.50
369.7410, 47247.10
370.9400, 47759.80
372.1400, 45431.59
373.3390, 41484.48
374.5380, 36831.44
375.7370, 31506.49
376.9360, 26369.65
378.1350, 21814.88
379.3330, 18334.20
380.5310, 15096.61
381.7300, 12589.11
382.9280, 10797.71
384.1260, 9210.417
385.3230, 8026.229
386.5210, 6987.142
387.7180, 6148.162
388.9160, 5568.288
390.1130, 5132.519
391.3100, 4683.855
392.5060, 4288.295
393.7030, 3986.840
394.9000, 3889.489
396.0960, 3601.242
397.2920, 3424.098
398.4880, 3265.058
399.6840, 3142.121
400.8800, 2896.288
402.0750, 2748.562
403.2710, 2338.952
404.4660, 2073.457
405.6610, 1685.099
406.8560, 1375.881
408.0510, 1029.810
409.2450, 766.8867
410.4400, 577.1240
411.6340, 389.5273
412.8280, 260.1138
414.0220, 102.8804
415.2160, 52.15967
416.4100, 96.02393
417.6030, 161.7197
418.7970, 183.2788
419.9900, 235.7080
421.1830, 254.0264
422.3760, 296.2354
423.5690, 325.3535
424.7610, 222.3970
425.9540, 198.3384
427.1460, 211.1606
428.3380, 194.8843
429.5300, 171.4990
430.7220, 184.9966
431.9140, 100.4038
433.1050, 2.675293
434.2970, 21.79541
435.4880, 124.2285
436.6790, 169.3940
437.8700, 348.6968
439.0610, 292.1455
440.2510, 500.7192
441.4420, 467.4204
442.6320, 637.2446
443.8220, 533.1704
445.0120, 641.2017
446.2020, 565.3335
447.3910, 552.5522
448.5810, 644.8564
449.7700, 638.2446
450.9600, 627.7119
452.1490, 645.2588
453.3370, 606.8843
454.5260, 613.5884
455.7150, 666.3696
456.9030, 566.2275
458.0910, 477.1621
459.2800, 535.1724
460.4670, 502.2578
461.6550, 572.4180
462.8430, 504.6519
464.0300, 484.9595
465.2180, 540.3398
466.4050, 449.7920
467.5920, 473.3159
468.7790, 338.9106
469.9650, 348.5762
471.1520, 289.3105
472.3380, 336.1147
473.5250, 274.9873
474.7110, 423.9272
475.8970, 494.9351
477.0820, 664.0093
478.2680, 757.1499
479.4540, 962.3560
480.6390, 1081.626
481.8240, 1312.961
483.0090, 1537.360
484.1940, 1787.822
485.3780, 1980.346
486.5630, 2125.933
487.7470, 2198.580
488.9320, 2313.288
490.1160, 2280.057
491.3000, 2455.885
492.4830, 2519.771
493.6670, 2445.716
494.8500, 2343.720
496.0340, 2326.779
497.2170, 2296.896
498.4000, 2175.068
499.5820, 2017.296
500.7650, 1922.578
501.9480, 1787.915
503.1300, 1687.305
504.3120, 1546.748
505.4940, 1382.244
506.6760, 1203.791
507.8580, 1147.390
509.0390, 1159.038
510.2210, 991.7368
511.4020, 1013.485
512.5830, 1120.282
513.7640, 1157.128
514.9450, 1238.021
516.1250, 1320.960
517.3060, 1601.947
518.4860, 1824.979
519.6660, 2088.057
520.8460, 2517.179
522.0260, 3103.345
523.2060, 3894.556
524.3850, 4812.224
525.5650, 5762.103
526.7440, 7162.440
527.9230, 8494.817
529.1020, 10064.24
530.2810, 11587.70
531.4590, 13062.19
532.6380, 13718.73
533.8160, 13568.30
534.9940, 12783.91
536.1720, 10906.55
537.3500, 8876.235
538.5270, 6962.952
539.7050, 5431.704
540.8820, 4137.488
542.0590, 3036.305
543.2360, 2403.529
544.4130, 1847.769
545.5900, 1648.811
546.7660, 1407.378
547.9430, 1231.253
549.1190, 1166.384
550.2950, 1352.517
551.4710, 1290.982
552.6470, 1394.149
553.8220, 1421.224
554.9980, 1521.812
556.1730, 1644.754
557.3480, 1617.934
558.5230, 1713.717
559.6980, 1632.293
560.8730, 1733.669
562.0470, 1574.302
563.2220, 1633.677
564.3960, 1464.361
565.5700, 1412.883
566.7440, 1360.502
567.9170, 1143.303
569.0910, 1104.254
570.2640, 963.9783
571.4380, 813.8701
572.6110, 710.0867
573.7840, 658.3955
574.9570, 589.1428
576.1290, 545.0217
577.3020, 466.1592
578.4740, 467.1868
579.6460, 448.6245
580.8180, 379.1982
581.9900, 363.3708
583.1620, 277.5168
584.3330, 275.3079
585.5040, 314.7263
586.6760, 389.3999
587.8470, 564.3333
589.0180, 502.2695
590.1880, 692.6772
591.3590, 738.7495
592.5290, 907.8032
593.7000, 993.8384
594.8700, 1171.854
596.0400, 1318.851
597.2090, 1406.827
598.3790, 1466.782
599.5490, 1528.716
600.7180, 1591.629
601.8870, 1715.518
603.0560, 1713.386
604.2250, 1857.229
605.3940, 1810.049
606.5620, 1898.845
607.7300, 1908.616
608.8990, 2042.361
610.0670, 2054.081
611.2350, 2038.775
612.4020, 2136.442
613.5700, 2236.082
614.7370, 2113.694
615.9050, 2163.278
617.0720, 2187.834
618.2390, 2070.360
619.4060, 2013.858
620.5720, 1949.325
621.7390, 1798.762
622.9050, 1638.168
624.0710, 1456.543
625.2370, 1242.887
626.4030, 1089.198
627.5690, 909.4773
628.7340, 774.7234
629.9000, 535.9365
631.0650, 399.1160
632.2300, 365.2607
633.3950, 307.3716
634.5600, 297.4480
635.7240, 267.0879
636.8890, 214.4941
638.0530, 237.4641
639.2170, 217.3979
640.3810, 212.2952
641.5450, 233.1560
642.7080, 288.9800
643.8720, 404.7666
645.0350, 1175.516
646.1980, 1427.227
647.3610, 1066.901
648.5240, 1644.536
649.6870, 1159.133
650.8490, 1089.691
652.0120, 610.2095
653.1740, 429.6895
654.3360, 404.1299
655.4980, 378.5308
656.6600, 334.8921
657.8210, 359.2129
658.9830, 321.4937
660.1440, 316.7344
661.3050, 294.9338
662.4660, 310.0928
663.6270, 224.2107
664.7870, 319.2876
665.9480, 185.3232
667.1080, 279.3171
668.2680, 276.2695
669.4280, 296.1804
670.5880, 401.0491
671.7480, 343.8757
672.9070, 368.6599
674.0670, 419.4019
675.2260, 367.1013
676.3850, 311.7581
677.5440, 324.3718
678.7030, 273.0432
679.8610, 270.4709
681.0200, 196.9553
682.1780, 159.3953
683.3360, 71.78589
684.4940, 80.10669
685.6520, 27.63989
686.8090, 31.50415
687.9670, 66.48901
689.1240, 65.61304
690.2810, 117.8755
691.4380, 128.3049
692.5950, 189.9072
693.7520, 149.7144
694.9080, 202.7058
696.0650, 161.9097
697.2210, 207.2976
698.3770, 206.8882
699.5330, 200.6716
700.6880, 204.6406
701.8440, 227.7893
702.9990, 213.1267
704.1550, 198.6370
705.3100, 166.3076
706.4650, 203.1394
707.6190, 150.1543
708.7740, 169.3228
709.9290, 174.6570
711.0830, 93.16309
712.2370, 175.7954
713.3910, 142.6099
714.5450, 135.5999
715.6980, 99.75952
716.8520, 83.07422
718.0050, 122.5334
719.1580, 46.15796
720.3110, 56.90698
721.4640, 41.78564
722.6170, 33.21533
723.7700, 15.13550
724.9220, 32.96631
726.0740, 150.7178
727.2260, 148.4163
728.3780, 185.0618
729.5300, 262.6594
730.6810, 291.2146
731.8330, 348.2944
732.9840, 355.1987
734.1350, 443.6277
735.2860, 501.0149
736.4370, 539.3611
737.5880, 622.6660
738.7380, 656.9297
739.8880, 727.8464
741.0390, 803.3359
742.1890, 869.4785
743.3380, 952.5811
744.4880, 1044.643
745.6380, 1143.667
746.7870, 1204.651
747.9360, 1328.596
749.0850, 1480.502
750.2340, 1506.370
751.3830, 1620.200
752.5310, 1752.991
753.6800, 1984.745
754.8280, 2006.462
755.9760, 2212.142
757.1240, 2322.785
758.2720, 2583.391
759.4190, 2736.961
760.5670, 3015.495
761.7140, 3249.994
762.8610, 3401.458
764.0080, 3412.885
765.1550, 3587.278
766.3020, 3572.637
767.4480, 3528.961
768.5950, 3509.251
769.7410, 3311.512
770.8870, 3242.742
772.0330, 3020.943
773.1780, 2943.120
774.3240, 2786.275
775.4690, 2608.409
776.6140, 2577.528
777.7590, 2474.625
778.9040, 2268.702
780.0490, 2304.777
781.1940, 2295.833
782.3380, 2278.874
783.4820, 2382.906
784.6260, 2464.913
785.7700, 2463.910
786.9140, 2669.897
788.0580, 2852.878
789.2010, 2885.854
790.3450, 3098.822
791.4880, 3238.789
792.6310, 3415.736
793.7730, 3701.682
794.9160, 3996.621
796.0590, 4350.551
797.2010, 4792.479
798.3430, 5343.404
799.4850, 5807.322
800.6270, 6457.244
801.7690, 7033.166
802.9100, 7973.085
804.0520, 8606.006
805.1930, 9495.926
806.3340, 10387.84
807.4750, 11231.76
808.6160, 12457.67
809.7560, 13392.58
810.8970, 14481.49
812.0370, 15694.40
813.1770, 17058.30
814.3170, 18277.20
815.4570, 19156.10
816.5960, 20191.00
817.7360, 20798.89
818.8750, 21235.77
820.0140, 21346.27
821.1530, 21363.79
822.2920, 20767.52
823.4310, 20075.75
824.5690, 19202.69
825.7070, 18436.41
826.8460, 17408.14
827.9840, 16331.55
829.1220, 15521.27
830.2590, 14605.42
831.3970, 13748.43
832.5340, 13126.42
833.6710, 12481.95
834.8080, 12057.62
835.9450, 11467.32
837.0820, 11211.41
838.2190, 10899.26
839.3550, 10648.67
840.4910, 10472.01
841.6270, 10472.29
842.7630, 10360.62
843.8990, 10380.67
845.0350, 10217.08
846.1700, 10326.32
847.3060, 10117.28
848.4410, 10132.39
849.5760, 10106.37
850.7100, 9883.490
851.8450, 9735.109
852.9800, 9588.040
854.1140, 9597.088
855.2480, 9640.053
856.3820, 9773.248
857.5160, 9963.168
858.6500, 10274.12
859.7830, 10596.44
860.9170, 11162.13
862.0500, 11778.57
863.1830, 12441.75
864.3160, 13125.94
865.4480, 14207.66
866.5810, 15245.72
867.7130, 16368.80
868.8460, 17352.90
869.9780, 18719.03
871.1100, 20011.17
872.2410, 21170.35
873.3730, 22202.53
874.5050, 22939.75
875.6360, 23233.99
876.7670, 23036.25
877.8980, 22703.54
879.0290, 21627.85
880.1590, 20308.18
881.2900, 18838.54
882.4200, 17493.92
883.5500, 16169.33
884.6800, 14674.77
885.8100, 13369.23
886.9400, 12145.71
888.0690, 10976.22
889.1990, 9945.758
890.3280, 9111.323
891.4570, 8344.914
892.5860, 7836.531
893.7140, 7210.178
894.8430, 6636.848
895.9710, 6190.547
897.1000, 5701.275
898.2280, 5367.031
899.3560, 4905.814
900.4830, 4679.627
901.6110, 4397.468
902.7380, 4133.336
903.8660, 3803.235
904.9930, 3586.707
906.1200, 3425.807
907.2460, 3149.554
908.3730, 3117.171
909.5000, 2935.884
910.6260, 2939.016
911.7520, 2847.634
912.8780, 2686.176
914.0040, 2678.335
915.1290, 2584.850
916.2550, 2735.017
917.3800, 2659.921
918.5050, 2674.440
919.6300, 2530.660
920.7550, 2628.772
921.8800, 2609.619
923.0040, 2585.146
924.1290, 2620.971
925.2530, 2652.034
926.3770, 2583.851
927.5010, 2587.286
928.6250, 2720.637
929.7480, 2773.284
930.8720, 2922.045
931.9950, 2906.122
933.1180, 3061.874
934.2410, 3194.123
935.3640, 3332.247
936.4860, 3325.870
937.6090, 3451.300
938.7310, 3386.168
939.8530, 3387.401
940.9750, 3410.398
942.0970, 3249.955
943.2180, 3228.269
944.3400, 3052.154
945.4610, 2871.287
946.5820, 2745.248
947.7030, 2530.088
948.8240, 2336.870
949.9450, 2122.919
951.0650, 1957.544
952.1860, 1740.802
953.3060, 1633.006
954.4260, 1533.724
955.5460, 1394.406
956.6650, 1517.176
957.7850, 1527.409
958.9040, 1558.271
960.0230, 1809.680
961.1420, 1831.662
962.2610, 2015.130
963.3800, 2250.630
964.4990, 2380.365
965.6170, 2556.104
966.7350, 2587.574
967.8530, 2800.510
968.9710, 2884.540
970.0890, 3126.678
971.2070, 3152.921
972.3240, 3361.269
973.4410, 3503.723
974.5580, 3676.289
975.6750, 3699.961
976.7920, 3860.736
977.9090, 3852.608
979.0250, 3945.583
980.1410, 4035.648
981.2580, 4018.807
982.3740, 3977.064
983.4890, 4082.394
984.6050, 4136.821
985.7200, 4036.333
986.8360, 4106.931
987.9510, 4066.603
989.0660, 4029.343
990.1810, 4122.165
991.2950, 4144.045
992.4100, 4075.988
993.5240, 4184.986
994.6390, 4218.023
995.7530, 4110.101
996.8660, 4194.214
997.9800, 4092.352
999.0940, 4099.512
1000.207, 4078.690
1001.320, 3941.888
1002.433, 3772.103
1003.546, 3515.335
1004.659, 3148.584
1005.772, 2812.851
1006.884, 2460.132
1007.996, 2075.432
1009.108, 1776.748
1010.220, 1531.080
1011.332, 1239.428
1012.444, 1050.792
1013.555, 876.1775
1014.666, 839.5781
1015.777, 717.9932
1016.888, 768.4229
1017.999, 758.8667
1019.110, 750.3420
1020.220, 760.8357
1021.331, 882.3521
1022.441, 955.8811
1023.551, 985.4319
1024.661, 885.9956
1025.770, 904.5728
1026.880, 819.1621
1027.989, 663.7634
1029.098, 545.3774
1030.207, 420.0024
1031.316, 316.9961
1032.425, 295.2847
1033.533, 150.9424
1034.642, 133.6096
1035.750, 92.28687
1036.858, 14.97534
1037.966, 29.32764
1039.073, 7.627930
1040.181, 35.91821
1041.288, 59.19263
1042.396, 59.46313
1043.503, 66.74487
1044.610, 89.03882
1045.716, 49.36133
1046.823, 60.82104
1047.929, 128.0432
1049.036, 56.44556
1050.142, 65.86475
1051.248, 89.30664
1052.353, 29.78491
1053.459, 78.27002
1054.564, 71.78833
1055.670, 96.33716
1056.775, 82.92993
1057.880, 84.56177
1058.985, 94.42676
1060.089, 21.95129
1061.194, 98.67932
1062.298, 69.45923
1063.402, 53.27612
1064.506, 88.11523
1065.610, 65.00330
1066.713, 70.92200
1067.817, 82.88342
1068.920, 88.89490
1070.023, 67.96021
1071.126, 73.06934
1072.229, 61.08569
1073.332, 71.42407
1074.435, 46.66553
1075.537, 56.94287
1076.639, 64.25793
1077.741, 34.62085
1078.843, 62.01721
1079.945, 42.46155
1081.046, 23.94543
1082.148, 42.45972
1083.249, 50.01514
1084.350, 26.61597
1085.451, 8.250854
1086.551, 1.088867
1087.652, 28.59253
1088.752, 12.31177
1089.853, 50.93896
1090.953, 41.81519
1092.053, 0.6163330
1093.152, 8.555420
1094.252, 80.70447
1095.351, 4.848999
1096.451, 51.96655
1097.550, 83.07593
1098.649, 34.17761
1099.748, 127.2627
1100.846, 91.33936
1101.945, 132.4066
1103.043, 126.4640
1104.141, 183.5107
1105.239, 171.5464
1106.337, 205.5704
1107.434, 181.5828
1108.532, 194.5824
1109.629, 184.5686
1110.726, 218.5410
1111.823, 201.4987
1112.920, 286.4414
1114.017, 231.3684
1115.113, 272.2793
1116.210, 343.1736
1117.306, 381.0508
1118.402, 389.9103
1119.498, 441.7517
1120.593, 521.5746
1121.689, 475.3784
1122.784, 473.1628
1123.879, 582.9272
1124.974, 491.6715
1126.069, 583.3954
1127.164, 523.0981
1128.259, 473.7799
1129.353, 460.5848
1130.447, 396.2336
1131.541, 373.2596
1132.635, 337.5770
1133.729, 334.2588
1134.822, 284.0276
1135.916, 312.5551
1137.009, 324.3362
1138.102, 302.8177
1139.195, 358.5170
1140.288, 362.3267
1141.380, 405.8920
1142.473, 324.6514
1143.565, 342.1017
1144.657, 263.0161
1145.749, 317.6033
1146.841, 293.9265
1147.932, 323.4557
1149.024, 315.8552
1150.115, 301.4435
1151.206, 256.6313
1152.297, 260.1204
1153.388, 281.3771
1154.479, 309.6537
1155.569, 304.9642
1156.659, 300.3995
1157.750, 263.7728
1158.839, 258.9329
1159.929, 271.4114
1161.019, 252.4811
1162.108, 273.6021
1163.198, 271.6436
1164.287, 209.9391
1165.376, 238.8348
1166.465, 270.9089
1167.553, 227.2559
1168.642, 238.1206
1169.730, 226.7345
1170.818, 242.3372
1171.906, 258.5245
1172.994, 258.8566
1174.082, 261.7410
1175.170, 253.0803
1176.257, 253.5858
1177.344, 240.7164
1178.431, 239.3469
1179.518, 259.5740
1180.605, 204.2258
1181.691, 239.1102
1182.778, 206.3982
1183.864, 199.0022
1184.950, 216.6523
1186.036, 263.6212
1187.122, 277.0431
1188.207, 257.0973
1189.292, 267.9584
1190.378, 272.2078
1191.463, 266.5536
1192.548, 271.9784
1193.632, 284.1722
1194.717, 210.0044
1195.801, 269.8298
1196.886, 241.6195
1197.970, 290.0779
1199.054, 273.7412
1200.137, 230.9630
1201.221, 260.3571
1202.305, 302.4034
1203.388, 218.0569
1204.471, 257.1078
1205.554, 233.4984
1206.637, 269.1799
1207.719, 279.0579
1208.802, 273.7322
1209.884, 313.6123
1210.966, 273.5077
1212.048, 283.4626
1213.130, 288.1543
1214.212, 269.4113
1215.293, 274.8746
1216.374, 250.6000
1217.456, 267.6893
1218.536, 230.8245
1219.617, 221.8865
1220.698, 253.4761
1221.778, 286.5703
1222.859, 235.0291
1223.939, 231.0276
1225.019, 221.8944
1226.099, 268.4258
1227.178, 206.9016
1228.258, 248.3435
1229.337, 182.1272
1230.417, 273.6122
1231.496, 299.0173
1232.574, 242.3834
1233.653, 312.7305
1234.732, 237.0587
1235.810, 205.3960
1236.888, 222.8042
1237.966, 220.1636
1239.044, 215.4165
1240.122, 260.7034
1241.199, 226.9187
1242.277, 254.1155
1243.354, 163.2938
1244.431, 195.4535
1245.508, 182.5947
1246.585, 153.7175
1247.661, 139.8219
1248.738, 130.1211
1249.814, 116.0338
1250.890, 111.0255
1251.966, 106.0571
1253.042, 86.07068
1254.117, 91.06641
1255.193, 99.04419
1256.268, 111.0042
1257.343, 96.94653
1258.418, 49.87134
1259.493, 81.77722
1260.567, 61.66565
1261.642, 74.53589
1262.716, 57.38855
1263.790, 38.22314
1264.864, 85.03882
1265.938, 30.83765
1267.011, 108.6168
1268.085, 34.37952
1269.158, 23.12341
1270.231, 44.84717
1271.304, 22.55322
