##NAMES=Andradite
##RRUFFID=R050377
##IDEAL CHEMISTRY=Ca_3_Fe^3+^_2_(SiO_4_)_3_
##LOCALITY=Zlatoust District, South Urals, Russia
##OWNER=RRUFF
##SOURCE=University of Arizona Mineral Museum
##DESCRIPTION=Dark red cubes
##STATUS=The identification of this mineral has been confirmed by X-ray diffraction and chemical analysis
##URL=rruff.info/R050377
##MEASURED CHEMISTRY=Ca_3.00_(Fe^3+^_1.48_Ti_0.31_Mg_0.14_Zr_0.07_)_Σ=2_(Si_2.73_Al_0.24_Ti_0.03_)_Σ=3_O_12_
##PIN_ID=M00110
##ORIENTATION=Laser parallel to a* (1 0 0). Fiducial mark perpendicular to laser is parallel to c [0 0 1]
99.64900, 0.0000000E+00
100.8830, 128.9565
102.1160, 129.2949
103.3490, 11.38965
104.5820, 90.16309
105.8150, 280.0884
107.0470, 430.5435
108.2800, 687.8613
109.5120, 1032.878
110.7440, 435.6465
111.9760, 17.96143
113.2080, 13.49463
114.4400, 50.55713
115.6710, 229.8516
116.9030, 146.0684
118.1340, 174.9473
119.3650, 42.73730
120.5960, 27.80273
121.8270, 161.3750
123.0580, 248.8154
124.2880, 229.9775
125.5190, 249.7393
126.7490, 270.9922
127.9790, 405.6396
129.2090, 565.6094
130.4390, 501.8359
131.6680, 633.2578
132.8980, 558.8193
134.1270, 635.4678
135.3560, 736.1562
136.5850, 833.8359
137.8140, 1014.436
139.0430, 1049.875
140.2710, 1192.089
141.5000, 1193.027
142.7280, 857.6543
143.9560, 1084.934
145.1840, 780.8359
146.4120, 875.3457
147.6390, 679.4434
148.8670, 656.1084
150.0940, 553.3262
151.3210, 681.0762
152.5490, 650.3447
153.7750, 511.1172
155.0020, 633.4004
156.2290, 490.2129
157.4550, 480.5674
158.6810, 701.4541
159.9080, 682.8525
161.1340, 880.7500
162.3590, 1054.129
163.5850, 1655.978
164.8110, 1989.281
166.0360, 2407.028
167.2610, 2626.207
168.4860, 2902.809
169.7110, 2725.822
170.9360, 2475.238
172.1610, 2046.048
173.3850, 1580.147
174.6100, 1340.253
175.8340, 1018.345
177.0580, 941.4961
178.2820, 801.7354
179.5050, 594.0811
180.7290, 601.5527
181.9520, 705.1680
183.1760, 441.9336
184.3990, 529.9365
185.6220, 629.1123
186.8450, 621.4688
188.0670, 693.6338
189.2900, 688.7598
190.5120, 765.7500
191.7340, 848.0283
192.9560, 901.5420
194.1780, 901.2539
195.4000, 868.2812
196.6220, 865.5068
197.8430, 857.9414
199.0640, 848.5840
200.2860, 1090.438
201.5070, 1105.503
202.7270, 1033.779
203.9480, 791.2686
205.1690, 591.9697
206.3890, 301.8848
207.6090, 250.0732
208.8290, 334.7832
210.0490, 283.9648
211.2690, 369.8398
212.4890, 615.3701
213.7080, 602.3145
214.9280, 720.5176
216.1470, 844.8857
217.3660, 960.4229
218.5850, 1103.127
219.8030, 1322.999
221.0220, 1350.039
222.2400, 1597.248
223.4590, 1690.622
224.6770, 1826.164
225.8950, 2010.873
227.1120, 2142.749
228.3300, 2494.790
229.5480, 2648.996
230.7650, 2625.367
231.9820, 2510.902
233.1990, 2497.599
234.4160, 2553.459
235.6330, 2213.479
236.8490, 2175.658
238.0660, 1899.999
239.2820, 1806.495
240.4980, 1822.149
241.7140, 1595.959
242.9300, 1655.925
244.1460, 1694.044
245.3610, 1663.316
246.5770, 1586.517
247.7920, 1748.701
249.0070, 1650.786
250.2220, 1885.265
251.4370, 2017.479
252.6510, 2148.164
253.8660, 2245.312
255.0800, 2441.892
256.2940, 2499.846
257.5080, 2880.184
258.7220, 3189.677
259.9360, 3448.722
261.1490, 3500.093
262.3630, 3269.779
263.5760, 3047.765
264.7890, 3215.040
266.0020, 3026.184
267.2150, 3023.364
268.4270, 2817.449
269.6400, 2752.785
270.8520, 2561.367
272.0640, 2377.188
273.2760, 2379.242
274.4880, 2193.523
275.7000, 2327.026
276.9120, 2246.751
278.1230, 2195.319
279.3340, 2307.606
280.5450, 2409.962
281.7560, 2480.365
282.9670, 2730.046
284.1780, 2701.327
285.3880, 3113.511
286.5980, 3374.697
287.8090, 3452.254
289.0190, 3596.991
290.2290, 3951.781
291.4380, 4187.871
292.6480, 4347.139
293.8570, 4611.576
295.0670, 4654.183
296.2760, 5038.956
297.4850, 4915.895
298.6930, 5219.996
299.9020, 5182.258
301.1110, 5394.678
302.3190, 5704.254
303.5270, 5923.983
304.7350, 6180.866
305.9430, 6266.550
307.1510, 6446.080
308.3580, 6304.407
309.5660, 6220.880
310.7730, 6084.492
311.9800, 6121.246
313.1870, 6012.196
314.3940, 6011.062
315.6010, 5869.118
316.8070, 5906.445
318.0130, 5768.496
319.2200, 5864.995
320.4260, 5839.679
321.6310, 5887.387
322.8370, 6093.262
324.0430, 6113.929
325.2480, 6434.061
326.4540, 6613.206
327.6590, 6829.285
328.8640, 7483.855
330.0680, 8107.549
331.2730, 8443.366
332.4780, 9531.301
333.6820, 10411.36
334.8860, 11518.54
336.0900, 12784.84
337.2940, 14179.25
338.4980, 16109.79
339.7010, 17836.44
340.9050, 19684.20
342.1080, 21764.08
343.3110, 23728.08
344.5140, 24723.19
345.7170, 26006.41
346.9200, 26216.74
348.1220, 26629.19
349.3240, 26774.74
350.5270, 27022.40
351.7290, 27201.18
352.9310, 28430.05
354.1320, 29713.04
355.3340, 31796.13
356.5350, 33564.32
357.7370, 36120.60
358.9380, 38455.98
360.1390, 40077.46
361.3400, 41716.03
362.5400, 42086.70
363.7410, 41499.47
364.9410, 40009.31
366.1410, 38313.26
367.3410, 35319.30
368.5410, 32331.42
369.7410, 29273.63
370.9400, 26166.94
372.1400, 23174.34
373.3390, 20391.82
374.5380, 17843.39
375.7370, 15622.05
376.9360, 13638.79
378.1350, 11840.62
379.3330, 10389.54
380.5310, 9123.542
381.7300, 8036.627
382.9280, 6955.797
384.1260, 5979.698
385.3230, 5229.384
386.5210, 4371.803
387.7180, 3740.302
388.9160, 3370.881
390.1130, 2829.541
391.3100, 2468.329
392.5060, 2152.243
393.7030, 1828.287
394.9000, 1504.463
396.0960, 1248.763
397.2920, 983.1826
398.4880, 986.7217
399.6840, 816.3760
400.8800, 600.1582
402.0750, 373.0645
403.2710, 377.0879
404.4660, 161.2725
405.6610, 322.6270
406.8560, 107.1318
408.0510, 152.8115
409.2450, 165.6963
410.4400, 143.2100
411.6340, 76.05762
412.8280, 58.54980
414.0220, 42.27246
415.2160, 47.21582
416.4100, 87.38867
417.6030, 209.7998
418.7970, 152.4326
419.9900, 102.3125
421.1830, 19.85547
422.3760, 36.62402
423.5690, 62.69238
424.7610, 112.8154
425.9540, 25.99121
427.1460, 38.87598
428.3380, 64.29688
429.5300, 52.37207
430.7220, 19.08301
431.9140, 135.6572
433.1050, 104.6270
434.2970, 90.13770
435.4880, 172.9824
436.6790, 163.9082
437.8700, 102.9131
439.0610, 86.99609
440.2510, 272.1572
441.4420, 656.3965
442.6320, 489.7109
443.8220, 753.1016
445.0120, 829.5674
446.2020, 889.1055
447.3910, 900.7178
448.5810, 727.4014
449.7700, 692.1572
450.9600, 452.9824
452.1490, 334.8779
453.3370, 125.8418
454.5260, 41.87500
455.7150, 3.026367
456.9030, 140.8750
458.0910, 327.7236
459.2800, 268.6475
460.4670, 152.6240
461.6550, 342.6084
462.8430, 514.6807
464.0300, 357.9180
465.2180, 454.2520
466.4050, 368.7266
467.5920, 194.3037
468.7790, 34.91309
469.9650, 98.49414
471.1520, 82.92871
472.3380, 112.4082
473.5250, 343.9463
474.7110, 524.5410
475.8970, 620.1904
477.0820, 686.8965
478.2680, 1037.656
479.4540, 953.4707
480.6390, 1187.338
481.8240, 1486.258
483.0090, 1727.231
484.1940, 1918.255
485.3780, 2241.330
486.5630, 2336.455
487.7470, 2630.631
488.9320, 2783.855
490.1160, 2760.129
491.3000, 2951.449
492.4830, 2674.818
493.6670, 2682.232
494.8500, 2472.694
496.0340, 2504.203
497.2170, 2744.756
498.4000, 2857.355
499.5820, 3082.997
500.7650, 3672.683
501.9480, 4294.412
503.1300, 5211.183
504.3120, 6326.996
505.4940, 7863.852
506.6760, 9839.750
507.8580, 11976.69
509.0390, 14658.66
510.2210, 17148.68
511.4020, 19443.74
512.5830, 20855.83
513.7640, 21548.97
514.9450, 20965.14
516.1250, 19584.35
517.3060, 17793.60
518.4860, 15602.88
519.6660, 13523.20
520.8460, 11571.56
522.0260, 9892.951
523.2060, 8426.375
524.3850, 7423.838
525.5650, 6240.334
526.7440, 5487.861
527.9230, 4586.424
529.1020, 4225.020
530.2810, 3710.645
531.4590, 3299.304
532.6380, 2997.994
533.8160, 2726.717
534.9940, 2386.469
536.1720, 2173.252
537.3500, 1997.062
538.5270, 1993.901
539.7050, 1738.770
540.8820, 1709.664
542.0590, 1605.499
543.2360, 1577.331
544.4130, 1606.156
545.5900, 1564.448
546.7660, 1633.621
547.9430, 1735.889
549.1190, 1542.967
550.2950, 1529.375
551.4710, 1627.579
552.6470, 1336.604
553.8220, 1107.297
554.9980, 935.3223
556.1730, 743.4482
557.3480, 532.4102
558.5230, 418.0820
559.6980, 339.2637
560.8730, 287.4082
562.0470, 172.5117
563.2220, 129.2988
564.3960, 235.7861
565.5700, 284.4697
566.7440, 393.7754
567.9170, 380.2627
569.0910, 474.5820
570.2640, 515.9004
571.4380, 835.9072
572.6110, 928.1777
573.7840, 996.3311
574.9570, 1257.604
576.1290, 1230.499
577.3020, 1309.376
578.4740, 1397.234
579.6460, 1412.070
580.8180, 1393.417
581.9900, 1268.681
583.1620, 1327.456
584.3330, 1324.209
585.5040, 1394.939
586.6760, 1208.648
587.8470, 1089.334
589.0180, 1272.997
590.1880, 1159.638
591.3590, 1218.255
592.5290, 1113.849
593.7000, 1157.419
594.8700, 1104.965
596.0400, 1045.485
597.2090, 1218.927
598.3790, 1115.563
599.5490, 1162.119
600.7180, 1079.515
601.8870, 1091.296
603.0560, 1023.734
604.2250, 1042.093
605.3940, 954.5371
606.5620, 988.9229
607.7300, 824.6230
608.8990, 921.9658
610.0670, 948.4043
611.2350, 790.0146
612.4020, 924.6211
613.5700, 912.4492
614.7370, 1004.641
615.9050, 1065.813
617.0720, 1043.969
618.2390, 1350.106
619.4060, 1256.227
620.5720, 1697.327
621.7390, 1769.410
622.9050, 2015.477
624.0710, 2177.525
625.2370, 2240.555
626.4030, 2514.566
627.5690, 2542.562
628.7340, 2653.540
629.9000, 2734.499
631.0650, 3102.442
632.2300, 2981.368
633.3950, 3253.277
634.5600, 3253.170
635.7240, 3424.046
636.8890, 3423.906
638.0530, 3458.752
639.2170, 3591.580
640.3810, 3478.394
641.5450, 3581.189
642.7080, 3517.971
643.8720, 3612.737
645.0350, 3494.487
646.1980, 3545.225
647.3610, 3732.945
648.5240, 3652.651
649.6870, 3627.344
650.8490, 3676.021
652.0120, 3516.684
653.1740, 3614.333
654.3360, 3561.969
655.4980, 3625.591
656.6600, 3478.198
657.8210, 3609.793
658.9830, 3421.373
660.1440, 3402.941
661.3050, 3208.495
662.4660, 3047.037
663.6270, 2817.564
664.7870, 2703.079
665.9480, 2468.581
667.1080, 2178.070
668.2680, 2139.547
669.4280, 1727.011
670.5880, 1534.462
671.7480, 1405.900
672.9070, 1286.325
674.0670, 1087.738
675.2260, 826.1387
676.3850, 690.5264
677.5440, 421.9023
678.7030, 418.2666
679.8610, 412.6182
681.0200, 152.9570
682.1780, 153.2617
683.3360, 211.5332
684.4940, 51.21973
685.6520, 101.0840
686.8090, 18.08398
687.9670, 135.1807
689.1240, 240.4287
690.2810, 269.8838
691.4380, 305.5615
692.5950, 343.4551
693.7520, 365.8691
694.9080, 337.0332
696.0650, 383.7090
697.2210, 412.6631
698.3770, 358.9082
699.5330, 344.4141
700.6880, 361.8848
701.8440, 338.4492
702.9990, 378.0107
704.1550, 350.3643
705.3100, 313.1533
706.4650, 336.1162
707.6190, 231.4082
708.7740, 180.7744
709.9290, 124.2910
711.0830, 49.91895
712.2370, 136.6260
713.3910, 182.5420
714.5450, 246.7207
715.6980, 536.8936
716.8520, 689.0635
718.0050, 746.2305
719.1580, 816.3945
720.3110, 1037.555
721.4640, 1258.823
722.6170, 1591.870
723.7700, 1848.025
724.9220, 2152.181
726.0740, 2421.336
727.2260, 2735.490
728.3780, 3091.856
729.5300, 3460.802
730.6810, 3828.959
731.8330, 4141.119
732.9840, 4488.160
734.1350, 4788.443
735.2860, 4973.611
736.4370, 5151.789
737.5880, 5270.005
738.7380, 5552.295
739.8880, 5641.651
741.0390, 5604.047
742.1890, 5622.521
743.3380, 5539.118
744.4880, 5424.801
745.6380, 5408.592
746.7870, 5353.141
747.9360, 5335.516
749.0850, 5316.364
750.2340, 5327.359
751.3830, 5327.361
752.5310, 5304.373
753.6800, 5243.396
754.8280, 5272.431
755.9760, 5058.508
757.1240, 4864.611
758.2720, 4828.777
759.4190, 4684.961
760.5670, 4557.186
761.7140, 4391.479
762.8610, 4334.840
764.0080, 4291.217
765.1550, 4118.652
766.3020, 4050.146
767.4480, 3896.738
768.5950, 4090.412
769.7410, 4116.168
770.8870, 3924.018
772.0330, 3919.968
773.1780, 3909.984
774.3240, 4151.061
775.4690, 4025.218
776.6140, 4296.394
777.7590, 4280.613
778.9040, 4450.928
780.0490, 4577.329
781.1940, 4553.769
782.3380, 4579.295
783.4820, 4851.881
784.6260, 4912.521
785.7700, 4973.227
786.9140, 4980.957
788.0580, 5141.776
789.2010, 5210.756
790.3450, 5464.613
791.4880, 5453.645
792.6310, 5727.740
793.7730, 5886.861
794.9160, 6209.029
796.0590, 6417.854
797.2010, 6765.506
798.3430, 6957.805
799.4850, 7108.145
800.6270, 7511.545
801.7690, 7721.984
802.9100, 8070.449
804.0520, 8447.955
805.1930, 8862.493
806.3340, 9255.064
807.4750, 9548.171
808.6160, 9793.288
809.7560, 10036.94
810.8970, 10155.62
812.0370, 10225.32
813.1770, 10067.06
814.3170, 10076.82
815.4570, 9828.607
816.5960, 9635.421
817.7360, 9448.255
818.8750, 9099.206
820.0140, 8971.091
821.1530, 8702.276
822.2920, 8591.922
823.4310, 8421.741
824.5690, 8307.995
825.7070, 8281.528
826.8460, 8159.262
827.9840, 8142.248
829.1220, 8132.104
830.2590, 8273.699
831.3970, 8383.012
832.5340, 8561.270
833.6710, 8581.740
834.8080, 8704.550
835.9450, 8802.898
837.0820, 9018.325
838.2190, 8967.843
839.3550, 9044.086
840.4910, 8890.174
841.6270, 9029.239
842.7630, 9159.886
843.8990, 9112.313
845.0350, 9152.551
846.1700, 9482.115
847.3060, 9432.228
848.4410, 9597.932
849.5760, 9648.798
850.7100, 9879.718
851.8450, 9990.928
852.9800, 10241.90
854.1140, 10553.54
855.2480, 10825.95
856.3820, 11119.41
857.5160, 11528.94
858.6500, 11750.53
859.7830, 12121.19
860.9170, 12493.33
862.0500, 12923.70
863.1830, 13265.55
864.3160, 13586.46
865.4480, 13977.44
866.5810, 14774.48
867.7130, 14958.58
868.8460, 15202.76
869.9780, 15323.99
871.1100, 15570.29
872.2410, 15631.66
873.3730, 15808.09
874.5050, 15394.60
875.6360, 15041.16
876.7670, 14199.78
877.8980, 13868.47
879.0290, 12904.23
880.1590, 12277.04
881.2900, 11291.92
882.4200, 10659.86
883.5500, 9517.862
884.6800, 8750.927
885.8100, 8078.053
886.9400, 7222.238
888.0690, 6753.485
889.1990, 6057.982
890.3280, 5303.158
891.4570, 4977.928
892.5860, 4680.045
893.7140, 4385.243
894.8430, 4196.776
895.9710, 3884.057
897.1000, 3599.357
898.2280, 3724.901
899.3560, 3547.659
900.4830, 3356.074
901.6110, 3336.857
902.7380, 3380.566
903.8660, 3364.279
904.9930, 3485.946
906.1200, 3546.160
907.2460, 3366.036
908.3730, 3423.856
909.5000, 3503.781
910.6260, 3531.213
911.7520, 3557.700
912.8780, 3353.506
914.0040, 3589.731
915.1290, 3469.766
916.2550, 3489.321
917.3800, 3592.868
918.5050, 3563.904
919.6300, 3654.393
920.7550, 3687.599
921.8800, 3872.438
923.0040, 3813.900
924.1290, 3759.492
925.2530, 3684.201
926.3770, 3877.009
927.5010, 3772.293
928.6250, 3788.047
929.7480, 3788.713
930.8720, 3626.701
931.9950, 3616.392
933.1180, 3439.373
934.2410, 3481.221
935.3640, 3229.532
936.4860, 3178.574
937.6090, 3004.260
938.7310, 2947.805
939.8530, 3047.371
940.9750, 2936.835
942.0970, 2876.791
943.2180, 2767.439
944.3400, 2776.246
945.4610, 2755.872
946.5820, 2833.028
947.7030, 2831.092
948.8240, 2967.284
949.9450, 3099.691
951.0650, 3022.185
952.1860, 3097.634
953.3060, 3139.105
954.4260, 3213.722
955.5460, 3242.268
956.6650, 3267.837
957.7850, 3435.479
958.9040, 3355.199
960.0230, 3537.084
961.1420, 3435.954
962.2610, 3330.938
963.3800, 3638.047
964.4990, 3659.290
965.6170, 3552.674
966.7350, 3764.208
967.8530, 3556.881
968.9710, 3838.700
970.0890, 3779.681
971.2070, 3637.805
972.3240, 3482.063
973.4410, 3509.464
974.5580, 3497.130
975.6750, 3549.802
976.7920, 3698.867
977.9090, 3645.164
979.0250, 3544.963
980.1410, 3627.275
981.2580, 3445.666
982.3740, 3426.033
983.4890, 3208.446
984.6050, 3335.930
985.7200, 3408.424
986.8360, 3099.924
987.9510, 3314.431
989.0660, 3055.072
990.1810, 2977.599
991.2950, 2679.129
992.4100, 2617.684
993.5240, 2439.243
994.6390, 2111.150
995.7530, 1989.729
996.8660, 1630.311
997.9800, 1440.892
999.0940, 1412.475
1000.207, 1297.068
1001.320, 1206.327
1002.433, 1201.006
1003.546, 1325.602
1004.659, 1534.412
1005.772, 1574.568
1006.884, 1851.271
1007.996, 1842.404
1009.108, 1907.040
1010.220, 1866.891
1011.332, 1823.597
1012.444, 1828.228
1013.555, 1458.105
1014.666, 1362.935
1015.777, 1030.789
1016.888, 1029.154
1017.999, 637.9951
1019.110, 579.0820
1020.220, 402.0254
1021.331, 199.7617
1022.441, 57.29004
1023.551, 22.80469
1024.661, 131.7002
1025.770, 68.13184
1026.880, 193.7676
1027.989, 21.52246
1029.098, 107.0928
1030.207, 198.9561
1031.316, 198.7100
1032.425, 11.78125
1033.533, 140.9365
1034.642, 158.7754
1035.750, 297.1484
1036.858, 229.7129
1037.966, 225.3027
1039.073, 278.1768
1040.181, 285.2354
1041.288, 153.4873
1042.396, 135.8623
1043.503, 204.3555
1044.610, 123.1699
1045.716, 60.50879
1046.823, 239.2725
1047.929, 217.2158
1049.036, 31.30957
1050.142, 203.4766
1051.248, 96.80078
1052.353, 85.23633
1053.459, 109.7783
1054.564, 35.68750
1055.670, 204.0205
1056.775, 75.90234
1057.880, 154.8193
1058.985, 137.9609
1060.089, 95.24805
1061.194, 84.59766
1062.298, 16.85547
1063.402, 67.39160
1064.506, 105.9600
1065.610, 13.72754
1066.713, 5.497070
1067.817, 63.35645
1068.920, 23.67480
1070.023, 149.6357
1071.126, 19.54980
1072.229, 74.39062
1073.332, 46.69727
1074.435, 143.4199
1075.537, 195.0947
1076.639, 174.1055
1077.741, 127.7109
1078.843, 250.2676
1079.945, 161.8633
1081.046, 152.3252
1082.148, 371.7480
1083.249, 297.1162
1084.350, 404.4395
1085.451, 430.0977
1086.551, 300.6416
1087.652, 490.3203
1088.752, 457.4619
1089.853, 507.7158
1090.953, 404.8408
1092.053, 318.8418
1093.152, 459.0449
1094.252, 444.1855
1095.351, 475.3701
1096.451, 395.1035
1097.550, 498.9609
1098.649, 529.9082
1099.748, 543.8906
1100.846, 527.6270
1101.945, 667.1885
1103.043, 450.6582
1104.141, 505.3301
1105.239, 605.4141
1106.337, 357.9580
1107.434, 578.3389
1108.532, 334.1475
1109.629, 383.1709
1110.726, 397.2256
1111.823, 379.4990
1112.920, 392.0801
1114.017, 453.3018
1115.113, 521.6621
1116.210, 462.9785
1117.306, 703.4307
1118.402, 542.4307
1119.498, 591.4385
1120.593, 413.6357
1121.689, 466.7324
1122.784, 474.4814
1123.879, 607.9102
1124.974, 606.8906
1126.069, 377.8340
1127.164, 513.8193
1128.259, 507.6650
1129.353, 591.0801
1130.447, 538.7266
1131.541, 491.4561
1132.635, 323.3906
1133.729, 463.0107
1134.822, 489.1836
1135.916, 261.8301
1137.009, 352.4600
1138.102, 470.6104
1139.195, 384.9111
1140.288, 556.7207
1141.380, 465.0449
1142.473, 499.6982
1143.565, 561.8086
1144.657, 458.4297
1145.749, 469.5566
1146.841, 462.4541
1147.932, 348.7158
1149.024, 463.7402
1150.115, 403.9326
1151.206, 436.9004
1152.297, 484.6738
1153.388, 586.3809
1154.479, 652.1240
1155.569, 639.9736
1156.659, 494.3682
1157.750, 566.9180
1158.839, 546.2422
1159.929, 470.6182
1161.019, 612.9590
1162.108, 452.5000
1163.198, 487.4521
1164.287, 603.1689
1165.376, 392.3174
1166.465, 569.3213
1167.553, 475.2480
1168.642, 426.4150
1169.730, 495.4697
1170.818, 613.8428
1171.906, 439.5391
1172.994, 510.0645
1174.082, 430.3623
1175.170, 342.1699
1176.257, 417.7773
1177.344, 469.2627
1178.431, 436.2363
1179.518, 449.6846
1180.605, 481.8408
1181.691, 393.3330
1182.778, 474.2637
1183.864, 425.9883
1184.950, 289.7021
1186.036, 430.1572
1187.122, 366.5645
1188.207, 282.8213
1189.292, 419.9395
1190.378, 332.9307
1191.463, 210.4238
1192.548, 536.7188
1193.632, 397.7773
1194.717, 382.8350
1195.801, 502.3926
1196.886, 448.2910
1197.970, 486.0674
1199.054, 309.3564
1200.137, 255.8887
1201.221, 316.7500
1202.305, 394.7266
1203.388, 116.6533
1204.471, 338.1572
1205.554, 402.6367
1206.637, 148.4434
1207.719, 427.4062
1208.802, 408.7705
1209.884, 222.5566
1210.966, 327.9463
1212.048, 239.1279
1213.130, 256.0508
1214.212, 348.7637
1215.293, 149.4922
1216.374, 9.165039
1217.456, 121.6641
1218.536, 298.2129
1219.617, 199.9414
1220.698, 219.3887
1221.778, 289.7852
1222.859, 176.0273
1223.939, 178.3232
1225.019, 155.5693
1226.099, 47.76270
1227.178, 207.9004
1228.258, 26.98926
1229.337, 151.0156
1230.417, 195.9912
1231.496, 32.91895
1232.574, 35.78809
1233.653, 168.6016
1234.732, 66.36426
1235.810, 169.0762
1236.888, 192.6045
1237.966, 75.21777
1239.044, 40.51953
1240.122, 10.04199
1241.199, 30.92871
1242.277, 37.42090
1243.354, 33.26465
1244.431, 82.91602
1245.508, 76.04590
1246.585, 46.12598
1247.661, 117.1562
1248.738, 98.14062
1249.814, 5.075195
1250.890, 50.82910
1251.966, 106.6543
1253.042, 51.56543
1254.117, 36.12598
1255.193, 30.76953
1256.268, 17.98047
1257.343, 22.30469
1258.418, 77.02148
1259.493, 26.45410
1260.567, 21.16211
1261.642, 10.37598
1262.716, 235.7529
1263.790, 41.88770
1264.864, 147.0586
1265.938, 128.9707
1267.011, 55.50977
1268.085, 123.6006
1269.158, 22.20801
1270.231, 48.37695
1271.304, 28.17676
1272.377, 133.8262
1273.450, 10.50488
1274.522, 89.88574
1275.594, 38.26758
1276.666, 102.5732
