##NAMES=Andradite
##RRUFFID=R060358
##IDEAL CHEMISTRY=Ca_3_Fe^3+^_2_(SiO_4_)_3_
##LOCALITY=Soghan, near Jiroft, Kerman, Iran
##OWNER=RRUFF
##SOURCE=Herb Obodda
##DESCRIPTION=Green dodecahedron
##STATUS=The identification of this mineral has been confirmed by X-ray diffraction and chemical analysis
##URL=rruff.info/R060358
##MEASURED CHEMISTRY=Ca_3.00_(Fe^3+^_1.89_Cr_0.11_)_Î£=2_(Si_1.00_O_4_)_3_
##PIN_ID=L01104
##ORIENTATION=Laser parallel to -b* (0 -1 0). Fiducial mark perpendicular to laser is parallel to c [0 0 1]
51.43100, 0.0000000E+00
52.67100, 9.979828
53.91000, 9.216278
55.14900, 5.432709
56.38700, 20.05829
57.62600, 12.40335
58.86400, 32.42419
60.10300, 32.16824
61.34100, 20.47083
62.57900, 15.01590
63.81700, 2.788666
65.05400, 2.231567
66.29200, 7.061340
67.52900, 0.2830510
68.76700, 44.78400
70.00400, 56.42352
71.24100, 90.18872
72.47700, 69.10486
73.71400, 54.16107
74.95100, 67.33206
76.18700, 78.59814
77.42300, 77.95956
78.65900, 59.42319
79.89500, 64.97192
81.13100, 78.60294
82.36700, 133.3103
83.60200, 171.0811
84.83700, 159.9050
86.07200, 105.7736
87.30800, 125.6803
88.54200, 123.6200
89.77700, 135.5886
91.01200, 146.6202
92.24600, 148.9670
93.48000, 163.6292
94.71400, 152.1058
95.94800, 148.5626
97.18200, 133.0022
98.41600, 135.4265
99.64900, 121.8059
100.8830, 125.2381
102.1160, 112.7542
103.3490, 122.5132
104.5820, 146.2748
105.8150, 181.0049
107.0470, 232.7068
108.2800, 277.4026
109.5120, 356.2013
110.7440, 242.0555
111.9760, 151.8801
113.2080, 148.6761
114.4400, 154.4465
115.6710, 147.1936
116.9030, 123.9198
118.1340, 130.6271
119.3650, 130.3176
120.5960, 86.99316
121.8270, 99.65576
123.0580, 134.3069
124.2880, 121.9484
125.5190, 96.58200
126.7490, 102.2101
127.9790, 78.83221
129.2090, 101.4478
130.4390, 100.0319
131.6680, 98.38895
132.8980, 95.29294
134.1270, 91.85922
135.3560, 97.40125
136.5850, 88.76080
137.8140, 86.12610
139.0430, 88.49768
140.2710, 83.85669
141.5000, 75.26123
142.7280, 78.65381
143.9560, 74.05408
145.1840, 64.46228
146.4120, 74.87854
147.6390, 61.30304
148.8670, 34.73584
150.0940, 52.17712
151.3210, 84.91382
152.5490, 104.5186
153.7750, 83.37213
155.0020, 80.57019
156.2290, 85.85822
157.4550, 80.15845
158.6810, 78.47076
159.9080, 76.79517
161.1340, 103.1317
162.3590, 127.4803
163.5850, 133.8411
164.8110, 175.6951
166.0360, 237.1380
167.2610, 320.7691
168.4860, 423.0851
169.7110, 610.4621
170.9360, 884.7877
172.1610, 1457.126
173.3850, 2299.476
174.6100, 3234.840
175.8340, 3555.215
177.0580, 2770.603
178.2820, 1602.001
179.5050, 856.4122
180.7290, 502.8346
181.9520, 346.2689
183.1760, 240.7150
184.3990, 167.1724
185.6220, 179.6414
186.8450, 186.1219
188.0670, 128.6149
189.2900, 157.1259
190.5120, 136.6508
191.7340, 158.1879
192.9560, 158.7374
194.1780, 152.2994
195.4000, 159.8740
196.6220, 154.9044
197.8430, 154.6340
199.0640, 156.7618
200.2860, 151.4572
201.5070, 164.1420
202.7270, 161.8079
203.9480, 129.4700
205.1690, 38.12537
206.3890, 13.72302
207.6090, 45.66180
208.8290, 13.03839
210.0490, 29.40009
211.2690, 9.851196
212.4890, 16.48309
213.7080, 10.34985
214.9280, 5.297668
216.1470, 6.997864
217.3660, 7.712280
218.5850, 4.440613
219.8030, 16.04236
221.0220, 35.93542
222.2400, 39.70154
223.4590, 76.47968
224.6770, 93.26929
225.8950, 185.0701
227.1120, 296.8817
228.3300, 420.7036
229.5480, 503.5358
230.7650, 773.3781
231.9820, 1086.230
233.1990, 1376.091
234.4160, 1891.962
235.6330, 2818.843
236.8490, 3941.733
238.0660, 4015.631
239.2820, 3169.538
240.4980, 1858.451
241.7140, 976.3715
242.9300, 545.2994
244.1460, 292.2350
245.3610, 206.1785
246.5770, 84.12964
247.7920, 65.08881
249.0070, 13.05554
250.2220, 14.97119
251.4370, 55.99542
252.6510, 35.02606
253.8660, 54.05817
255.0800, 16.09601
256.2940, 38.13141
257.5080, 20.83069
258.7220, 50.79938
259.9360, 128.7751
261.1490, 137.7578
262.3630, 258.7476
263.5760, 378.7450
264.7890, 682.7498
266.0020, 873.7626
267.2150, 763.7833
268.4270, 477.8118
269.6400, 265.8486
270.8520, 133.8937
272.0640, 79.94739
273.2760, 55.00946
274.4880, 18.08014
275.7000, 9.840393
276.9120, 12.78552
278.1230, 17.74615
279.3340, 31.71710
280.5450, 27.09009
281.7560, 27.02698
282.9670, 17.61505
284.1780, 16.57074
285.3880, 0.4803470
286.5980, 4.541321
287.8090, 20.61273
289.0190, 38.69464
290.2290, 55.78699
291.4380, 141.8898
292.6480, 184.0032
293.8570, 273.1272
295.0670, 355.2619
296.2760, 438.4070
297.4850, 521.5567
298.6930, 560.6858
299.9020, 591.8015
301.1110, 488.9160
302.3190, 454.0419
303.5270, 455.1794
304.7350, 471.3285
305.9430, 528.4893
307.1510, 699.6616
308.3580, 945.8456
309.5660, 1296.041
310.7730, 1773.241
311.9800, 2536.438
313.1870, 3189.633
314.3940, 3308.829
315.6010, 2936.038
316.8070, 2266.258
318.0130, 1598.490
319.2200, 1234.735
320.4260, 1063.992
321.6310, 1003.261
322.8370, 1134.601
324.0430, 1394.247
325.2480, 1747.906
326.4540, 1809.224
327.6590, 1693.553
328.8640, 1399.895
330.0680, 1141.248
331.2730, 984.6137
332.4780, 940.9914
333.6820, 970.3813
334.8860, 1005.783
336.0900, 1067.197
337.2940, 1091.623
338.4980, 1218.061
339.7010, 1401.511
340.9050, 1624.973
342.1080, 1969.447
343.3110, 2349.933
344.5140, 2899.433
345.7170, 3685.948
346.9200, 4645.480
348.1220, 6101.027
349.3240, 8097.585
350.5270, 10663.15
351.7290, 13883.74
352.9310, 16287.55
354.1320, 16987.20
355.3340, 15277.97
356.5350, 12603.80
357.7370, 10290.33
358.9380, 9084.191
360.1390, 8691.800
361.3400, 9233.464
362.5400, 10457.16
363.7410, 12575.80
364.9410, 16329.54
366.1410, 21644.30
367.3410, 29253.07
368.5410, 38647.84
369.7410, 48207.64
370.9400, 53848.45
372.1400, 53437.27
373.3390, 45970.11
374.5380, 36374.95
375.7370, 27077.82
376.9360, 20107.70
378.1350, 14977.59
379.3330, 11542.51
380.5310, 9033.444
381.7300, 7399.393
382.9280, 6298.355
384.1260, 5430.332
385.3230, 4597.323
386.5210, 3837.333
387.7180, 3100.354
388.9160, 2495.388
390.1130, 2024.438
391.3100, 1747.505
392.5060, 1522.591
393.7030, 1294.693
394.9000, 1176.934
396.0960, 1116.021
397.2920, 1015.274
398.4880, 808.5126
399.6840, 790.7847
400.8800, 636.9387
402.0750, 617.1507
403.2710, 553.3751
404.4660, 508.6122
405.6610, 433.8638
406.8560, 400.1404
408.0510, 386.4317
409.2450, 359.7427
410.4400, 349.0736
411.6340, 296.4236
412.8280, 273.5024
414.0220, 257.1781
415.2160, 204.5784
416.4100, 169.9950
417.6030, 136.4297
418.7970, 140.8817
419.9900, 91.83795
421.1830, 127.6839
422.3760, 59.32257
423.5690, 89.29089
424.7610, 66.51416
425.9540, 71.76288
427.1460, 59.49347
428.3380, 56.29254
429.5300, 35.82220
430.7220, 31.97003
431.9140, 42.02191
433.1050, 28.64087
434.2970, 27.27271
435.4880, 51.91748
436.6790, 44.57483
437.8700, 60.24481
439.0610, 71.92761
440.2510, 40.62616
441.4420, 88.33826
442.6320, 97.06335
443.8220, 94.80182
445.0120, 176.5531
446.2020, 197.3170
447.3910, 312.0940
448.5810, 366.8836
449.7700, 520.6874
450.9600, 716.5034
452.1490, 926.3323
453.3370, 942.1734
454.5260, 852.0266
455.7150, 667.8925
456.9030, 472.7717
458.0910, 301.6635
459.2800, 203.5676
460.4670, 111.4840
461.6550, 98.41309
462.8430, 64.35437
464.0300, 31.30768
465.2180, 6.726257
466.4050, 23.74890
467.5920, 23.76324
468.7790, 27.23077
469.9650, 17.80328
471.1520, 34.29535
472.3380, 47.28314
473.5250, 59.32385
474.7110, 77.37616
475.8970, 115.4399
477.0820, 122.5151
478.2680, 168.6016
479.4540, 189.6996
480.6390, 289.8087
481.8240, 302.9291
483.0090, 378.0605
484.1940, 529.2072
485.3780, 617.3998
486.5630, 762.8494
487.7470, 1063.704
488.9320, 1334.057
490.1160, 1808.736
491.3000, 2334.950
492.4830, 2798.179
493.6670, 3161.335
494.8500, 3344.584
496.0340, 3176.053
497.2170, 2747.341
498.4000, 2343.646
499.5820, 1958.963
500.7650, 1730.296
501.9480, 1616.643
503.1300, 1508.811
504.3120, 1596.177
505.4940, 1732.764
506.6760, 2137.150
507.8580, 2684.546
509.0390, 3447.951
510.2210, 4664.411
511.4020, 6399.833
512.5830, 8946.743
513.7640, 12588.19
514.9450, 16764.63
516.1250, 20463.13
517.3060, 21330.82
518.4860, 19338.01
519.6660, 15202.07
520.8460, 11245.64
522.0260, 8302.175
523.2060, 5992.274
524.3850, 4560.233
525.5650, 3578.867
526.7440, 2901.073
527.9230, 2293.724
529.1020, 1888.296
530.2810, 1649.849
531.4590, 1458.315
532.6380, 1274.642
533.8160, 1124.837
534.9940, 1056.296
536.1720, 1022.026
537.3500, 926.9772
538.5270, 873.5656
539.7050, 823.4509
540.8820, 798.1948
542.0590, 789.1639
543.2360, 770.4710
544.4130, 790.1560
545.5900, 789.8529
546.7660, 809.1262
547.9430, 818.4382
549.1190, 852.5303
550.2950, 954.8065
551.4710, 964.1900
552.6470, 1111.367
553.8220, 1131.464
554.9980, 1181.111
556.1730, 974.2738
557.3480, 875.8298
558.5230, 733.7974
559.6980, 605.6005
560.8730, 522.4354
562.0470, 445.6097
563.2220, 365.6921
564.3960, 375.2828
565.5700, 381.2258
566.7440, 370.0391
567.9170, 373.9467
569.0910, 390.7518
570.2640, 451.5637
571.4380, 482.3790
572.6110, 570.1970
573.7840, 731.0179
574.9570, 965.8475
576.1290, 1109.717
577.3020, 1205.545
578.4740, 1194.376
579.6460, 981.2676
580.8180, 835.7503
581.9900, 621.8090
583.1620, 506.7360
584.3330, 398.6942
585.5040, 337.5658
586.6760, 317.4218
587.8470, 270.3441
589.0180, 268.2152
590.1880, 207.3678
591.3590, 219.2268
592.5290, 242.1134
593.7000, 210.9674
594.8700, 228.8226
596.0400, 168.6915
597.2090, 179.7623
598.3790, 145.6453
599.5490, 143.5273
600.7180, 127.3965
601.8870, 138.3481
603.0560, 104.2092
604.2250, 109.0778
605.3940, 136.0887
606.5620, 88.89264
607.7300, 83.40173
608.8990, 88.91064
610.0670, 87.77368
611.2350, 79.63684
612.4020, 60.50000
613.5700, 50.36316
614.7370, 41.88281
615.9050, 18.08905
617.0720, 30.95160
618.2390, 15.81384
619.4060, 18.27478
620.5720, 8.537048
621.7390, 7.397827
622.9050, 5.141968
624.0710, 1.189819
625.2370, 0.2103880
626.4030, 5.353760
627.5690, 12.13843
628.7340, 20.23944
629.9000, 8.281982
631.0650, 7.545349
632.2300, 4.325806
633.3950, 14.84961
634.5600, 13.96503
635.7240, 19.22180
636.8890, 9.578979
638.0530, 2.378113
639.2170, 14.17505
640.3810, 19.97009
641.5450, 20.76331
642.7080, 11.44543
643.8720, 11.33630
645.0350, 17.88391
646.1980, 14.88293
647.3610, 6.647705
648.5240, 18.41040
649.6870, 3.170776
650.8490, 28.92810
652.0120, 4.316833
653.1740, 18.43115
654.3360, 13.17676
655.4980, 4.920044
656.6600, 16.33978
657.8210, 7.613098
658.9830, 4.895752
660.1440, 30.18640
661.3050, 12.49805
662.4660, 4.821655
663.6270, 2.153748
664.7870, 4.507080
665.9480, 5.836426
667.1080, 13.18909
668.2680, 9.445435
669.4280, 20.07648
670.5880, 9.295288
671.7480, 6.678345
672.9070, 21.07159
674.0670, 8.482300
675.2260, 12.90411
676.3850, 0.6605220
677.5440, 9.781616
678.7030, 2.764038
679.8610, 11.69635
681.0200, 1.829895
682.1780, 3.650574
683.3360, 15.85944
684.4940, 15.36566
685.6520, 1.868164
686.8090, 39.63641
687.9670, 0.8305050
689.1240, 18.71021
690.2810, 20.26862
691.4380, 16.84564
692.5950, 15.43945
693.7520, 8.049377
694.9080, 0.3284910
696.0650, 6.301819
697.2210, 12.94360
698.3770, 10.23047
699.5330, 10.72943
700.6880, 15.94562
701.8440, 2.362732
702.9990, 6.336182
704.1550, 6.953308
705.3100, 16.23712
706.4650, 9.516541
707.6190, 20.74536
708.7740, 25.06079
709.9290, 26.32678
711.0830, 25.58862
712.2370, 21.84619
713.3910, 19.09973
714.5450, 14.34888
715.6980, 32.59351
716.8520, 22.83386
718.0050, 13.07013
719.1580, 3.698425
720.3110, 4.522644
721.4640, 10.73730
722.6170, 8.946899
723.7700, 16.15106
724.9220, 18.35083
726.0740, 11.54620
727.2260, 16.73663
728.3780, 1.922607
729.5300, 19.10126
730.6810, 15.27563
731.8330, 37.44562
732.9840, 27.61133
734.1350, 17.77295
735.2860, 3.930237
736.4370, 16.08130
737.5880, 16.22791
738.7380, 18.37018
739.8880, 9.508118
741.0390, 21.64117
742.1890, 18.77014
743.3380, 5.894958
744.4880, 33.01422
745.6380, 23.12988
746.7870, 20.24316
747.9360, 42.35431
749.0850, 29.46143
750.2340, 64.56458
751.3830, 28.66376
752.5310, 62.75909
753.6800, 31.85046
754.8280, 71.93799
755.9760, 74.02155
757.1240, 46.10120
758.2720, 21.17706
759.4190, 34.24915
760.5670, 26.31732
761.7140, 3.615662
762.8610, 0.5590210
764.0080, 24.45740
765.1550, 1.776245
766.3020, 8.590698
767.4480, 2.465881
768.5950, 26.02545
769.7410, 12.94348
770.8870, 37.07538
772.0330, 21.17365
773.1780, 36.19226
774.3240, 61.01306
775.4690, 61.34863
776.6140, 70.05804
777.7590, 80.07709
778.9040, 72.09735
780.0490, 66.12378
781.1940, 87.33960
782.3380, 87.36804
783.4820, 89.18964
784.6260, 73.22461
785.7700, 110.2579
786.9140, 158.2891
788.0580, 198.2739
789.2010, 203.3015
790.3450, 209.8488
791.4880, 246.8776
792.6310, 273.9069
793.7730, 314.8989
794.9160, 383.7061
796.0590, 403.0132
797.2010, 475.4708
798.3430, 522.4163
799.4850, 602.4067
800.6270, 685.8365
801.7690, 815.4128
802.9100, 941.3203
804.0520, 1053.661
805.1930, 1141.563
806.3340, 1334.549
807.4750, 1630.561
808.6160, 1962.664
809.7560, 2423.913
810.8970, 2869.298
812.0370, 3662.427
813.1770, 4420.290
814.3170, 5408.939
815.4570, 6200.970
816.5960, 6869.719
817.7360, 7079.627
818.8750, 6897.321
820.0140, 6304.688
821.1530, 5499.685
822.2920, 4581.673
823.4310, 3979.349
824.5690, 3327.477
825.7070, 2982.085
826.8460, 2741.515
827.9840, 2531.843
829.1220, 2406.382
830.2590, 2408.006
831.3970, 2428.085
832.5340, 2591.653
833.6710, 2720.832
834.8080, 2961.605
835.9450, 3318.546
837.0820, 3848.460
838.2190, 4395.042
839.3550, 5051.725
840.4910, 5809.906
841.6270, 6452.747
842.7630, 7119.729
843.8990, 7236.625
845.0350, 7123.634
846.1700, 6808.642
847.3060, 6016.653
848.4410, 5395.665
849.5760, 4621.677
850.7100, 4177.686
851.8450, 3721.658
852.9800, 3294.676
854.1140, 3012.696
855.2480, 2887.658
856.3820, 2871.034
857.5160, 2861.836
858.6500, 2832.775
859.7830, 2915.687
860.9170, 3113.689
862.0500, 3326.710
863.1830, 3628.669
864.3160, 3967.682
865.4480, 4568.417
866.5810, 5302.451
867.7130, 6296.459
868.8460, 7729.504
869.9780, 9592.551
871.1100, 12146.59
872.2410, 15406.43
873.3730, 19366.46
874.5050, 23323.49
875.6360, 25589.54
876.7670, 25538.52
877.8980, 22773.58
879.0290, 18542.65
880.1590, 14239.57
881.2900, 10595.64
882.4200, 8032.720
883.5500, 6102.801
884.6800, 4619.884
885.8100, 3665.972
886.9400, 2944.062
888.0690, 2405.156
889.1990, 2020.253
890.3280, 1666.352
891.4570, 1382.455
892.5860, 1189.562
893.7140, 1034.672
894.8430, 906.7848
895.9710, 882.9016
897.1000, 761.5387
898.2280, 665.1624
899.3560, 562.9766
900.4830, 524.1079
901.6110, 510.8855
902.7380, 437.9750
903.8660, 427.6641
904.9930, 410.8228
906.1200, 338.0308
907.2460, 348.1971
908.3730, 337.7946
909.5000, 362.6050
910.6260, 348.8647
911.7520, 289.0560
912.8780, 278.3998
914.0040, 296.5264
915.1290, 227.8204
916.2550, 247.7565
917.3800, 225.9531
918.5050, 183.5818
919.6300, 205.1216
920.7550, 183.5386
921.8800, 175.8502
923.0040, 170.4406
924.1290, 149.6816
925.2530, 165.9978
926.3770, 180.5579
927.5010, 183.4395
928.6250, 162.8689
929.7480, 167.1301
930.8720, 148.4495
931.9950, 160.3141
933.1180, 134.5973
934.2410, 122.8931
935.3640, 137.1970
936.4860, 130.5073
937.6090, 127.8234
938.7310, 100.1437
939.8530, 96.47070
940.9750, 101.8064
942.0970, 82.14581
943.2180, 85.48883
944.3400, 63.83960
945.4610, 99.19751
946.5820, 60.56641
947.7030, 54.94287
948.8240, 92.32831
949.9450, 99.71918
951.0650, 81.11810
952.1860, 86.52222
953.3060, 77.93494
954.4260, 104.3530
955.5460, 121.7778
956.6650, 103.2064
957.7850, 115.6389
958.9040, 100.0768
960.0230, 99.53094
961.1420, 128.9908
962.2610, 153.4615
963.3800, 136.9434
964.4990, 136.4355
965.6170, 130.9377
966.7350, 158.4479
967.8530, 185.9641
968.9710, 184.5233
970.0890, 173.0209
971.2070, 207.5626
972.3240, 225.1086
973.4410, 261.6649
974.5580, 254.2264
975.6750, 258.7958
976.7920, 300.3697
977.9090, 249.9475
979.0250, 292.5305
980.1410, 303.1173
981.2580, 300.7085
982.3740, 341.3033
983.4890, 298.9020
984.6050, 386.5068
985.7200, 360.1156
986.8360, 439.7284
987.9510, 503.3450
989.0660, 617.9651
990.1810, 707.5900
991.2950, 841.2218
992.4100, 1047.859
993.5240, 1354.508
994.6390, 1644.161
995.7530, 1911.819
996.8660, 1918.482
997.9800, 1707.149
999.0940, 1462.827
1000.207, 1076.514
1001.320, 869.2083
1002.433, 632.9128
1003.546, 503.6217
1004.659, 379.3354
1005.772, 341.0623
1006.884, 277.7983
1007.996, 219.5422
1009.108, 194.2904
1010.220, 141.0480
1011.332, 132.8105
1012.444, 142.5775
1013.555, 152.3517
1014.666, 132.1322
1015.777, 104.9163
1016.888, 106.7043
1017.999, 67.49567
1019.110, 70.29053
1020.220, 75.08887
1021.331, 70.89050
1022.441, 45.69611
1023.551, 36.50494
1024.661, 46.31714
1025.770, 51.13269
1026.880, 23.95392
1027.989, 38.77832
1029.098, 20.60577
1030.207, 13.56342
1031.316, 1.267700
1032.425, 7.104309
1033.533, 14.94568
1034.642, 0.7900390
1035.750, 1.638916
1036.858, 15.50848
1037.966, 9.341248
1039.073, 9.194092
1040.181, 7.054138
1041.288, 28.08282
1042.396, 14.22986
1043.503, 38.37897
1044.610, 2.457520
1045.716, 3.703430
1046.823, 18.86359
1047.929, 38.02954
1049.036, 15.21143
1050.142, 19.39764
1051.248, 26.59021
1052.353, 24.79291
1053.459, 4.005066
1054.564, 1.216919
1055.670, 7.427734
1056.775, 13.36023
1057.880, 0.8496090
1058.985, 24.05835
1060.089, 12.27655
1061.194, 21.49866
1062.298, 17.27087
1063.402, 4.2479999E-02
1064.506, 11.18475
1065.610, 34.58435
1066.713, 54.35541
1067.817, 17.12866
1068.920, 46.90381
1070.023, 42.68079
1071.126, 31.45966
1072.229, 39.24030
1073.332, 72.02271
1074.435, 75.80682
1075.537, 91.59253
1076.639, 87.37994
1077.741, 97.16895
1078.843, 107.9595
1079.945, 94.75159
1081.046, 96.54510
1082.148, 107.1238
1083.249, 127.1362
1084.350, 131.9338
1085.451, 154.7327
1086.551, 173.5328
1087.652, 151.3341
1088.752, 162.1365
1089.853, 170.9401
1090.953, 171.7448
1092.053, 176.5505
1093.152, 199.3572
1094.252, 192.1648
1095.351, 200.9733
1096.451, 238.7827
1097.550, 213.5927
1098.649, 219.4034
1099.748, 243.2150
1100.846, 233.0269
1101.945, 237.8396
1103.043, 202.6526
1104.141, 242.4664
1105.239, 230.2804
1106.337, 256.0948
1107.434, 208.9095
1108.532, 239.7246
1109.629, 233.5400
1110.726, 247.5058
1111.823, 236.3233
1112.920, 222.2292
1114.017, 206.0452
1115.113, 182.8614
1116.210, 193.1243
1117.306, 231.0428
1118.402, 213.8662
1119.498, 208.6824
1120.593, 220.4984
1121.689, 205.3983
1122.784, 222.2573
1123.879, 176.1562
1124.974, 225.7385
1126.069, 209.5534
1127.164, 164.6846
1128.259, 165.4985
1129.353, 143.4026
1130.447, 118.0612
1131.541, 82.49286
1132.635, 79.26733
1133.729, 62.51038
1134.822, 59.46741
1135.916, 54.98920
1137.009, 47.84778
1138.102, 53.40436
1139.195, 46.10840
1140.288, 42.07477
1141.380, 58.21851
1142.473, 77.21967
1143.565, 53.20062
1144.657, 77.87610
1145.749, 54.08228
1146.841, 67.91949
1147.932, 56.83795
1149.024, 72.62915
1150.115, 68.45850
1151.206, 58.27136
1152.297, 57.05701
1153.388, 86.98425
1154.479, 91.76605
1155.569, 82.57721
1156.659, 65.39050
1157.750, 103.7148
1158.839, 109.4886
1159.929, 93.26031
1161.019, 102.0764
1162.108, 90.83356
1163.198, 64.59814
1164.287, 120.3920
1165.376, 119.1528
1166.465, 118.9076
1167.553, 111.7694
1168.642, 135.8827
1169.730, 125.6700
1170.818, 119.4321
1171.906, 144.2332
1172.994, 148.5547
1174.082, 159.8957
1175.170, 157.8324
1176.257, 171.5700
1177.344, 159.1569
1178.431, 158.0218
1179.518, 177.6613
1180.605, 158.6758
1181.691, 166.4774
1182.778, 166.9225
1183.864, 157.2150
1184.950, 160.7536
1186.036, 169.3942
1187.122, 152.7575
1188.207, 163.7556
1189.292, 163.6866
1190.378, 166.5302
1191.463, 163.6114
1192.548, 157.0190
1193.632, 144.8515
1194.717, 170.5057
1195.801, 160.6194
1196.886, 168.3190
1197.970, 139.0597
1199.054, 159.7556
1200.137, 169.4496
1201.221, 145.1495
1202.305, 156.8543
1203.388, 139.5425
1204.471, 121.2286
1205.554, 168.9128
1206.637, 158.5950
1207.719, 165.2750
1208.802, 171.9531
1209.884, 131.6291
1210.966, 160.3030
1212.048, 120.9749
1213.130, 120.6445
1214.212, 120.3120
1215.293, 131.9774
1216.374, 112.6407
1217.456, 97.30176
1218.536, 81.96057
1219.617, 70.42377
1220.698, 56.32996
1221.778, 55.79962
1222.859, 53.57355
1223.939, 57.22107
1225.019, 75.86646
1226.099, 55.50940
1227.178, 43.15002
1228.258, 71.78833
1229.337, 44.42432
1230.417, 36.05792
1231.496, 15.68921
1232.574, 20.31805
1233.653, 34.94446
1234.732, 48.56854
1235.810, 44.45001
1236.888, 51.80939
1237.966, 29.42627
