##NAMES=Andradite
##RRUFFID=R060423
##IDEAL CHEMISTRY=Ca_3_Fe^3+^_2_(SiO_4_)_3_
##LOCALITY=Mali
##OWNER=RRUFF
##SOURCE=Greg Schmidt
##DESCRIPTION=Black dodecahedron
##STATUS=The identification of this mineral has been confirmed by X-ray diffraction and chemical analysis
##URL=rruff.info/R060423
##MEASURED CHEMISTRY=(Ca_2.93_Mg_0.04_Mn_0.03_)_Σ=3_(Fe^3+^_0.99_Al_0.95_Ti_0.06_)_Σ=2_((Si_0.98_Fe^3+^_0.02_)_Σ=1_O_4_)_3_
##PIN_ID=L01089
##ORIENTATION=Laser parallel to a* (1 0 0). Fiducial mark perpendicular to laser is parallel to c [0 0 1]
91.01200, 0.0000000E+00
92.24600, 107.1539
93.48000, 20.03589
94.71400, 81.02698
95.94800, 33.07166
97.18200, 74.16248
98.41600, 81.99622
99.64900, 152.0107
100.8830, 79.63354
102.1160, 1.754883
103.3490, 23.83789
104.5820, 147.9227
105.8150, 202.0354
107.0470, 406.6113
108.2800, 543.5054
109.5120, 773.4436
110.7440, 480.1028
111.9760, 128.0685
113.2080, 148.3748
114.4400, 129.3850
115.6710, 230.7975
116.9030, 221.6189
118.1340, 91.74609
119.3650, 6.404663
120.5960, 8.782349
121.8270, 56.34985
123.0580, 96.72046
124.2880, 40.49121
125.5190, 9.860107
126.7490, 17.43457
127.9790, 18.62720
129.2090, 19.54346
130.4390, 14.05444
131.6680, 61.88379
132.8980, 16.01318
134.1270, 41.57227
135.3560, 17.11401
136.5850, 8.060059
137.8140, 56.26196
139.0430, 76.73291
140.2710, 81.48560
141.5000, 76.32446
142.7280, 16.16797
143.9560, 20.40649
145.1840, 24.23730
146.4120, 20.68286
147.6390, 1.640137
148.8670, 32.79883
150.0940, 33.00464
151.3210, 2.980957
152.5490, 9.268799
153.7750, 38.74170
155.0020, 29.43433
156.2290, 23.34448
157.4550, 22.47021
158.6810, 21.19092
159.9080, 32.64038
161.1340, 54.11963
162.3590, 104.0881
163.5850, 197.2634
164.8110, 296.6147
166.0360, 427.0498
167.2610, 561.9895
168.4860, 678.1489
169.7110, 880.8091
170.9360, 1019.518
172.1610, 1205.302
173.3850, 1481.167
174.6100, 1659.115
175.8340, 1767.147
177.0580, 1722.269
178.2820, 1624.482
179.5050, 1313.764
180.7290, 1201.132
181.9520, 999.5977
183.1760, 795.2119
184.3990, 641.1189
185.6220, 571.3740
186.8450, 571.9412
188.0670, 540.7974
189.2900, 653.9133
190.5120, 631.1982
191.7340, 577.5867
192.9560, 685.0649
194.1780, 602.6260
195.4000, 646.2817
196.6220, 667.0398
197.8430, 540.9019
199.0640, 509.8613
200.2860, 598.9250
201.5070, 646.0972
202.7270, 695.3799
203.9480, 464.7734
205.1690, 343.2795
206.3890, 92.89893
207.6090, 104.6331
208.8290, 59.48291
210.0490, 32.44922
211.2690, 98.53345
212.4890, 96.73560
213.7080, 117.0569
214.9280, 133.4978
216.1470, 168.0588
217.3660, 296.7402
218.5850, 439.5430
219.8030, 509.4673
221.0220, 705.5134
222.2400, 858.6819
223.4590, 1090.973
224.6770, 1394.387
225.8950, 1650.925
227.1120, 2039.586
228.3300, 2491.370
229.5480, 2938.278
230.7650, 3393.311
231.9820, 3899.467
233.1990, 4381.748
234.4160, 4660.154
235.6330, 5069.684
236.8490, 5242.337
238.0660, 5774.848
239.2820, 5892.325
240.4980, 5692.470
241.7140, 5702.188
242.9300, 4857.570
244.1460, 4060.852
245.3610, 3208.276
246.5770, 2437.796
247.7920, 1917.404
249.0070, 1426.562
250.2220, 1006.733
251.4370, 801.6479
252.6510, 670.5583
253.8660, 608.5874
255.0800, 511.6895
256.2940, 533.8154
257.5080, 588.0710
258.7220, 757.4551
259.9360, 959.9131
261.1490, 929.5005
262.3630, 860.2163
263.5760, 1112.049
264.7890, 1315.007
266.0020, 1494.180
267.2150, 1839.593
268.4270, 2195.879
269.6400, 2480.289
270.8520, 2671.821
272.0640, 2585.657
273.2760, 2552.455
274.4880, 2301.054
275.7000, 2102.220
276.9120, 2003.586
278.1230, 1797.119
279.3340, 1768.774
280.5450, 1545.211
281.7560, 1516.499
282.9670, 1292.173
284.1780, 1115.416
285.3880, 993.1130
286.5980, 829.2812
287.8090, 732.4236
289.0190, 502.0090
290.2290, 393.3647
291.4380, 428.8291
292.6480, 347.9883
293.8570, 463.6650
295.0670, 345.7261
296.2760, 386.9209
297.4850, 479.8887
298.6930, 517.9980
299.9020, 537.2139
301.1110, 544.5356
302.3190, 723.9624
303.5270, 734.4941
304.7350, 850.8398
305.9430, 878.0386
307.1510, 1051.882
308.3580, 1224.829
309.5660, 1514.878
310.7730, 1793.028
311.9800, 2154.281
313.1870, 2616.636
314.3940, 2974.092
315.6010, 3462.650
316.8070, 3917.311
318.0130, 4356.073
319.2200, 4830.937
320.4260, 4861.904
321.6310, 4778.973
322.8370, 4426.144
324.0430, 4004.416
325.2480, 3749.791
326.4540, 3362.266
327.6590, 3193.845
328.8640, 3059.522
330.0680, 3041.302
331.2730, 3002.180
332.4780, 3205.156
333.6820, 3277.229
334.8860, 3439.396
336.0900, 3462.662
337.2940, 3330.021
338.4980, 3213.478
339.7010, 3143.027
340.9050, 3046.673
342.1080, 3174.414
343.3110, 3196.249
344.5140, 3400.179
345.7170, 3670.202
346.9200, 3985.321
348.1220, 4588.532
349.3240, 4960.840
350.5270, 5674.240
351.7290, 6602.732
352.9310, 7551.319
354.1320, 8699.996
355.3340, 9951.768
356.5350, 11940.64
357.7370, 14086.59
358.9380, 16272.64
360.1390, 19024.78
361.3400, 22310.01
362.5400, 26353.33
363.7410, 30912.74
364.9410, 35998.25
366.1410, 41830.84
367.3410, 47509.52
368.5410, 53346.29
369.7410, 57497.16
370.9400, 59823.10
372.1400, 59609.13
373.3390, 56297.27
374.5380, 51028.48
375.7370, 44689.77
376.9360, 38027.18
378.1350, 31658.64
379.3330, 26698.20
380.5310, 21344.85
381.7300, 17700.58
382.9280, 14718.42
384.1260, 12642.35
385.3230, 10653.39
386.5210, 9087.524
387.7180, 8041.763
388.9160, 6950.103
390.1130, 6470.544
391.3100, 5775.089
392.5060, 5032.734
393.7030, 4585.486
394.9000, 4101.343
396.0960, 3613.300
397.2920, 3447.357
398.4880, 3085.516
399.6840, 2771.774
400.8800, 2378.133
402.0750, 2175.592
403.2710, 1817.150
404.4660, 1555.809
405.6610, 1408.568
406.8560, 986.4399
408.0510, 770.4360
409.2450, 583.5615
410.4400, 348.8311
411.6340, 238.2515
412.8280, 51.83447
414.0220, 19.57520
415.2160, 18.51172
416.4100, 94.43652
417.6030, 169.2124
418.7970, 223.8633
419.9900, 251.4185
421.1830, 276.2183
422.3760, 252.2285
423.5690, 288.5024
424.7610, 210.6689
425.9540, 217.7227
427.1460, 229.6899
428.3380, 185.5605
429.5300, 168.4316
430.7220, 75.95557
431.9140, 65.44727
433.1050, 68.20947
434.2970, 177.0273
435.4880, 207.0034
436.6790, 311.1377
437.8700, 575.4297
439.0610, 608.8770
440.2510, 692.4619
441.4420, 730.1890
442.6320, 799.0488
443.8220, 951.0386
445.0120, 1013.155
446.2020, 1057.390
447.3910, 1064.733
448.5810, 1190.178
449.7700, 1218.538
450.9600, 1227.341
452.1490, 1294.049
453.3370, 1305.842
454.5260, 1233.716
455.7150, 1337.670
456.9030, 1220.703
458.0910, 1183.813
459.2800, 1219.002
460.4670, 1199.269
461.6550, 1181.612
462.8430, 1213.031
464.0300, 1193.526
465.2180, 1029.096
466.4050, 964.7412
467.5920, 926.4600
468.7790, 826.2529
469.9650, 863.1187
471.1520, 830.0566
472.3380, 727.0664
473.5250, 694.1479
474.7110, 824.2998
475.8970, 771.5220
477.0820, 865.8145
478.2680, 1100.176
479.4540, 1233.605
480.6390, 1423.104
481.8240, 1669.669
483.0090, 1904.302
484.1940, 2093.000
485.3780, 2337.766
486.5630, 2475.591
487.7470, 2639.615
488.9320, 2741.450
490.1160, 2864.474
491.3000, 2979.560
492.4830, 3002.709
493.6670, 2907.920
494.8500, 2868.193
496.0340, 2732.527
497.2170, 2650.921
498.4000, 2595.375
499.5820, 2336.888
500.7650, 2274.461
501.9480, 2034.090
503.1300, 1813.779
504.3120, 1709.524
505.4940, 1642.326
506.6760, 1477.183
507.8580, 1474.096
509.0390, 1420.064
510.2210, 1412.087
511.4020, 1518.163
512.5830, 1543.292
513.7640, 1670.475
514.9450, 1948.709
516.1250, 2037.995
517.3060, 2517.332
518.4860, 2863.719
519.6660, 3349.156
520.8460, 3980.643
522.0260, 4786.179
523.2060, 5834.763
524.3850, 7229.393
525.5650, 8607.074
526.7440, 10403.80
527.9230, 12470.57
529.1020, 14436.39
530.2810, 16364.25
531.4590, 18423.15
532.6380, 19725.10
533.8160, 20131.10
534.9940, 18714.13
536.1720, 16680.20
537.3500, 14162.32
538.5270, 11455.48
539.7050, 8914.673
540.8820, 6890.907
542.0590, 5316.180
543.2360, 4151.492
544.4130, 3140.840
545.5900, 2655.315
546.7660, 2284.017
547.9430, 2081.684
549.1190, 1908.433
550.2950, 1728.364
551.4710, 1752.738
552.6470, 1718.238
553.8220, 1712.385
554.9980, 1685.536
556.1730, 1674.339
557.3480, 1684.568
558.5230, 1690.955
559.6980, 1698.474
560.8730, 1540.893
562.0470, 1400.727
563.2220, 1356.115
564.3960, 1219.914
565.5700, 1224.269
566.7440, 1151.800
567.9170, 951.6077
569.0910, 911.1743
570.2640, 753.1079
571.4380, 687.6489
572.6110, 560.6047
573.7840, 417.5906
574.9570, 386.6931
576.1290, 286.1555
577.3020, 289.1084
578.4740, 257.8140
579.6460, 254.0103
580.8180, 278.1445
581.9900, 213.3650
583.1620, 174.4089
584.3330, 259.9670
585.5040, 268.9092
586.6760, 368.5889
587.8470, 480.5488
589.0180, 669.7886
590.1880, 783.9092
591.3590, 789.2395
592.5290, 993.1799
593.7000, 1111.800
594.8700, 1303.641
596.0400, 1388.461
597.2090, 1510.268
598.3790, 1616.060
599.5490, 1642.838
600.7180, 1758.600
601.8870, 1825.346
603.0560, 1809.075
604.2250, 1830.788
605.3940, 1996.483
606.5620, 2052.161
607.7300, 2147.820
608.8990, 2162.460
610.0670, 2216.080
611.2350, 2306.682
612.4020, 2362.262
613.5700, 2382.821
614.7370, 2440.360
615.9050, 2463.876
617.0720, 2528.371
618.2390, 2537.843
619.4060, 2393.291
620.5720, 2281.716
621.7390, 2175.117
622.9050, 1913.493
624.0710, 1873.845
625.2370, 1561.170
626.4030, 1362.471
627.5690, 1236.745
628.7340, 1074.992
629.9000, 833.2122
631.0650, 673.4048
632.2300, 572.5693
633.3950, 448.7056
634.5600, 451.8130
635.7240, 374.8918
636.8890, 321.9409
638.0530, 324.9597
639.2170, 254.9485
640.3810, 356.9070
641.5450, 430.8342
642.7080, 418.7305
643.8720, 509.5957
645.0350, 507.4287
646.1980, 518.2295
647.3610, 599.9980
648.5240, 654.7339
649.6870, 714.4370
650.8490, 734.1074
652.0120, 782.7439
653.1740, 772.8430
654.3360, 796.9163
655.4980, 728.4512
656.6600, 700.9517
657.8210, 652.4175
658.9830, 593.8486
660.1440, 550.1099
661.3050, 543.6055
662.4660, 459.9309
663.6270, 439.2207
664.7870, 434.4741
665.9480, 444.6917
667.1080, 485.8728
668.2680, 513.0176
669.4280, 576.1250
670.5880, 562.1960
671.7480, 552.2300
672.9070, 624.2266
674.0670, 658.1858
675.2260, 635.1072
676.3850, 656.9910
677.5440, 568.8367
678.7030, 525.6440
679.8610, 414.4126
681.0200, 361.7854
682.1780, 346.8352
683.3360, 252.4885
684.4940, 178.1025
685.6520, 162.6750
686.8090, 69.20288
687.9670, 4.666992
689.1240, 12.96265
690.2810, 50.69604
691.4380, 67.55371
692.5950, 140.5442
693.7520, 123.7073
694.9080, 181.0339
696.0650, 146.5547
697.2210, 165.2485
698.3770, 160.1162
699.5330, 143.1445
700.6880, 214.3154
701.8440, 191.6624
702.9990, 150.1687
704.1550, 246.8167
705.3100, 199.6514
706.4650, 112.6614
707.6190, 163.7996
708.7740, 175.0906
709.9290, 190.5476
711.0830, 179.1819
712.2370, 175.0002
713.3910, 166.0015
714.5450, 156.1904
715.6980, 148.5613
716.8520, 161.1094
718.0050, 137.7212
719.1580, 73.74463
720.3110, 107.7847
721.4640, 73.97949
722.6170, 67.16821
723.7700, 58.35620
724.9220, 23.36279
726.0740, 2.939697
727.2260, 39.14893
728.3780, 124.2832
729.5300, 112.3630
730.6810, 220.3865
731.8330, 149.3684
732.9840, 236.3003
734.1350, 247.1917
735.2860, 356.0427
736.4370, 422.8545
737.5880, 513.6270
738.7380, 535.3604
739.8880, 587.0552
741.0390, 681.7109
742.1890, 705.3281
743.3380, 775.9067
744.4880, 833.4478
745.6380, 927.9507
746.7870, 1039.416
747.9360, 1086.992
749.0850, 1183.219
750.2340, 1217.587
751.3830, 1328.903
752.5310, 1420.183
753.6800, 1479.427
754.8280, 1606.895
755.9760, 1641.805
757.1240, 1814.940
758.2720, 1913.041
759.4190, 1975.105
760.5670, 2148.135
761.7140, 2298.129
762.8610, 2383.090
764.0080, 2572.016
765.1550, 2627.908
766.3020, 2524.766
767.4480, 2576.591
768.5950, 2456.383
769.7410, 2505.145
770.8870, 2336.875
772.0330, 2322.575
773.1780, 2217.244
774.3240, 2077.881
775.4690, 1962.492
776.6140, 1945.080
777.7590, 1843.652
778.9040, 1831.207
780.0490, 1846.741
781.1940, 1780.258
782.3380, 1789.768
783.4820, 1848.261
784.6260, 1917.745
785.7700, 1931.220
786.9140, 1980.691
788.0580, 2110.148
789.2010, 2218.593
790.3450, 2312.024
791.4880, 2424.444
792.6310, 2626.861
793.7730, 2827.282
794.9160, 3073.694
796.0590, 3268.099
797.2010, 3715.494
798.3430, 3901.880
799.4850, 4245.262
800.6270, 4743.637
801.7690, 5397.008
802.9100, 5886.375
804.0520, 6563.743
805.1930, 6983.101
806.3340, 7776.463
807.4750, 8403.825
808.6160, 9238.190
809.7560, 10174.55
810.8970, 11176.90
812.0370, 11910.25
813.1770, 13369.60
814.3170, 14211.94
815.4570, 15060.26
816.5960, 16041.58
817.7360, 16611.92
818.8750, 17226.26
820.0140, 17258.59
821.1530, 17169.93
822.2920, 16891.18
823.4310, 16134.22
824.5690, 15519.33
825.7070, 14818.38
826.8460, 14038.26
827.9840, 13152.71
829.1220, 12366.06
830.2590, 11715.77
831.3970, 11097.50
832.5340, 10469.58
833.6710, 10031.79
834.8080, 9547.801
835.9450, 9102.104
837.0820, 8822.453
838.2190, 8560.316
839.3550, 8380.591
840.4910, 8430.456
841.6270, 8376.255
842.7630, 8428.009
843.8990, 8437.230
845.0350, 8387.246
846.1700, 8517.566
847.3060, 8441.930
848.4410, 8364.029
849.5760, 8355.414
850.7100, 8397.395
851.8450, 8112.028
852.9800, 8072.184
854.1140, 8140.593
855.2480, 8054.522
856.3820, 8244.526
857.5160, 8371.452
858.6500, 8629.568
859.7830, 9116.175
860.9170, 9357.409
862.0500, 10195.91
863.1830, 10830.14
864.3160, 11575.10
865.4480, 12334.19
866.5810, 13429.08
867.7130, 14303.36
868.8460, 15512.97
869.9780, 16365.36
871.1100, 17297.78
872.2410, 18394.22
873.3730, 18920.69
874.5050, 19429.17
875.6360, 19450.67
876.7670, 18841.19
877.8980, 18255.73
879.0290, 17233.30
880.1590, 15685.89
881.2900, 14325.50
882.4200, 12953.13
883.5500, 11485.78
884.6800, 10333.46
885.8100, 9293.154
886.9400, 8283.874
888.0690, 7491.618
889.1990, 6794.385
890.3280, 6314.175
891.4570, 5697.989
892.5860, 5241.827
893.7140, 4892.690
894.8430, 4545.576
895.9710, 4262.488
897.1000, 3951.423
898.2280, 3764.385
899.3560, 3525.371
900.4830, 3355.382
901.6110, 3111.420
902.7380, 2967.483
903.8660, 2903.573
904.9930, 2703.208
906.1200, 2572.349
907.2460, 2627.013
908.3730, 2537.208
909.5000, 2384.459
910.6260, 2487.396
911.7520, 2392.229
912.8780, 2510.677
914.0040, 2569.221
915.1290, 2534.431
916.2550, 2576.364
917.3800, 2556.280
918.5050, 2580.554
919.6300, 2693.907
920.7550, 2641.502
921.8800, 2713.519
923.0040, 2767.627
924.1290, 2758.154
925.2530, 2824.851
926.3770, 2879.477
927.5010, 2944.054
928.6250, 3068.100
929.7480, 3128.101
930.8720, 3314.279
931.9950, 3444.312
933.1180, 3595.226
934.2410, 3642.739
935.3640, 3803.299
936.4860, 3881.788
937.6090, 4011.206
938.7310, 4020.860
939.8530, 4003.507
940.9750, 4032.156
942.0970, 3890.170
943.2180, 3812.998
944.3400, 3632.253
945.4610, 3448.937
946.5820, 3213.754
947.7030, 3044.166
948.8240, 2817.876
949.9450, 2646.998
951.0650, 2421.194
952.1860, 2183.715
953.3060, 2041.929
954.4260, 1909.270
955.5460, 1835.519
956.6650, 1828.905
957.7850, 1834.829
958.9040, 1910.014
960.0230, 2043.839
961.1420, 2108.260
962.2610, 2324.672
963.3800, 2549.333
964.4990, 2652.873
965.6170, 2877.610
966.7350, 3065.336
967.8530, 3294.178
968.9710, 3405.069
970.0890, 3586.052
971.2070, 3821.125
972.3240, 3990.286
973.4410, 4051.552
974.5580, 4265.917
975.6750, 4346.371
976.7920, 4515.938
977.9090, 4647.606
979.0250, 4694.353
980.1410, 4714.192
981.2580, 4674.125
982.3740, 4699.156
983.4890, 4770.284
984.6050, 4833.504
985.7200, 4680.817
986.8360, 4782.218
987.9510, 4624.705
989.0660, 4690.281
990.1810, 4838.941
991.2950, 4696.664
992.4100, 4818.463
993.5240, 4755.327
994.6390, 4780.254
995.7530, 4768.241
996.8660, 4724.686
997.9800, 4646.356
999.0940, 4645.470
1000.207, 4524.606
1001.320, 4464.767
1002.433, 4231.946
1003.546, 3931.144
1004.659, 3455.359
1005.772, 3108.589
1006.884, 2823.835
1007.996, 2334.097
1009.108, 2019.375
1010.220, 1724.667
1011.332, 1418.974
1012.444, 1248.295
1013.555, 1071.630
1014.666, 974.9802
1015.777, 854.3474
1016.888, 880.7292
1017.999, 932.1321
1019.110, 931.5508
1020.220, 1049.982
1021.331, 1137.427
1022.441, 1181.884
1023.551, 1197.266
1024.661, 1168.834
1025.770, 1112.327
1026.880, 1048.843
1027.989, 906.3801
1029.098, 752.9349
1030.207, 600.5002
1031.316, 439.0828
1032.425, 353.6793
1033.533, 217.2869
1034.642, 182.9045
1035.750, 88.53113
1036.858, 69.17102
1037.966, 28.17957
1039.073, 11.47205
1040.181, 25.86865
1041.288, 9.795044
1042.396, 3.468140
1043.503, 30.85083
1044.610, 54.17139
1045.716, 80.50244
1046.823, 63.85913
1047.929, 56.23413
1049.036, 65.62012
1050.142, 95.01819
1051.248, 60.45410
1052.353, 87.91138
1053.459, 83.40527
1054.564, 103.9351
1055.670, 55.51245
1056.775, 60.11292
1057.880, 60.73193
1058.985, 61.37964
1060.089, 91.05347
1061.194, 115.7734
1062.298, 57.55383
1063.402, 74.36450
1064.506, 54.21558
1065.610, 50.39917
1066.713, 74.00244
1067.817, 56.95117
1068.920, 69.93542
1070.023, 66.95605
1071.126, 68.91174
1072.229, 51.11230
1073.332, 81.24597
1074.435, 69.43213
1075.537, 80.66614
1076.639, 53.95459
1077.741, 27.28406
1078.843, 59.64148
1079.945, 36.04468
1081.046, 22.47925
1082.148, 11.94250
1083.249, 43.42480
1084.350, 78.94800
1085.451, 72.52820
1086.551, 57.16589
1087.652, 36.85425
1088.752, 24.58337
1089.853, 14.34778
1090.953, 1.142334
1092.053, 25.03894
1093.152, 15.20886
1094.252, 74.36182
1095.351, 38.51025
1096.451, 83.64941
1097.550, 49.78357
1098.649, 67.90955
1099.748, 65.02795
1100.846, 91.13879
1101.945, 127.2417
1103.043, 149.3361
1104.141, 128.4216
1105.239, 193.4978
1106.337, 182.5636
1107.434, 164.6189
1108.532, 201.6631
1109.629, 205.6954
1110.726, 242.7155
1111.823, 246.7228
1112.920, 261.7166
1114.017, 267.6968
1115.113, 340.6625
1116.210, 348.6132
1117.306, 384.5486
1118.402, 408.4680
1119.498, 450.3708
1120.593, 477.2567
1121.689, 524.1252
1122.784, 527.9758
1123.879, 578.8080
1124.974, 591.6215
1126.069, 531.4155
1127.164, 511.1904
1128.259, 520.9451
1129.353, 465.6794
1130.447, 466.3933
1131.541, 386.0864
1132.635, 438.8730
1133.729, 391.5238
1134.822, 409.2285
1135.916, 356.9065
1137.009, 373.5536
1138.102, 375.2616
1139.195, 363.0822
1140.288, 397.8287
1141.380, 368.4049
1142.473, 370.9869
1143.565, 342.5750
1144.657, 343.1061
1145.749, 363.8483
1146.841, 364.1140
1147.932, 326.8057
1149.024, 362.0042
1150.115, 327.9987
1151.206, 319.5675
1152.297, 311.9548
1153.388, 317.3425
1154.479, 274.8279
1155.569, 324.2461
1156.659, 280.6139
1157.750, 343.5948
1158.839, 279.2458
1159.929, 270.8779
1161.019, 297.0933
1162.108, 324.8240
1163.198, 327.8525
1164.287, 305.2651
1165.376, 329.4846
1166.465, 310.5272
1167.553, 254.5160
1168.642, 286.7529
1169.730, 216.3861
1170.818, 245.4153
1171.906, 247.5667
1172.994, 248.9572
1174.082, 246.1959
1175.170, 255.4396
1176.257, 271.8114
1177.344, 255.5857
1178.431, 241.0845
1179.518, 242.9827
1180.605, 260.3130
1181.691, 281.5886
1182.778, 271.7899
1183.864, 271.2158
1184.950, 269.6360
1186.036, 280.7357
1187.122, 299.6729
1188.207, 322.1003
1189.292, 312.7771
1190.378, 318.2578
1191.463, 289.5107
1192.548, 293.0122
1193.632, 281.2208
1194.717, 344.1575
1195.801, 280.2701
1196.886, 336.8540
1197.970, 315.4207
1199.054, 282.8789
1200.137, 273.9766
1201.221, 269.6964
1202.305, 292.2943
1203.388, 297.7122
1204.471, 292.2377
1205.554, 348.2065
1206.637, 298.4697
1207.719, 287.3149
1208.802, 315.7577
1209.884, 272.0103
1210.966, 303.2732
1212.048, 317.5541
1213.130, 324.3806
1214.212, 292.2365
1215.293, 302.4108
1216.374, 314.3389
1217.456, 307.9658
1218.536, 331.7773
1219.617, 320.2704
1220.698, 337.3691
1221.778, 281.2198
1222.859, 284.5157
1223.939, 369.2539
1225.019, 295.9641
1226.099, 312.4729
1227.178, 307.2505
1228.258, 274.7189
1229.337, 288.2612
1230.417, 268.8445
1231.496, 270.3383
1232.574, 294.9187
1233.653, 270.4237
1234.732, 299.9366
1235.810, 289.3856
1236.888, 307.8184
1237.966, 291.2297
1239.044, 238.6222
1240.122, 279.0251
1241.199, 264.3804
1242.277, 174.7170
1243.354, 223.0350
1244.431, 210.3347
1245.508, 233.6157
1246.585, 187.8784
1247.661, 201.1226
1248.738, 220.3484
1249.814, 154.5562
1250.890, 223.7454
1251.966, 118.9166
1253.042, 135.0697
1254.117, 157.2048
1255.193, 155.3218
1256.268, 141.4209
1257.343, 150.5022
1258.418, 135.5659
1259.493, 96.61194
1260.567, 119.6403
1261.642, 56.65125
1262.716, 88.64380
1263.790, 65.61877
1264.864, 66.57593
1265.938, 68.51538
1267.011, 48.43726
1268.085, 29.34106
1269.158, 35.22534
1270.231, 63.09094
1271.304, 55.93921
