##NAMES=Andradite
##RRUFFID=R050311
##IDEAL CHEMISTRY=Ca_3_Fe^3+^_2_(SiO_4_)_3_
##LOCALITY=Calaveras County, California, USA
##OWNER=RRUFF
##SOURCE=Eugene Schlepp
##DESCRIPTION=Deep red crystals
##STATUS=The identification of this mineral has been confirmed by X-ray diffraction and chemical analysis
##URL=rruff.info/R050311
##MEASURED CHEMISTRY=(Ca_2.88_Mn_0.07_Fe^2+^_0.05_)_Σ=3_(Fe^3+^_1.39_Al_0.59_Ti_0.02_)_Σ=2_((Si_0.99_Al_0.01_)_Σ=1_O_4_)_3_
##PIN_ID=M00304
##ORIENTATION=Laser parallel to c* (0 0 1). Fiducial mark perpendicular to laser is parallel to a [1 0 0]
123.0580, 0.0000000E+00
124.2880, 3.306641
125.5190, 133.7485
126.7490, 3.773438
127.9790, 106.8311
129.2090, 98.15332
130.4390, 301.2568
131.6680, 242.3208
132.8980, 140.2246
134.1270, 157.6914
135.3560, 148.7153
136.5850, 171.5864
137.8140, 226.6411
139.0430, 341.2588
140.2710, 319.2041
141.5000, 186.6147
142.7280, 28.54053
143.9560, 6.974121
145.1840, 19.49170
146.4120, 10.36377
147.6390, 29.92529
148.8670, 22.19287
150.0940, 47.83301
151.3210, 227.1484
152.5490, 393.7510
153.7750, 185.6367
155.0020, 123.8022
156.2290, 64.24512
157.4550, 10.03955
158.6810, 18.75586
159.9080, 23.20117
161.1340, 131.7212
162.3590, 235.4985
163.5850, 388.5195
164.8110, 656.1528
166.0360, 765.9946
167.2610, 1001.640
168.4860, 1095.090
169.7110, 1193.753
170.9360, 1356.623
172.1610, 1345.691
173.3850, 1523.956
174.6100, 1500.413
175.8340, 1539.058
177.0580, 1578.889
178.2820, 1522.901
179.5050, 1398.094
180.7290, 1118.465
181.9520, 1091.011
183.1760, 818.7285
184.3990, 622.6172
185.6220, 449.6748
186.8450, 487.9004
188.0670, 477.2939
189.2900, 498.8550
190.5120, 452.5815
191.7340, 576.4736
192.9560, 513.5308
194.1780, 567.7529
195.4000, 502.1387
196.6220, 556.6982
197.8430, 584.4189
199.0640, 477.2842
200.2860, 549.2422
201.5070, 570.2656
202.7270, 635.3682
203.9480, 447.5269
205.1690, 216.7417
206.3890, 8.986328
207.6090, 52.66553
208.8290, 23.31641
210.0490, 113.9351
211.2690, 12.47705
212.4890, 80.06152
213.7080, 106.6792
214.9280, 211.3779
216.1470, 151.1631
217.3660, 250.0366
218.5850, 295.9995
219.8030, 342.0513
221.0220, 466.1943
222.2400, 544.4287
223.4590, 703.7568
224.6770, 923.1792
225.8950, 1116.696
227.1120, 1313.310
228.3300, 1600.019
229.5480, 1903.825
230.7650, 2162.729
231.9820, 2435.730
233.1990, 2506.830
234.4160, 2505.028
235.6330, 2631.326
236.8490, 2619.722
238.0660, 2734.216
239.2820, 2697.794
240.4980, 2534.435
241.7140, 2208.174
242.9300, 1938.015
244.1460, 1496.957
245.3610, 1126.000
246.5770, 623.1440
247.7920, 533.3911
249.0070, 370.7393
250.2220, 256.1909
251.4370, 172.7461
252.6510, 152.4053
253.8660, 102.1685
255.0800, 180.0366
256.2940, 226.0088
257.5080, 340.0854
258.7220, 920.2666
259.9360, 773.7339
261.1490, 1596.943
262.3630, 813.4395
263.5760, 615.0425
264.7890, 634.7520
266.0020, 814.5684
267.2150, 813.4912
268.4270, 782.1323
269.6400, 832.9097
270.8520, 918.1455
272.0640, 928.1016
273.2760, 810.7866
274.4880, 617.3926
275.7000, 721.9277
276.9120, 613.7876
278.1230, 696.6074
279.3340, 587.7959
280.5450, 543.3467
281.7560, 363.6099
282.9670, 373.3408
284.1780, 402.1890
285.3880, 301.1528
286.5980, 243.2114
287.8090, 179.3833
289.0190, 301.3887
290.2290, 348.9673
291.4380, 427.2480
292.6480, 444.4604
293.8570, 622.8696
295.0670, 527.9600
296.2760, 757.8560
297.4850, 574.8496
298.6930, 627.9390
299.9020, 863.1245
301.1110, 908.4053
302.3190, 1022.779
303.5270, 1042.785
304.7350, 1319.342
305.9430, 1434.991
307.1510, 1777.729
308.3580, 1794.557
309.5660, 2188.471
310.7730, 2326.471
311.9800, 2440.532
313.1870, 2520.633
314.3940, 2821.820
315.6010, 2959.093
316.8070, 3079.451
318.0130, 3099.894
319.2200, 3208.420
320.4260, 2948.030
321.6310, 2953.723
322.8370, 2889.497
324.0430, 2670.352
325.2480, 2534.287
326.4540, 2429.303
327.6590, 2544.397
328.8640, 2749.572
330.0680, 2767.822
331.2730, 2861.152
332.4780, 2936.559
333.6820, 3052.042
334.8860, 3186.601
336.0900, 3311.233
337.2940, 3400.942
338.4980, 3624.724
339.7010, 4005.579
340.9050, 4454.507
342.1080, 5011.507
343.3110, 5761.579
344.5140, 6473.722
345.7170, 7407.937
346.9200, 8717.220
348.1220, 9890.575
349.3240, 11091.00
350.5270, 12289.50
351.7290, 13664.95
352.9310, 15010.49
354.1320, 16372.84
355.3340, 18029.54
356.5350, 19961.23
357.7370, 22087.15
358.9380, 24716.13
360.1390, 27535.19
361.3400, 30570.32
362.5400, 33392.53
363.7410, 36139.82
364.9410, 38336.17
366.1410, 40331.58
367.3410, 42225.07
368.5410, 43903.65
369.7410, 45066.31
370.9400, 45706.04
372.1400, 44556.84
373.3390, 42220.75
374.5380, 38917.71
375.7370, 33868.79
376.9360, 29133.93
378.1350, 24215.14
379.3330, 19530.45
380.5310, 16158.83
381.7300, 13329.28
382.9280, 11077.81
384.1260, 9195.412
385.3230, 7605.081
386.5210, 6524.816
387.7180, 5694.620
388.9160, 4902.490
390.1130, 4308.427
391.3100, 3638.434
392.5060, 3117.519
393.7030, 2727.706
394.9000, 2343.998
396.0960, 2057.365
397.2920, 1712.825
398.4880, 1426.355
399.6840, 1179.951
400.8800, 1092.647
402.0750, 679.4258
403.2710, 632.2656
404.4660, 396.1895
405.6610, 369.2031
406.8560, 263.2793
408.0510, 63.42822
409.2450, 171.6738
410.4400, 76.03467
411.6340, 44.51855
412.8280, 106.9995
414.0220, 136.0449
415.2160, 157.7344
416.4100, 125.9741
417.6030, 106.1411
418.7970, 59.24268
419.9900, 18.26709
421.1830, 10.19287
422.3760, 33.02002
423.5690, 51.75146
424.7610, 41.39209
425.9540, 67.04346
427.1460, 54.57471
428.3380, 16.16992
429.5300, 200.8433
430.7220, 112.5903
431.9140, 239.4258
433.1050, 231.3281
434.2970, 276.3281
435.4880, 225.3887
436.6790, 413.5278
437.8700, 402.7520
439.0610, 386.0703
440.2510, 336.4458
441.4420, 428.8794
442.6320, 488.3716
443.8220, 590.9253
445.0120, 526.5391
446.2020, 653.2085
447.3910, 600.9380
448.5810, 738.7212
449.7700, 649.5586
450.9600, 702.4478
452.1490, 577.3877
453.3370, 688.3779
454.5260, 556.4185
455.7150, 550.5083
456.9030, 514.6475
458.0910, 413.8350
459.2800, 445.0698
460.4670, 405.3530
461.6550, 307.6831
462.8430, 405.0596
464.0300, 220.4824
465.2180, 174.9507
466.4050, 103.4639
467.5920, 162.0215
468.7790, 160.6235
469.9650, 154.2681
471.1520, 261.9565
472.3380, 358.6865
473.5250, 468.4590
474.7110, 661.2725
475.8970, 809.1274
477.0820, 962.4922
478.2680, 1262.957
479.4540, 1296.932
480.6390, 1413.945
481.8240, 1610.996
483.0090, 1967.086
484.1940, 2171.212
485.3780, 2182.376
486.5630, 2269.576
487.7470, 2477.812
488.9320, 2541.084
490.1160, 2590.391
491.3000, 2585.730
492.4830, 2768.184
493.6670, 2825.592
494.8500, 2782.033
496.0340, 2689.513
497.2170, 2804.025
498.4000, 2654.583
499.5820, 2643.172
500.7650, 2404.793
501.9480, 2381.914
503.1300, 2231.593
504.3120, 2222.161
505.4940, 2457.968
506.6760, 2342.763
507.8580, 2547.552
509.0390, 2824.625
510.2210, 3264.028
511.4020, 3658.528
512.5830, 4309.974
513.7640, 5194.914
514.9450, 6304.431
516.1250, 7526.090
517.3060, 8981.292
518.4860, 10354.64
519.6660, 11732.91
520.8460, 13120.70
522.0260, 13945.62
523.2060, 14890.90
524.3850, 15446.91
525.5650, 15564.50
526.7440, 15234.10
527.9230, 14473.93
529.1020, 12939.77
530.2810, 11076.36
531.4590, 9221.890
532.6380, 7461.084
533.8160, 5816.064
534.9940, 4547.952
536.1720, 3674.661
537.3500, 3103.111
538.5270, 2520.349
539.7050, 2408.198
540.8820, 1983.765
542.0590, 1767.211
543.2360, 1595.171
544.4130, 1465.449
545.5900, 1403.926
546.7660, 1579.191
547.9430, 1407.061
549.1190, 1455.471
550.2950, 1540.391
551.4710, 1543.074
552.6470, 1575.978
553.8220, 1517.327
554.9980, 1557.261
556.1730, 1524.236
557.3480, 1468.375
558.5230, 1463.956
559.6980, 1383.708
560.8730, 1313.908
562.0470, 1177.738
563.2220, 1142.260
564.3960, 1052.185
565.5700, 983.1055
566.7440, 919.0630
567.9170, 861.7412
569.0910, 819.3975
570.2640, 763.1060
571.4380, 689.9795
572.6110, 710.3823
573.7840, 782.8501
574.9570, 850.7666
576.1290, 828.0322
577.3020, 885.1997
578.4740, 847.0713
579.6460, 953.5952
580.8180, 965.8271
581.9900, 1069.349
583.1620, 1026.085
584.3330, 1006.390
585.5040, 990.6055
586.6760, 1003.057
587.8470, 1047.819
589.0180, 1100.122
590.1880, 1258.227
591.3590, 1134.203
592.5290, 1364.020
593.7000, 1293.812
594.8700, 1220.577
596.0400, 1508.317
597.2090, 1348.031
598.3790, 1500.718
599.5490, 1442.377
600.7180, 1570.008
601.8870, 1434.612
603.0560, 1519.187
604.2250, 1552.733
605.3940, 1458.250
606.5620, 1414.736
607.7300, 1544.193
608.8990, 1361.620
610.0670, 1407.015
611.2350, 1344.379
612.4020, 1301.711
613.5700, 1191.012
614.7370, 1156.281
615.9050, 1051.517
617.0720, 981.7197
618.2390, 974.8887
619.4060, 762.0239
620.5720, 604.1255
621.7390, 646.1924
622.9050, 404.2241
624.0710, 495.2212
625.2370, 352.1826
626.4030, 192.1084
627.5690, 274.9980
628.7340, 251.8511
629.9000, 279.6675
631.0650, 313.4463
632.2300, 26.18848
633.3950, 101.8896
634.5600, 107.5532
635.7240, 80.17871
636.8890, 141.7661
638.0530, 158.3145
639.2170, 67.82422
640.3810, 165.2944
641.5450, 23.72510
642.7080, 123.1089
643.8720, 16.54736
645.0350, 89.72705
646.1980, 54.96143
647.3610, 70.15381
648.5240, 15.30566
649.6870, 5.598145
650.8490, 53.56885
652.0120, 36.36816
653.1740, 80.25537
654.3360, 65.89893
655.4980, 3.154785
656.6600, 42.47998
657.8210, 4.104492
658.9830, 9.377441
660.1440, 16.61865
661.3050, 15.43359
662.4660, 6.262207
663.6270, 1.032227
664.7870, 60.12646
665.9480, 28.23584
667.1080, 54.28613
668.2680, 25.28564
669.4280, 72.22363
670.5880, 36.58008
671.7480, 20.94482
672.9070, 9.287109
674.0670, 102.5996
675.2260, 114.9727
676.3850, 1.381348
677.5440, 74.27197
678.7030, 12.95947
679.8610, 47.12012
681.0200, 107.7769
682.1780, 35.80762
683.3360, 62.06445
684.4940, 45.11865
685.6520, 69.40381
686.8090, 43.19531
687.9670, 9.266113
689.1240, 96.81104
690.2810, 172.4863
691.4380, 64.33154
692.5950, 33.29004
693.7520, 49.34277
694.9080, 89.49170
696.0650, 144.7534
697.2210, 52.15625
698.3770, 14.65430
699.5330, 20.22998
700.6880, 82.89160
701.8440, 76.67529
702.9990, 79.57764
704.1550, 74.59961
705.3100, 8.735840
706.4650, 62.95166
707.6190, 111.7192
708.7740, 0.6591800
709.9290, 13.88330
711.0830, 44.64453
712.2370, 57.72559
713.3910, 69.96191
714.5450, 158.2363
715.6980, 4.387695
716.8520, 7.535156
718.0050, 50.53857
719.1580, 148.3560
720.3110, 106.2036
721.4640, 87.00195
722.6170, 53.74902
723.7700, 56.43896
724.9220, 103.0737
726.0740, 77.65918
727.2260, 112.7554
728.3780, 133.8384
729.5300, 158.1201
730.6810, 193.5156
731.8330, 221.8691
732.9840, 271.1792
734.1350, 257.9756
735.2860, 280.3579
736.4370, 258.8555
737.5880, 267.9966
738.7380, 328.0957
739.8880, 288.1533
741.0390, 231.1704
742.1890, 363.1455
743.3380, 266.0791
744.4880, 405.9717
745.6380, 344.8247
746.7870, 441.6362
747.9360, 451.4077
749.0850, 470.1406
750.2340, 492.8330
751.3830, 506.1260
752.5310, 515.0986
753.6800, 540.7061
754.8280, 584.2085
755.9760, 604.7056
757.1240, 621.1646
758.2720, 647.0938
759.4190, 660.9678
760.5670, 681.3125
761.7140, 706.6206
762.8610, 722.8955
764.0080, 691.1338
765.1550, 811.3350
766.3020, 715.5010
767.4480, 787.6318
768.5950, 789.7314
769.7410, 703.8003
770.8870, 584.7578
772.0330, 689.7642
773.1780, 641.7407
774.3240, 763.6846
775.4690, 585.6025
776.6140, 616.5020
777.7590, 618.3799
778.9040, 746.2432
780.0490, 739.6133
781.1940, 864.4355
782.3380, 686.2979
783.4820, 878.0635
784.6260, 897.7852
785.7700, 968.5127
786.9140, 1072.957
788.0580, 1221.093
789.2010, 1341.131
790.3450, 1514.227
791.4880, 1504.854
792.6310, 1744.896
793.7730, 1938.795
794.9160, 2094.146
796.0590, 2443.360
797.2010, 2642.674
798.3430, 2998.210
799.4850, 3426.149
800.6270, 3760.464
801.7690, 4258.052
802.9100, 4716.045
804.0520, 5146.027
805.1930, 5567.809
806.3340, 6179.576
807.4750, 6621.589
808.6160, 7199.656
809.7560, 7624.045
810.8970, 8456.640
812.0370, 8936.318
813.1770, 9720.167
814.3170, 10435.27
815.4570, 11000.57
816.5960, 11439.25
817.7360, 11926.20
818.8750, 12023.27
820.0140, 12034.81
821.1530, 11802.02
822.2920, 11417.90
823.4310, 11155.22
824.5690, 10272.81
825.7070, 9928.850
826.8460, 9385.364
827.9840, 8561.105
829.1220, 8175.617
830.2590, 7900.059
831.3970, 7271.479
832.5340, 6949.368
833.6710, 6777.779
834.8080, 6624.766
835.9450, 6681.562
837.0820, 6781.779
838.2190, 7048.061
839.3550, 7349.738
840.4910, 7568.236
841.6270, 7746.057
842.7630, 7943.023
843.8990, 8167.601
845.0350, 8122.186
846.1700, 8195.709
847.3060, 8335.049
848.4410, 8112.848
849.5760, 8009.569
850.7100, 7683.825
851.8450, 7410.720
852.9800, 7341.698
854.1140, 7198.957
855.2480, 7029.547
856.3820, 6923.418
857.5160, 7100.983
858.6500, 7029.317
859.7830, 7368.070
860.9170, 7613.893
862.0500, 7827.468
863.1830, 8347.715
864.3160, 8704.404
865.4480, 9585.279
866.5810, 10406.26
867.7130, 11389.39
868.8460, 12294.53
869.9780, 13634.68
871.1100, 15162.83
872.2410, 16491.00
873.3730, 17724.17
874.5050, 19000.36
875.6360, 19884.56
876.7670, 20653.78
877.8980, 20570.00
879.0290, 20607.24
880.1590, 19772.49
881.2900, 18585.75
882.4200, 17347.04
883.5500, 15689.33
884.6800, 13766.64
885.8100, 11947.96
886.9400, 10416.29
888.0690, 9041.641
889.1990, 7690.004
890.3280, 6677.392
891.4570, 5869.795
892.5860, 5219.213
893.7140, 4585.647
894.8430, 4033.105
895.9710, 3601.586
897.1000, 3182.084
898.2280, 2845.340
899.3560, 2559.399
900.4830, 2416.415
901.6110, 2107.979
902.7380, 2014.740
903.8660, 1840.250
904.9930, 1645.640
906.1200, 1666.012
907.2460, 1375.248
908.3730, 1458.931
909.5000, 1355.862
910.6260, 1406.251
911.7520, 1243.307
912.8780, 1296.637
914.0040, 1115.099
915.1290, 1173.484
916.2550, 966.0010
917.3800, 1145.569
918.5050, 982.1865
919.6300, 871.8281
920.7550, 1016.357
921.8800, 1104.085
923.0040, 1134.414
924.1290, 1161.121
925.2530, 1214.334
926.3770, 1264.247
927.5010, 1333.065
928.6250, 1377.183
929.7480, 1526.579
930.8720, 1601.860
931.9950, 1473.242
933.1180, 1713.451
934.2410, 1739.781
935.3640, 1551.916
936.4860, 1862.959
937.6090, 1852.353
938.7310, 1830.246
939.8530, 1700.651
940.9750, 1646.806
942.0970, 1482.300
943.2180, 1431.817
944.3400, 1335.360
945.4610, 1189.933
946.5820, 1081.543
947.7030, 1076.217
948.8240, 994.9551
949.9450, 814.7285
951.0650, 905.5596
952.1860, 859.4209
953.3060, 918.3105
954.4260, 980.2666
955.5460, 885.2676
956.6650, 1050.295
957.7850, 1070.370
958.9040, 1132.502
960.0230, 1194.662
961.1420, 1182.863
962.2610, 1271.128
963.3800, 1296.677
964.4990, 1424.878
965.6170, 1427.328
966.7350, 1482.828
967.8530, 1646.391
968.9710, 1632.029
970.0890, 1900.720
971.2070, 1944.453
972.3240, 2087.230
973.4410, 2180.866
974.5580, 2063.963
975.6750, 2272.918
976.7920, 2273.930
977.9090, 2247.984
979.0250, 2372.093
980.1410, 2400.225
981.2580, 2482.396
982.3740, 2466.604
983.4890, 2450.031
984.6050, 2375.146
985.7200, 2393.486
986.8360, 2525.850
987.9510, 2594.249
989.0660, 2680.698
990.1810, 2741.037
991.2950, 2787.427
992.4100, 2832.324
993.5240, 2849.938
994.6390, 2897.582
995.7530, 2902.262
996.8660, 2865.969
997.9800, 2960.699
999.0940, 2880.463
1000.207, 2824.250
1001.320, 2638.058
1002.433, 2402.887
1003.546, 2256.749
1004.659, 1939.632
1005.772, 1679.536
1006.884, 1391.463
1007.996, 1016.964
1009.108, 884.9326
1010.220, 752.0391
1011.332, 609.0459
1012.444, 605.0781
1013.555, 528.7666
1014.666, 563.0430
1015.777, 530.1494
1016.888, 598.2900
1017.999, 537.4678
1019.110, 596.6709
1020.220, 560.9014
1021.331, 633.1543
1022.441, 505.4268
1023.551, 424.1035
1024.661, 373.4160
1025.770, 355.7471
1026.880, 195.2021
1027.989, 69.47949
1029.098, 60.12793
1030.207, 70.52930
1031.316, 32.05176
1032.425, 19.37598
1033.533, 81.82324
1034.642, 99.28711
1035.750, 9.230469
1036.858, 34.22852
1037.966, 29.69043
1039.073, 28.14551
1040.181, 22.99219
1041.288, 34.47461
1042.396, 10.02734
1043.503, 49.44434
1044.610, 82.86523
1045.716, 67.29297
1046.823, 88.73242
1047.929, 66.18359
1049.036, 67.64355
1050.142, 23.11523
1051.248, 23.03223
1052.353, 86.03906
1053.459, 42.51660
1054.564, 22.99902
1055.670, 113.4756
1056.775, 19.98730
1057.880, 46.49512
1058.985, 135.9941
1060.089, 17.45801
1061.194, 6.935547
1062.298, 4.577148
1063.402, 85.08008
1064.506, 103.6094
1065.610, 99.38379
1066.713, 4.227539
1067.817, 17.36328
1068.920, 55.95020
1070.023, 92.44922
1071.126, 8.137695
1072.229, 159.7207
1073.332, 12.37109
1074.435, 55.98047
1075.537, 87.34277
1076.639, 15.71680
1077.741, 144.0986
1078.843, 25.49023
1079.945, 102.8896
1081.046, 42.29590
1082.148, 15.70996
1083.249, 137.1299
1084.350, 132.5586
1085.451, 137.9932
1086.551, 75.43359
1087.652, 146.8818
1088.752, 139.3359
1089.853, 181.7949
1090.953, 149.2588
1092.053, 102.7275
1093.152, 178.2012
1094.252, 198.6797
1095.351, 246.1611
1096.451, 275.6475
1097.550, 298.1367
1098.649, 278.6299
1099.748, 293.4756
1100.846, 279.6260
1101.945, 271.1279
1103.043, 248.6318
1104.141, 205.1426
1105.239, 218.6484
1106.337, 159.1562
1107.434, 316.6631
1108.532, 289.3613
1109.629, 292.8682
1110.726, 261.5059
1111.823, 171.0107
1112.920, 456.5693
1114.017, 346.5566
1115.113, 511.1826
1116.210, 390.6807
1117.306, 468.1777
1118.402, 618.8535
1119.498, 687.3447
1120.593, 715.9717
1121.689, 738.0605
1122.784, 722.5498
1123.879, 726.0576
1124.974, 673.0889
1126.069, 677.5801
1127.164, 584.8135
1128.259, 494.8252
1129.353, 334.2744
1130.447, 360.1475
1131.541, 194.7715
1132.635, 195.3105
1133.729, 226.9355
1134.822, 271.2979
1135.916, 211.7549
1137.009, 178.3760
1138.102, 193.4639
1139.195, 23.86133
1140.288, 326.7500
1141.380, 39.11133
1142.473, 100.4639
1143.565, 197.0195
1144.657, 25.58008
1145.749, 14.83008
1146.841, 100.9170
1147.932, 96.61133
1149.024, 229.2266
1150.115, 266.0127
1151.206, 178.1523
1152.297, 115.7070
1153.388, 170.0879
1154.479, 3.100586
1155.569, 68.29004
1156.659, 140.8955
1157.750, 58.21094
1158.839, 13.40332
1159.929, 26.76270
1161.019, 88.99414
1162.108, 87.18066
1163.198, 109.3945
1164.287, 224.3506
1165.376, 95.39453
1166.465, 108.8115
1167.553, 24.64941
1168.642, 183.6230
1169.730, 133.9033
1170.818, 166.6738
1171.906, 58.04688
1172.994, 106.3311
1174.082, 160.7344
1175.170, 197.0664
1176.257, 149.2100
1177.344, 187.5068
1178.431, 195.2354
1179.518, 197.2188
1180.605, 233.8535
1181.691, 213.3838
1182.778, 265.2939
1183.864, 244.5254
1184.950, 192.6758
1186.036, 184.7881
1187.122, 230.2939
1188.207, 269.3369
1189.292, 297.0205
1190.378, 282.8701
1191.463, 321.3057
1192.548, 218.1816
1193.632, 265.9717
1194.717, 183.6191
1195.801, 223.1055
1196.886, 98.85254
1197.970, 222.4609
1199.054, 212.8643
1200.137, 143.0127
1201.221, 118.2441
1202.305, 254.9600
1203.388, 260.7666
1204.471, 336.0029
1205.554, 406.0332
1206.637, 259.9424
1207.719, 303.4248
1208.802, 251.0742
1209.884, 185.5264
1210.966, 341.9639
1212.048, 225.3857
1213.130, 311.8027
1214.212, 271.2041
1215.293, 280.7168
1216.374, 266.0869
1217.456, 238.6660
1218.536, 244.0049
1219.617, 223.2285
1220.698, 209.9727
1221.778, 218.9229
1222.859, 196.1963
1223.939, 235.5020
1225.019, 264.7422
1226.099, 216.1309
1227.178, 238.3467
1228.258, 220.5459
1229.337, 242.1387
1230.417, 202.4092
1231.496, 222.8184
1232.574, 290.9551
1233.653, 104.2080
1234.732, 219.3096
1235.810, 145.3945
1236.888, 238.4619
1237.966, 63.67090
1239.044, 253.7021
1240.122, 79.71484
1241.199, 161.7090
1242.277, 99.68652
1243.354, 38.64551
1244.431, 84.58105
1245.508, 201.4980
1246.585, 147.3975
1247.661, 73.27930
1248.738, 198.1406
1249.814, 6.015625
1250.890, 45.20898
1251.966, 117.5391
1253.042, 39.26855
1254.117, 52.02344
1255.193, 17.67480
1256.268, 0.2929690
1257.343, 39.87500
1258.418, 128.4355
1259.493, 10.02344
1260.567, 80.49023
1261.642, 99.97070
1262.716, 78.43359
1263.790, 18.12402
1264.864, 116.2744
1265.938, 75.65430
1267.011, 34.01172
1268.085, 126.3457
1269.158, 45.10547
1270.231, 143.3965
1271.304, 194.5518
1272.377, 12.80664
1273.450, 77.03125
1274.522, 22.70996
1275.594, 16.42188
1276.666, 26.28809
1277.738, 41.17188
1278.810, 3.827148
1279.882, 2.175781
1280.953, 8.785156
1282.025, 96.71680
1283.096, 28.62695
1284.167, 139.1309
1285.238, 50.99902
1286.308, 95.11133
1287.379, 120.8320
1288.449, 72.72754
1289.519, 96.25293
1290.589, 104.0195
1291.659, 112.7686
1292.729, 28.50293
1293.798, 188.2139
1294.868, 53.90527
1295.937, 151.5801
1297.006, 117.2725
1298.075, 111.2979
