##NAMES=Andradite
##RRUFFID=R060350
##IDEAL CHEMISTRY=Ca_3_Fe^3+^_2_(SiO_4_)_3_
##LOCALITY=south of the Gem mine, southern San Benito County, California, USA
##OWNER=RRUFF
##SOURCE=Michael Scott
##DESCRIPTION=Cluster of black vitreous crystals showing well-developed faces
##STATUS=The identification of this mineral has been confirmed by X-ray diffraction and chemical analysis
##URL=rruff.info/R060350
##MEASURED CHEMISTRY=(Ca_2.93_Mg_0.07_)_Σ=3_(Fe^3+^_1.18_Ti_0.77_Al_0.05_)_Σ=2_((Si_0.74_Fe^3+^_0.26_)_Σ=1_O_4_)_3_ ; trace amounts of Mn
##PIN_ID=M00067
##ORIENTATION=Laser parallel to a* (1 0 0). Fiducial mark perpendicular to laser is parallel to c [0 0 1]
114.4400, 0.0000000E+00
115.6710, 540.6436
116.9030, 993.1895
118.1340, 553.9277
119.3650, 183.8730
120.5960, 19.02832
121.8270, 38.38379
123.0580, 174.5781
124.2880, 6.377930
125.5190, 232.1709
126.7490, 7.291992
127.9790, 213.4492
129.2090, 648.3779
130.4390, 871.5732
131.6680, 1172.307
132.8980, 1158.009
134.1270, 1162.261
135.3560, 1311.733
136.5850, 1629.171
137.8140, 2087.364
139.0430, 2811.152
140.2710, 3374.401
141.5000, 3136.224
142.7280, 2692.781
143.9560, 2184.506
145.1840, 1678.113
146.4120, 1536.962
147.6390, 1314.121
148.8670, 982.6455
150.0940, 850.5811
151.3210, 710.9648
152.5490, 909.7959
153.7750, 1042.055
155.0020, 955.7305
156.2290, 975.8203
157.4550, 943.3242
158.6810, 1113.246
159.9080, 1088.586
161.1340, 1571.352
162.3590, 2006.547
163.5850, 2789.178
164.8110, 3750.253
166.0360, 4651.781
167.2610, 4946.762
168.4860, 5239.646
169.7110, 5078.719
170.9360, 5301.252
172.1610, 4761.523
173.3850, 4230.998
174.6100, 3860.444
175.8340, 3629.946
177.0580, 3370.060
178.2820, 3355.773
179.5050, 3184.082
180.7290, 3068.962
181.9520, 2948.401
183.1760, 2866.395
184.3990, 3074.941
185.6220, 3196.037
186.8450, 3326.072
188.0670, 3518.141
189.2900, 3681.997
190.5120, 3861.377
191.7340, 4010.896
192.9560, 4166.628
194.1780, 4339.588
195.4000, 4274.803
196.6220, 4253.288
197.8430, 3885.057
199.0640, 3671.117
200.2860, 3733.480
201.5070, 3954.151
202.7270, 4379.138
203.9480, 4208.443
205.1690, 2429.070
206.3890, 983.0195
207.6090, 428.2959
208.8290, 362.8994
210.0490, 135.8320
211.2690, 355.1250
212.4890, 295.7852
213.7080, 224.8398
214.9280, 387.3057
216.1470, 309.1416
217.3660, 93.29004
218.5850, 599.7490
219.8030, 167.5166
221.0220, 128.4014
222.2400, 780.9922
223.4590, 158.3008
224.6770, 354.2783
225.8950, 175.9375
227.1120, 214.2695
228.3300, 435.2725
229.5480, 416.9395
230.7650, 450.2666
231.9820, 224.2510
233.1990, 223.8887
234.4160, 28.81934
235.6330, 73.64258
236.8490, 77.26953
238.0660, 127.0098
239.2820, 377.0908
240.4980, 239.5098
241.7140, 476.2324
242.9300, 580.1953
244.1460, 622.3711
245.3610, 652.6680
246.5770, 512.0850
247.7920, 925.7607
249.0070, 823.7793
250.2220, 1088.145
251.4370, 1327.854
252.6510, 1305.912
253.8660, 1580.320
255.0800, 1579.082
256.2940, 1740.203
257.5080, 1800.686
258.7220, 2160.534
259.9360, 2974.751
261.1490, 3479.739
262.3630, 2579.233
263.5760, 1900.100
264.7890, 1896.100
266.0020, 1989.671
267.2150, 1711.260
268.4270, 1604.978
269.6400, 1490.226
270.8520, 1473.589
272.0640, 1495.814
273.2760, 1441.868
274.4880, 1299.473
275.7000, 1430.005
276.9120, 1362.934
278.1230, 1376.246
279.3340, 1438.928
280.5450, 1491.967
281.7560, 1450.355
282.9670, 1670.084
284.1780, 1658.146
285.3880, 1818.533
286.5980, 2063.242
287.8090, 1976.266
289.0190, 2246.584
290.2290, 2412.178
291.4380, 2693.037
292.6480, 2755.162
293.8570, 2910.552
295.0670, 2972.207
296.2760, 3007.121
297.4850, 3181.298
298.6930, 3450.733
299.9020, 3648.428
301.1110, 3947.377
302.3190, 4231.699
303.5270, 4712.037
304.7350, 4900.748
305.9430, 5349.975
307.1510, 5806.990
308.3580, 6159.083
309.5660, 6723.482
310.7730, 7264.678
311.9800, 8051.032
313.1870, 8742.952
314.3940, 9600.306
315.6010, 10072.05
316.8070, 10870.87
318.0130, 11781.65
319.2200, 12943.46
320.4260, 14013.46
321.6310, 15176.70
322.8370, 16494.19
324.0430, 18109.48
325.2480, 20114.88
326.4540, 21844.07
327.6590, 23720.50
328.8640, 26054.16
330.0680, 27992.06
331.2730, 30299.21
332.4780, 32183.60
333.6820, 34222.28
334.8860, 35846.30
336.0900, 37332.29
337.2940, 38685.32
338.4980, 39505.32
339.7010, 40552.64
340.9050, 40642.31
342.1080, 41600.33
343.3110, 41292.65
344.5140, 41839.30
345.7170, 42200.28
346.9200, 42614.58
348.1220, 43127.18
349.3240, 43397.01
350.5270, 44325.13
351.7290, 44885.49
352.9310, 45181.05
354.1320, 45485.82
355.3340, 45807.80
356.5350, 45870.97
357.7370, 45204.36
358.9380, 44205.94
360.1390, 43204.71
361.3400, 41912.69
362.5400, 41222.87
363.7410, 39430.22
364.9410, 37834.79
366.1410, 36199.38
367.3410, 35177.32
368.5410, 33189.50
369.7410, 31821.52
370.9400, 30367.66
372.1400, 28733.91
373.3390, 26985.70
374.5380, 25418.45
375.7370, 24049.24
376.9360, 22530.17
378.1350, 21229.36
379.3330, 19993.28
380.5310, 18848.42
381.7300, 17661.32
382.9280, 16532.84
384.1260, 15438.25
385.3230, 14311.38
386.5210, 13267.80
387.7180, 12166.52
388.9160, 11264.55
390.1130, 10181.93
391.3100, 9573.659
392.5060, 8548.744
393.7030, 7893.162
394.9000, 7180.948
396.0960, 6485.090
397.2920, 6045.607
398.4880, 5484.464
399.6840, 4831.652
400.8800, 4234.156
402.0750, 4117.997
403.2710, 3534.153
404.4660, 3273.626
405.6610, 3035.456
406.8560, 2817.626
408.0510, 2600.115
409.2450, 2477.127
410.4400, 2521.968
411.6340, 2307.272
412.8280, 2208.806
414.0220, 2206.525
415.2160, 2070.424
416.4100, 2005.492
417.6030, 1930.729
418.7970, 1939.133
419.9900, 1937.700
421.1830, 2010.428
422.3760, 1796.314
423.5690, 1855.356
424.7610, 1669.554
425.9540, 1909.904
427.1460, 1730.402
428.3380, 1789.051
429.5300, 1634.844
430.7220, 1838.782
431.9140, 1676.861
433.1050, 1832.083
434.2970, 1824.441
435.4880, 1670.937
436.6790, 1657.566
437.8700, 1636.330
439.0610, 1503.225
440.2510, 1372.789
441.4420, 1105.402
442.6320, 924.6807
443.8220, 616.0840
445.0120, 228.6094
446.2020, 209.2568
447.3910, 81.02246
448.5810, 105.0947
449.7700, 73.10938
450.9600, 59.02051
452.1490, 129.8281
453.3370, 102.5420
454.5260, 245.1631
455.7150, 169.7168
456.9030, 130.1904
458.0910, 147.5791
459.2800, 199.1143
460.4670, 139.9082
461.6550, 527.8047
462.8430, 820.8018
464.0300, 945.8984
465.2180, 1266.092
466.4050, 1605.382
467.5920, 1882.767
468.7790, 2254.243
469.9650, 2448.811
471.1520, 2843.467
472.3380, 3397.414
473.5250, 3651.443
474.7110, 4071.486
475.8970, 4577.672
477.0820, 5068.206
478.2680, 5707.371
479.4540, 6137.246
480.6390, 6846.234
481.8240, 7465.750
483.0090, 8067.260
484.1940, 8521.653
485.3780, 8944.379
486.5630, 9374.644
487.7470, 9406.950
488.9320, 9253.111
490.1160, 8935.029
491.3000, 8816.032
492.4830, 8463.477
493.6670, 8200.041
494.8500, 8237.227
496.0340, 8444.147
497.2170, 8832.105
498.4000, 9560.161
499.5820, 10577.11
500.7650, 11621.15
501.9480, 12912.22
503.1300, 14457.31
504.3120, 15772.42
505.4940, 16682.56
506.6760, 17498.72
507.8580, 17973.90
509.0390, 18335.11
510.2210, 17877.33
511.4020, 17541.59
512.5830, 17165.90
513.7640, 16523.94
514.9450, 15919.33
516.1250, 15257.54
517.3060, 14662.84
518.4860, 13978.11
519.6660, 13389.24
520.8460, 12861.31
522.0260, 12752.81
523.2060, 12363.78
524.3850, 11725.84
525.5650, 11699.70
526.7440, 11294.29
527.9230, 11229.73
529.1020, 10799.17
530.2810, 10825.95
531.4590, 10549.79
532.6380, 10168.80
533.8160, 10203.56
534.9940, 10010.29
536.1720, 10002.66
537.3500, 9803.353
538.5270, 9537.806
539.7050, 9396.985
540.8820, 9299.421
542.0590, 8978.629
543.2360, 8725.342
544.4130, 8345.155
545.5900, 8010.049
546.7660, 7509.893
547.9430, 7373.823
549.1190, 6863.342
550.2950, 6414.408
551.4710, 6115.262
552.6470, 5662.846
553.8220, 5371.014
554.9980, 4546.959
556.1730, 4255.283
557.3480, 3664.430
558.5230, 3234.483
559.6980, 2868.442
560.8730, 2470.305
562.0470, 2170.071
563.2220, 1921.988
564.3960, 1729.308
565.5700, 1599.776
566.7440, 1545.144
567.9170, 1578.408
569.0910, 1665.509
570.2640, 1811.846
571.4380, 2038.577
572.6110, 2253.422
573.7840, 2547.160
574.9570, 2821.789
576.1290, 3224.309
577.3020, 3452.719
578.4740, 3651.018
579.6460, 3713.206
580.8180, 3717.281
581.9900, 3565.241
583.1620, 3578.087
584.3330, 3374.819
585.5040, 3248.434
586.6760, 3184.933
587.8470, 2990.313
589.0180, 3019.574
590.1880, 2852.453
591.3590, 2660.668
592.5290, 2517.937
593.7000, 2482.020
594.8700, 2246.433
596.0400, 2094.803
597.2090, 2088.727
598.3790, 1817.293
599.5490, 1770.415
600.7180, 1589.460
601.8870, 1462.381
603.0560, 1384.177
604.2250, 1254.847
605.3940, 950.3887
606.5620, 935.8057
607.7300, 744.0957
608.8990, 572.2578
610.0670, 473.2910
611.2350, 390.1943
612.4020, 287.9697
613.5700, 174.5771
614.7370, 151.0742
615.9050, 65.69629
617.0720, 116.6357
618.2390, 235.9482
619.4060, 149.6377
620.5720, 133.6611
621.7390, 220.0098
622.9050, 154.7295
624.0710, 326.7871
625.2370, 58.27246
626.4030, 229.0439
627.5690, 211.1914
628.7340, 112.7061
629.9000, 92.53418
631.0650, 109.3340
632.2300, 4.995117
633.3950, 119.4199
634.5600, 318.6416
635.7240, 395.7275
636.8890, 410.6855
638.0530, 432.5176
639.2170, 602.2227
640.3810, 669.8018
641.5450, 625.2559
642.7080, 666.5850
643.8720, 635.7910
645.0350, 643.8721
646.1980, 636.4023
647.3610, 647.6680
648.5240, 603.3838
649.6870, 458.9775
650.8490, 421.4521
652.0120, 430.8057
653.1740, 282.0381
654.3360, 257.1396
655.4980, 180.1045
656.6600, 144.9150
657.8210, 117.3027
658.9830, 71.76562
660.1440, 71.31738
661.3050, 9.407227
662.4660, 15.72559
663.6270, 51.08984
664.7870, 97.70703
665.9480, 159.3975
667.1080, 302.7930
668.2680, 321.3682
669.4280, 377.3301
670.5880, 492.7070
671.7480, 514.5557
672.9070, 561.8779
674.0670, 469.7256
675.2260, 627.0186
676.3850, 588.8467
677.5440, 653.1875
678.7030, 558.0713
679.8610, 519.4463
681.0200, 473.2900
682.1780, 566.5732
683.3360, 494.3438
684.4940, 517.5586
685.6520, 475.2275
686.8090, 435.3262
687.9670, 355.8262
689.1240, 307.6836
690.2810, 199.8721
691.4380, 75.32812
692.5950, 75.98242
693.7520, 66.16699
694.9080, 182.1973
696.0650, 357.1289
697.2210, 428.9678
698.3770, 428.7148
699.5330, 489.3721
700.6880, 712.9385
701.8440, 724.4160
702.9990, 918.8066
704.1550, 1041.110
705.3100, 1121.332
706.4650, 1140.468
707.6190, 1272.521
708.7740, 1188.494
709.9290, 1217.387
711.0830, 1314.201
712.2370, 1333.938
713.3910, 1291.598
714.5450, 1404.184
715.6980, 1442.696
716.8520, 1562.135
718.0050, 1595.503
719.1580, 1672.803
720.3110, 1831.032
721.4640, 1794.195
722.6170, 1879.294
723.7700, 2079.326
724.9220, 2283.296
726.0740, 2465.204
727.2260, 2673.053
728.3780, 2864.842
729.5300, 3071.580
730.6810, 3238.268
731.8330, 3613.902
732.9840, 3793.494
734.1350, 4281.041
735.2860, 4432.559
736.4370, 4799.039
737.5880, 4903.479
738.7380, 5240.885
739.8880, 5753.246
741.0390, 6176.564
742.1890, 6508.840
743.3380, 7061.072
744.4880, 7372.267
745.6380, 8071.422
746.7870, 8473.543
747.9360, 8850.629
749.0850, 9257.681
750.2340, 9691.698
751.3830, 9927.483
752.5310, 10334.24
753.6800, 10492.04
754.8280, 10672.76
755.9760, 10814.18
757.1240, 10666.04
758.2720, 10708.25
759.4190, 10791.43
760.5670, 10747.19
761.7140, 10410.07
762.8610, 10497.22
764.0080, 10735.29
765.1550, 10648.74
766.3020, 10995.43
767.4480, 11309.44
768.5950, 11688.87
769.7410, 11956.39
770.8870, 12439.62
772.0330, 12726.92
773.1780, 13376.78
774.3240, 13711.03
775.4690, 14363.42
776.6140, 14936.95
777.7590, 15687.64
778.9040, 16309.46
780.0490, 16932.42
781.1940, 17519.49
782.3380, 18454.72
783.4820, 19332.07
784.6260, 19841.54
785.7700, 20891.12
786.9140, 21599.78
788.0580, 22420.56
789.2010, 23737.43
790.3450, 24624.39
791.4880, 25493.77
792.6310, 26703.92
793.7730, 27895.40
794.9160, 29318.97
796.0590, 30275.71
797.2010, 31892.72
798.3430, 33081.87
799.4850, 34326.70
800.6270, 35350.17
801.7690, 36772.62
802.9100, 38113.32
804.0520, 39524.37
805.1930, 40809.62
806.3340, 42157.92
807.4750, 43286.93
808.6160, 44408.96
809.7560, 45492.91
810.8970, 46540.04
812.0370, 47455.29
813.1770, 48240.97
814.3170, 48952.34
815.4570, 49516.02
816.5960, 49953.01
817.7360, 50344.79
818.8750, 50795.84
820.0140, 50864.53
821.1530, 50883.97
822.2920, 50813.47
823.4310, 50573.05
824.5690, 50260.61
825.7070, 49532.61
826.8460, 49052.11
827.9840, 48379.86
829.1220, 47575.93
830.2590, 47036.45
831.3970, 46606.23
832.5340, 45844.68
833.6710, 45498.34
834.8080, 44958.14
835.9450, 44392.07
837.0820, 44233.14
838.2190, 43888.34
839.3550, 43221.68
840.4910, 42603.17
841.6270, 42352.78
842.7630, 42001.54
843.8990, 41764.43
845.0350, 41333.46
846.1700, 41052.65
847.3060, 41035.56
848.4410, 40992.84
849.5760, 41150.05
850.7100, 41318.79
851.8450, 41520.70
852.9800, 41808.74
854.1140, 41980.94
855.2480, 42123.29
856.3820, 42422.77
857.5160, 42472.40
858.6500, 42885.19
859.7830, 43026.12
860.9170, 43284.21
862.0500, 43383.45
863.1830, 43964.84
864.3160, 43988.39
865.4480, 44247.09
866.5810, 44323.94
867.7130, 44855.94
868.8460, 44853.11
869.9780, 44779.43
871.1100, 45272.92
872.2410, 44696.55
873.3730, 44686.36
874.5050, 44950.31
875.6360, 44811.44
876.7670, 44254.72
877.8980, 43900.17
879.0290, 43078.76
880.1590, 42658.52
881.2900, 41837.44
882.4200, 41317.53
883.5500, 40036.77
884.6800, 38926.18
885.8100, 37721.74
886.9400, 36117.48
888.0690, 34615.39
889.1990, 32676.46
890.3280, 31029.72
891.4570, 29385.23
892.5860, 27378.58
893.7140, 25925.65
894.8430, 23943.42
895.9710, 22823.47
897.1000, 21198.55
898.2280, 19874.38
899.3560, 18693.32
900.4830, 17653.06
901.6110, 16612.52
902.7380, 15693.15
903.8660, 14824.97
904.9930, 13804.95
906.1200, 13339.76
907.2460, 12463.22
908.3730, 11994.27
909.5000, 11261.41
910.6260, 10820.72
911.7520, 10311.18
912.8780, 9892.737
914.0040, 9433.247
915.1290, 9339.535
916.2550, 8790.487
917.3800, 8551.077
918.5050, 8559.054
919.6300, 8207.277
920.7550, 7937.307
921.8800, 7812.894
923.0040, 7725.701
924.1290, 7534.001
925.2530, 7394.698
926.3770, 7383.754
927.5010, 7223.691
928.6250, 7100.225
929.7480, 6919.715
930.8720, 7112.199
931.9950, 6489.867
933.1180, 6627.178
934.2410, 6380.101
935.3640, 6033.065
936.4860, 5952.195
937.6090, 5804.826
938.7310, 5484.572
939.8530, 5409.286
940.9750, 5272.053
942.0970, 5079.766
943.2180, 4881.873
944.3400, 4796.021
945.4610, 4573.512
946.5820, 4326.248
947.7030, 4474.348
948.8240, 4223.665
949.9450, 4129.285
951.0650, 4217.219
952.1860, 4174.439
953.3060, 3991.942
954.4260, 4099.708
955.5460, 4261.760
956.6650, 4107.077
957.7850, 4062.668
958.9040, 4049.516
960.0230, 4179.608
961.1420, 4205.920
962.2610, 4345.438
963.3800, 4370.127
964.4990, 4481.954
965.6170, 4425.918
966.7350, 4617.979
967.8530, 4536.135
968.9710, 4762.375
970.0890, 4596.701
971.2070, 4742.121
972.3240, 4723.621
973.4410, 4554.233
974.5580, 4697.930
975.6750, 4561.725
976.7920, 4539.611
977.9090, 4528.575
979.0250, 4408.625
980.1410, 4298.767
981.2580, 4257.982
982.3740, 4380.299
983.4890, 4194.686
984.6050, 4135.146
985.7200, 4010.691
986.8360, 3897.303
987.9510, 3866.992
989.0660, 3797.753
990.1810, 3677.587
991.2950, 3459.482
992.4100, 3295.455
993.5240, 3040.521
994.6390, 2771.645
995.7530, 2487.839
996.8660, 2253.101
997.9800, 2014.619
999.0940, 1899.988
1000.207, 1775.450
1001.320, 1775.082
1002.433, 1927.670
1003.546, 2458.147
1004.659, 2701.617
1005.772, 3182.545
1006.884, 3683.871
1007.996, 4209.662
1009.108, 4623.367
1010.220, 5000.029
1011.332, 5204.336
1012.444, 5222.898
1013.555, 4724.252
1014.666, 4420.849
1015.777, 3899.431
1016.888, 3376.550
1017.999, 2832.224
1019.110, 2056.708
1020.220, 1651.365
1021.331, 1030.860
1022.441, 893.4023
1023.551, 583.8594
1024.661, 151.6738
1025.770, 76.03027
1026.880, 48.78223
1027.989, 130.5391
1029.098, 276.0176
1030.207, 330.9141
1031.316, 362.7090
1032.425, 399.9023
1033.533, 417.2363
1034.642, 448.8125
1035.750, 487.6123
1036.858, 463.6602
1037.966, 503.1318
1039.073, 395.1348
1040.181, 490.9092
1041.288, 458.7686
1042.396, 340.0713
1043.503, 397.5771
1044.610, 439.3184
1045.716, 480.3213
1046.823, 391.6104
1047.929, 348.1475
1049.036, 318.9131
1050.142, 416.8975
1051.248, 287.9121
1052.353, 268.3740
1053.459, 226.0371
1054.564, 147.8828
1055.670, 223.8740
1056.775, 129.0576
1057.880, 112.3838
1058.985, 190.8496
1060.089, 70.49707
1061.194, 104.9414
1062.298, 129.1885
1063.402, 74.27148
1064.506, 22.49121
1065.610, 6.175781
1066.713, 76.25879
1067.817, 53.84473
1068.920, 14.43066
1070.023, 87.59570
1071.126, 95.38477
1072.229, 83.93164
1073.332, 150.8613
1074.435, 106.7725
1075.537, 173.9648
1076.639, 251.0889
1077.741, 237.2139
1078.843, 368.2041
1079.945, 247.9570
1081.046, 286.5557
1082.148, 324.5381
1083.249, 376.8818
1084.350, 568.4268
1085.451, 743.7988
1086.551, 574.4326
1087.652, 543.0918
1088.752, 446.9434
1089.853, 372.3926
1090.953, 481.3564
1092.053, 432.0312
1093.152, 404.2363
1094.252, 484.5713
1095.351, 573.5879
1096.451, 593.6602
1097.550, 528.6631
1098.649, 580.6094
1099.748, 555.7920
1100.846, 619.9502
1101.945, 625.5352
1103.043, 652.2070
1104.141, 599.5127
1105.239, 587.5596
1106.337, 513.5449
1107.434, 609.4189
1108.532, 614.6592
1109.629, 585.5244
1110.726, 632.8750
1111.823, 655.1650
1112.920, 628.6230
1114.017, 621.3184
1115.113, 677.2207
1116.210, 646.1328
1117.306, 743.4414
1118.402, 742.1650
1119.498, 701.9141
1120.593, 829.9053
1121.689, 872.6074
1122.784, 840.7012
1123.879, 828.5107
1124.974, 812.5840
1126.069, 837.1201
1127.164, 795.0537
1128.259, 794.4404
1129.353, 658.0879
1130.447, 760.8682
1131.541, 711.8613
1132.635, 690.3516
1133.729, 537.9922
1134.822, 567.7295
1135.916, 580.1211
1137.009, 707.6494
1138.102, 628.7383
1139.195, 581.2314
1140.288, 601.4863
1141.380, 616.5293
1142.473, 700.3359
1143.565, 652.8721
1144.657, 720.6963
1145.749, 676.0361
1146.841, 695.9629
1147.932, 620.0391
1149.024, 697.9199
1150.115, 753.5225
1151.206, 723.1045
1152.297, 771.5137
1153.388, 769.8877
1154.479, 800.5850
1155.569, 723.6758
1156.659, 855.4102
1157.750, 877.0449
1158.839, 895.4004
1159.929, 795.8213
1161.019, 913.2627
1162.108, 797.6582
1163.198, 884.2432
1164.287, 817.3066
1165.376, 936.8252
1166.465, 798.5645
1167.553, 809.1631
1168.642, 660.4766
1169.730, 833.7119
1170.818, 730.7051
1171.906, 640.9189
1172.994, 768.8496
1174.082, 784.2178
1175.170, 812.7773
1176.257, 654.2100
1177.344, 639.8438
1178.431, 720.8428
1179.518, 722.0332
1180.605, 772.5791
1181.691, 443.9180
1182.778, 596.9990
1183.864, 487.8604
1184.950, 627.1045
1186.036, 581.1074
1187.122, 559.9961
1188.207, 664.5996
1189.292, 540.7959
1190.378, 459.9131
1191.463, 466.9766
1192.548, 470.1465
1193.632, 426.4326
1194.717, 453.7578
1195.801, 446.0869
1196.886, 385.6445
1197.970, 425.6426
1199.054, 434.8984
1200.137, 361.8223
1201.221, 384.3232
1202.305, 292.7969
1203.388, 379.5576
1204.471, 338.2578
1205.554, 250.1523
1206.637, 252.8115
1207.719, 239.6133
1208.802, 258.2607
1209.884, 300.8662
1210.966, 323.2842
1212.048, 216.6982
1213.130, 367.0137
1214.212, 290.2412
1215.293, 124.3975
1216.374, 235.5059
1217.456, 212.5820
1218.536, 160.4189
1219.617, 95.17090
1220.698, 128.3740
1221.778, 167.3047
1222.859, 198.7207
1223.939, 176.0400
1225.019, 231.2598
1226.099, 197.3848
1227.178, 192.4111
1228.258, 184.3750
1229.337, 65.17480
1230.417, 128.8984
1231.496, 84.52148
1232.574, 38.04004
1233.653, 88.44336
1234.732, 42.25684
1235.810, 46.88867
1236.888, 12.07617
1237.966, 11.81934
1239.044, 80.58887
1240.122, 23.25879
1241.199, 12.18848
1242.277, 84.22852
1243.354, 55.45312
1244.431, 113.7090
1245.508, 41.77637
1246.585, 9.263672
1247.661, 93.56836
1248.738, 10.30371
1249.814, 21.92285
1250.890, 5.431641
1251.966, 108.8232
1253.042, 17.87695
1254.117, 88.70508
1255.193, 129.3037
1256.268, 12.77637
1257.343, 6.979492
1258.418, 70.70215
1259.493, 50.08789
1260.567, 30.58301
1261.642, 48.94336
1262.716, 10.90723
1263.790, 31.76758
1264.864, 26.42383
1265.938, 3.424805
1267.011, 24.21973
1268.085, 25.58496
1269.158, 61.08789
1270.231, 67.80078
1271.304, 77.51172
1272.377, 91.53125
1273.450, 19.75195
1274.522, 54.11133
1275.594, 11.31738
1276.666, 20.21094
1277.738, 76.14746
1278.810, 96.47949
1279.882, 73.94824
1280.953, 75.19238
1282.025, 60.54395
1283.096, 8.794922
1284.167, 56.07422
1285.238, 91.93945
