##NAMES=Anglesite
##RRUFFID=R050052
##IDEAL CHEMISTRY=Pb^2+^S^6+^O_4_
##LOCALITY=Touissite, Oujela, Morocco
##OWNER=RRUFF
##SOURCE=Eugene Schlepp
##DESCRIPTION=Yellow prismatic single crystal
##STATUS=The identification of this mineral has been confirmed by X-ray diffraction and chemical analysis
##URL=rruff.info/R050052
##MEASURED CHEMISTRY=Pb_1.00_S_1.00_O_4_
##PIN_ID=L00248
##ORIENTATION=Laser parallel to c* (0 0 1). Fiducial mark perpendicular to laser is parallel to a [1 0 0]
46.637, 0.000
48.043, 31.077
49.450, 50.478
50.856, 61.188
52.261, 75.015
53.667, 111.793
55.072, 125.470
56.477, 128.859
57.882, 132.837
59.287, 130.458
60.691, 151.076
62.095, 165.718
63.499, 171.039
64.903, 150.301
66.306, 118.465
67.709, 81.216
69.112, 63.097
70.515, 47.096
71.917, 45.204
73.319, 1.408
74.721, 3.302
76.123, 1.069
77.525, 21.485
78.926, 18.969
80.327, 3.612
81.728, 21.255
83.128, 37.957
84.529, 89.716
85.929, 102.532
87.329, 186.402
88.728, 234.321
90.128, 330.286
91.527, 486.295
92.926, 643.344
94.324, 896.427
95.723, 1021.540
97.121, 1277.674
98.519, 1273.829
99.917, 1233.000
101.314, 1239.190
102.712, 1074.403
104.109, 1156.640
105.505, 1022.904
106.902, 1067.198
108.298, 1038.516
109.694, 1037.853
111.090, 1074.209
112.486, 1078.587
113.881, 1204.992
115.277, 1191.414
116.672, 1339.860
118.066, 1348.324
119.461, 1537.811
120.855, 1714.343
122.249, 1802.913
123.643, 2129.505
125.036, 2213.108
126.430, 2565.738
127.823, 2683.380
129.216, 3039.013
130.608, 3327.643
132.001, 3438.298
133.393, 3703.977
134.785, 3530.673
136.176, 3730.372
137.568, 3366.069
138.959, 3205.752
140.350, 2999.416
141.741, 2599.060
143.131, 2497.678
144.521, 2208.254
145.911, 2233.777
147.301, 2114.237
148.691, 2138.841
150.080, 2148.292
151.469, 2098.761
152.858, 2194.283
154.247, 1910.857
155.635, 1886.467
157.024, 1651.164
158.411, 1447.851
159.799, 1331.541
161.187, 1179.300
162.574, 1148.131
163.961, 953.977
165.348, 975.873
166.734, 903.943
168.121, 868.696
169.507, 885.462
170.893, 797.067
172.278, 786.073
173.664, 725.782
175.049, 724.461
176.434, 666.176
177.819, 663.435
179.203, 686.193
180.587, 603.438
181.971, 627.038
183.355, 572.864
184.739, 597.900
186.122, 542.803
187.505, 544.438
188.888, 527.707
190.271, 491.866
191.653, 499.470
193.035, 443.744
194.417, 435.842
195.799, 431.375
197.180, 409.091
198.562, 395.254
199.943, 344.635
201.324, 369.282
202.704, 316.106
204.084, 349.658
205.465, 307.017
206.844, 295.373
208.224, 316.066
209.603, 272.213
210.983, 279.571
212.362, 234.686
213.740, 265.251
215.119, 269.697
216.497, 234.117
217.875, 256.349
219.253, 226.044
220.631, 206.132
222.008, 199.087
223.385, 228.999
224.762, 182.730
226.139, 155.354
227.515, 198.773
228.891, 165.021
230.267, 171.143
231.643, 163.238
233.018, 153.309
234.394, 157.237
235.769, 126.101
237.144, 118.852
238.518, 104.604
239.893, 121.675
241.267, 103.505
242.641, 96.649
244.014, 98.424
245.388, 79.396
246.761, 102.718
248.134, 65.341
249.507, 48.129
250.879, 73.178
252.252, 64.284
253.624, 79.390
254.996, 59.494
256.367, 64.596
257.739, 52.695
259.110, 53.791
260.481, 52.884
261.852, 47.974
263.222, 50.060
264.592, 33.142
265.962, 48.220
267.332, 52.295
268.702, 27.365
270.071, 51.431
271.440, 24.493
272.809, 41.550
274.178, 19.602
275.546, 18.649
276.915, 26.691
278.283, 18.727
279.650, 20.451
281.018, 9.783
282.385, 16.802
283.752, 3.816
285.119, 1.822
286.486, 17.822
287.852, 24.816
289.218, 25.803
290.584, 10.783
291.950, 32.756
293.316, 28.723
294.681, 1.317
296.046, 10.635
297.411, 18.579
298.775, 16.517
300.140, 19.468
301.504, 17.370
302.868, 18.285
304.231, 8.194
305.595, 16.094
306.958, 7.012
308.321, 10.872
309.684, 2.749
311.047, 7.381
312.409, 12.481
313.771, 11.335
315.133, 19.182
316.495, 1.023
317.856, 0.144
319.217, 5.318
320.578, 6.498
321.939, 2.693
323.299, 1.107
324.660, 0.899
326.020, 10.682
327.380, 0.457
328.739, 8.777
330.099, 7.022
331.458, 5.721
332.817, 14.456
334.176, 2.818
335.534, 12.100
336.892, 13.395
338.251, 6.702
339.608, 2.019
340.966, 7.614
342.323, 8.683
343.681, 14.033
345.037, 5.397
346.394, 1.230
347.751, 11.152
349.107, 8.453
350.463, 3.048
351.819, 8.636
353.174, 4.787
354.530, 15.811
355.885, 23.631
357.240, 0.095
358.594, 18.525
359.949, 0.016
361.303, 2.558
362.657, 5.939
364.011, 12.461
365.365, 12.007
366.718, 8.515
368.071, 17.936
369.424, 9.437
370.777, 16.881
372.129, 3.652
373.481, 1.834
374.833, 25.306
376.185, 4.794
377.537, 24.260
378.888, 12.802
380.239, 36.248
381.590, 8.255
382.941, 23.150
384.291, 26.581
385.642, 12.996
386.992, 32.370
388.341, 35.779
389.691, 50.231
391.040, 57.528
392.389, 65.838
393.738, 73.239
395.087, 75.599
396.435, 88.940
397.784, 78.227
399.132, 90.591
400.479, 83.873
401.827, 100.152
403.174, 124.432
404.521, 116.714
405.868, 147.996
407.215, 145.283
408.561, 165.577
409.908, 166.870
411.254, 178.571
412.599, 186.349
413.945, 206.636
415.290, 219.903
416.636, 246.184
417.980, 251.425
419.325, 301.686
420.670, 306.892
422.014, 335.101
423.358, 396.303
424.702, 435.482
426.045, 530.666
427.389, 601.776
428.732, 801.945
430.075, 927.127
431.417, 1266.202
432.760, 1786.373
434.102, 2587.429
435.444, 4268.553
436.786, 6005.580
438.127, 8683.598
439.469, 8665.653
440.810, 6472.669
442.151, 4630.688
443.492, 2769.659
444.832, 1920.655
446.172, 1310.568
447.512, 997.459
448.852, 848.446
450.192, 657.458
451.531, 568.469
452.870, 455.413
454.209, 396.444
455.548, 340.453
456.887, 264.233
458.225, 256.157
459.563, 213.110
460.901, 221.049
462.238, 227.996
463.576, 191.930
464.913, 180.862
466.250, 199.748
467.587, 203.662
468.923, 196.100
470.259, 195.982
471.596, 190.807
472.931, 179.209
474.267, 175.084
475.603, 175.950
476.938, 146.843
478.273, 148.632
479.608, 127.381
480.942, 133.883
482.276, 109.704
483.611, 114.330
484.944, 117.098
486.278, 104.860
487.612, 104.679
488.945, 85.419
490.278, 82.680
491.611, 84.047
492.943, 91.828
494.276, 88.643
495.608, 69.228
496.940, 56.267
498.271, 48.224
499.603, 54.599
500.934, 63.214
502.265, 45.532
503.596, 41.784
504.927, 37.700
506.257, 56.152
507.587, 42.888
508.917, 35.994
510.247, 52.781
511.577, 35.548
512.906, 38.348
514.235, 18.863
515.564, 26.701
516.892, 35.058
518.221, 14.789
519.549, 27.474
520.877, 5.224
522.205, 20.025
523.533, 24.514
524.860, 22.619
526.187, 17.475
527.514, 19.889
528.841, 6.798
530.167, 17.743
531.493, 10.675
532.820, 4.394
534.145, 6.362
535.471, 1.529
536.796, 4.298
538.122, 3.671
539.447, 4.287
540.771, 2.294
542.096, 9.183
543.420, 1.336
544.744, 3.447
546.068, 11.491
547.392, 1.545
548.715, 2.398
550.039, 10.748
551.362, 15.967
552.684, 20.191
554.007, 8.454
555.329, 12.709
556.652, 27.966
557.973, 6.144
559.295, 29.345
560.617, 25.488
561.938, 27.717
563.259, 31.745
564.580, 25.969
565.901, 29.081
567.221, 31.441
568.541, 42.788
569.861, 38.048
571.181, 34.429
572.501, 50.753
573.820, 35.077
575.139, 66.416
576.458, 63.617
577.777, 65.830
579.095, 72.821
580.414, 53.113
581.732, 82.368
583.049, 54.536
584.367, 97.496
585.685, 96.693
587.002, 109.610
588.319, 142.496
589.636, 129.661
590.952, 189.641
592.268, 202.811
593.585, 278.829
594.900, 343.686
596.216, 345.704
597.532, 546.416
598.847, 683.260
600.162, 903.321
601.477, 1401.278
602.792, 1832.086
604.106, 2781.865
605.420, 3036.637
606.734, 2916.579
608.048, 2639.337
609.361, 1850.089
610.675, 1493.835
611.988, 1240.572
613.301, 1085.302
614.614, 1189.025
615.926, 1373.741
617.238, 1951.451
618.550, 2128.153
619.862, 1953.848
621.174, 1504.535
622.485, 889.215
623.797, 636.888
625.108, 448.554
626.418, 318.212
627.729, 242.865
629.039, 207.511
630.349, 195.150
631.659, 165.784
632.969, 167.410
634.279, 148.029
635.588, 149.640
636.897, 205.244
638.206, 202.841
639.515, 240.433
640.823, 300.017
642.131, 319.594
643.439, 311.164
644.747, 273.728
646.055, 202.283
647.362, 154.914
648.669, 106.457
649.976, 99.998
651.283, 82.251
652.589, 76.856
653.896, 73.904
655.202, 57.082
656.508, 60.626
657.814, 47.131
659.119, 55.242
660.424, 58.750
661.729, 43.029
663.034, 60.610
664.339, 56.185
665.643, 70.220
666.947, 57.781
668.251, 54.427
669.555, 68.410
670.859, 59.290
672.162, 67.909
673.465, 75.404
674.768, 60.465
676.071, 60.908
677.373, 78.242
678.676, 57.086
679.978, 63.204
681.280, 54.934
682.581, 61.882
683.883, 49.530
685.184, 59.409
686.485, 45.951
687.786, 58.962
689.087, 52.276
690.387, 44.838
691.687, 62.966
692.987, 53.887
694.287, 56.153
695.586, 64.198
696.886, 36.246
698.185, 72.949
699.484, 49.614
700.783, 54.848
702.081, 54.954
703.379, 63.907
704.677, 64.978
705.975, 57.986
707.273, 51.068
708.570, 50.157
709.868, 47.249
711.165, 47.104
712.462, 46.305
713.758, 50.370
715.055, 48.342
716.351, 51.379
717.647, 45.403
718.943, 62.412
720.238, 44.408
721.533, 50.390
722.829, 37.358
724.124, 37.311
725.418, 40.248
726.713, 34.957
728.007, 36.523
729.301, 35.967
730.595, 34.842
731.889, 39.701
733.182, 38.546
734.476, 50.376
735.769, 34.194
737.061, 34.996
738.354, 37.783
739.647, 48.555
740.939, 35.315
742.231, 50.061
743.523, 53.794
744.814, 34.515
746.106, 42.222
747.397, 32.917
748.688, 38.597
749.978, 48.263
751.269, 36.918
752.559, 15.560
753.849, 45.182
755.139, 32.793
756.429, 36.391
757.719, 44.975
759.008, 54.549
760.297, 50.111
761.586, 33.662
762.875, 56.201
764.163, 71.730
765.451, 44.247
766.739, 67.754
768.027, 85.251
769.315, 64.737
770.602, 82.213
771.890, 87.678
773.177, 90.133
774.463, 100.578
775.750, 105.013
777.036, 83.438
778.323, 79.852
779.609, 88.258
780.894, 88.653
782.180, 104.038
783.465, 130.414
784.750, 122.780
786.035, 172.137
787.320, 193.484
788.605, 152.822
789.889, 159.151
791.173, 116.470
792.457, 107.781
793.741, 93.082
795.024, 68.374
796.307, 61.658
797.591, 41.933
798.873, 33.510
800.156, 33.456
801.439, 18.705
802.721, 27.944
804.003, 22.175
805.285, 2.397
806.566, 16.604
807.848, 4.802
809.129, 1.986
810.410, 11.155
811.691, 1.686
812.971, 1.456
814.252, 5.415
815.532, 2.304
816.812, 7.658
818.092, 8.130
819.371, 16.070
820.651, 25.032
821.930, 27.020
823.209, 33.034
824.488, 32.078
825.766, 13.151
827.045, 11.242
828.323, 4.350
829.601, 28.471
830.878, 42.618
832.156, 36.796
833.433, 25.003
834.710, 35.232
835.987, 23.493
837.264, 51.770
838.540, 40.126
839.817, 36.478
841.093, 27.921
842.369, 34.335
843.644, 22.808
844.920, 49.357
846.195, 30.848
847.470, 37.405
848.745, 35.980
850.020, 17.550
851.294, 48.494
852.568, 11.077
853.842, 23.843
855.116, 10.435
856.390, 19.286
857.663, 14.052
858.936, 10.395
860.209, 4.691
861.482, 28.905
862.755, 28.106
864.027, 19.260
865.299, 36.415
866.571, 19.560
867.843, 85.776
869.115, 33.962
870.386, 42.199
871.657, 59.343
872.928, 23.681
874.199, 67.816
875.470, 39.057
876.740, 31.043
878.010, 58.036
879.280, 23.110
880.550, 21.058
881.820, 42.055
883.089, 28.048
884.358, 58.021
885.627, 37.125
886.896, 48.213
888.164, 43.518
889.433, 20.516
890.701, 48.548
891.969, 39.661
893.236, 27.979
894.504, 81.056
895.771, 54.409
897.038, 54.790
898.305, 27.887
899.572, 48.166
900.838, 69.252
902.105, 22.489
903.371, 57.882
904.637, 45.113
905.902, 42.647
907.168, 59.046
908.433, 61.227
909.698, 89.510
910.963, 75.941
912.228, 73.399
913.492, 94.863
914.757, 107.158
916.021, 102.633
917.285, 116.115
918.548, 71.602
919.812, 158.096
921.075, 112.598
922.338, 157.106
923.601, 154.621
924.864, 143.143
926.126, 165.673
927.388, 169.210
928.650, 163.754
929.912, 221.307
931.174, 209.867
932.435, 244.436
933.697, 224.013
934.958, 223.598
936.218, 319.192
937.479, 280.794
938.739, 321.406
940.000, 396.027
941.260, 356.656
942.520, 431.295
943.779, 441.944
945.039, 543.602
946.298, 645.271
947.557, 712.949
948.816, 842.638
950.074, 936.337
951.333, 967.046
952.591, 1184.766
953.849, 1228.414
955.107, 1496.155
956.365, 1710.905
957.622, 1823.946
958.879, 2365.638
960.136, 2510.892
961.393, 2985.023
962.650, 3690.635
963.906, 4039.615
965.162, 5337.833
966.418, 6236.660
967.674, 7552.723
968.930, 10453.493
970.185, 12240.274
971.441, 17386.604
972.696, 23242.414
973.950, 30558.145
975.205, 45953.535
976.459, 53739.039
977.714, 63495.793
978.968, 63782.695
980.222, 49560.043
981.475, 41015.969
982.729, 29221.068
983.982, 20496.582
985.235, 16862.893
986.488, 11648.609
987.740, 9775.116
988.993, 7957.917
990.245, 6148.505
991.497, 5619.383
992.749, 4417.845
994.000, 3856.981
995.252, 3566.856
996.503, 2864.181
997.754, 2867.703
999.005, 2408.899
1000.256, 2183.242
1001.506, 2197.680
1002.756, 1797.415
1004.006, 1792.281
1005.256, 1605.552
1006.506, 1413.970
1007.755, 1480.588
1009.005, 1292.058
1010.254, 1260.555
1011.502, 1224.082
1012.751, 1061.634
1014.000, 1122.219
1015.248, 978.836
1016.496, 975.485
1017.744, 985.163
1018.991, 848.868
1020.239, 894.599
1021.486, 876.356
1022.733, 804.140
1023.980, 871.947
1025.227, 762.783
1026.473, 760.646
1027.719, 774.543
1028.965, 689.472
1030.211, 728.428
1031.457, 698.414
1032.702, 640.431
1033.948, 696.479
1035.193, 591.553
1036.438, 645.657
1037.682, 656.791
1038.927, 608.949
1040.171, 688.134
1041.415, 628.351
1042.659, 695.593
1043.903, 723.869
1045.146, 623.177
1046.390, 763.510
1047.633, 796.872
1048.876, 796.261
1050.118, 969.676
1051.361, 886.120
1052.603, 998.594
1053.845, 1130.092
1055.087, 1076.616
1056.329, 1232.166
1057.571, 1183.741
1058.812, 1187.343
1060.053, 1312.971
1061.294, 1182.625
1062.535, 1260.304
1063.775, 1268.010
1065.016, 1050.743
1066.256, 1193.501
1067.496, 1008.284
1068.736, 969.095
1069.975, 975.929
1071.214, 810.789
1072.454, 899.674
1073.693, 760.583
1074.931, 670.517
1076.170, 733.475
1077.408, 613.455
1078.647, 643.459
1079.885, 621.485
1081.122, 537.535
1082.360, 647.610
1083.597, 553.708
1084.835, 531.830
1086.072, 596.974
1087.308, 505.142
1088.545, 566.333
1089.781, 552.547
1091.018, 502.783
1092.254, 601.042
1093.490, 522.324
1094.725, 532.681
1095.961, 605.009
1097.196, 508.359
1098.431, 624.731
1099.666, 590.127
1100.900, 555.545
1102.135, 621.986
1103.369, 555.450
1104.603, 666.937
1105.837, 676.446
1107.071, 607.981
1108.304, 741.540
1109.538, 717.125
1110.771, 698.735
1112.004, 768.369
1113.236, 739.030
1114.469, 837.716
1115.701, 892.430
1116.933, 848.170
1118.165, 1005.938
1119.397, 957.733
1120.629, 1052.557
1121.860, 1146.413
1123.091, 1043.301
1124.322, 1259.222
1125.553, 1276.175
1126.783, 1203.156
1128.014, 1424.163
1129.244, 1310.194
1130.474, 1354.256
1131.704, 1589.353
1132.933, 1401.480
1134.163, 1607.747
1135.392, 1625.935
1136.621, 1572.151
1137.850, 1813.161
1139.079, 1645.444
1140.307, 1765.757
1141.535, 1836.522
1142.763, 1696.281
1143.991, 1869.074
1145.219, 1796.044
1146.446, 1710.871
1147.674, 1991.060
1148.901, 1821.706
1150.128, 1948.176
1151.354, 2003.702
1152.581, 1949.502
1153.807, 2155.590
1155.033, 2152.627
1156.259, 2069.901
1157.485, 2106.238
1158.710, 2005.571
1159.936, 1919.169
1161.161, 1891.500
1162.386, 1659.578
1163.611, 1599.528
1164.835, 1396.660
1166.060, 1250.602
1167.284, 1193.229
1168.508, 1058.856
1169.732, 947.607
1170.955, 900.753
1172.179, 779.944
1173.402, 755.947
1174.625, 644.207
1175.848, 594.902
1177.070, 600.722
1178.293, 508.046
1179.515, 502.625
1180.737, 482.082
1181.959, 409.791
1183.181, 444.944
1184.402, 388.291
1185.624, 359.724
1186.845, 381.456
1188.066, 318.075
1189.286, 328.501
1190.507, 292.138
1191.727, 281.967
1192.947, 293.535
1194.167, 248.070
1195.387, 237.933
1196.607, 234.384
1197.826, 215.826
1199.045, 200.344
1200.264, 228.586
1201.483, 175.278
1202.702, 175.421
1203.920, 171.919
1205.138, 114.713
1206.356, 192.619
1207.574, 129.212
1208.792, 150.110
1210.009, 145.333
1211.227, 100.953
1212.444, 147.781
1213.661, 128.551
1214.877, 136.022
1216.094, 177.251
1217.310, 111.084
1218.526, 181.102
1219.742, 158.404
1220.958, 119.124
1222.173, 147.771
1223.389, 97.038
1224.604, 102.311
1225.819, 131.672
1227.034, 99.214
1228.248, 78.904
1229.463, 86.327
1230.677, 49.782
1231.891, 52.161
1233.105, 35.615
1234.318, 35.118
1235.532, 60.446
1236.745, 17.828
1237.958, 19.175
1239.171, 20.533
1240.384, 5.993
1241.596, 22.405
1242.809, 25.791
1244.021, 3.187
1245.233, 3.592
1246.444, 18.128
1247.656, 12.551
1248.867, 31.983
1250.079, 29.469
1251.290, 47.917
1252.500, 21.374
1253.711, 23.908
1254.921, 64.420
1256.132, 35.901
1257.342, 34.446
1258.552, 39.936
1259.761, 26.433
1260.971, 19.960
1262.180, 20.459
1263.389, 25.007
1264.598, 37.553
1265.807, 35.714
1267.015, 21.567
1268.223, 38.051
1269.432, 21.516
1270.640, 19.007
1271.847, 5.428
1273.055, 9.840
1274.262, 30.262
1275.470, 23.661
1276.677, 26.066
1277.883, 11.451
1279.090, 6.178
1280.296, 17.185
1281.503, 29.566
1282.709, 23.104
1283.915, 10.217
1285.120, 1.488
1286.326, 14.206
1287.531, 12.981
1288.736, 12.748
1289.941, 15.556
1291.146, 11.373
1292.350, 17.821
1293.555, 25.030
1294.759, 20.899
1295.963, 20.777
1297.167, 5.683
1298.370, 10.810
1299.574, 26.543
1300.777, 12.416
1301.980, 29.377
1303.183, 28.359
1304.386, 15.357
1305.588, 42.368
1306.790, 37.400
1307.993, 34.451
1309.195, 20.521
1310.396, 16.606
1311.598, 10.706
1312.799, 9.822
1314.000, 10.953
1315.201, 0.099
1316.402, 16.261
1317.603, 12.442
1318.803, 31.641
1320.003, 21.848
1321.203, 7.096
1322.403, 14.363
1323.603, 17.651
1324.802, 14.962
1326.002, 2.294
1327.201, 8.644
1328.400, 11.014
1329.599, 4.594
1330.797, 0.186
1331.995, 13.240
1333.194, 7.359
1334.392, 28.102
1335.589, 14.589
1336.787, 6.904
1337.985, 8.618
1339.182, 2.839
1340.379, 12.281
1341.576, 5.294
1342.772, 5.887
1343.969, 22.499
1345.165, 9.871
1346.361, 33.227
1347.557, 16.568
1348.753, 9.893
1349.949, 8.202
1351.144, 16.493
1352.339, 9.769
1353.534, 4.029
1354.729, 18.270
1355.924, 13.495
1357.118, 15.704
1358.312, 1.897
1359.506, 50.071
1360.700, 16.232
1361.894, 12.378
1363.088, 39.507
1364.281, 21.623
1365.474, 24.875
1366.667, 48.975
1367.860, 49.050
1369.052, 41.114
1370.245, 32.166
1371.437, 27.188
1372.629, 40.232
1373.821, 39.221
1375.013, 45.172
1376.204, 41.088
1377.395, 40.447
1378.586, 66.800
1379.777, 54.145
1380.968, 69.428
1382.159, 73.757
1383.349, 54.077
1384.539, 64.388
1385.729, 78.689
1386.919, 72.979
1388.109, 87.258
1389.298, 61.526
1390.487, 84.781
1391.676, 89.023
1392.865, 74.253
1394.054, 88.469
1395.242, 89.672
1396.431, 76.864
1397.619, 82.042
1398.807, 105.209
1399.995, 83.232
1401.182, 96.452
1402.370, 109.571
1403.557, 90.671
1404.744, 122.581
1405.931, 88.279
1407.118, 86.669
1408.304, 108.144
1409.490, 87.644
1410.676, 93.539
1411.862, 107.020
1413.048, 78.157
1414.234, 95.031
1415.419, 85.956
1416.604, 79.156
1417.789, 81.427
1418.974, 71.956
1420.159, 70.513
1421.343, 66.469
1422.528, 62.471
1423.712, 55.946
1424.896, 61.412
1426.079, 57.532
1427.263, 56.843
1428.446, 46.761
1429.629, 59.910
1430.812, 47.375
1431.995, 57.098
1433.178, 56.317
1434.360, 71.760
1435.543, 46.529
1436.725, 64.658
1437.907, 47.172
1439.088, 54.465
1440.270, 66.435
1441.451, 52.881
1442.632, 32.513
1443.813, 67.670
1444.994, 51.666
1446.175, 80.325
1447.355, 65.056
1448.535, 47.776
1449.715, 52.686
1450.895, 61.364
1452.075, 52.119
1453.255, 67.811
1454.434, 79.120
1455.613, 70.476
1456.792, 80.812
1457.971, 47.764
1459.149, 64.693
1460.328, 59.641
1461.506, 32.413
1462.684, 68.920
1463.862, 75.528
1465.040, 52.204
1466.217, 58.867
1467.395, 42.636
1468.572, 53.369
1469.749, 49.122
1470.925, 27.771
1472.102, 57.554
1473.278, 36.416
1474.455, 16.497
1475.631, 46.688
1476.807, 36.803
1477.982, 32.016
1479.158, 33.320
1480.333, 28.332
1481.508, 20.598
1482.683, 39.842
1483.858, 46.041
1485.033, 30.191
1486.207, 36.299
1487.381, 17.383
1488.555, 16.714
1489.729, 23.476
1490.903, 16.612
1492.076, 19.790
1493.250, 35.009
1494.423, 30.696
1495.596, 37.589
1496.769, 34.609
1497.941, 14.941
1499.114, 13.280
1500.286, 11.617
1501.458, 26.978
1502.630, 16.370
1503.802, 18.808
1504.973, 14.296
1506.145, 1.174
1507.316, 5.802
1508.487, 19.058
1509.657, 8.776
1510.828, 21.580
1511.999, 17.468
1513.169, 0.089
1514.339, 2.838
1515.509, 5.949
1516.678, 0.000
##END=



