##NAMES=Anglesite
##RRUFFID=R050052
##IDEAL CHEMISTRY=Pb^2+^S^6+^O_4_
##LOCALITY=Touissite, Oujela, Morocco
##OWNER=RRUFF
##SOURCE=Eugene Schlepp
##DESCRIPTION=Yellow prismatic single crystal
##STATUS=The identification of this mineral has been confirmed by X-ray diffraction and chemical analysis
##URL=rruff.info/R050052
##MEASURED CHEMISTRY=Pb_1.00_S_1.00_O_4_
##PIN_ID=L00248
##ORIENTATION=Laser parallel to c* (0 0 1). Fiducial mark perpendicular to laser is parallel to a [1 0 0]
46.637, 0.000
48.043, 14.790
49.450, 19.484
50.856, 50.885
52.261, 58.922
53.667, 98.799
55.072, 118.680
56.477, 153.086
57.882, 174.029
59.287, 186.218
60.691, 205.931
62.095, 238.669
63.499, 233.118
64.903, 213.911
66.306, 149.826
67.709, 120.939
69.112, 79.454
70.515, 55.058
71.917, 40.741
73.319, 2.504
74.721, 2.316
76.123, 3.803
77.525, 24.865
78.926, 2.128
80.327, 0.825
81.728, 4.272
83.128, 25.417
84.529, 34.329
85.929, 53.838
87.329, 90.106
88.728, 145.407
90.128, 218.739
91.527, 296.100
92.926, 375.489
94.324, 501.902
95.723, 603.332
97.121, 704.776
98.519, 743.234
99.917, 762.716
101.314, 761.221
102.712, 697.750
104.109, 705.300
105.505, 702.869
106.902, 748.456
108.298, 769.061
109.694, 776.705
111.090, 830.385
112.486, 856.083
113.881, 950.787
115.277, 932.524
116.672, 1078.282
118.066, 1141.045
119.461, 1300.821
120.855, 1493.624
122.249, 1661.418
123.643, 1977.224
125.036, 2015.033
126.430, 2235.834
127.823, 2188.620
129.216, 2202.407
130.608, 2196.186
132.001, 2042.992
133.393, 2102.817
134.785, 1902.658
136.176, 1916.504
137.568, 1709.345
138.959, 1633.175
140.350, 1542.985
141.741, 1361.776
143.131, 1315.541
144.521, 1188.260
145.911, 1201.921
147.301, 1158.602
148.691, 1227.290
150.080, 1287.197
151.469, 1268.211
152.858, 1365.113
154.247, 1279.073
155.635, 1301.001
157.024, 1172.057
158.411, 1053.035
159.799, 987.038
161.187, 911.004
162.574, 935.001
163.961, 812.938
165.348, 884.911
166.734, 854.890
168.121, 859.878
169.507, 875.966
170.893, 845.459
172.278, 921.156
173.664, 902.537
175.049, 996.811
176.434, 1023.949
177.819, 1068.659
179.203, 1118.603
180.587, 1113.443
181.971, 1234.806
183.355, 1225.156
184.739, 1227.080
186.122, 1235.742
187.505, 1162.395
188.888, 1141.923
190.271, 1063.491
191.653, 1057.199
193.035, 918.774
194.417, 849.713
195.799, 800.036
197.180, 702.606
198.562, 629.847
199.943, 553.212
201.324, 540.837
202.704, 473.585
204.084, 432.183
205.465, 425.487
206.844, 352.932
208.224, 381.279
209.603, 301.639
210.983, 298.787
212.362, 312.940
213.740, 288.629
215.119, 265.315
216.497, 237.909
217.875, 222.319
219.253, 200.709
220.631, 191.924
222.008, 194.225
223.385, 176.243
224.762, 186.144
226.139, 172.917
227.515, 164.531
228.891, 144.942
230.267, 144.225
231.643, 120.458
233.018, 124.668
234.394, 141.850
235.769, 96.866
237.144, 127.763
238.518, 99.551
239.893, 93.481
241.267, 88.718
242.641, 79.634
244.014, 92.259
245.388, 65.567
246.761, 78.756
248.134, 60.155
249.507, 71.877
250.879, 51.677
252.252, 42.622
253.624, 45.718
254.996, 27.894
256.367, 51.065
257.739, 35.232
259.110, 31.393
260.481, 41.550
261.852, 48.701
263.222, 24.848
264.592, 14.989
265.962, 34.124
267.332, 21.254
268.702, 35.377
270.071, 30.495
271.440, 17.607
272.809, 33.712
274.178, 15.811
275.546, 23.904
276.915, 15.990
278.283, 17.069
279.650, 28.141
281.018, 17.206
282.385, 17.264
283.752, 6.314
285.119, 26.357
286.486, 9.392
287.852, 13.420
289.218, 9.440
290.584, 0.452
291.950, 15.456
293.316, 6.547
294.681, 9.560
296.046, 16.416
297.411, 5.616
298.775, 7.343
300.140, 1.706
301.504, 1.765
302.868, 14.168
304.231, 3.907
305.595, 23.009
306.958, 11.917
308.321, 1.183
309.684, 8.709
311.047, 3.594
312.409, 3.471
313.771, 7.660
315.133, 2.198
316.495, 12.952
317.856, 9.115
319.217, 3.289
320.578, 9.527
321.939, 13.334
323.299, 2.132
324.660, 8.921
326.020, 2.701
327.380, 4.528
328.739, 8.767
330.099, 0.982
331.458, 18.723
332.817, 16.546
334.176, 5.171
335.534, 0.123
336.892, 14.429
338.251, 7.249
339.608, 7.082
340.966, 26.574
342.323, 19.223
343.681, 1.136
345.037, 5.495
346.394, 3.884
347.751, 9.279
349.107, 15.686
350.463, 13.896
351.819, 3.504
353.174, 3.933
354.530, 4.656
355.885, 6.801
357.240, 4.272
358.594, 1.301
359.949, 1.815
361.303, 13.333
362.657, 6.843
364.011, 2.671
365.365, 3.854
366.718, 0.644
368.071, 15.843
369.424, 19.684
370.777, 32.792
372.129, 0.254
373.481, 16.684
374.833, 10.153
376.185, 26.575
377.537, 14.050
378.888, 15.535
380.239, 35.924
381.590, 16.382
382.941, 8.788
384.291, 6.219
385.642, 24.663
386.992, 30.090
388.341, 36.535
389.691, 36.903
391.040, 37.231
392.389, 55.592
393.738, 51.907
395.087, 48.251
396.435, 82.598
397.784, 87.975
399.132, 82.275
400.479, 103.571
401.827, 96.885
403.174, 131.181
404.521, 91.500
405.868, 143.804
407.215, 133.107
408.561, 135.441
409.908, 161.744
411.254, 150.989
412.599, 179.281
413.945, 203.486
415.290, 223.652
416.636, 232.829
417.980, 256.928
419.325, 324.121
420.670, 320.244
422.014, 422.348
423.358, 460.492
424.702, 546.663
426.045, 718.732
427.389, 787.756
428.732, 1123.859
430.075, 1363.904
431.417, 1864.005
432.760, 2650.083
434.102, 3981.102
435.444, 6483.185
436.786, 9181.191
438.127, 12907.229
439.469, 12847.229
440.810, 9607.230
442.151, 6780.276
443.492, 4058.272
444.832, 2902.265
446.172, 1945.194
447.512, 1380.218
448.852, 1205.166
450.192, 881.129
451.531, 798.071
452.870, 588.932
454.209, 530.894
455.548, 466.396
456.887, 366.706
458.225, 360.661
459.563, 290.214
460.901, 287.120
462.238, 256.871
463.576, 246.617
464.913, 243.544
466.250, 217.180
467.587, 235.136
468.923, 223.042
470.259, 213.799
471.596, 225.683
472.931, 182.530
474.267, 209.372
475.603, 194.773
476.938, 167.599
478.273, 156.663
479.608, 160.967
480.942, 171.602
482.276, 131.461
483.611, 139.331
484.944, 123.138
486.278, 121.986
487.612, 108.795
488.945, 90.357
490.278, 102.674
491.611, 99.468
492.943, 86.353
494.276, 101.190
495.608, 58.021
496.940, 69.793
498.271, 66.774
499.603, 54.620
500.934, 69.070
502.265, 62.003
503.596, 50.910
504.927, 29.669
506.257, 63.524
507.587, 56.164
508.917, 51.513
510.247, 51.466
511.577, 16.366
512.906, 28.227
514.235, 15.892
515.564, 28.771
516.892, 30.304
518.221, 10.972
519.549, 25.854
520.877, 20.744
522.205, 20.687
523.533, 24.610
524.860, 12.394
526.187, 16.323
527.514, 18.243
528.841, 20.232
530.167, 16.061
531.493, 18.183
532.820, 30.113
534.145, 13.159
535.471, 24.145
536.796, 8.227
538.122, 3.241
539.447, 24.339
540.771, 5.563
542.096, 15.663
543.420, 7.742
544.744, 2.811
546.068, 4.915
547.392, 0.078
548.715, 16.277
550.039, 24.453
551.362, 15.604
552.684, 29.790
554.007, 18.014
555.329, 16.174
556.652, 8.396
557.973, 26.625
559.295, 38.811
560.617, 22.046
561.938, 32.215
563.259, 21.386
564.580, 25.692
565.901, 42.855
567.221, 9.958
568.541, 41.118
569.861, 27.221
571.181, 46.552
572.501, 44.668
573.820, 52.854
575.139, 52.208
576.458, 53.304
577.777, 64.412
579.095, 65.491
580.414, 55.796
581.732, 90.919
583.049, 65.997
584.367, 93.266
585.685, 104.503
587.002, 101.955
588.319, 124.982
589.636, 135.000
590.952, 167.087
592.268, 191.058
593.585, 200.085
594.900, 251.346
596.216, 298.361
597.532, 403.376
598.847, 502.487
600.162, 684.587
601.477, 956.694
602.792, 1241.827
604.106, 1812.782
605.420, 2052.720
606.734, 1980.654
608.048, 1746.592
609.361, 1266.484
610.675, 1054.739
611.988, 904.647
613.301, 789.562
614.614, 786.428
615.926, 784.290
617.238, 977.145
618.550, 1039.995
619.862, 887.839
621.174, 763.677
622.485, 501.508
623.797, 413.332
625.108, 328.151
626.418, 290.963
627.729, 284.767
629.039, 276.566
630.349, 293.357
631.659, 305.141
632.969, 358.918
634.279, 435.690
635.588, 489.455
636.897, 700.217
638.206, 857.973
639.515, 1235.724
640.823, 1631.481
642.131, 1697.216
643.439, 1637.506
644.747, 1172.245
646.055, 873.236
647.362, 593.522
648.669, 404.155
649.976, 310.912
651.283, 241.397
652.589, 193.626
653.896, 165.976
655.202, 122.797
656.508, 110.330
657.814, 114.128
659.119, 102.370
660.424, 87.898
661.729, 79.132
663.034, 93.823
664.339, 97.724
665.643, 87.775
666.947, 89.914
668.251, 61.390
669.555, 98.548
670.859, 76.644
672.162, 90.104
673.465, 69.815
674.768, 82.179
676.071, 73.645
677.373, 72.507
678.676, 66.760
679.978, 84.483
681.280, 88.941
682.581, 84.134
683.883, 67.308
685.184, 95.776
686.485, 84.040
687.786, 66.393
689.087, 94.042
690.387, 73.689
691.687, 86.455
692.987, 78.365
694.287, 87.443
695.586, 70.660
696.886, 65.273
698.185, 73.915
699.484, 71.806
700.783, 72.024
702.081, 83.348
703.379, 73.932
704.677, 71.358
705.975, 75.741
707.273, 81.038
708.570, 80.243
709.868, 70.698
711.165, 83.992
712.462, 69.143
713.758, 67.245
715.055, 72.408
716.351, 64.556
717.647, 72.669
718.943, 70.789
720.238, 56.870
721.533, 68.953
722.829, 81.028
724.124, 67.016
725.418, 77.063
726.713, 52.093
728.007, 70.111
729.301, 60.115
730.595, 49.104
731.889, 69.076
733.182, 65.036
734.476, 68.981
735.769, 48.912
737.061, 59.827
738.354, 63.728
739.647, 48.615
740.939, 49.487
742.231, 39.343
743.523, 67.182
744.814, 67.008
746.106, 55.820
747.397, 80.618
748.688, 59.403
749.978, 43.175
751.269, 57.930
752.559, 56.673
753.849, 48.401
755.139, 48.116
756.429, 46.816
757.719, 44.501
759.008, 57.172
760.297, 58.830
761.586, 57.475
762.875, 54.107
764.163, 62.727
765.451, 34.334
766.739, 53.925
768.027, 50.503
769.315, 64.068
770.602, 69.622
771.890, 78.163
773.177, 66.692
774.463, 56.209
775.750, 61.714
777.036, 72.208
778.323, 67.689
779.609, 88.159
780.894, 80.616
782.180, 72.062
783.465, 94.497
784.750, 86.920
786.035, 107.331
787.320, 90.732
788.605, 93.120
789.889, 91.498
791.173, 82.864
792.457, 79.219
793.741, 60.564
795.024, 35.897
796.307, 42.219
797.591, 14.530
798.873, 32.825
800.156, 21.108
801.439, 12.378
802.721, 4.632
804.003, 1.867
805.285, 6.081
806.566, 6.723
807.848, 7.449
809.129, 1.396
810.410, 13.261
811.691, 2.154
812.971, 9.807
814.252, 15.004
815.532, 10.968
816.812, 2.956
818.092, 6.964
819.371, 9.993
820.651, 12.044
821.930, 2.120
823.209, 14.212
824.488, 29.329
825.766, 20.477
827.045, 24.650
828.323, 19.852
829.601, 23.079
830.878, 29.332
832.156, 20.614
833.433, 28.920
834.710, 41.254
835.987, 38.622
837.264, 38.922
838.540, 12.488
839.817, 25.938
841.093, 28.411
842.369, 17.963
843.644, 34.480
844.920, 22.059
846.195, 24.623
847.470, 45.233
848.745, 32.848
850.020, 22.561
851.294, 25.330
852.568, 12.074
853.842, 18.840
855.116, 23.622
856.390, 9.377
857.663, 7.180
858.936, 5.123
860.209, 1.810
861.482, 0.399
862.755, 8.398
864.027, 5.244
865.299, 23.964
866.571, 5.101
867.843, 18.221
869.115, 7.376
870.386, 16.473
871.657, 32.627
872.928, 2.772
874.199, 22.772
875.470, 14.909
876.740, 22.096
878.010, 27.220
879.280, 20.391
880.550, 4.329
881.820, 7.473
883.089, 5.540
884.358, 20.433
885.627, 20.578
886.896, 14.704
888.164, 22.852
889.433, 20.545
890.701, 21.862
891.969, 23.995
893.236, 20.931
894.504, 22.893
895.771, 29.636
897.038, 33.799
898.305, 30.965
899.572, 21.059
900.838, 36.263
902.105, 30.408
903.371, 29.314
904.637, 42.462
905.902, 21.607
907.168, 34.652
908.433, 43.704
909.698, 37.746
910.963, 56.759
912.228, 36.947
913.492, 58.149
914.757, 31.352
916.021, 51.549
917.285, 18.790
918.548, 38.665
919.812, 67.885
921.075, 69.097
922.338, 94.358
923.601, 111.624
924.864, 74.895
926.126, 121.172
927.388, 101.455
928.650, 118.743
929.912, 150.038
931.174, 132.338
932.435, 153.645
933.697, 133.959
934.958, 145.279
936.218, 184.606
937.479, 197.940
938.739, 218.281
940.000, 224.630
941.260, 205.987
942.520, 303.350
943.779, 264.722
945.039, 351.102
946.298, 400.491
947.557, 446.873
948.816, 534.278
950.074, 590.131
951.333, 618.536
952.591, 766.690
953.849, 798.552
955.107, 974.072
956.365, 1089.469
957.622, 1214.141
958.879, 1505.076
960.136, 1694.892
961.393, 1947.239
962.650, 2412.881
963.906, 2643.261
965.162, 3535.203
966.418, 4157.860
967.674, 5127.814
968.930, 7027.315
970.185, 8370.609
971.441, 11947.760
972.696, 16073.827
973.950, 21390.566
975.205, 32226.594
976.459, 38581.719
977.714, 46067.453
978.968, 46622.969
980.222, 37178.844
981.475, 30614.574
982.729, 22159.957
983.982, 15765.944
985.235, 12721.468
986.488, 8968.273
987.740, 7541.308
988.993, 6187.380
990.245, 4803.174
991.497, 4420.186
992.749, 3514.104
994.000, 3101.745
995.252, 2869.413
996.503, 2302.927
997.754, 2311.345
999.005, 1951.538
1000.256, 1795.579
1001.506, 1766.319
1002.756, 1451.963
1004.006, 1437.408
1005.256, 1345.545
1006.506, 1169.485
1007.755, 1205.226
1009.005, 1007.117
1010.254, 954.135
1011.502, 957.289
1012.751, 836.514
1014.000, 887.545
1015.248, 823.720
1016.496, 784.045
1017.744, 803.400
1018.991, 683.780
1020.239, 719.187
1021.486, 729.620
1022.733, 635.081
1023.980, 718.569
1025.227, 592.084
1026.473, 644.623
1027.719, 681.189
1028.965, 591.779
1030.211, 696.397
1031.457, 626.042
1032.702, 636.714
1033.948, 703.412
1035.193, 625.140
1036.438, 721.894
1037.682, 733.675
1038.927, 754.482
1040.171, 830.319
1041.415, 768.182
1042.659, 869.075
1043.903, 943.998
1045.146, 901.948
1046.390, 1126.928
1047.633, 1177.934
1048.876, 1183.965
1050.118, 1532.024
1051.361, 1459.110
1052.603, 1659.219
1053.845, 1830.358
1055.087, 1734.522
1056.329, 2039.712
1057.571, 1994.931
1058.812, 1994.175
1060.053, 2259.445
1061.294, 1988.746
1062.535, 2072.071
1063.775, 2039.422
1065.016, 1825.801
1066.256, 1910.208
1067.496, 1627.643
1068.736, 1608.106
1069.975, 1585.600
1071.214, 1303.120
1072.454, 1363.669
1073.693, 1280.244
1074.931, 1121.846
1076.170, 1226.472
1077.408, 1063.124
1078.647, 1038.802
1079.885, 1093.505
1081.122, 954.233
1082.360, 1051.986
1083.597, 935.763
1084.835, 917.567
1086.072, 957.395
1087.308, 821.247
1088.545, 917.122
1089.781, 871.022
1091.018, 808.945
1092.254, 851.892
1093.490, 755.864
1094.725, 744.859
1095.961, 803.879
1097.196, 678.923
1098.431, 807.992
1099.666, 729.088
1100.900, 680.207
1102.135, 782.353
1103.369, 726.525
1104.603, 736.725
1105.837, 784.954
1107.071, 682.211
1108.304, 774.499
1109.538, 757.814
1110.771, 732.159
1112.004, 813.535
1113.236, 759.941
1114.469, 800.378
1115.701, 855.847
1116.933, 825.347
1118.165, 949.875
1119.397, 914.433
1120.629, 967.022
1121.860, 1046.641
1123.091, 1009.287
1124.322, 1119.964
1125.553, 1125.675
1126.783, 1126.417
1128.014, 1292.192
1129.244, 1202.998
1130.474, 1295.835
1131.704, 1443.707
1132.933, 1372.608
1134.163, 1554.736
1135.392, 1625.981
1136.621, 1569.983
1137.850, 1906.499
1139.079, 1821.575
1140.307, 2002.667
1141.535, 2258.279
1142.763, 2175.429
1143.991, 2559.820
1145.219, 2676.028
1146.446, 2681.264
1147.674, 3221.393
1148.901, 3171.099
1150.128, 3642.217
1151.354, 4014.280
1152.581, 3927.486
1153.807, 4620.297
1155.033, 4563.109
1156.259, 4562.267
1157.485, 4939.636
1158.710, 4547.085
1159.936, 4497.785
1161.161, 4419.232
1162.386, 3787.812
1163.611, 3837.889
1164.835, 3328.337
1166.060, 2941.821
1167.284, 2854.418
1168.508, 2394.073
1169.732, 2278.083
1170.955, 2149.849
1172.179, 1777.321
1173.402, 1766.673
1174.625, 1553.169
1175.848, 1414.461
1177.070, 1451.547
1178.293, 1212.955
1179.515, 1223.734
1180.737, 1169.085
1181.959, 979.437
1183.181, 1007.978
1184.402, 908.587
1185.624, 844.137
1186.845, 843.571
1188.066, 701.009
1189.286, 719.269
1190.507, 706.788
1191.727, 544.192
1192.947, 635.225
1194.167, 550.828
1195.387, 522.172
1196.607, 496.045
1197.826, 443.683
1199.045, 427.916
1200.264, 383.821
1201.483, 337.346
1202.702, 363.843
1203.920, 311.845
1205.138, 302.027
1206.356, 346.672
1207.574, 251.215
1208.792, 231.296
1210.009, 269.907
1211.227, 210.994
1212.444, 260.036
1213.661, 217.208
1214.877, 203.938
1216.094, 243.701
1217.310, 193.274
1218.526, 213.694
1219.742, 222.347
1220.958, 161.269
1222.173, 215.592
1223.389, 178.171
1224.604, 133.770
1225.819, 161.425
1227.034, 114.170
1228.248, 120.441
1229.463, 119.656
1230.677, 109.797
1231.891, 99.026
1233.105, 87.383
1234.318, 65.656
1235.532, 88.922
1236.745, 49.229
1237.958, 60.576
1239.171, 76.878
1240.384, 58.495
1241.596, 69.820
1242.809, 37.178
1244.021, 61.782
1245.233, 83.197
1246.444, 37.568
1247.656, 47.006
1248.867, 83.398
1250.079, 45.800
1251.290, 49.296
1252.500, 32.745
1253.711, 43.178
1254.921, 43.633
1256.132, 21.083
1257.342, 47.540
1258.552, 61.003
1259.761, 41.472
1260.971, 38.949
1262.180, 32.433
1263.389, 16.918
1264.598, 37.401
1265.807, 32.878
1267.015, 23.347
1268.223, 30.803
1269.432, 13.243
1270.640, 26.672
1271.847, 28.083
1273.055, 15.477
1274.262, 32.860
1275.470, 8.237
1276.677, 1.626
1277.883, 12.987
1279.090, 10.647
1280.296, 13.308
1281.503, 10.021
1282.709, 18.635
1283.915, 0.325
1285.120, 14.958
1286.326, 17.766
1287.531, 11.523
1288.736, 9.208
1289.941, 3.055
1291.146, 12.316
1292.350, 23.456
1293.555, 13.247
1294.759, 21.048
1295.963, 18.876
1297.167, 20.731
1298.370, 30.608
1299.574, 29.500
1300.777, 34.413
1301.980, 37.001
1303.183, 37.299
1304.386, 40.263
1305.588, 35.249
1306.790, 36.359
1307.993, 27.268
1309.195, 32.302
1310.396, 15.356
1311.598, 16.423
1312.799, 16.505
1314.000, 21.602
1315.201, 16.715
1316.402, 10.846
1317.603, 7.992
1318.803, 9.615
1320.003, 5.332
1321.203, 17.527
1322.403, 5.741
1323.603, 10.969
1324.802, 3.217
1326.002, 18.481
1327.201, 4.766
1328.400, 5.067
1329.599, 3.346
1330.797, 16.681
1331.995, 0.035
1333.194, 12.404
1334.392, 15.794
1335.589, 2.795
1336.787, 6.630
1337.985, 0.928
1339.182, 6.470
1340.379, 2.001
1341.576, 2.510
1342.772, 12.007
1343.969, 0.511
1345.165, 6.955
1346.361, 8.414
1347.557, 0.151
1348.753, 19.266
1349.949, 7.671
1351.144, 6.941
1352.339, 29.429
1353.534, 10.814
1354.729, 2.156
1355.924, 3.536
1357.118, 1.897
1358.312, 11.219
1359.506, 6.481
1360.700, 16.778
1361.894, 0.023
1363.088, 16.251
1364.281, 10.465
1365.474, 29.664
1366.667, 20.845
1367.860, 21.035
1369.052, 20.206
1370.245, 18.342
1371.437, 38.464
1372.629, 48.567
1373.821, 10.815
1375.013, 49.733
1376.204, 39.172
1377.395, 48.607
1378.586, 61.037
1379.777, 51.461
1380.968, 50.877
1382.159, 64.285
1383.349, 39.686
1384.539, 73.079
1385.729, 62.463
1386.919, 46.838
1388.109, 62.204
1389.298, 85.560
1390.487, 65.906
1391.676, 78.241
1392.865, 86.565
1394.054, 68.879
1395.242, 77.182
1396.431, 100.474
1397.619, 83.755
1398.807, 96.792
1399.995, 95.715
1401.182, 104.357
1402.370, 108.981
1403.557, 94.932
1404.744, 123.135
1405.931, 107.708
1407.118, 109.930
1408.304, 134.133
1409.490, 93.135
1410.676, 89.012
1411.862, 84.422
1413.048, 80.470
1414.234, 79.496
1415.419, 84.468
1416.604, 88.715
1417.789, 97.323
1418.974, 73.012
1420.159, 79.697
1421.343, 71.928
1422.528, 77.029
1423.712, 81.233
1424.896, 63.351
1426.079, 63.035
1427.263, 68.786
1428.446, 66.320
1429.629, 56.952
1430.812, 58.840
1431.995, 57.328
1433.178, 54.797
1434.360, 56.240
1435.543, 58.239
1436.725, 53.716
1437.907, 53.536
1439.088, 59.528
1440.270, 51.922
1441.451, 47.807
1442.632, 57.794
1443.813, 67.330
1444.994, 59.629
1446.175, 61.610
1447.355, 47.177
1448.535, 53.306
1449.715, 58.281
1450.895, 55.620
1452.075, 72.891
1453.255, 77.523
1454.434, 62.031
1455.613, 49.353
1456.792, 59.673
1457.971, 45.894
1459.149, 51.026
1460.328, 62.037
1461.506, 47.918
1462.684, 73.745
1463.862, 59.581
1465.040, 33.480
1466.217, 51.464
1467.395, 53.486
1468.572, 34.437
1469.749, 70.415
1470.925, 20.364
1472.102, 42.430
1473.278, 37.457
1474.455, 26.450
1475.631, 33.447
1476.807, 53.545
1477.982, 25.777
1479.158, 46.115
1480.333, 54.492
1481.508, 41.860
1482.683, 35.199
1483.858, 30.492
1485.033, 23.204
1486.207, 27.030
1487.381, 17.280
1488.555, 24.538
1489.729, 29.826
1490.903, 24.134
1492.076, 23.805
1493.250, 32.892
1494.423, 9.079
1495.596, 16.531
1496.769, 4.044
1497.941, 3.871
1499.114, 7.051
1500.286, 8.733
1501.458, 16.358
1502.630, 21.944
1503.802, 19.786
1504.973, 24.489
1506.145, 13.992
1507.316, 13.234
1508.487, 7.040
1509.657, 8.667
1510.828, 14.207
1511.999, 18.840
1513.169, 25.711
1514.339, 0.193
1515.509, 0.000
##END=



