##NAMES=Anglesite
##RRUFFID=R050408
##IDEAL CHEMISTRY=Pb^2+^S^6+^O_4_
##LOCALITY=Tsumeb mine, Tsumeb, Otavi District, Oshikoto, Namibia
##OWNER=RRUFF
##SOURCE=California Institute of Technology
##DESCRIPTION=Pale yellow fragment
##STATUS=The identification of this mineral has been confirmed by X-ray diffraction and chemical analysis
##URL=rruff.info/R050408
##MEASURED CHEMISTRY=Pb_1.00_S_1.00_O_4_
##PIN_ID=L01528
##ORIENTATION=Laser parallel to a* (1 0 0). Fiducial mark perpendicular to laser is parallel to -b [0 -1 0]
51.43100, 0.0000000E+00
52.67100, 30.67828
53.91000, 27.23163
55.14900, 30.24225
56.38700, 0.6351010
57.62600, 3.520752
58.86400, 10.92853
60.10300, 0.7624510
61.34100, 18.37881
62.57900, 3.894318
63.81700, 0.2140810
65.05400, 5.465820
66.29200, 1.075989
67.52900, 30.26459
68.76700, 67.43365
70.00400, 117.4140
71.24100, 188.0685
72.47700, 261.3552
73.71400, 348.2172
74.95100, 382.6041
76.18700, 521.4724
77.42300, 570.7829
78.65900, 701.5012
79.89500, 809.5961
81.13100, 971.0408
82.36700, 1107.933
83.60200, 1318.883
84.83700, 1421.242
86.07200, 1624.871
87.30800, 1802.761
88.54200, 2077.900
89.77700, 2326.268
91.01200, 2559.847
92.24600, 2872.624
93.48000, 3129.586
94.71400, 3443.721
95.94800, 3740.021
97.18200, 3893.473
98.41600, 4141.073
99.64900, 4184.813
100.8830, 4240.684
102.1160, 4026.682
103.3490, 3871.799
104.5820, 3766.029
105.8150, 3615.368
107.0470, 3470.811
108.2800, 3267.353
109.5120, 3132.989
110.7440, 2963.717
111.9760, 2785.532
113.2080, 2734.432
114.4400, 2606.416
115.6710, 2584.488
116.9030, 2425.652
118.1340, 2416.896
119.3650, 2409.238
120.5960, 2391.696
121.8270, 2374.250
123.0580, 2480.925
124.2880, 2627.666
125.5190, 2681.482
126.7490, 2823.279
127.9790, 2926.087
129.2090, 3009.928
130.4390, 3093.815
131.6680, 3217.773
132.8980, 3335.766
134.1270, 3442.778
135.3560, 3385.809
136.5850, 3447.859
137.8140, 3260.971
139.0430, 3136.116
140.2710, 3004.283
141.5000, 2745.489
142.7280, 2488.725
143.9560, 2321.996
145.1840, 2120.311
146.4120, 1997.113
147.6390, 1855.012
148.8670, 1822.403
150.0940, 1768.822
151.3210, 1742.263
152.5490, 1801.728
153.7750, 1759.216
155.0020, 1714.727
156.2290, 1657.262
157.4550, 1614.819
158.6810, 1577.399
159.9080, 1666.002
161.1340, 1608.627
162.3590, 1649.275
163.5850, 1606.944
164.8110, 1648.635
166.0360, 1593.347
167.2610, 1646.080
168.4860, 1519.834
169.7110, 1463.608
170.9360, 1406.402
172.1610, 1256.216
173.3850, 1250.049
174.6100, 1193.901
175.8340, 1096.870
177.0580, 1118.758
178.2820, 1100.843
179.5050, 1100.264
180.7290, 1074.419
181.9520, 1105.657
183.1760, 1121.755
184.3990, 1097.907
185.6220, 1127.417
186.8450, 1076.913
188.0670, 1102.826
189.2900, 1051.165
190.5120, 1044.172
191.7340, 1012.664
192.9560, 966.7256
194.1780, 926.9836
195.4000, 885.1501
196.6220, 862.1832
197.8430, 801.4139
199.0640, 785.1852
200.2860, 739.4622
201.5070, 732.6410
202.7270, 700.5319
203.9480, 642.4772
205.1690, 613.3097
206.3890, 552.2050
207.6090, 537.9457
208.8290, 485.7223
210.0490, 465.7634
211.2690, 469.4935
212.4890, 454.5900
213.7080, 438.0551
214.9280, 426.3364
216.1470, 407.7206
217.3660, 391.9218
218.5850, 389.1049
219.8030, 363.6207
221.0220, 365.1726
222.2400, 365.7992
223.4590, 326.4379
224.6770, 290.8262
225.8950, 318.9075
227.1120, 296.6614
228.3300, 274.4501
229.5480, 269.1757
230.7650, 231.5203
231.9820, 233.4058
233.1990, 233.9874
234.4160, 207.1793
235.6330, 236.6115
236.8490, 201.7557
238.0660, 178.9896
239.2820, 203.0306
240.4980, 175.0939
241.7140, 175.1785
242.9300, 183.2953
244.1460, 148.8108
245.3610, 147.9550
246.5770, 173.4004
247.7920, 148.5807
249.0070, 132.7782
250.2220, 153.9923
251.4370, 132.2224
252.6510, 108.4680
253.8660, 114.7285
255.0800, 138.0037
256.2940, 112.2930
257.5080, 134.5959
258.7220, 112.9120
259.9360, 128.2411
261.1490, 146.5825
262.3630, 78.93787
263.5760, 117.3046
264.7890, 89.68231
266.0020, 71.07245
267.2150, 75.47595
268.4270, 59.89209
269.6400, 75.31732
270.8520, 64.75116
272.0640, 63.19312
273.2760, 81.64343
274.4880, 61.10205
275.7000, 74.56873
276.9120, 34.04340
278.1230, 62.52570
279.3340, 41.01532
280.5450, 54.51239
281.7560, 32.01666
282.9670, 19.52808
284.1780, 28.04645
285.3880, 22.57147
286.5980, 50.10303
287.8090, 37.64105
289.0190, 8.185303
290.2290, 47.73553
291.4380, 42.29175
292.6480, 11.85364
293.8570, 42.42114
295.0670, 19.99408
296.2760, 28.57239
297.4850, 26.15588
298.6930, 4.255615
299.9020, 10.33734
301.1110, 3.935120
302.3190, 6.462341
303.5270, 19.14392
304.7350, 1.754639
305.9430, 13.63031
307.1510, 1.3184000E-02
308.3580, 6.392151
309.5660, 2.231812
310.7730, 8.140320
311.9800, 1.489929
313.1870, 3.876160
314.3940, 13.76044
315.6010, 4.599365
316.8070, 11.95679
318.0130, 4.686646
319.2200, 13.33331
320.4260, 29.01691
321.6310, 18.37103
322.8370, 4.273682
324.0430, 41.92017
325.2480, 42.43323
326.4540, 24.20483
327.6590, 12.84387
328.8640, 22.51550
330.0680, 3.878967
331.2730, 30.24408
332.4780, 5.620972
333.6820, 4.001709
334.8860, 16.39203
336.0900, 14.21558
337.2940, 0.1817020
338.4980, 5.412781
339.7010, 9.003296
340.9050, 30.40485
342.1080, 4.818848
343.3110, 4.242859
344.5140, 20.33936
345.7170, 21.93243
346.9200, 6.463318
348.1220, 47.85406
349.3240, 23.25830
350.5270, 1.334473
351.7290, 31.06647
352.9310, 29.47656
354.1320, 32.89563
355.3340, 42.32587
356.5350, 20.22754
357.7370, 17.21228
358.9380, 13.34265
360.1390, 7.903381
361.3400, 21.46893
362.5400, 2.960388
363.7410, 10.60992
364.9410, 12.18457
366.1410, 46.23657
367.3410, 14.32025
368.5410, 5.118958
369.7410, 1.438904
370.9400, 23.99646
372.1400, 29.55750
373.3390, 7.878174
374.5380, 1.3489000E-02
375.7370, 21.54364
376.9360, 2.896484
378.1350, 5.659729
379.3330, 1.215698
380.5310, 11.23059
381.7300, 7.314941
382.9280, 20.90161
384.1260, 22.44891
385.3230, 19.99829
386.5210, 17.54932
387.7180, 4.101807
388.9160, 25.65210
390.1130, 7.203857
391.3100, 26.75415
392.5060, 51.30579
393.7030, 39.85907
394.9000, 47.41962
396.0960, 51.97742
397.2920, 76.53632
398.4880, 86.09619
399.6840, 101.7131
400.8800, 125.2749
402.0750, 107.8375
403.2710, 117.4344
404.4660, 100.9995
405.6610, 141.0112
406.8560, 159.5793
408.0510, 149.1462
409.2450, 171.1049
410.4400, 190.4372
411.6340, 212.6725
412.8280, 175.2814
414.0220, 230.8513
415.2160, 249.4216
416.4100, 308.9939
417.6030, 317.5675
418.7970, 386.1420
419.9900, 385.7181
421.1830, 452.2957
422.3760, 477.8733
423.5690, 551.4515
424.7610, 630.0300
425.9540, 774.6087
427.1460, 899.1880
428.3380, 1149.767
429.5300, 1441.348
430.7220, 1722.929
431.9140, 2335.510
433.1050, 3065.091
434.2970, 4225.673
435.4880, 6018.255
436.6790, 8117.839
437.8700, 10938.42
439.0610, 12825.01
440.2510, 12958.59
441.4420, 11215.17
442.6320, 8826.677
443.8220, 7004.265
445.0120, 6014.854
446.2020, 5957.290
447.3910, 6605.879
448.5810, 7601.468
449.7700, 8734.616
450.9600, 9175.192
452.1490, 8413.601
453.3370, 6648.191
454.5260, 5149.522
455.7150, 3737.109
456.9030, 2729.577
458.0910, 2099.166
459.2800, 1665.596
460.4670, 1429.709
461.6550, 1199.300
462.8430, 1127.891
464.0300, 1016.101
465.2180, 885.8433
466.4050, 787.4326
467.5920, 727.0215
468.7790, 659.4198
469.9650, 621.0081
471.1520, 609.5964
472.3380, 546.0196
473.5250, 533.3632
474.7110, 445.3278
475.8970, 448.5677
477.0820, 401.8701
478.2680, 390.5361
479.4540, 324.1249
480.6390, 303.5713
481.8240, 292.1610
483.0090, 319.7510
484.1940, 243.5721
485.3780, 256.7458
486.5630, 251.9362
487.7470, 193.5257
488.9320, 220.1148
490.1160, 190.1552
491.3000, 197.8658
492.4830, 168.9648
493.6670, 154.3597
494.8500, 126.9979
496.0340, 126.7111
497.2170, 136.2068
498.4000, 96.13318
499.5820, 100.7201
500.7650, 57.04993
501.9480, 91.63696
503.1300, 66.18176
504.3120, 100.7687
505.4940, 45.82288
506.6760, 117.3961
507.8580, 58.98132
509.0390, 83.53613
510.2210, 40.12207
511.4020, 60.99939
512.5830, 70.22290
513.7640, 31.81104
514.9450, 21.39966
516.1250, 1.914917
517.3060, 54.18140
518.4860, 21.76746
519.6660, 56.68555
520.8460, 61.02246
522.0260, 30.15100
523.2060, 27.59778
524.3850, 5.979126
525.5650, 50.57556
526.7440, 17.17114
527.9230, 51.76575
529.1020, 25.34790
530.2810, 21.55591
531.4590, 30.14856
532.6380, 36.45825
533.8160, 35.05664
534.9940, 16.73242
536.1720, 10.64319
537.3500, 12.43579
538.5270, 12.04700
539.7050, 20.65857
540.8820, 5.274902
542.0590, 25.89685
543.2360, 19.51807
544.4130, 7.145508
545.5900, 26.97363
546.7660, 5.402588
547.9430, 12.22437
549.1190, 38.86426
550.2950, 4.413330
551.4710, 10.76147
552.6470, 9.079224
553.8220, 7.568359
554.9980, 29.26660
556.1730, 47.93140
557.3480, 41.99377
558.5230, 66.89197
559.6980, 24.71924
560.8730, 33.67383
562.0470, 31.64294
563.2220, 83.33215
564.3960, 33.10120
565.5700, 60.80603
566.7440, 56.51550
567.9170, 59.30750
569.0910, 65.27136
570.2640, 60.92114
571.4380, 49.74536
572.6110, 72.49365
573.7840, 36.25439
574.9570, 30.02673
576.1290, 74.06787
577.3020, 86.84570
578.4740, 86.62122
579.6460, 35.45972
580.8180, 124.2432
581.9900, 92.12817
583.1620, 85.51184
584.3330, 127.7318
585.5040, 130.5311
586.6760, 111.3076
587.8470, 149.0782
589.0180, 160.8448
590.1880, 141.6118
591.3590, 211.3770
592.5290, 190.1379
593.7000, 254.9558
594.8700, 304.7439
596.0400, 301.4946
597.2090, 386.2998
598.3790, 415.0425
599.5490, 521.7968
600.7180, 681.6584
601.8870, 861.1084
603.0560, 1106.836
604.2250, 1346.558
605.3940, 1649.347
606.5620, 1752.072
607.7300, 1855.793
608.8990, 1865.510
610.0670, 1797.347
611.2350, 1558.062
612.4020, 1234.880
613.5700, 895.5903
614.7370, 713.2964
615.9050, 476.2800
617.0720, 439.9847
618.2390, 300.0138
619.4060, 270.7979
620.5720, 280.5762
621.7390, 211.5331
622.9050, 192.3402
624.0710, 194.1411
625.2370, 136.8204
626.4030, 92.58154
627.5690, 140.2526
628.7340, 100.9170
629.9000, 150.6710
631.0650, 115.3253
632.2300, 189.1195
633.3950, 188.7798
634.5600, 267.4370
635.7240, 287.0966
636.8890, 341.8950
638.0530, 431.5554
639.2170, 545.2803
640.3810, 729.0967
641.5450, 838.7535
642.7080, 961.4823
643.8720, 857.1978
645.0350, 697.8345
646.1980, 513.4683
647.3610, 407.2404
648.5240, 287.8586
649.6870, 189.6912
650.8490, 168.5708
652.0120, 163.4336
653.1740, 91.39441
654.3360, 87.18567
655.4980, 99.02380
656.6600, 111.4332
657.8210, 69.20459
658.9830, 91.77612
660.1440, 75.88330
661.3050, 72.82031
662.4660, 78.73694
663.6270, 72.12109
664.7870, 72.95044
665.9480, 74.48340
667.1080, 80.00757
668.2680, 85.52295
669.4280, 38.05518
670.5880, 70.70789
671.7480, 102.3926
672.9070, 78.41797
674.0670, 30.19495
675.2260, 17.94714
676.3850, 24.70679
677.5440, 61.20020
678.7030, 47.95032
679.8610, 77.74329
681.0200, 80.78247
682.1780, 73.35156
683.3360, 45.74036
684.4940, 27.08508
685.6520, 58.22571
686.8090, 87.16602
687.9670, 100.9271
689.1240, 43.14539
690.2810, 54.26147
691.4380, 47.80859
692.5950, 115.6587
693.7520, 56.51318
694.9080, 80.17615
696.0650, 32.56738
697.2210, 42.09851
698.3770, 47.33350
699.5330, 39.45996
700.6880, 41.55225
701.8440, 87.03870
702.9990, 63.41211
704.1550, 103.1042
705.3100, 75.86938
706.4650, 66.70850
707.6190, 101.1874
708.7740, 61.99707
709.9290, 72.58276
711.0830, 94.37207
712.2370, 98.99353
713.3910, 112.3817
714.5450, 67.65869
715.6980, 126.0034
716.8520, 95.15930
718.0050, 87.38049
719.1580, 114.3167
720.3110, 85.46375
721.4640, 52.41357
722.6170, 60.78345
723.7700, 94.69434
724.9220, 97.58984
726.0740, 103.8923
727.2260, 119.3356
728.3780, 107.0896
729.5300, 103.9247
730.6810, 109.7445
731.8330, 89.54907
732.9840, 92.33789
734.1350, 101.1111
735.2860, 88.86902
736.4370, 116.6112
737.5880, 93.33789
738.7380, 80.04919
739.8880, 45.74402
741.0390, 112.4171
742.1890, 110.0751
743.3380, 85.71777
744.4880, 106.8683
745.6380, 99.77124
746.7870, 100.3816
747.9360, 78.96204
749.0850, 103.5259
750.2340, 79.07422
751.3830, 93.60608
752.5310, 118.1226
753.6800, 64.74963
754.8280, 108.2325
755.9760, 60.70007
757.1240, 79.42712
758.2720, 78.85999
759.4190, 63.28589
760.5670, 73.68445
761.7140, 73.15942
762.8610, 95.43152
764.0080, 75.78137
765.1550, 106.1149
766.3020, 89.43286
767.4480, 72.74036
768.5950, 94.02661
769.7410, 68.29736
770.8870, 98.55164
772.0330, 81.79028
773.1780, 81.01355
774.3240, 65.22131
775.4690, 91.41235
776.6140, 71.58801
777.7590, 61.74756
778.9040, 107.9011
780.0490, 67.11804
781.1940, 67.39575
782.3380, 97.52344
783.4820, 74.77246
784.6260, 58.84351
785.7700, 73.89563
786.9140, 52.92822
788.0580, 48.94360
789.2010, 48.94141
790.3450, 42.92188
791.4880, 50.88391
792.6310, 46.82898
793.7730, 53.75696
794.9160, 48.67004
796.0590, 76.56665
797.2010, 31.44836
798.3430, 9.310181
799.4850, 9.145142
800.6270, 47.95337
801.7690, 56.74548
802.9100, 71.52283
804.0520, 70.42261
805.1930, 68.40112
806.3340, 52.76843
807.4750, 41.48242
808.6160, 38.18628
809.7560, 1.874023
810.8970, 31.53369
812.0370, 10.90039
813.1770, 29.40503
814.3170, 8.812134
815.4570, 27.38062
816.5960, 1.932129
817.7360, 3.542114
818.8750, 30.95520
820.0140, 63.43738
821.1530, 52.89832
822.2920, 6.856201
823.4310, 11.42908
824.5690, 34.03101
825.7070, 6.324463
826.8460, 15.42114
827.9840, 40.87744
829.1220, 48.87219
830.2590, 55.62280
831.3970, 13.54126
832.5340, 17.27734
833.6710, 14.48279
834.8080, 36.39099
835.9450, 0.3560790
837.0820, 31.82446
838.2190, 23.04639
839.3550, 38.01233
840.4910, 12.08606
841.6270, 14.11633
842.7630, 16.17249
843.8990, 11.33252
845.0350, 33.43835
846.1700, 46.74719
847.3060, 35.01343
848.4410, 49.22888
849.5760, 46.48560
850.7100, 29.78174
851.8450, 0.6301270
852.9800, 3.290405
854.1140, 16.06116
855.2480, 28.49414
856.3820, 16.89392
857.5160, 11.58679
858.6500, 5.443970
859.7830, 6.674927
860.9170, 6.201782
862.0500, 55.73926
863.1830, 26.27148
864.3160, 17.20435
865.4480, 28.30310
866.5810, 61.80273
867.7130, 24.29492
868.8460, 26.71973
869.9780, 44.16284
871.1100, 43.63318
872.2410, 27.03784
873.3730, 28.49475
874.5050, 20.92859
875.6360, 51.24512
876.7670, 61.96497
877.8980, 13.39685
879.0290, 26.82275
880.1590, 16.82251
881.2900, 10.93481
882.4200, 1.1597000E-02
883.5500, 6.384155
884.6800, 21.65918
885.8100, 49.04529
886.9400, 4.319458
888.0690, 14.69653
889.1990, 6.930420
890.3280, 13.16211
891.4570, 4.525757
892.5860, 13.44250
893.7140, 14.82800
894.8430, 9.4971001E-02
895.9710, 40.17529
897.1000, 15.39673
898.2280, 58.61572
899.3560, 45.95544
900.4830, 4.207397
901.6110, 3.543091
902.7380, 0.8771970
903.8660, 50.11377
904.9930, 21.44495
906.1200, 23.64111
907.2460, 8.970337
908.3730, 17.29639
909.5000, 24.62195
910.6260, 12.80957
911.7520, 14.13782
912.8780, 14.40662
914.0040, 0.4230960
915.1290, 8.093750
916.2550, 12.84338
917.3800, 3.251587
918.5050, 13.25732
919.6300, 0.6427000
920.7550, 1.254639
921.8800, 22.58679
923.0040, 35.71228
924.1290, 42.78540
925.2530, 48.95178
926.3770, 52.87378
927.5010, 52.01257
928.6250, 48.11292
929.7480, 54.33582
930.8720, 36.50049
931.9950, 94.86060
933.1180, 97.68408
934.2410, 99.67517
935.3640, 87.68530
936.4860, 91.92822
937.6090, 127.2844
938.7310, 83.67395
939.8530, 187.0690
940.9750, 162.4702
942.0970, 139.8513
943.2180, 197.1111
944.3400, 244.3364
945.4610, 259.2200
946.5820, 290.3497
947.7030, 343.5015
948.8240, 419.6378
949.9450, 438.0420
951.0650, 538.1880
952.1860, 675.2896
953.3060, 673.0872
954.4260, 754.4099
955.5460, 824.9114
956.6650, 983.4226
957.7850, 1136.578
958.9040, 1368.670
960.0230, 1529.793
961.1420, 1849.461
962.2610, 2077.840
963.3800, 2548.414
964.4990, 3107.782
965.6170, 3700.772
966.7350, 4503.995
967.8530, 5550.490
968.9710, 6917.843
970.0890, 8945.493
971.2070, 11454.25
972.3240, 14944.04
973.4410, 19951.44
974.5580, 26784.95
975.6750, 35116.15
976.7920, 44261.27
977.9090, 51401.32
979.0250, 53923.73
980.1410, 49982.82
981.2580, 42194.13
982.3740, 32718.25
983.4890, 24968.53
984.6050, 18764.04
985.7200, 14391.67
986.8360, 11243.24
987.9510, 9146.996
989.0660, 7555.689
990.1810, 6262.672
991.2950, 5234.445
992.4100, 4529.425
993.5240, 3947.984
994.6390, 3446.005
995.7530, 3138.045
996.8660, 2763.103
997.9800, 2463.181
999.0940, 2135.374
1000.207, 2126.492
1001.320, 1975.629
1002.433, 1682.786
1003.546, 1634.963
1004.659, 1421.161
1005.772, 1319.380
1006.884, 1256.620
1007.996, 1122.882
1009.108, 1106.166
1010.220, 961.4742
1011.332, 883.8071
1012.444, 915.1609
1013.555, 820.5404
1014.666, 813.4181
1015.777, 753.5491
1016.888, 699.9792
1017.999, 642.4458
1019.110, 606.9349
1020.220, 571.4463
1021.331, 556.9797
1022.441, 527.5411
1023.551, 540.0050
1024.661, 524.6187
1025.770, 498.2551
1026.880, 477.6385
1027.989, 459.9722
1029.098, 468.0359
1030.207, 444.7762
1031.316, 448.5452
1032.425, 487.3489
1033.533, 467.1776
1034.642, 475.0426
1035.750, 470.9314
1036.858, 501.8446
1037.966, 479.7942
1039.073, 551.7679
1040.181, 551.7810
1041.288, 564.8262
1042.396, 613.9100
1043.503, 631.0291
1044.610, 653.1785
1045.716, 755.3529
1046.823, 805.5525
1047.929, 885.7666
1049.036, 998.9299
1050.142, 1012.044
1051.248, 1138.322
1052.353, 1243.491
1053.459, 1443.855
1054.564, 1474.248
1055.670, 1547.684
1056.775, 1554.156
1057.880, 1603.654
1058.985, 1691.180
1060.089, 1692.746
1061.194, 1714.904
1062.298, 1740.968
1063.402, 1666.625
1064.506, 1611.313
1065.610, 1502.031
1066.713, 1408.788
1067.817, 1379.577
1068.920, 1286.401
1070.023, 1244.262
1071.126, 1160.151
1072.229, 1054.067
1073.332, 999.0181
1074.435, 922.9978
1075.537, 927.0037
1076.639, 806.0370
1077.741, 821.0972
1078.843, 765.1965
1079.945, 707.3247
1081.046, 575.4897
1082.148, 604.6882
1083.249, 611.9218
1084.350, 641.1887
1085.451, 563.4946
1086.551, 560.8359
1087.652, 509.2079
1088.752, 488.6090
1089.853, 453.0356
1090.953, 485.4984
1092.053, 463.0009
1093.152, 437.5446
1094.252, 369.1183
1095.351, 382.7280
1096.451, 302.3687
1097.550, 368.0576
1098.649, 329.7926
1099.748, 301.5559
1100.846, 297.3545
1101.945, 316.1807
1103.043, 267.0328
1104.141, 309.9161
1105.239, 299.8383
1106.337, 294.7959
1107.434, 279.7946
1108.532, 273.6576
1109.629, 262.0521
1110.726, 272.2714
1111.823, 269.6755
1112.920, 275.6473
1114.017, 282.8585
1115.113, 294.1298
1116.210, 309.4536
1117.306, 253.7471
1118.402, 311.1104
1119.498, 270.5017
1120.593, 226.9180
1121.689, 276.3652
1122.784, 317.8470
1123.879, 283.1366
1124.974, 321.6743
1126.069, 309.2394
1127.164, 345.8285
1128.259, 354.4421
1129.353, 305.0802
1130.447, 260.7422
1131.541, 279.4327
1132.635, 328.1469
1133.729, 384.8845
1134.822, 370.6458
1135.916, 416.4302
1137.009, 426.2966
1138.102, 525.3855
1139.195, 531.2393
1140.288, 591.4822
1141.380, 674.9448
1142.473, 663.8668
1143.565, 738.8116
1144.657, 829.6929
1145.749, 889.6821
1146.841, 1029.697
1147.932, 1123.736
1149.024, 1193.797
1150.115, 1281.880
1151.206, 1400.984
1152.297, 1550.540
1153.388, 1654.687
1154.479, 1869.757
1155.569, 1892.948
1156.659, 1971.162
1157.750, 2068.472
1158.839, 2009.188
1159.929, 1844.466
1161.019, 1857.913
1162.108, 1761.189
1163.198, 1683.897
1164.287, 1547.505
1165.376, 1422.656
1166.465, 1225.051
1167.553, 1156.658
1168.642, 1036.622
1169.730, 978.0728
1170.818, 887.9592
1171.906, 846.1709
1172.994, 782.9529
1174.082, 724.8640
1175.170, 639.5066
1176.257, 594.1567
1177.344, 534.7302
1178.431, 498.3115
1179.518, 474.6362
1180.605, 443.6692
1181.691, 397.1726
1182.778, 363.5077
1183.864, 379.7080
1184.950, 400.5485
1186.036, 325.3464
1187.122, 275.2190
1188.207, 290.9524
1189.292, 282.9822
1190.378, 236.6591
1191.463, 281.4344
1192.548, 181.3315
1193.632, 238.6132
1194.717, 180.3536
1195.801, 160.9985
1196.886, 154.1600
1197.970, 164.1512
1199.054, 125.7595
1200.137, 141.9236
1201.221, 162.3037
1202.305, 151.2230
1203.388, 128.5142
1204.471, 99.89368
1205.554, 58.82727
1206.637, 68.88525
1207.719, 96.83960
1208.802, 25.18213
1209.884, 105.4270
1210.966, 74.56384
1212.048, 94.80774
1213.130, 77.80835
1214.212, 61.04822
1215.293, 69.63916
1216.374, 146.0452
1217.456, 65.84131
1218.536, 127.5421
1219.617, 66.59644
1220.698, 77.07812
1221.778, 94.25732
1222.859, 87.33716
1223.939, 95.42004
1225.019, 28.63611
1226.099, 84.79883
1227.178, 65.81726
1228.258, 48.08118
1229.337, 78.19434
1230.417, 55.33447
1231.496, 51.86353
1232.574, 26.72852
1233.653, 35.02625
1234.732, 29.29358
1235.810, 33.43616
1236.888, 16.87915
