##NAMES=Anglesite
##RRUFFID=R050052
##IDEAL CHEMISTRY=Pb^2+^S^6+^O_4_
##LOCALITY=Touissite, Oujela, Morocco
##OWNER=RRUFF
##SOURCE=Eugene Schlepp
##DESCRIPTION=Yellow prismatic single crystal
##STATUS=The identification of this mineral has been confirmed by X-ray diffraction and chemical analysis
##URL=rruff.info/R050052
##MEASURED CHEMISTRY=Pb_1.00_S_1.00_O_4_
##PIN_ID=L00472
##ORIENTATION=Laser parallel to b* (0 1 0). Fiducial mark perpendicular to laser is parallel to -c [0 0 -1]
98.251, 0.000
99.644, 70.343
101.036, 71.109
102.428, 99.835
103.820, 160.147
105.212, 90.905
106.604, 147.318
107.995, 127.255
109.387, 172.938
110.777, 159.825
112.168, 152.531
113.559, 165.766
114.949, 132.295
116.339, 203.925
117.729, 153.491
119.119, 253.856
120.508, 196.919
121.897, 233.623
123.286, 251.922
124.675, 220.766
126.063, 285.105
127.452, 229.882
128.840, 283.050
130.228, 236.565
131.615, 284.381
133.003, 280.456
134.390, 262.750
135.777, 233.227
137.164, 218.857
138.550, 230.614
139.937, 176.496
141.323, 205.570
142.709, 203.849
144.094, 201.417
145.480, 317.263
146.865, 305.323
148.250, 452.583
149.635, 570.013
151.019, 669.563
152.403, 805.294
153.788, 909.097
155.171, 1052.878
156.555, 926.773
157.939, 1007.714
159.322, 841.656
160.705, 843.651
162.088, 694.656
163.470, 605.621
164.853, 572.521
166.235, 464.384
167.617, 458.186
168.998, 418.920
170.380, 349.576
171.761, 332.150
173.142, 243.647
174.523, 306.069
175.904, 222.419
177.284, 289.699
178.664, 238.912
180.044, 221.308
181.424, 204.759
182.803, 191.637
184.183, 222.540
185.562, 176.589
186.940, 247.364
188.319, 208.476
189.698, 207.559
191.076, 269.166
192.454, 173.533
193.831, 252.605
195.209, 147.103
196.586, 191.413
197.963, 189.474
199.340, 149.336
200.717, 173.562
202.093, 133.757
203.470, 208.684
204.846, 180.641
206.221, 204.660
207.597, 139.100
208.972, 122.295
210.347, 200.428
211.722, 127.324
213.097, 162.738
214.472, 129.502
215.846, 186.410
217.220, 133.032
218.594, 116.897
219.967, 182.365
221.341, 82.509
222.714, 184.187
224.087, 62.265
225.460, 113.302
226.832, 121.529
228.204, 86.352
229.577, 151.830
230.948, 60.946
232.320, 126.582
233.692, 95.187
235.063, 58.947
236.434, 89.550
237.805, 56.703
239.175, 95.396
240.545, 7.871
241.916, 49.416
243.286, 45.755
244.655, 42.086
246.025, 55.489
247.394, 22.799
248.763, 61.099
250.132, 57.389
251.501, 86.669
252.869, 39.938
254.237, 5.195
255.605, 68.442
256.973, 15.679
258.340, 55.904
259.708, 3.119
261.075, 5.677
262.442, 25.514
263.808, 7.969
265.175, 56.977
266.541, 35.806
267.907, 1.599
269.273, 24.153
270.639, 20.174
272.004, 25.409
273.369, 26.569
274.734, 22.333
276.099, 28.710
277.463, 25.712
278.828, 13.680
280.192, 37.616
281.556, 11.467
282.919, 41.427
284.283, 26.690
285.646, 48.177
287.009, 16.957
288.372, 26.899
289.734, 49.753
291.097, 13.385
292.459, 38.473
293.821, 43.659
295.183, 22.209
296.544, 2.085
297.905, 4.035
299.266, 22.850
300.627, 36.253
301.988, 65.649
303.348, 19.423
304.709, 5.512
306.069, 32.459
307.428, 8.575
308.788, 43.402
310.147, 53.596
311.507, 27.419
312.865, 7.458
314.224, 6.484
315.583, 1.591
316.941, 38.314
318.299, 23.797
319.657, 31.066
321.015, 12.912
322.372, 2.740
323.729, 23.547
325.086, 47.664
326.443, 48.091
327.800, 26.172
329.156, 17.537
330.512, 13.227
331.868, 2.101
333.224, 59.548
334.579, 15.818
335.935, 33.790
337.290, 6.382
338.645, 13.045
339.999, 38.505
341.354, 9.961
342.708, 59.552
344.062, 31.952
345.416, 16.514
346.769, 37.951
348.123, 5.374
349.476, 51.764
350.829, 5.132
352.182, 4.462
353.534, 37.754
354.887, 33.016
356.239, 61.244
357.591, 14.448
358.942, 78.616
360.294, 68.755
361.645, 23.870
362.996, 24.960
364.347, 27.008
365.698, 66.039
367.048, 1.940
368.398, 76.026
369.748, 36.996
371.098, 46.912
372.448, 72.803
373.797, 23.708
375.146, 73.573
376.495, 40.406
377.844, 96.212
379.192, 100.000
380.540, 57.778
381.889, 142.531
383.236, 50.345
384.584, 155.060
385.932, 104.805
387.279, 100.628
388.626, 142.293
389.973, 66.049
391.319, 168.704
392.666, 163.460
394.012, 195.294
395.358, 200.952
396.704, 151.723
398.049, 230.346
399.394, 135.049
400.740, 218.709
402.084, 232.305
403.429, 255.997
404.774, 304.578
406.118, 274.152
407.462, 325.721
408.806, 267.281
410.150, 288.010
411.493, 285.557
412.836, 284.098
414.179, 389.631
415.522, 325.157
416.865, 485.777
418.207, 532.292
419.549, 541.801
420.891, 668.303
422.233, 715.799
423.575, 848.172
424.916, 954.662
426.257, 1264.959
427.598, 1552.441
428.939, 1890.434
430.279, 2668.904
431.619, 3545.364
432.959, 5187.107
434.299, 7681.567
435.639, 11504.932
436.978, 16634.359
438.318, 20812.492
439.657, 24760.770
440.996, 23489.652
442.334, 18407.088
443.673, 13576.459
445.011, 9003.543
446.349, 6331.897
447.687, 4468.453
449.024, 3240.784
450.361, 2581.568
451.699, 1878.861
453.036, 1648.156
454.372, 1302.050
455.709, 1170.322
457.045, 998.129
458.381, 824.132
459.717, 880.365
461.053, 683.972
462.388, 676.186
463.724, 621.001
465.059, 586.198
466.394, 563.689
467.728, 531.447
469.063, 549.595
470.397, 503.569
471.731, 456.722
473.065, 468.599
474.398, 402.685
475.732, 438.547
477.065, 395.905
478.398, 418.003
479.731, 396.872
481.063, 352.947
482.396, 380.828
483.728, 285.219
485.060, 374.210
486.391, 303.355
487.723, 276.387
489.054, 301.807
490.385, 193.606
491.716, 245.245
493.047, 228.059
494.377, 199.055
495.708, 233.952
497.038, 174.873
498.368, 184.053
499.697, 118.205
501.027, 141.116
502.356, 229.254
503.685, 87.206
505.014, 222.857
506.342, 101.296
507.671, 142.138
508.999, 139.008
510.327, 132.894
511.655, 163.698
512.982, 89.434
514.310, 121.188
515.637, 96.939
516.964, 70.816
518.291, 100.938
519.617, 85.847
520.944, 130.751
522.270, 82.184
523.596, 111.589
524.921, 92.045
526.247, 47.074
527.572, 101.214
528.897, 41.187
530.222, 89.795
531.547, 98.534
532.871, 44.482
534.196, 108.736
535.520, 49.988
536.844, 85.604
538.167, 72.501
539.491, 47.569
540.814, 105.356
542.137, 31.632
543.460, 86.364
544.783, 36.330
546.105, 20.983
547.427, 97.821
548.749, 33.106
550.071, 74.928
551.393, 29.710
552.714, 20.283
554.035, 51.123
555.356, 27.246
556.677, 72.634
557.998, 39.486
559.318, 47.298
560.638, 84.052
561.958, 35.982
563.278, 72.013
564.597, 60.759
565.917, 70.714
567.236, 89.420
568.555, 25.271
569.874, 111.072
571.192, 60.749
572.511, 65.484
573.829, 109.145
575.147, 37.444
576.464, 140.236
577.782, 103.026
579.099, 107.966
580.416, 137.743
581.733, 107.913
583.050, 159.776
584.366, 111.455
585.683, 213.256
586.999, 185.818
588.315, 202.975
589.630, 286.522
590.946, 181.059
592.261, 383.368
593.576, 316.892
594.891, 416.497
596.206, 567.040
597.520, 582.595
598.834, 867.803
600.148, 1078.292
601.462, 1476.627
602.776, 2012.174
604.089, 2528.651
605.402, 3163.765
606.715, 3249.232
608.028, 2899.908
609.341, 2530.361
610.653, 1788.816
611.965, 1430.398
613.277, 1079.889
614.589, 799.587
615.901, 656.016
617.212, 450.435
618.523, 544.354
619.834, 368.759
621.145, 316.207
622.456, 312.028
623.766, 242.419
625.076, 216.458
626.386, 164.841
627.696, 149.214
629.006, 160.595
630.315, 134.959
631.624, 171.306
632.933, 121.662
634.242, 125.009
635.551, 135.348
636.859, 107.675
638.167, 179.002
639.475, 86.317
640.783, 123.621
642.090, 182.152
643.398, 96.438
644.705, 171.483
646.012, 89.786
647.318, 138.066
648.625, 85.084
649.931, 82.344
651.237, 153.039
652.543, 68.972
653.849, 150.231
655.155, 107.849
656.460, 34.069
657.765, 139.881
659.070, 62.187
660.375, 92.386
661.679, 149.267
662.984, 71.456
664.288, 158.776
665.592, 87.000
666.895, 124.160
668.199, 135.552
669.502, 91.693
670.805, 127.826
672.108, 60.724
673.411, 166.834
674.713, 112.444
676.016, 82.531
677.318, 131.329
678.620, 81.574
679.921, 117.639
681.223, 92.276
682.524, 60.808
683.825, 134.804
685.126, 80.047
686.427, 112.004
687.727, 97.510
689.028, 82.278
690.328, 133.208
691.628, 49.516
692.927, 123.765
694.227, 109.930
695.526, 70.352
696.825, 175.459
698.124, 51.327
699.423, 96.097
700.721, 77.932
702.020, 4.692
703.318, 130.338
704.616, 20.524
705.913, 88.115
707.211, 26.831
708.508, 6.416
709.805, 92.890
711.102, 3.118
712.399, 9.350
713.695, 81.937
714.992, 88.419
716.288, 112.920
717.584, 63.463
718.879, 72.886
720.175, 90.397
721.470, 44.899
722.765, 96.378
724.060, 63.844
725.355, 68.468
726.649, 115.903
727.944, 78.153
729.238, 120.560
730.532, 32.953
731.825, 61.227
733.119, 59.585
734.412, 46.928
735.705, 57.255
736.998, 6.566
738.291, 47.850
739.584, 63.118
740.876, 49.372
742.168, 97.610
743.460, 29.834
744.752, 105.041
746.043, 83.233
747.334, 22.413
748.626, 133.573
749.916, 57.719
751.207, 68.852
752.498, 63.972
753.788, 22.078
755.078, 95.164
756.368, 17.238
757.658, 55.292
758.947, 73.332
760.237, 21.359
761.526, 105.368
762.815, 37.365
764.104, 102.346
765.392, 113.316
766.680, 40.273
767.969, 52.216
769.257, 31.146
770.544, 82.062
771.832, 94.966
773.119, 19.857
774.406, 74.732
775.693, 43.594
776.980, 0.555
778.267, 83.270
779.553, 36.916
780.839, 109.854
782.125, 74.612
783.411, 47.359
784.697, 132.095
785.982, 3.818
787.267, 140.522
788.552, 76.214
789.837, 57.894
791.122, 149.564
792.406, 44.223
793.690, 47.871
794.974, 95.508
796.258, 16.134
797.542, 90.747
798.825, 28.650
800.108, 25.918
801.391, 51.475
802.674, 13.978
803.957, 83.543
805.239, 25.946
806.522, 14.467
807.804, 17.980
809.085, 26.577
810.367, 40.835
811.649, 14.956
812.930, 7.578
814.211, 53.732
815.492, 49.919
816.772, 51.389
818.053, 10.334
819.333, 7.944
820.613, 28.213
821.893, 45.528
823.173, 45.694
824.452, 16.908
825.732, 23.886
827.011, 19.213
828.290, 84.615
829.568, 17.503
830.847, 41.396
832.125, 65.319
833.403, 4.677
834.681, 57.298
835.959, 7.316
837.236, 14.506
838.514, 69.528
839.791, 39.325
841.068, 27.759
842.345, 32.864
843.621, 5.940
844.898, 75.195
846.174, 6.746
847.450, 74.934
848.726, 12.166
850.001, 5.584
851.277, 16.165
852.552, 50.510
853.827, 21.215
855.102, 14.842
856.376, 27.768
857.651, 51.504
858.925, 66.753
860.199, 26.384
861.473, 10.120
862.746, 85.050
864.020, 13.299
865.293, 36.055
866.566, 62.132
867.839, 13.732
869.112, 141.362
870.384, 50.038
871.656, 65.526
872.928, 94.095
874.200, 1.740
875.472, 133.984
876.744, 50.654
878.015, 15.833
879.286, 86.719
880.557, 30.616
881.828, 54.977
883.098, 9.635
884.369, 54.646
885.639, 104.153
886.909, 38.654
888.178, 129.997
889.448, 63.493
890.717, 58.588
891.987, 123.982
893.256, 81.553
894.524, 138.994
895.793, 79.668
897.061, 46.745
898.330, 122.425
899.598, 64.108
900.865, 68.015
902.133, 104.705
903.401, 51.313
904.668, 181.975
905.935, 114.625
907.202, 105.622
908.468, 155.333
909.735, 105.202
911.001, 80.852
912.267, 80.577
913.533, 147.661
914.799, 205.398
916.064, 172.920
917.330, 163.669
918.595, 148.424
919.860, 153.046
921.124, 224.768
922.389, 123.277
923.653, 220.059
924.918, 248.847
926.182, 181.133
927.445, 304.936
928.709, 210.694
929.972, 232.094
931.236, 363.921
932.499, 215.101
933.761, 354.945
935.024, 252.797
936.286, 264.653
937.549, 428.524
938.811, 319.420
940.073, 419.310
941.334, 406.210
942.596, 320.119
943.857, 452.043
945.118, 485.976
946.379, 560.920
947.640, 708.892
948.900, 676.640
950.161, 827.633
951.421, 898.890
952.681, 962.889
953.940, 1160.924
955.200, 1185.223
956.459, 1439.282
957.719, 1691.911
958.978, 1798.304
960.236, 2229.381
961.495, 2486.100
962.753, 2943.223
964.012, 3734.762
965.270, 4143.811
966.527, 5357.974
967.785, 6520.458
969.043, 7947.650
970.300, 10822.719
971.557, 13838.885
972.814, 19025.129
974.071, 26268.143
975.327, 35804.414
976.583, 50010.711
977.840, 60065.238
979.095, 62971.559
980.351, 62962.395
981.607, 53128.746
982.862, 41962.395
984.117, 32674.596
985.372, 23940.992
986.627, 19073.818
987.882, 14719.765
989.136, 11806.237
990.390, 9898.489
991.644, 7945.009
992.898, 7216.018
994.152, 5936.772
995.405, 5281.353
996.659, 4885.588
997.912, 4119.884
999.165, 4016.272
1000.417, 3612.408
1001.670, 3198.863
1002.922, 3132.575
1004.174, 2679.309
1005.426, 2574.064
1006.678, 2472.840
1007.930, 2185.654
1009.181, 2246.127
1010.432, 1928.997
1011.683, 1875.901
1012.934, 1845.828
1014.185, 1647.785
1015.435, 1722.404
1016.685, 1508.423
1017.935, 1441.472
1019.185, 1512.541
1020.435, 1311.633
1021.684, 1390.760
1022.934, 1363.915
1024.183, 1251.093
1025.432, 1434.291
1026.680, 1256.520
1027.929, 1328.775
1029.177, 1349.720
1030.425, 1264.036
1031.673, 1392.570
1032.921, 1448.959
1034.169, 1376.373
1035.416, 1584.846
1036.663, 1469.341
1037.911, 1637.862
1039.157, 1793.435
1040.404, 1840.031
1041.650, 2046.666
1042.897, 2088.339
1044.143, 2257.037
1045.389, 2454.774
1046.634, 2520.576
1047.880, 2873.366
1049.125, 3095.197
1050.371, 3251.050
1051.615, 3873.930
1052.860, 3970.833
1054.105, 4292.760
1055.349, 4696.708
1056.593, 4752.681
1057.837, 5049.680
1059.081, 5219.715
1060.325, 5200.775
1061.568, 5427.860
1062.812, 5221.985
1064.055, 5222.136
1065.298, 5106.315
1066.540, 4481.521
1067.783, 4540.750
1069.025, 4138.004
1070.267, 3812.282
1071.509, 3653.583
1072.751, 3123.915
1073.993, 3058.270
1075.234, 2777.649
1076.475, 2538.063
1077.716, 2488.499
1078.957, 2173.958
1080.198, 2105.448
1081.438, 2010.959
1082.679, 1718.526
1083.919, 1784.118
1085.159, 1624.734
1086.398, 1527.380
1087.638, 1618.048
1088.877, 1253.745
1090.116, 1321.464
1091.355, 1260.207
1092.594, 1121.675
1093.833, 1162.464
1095.071, 977.276
1096.309, 968.801
1097.547, 954.660
1098.785, 784.542
1100.023, 862.893
1101.260, 742.833
1102.498, 693.119
1103.735, 785.104
1104.972, 591.120
1106.208, 764.158
1107.445, 687.229
1108.681, 487.330
1109.918, 519.457
1111.154, 391.616
1112.389, 215.797
1113.625, 256.008
1114.860, 192.245
1116.096, 298.504
1117.331, 287.801
1118.566, 316.120
1119.800, 443.272
1121.035, 333.640
1122.269, 405.962
1123.503, 412.387
1124.737, 284.832
1125.971, 427.544
1127.205, 352.040
1128.438, 207.557
1129.671, 380.119
1130.904, 231.701
1132.137, 231.316
1133.370, 338.972
1134.602, 194.650
1135.834, 263.904
1137.066, 283.640
1138.298, 194.394
1139.530, 321.217
1140.762, 169.029
1141.993, 209.866
1143.224, 263.250
1144.455, 100.133
1145.686, 234.053
1146.917, 190.992
1148.147, 86.969
1149.377, 298.232
1150.607, 161.250
1151.837, 215.283
1153.067, 227.334
1154.296, 121.402
1155.526, 257.681
1156.755, 117.781
1157.984, 121.908
1159.213, 161.403
1160.441, 117.562
1161.670, 63.746
1162.898, 194.950
1164.126, 44.158
1165.354, 219.381
1166.581, 93.617
1167.809, 46.868
1169.036, 147.250
1170.263, 13.431
1171.490, 55.953
1172.717, 89.827
1173.943, 26.477
1175.170, 174.457
1176.396, 105.547
1177.622, 112.907
1178.848, 177.124
1180.073, 41.066
1181.299, 194.911
1182.524, 187.008
1183.749, 30.478
1184.974, 228.216
1186.199, 142.242
1187.423, 135.695
1188.648, 198.082
1189.872, 47.981
1191.096, 88.463
1192.320, 139.681
1193.543, 4.070
1194.767, 115.489
1195.990, 80.170
1197.213, 105.694
1198.436, 186.226
1199.659, 37.766
1200.881, 134.312
1202.104, 154.866
1203.326, 34.428
1204.548, 173.995
1205.770, 139.266
1206.991, 92.846
1208.213, 210.461
1209.434, 57.910
1210.655, 159.508
1211.876, 151.709
1213.096, 82.509
1214.317, 202.122
1215.537, 165.094
1216.757, 120.798
1217.977, 259.429
1219.197, 190.585
1220.417, 226.225
1221.636, 152.130
1222.855, 144.612
1224.074, 236.262
1225.293, 95.917
1226.512, 122.574
1227.731, 192.234
1228.949, 42.701
1230.167, 160.755
1231.385, 149.567
1232.603, 42.960
1233.820, 151.629
1235.038, 81.376
1236.255, 19.112
1237.472, 121.796
1238.689, 29.229
1239.906, 5.491
1241.122, 79.173
1242.338, 88.624
1243.555, 66.055
1244.771, 14.741
1245.986, 44.392
1247.202, 105.302
1248.417, 14.921
1249.633, 106.786
1250.848, 110.495
1252.063, 7.348
1253.277, 133.065
1254.492, 63.786
1255.706, 16.186
1256.920, 143.918
1258.134, 8.656
1259.348, 62.414
1260.562, 139.137
1261.775, 7.864
1262.988, 69.586
1264.201, 53.312
1265.414, 21.971
1266.627, 89.746
1267.839, 23.534
1269.052, 30.172
1270.264, 99.866
1271.476, 6.437
1272.688, 134.340
1273.899, 119.027
1275.111, 14.700
1276.322, 172.371
1277.533, 48.029
1278.744, 27.538
1279.955, 165.132
1281.165, 42.281
1282.376, 86.243
1283.586, 103.722
1284.796, 31.814
1286.006, 98.661
1287.215, 57.055
1288.425, 21.441
1289.634, 44.909
1290.843, 10.254
1292.052, 52.642
1293.261, 105.958
1294.469, 29.732
1295.678, 55.998
1296.886, 57.243
1298.094, 15.478
1299.302, 82.705
1300.509, 25.087
1301.717, 62.085
1302.924, 136.250
1304.131, 25.594
1305.338, 65.538
1306.545, 21.613
1307.752, 18.323
1308.958, 104.113
1310.164, 60.143
1311.370, 45.157
1312.576, 81.248
1313.782, 32.765
1314.987, 3.195
1316.193, 19.136
1317.398, 11.061
1318.603, 17.960
1319.807, 10.843
1321.012, 39.295
1322.216, 72.535
1323.421, 71.653
1324.625, 16.117
1325.829, 19.866
1327.032, 99.407
1328.236, 41.386
1329.439, 27.031
1330.642, 80.345
1331.845, 100.238
1333.048, 5.202
1334.251, 28.669
1335.453, 104.937
1336.656, 32.579
1337.858, 18.864
1339.060, 52.249
1340.261, 38.346
1341.463, 138.024
1342.664, 82.377
1343.866, 72.715
1345.067, 145.028
1346.267, 106.323
1347.468, 123.601
1348.669, 137.900
1349.869, 11.856
1351.069, 124.359
1352.269, 69.557
1353.469, 29.262
1354.668, 145.883
1355.868, 8.012
1357.067, 52.118
1358.266, 110.204
1359.465, 44.274
1360.664, 65.328
1361.862, 151.345
1363.061, 12.370
1364.259, 143.372
1365.457, 53.474
1366.655, 7.450
1367.852, 210.405
1369.050, 91.357
1370.247, 136.292
1371.444, 201.141
1372.641, 23.041
1373.838, 50.734
1375.035, 67.469
1376.231, 12.177
1377.427, 131.858
1378.623, 77.539
1379.819, 84.075
1381.015, 148.887
1382.211, 63.396
1383.406, 90.075
1384.601, 183.019
1385.796, 50.105
1386.991, 168.517
1388.185, 153.915
1389.380, 77.297
1390.574, 222.663
1391.768, 94.015
1392.962, 142.354
1394.156, 232.773
1395.350, 88.018
1396.543, 131.294
1397.736, 263.272
1398.929, 56.514
1400.122, 213.740
1401.315, 212.942
1402.507, 117.079
1403.700, 223.758
1404.892, 174.862
1406.084, 214.069
1407.276, 257.126
1408.467, 136.302
1409.659, 242.297
1410.850, 240.280
1412.041, 133.385
1413.232, 300.206
1414.423, 219.072
1415.614, 106.217
1416.804, 294.038
1417.994, 126.540
1419.184, 125.704
1420.374, 267.149
1421.564, 46.550
1422.753, 216.683
1423.943, 221.700
1425.132, 110.671
1426.321, 238.611
1427.510, 118.827
1428.698, 83.635
1429.887, 205.645
1431.075, 56.863
1432.263, 165.642
1433.451, 195.398
1434.639, 75.130
1435.827, 170.333
1437.014, 171.908
1438.201, 26.876
1439.388, 170.232
1440.575, 164.008
1441.762, 93.222
1442.949, 196.768
1444.135, 74.130
1445.321, 124.282
1446.507, 212.400
1447.693, 57.335
1448.879, 178.555
1450.064, 193.220
1451.250, 17.840
1452.435, 148.837
1453.620, 119.362
1454.805, 39.847
1455.989, 172.833
1457.174, 61.896
1458.358, 87.698
1459.542, 182.701
1460.726, 96.970
1461.910, 143.614
1463.093, 204.263
1464.277, 74.797
1465.460, 194.233
1466.643, 135.532
1467.826, 68.764
1469.009, 231.631
1470.191, 21.655
1471.373, 75.129
1472.556, 204.200
1473.738, 36.543
1474.919, 61.869
1476.101, 211.100
1477.283, 14.735
1478.464, 163.146
1479.645, 163.135
1480.826, 52.773
1482.007, 187.352
1483.187, 150.989
1484.368, 94.529
1485.548, 203.367
1486.728, 63.506
1487.908, 135.825
1489.088, 188.473
1490.268, 14.089
1491.447, 132.742
1492.626, 138.387
1493.805, 25.041
1494.984, 185.731
1496.163, 157.854
1497.341, 40.720
1498.520, 207.668
1499.698, 60.933
1500.876, 28.010
1502.054, 196.127
1503.232, 13.710
1504.409, 116.627
1505.586, 165.701
1506.763, 2.214
1507.940, 151.856
1509.117, 112.711
1510.294, 17.778
1511.470, 154.103
1512.647, 13.724
1513.823, 30.987
1514.999, 175.170
1516.174, 70.661
1517.350, 25.049
1518.526, 170.438
1519.701, 0.000
##END=



