##NAMES=Anglesite
##RRUFFID=R050052
##IDEAL CHEMISTRY=Pb^2+^S^6+^O_4_
##LOCALITY=Touissite, Oujela, Morocco
##OWNER=RRUFF
##SOURCE=Eugene Schlepp
##DESCRIPTION=Yellow prismatic single crystal
##STATUS=The identification of this mineral has been confirmed by X-ray diffraction and chemical analysis
##URL=rruff.info/R050052
##MEASURED CHEMISTRY=Pb_1.00_S_1.00_O_4_
##PIN_ID=L00231
##ORIENTATION=Laser parallel to -a* (-1 0 0). Fiducial mark perpendicular to laser is parallel to -b [0 -1 0]
46.637, 0.000
48.043, 18.568
49.450, 55.128
50.856, 69.354
52.261, 96.788
53.667, 123.071
55.072, 136.673
56.477, 143.792
57.882, 150.353
59.287, 167.655
60.691, 201.217
62.095, 236.295
63.499, 251.957
64.903, 238.518
66.306, 178.492
67.709, 137.905
69.112, 101.453
70.515, 63.123
71.917, 42.180
73.319, 10.779
74.721, 9.749
76.123, 16.196
77.525, 24.061
78.926, 4.849
80.327, 4.560
81.728, 21.805
83.128, 20.240
84.529, 64.736
85.929, 74.284
87.329, 176.876
88.728, 258.505
90.128, 317.170
91.527, 507.870
92.926, 677.602
94.324, 1030.362
95.723, 1200.150
97.121, 1491.968
98.519, 1533.819
99.917, 1550.699
101.314, 1523.609
102.712, 1387.553
104.109, 1406.532
105.505, 1293.535
106.902, 1352.559
108.298, 1345.622
109.694, 1359.745
111.090, 1384.891
112.486, 1360.087
113.881, 1393.999
115.277, 1394.668
116.672, 1459.988
118.066, 1452.315
119.461, 1537.634
120.855, 1601.934
122.249, 1669.218
123.643, 1821.484
125.036, 1903.733
126.430, 2209.957
127.823, 2304.156
129.216, 2609.328
130.608, 2818.491
132.001, 2997.702
133.393, 3294.947
134.785, 3210.213
136.176, 3482.489
137.568, 3283.765
138.959, 3122.026
140.350, 2979.264
141.741, 2598.474
143.131, 2489.753
144.521, 2228.078
145.911, 2244.411
147.301, 2077.840
148.691, 2100.312
150.080, 2123.772
151.469, 2096.248
152.858, 2139.593
154.247, 1883.084
155.635, 1810.690
157.024, 1553.351
158.411, 1385.977
159.799, 1306.719
161.187, 1103.303
162.574, 1028.772
163.961, 908.278
165.348, 843.713
166.734, 812.253
168.121, 758.190
169.507, 742.140
170.893, 704.613
172.278, 670.679
173.664, 649.062
175.049, 648.362
176.434, 636.170
177.819, 597.226
179.203, 596.942
180.587, 553.426
181.971, 541.413
183.355, 513.997
184.739, 554.037
186.122, 483.607
187.505, 479.882
188.888, 438.625
190.271, 395.530
191.653, 437.379
193.035, 380.160
194.417, 386.104
195.799, 398.820
197.180, 376.785
198.562, 368.589
199.943, 320.189
201.324, 376.102
202.704, 323.750
204.084, 320.268
205.465, 316.800
206.844, 300.254
208.224, 294.599
209.603, 249.151
210.983, 279.581
212.362, 255.835
213.740, 263.544
215.119, 281.262
216.497, 237.762
217.875, 255.096
219.253, 213.245
220.631, 208.191
222.008, 212.955
223.385, 209.560
224.762, 186.995
226.139, 178.278
227.515, 189.352
228.891, 146.129
230.267, 160.740
231.643, 147.276
233.018, 116.716
234.394, 147.000
235.769, 121.142
237.144, 131.021
238.518, 95.715
239.893, 115.921
241.267, 79.136
242.641, 82.006
244.014, 83.427
245.388, 60.096
246.761, 71.820
248.134, 58.384
249.507, 54.939
250.879, 60.947
252.252, 45.036
253.624, 55.512
254.996, 41.984
256.367, 57.450
257.739, 53.910
259.110, 47.365
260.481, 35.813
261.852, 32.256
263.222, 26.651
264.592, 21.120
265.962, 22.542
267.332, 18.956
268.702, 23.363
270.071, 20.763
271.440, 4.154
272.809, 21.538
274.178, 13.913
275.546, 19.280
276.915, 28.638
278.283, 12.987
279.650, 22.328
281.018, 15.263
282.385, 25.980
283.752, 9.292
285.119, 8.594
286.486, 14.887
287.852, 5.830
289.218, 9.443
290.584, 6.295
291.950, 18.957
293.316, 20.801
294.681, 1.573
296.046, 15.645
297.411, 6.853
298.775, 3.052
300.140, 13.759
301.504, 12.417
302.868, 1.417
304.231, 5.262
305.595, 2.883
306.958, 23.982
308.321, 18.864
309.684, 1.760
311.047, 9.667
312.409, 10.587
313.771, 15.520
315.133, 12.384
316.495, 5.429
317.856, 2.403
319.217, 0.612
320.578, 7.615
321.939, 4.607
323.299, 9.413
324.660, 7.553
326.020, 5.492
327.380, 13.550
328.739, 8.378
330.099, 9.296
331.458, 0.202
332.817, 10.095
334.176, 1.975
335.534, 2.837
336.892, 17.688
338.251, 2.471
339.608, 7.354
340.966, 10.167
342.323, 12.963
343.681, 4.258
345.037, 8.504
346.394, 4.249
347.751, 1.017
349.107, 7.706
350.463, 23.419
351.819, 5.879
353.174, 15.810
354.530, 3.491
355.885, 5.164
357.240, 16.829
358.594, 15.486
359.949, 16.135
361.303, 7.777
362.657, 7.411
364.011, 29.038
365.365, 4.658
366.718, 22.271
368.071, 15.879
369.424, 17.481
370.777, 17.077
372.129, 9.721
373.481, 34.613
374.833, 30.193
376.185, 42.800
377.537, 17.544
378.888, 37.129
380.239, 39.944
381.590, 45.556
382.941, 58.194
384.291, 52.749
385.642, 51.604
386.992, 68.132
388.341, 49.913
389.691, 76.406
391.040, 65.924
392.389, 70.444
393.738, 89.919
395.087, 86.485
396.435, 100.104
397.784, 123.576
399.132, 139.040
400.479, 173.460
401.827, 165.843
403.174, 204.309
404.521, 199.635
405.868, 210.962
407.215, 231.314
408.561, 234.590
409.908, 278.913
411.254, 288.204
412.599, 323.461
413.945, 315.754
415.290, 370.967
416.636, 392.221
417.980, 394.414
419.325, 470.670
420.670, 454.907
422.014, 551.114
423.358, 568.268
424.702, 653.404
426.045, 753.514
427.389, 784.596
428.732, 983.681
430.075, 1156.748
431.417, 1435.829
432.760, 1909.896
434.102, 2541.855
435.444, 3785.917
436.786, 5145.944
438.127, 5610.640
439.469, 7507.069
440.810, 6572.082
442.151, 6317.129
443.492, 6158.143
444.832, 7643.197
446.172, 10034.177
447.512, 13904.148
448.852, 18584.148
450.192, 19483.766
451.531, 19093.732
452.870, 14033.321
454.209, 10003.322
455.548, 7233.021
456.887, 4941.824
458.225, 3893.798
459.563, 2981.731
460.901, 2587.630
462.238, 2215.766
463.576, 1862.712
464.913, 1772.505
466.250, 1429.120
467.587, 1304.005
468.923, 1135.492
470.259, 974.300
471.596, 898.065
472.931, 759.440
474.267, 757.762
475.603, 676.776
476.938, 609.987
478.273, 563.573
479.608, 488.299
480.942, 460.935
482.276, 421.017
483.611, 398.880
484.944, 375.253
486.278, 336.122
487.612, 338.693
488.945, 264.881
490.278, 254.747
491.611, 243.645
492.943, 204.462
494.276, 209.392
495.608, 185.235
496.940, 180.102
498.271, 177.036
499.603, 142.814
500.934, 142.697
502.265, 120.644
503.596, 147.575
504.927, 123.312
506.257, 127.206
507.587, 111.088
508.917, 95.888
510.247, 99.775
511.577, 94.752
512.906, 103.365
514.235, 98.369
515.564, 78.257
516.892, 63.164
518.221, 77.208
519.549, 63.207
520.877, 57.240
522.205, 47.255
523.533, 49.294
524.860, 20.449
526.187, 36.443
527.514, 20.607
528.841, 21.740
530.167, 31.805
531.493, 4.928
532.820, 7.911
534.145, 27.255
535.471, 10.438
536.796, 4.326
538.122, 8.778
539.447, 7.014
540.771, 0.563
542.096, 2.338
543.420, 4.876
544.744, 8.845
546.068, 6.353
547.392, 7.379
548.715, 10.857
550.039, 3.134
551.362, 1.398
552.684, 10.654
554.007, 1.955
555.329, 3.724
556.652, 8.529
557.973, 9.826
559.295, 21.056
560.617, 13.295
561.938, 8.517
563.259, 12.905
564.580, 22.452
565.901, 35.703
567.221, 18.095
568.541, 37.384
569.861, 15.698
571.181, 26.944
572.501, 18.127
573.820, 24.227
575.139, 50.566
576.458, 21.679
577.777, 48.969
579.095, 28.113
580.414, 34.274
581.732, 65.347
583.049, 43.424
584.367, 53.644
585.685, 68.731
587.002, 83.780
588.319, 83.022
589.636, 98.082
590.952, 124.122
592.268, 146.151
593.585, 184.176
594.900, 249.195
596.216, 248.234
597.532, 381.347
598.847, 468.465
600.162, 665.505
601.477, 965.499
602.792, 1251.487
604.106, 1794.470
605.420, 1946.449
606.734, 1799.421
608.048, 1532.389
609.361, 1070.353
610.675, 818.312
611.988, 621.267
613.301, 515.217
614.614, 541.166
615.926, 565.111
617.238, 739.051
618.550, 814.985
619.862, 738.914
621.174, 542.841
622.485, 326.762
623.797, 241.678
625.108, 142.590
626.418, 118.497
627.729, 102.404
629.039, 73.311
630.349, 60.212
631.659, 37.110
632.969, 60.005
634.279, 52.899
635.588, 41.789
636.897, 53.675
638.206, 47.556
639.515, 45.431
640.823, 41.300
642.131, 33.164
643.439, 31.023
644.747, 35.925
646.055, 9.774
647.362, 28.927
648.669, 16.189
649.976, 33.909
651.283, 11.816
652.589, 28.680
653.896, 22.651
655.202, 22.130
656.508, 15.666
657.814, 24.834
659.119, 13.627
660.424, 23.180
661.729, 12.983
663.034, 29.189
664.339, 28.756
665.643, 35.516
666.947, 53.595
668.251, 32.748
669.555, 39.213
670.859, 22.942
672.162, 45.741
673.465, 40.678
674.768, 23.750
676.071, 36.649
677.373, 34.000
678.676, 34.145
679.978, 30.460
681.280, 29.610
682.581, 46.402
683.883, 31.525
685.184, 34.043
686.485, 52.709
687.786, 42.896
689.087, 38.240
690.387, 56.165
691.687, 50.544
692.987, 52.600
694.287, 62.408
695.586, 57.622
696.886, 38.130
698.185, 63.248
699.484, 73.613
700.783, 57.142
702.081, 83.745
703.379, 59.639
704.677, 62.106
705.975, 54.508
707.273, 55.868
708.570, 56.206
709.868, 43.588
711.165, 58.843
712.462, 52.028
713.758, 47.343
715.055, 53.651
716.351, 50.987
717.647, 52.283
718.943, 40.548
720.238, 33.816
721.533, 47.099
722.829, 39.028
724.124, 43.614
725.418, 41.857
726.713, 45.065
728.007, 49.282
729.301, 66.474
730.595, 38.668
731.889, 59.848
733.182, 40.017
734.476, 49.172
735.769, 46.316
737.061, 62.447
738.354, 59.567
739.647, 40.676
740.939, 53.772
742.231, 62.857
743.523, 37.931
744.814, 54.992
746.106, 58.041
747.397, 61.080
748.688, 59.107
749.978, 63.124
751.269, 51.130
752.559, 40.124
753.849, 39.107
755.139, 45.078
756.429, 61.037
757.719, 71.986
759.008, 71.925
760.297, 71.852
761.586, 71.769
762.875, 83.676
764.163, 80.572
765.451, 100.458
766.739, 124.333
768.027, 123.198
769.315, 135.052
770.602, 136.896
771.890, 148.730
773.177, 140.554
774.463, 165.368
775.750, 151.171
777.036, 182.965
778.323, 113.748
779.609, 116.522
780.894, 94.285
782.180, 91.039
783.465, 90.783
784.750, 91.516
786.035, 86.188
787.320, 84.955
788.605, 72.660
789.889, 64.355
791.173, 48.041
792.457, 56.717
793.741, 54.384
795.024, 49.041
796.307, 38.689
797.591, 37.044
798.873, 23.958
800.156, 29.577
801.439, 14.133
802.721, 10.731
804.003, 1.286
805.285, 2.146
806.566, 1.929
807.848, 4.122
809.129, 3.370
810.410, 1.844
811.691, 8.272
812.971, 3.275
814.252, 15.891
815.532, 4.497
816.812, 4.832
818.092, 1.785
819.371, 5.422
820.651, 11.061
821.930, 28.721
823.209, 2.426
824.488, 23.130
825.766, 8.926
827.045, 27.673
828.323, 30.452
829.601, 28.340
830.878, 36.208
832.156, 33.608
833.433, 21.085
834.710, 35.086
835.987, 30.133
837.264, 36.139
838.540, 27.262
839.817, 30.398
841.093, 39.479
842.369, 43.638
843.644, 25.889
844.920, 29.059
846.195, 25.281
847.470, 40.519
848.745, 12.752
850.020, 23.019
851.294, 13.533
852.568, 5.190
853.842, 22.045
855.116, 11.368
856.390, 11.627
857.663, 8.958
858.936, 25.716
860.209, 1.355
861.482, 19.997
862.755, 0.361
864.027, 35.138
865.299, 29.787
866.571, 32.404
867.843, 43.970
869.115, 15.594
870.386, 29.201
871.657, 50.818
872.928, 31.261
874.199, 58.538
875.470, 32.105
876.740, 24.522
878.010, 44.036
879.280, 17.520
880.550, 47.064
881.820, 39.666
883.089, 28.345
884.358, 55.778
885.627, 36.432
886.896, 43.904
888.164, 45.517
889.433, 52.107
890.701, 58.780
891.969, 47.444
893.236, 56.961
894.504, 69.606
895.771, 53.285
897.038, 62.767
898.305, 62.427
899.572, 35.104
900.838, 78.787
902.105, 54.472
903.371, 77.159
904.637, 61.824
905.902, 59.411
907.168, 91.990
908.433, 86.645
909.698, 81.343
910.963, 83.043
912.228, 92.747
913.492, 102.453
914.757, 108.163
916.021, 117.876
917.285, 128.593
918.548, 125.313
919.812, 135.166
921.075, 123.765
922.338, 134.497
923.601, 145.233
924.864, 122.973
926.126, 176.719
927.388, 166.469
928.650, 171.223
929.912, 198.983
931.174, 186.748
932.435, 229.518
933.697, 229.294
934.958, 213.075
936.218, 302.862
937.479, 277.655
938.739, 317.453
940.000, 333.258
941.260, 325.070
942.520, 377.887
943.779, 402.711
945.039, 473.542
946.298, 618.380
947.557, 566.225
948.816, 713.077
950.074, 767.936
951.333, 814.755
952.591, 985.629
953.849, 1007.204
955.107, 1180.671
956.365, 1345.682
957.622, 1494.508
958.879, 1881.379
960.136, 2014.146
961.393, 2403.406
962.650, 2908.613
963.906, 3225.188
965.162, 4233.143
966.418, 5058.339
967.674, 6082.289
968.930, 8292.837
970.185, 9969.030
971.441, 13976.034
972.696, 18822.715
973.950, 25208.338
975.205, 37115.641
976.459, 44771.684
977.714, 52758.672
978.968, 52984.523
980.222, 42290.227
981.475, 34426.121
982.729, 24901.564
983.982, 17787.223
985.235, 14113.709
986.488, 10089.365
987.740, 8321.385
988.993, 6833.076
990.245, 5381.375
991.497, 4837.532
992.749, 3893.174
994.000, 3433.614
995.252, 3101.223
996.503, 2602.691
997.754, 2553.454
999.005, 2247.320
1000.256, 1964.927
1001.506, 1959.009
1002.756, 1656.677
1004.006, 1576.071
1005.256, 1515.382
1006.506, 1307.317
1007.755, 1326.286
1009.005, 1095.428
1010.254, 1073.923
1011.502, 1063.435
1012.751, 926.972
1014.000, 1002.510
1015.248, 874.092
1016.496, 856.697
1017.744, 872.326
1018.991, 747.979
1020.239, 794.656
1021.486, 782.361
1022.733, 709.091
1023.980, 793.846
1025.227, 692.627
1026.473, 724.434
1027.719, 741.271
1028.965, 642.135
1030.211, 684.022
1031.457, 654.933
1032.702, 577.868
1033.948, 613.828
1035.193, 564.811
1036.438, 559.815
1037.682, 541.844
1038.927, 499.898
1040.171, 535.974
1041.415, 472.068
1042.659, 473.183
1043.903, 501.318
1045.146, 467.480
1046.390, 511.661
1047.633, 480.870
1048.876, 481.105
1050.118, 583.362
1051.361, 552.642
1052.603, 595.945
1053.845, 642.272
1055.087, 590.623
1056.329, 649.999
1057.571, 621.397
1058.812, 603.818
1060.053, 693.265
1061.294, 583.735
1062.535, 668.227
1063.775, 615.743
1065.016, 569.281
1066.256, 618.838
1067.496, 535.416
1068.736, 543.015
1069.975, 561.636
1071.214, 441.280
1072.454, 512.946
1073.693, 437.633
1074.931, 383.343
1076.170, 438.072
1077.408, 359.822
1078.647, 374.593
1079.885, 373.385
1081.122, 333.198
1082.360, 394.031
1083.597, 308.884
1084.835, 333.759
1086.072, 367.655
1087.308, 291.571
1088.545, 311.507
1089.781, 319.463
1091.018, 309.439
1092.254, 355.436
1093.490, 300.452
1094.725, 339.489
1095.961, 392.545
1097.196, 320.621
1098.431, 375.717
1099.666, 381.833
1100.900, 351.969
1102.135, 430.125
1103.369, 347.303
1104.603, 452.503
1105.837, 447.728
1107.071, 425.977
1108.304, 457.252
1109.538, 448.552
1110.771, 467.876
1112.004, 468.224
1113.236, 461.594
1114.469, 520.989
1115.701, 548.411
1116.933, 537.858
1118.165, 674.327
1119.397, 608.820
1120.629, 677.337
1121.860, 732.880
1123.091, 719.453
1124.322, 781.048
1125.553, 797.673
1126.783, 774.321
1128.014, 895.999
1129.244, 796.706
1130.474, 849.441
1131.704, 930.207
1132.933, 901.003
1134.163, 949.824
1135.392, 993.675
1136.621, 932.554
1137.850, 1048.462
1139.079, 950.396
1140.307, 930.623
1141.535, 1011.440
1142.763, 861.461
1143.991, 925.710
1145.219, 849.781
1146.446, 781.877
1147.674, 800.017
1148.901, 652.251
1150.128, 689.115
1151.354, 620.308
1152.581, 512.502
1153.807, 559.487
1155.033, 503.215
1156.259, 373.157
1157.485, 423.007
1158.710, 333.597
1159.936, 325.012
1161.161, 325.809
1162.386, 243.662
1163.611, 262.099
1164.835, 224.724
1166.060, 165.297
1167.284, 216.070
1168.508, 169.545
1169.732, 157.656
1170.955, 193.278
1172.179, 140.849
1173.402, 170.125
1174.625, 153.980
1175.848, 101.365
1177.070, 152.495
1178.293, 144.076
1179.515, 158.924
1180.737, 177.475
1181.959, 140.105
1183.181, 169.005
1184.402, 140.669
1185.624, 164.539
1186.845, 186.549
1188.066, 144.160
1189.286, 176.093
1190.507, 162.733
1191.727, 141.196
1192.947, 188.850
1194.167, 166.353
1195.387, 184.438
1196.607, 173.669
1197.826, 156.043
1199.045, 169.878
1200.264, 194.421
1201.483, 158.174
1202.702, 202.857
1203.920, 167.286
1205.138, 179.629
1206.356, 194.729
1207.574, 153.413
1208.792, 159.557
1210.009, 204.543
1211.227, 147.661
1212.444, 199.546
1213.661, 197.430
1214.877, 172.553
1216.094, 212.938
1217.310, 195.546
1218.526, 202.645
1219.742, 197.065
1220.958, 157.429
1222.173, 200.278
1223.389, 145.187
1224.604, 151.589
1225.819, 130.518
1227.034, 139.787
1228.248, 127.671
1229.463, 130.732
1230.677, 105.839
1231.891, 132.207
1233.105, 86.243
1234.318, 88.164
1235.532, 73.102
1236.745, 81.038
1237.958, 79.234
1239.171, 73.798
1240.384, 49.140
1241.596, 65.138
1242.809, 67.114
1244.021, 58.102
1245.233, 79.097
1246.444, 54.100
1247.656, 76.278
1248.867, 92.299
1250.079, 46.329
1251.290, 72.367
1252.500, 70.546
1253.711, 48.665
1254.921, 44.893
1256.132, 55.963
1257.342, 49.230
1258.552, 82.357
1259.761, 54.447
1260.971, 74.569
1262.180, 71.667
1263.389, 57.771
1264.598, 58.870
1265.807, 45.964
1267.015, 33.070
1268.223, 57.159
1269.432, 32.244
1270.640, 31.322
1271.847, 56.390
1273.055, 25.446
1274.262, 35.483
1275.470, 25.509
1276.677, 20.511
1277.883, 33.500
1279.090, 21.475
1280.296, 2.438
1281.503, 27.393
1282.709, 16.337
1283.915, 13.279
1285.120, 11.791
1286.326, 24.875
1287.531, 14.024
1288.736, 9.092
1289.941, 11.776
1291.146, 6.631
1292.350, 0.531
1293.555, 26.705
1294.759, 18.898
1295.963, 24.100
1297.167, 23.316
1298.370, 18.549
1299.574, 12.799
1300.777, 16.056
1301.980, 13.519
1303.183, 7.605
1304.386, 21.895
1305.588, 10.201
1306.790, 27.515
1307.993, 19.845
1309.195, 22.185
1310.396, 20.539
1311.598, 22.906
1312.799, 33.288
1314.000, 26.688
1315.201, 18.106
1316.402, 16.541
1317.603, 26.994
1318.803, 35.466
1320.003, 27.251
1321.203, 6.474
1322.403, 13.004
1323.603, 16.551
1324.802, 11.116
1326.002, 11.698
1327.201, 0.703
1328.400, 10.910
1329.599, 13.539
1330.797, 0.815
1331.995, 14.155
1333.194, 3.548
1334.392, 13.678
1335.589, 19.830
1336.787, 18.457
1337.985, 19.267
1339.182, 12.009
1340.379, 2.232
1341.576, 0.460
1342.772, 6.326
1343.969, 1.120
1345.165, 3.938
1346.361, 2.271
1347.557, 2.380
1348.753, 4.517
1349.949, 7.360
1351.144, 0.254
1352.339, 10.837
1353.534, 4.084
1354.729, 12.980
1355.924, 22.029
1357.118, 23.068
1358.312, 15.096
1359.506, 9.113
1360.700, 5.117
1361.894, 18.107
1363.088, 10.086
1364.281, 12.054
1365.474, 41.010
1366.667, 29.957
1367.860, 12.895
1369.052, 30.824
1370.245, 17.745
1371.437, 36.707
1372.629, 26.615
1373.821, 25.518
1375.013, 17.399
1376.204, 30.261
1377.395, 40.291
1378.586, 41.317
1379.777, 44.337
1380.968, 30.351
1382.159, 64.360
1383.349, 50.364
1384.539, 48.359
1385.729, 64.348
1386.919, 55.328
1388.109, 63.298
1389.298, 66.257
1390.487, 46.208
1391.676, 64.148
1392.865, 69.079
1394.054, 67.000
1395.242, 53.911
1396.431, 60.812
1397.619, 54.636
1398.807, 74.585
1399.995, 53.458
1401.182, 78.323
1402.370, 83.854
1403.557, 72.675
1404.744, 102.246
1405.931, 83.040
1407.118, 92.562
1408.304, 99.756
1409.490, 75.869
1410.676, 99.932
1411.862, 96.750
1413.048, 92.731
1414.234, 93.163
1415.419, 87.200
1416.604, 82.493
1417.789, 85.974
1418.974, 82.860
1420.159, 85.809
1421.343, 89.591
1422.528, 81.718
1423.712, 87.751
1424.896, 97.306
1426.079, 76.910
1427.263, 88.119
1428.446, 73.219
1429.629, 63.037
1430.812, 78.991
1431.995, 47.764
1433.178, 64.804
1434.360, 67.244
1435.543, 67.685
1436.725, 73.614
1437.907, 71.860
1439.088, 49.797
1440.270, 90.352
1441.451, 53.728
1442.632, 70.993
1443.813, 49.179
1444.994, 53.690
1446.175, 69.161
1447.355, 61.143
1448.535, 58.204
1449.715, 75.700
1450.895, 61.654
1452.075, 64.456
1453.255, 64.229
1454.434, 57.202
1455.613, 49.115
1456.792, 56.277
1457.971, 45.084
1459.149, 56.750
1460.328, 64.846
1461.506, 58.768
1462.684, 52.663
1463.862, 55.491
1465.040, 49.450
1466.217, 60.109
1467.395, 47.967
1468.572, 36.916
1469.749, 43.957
1470.925, 28.040
1472.102, 44.118
1473.278, 46.209
1474.455, 6.364
1475.631, 22.595
1476.807, 23.910
1477.982, 47.265
1479.158, 41.630
1480.333, 20.023
1481.508, 13.402
1482.683, 10.168
1483.858, 39.129
1485.033, 6.440
1486.207, 29.718
1487.381, 24.980
1488.555, 32.271
1489.729, 40.590
1490.903, 13.945
1492.076, 38.349
1493.250, 21.803
1494.423, 17.298
1495.596, 30.833
1496.769, 20.966
1497.941, 19.538
1499.114, 36.128
1500.286, 17.737
1501.458, 29.301
1502.630, 29.982
1503.802, 18.721
1504.973, 10.521
1506.145, 33.378
1507.316, 10.320
1508.487, 18.365
1509.657, 20.522
1510.828, 10.821
1511.999, 0.713
1513.169, 18.971
1514.339, 29.931
1515.509, 31.290
1516.678, 0.000
##END=



