##NAMES=Anglesite
##RRUFFID=R050408
##IDEAL CHEMISTRY=Pb^2+^S^6+^O_4_
##LOCALITY=Tsumeb mine, Tsumeb, Otavi District, Oshikoto, Namibia
##OWNER=RRUFF
##SOURCE=California Institute of Technology
##DESCRIPTION=Pale yellow fragment
##STATUS=The identification of this mineral has been confirmed by X-ray diffraction and chemical analysis
##URL=rruff.info/R050408
##MEASURED CHEMISTRY=Pb_1.00_S_1.00_O_4_
##PIN_ID=L01528
##ORIENTATION=Laser parallel to a* (1 0 0). Fiducial mark perpendicular to laser is parallel to -b [0 -1 0]
51.43100, 0.0000000E+00
52.67100, 10.87756
53.91000, 11.67264
55.14900, 8.216827
56.38700, 3.443268
57.62600, 15.36023
58.86400, 12.23831
60.10300, 16.74481
61.34100, 10.04468
62.57900, 8.940155
63.81700, 4.282043
65.05400, 4.954803
66.29200, 8.285797
67.52900, 19.94733
68.76700, 41.61157
70.00400, 65.66998
71.24100, 104.3475
72.47700, 153.8409
73.71400, 195.8962
74.95100, 257.2328
76.18700, 331.8306
77.42300, 432.6713
78.65900, 444.7385
79.89500, 556.0176
81.13100, 665.4948
82.36700, 734.1588
83.60200, 846.9980
84.83700, 902.0034
86.07200, 1017.166
87.30800, 1043.477
88.54200, 1119.930
89.77700, 1173.516
91.01200, 1297.224
92.24600, 1331.045
93.48000, 1404.972
94.71400, 1460.002
95.94800, 1535.133
97.18200, 1542.364
98.41600, 1513.690
99.64900, 1554.106
100.8830, 1434.608
102.1160, 1388.192
103.3490, 1331.854
104.5820, 1265.592
105.8150, 1247.402
107.0470, 1169.282
108.2800, 1189.230
109.5120, 1141.242
110.7440, 1072.318
111.9760, 1046.454
113.2080, 978.6502
114.4400, 973.9040
115.6710, 932.2139
116.9030, 967.5781
118.1340, 1006.996
119.3650, 931.4651
120.5960, 921.9848
121.8270, 973.5539
123.0580, 921.1747
124.2880, 926.8521
125.5190, 902.5752
126.7490, 916.3086
127.9790, 956.0416
129.2090, 941.7764
130.4390, 924.5261
131.6680, 905.2985
132.8980, 922.1019
134.1270, 911.9432
135.3560, 842.8031
136.5850, 870.7150
137.8140, 812.6861
139.0430, 794.7115
140.2710, 820.7866
141.5000, 799.9155
142.7280, 786.0813
143.9560, 783.2720
145.1840, 796.4814
146.4120, 856.7098
147.6390, 866.9576
148.8670, 923.2255
150.0940, 1040.513
151.3210, 1174.821
152.5490, 1333.149
153.7750, 1417.499
155.0020, 1519.868
156.2290, 1555.259
157.4550, 1460.671
158.6810, 1371.103
159.9080, 1342.557
161.1340, 1227.031
162.3590, 1138.527
163.5850, 1014.044
164.8110, 1013.581
166.0360, 948.1398
167.2610, 866.7194
168.4860, 851.3195
169.7110, 815.9402
170.9360, 794.5814
172.1610, 763.2428
173.3850, 736.9241
174.6100, 732.6256
175.8340, 678.3468
177.0580, 655.0875
178.2820, 652.8476
179.5050, 628.6268
180.7290, 629.1492
181.9520, 661.2423
183.1760, 631.0783
184.3990, 638.9326
185.6220, 645.8054
186.8450, 636.6962
188.0670, 634.9410
189.2900, 638.5317
190.5120, 619.4759
191.7340, 597.4374
192.9560, 594.4733
194.1780, 586.6194
195.4000, 568.0162
196.6220, 570.0407
197.8430, 576.2059
199.0640, 546.0803
200.2860, 509.0676
201.5070, 502.9944
202.7270, 502.8740
203.9480, 467.7413
205.1690, 469.6820
206.3890, 468.7655
207.6090, 413.8528
208.8290, 441.8168
210.0490, 416.0851
211.2690, 380.0668
212.4890, 395.5140
213.7080, 371.8531
214.9280, 355.1882
216.1470, 362.6111
217.3660, 339.7037
218.5850, 356.9484
219.8030, 322.9191
221.0220, 329.7080
222.2400, 334.8925
223.4590, 317.5786
224.6770, 328.2009
225.8950, 287.7687
227.1120, 279.1243
228.3300, 302.9498
229.5480, 279.2093
230.7650, 276.8789
231.9820, 272.2622
233.1990, 244.6165
234.4160, 229.6008
235.6330, 235.5034
236.8490, 233.4151
238.0660, 232.3445
239.2820, 228.3003
240.4980, 229.2729
241.7140, 209.2665
242.9300, 190.2789
244.1460, 199.3099
245.3610, 172.3588
246.5770, 173.7962
247.7920, 178.5127
249.0070, 179.6152
250.2220, 149.7341
251.4370, 177.8692
252.6510, 187.0201
253.8660, 175.1865
255.0800, 145.3682
256.2940, 180.5649
257.5080, 184.7811
258.7220, 157.0117
259.9360, 186.2567
261.1490, 179.5154
262.3630, 126.7911
263.5760, 138.0800
264.7890, 104.3830
266.0020, 135.7086
267.2150, 117.0498
268.4270, 123.4038
269.6400, 121.7731
270.8520, 106.1543
272.0640, 101.5484
273.2760, 70.95435
274.4880, 90.37506
275.7000, 115.8087
276.9120, 94.25470
278.1230, 100.7123
279.3340, 58.18146
280.5450, 94.66211
281.7560, 90.15399
282.9670, 24.65814
284.1780, 96.17456
285.3880, 68.70166
286.5980, 75.23926
287.8090, 93.78699
289.0190, 98.34485
290.2290, 88.91248
291.4380, 74.49005
292.6480, 74.07739
293.8570, 73.67438
295.0670, 21.28107
296.2760, 56.89728
297.4850, 72.52295
298.6930, 88.15808
299.9020, 41.80243
301.1110, 31.45612
302.3190, 39.11890
303.5270, 65.79077
304.7350, 44.47162
305.9430, 35.16144
307.1510, 39.86005
308.3580, 44.56738
309.5660, 42.28339
310.7730, 51.00793
311.9800, 19.74109
313.1870, 73.48254
314.3940, 41.23242
315.6010, 61.99060
316.8070, 42.75684
318.0130, 23.53125
319.2200, 10.31372
320.4260, 5.104126
321.6310, 4.410522
322.8370, 26.70837
324.0430, 19.52222
325.2480, 25.34363
326.4540, 40.17261
327.6590, 11.00903
328.8640, 12.85303
330.0680, 11.70422
331.2730, 45.56274
332.4780, 2.571533
333.6820, 12.30078
334.8860, 5.819702
336.0900, 40.06580
337.2940, 12.04175
338.4980, 40.85510
339.7010, 2.757935
340.9050, 18.66541
342.1080, 4.420410
343.3110, 21.50110
344.5140, 1.421997
345.7170, 8.356567
346.9200, 13.30334
348.1220, 18.26233
349.3240, 11.48865
350.5270, 2.783081
351.7290, 1.210815
352.9310, 19.78442
354.1320, 9.776123
355.3340, 24.75867
356.5350, 3.739746
357.7370, 26.71228
358.9380, 21.68445
360.1390, 26.34448
361.3400, 4.383301
362.5400, 8.568481
363.7410, 30.51465
364.9410, 26.02649
366.1410, 33.06909
367.3410, 22.33411
368.5410, 20.29175
369.7410, 38.24963
370.9400, 13.21558
372.1400, 22.17920
373.3390, 30.14429
374.5380, 17.75061
375.7370, 11.08496
376.9360, 9.702637
378.1350, 0.6674800
379.3330, 2.373779
380.5310, 40.42200
381.7300, 60.47778
382.9280, 39.54102
384.1260, 9.611450
385.3230, 32.02368
386.5210, 12.10852
387.7180, 27.20032
388.9160, 34.29907
390.1130, 40.78906
391.3100, 23.90137
392.5060, 66.02051
393.7030, 72.14612
394.9000, 68.28076
396.0960, 49.41968
397.2920, 67.57495
398.4880, 57.72693
399.6840, 136.8853
400.8800, 139.1774
402.0750, 117.3484
403.2710, 139.5499
404.4660, 113.7332
405.6610, 135.6305
406.8560, 126.8258
408.0510, 138.2148
409.2450, 159.6652
410.4400, 168.0107
411.6340, 172.7726
412.8280, 207.8201
414.0220, 228.8887
415.2160, 260.3538
416.4100, 292.5974
417.6030, 345.4875
418.7970, 344.9803
419.9900, 393.3660
421.1830, 447.6311
422.3760, 577.9016
423.5690, 651.1776
424.7610, 795.4592
425.9540, 988.9705
427.1460, 1253.574
428.3380, 1598.871
429.5300, 2120.174
430.7220, 2759.482
431.9140, 3560.795
433.1050, 4838.114
434.2970, 6709.439
435.4880, 9525.769
436.6790, 13695.10
437.8700, 19307.44
439.0610, 23410.79
440.2510, 23236.14
441.4420, 19294.49
442.6320, 13456.85
443.8220, 9225.214
445.0120, 6116.585
446.2020, 4387.959
447.3910, 3173.339
448.5810, 2376.723
449.7700, 1944.112
450.9600, 1574.506
452.1490, 1281.904
453.3370, 1148.308
454.5260, 1008.717
455.7150, 796.1296
456.9030, 752.5476
458.0910, 664.9697
459.2800, 586.3992
460.4670, 557.8340
461.6550, 458.2725
462.8430, 440.7150
464.0300, 435.1614
465.2180, 364.6134
466.4050, 377.0691
467.5920, 328.5281
468.7790, 370.9905
469.9650, 341.4561
471.1520, 317.9257
472.3380, 370.3984
473.5250, 311.8744
474.7110, 322.3544
475.8970, 292.7820
477.0820, 240.2683
478.2680, 269.6123
479.4540, 243.1062
480.6390, 209.2235
481.8240, 231.7229
483.0090, 221.2249
484.1940, 198.7292
485.3780, 195.1134
486.5630, 176.7942
487.7470, 143.3077
488.9320, 171.8257
490.1160, 143.3459
491.3000, 155.8699
492.4830, 173.3958
493.6670, 129.8281
494.8500, 119.3585
496.0340, 91.07153
497.2170, 97.22974
498.4000, 79.69653
499.5820, 91.08997
500.7650, 107.4443
501.9480, 82.04236
503.1300, 83.59497
504.3120, 98.14929
505.4940, 57.32812
506.6760, 21.44897
507.8580, 64.78760
509.0390, 12.76562
510.2210, 35.27588
511.4020, 35.88232
512.5830, 14.57483
513.7640, 55.50879
514.9450, 39.00073
516.1250, 28.08936
517.3060, 56.79639
518.4860, 2.183594
519.6660, 23.89014
520.8460, 14.35767
522.0260, 14.93018
523.2060, 27.51758
524.3850, 30.10632
525.5650, 21.69604
526.7440, 1.713013
527.9230, 26.87952
529.1020, 18.47314
530.2810, 32.06750
531.4590, 2.332520
532.6380, 30.26758
533.8160, 63.86890
534.9940, 12.47229
536.1720, 12.11511
537.3500, 33.73743
538.5270, 11.37341
539.7050, 42.01331
540.8820, 27.65552
542.0590, 14.69421
543.2360, 28.95166
544.4130, 10.59766
545.5900, 15.24316
546.7660, 7.109131
547.9430, 28.54407
549.1190, 3.298096
550.2950, 32.97791
551.4710, 5.328613
552.6470, 10.74146
553.8220, 5.572266
554.9980, 57.09863
556.1730, 2.769775
557.3480, 35.44653
558.5230, 4.863403
559.6980, 2.819702
560.8730, 7.499268
562.0470, 32.17896
563.2220, 41.86597
564.3960, 40.64087
565.5700, 38.43201
566.7440, 4.253784
567.9170, 1.985474
569.0910, 46.72974
570.2640, 34.46069
571.4380, 62.22803
572.6110, 39.00195
573.7840, 58.94580
574.9570, 59.66907
576.1290, 80.44495
577.3020, 39.17078
578.4740, 109.8983
579.6460, 63.95508
580.8180, 58.76099
581.9900, 137.4924
583.1620, 95.44727
584.3330, 117.1901
585.5040, 147.0693
586.6760, 151.7844
587.8470, 174.7988
589.0180, 144.5952
590.1880, 165.4015
591.3590, 172.1030
592.5290, 257.9413
593.7000, 305.2329
594.8700, 357.9230
596.0400, 423.7150
597.2090, 541.7100
598.3790, 626.3877
599.5490, 796.9504
600.7180, 1043.014
601.8870, 1418.679
603.0560, 1898.454
604.2250, 2490.238
605.3940, 2852.319
606.5620, 2934.073
607.7300, 2611.727
608.8990, 2046.365
610.0670, 1604.998
611.2350, 1232.851
612.4020, 876.4823
613.5700, 708.1294
614.7370, 510.9580
615.9050, 440.5792
617.0720, 380.3162
618.2390, 374.3035
619.4060, 272.9473
620.5720, 295.5327
621.7390, 207.1526
622.9050, 211.7424
624.0710, 179.3115
625.2370, 178.2142
626.4030, 121.8633
627.5690, 169.4999
628.7340, 125.3636
629.9000, 129.9294
631.0650, 97.79749
632.2300, 94.17578
633.3950, 119.4366
634.5600, 110.9589
635.7240, 121.5504
636.8890, 174.8607
638.0530, 147.5670
639.2170, 151.5466
640.3810, 206.3380
641.5450, 208.8387
642.7080, 172.3497
643.8720, 179.8624
645.0350, 197.3450
646.1980, 128.8978
647.3610, 150.4768
648.5240, 118.2219
649.6870, 58.93591
650.8490, 77.67285
652.0120, 87.35205
653.1740, 87.83081
654.3360, 66.29358
655.4980, 49.39087
656.6600, 75.37646
657.8210, 59.16882
658.9830, 81.46960
660.1440, 68.91064
661.3050, 61.34900
662.4660, 83.07422
663.6270, 75.30261
664.7870, 109.9232
665.9480, 88.36023
667.1080, 77.31323
668.2680, 90.74829
669.4280, 85.11865
670.5880, 81.10986
671.7480, 62.25098
672.9070, 67.70837
674.0670, 51.42090
675.2260, 41.38708
676.3850, 49.53772
677.5440, 49.89429
678.7030, 60.81677
679.8610, 74.53857
681.0200, 82.65039
682.1780, 119.0649
683.3360, 80.35681
684.4940, 59.60852
685.6520, 78.32874
686.8090, 82.71667
687.9670, 46.68103
689.1240, 51.52441
690.2810, 65.09937
691.4380, 30.88525
692.5950, 59.14795
693.7520, 84.67993
694.9080, 80.03760
696.0650, 82.93994
697.2210, 104.3296
698.3770, 91.86401
699.5330, 95.58118
700.6880, 86.17786
701.8440, 93.21387
702.9990, 63.82703
704.1550, 64.69617
705.3100, 65.39563
706.4650, 79.82532
707.6190, 76.27332
708.7740, 99.32214
709.9290, 75.29065
711.0830, 74.25024
712.2370, 61.32520
713.3910, 92.25818
714.5450, 75.83167
715.6980, 96.72937
716.8520, 83.61365
718.0050, 56.23242
719.1580, 73.10156
720.3110, 81.94092
721.4640, 63.40173
722.6170, 81.54102
723.7700, 68.33630
724.9220, 102.1161
726.0740, 58.88745
727.2260, 73.64709
728.3780, 72.38159
729.5300, 97.10107
730.6810, 68.80652
731.8330, 43.49670
732.9840, 85.16772
734.1350, 70.82471
735.2860, 56.46655
736.4370, 104.0918
737.5880, 31.70288
738.7380, 51.29236
739.8880, 115.0338
741.0390, 68.59180
742.1890, 67.13477
743.3380, 48.84583
744.4880, 68.37720
745.6380, 78.99390
746.7870, 101.4746
747.9360, 95.16724
749.0850, 58.39404
750.2340, 77.83081
751.3830, 73.27393
752.5310, 57.68225
753.6800, 75.07642
754.8280, 62.45471
755.9760, 46.81787
757.1240, 68.25574
758.2720, 92.58691
759.4190, 68.90442
760.5670, 72.20776
761.7140, 75.49707
762.8610, 46.77246
764.0080, 62.03113
765.1550, 62.27515
766.3020, 46.50452
767.4480, 66.74988
768.5950, 46.00806
769.7410, 75.43616
770.8870, 34.60461
772.0330, 88.75452
773.1780, 59.89087
774.3240, 26.65942
775.4690, 50.76074
776.6140, 36.86584
777.7590, 44.47339
778.9040, 72.23523
780.0490, 64.27368
781.1940, 61.29858
782.3380, 66.30969
783.4820, 54.73108
784.6260, 51.81274
785.7700, 41.72205
786.9140, 40.67542
788.0580, 40.61316
789.2010, 42.53540
790.3450, 58.44214
791.4880, 81.38599
792.6310, 24.26636
793.7730, 27.12793
794.9160, 35.97156
796.0590, 35.79956
797.2010, 60.61389
798.3430, 53.97229
799.4850, 32.20374
800.6270, 49.97656
801.7690, 49.73645
802.9100, 44.48376
804.0520, 12.21802
805.1930, 40.93323
806.3340, 49.63538
807.4750, 6.325317
808.6160, 14.99292
809.7560, 33.64368
810.8970, 22.28113
812.0370, 7.903076
813.1770, 22.53027
814.3170, 7.966919
815.4570, 21.29956
816.5960, 17.06665
817.7360, 9.446045
818.8750, 0.9864500
820.0140, 30.45520
821.1530, 29.88501
822.2920, 12.30359
823.4310, 28.29395
824.5690, 10.92407
825.7070, 12.67432
826.8460, 6.585083
827.9840, 36.10498
829.1220, 19.24402
830.2590, 34.02014
831.3970, 13.19153
832.5340, 18.60950
833.6710, 39.43701
834.8080, 15.69702
835.9450, 18.82312
837.0820, 2.940430
838.2190, 20.95642
839.3550, 46.88037
840.4910, 19.91846
841.6270, 33.99182
842.7630, 34.11816
843.8990, 0.8218990
845.0350, 31.26489
846.1700, 17.64062
847.3060, 9.499268
848.4410, 4.340576
849.5760, 8.000854
850.7100, 23.12878
851.8450, 19.67090
852.9800, 14.51074
854.1140, 9.661499
855.2480, 4.823486
856.3820, 32.54919
857.5160, 26.66064
858.6500, 4.111084
859.7830, 8.638794
860.9170, 42.24268
862.0500, 3.000977
863.1830, 2.450439
864.3160, 45.10803
865.4480, 18.74634
866.5810, 31.47986
867.7130, 9.067383
868.8460, 21.19238
869.9780, 24.90991
871.1100, 43.51660
872.2410, 49.91113
873.3730, 21.61414
874.5050, 35.39563
875.6360, 5.276733
876.7670, 26.41150
877.8980, 11.98206
879.0290, 6.465332
880.1590, 0.2192380
881.2900, 4.830200
882.4200, 8.001465
883.5500, 4.664551
884.6800, 29.32483
885.8100, 33.75806
886.9400, 0.5954590
888.0690, 18.02710
889.1990, 1.460449
890.3280, 11.09375
891.4570, 28.60400
892.5860, 5.143188
893.7140, 24.44592
894.8430, 33.08630
895.9710, 34.68713
897.1000, 21.31091
898.2280, 8.948242
899.3560, 9.245605
900.4830, 29.79053
901.6110, 28.34521
902.7380, 2.333740
903.8660, 36.72107
904.9930, 13.42175
906.1200, 16.20312
907.2460, 3.253540
908.3730, 40.88086
909.5000, 27.56665
910.6260, 34.26221
911.7520, 1.308350
912.8780, 7.152466
914.0040, 10.81299
915.1290, 12.81665
916.2550, 33.43567
917.3800, 49.04810
918.5050, 5.313721
919.6300, 15.25122
920.7550, 22.20801
921.8800, 15.16577
923.0040, 54.53503
924.1290, 23.92065
925.2530, 52.36487
926.3770, 4.985962
927.5010, 25.67834
928.6250, 28.70935
929.7480, 88.85571
930.8720, 96.25769
931.9950, 71.67700
933.1180, 67.36755
934.2410, 75.05859
935.3640, 61.46045
936.4860, 82.15466
937.6090, 92.85791
938.7310, 108.5404
939.8530, 104.3701
940.9750, 152.0502
942.0970, 173.7930
943.2180, 158.4281
944.3400, 229.4972
945.4610, 269.1479
946.5820, 318.5419
947.7030, 371.3867
948.8240, 393.4078
949.9450, 484.3779
951.0650, 547.5476
952.1860, 578.9265
953.3060, 635.9149
954.4260, 744.4727
955.5460, 870.2802
956.6650, 981.1028
957.7850, 1185.481
958.9040, 1365.484
960.0230, 1639.618
961.1420, 1815.686
962.2610, 2109.967
963.3800, 2487.651
964.4990, 3012.443
965.6170, 3684.354
966.7350, 4501.099
967.8530, 5510.071
968.9710, 7225.787
970.0890, 9268.717
971.2070, 11901.74
972.3240, 15631.26
973.4410, 20920.34
974.5580, 27787.84
975.6750, 37018.08
976.7920, 47458.52
977.9090, 55893.99
979.0250, 59173.69
980.1410, 56090.47
981.2580, 47673.64
982.3740, 37457.82
983.4890, 28983.90
984.6050, 21894.12
985.7200, 16804.70
986.8360, 13317.97
987.9510, 10763.24
989.0660, 8674.794
990.1810, 7404.094
991.2950, 6235.428
992.4100, 5466.145
993.5240, 4796.187
994.6390, 4199.576
995.7530, 3806.984
996.8660, 3391.405
997.9800, 3052.841
999.0940, 2853.306
1000.207, 2620.791
1001.320, 2428.294
1002.433, 2180.818
1003.546, 2115.368
1004.659, 1871.937
1005.772, 1769.526
1006.884, 1656.135
1007.996, 1541.765
1009.108, 1388.418
1010.220, 1366.922
1011.332, 1234.616
1012.444, 1189.331
1013.555, 1107.886
1014.666, 1092.626
1015.777, 967.2871
1016.888, 1015.090
1017.999, 896.9139
1019.110, 855.7593
1020.220, 877.6270
1021.331, 841.4949
1022.441, 821.4058
1023.551, 815.3418
1024.661, 791.2051
1025.770, 789.2817
1026.880, 771.1952
1027.989, 771.2220
1029.098, 780.2705
1030.207, 832.3408
1031.316, 819.4329
1032.425, 834.5535
1033.533, 941.7045
1034.642, 923.8800
1035.750, 1000.089
1036.858, 1054.298
1037.966, 1116.518
1039.073, 1172.589
1040.181, 1227.942
1041.288, 1327.332
1042.396, 1413.754
1043.503, 1578.555
1044.610, 1643.031
1045.716, 1759.512
1046.823, 2025.949
1047.929, 2159.347
1049.036, 2377.927
1050.142, 2590.534
1051.248, 2897.167
1052.353, 3100.766
1053.459, 3412.450
1054.564, 3618.764
1055.670, 3800.507
1056.775, 3879.283
1057.880, 4093.090
1058.985, 4255.926
1060.089, 4342.734
1061.194, 4303.618
1062.298, 4273.527
1063.402, 4111.466
1064.506, 3941.428
1065.610, 3714.422
1066.713, 3604.448
1067.817, 3307.496
1068.920, 3046.571
1070.023, 2864.669
1071.126, 2612.792
1072.229, 2501.948
1073.332, 2268.132
1074.435, 2051.348
1075.537, 1929.589
1076.639, 1772.465
1077.741, 1683.162
1078.843, 1570.491
1079.945, 1523.858
1081.046, 1461.253
1082.148, 1341.683
1083.249, 1171.147
1084.350, 1228.645
1085.451, 1102.170
1086.551, 974.7271
1087.652, 1001.314
1088.752, 936.9270
1089.853, 855.5654
1090.953, 841.2312
1092.053, 764.9363
1093.152, 747.6750
1094.252, 672.4463
1095.351, 605.2434
1096.451, 649.1455
1097.550, 608.0901
1098.649, 537.0737
1099.748, 531.2012
1100.846, 498.2659
1101.945, 483.2793
1103.043, 431.4204
1104.141, 418.4812
1105.239, 410.8608
1106.337, 361.0120
1107.434, 320.1738
1108.532, 339.8147
1109.629, 284.0420
1110.726, 282.3044
1111.823, 261.4482
1112.920, 249.7690
1114.017, 264.1830
1115.113, 251.9915
1116.210, 277.3804
1117.306, 288.7915
1118.402, 253.2889
1119.498, 288.7527
1120.593, 230.3522
1121.689, 191.8632
1122.784, 263.6075
1123.879, 212.1621
1124.974, 176.7472
1126.069, 233.3556
1127.164, 216.9875
1128.259, 204.6407
1129.353, 199.3156
1130.447, 191.5608
1131.541, 187.7286
1132.635, 190.4666
1133.729, 173.6392
1134.822, 184.0676
1135.916, 215.8694
1137.009, 164.6943
1138.102, 233.5399
1139.195, 206.4055
1140.288, 266.2915
1141.380, 235.1973
1142.473, 272.1238
1143.565, 284.0703
1144.657, 355.8627
1145.749, 387.8627
1146.841, 350.8691
1147.932, 351.8954
1149.024, 376.9407
1150.115, 461.2379
1151.206, 518.3210
1152.297, 629.4231
1153.388, 562.8030
1154.479, 543.9098
1155.569, 593.0676
1156.659, 666.2434
1157.750, 623.6178
1158.839, 669.8301
1159.929, 645.0603
1161.019, 618.3081
1162.108, 563.5732
1163.198, 554.3396
1164.287, 480.1101
1165.376, 450.8450
1166.465, 394.6036
1167.553, 352.0924
1168.642, 338.8367
1169.730, 336.4707
1170.818, 293.9293
1171.906, 312.3391
1172.994, 249.5708
1174.082, 244.8185
1175.170, 268.4940
1176.257, 193.9757
1177.344, 166.6368
1178.431, 200.1473
1179.518, 222.2852
1180.605, 122.4955
1181.691, 178.6724
1182.778, 89.67798
1183.864, 145.7864
1184.950, 152.1156
1186.036, 172.9587
1187.122, 168.8925
1188.207, 83.65393
1189.292, 122.0891
1190.378, 82.74463
1191.463, 128.7051
1192.548, 103.3838
1193.632, 118.2974
1194.717, 97.14954
1195.801, 95.30981
1196.886, 89.49146
1197.970, 106.2241
1199.054, 62.19958
1200.137, 17.95972
1201.221, 25.72437
1202.305, 50.69373
1203.388, 42.47693
1204.471, 25.12183
1205.554, 74.92334
1206.637, 35.80933
1207.719, 65.39124
1208.802, 52.33887
1209.884, 46.95276
1210.966, 13.79993
1212.048, 33.65491
1213.130, 15.57788
1214.212, 14.78979
1215.293, 89.54883
1216.374, 30.43274
1217.456, 43.32300
1218.536, 84.68689
1219.617, 37.91089
1220.698, 77.08447
1221.778, 50.65320
1222.859, 79.14172
1223.939, 95.07068
1225.019, 31.00562
1226.099, 5.535278
1227.178, 5.894043
1228.258, 5.945679
1229.337, 11.99426
1230.417, 7.138184
1231.496, 0.1258540
1232.574, 7.670776
1233.653, 0.4163820
1234.732, 15.04871
1235.810, 2.504150
1236.888, 0.9136960
1237.966, 64.74304
