##NAMES=Anglesite
##RRUFFID=R050052
##IDEAL CHEMISTRY=Pb^2+^S^6+^O_4_
##LOCALITY=Touissite, Oujela, Morocco
##OWNER=RRUFF
##SOURCE=Eugene Schlepp
##DESCRIPTION=Yellow prismatic single crystal
##STATUS=The identification of this mineral has been confirmed by X-ray diffraction and chemical analysis
##URL=rruff.info/R050052
##MEASURED CHEMISTRY=Pb_1.00_S_1.00_O_4_
##PIN_ID=L00231
##ORIENTATION=Laser parallel to -a* (-1 0 0). Fiducial mark perpendicular to laser is parallel to -b [0 -1 0]
46.637, 0.000
48.043, 44.180
49.450, 43.448
50.856, 49.921
52.261, 43.875
53.667, 102.102
55.072, 166.996
56.477, 187.465
57.882, 173.638
59.287, 176.896
60.691, 173.871
62.095, 204.137
63.499, 204.474
64.903, 174.486
66.306, 136.880
67.709, 92.798
69.112, 78.856
70.515, 64.040
71.917, 40.340
73.319, 9.743
74.721, 13.238
76.123, 11.185
77.525, 8.534
78.926, 11.813
80.327, 17.026
81.728, 13.828
83.128, 16.747
84.529, 66.731
85.929, 77.777
87.329, 141.880
88.728, 209.034
90.128, 332.238
91.527, 545.488
92.926, 803.781
94.324, 1164.113
95.723, 1496.476
97.121, 1897.863
98.519, 1907.267
99.917, 1868.685
101.314, 1774.115
102.712, 1493.558
104.109, 1467.014
105.505, 1216.485
106.902, 1203.973
108.298, 1079.483
109.694, 1104.014
111.090, 1079.570
112.486, 1012.156
113.881, 1106.783
115.277, 1062.453
116.672, 1117.181
118.066, 1133.950
119.461, 1199.736
120.855, 1293.564
122.249, 1349.419
123.643, 1535.301
125.036, 1565.202
126.430, 1891.101
127.823, 1928.998
129.216, 2204.886
130.608, 2366.786
132.001, 2497.716
133.393, 2745.670
134.785, 2676.642
136.176, 2835.619
137.568, 2665.596
138.959, 2573.562
140.350, 2501.511
141.741, 2268.440
143.131, 2333.345
144.521, 2118.213
145.911, 2324.023
147.301, 2288.769
148.691, 2491.475
150.080, 2664.166
151.469, 2617.844
152.858, 2765.512
154.247, 2440.174
155.635, 2400.823
157.024, 1983.476
158.411, 1783.272
159.799, 1563.976
161.187, 1312.627
162.574, 1231.474
163.961, 1070.268
165.348, 1031.149
166.734, 948.978
168.121, 907.960
169.507, 840.972
170.893, 765.947
172.278, 755.990
173.664, 710.123
175.049, 680.215
176.434, 671.490
177.819, 649.824
179.203, 643.443
180.587, 622.823
181.971, 657.828
183.355, 583.021
184.739, 614.588
186.122, 564.363
187.505, 547.761
188.888, 550.930
190.271, 528.786
191.653, 548.675
193.035, 527.653
194.417, 541.048
195.799, 499.027
197.180, 513.656
198.562, 504.029
199.943, 464.679
201.324, 507.230
202.704, 450.883
204.084, 472.870
205.465, 460.453
206.844, 410.462
208.224, 442.990
209.603, 417.449
210.983, 455.524
212.362, 406.416
213.740, 390.333
215.119, 395.103
216.497, 317.990
217.875, 361.598
219.253, 303.345
220.631, 331.795
222.008, 301.094
223.385, 303.308
224.762, 272.369
226.139, 250.358
227.515, 259.204
228.891, 229.819
230.267, 248.224
231.643, 214.688
233.018, 220.062
234.394, 211.314
235.769, 201.461
237.144, 198.633
238.518, 187.312
239.893, 166.025
241.267, 168.608
242.641, 158.178
244.014, 148.886
245.388, 121.429
246.761, 126.681
248.134, 102.375
249.507, 116.120
250.879, 115.249
252.252, 98.426
253.624, 102.723
254.996, 104.018
256.367, 95.310
257.739, 82.598
259.110, 87.882
260.481, 75.163
261.852, 84.440
263.222, 82.712
264.592, 72.981
265.962, 87.244
267.332, 63.504
268.702, 58.758
270.071, 87.008
271.440, 60.253
272.809, 75.492
274.178, 66.727
275.546, 47.957
276.915, 57.180
278.283, 44.398
279.650, 66.610
281.018, 40.816
282.385, 52.015
283.752, 42.207
285.119, 56.392
286.486, 38.570
287.852, 29.741
289.218, 40.903
290.584, 18.058
291.950, 40.205
293.316, 21.344
294.681, 28.475
296.046, 16.598
297.411, 13.713
298.775, 10.819
300.140, 12.916
301.504, 14.004
302.868, 6.084
304.231, 0.155
305.595, 0.651
306.958, 1.268
308.321, 5.688
309.684, 4.344
311.047, 1.369
312.409, 2.615
313.771, 3.392
315.133, 11.609
316.495, 6.379
317.856, 1.641
319.217, 5.670
320.578, 14.708
321.939, 3.758
323.299, 6.818
324.660, 5.888
326.020, 3.033
327.380, 12.055
328.739, 5.156
330.099, 2.734
331.458, 9.614
332.817, 0.514
334.176, 12.347
335.534, 14.800
336.892, 0.961
338.251, 1.133
339.608, 21.315
340.966, 1.513
342.323, 0.723
343.681, 13.945
345.037, 11.818
346.394, 2.432
347.751, 7.694
349.107, 4.975
350.463, 10.269
351.819, 4.578
353.174, 9.900
354.530, 0.236
355.885, 5.418
357.240, 6.940
358.594, 5.683
359.949, 0.298
361.303, 4.900
362.657, 4.509
364.011, 3.931
365.365, 0.301
366.718, 10.256
368.071, 12.804
369.424, 1.345
370.777, 6.123
372.129, 5.599
373.481, 3.916
374.833, 8.578
376.185, 1.049
377.537, 12.459
378.888, 3.068
380.239, 12.392
381.590, 4.160
382.941, 3.276
384.291, 10.707
385.642, 6.129
386.992, 18.535
388.341, 12.933
389.691, 18.332
391.040, 29.713
392.389, 39.088
393.738, 14.458
395.087, 33.821
396.435, 30.179
397.784, 43.531
399.132, 24.879
400.479, 52.222
401.827, 44.561
403.174, 52.898
404.521, 33.233
405.868, 64.570
407.215, 70.909
408.561, 80.250
409.908, 81.593
411.254, 91.935
412.599, 112.273
413.945, 106.607
415.290, 137.936
416.636, 146.260
417.980, 187.580
419.325, 217.894
420.670, 227.203
422.014, 250.506
423.358, 262.802
424.702, 316.094
426.045, 355.381
427.389, 423.654
428.732, 537.929
430.075, 610.153
431.417, 874.352
432.760, 1258.611
434.102, 1844.807
435.444, 3144.055
436.786, 4473.268
438.127, 6399.397
439.469, 6404.562
440.810, 4972.667
442.151, 3632.859
443.492, 2393.940
444.832, 1839.062
446.172, 1555.138
447.512, 1480.268
448.852, 1686.319
450.192, 1694.329
451.531, 1604.380
452.870, 1228.330
454.209, 949.369
455.548, 756.323
456.887, 563.303
458.225, 457.228
459.563, 369.136
460.901, 354.025
462.238, 313.921
463.576, 280.816
464.913, 284.653
466.250, 265.423
467.587, 262.157
468.923, 253.942
470.259, 234.388
471.596, 232.190
472.931, 208.964
474.267, 204.583
475.603, 180.366
476.938, 177.422
478.273, 168.222
479.608, 146.875
480.942, 144.294
482.276, 131.148
483.611, 117.683
484.944, 116.047
486.278, 121.448
487.612, 113.204
488.945, 94.216
490.278, 103.663
491.611, 92.416
492.943, 74.258
494.276, 87.949
495.608, 73.766
496.940, 81.615
498.271, 71.297
499.603, 47.964
500.934, 63.412
502.265, 43.200
503.596, 59.891
504.927, 38.814
506.257, 54.635
507.587, 47.260
508.917, 39.587
510.247, 52.089
511.577, 23.268
512.906, 21.803
514.235, 28.015
515.564, 36.781
516.892, 34.604
518.221, 41.391
519.549, 36.848
520.877, 46.631
522.205, 29.460
523.533, 26.073
524.860, 4.701
526.187, 22.531
527.514, 30.434
528.841, 31.376
530.167, 27.273
531.493, 19.830
532.820, 24.421
534.145, 27.311
535.471, 10.765
536.796, 12.760
538.122, 21.994
539.447, 34.791
540.771, 25.723
542.096, 35.639
543.420, 17.541
544.744, 17.494
546.068, 33.358
547.392, 22.336
548.715, 16.262
550.039, 21.213
551.362, 32.371
552.684, 28.437
554.007, 34.428
555.329, 34.407
556.652, 37.369
557.973, 28.461
559.295, 45.397
560.617, 33.432
561.938, 29.468
563.259, 38.513
564.580, 55.564
565.901, 58.551
567.221, 55.574
568.541, 73.553
569.861, 43.596
571.181, 40.737
572.501, 50.751
573.820, 49.761
575.139, 66.918
576.458, 76.108
577.777, 80.128
579.095, 81.087
580.414, 66.182
581.732, 94.117
583.049, 80.090
584.367, 109.089
585.685, 110.014
587.002, 129.929
588.319, 148.936
589.636, 141.842
590.952, 188.839
592.268, 221.738
593.585, 248.655
594.900, 303.542
596.216, 354.425
597.532, 438.304
598.847, 556.179
600.162, 745.049
601.477, 1040.914
602.792, 1328.776
604.106, 1853.633
605.420, 1967.485
606.734, 1766.333
608.048, 1454.177
609.361, 945.017
610.675, 701.853
611.988, 475.685
613.301, 361.512
614.614, 280.336
615.926, 232.155
617.238, 248.971
618.550, 218.782
619.862, 169.590
621.174, 127.394
622.485, 67.194
623.797, 68.990
625.108, 33.784
626.418, 33.573
627.729, 31.360
629.039, 48.144
630.349, 29.925
631.659, 20.702
632.969, 22.477
634.279, 26.247
635.588, 22.018
636.897, 19.785
638.206, 19.557
639.515, 29.167
640.823, 21.057
642.131, 12.172
643.439, 22.036
644.747, 29.404
646.055, 22.388
647.362, 29.106
648.669, 25.686
649.976, 10.629
651.283, 24.753
652.589, 18.920
653.896, 30.078
655.202, 19.111
656.508, 43.874
657.814, 25.505
659.119, 0.724
660.424, 35.773
661.729, 30.638
663.034, 42.117
664.339, 49.026
665.643, 49.430
666.947, 43.892
668.251, 34.599
669.555, 34.929
670.859, 41.367
672.162, 32.311
673.465, 39.753
674.768, 40.626
676.071, 45.685
677.373, 43.484
678.676, 42.590
679.978, 35.406
681.280, 39.655
682.581, 30.841
683.883, 34.895
685.184, 29.512
686.485, 28.256
687.786, 39.633
689.087, 38.488
690.387, 38.123
691.687, 34.260
692.987, 23.434
694.287, 18.359
695.586, 31.870
696.886, 41.435
698.185, 21.992
699.484, 37.541
700.783, 33.077
702.081, 47.605
703.379, 33.131
704.677, 37.649
705.975, 36.208
707.273, 23.711
708.570, 31.203
709.868, 28.687
711.165, 41.163
712.462, 40.631
713.758, 29.091
715.055, 39.542
716.351, 40.986
717.647, 33.421
718.943, 35.848
720.238, 27.267
721.533, 50.677
722.829, 37.079
724.124, 50.473
725.418, 30.859
726.713, 24.237
728.007, 33.605
729.301, 32.965
730.595, 22.318
731.889, 20.660
733.182, 28.993
734.476, 39.317
735.769, 23.634
737.061, 41.942
738.354, 31.241
739.647, 27.534
740.939, 39.817
742.231, 45.093
743.523, 25.362
744.814, 45.622
746.106, 24.875
747.397, 38.120
748.688, 32.357
749.978, 42.586
751.269, 47.809
752.559, 46.024
753.849, 45.231
755.139, 58.432
756.429, 48.625
757.719, 41.811
759.008, 43.990
760.297, 56.162
761.586, 56.327
762.875, 64.819
764.163, 74.636
765.451, 81.780
766.739, 87.917
768.027, 91.692
769.315, 102.171
770.602, 94.288
771.890, 98.397
773.177, 96.500
774.463, 122.597
775.750, 96.686
777.036, 129.769
778.323, 106.846
779.609, 81.916
780.894, 61.979
782.180, 43.036
783.465, 47.087
784.750, 34.131
786.035, 38.168
787.320, 36.200
788.605, 40.225
789.889, 19.243
791.173, 21.256
792.457, 17.262
793.741, 2.738
795.024, 11.248
796.307, 5.226
797.591, 11.175
798.873, 0.136
800.156, 7.086
801.439, 5.974
802.721, 4.048
804.003, 10.135
805.285, 2.723
806.566, 1.609
807.848, 14.521
809.129, 3.337
810.410, 8.825
811.691, 22.991
812.971, 8.820
814.252, 21.512
815.532, 27.728
816.812, 5.969
818.092, 13.222
819.371, 21.492
820.651, 22.781
821.930, 27.092
823.209, 8.425
824.488, 20.771
825.766, 16.136
827.045, 24.536
828.323, 15.937
829.601, 19.355
830.878, 15.790
832.156, 14.240
833.433, 23.703
834.710, 8.220
835.987, 8.730
837.264, 22.290
838.540, 15.854
839.817, 18.458
841.093, 29.085
842.369, 3.690
843.644, 18.307
844.920, 26.943
846.195, 28.618
847.470, 7.458
848.745, 18.438
850.020, 2.818
851.294, 15.125
852.568, 10.202
853.842, 6.488
855.116, 26.747
856.390, 6.072
857.663, 20.329
858.936, 2.392
860.209, 23.880
861.482, 57.987
862.755, 56.221
864.027, 50.421
865.299, 86.709
866.571, 49.995
867.843, 63.202
869.115, 63.482
870.386, 88.768
871.657, 78.022
872.928, 56.287
874.199, 72.470
875.470, 69.783
876.740, 70.054
878.010, 72.365
879.280, 67.633
880.550, 74.744
881.820, 60.004
883.089, 64.263
884.358, 60.370
885.627, 72.440
886.896, 58.675
888.164, 75.967
889.433, 61.119
890.701, 97.426
891.969, 70.690
893.236, 81.926
894.504, 84.232
895.771, 69.543
897.038, 102.759
898.305, 70.073
899.572, 74.292
900.838, 85.605
902.105, 85.899
903.371, 89.217
904.637, 97.538
905.902, 89.860
907.168, 106.185
908.433, 109.511
909.698, 117.839
910.963, 125.694
912.228, 130.502
913.492, 137.837
914.757, 142.976
916.021, 149.516
917.285, 157.859
918.548, 150.205
919.812, 156.554
921.075, 145.906
922.338, 163.262
923.601, 185.621
924.864, 173.983
926.126, 214.348
927.388, 218.718
928.650, 220.091
929.912, 255.468
931.174, 220.849
932.435, 236.233
933.697, 259.622
934.958, 261.016
936.218, 303.413
937.479, 335.815
938.739, 309.222
940.000, 345.633
941.260, 333.049
942.520, 441.469
943.779, 425.894
945.039, 495.317
946.298, 615.904
947.557, 621.216
948.816, 735.307
950.074, 780.652
951.333, 857.496
952.591, 1014.727
953.849, 1042.229
955.107, 1275.872
956.365, 1401.154
957.622, 1511.258
958.879, 1933.320
960.136, 2051.395
961.393, 2447.600
962.650, 2993.078
963.906, 3378.692
965.162, 4376.174
966.418, 5109.933
967.674, 6210.329
968.930, 8561.114
970.185, 10204.475
971.441, 14511.342
972.696, 19388.158
973.950, 26104.736
975.205, 38972.520
976.459, 46269.539
977.714, 54886.902
978.968, 55073.770
980.222, 43451.203
981.475, 35778.449
982.729, 25695.965
983.982, 18213.611
985.235, 14790.697
986.488, 10388.777
987.740, 8759.859
988.993, 7238.145
990.245, 5674.874
991.497, 5107.476
992.749, 4059.450
994.000, 3614.952
995.252, 3360.680
996.503, 2711.914
997.754, 2642.086
999.005, 2311.519
1000.256, 2054.398
1001.506, 1963.228
1002.756, 1624.073
1004.006, 1618.932
1005.256, 1487.809
1006.506, 1289.702
1007.755, 1296.610
1009.005, 1090.531
1010.254, 1020.410
1011.502, 1034.365
1012.751, 829.337
1014.000, 903.330
1015.248, 739.341
1016.496, 724.368
1017.744, 725.412
1018.991, 646.473
1020.239, 615.548
1021.486, 600.639
1022.733, 560.745
1023.980, 588.869
1025.227, 492.008
1026.473, 511.165
1027.719, 484.336
1028.965, 425.522
1030.211, 444.724
1031.457, 431.947
1032.702, 389.187
1033.948, 383.441
1035.193, 284.712
1036.438, 318.997
1037.682, 286.303
1038.927, 243.625
1040.171, 309.966
1041.415, 191.330
1042.659, 224.708
1043.903, 217.107
1045.146, 146.521
1046.390, 199.948
1047.633, 173.398
1048.876, 169.862
1050.118, 208.345
1051.361, 167.846
1052.603, 205.362
1053.845, 214.893
1055.087, 153.439
1056.329, 137.999
1057.571, 158.574
1058.812, 137.168
1060.053, 133.776
1061.294, 103.406
1062.535, 148.056
1063.775, 140.720
1065.016, 111.404
1066.256, 152.104
1067.496, 124.820
1068.736, 135.553
1069.975, 170.303
1071.214, 79.069
1072.454, 144.848
1073.693, 102.643
1074.931, 112.452
1076.170, 146.275
1077.408, 110.114
1078.647, 115.967
1079.885, 141.834
1081.122, 101.717
1082.360, 141.614
1083.597, 113.526
1084.835, 115.453
1086.072, 133.394
1087.308, 90.351
1088.545, 125.323
1089.781, 108.312
1091.018, 93.316
1092.254, 132.335
1093.490, 102.369
1094.725, 121.418
1095.961, 99.485
1097.196, 105.569
1098.431, 150.672
1099.666, 157.789
1100.900, 136.925
1102.135, 180.078
1103.369, 152.249
1104.603, 201.439
1105.837, 201.650
1107.071, 182.877
1108.304, 228.121
1109.538, 211.386
1110.771, 218.669
1112.004, 250.970
1113.236, 241.295
1114.469, 275.635
1115.701, 353.998
1116.933, 309.385
1118.165, 399.789
1119.397, 380.214
1120.629, 415.661
1121.860, 503.130
1123.091, 437.624
1124.322, 488.135
1125.553, 528.667
1126.783, 484.220
1128.014, 583.794
1129.244, 512.388
1130.474, 568.003
1131.704, 635.637
1132.933, 605.290
1134.163, 692.964
1135.392, 684.654
1136.621, 671.361
1137.850, 796.088
1139.079, 691.833
1140.307, 738.596
1141.535, 780.380
1142.763, 638.179
1143.991, 713.732
1145.219, 617.587
1146.446, 570.697
1147.674, 630.236
1148.901, 488.180
1150.128, 500.262
1151.354, 474.431
1152.581, 386.501
1153.807, 391.298
1155.033, 343.628
1156.259, 265.661
1157.485, 283.725
1158.710, 225.455
1159.936, 202.032
1161.161, 233.742
1162.386, 161.919
1163.611, 195.584
1164.835, 139.555
1166.060, 137.305
1167.284, 136.391
1168.508, 111.114
1169.732, 73.405
1170.955, 108.631
1172.179, 61.894
1173.402, 104.971
1174.625, 87.094
1175.848, 87.793
1177.070, 89.274
1178.293, 87.064
1179.515, 112.673
1180.737, 96.029
1181.959, 90.518
1183.181, 101.721
1184.402, 85.166
1185.624, 113.193
1186.845, 120.180
1188.066, 92.444
1189.286, 99.677
1190.507, 124.422
1191.727, 100.903
1192.947, 149.160
1194.167, 112.103
1195.387, 143.384
1196.607, 139.560
1197.826, 90.886
1199.045, 109.294
1200.264, 126.663
1201.483, 104.147
1202.702, 120.463
1203.920, 132.919
1205.138, 123.149
1206.356, 136.647
1207.574, 107.681
1208.792, 124.051
1210.009, 133.584
1211.227, 90.136
1212.444, 128.039
1213.661, 106.411
1214.877, 126.672
1216.094, 141.604
1217.310, 105.060
1218.526, 145.479
1219.742, 135.883
1220.958, 108.331
1222.173, 150.763
1223.389, 99.224
1224.604, 100.682
1225.819, 97.134
1227.034, 76.612
1228.248, 80.083
1229.463, 89.572
1230.677, 69.074
1231.891, 74.645
1233.105, 86.211
1234.318, 60.858
1235.532, 77.667
1236.745, 40.458
1237.958, 57.960
1239.171, 59.525
1240.384, 37.090
1241.596, 62.653
1242.809, 27.354
1244.021, 29.384
1245.233, 63.907
1246.444, 53.568
1247.656, 66.288
1248.867, 62.831
1250.079, 57.381
1251.290, 65.050
1252.500, 39.612
1253.711, 47.180
1254.921, 77.860
1256.132, 56.522
1257.342, 47.214
1258.552, 73.853
1259.761, 51.450
1260.971, 65.127
1262.180, 49.730
1263.389, 32.358
1264.598, 44.967
1265.807, 15.571
1267.015, 52.270
1268.223, 67.055
1269.432, 33.646
1270.640, 43.225
1271.847, 23.797
1273.055, 32.448
1274.262, 27.060
1275.470, 25.718
1276.677, 35.407
1277.883, 59.008
1279.090, 13.663
1280.296, 23.209
1281.503, 36.744
1282.709, 11.272
1283.915, 15.786
1285.120, 5.288
1286.326, 6.785
1287.531, 7.276
1288.736, 19.247
1289.941, 0.775
1291.146, 8.304
1292.350, 16.844
1293.555, 2.158
1294.759, 5.733
1295.963, 7.315
1297.167, 23.912
1298.370, 18.516
1299.574, 9.126
1300.777, 1.742
1301.980, 21.353
1303.183, 14.979
1304.386, 11.613
1305.588, 30.255
1306.790, 20.912
1307.993, 11.580
1309.195, 16.257
1310.396, 11.944
1311.598, 1.357
1312.799, 10.351
1314.000, 2.067
1315.201, 17.791
1316.402, 0.527
1317.603, 14.272
1318.803, 8.970
1320.003, 6.795
1321.203, 2.570
1322.403, 20.357
1323.603, 7.107
1324.802, 1.079
1326.002, 0.744
1327.201, 6.420
1328.400, 15.426
1329.599, 8.286
1330.797, 7.158
1331.995, 27.041
1333.194, 11.059
1334.392, 17.848
1335.589, 3.227
1336.787, 16.293
1337.985, 19.649
1339.182, 11.395
1340.379, 6.569
1341.576, 8.546
1342.772, 8.465
1343.969, 10.467
1345.165, 7.461
1346.361, 23.445
1347.557, 9.420
1348.753, 4.613
1349.949, 9.420
1351.144, 16.636
1352.339, 5.708
1353.534, 10.208
1354.729, 7.885
1355.924, 3.009
1357.118, 22.897
1358.312, 2.227
1359.506, 3.637
1360.700, 16.491
1361.894, 19.337
1363.088, 21.471
1364.281, 19.003
1365.474, 20.916
1366.667, 19.728
1367.860, 20.533
1369.052, 21.767
1370.245, 20.896
1371.437, 21.893
1372.629, 21.658
1373.821, 21.626
1375.013, 19.160
1376.204, 19.907
1377.395, 18.068
1378.586, 14.117
1379.777, 15.714
1380.968, 29.307
1382.159, 26.894
1383.349, 28.474
1384.539, 30.049
1385.729, 24.619
1386.919, 15.184
1388.109, 50.744
1389.298, 30.296
1390.487, 28.843
1391.676, 57.383
1392.865, 44.917
1394.054, 35.444
1395.242, 49.963
1396.431, 48.476
1397.619, 38.982
1398.807, 41.480
1399.995, 40.971
1401.182, 46.456
1402.370, 60.936
1403.557, 46.410
1404.744, 58.933
1405.931, 51.221
1407.118, 55.354
1408.304, 54.970
1409.490, 43.753
1410.676, 37.597
1411.862, 61.183
1413.048, 60.653
1414.234, 55.798
1415.419, 40.052
1416.604, 43.087
1417.789, 37.552
1418.974, 34.363
1420.159, 41.139
1421.343, 33.226
1422.528, 45.591
1423.712, 49.778
1424.896, 43.407
1426.079, 46.274
1427.263, 57.525
1428.446, 36.790
1429.629, 36.214
1430.812, 56.186
1431.995, 39.598
1433.178, 43.169
1434.360, 38.149
1435.543, 12.230
1436.725, 43.508
1437.907, 61.178
1439.088, 28.196
1440.270, 47.569
1441.451, 31.000
1442.632, 37.375
1443.813, 26.732
1444.994, 37.029
1446.175, 50.257
1447.355, 48.200
1448.535, 52.646
1449.715, 50.094
1450.895, 53.028
1452.075, 41.664
1453.255, 43.651
1454.434, 44.976
1455.613, 37.925
1456.792, 49.541
1457.971, 38.090
1459.149, 42.349
1460.328, 38.855
1461.506, 26.211
1462.684, 47.632
1463.862, 46.828
1465.040, 11.767
1466.217, 22.248
1467.395, 36.360
1468.572, 21.151
1469.749, 32.115
1470.925, 32.517
1472.102, 28.965
1473.278, 37.471
1474.455, 24.003
1475.631, 51.519
1476.807, 16.220
1477.982, 13.849
1479.158, 36.515
1480.333, 44.128
1481.508, 24.661
1482.683, 45.175
1483.858, 38.687
1485.033, 35.176
1486.207, 28.681
1487.381, 21.166
1488.555, 27.647
1489.729, 22.132
1490.903, 0.371
1492.076, 22.866
1493.250, 42.417
1494.423, 7.019
1495.596, 30.634
1496.769, 8.255
1497.941, 2.930
1499.114, 18.604
1500.286, 6.289
1501.458, 7.995
1502.630, 14.728
1503.802, 8.498
1504.973, 9.431
1506.145, 1.775
1507.316, 8.050
1508.487, 8.437
1509.657, 12.710
1510.828, 18.609
1511.999, 11.267
1513.169, 13.826
1514.339, 12.071
1515.509, 19.998
1516.678, 0.000
##END=



