##NAMES=Anglesite
##RRUFFID=R050408
##IDEAL CHEMISTRY=Pb^2+^S^6+^O_4_
##LOCALITY=Tsumeb mine, Tsumeb, Otavi District, Oshikoto, Namibia
##OWNER=RRUFF
##SOURCE=California Institute of Technology
##DESCRIPTION=Pale yellow fragment
##STATUS=The identification of this mineral has been confirmed by X-ray diffraction and chemical analysis
##URL=rruff.info/R050408
##MEASURED CHEMISTRY=Pb_1.00_S_1.00_O_4_
##PIN_ID=L00529
##ORIENTATION=Laser parallel to c* (0 0 1). Fiducial mark perpendicular to laser is parallel to a [1 0 0]
51.43100, 0.0000000E+00
52.67100, 8.884766
53.91000, 9.067657
55.14900, 24.50955
56.38700, 17.29153
57.62600, 8.875092
58.86400, 0.5626220
60.10300, 0.2624510
61.34100, 3.759552
62.57900, 14.07721
63.81700, 1.348328
65.05400, 9.311218
66.29200, 16.80154
67.52900, 46.03665
68.76700, 76.94284
70.00400, 115.4580
71.24100, 169.5283
72.47700, 226.1037
73.71400, 285.7426
74.95100, 352.9451
76.18700, 424.4420
77.42300, 496.6444
78.65900, 579.1772
79.89500, 658.0165
81.13100, 794.1396
82.36700, 967.5277
83.60200, 1146.163
84.83700, 1369.031
86.07200, 1535.121
87.30800, 1841.422
88.54200, 2122.925
89.77700, 2399.616
91.01200, 2779.476
92.24600, 3017.493
93.48000, 3461.656
94.71400, 3709.956
95.94800, 3992.387
97.18200, 4061.945
98.41600, 3948.625
99.64900, 3797.420
100.8830, 3624.326
102.1160, 3356.336
103.3490, 3055.446
104.5820, 2777.649
105.8150, 2635.944
107.0470, 2423.323
108.2800, 2296.781
109.5120, 2137.318
110.7440, 2047.928
111.9760, 1983.609
113.2080, 1926.358
114.4400, 1893.182
115.6710, 1930.082
116.9030, 1927.042
118.1340, 1940.061
119.3650, 2015.164
120.5960, 2035.365
121.8270, 2168.650
123.0580, 2287.003
124.2880, 2472.409
125.5190, 2595.342
126.7490, 2763.366
127.9790, 2906.835
129.2090, 3066.299
130.4390, 3276.783
131.6680, 3327.277
132.8980, 3419.795
134.1270, 3443.334
135.3560, 3502.915
136.5850, 3480.532
137.8140, 3302.177
139.0430, 3224.854
140.2710, 3123.577
141.5000, 3135.357
142.7280, 2996.190
143.9560, 3060.046
145.1840, 3039.920
146.4120, 3072.831
147.6390, 3120.781
148.8670, 3221.768
150.0940, 3314.773
151.3210, 3248.792
152.5490, 3228.824
153.7750, 3096.872
155.0020, 3005.933
156.2290, 2747.010
157.4550, 2510.100
158.6810, 2345.204
159.9080, 2171.322
161.1340, 1923.454
162.3590, 1810.600
163.5850, 1667.759
164.8110, 1541.930
166.0360, 1471.114
167.2610, 1343.311
168.4860, 1326.520
169.7110, 1198.740
170.9360, 1161.973
172.1610, 1067.216
173.3850, 1056.471
174.6100, 989.8273
175.8340, 985.4626
177.0580, 913.7659
178.2820, 877.5567
179.5050, 854.9674
180.7290, 820.5621
181.9520, 798.5858
183.1760, 799.9268
184.3990, 794.6258
185.6220, 816.2398
186.8450, 734.6058
188.0670, 773.3097
189.2900, 718.6982
190.5120, 694.8905
191.7340, 704.4704
192.9560, 687.8326
194.1780, 670.3024
195.4000, 651.4131
196.6220, 641.9819
197.8430, 613.0573
199.0640, 625.3433
200.2860, 642.6726
201.5070, 633.9488
202.7270, 619.1829
203.9480, 531.3386
205.1690, 555.6389
206.3890, 574.1473
207.6090, 451.0756
208.8290, 504.0558
210.0490, 494.2330
211.2690, 475.9799
212.4890, 484.5461
213.7080, 478.5120
214.9280, 446.4032
216.1470, 423.0898
217.3660, 421.0448
218.5850, 412.9135
219.8030, 396.8110
221.0220, 383.7620
222.2400, 325.7106
223.4590, 340.8427
224.6770, 308.4836
225.8950, 317.3781
227.1120, 277.5966
228.3300, 269.9589
229.5480, 265.7773
230.7650, 283.2980
231.9820, 281.2734
233.1990, 207.9686
234.4160, 222.3814
235.6330, 200.7192
236.8490, 224.1022
238.0660, 202.6307
239.2820, 196.6761
240.4980, 190.1082
241.7140, 173.1731
242.9300, 170.6458
244.1460, 161.8414
245.3610, 157.4865
246.5770, 152.0781
247.7920, 146.4892
249.0070, 149.9114
250.2220, 125.3442
251.4370, 145.7870
252.6510, 114.2397
253.8660, 140.7017
255.0800, 119.1724
256.2940, 113.6516
257.5080, 142.1387
258.7220, 132.6335
259.9360, 126.1356
261.1490, 104.6446
262.3630, 89.16003
263.5760, 80.68158
264.7890, 96.20905
266.0020, 101.7418
267.2150, 88.27960
268.4270, 85.82178
269.6400, 88.36810
270.8520, 55.91827
272.0640, 75.47186
273.2760, 98.02887
274.4880, 79.58936
275.7000, 63.15332
276.9120, 39.72070
278.1230, 35.29132
279.3340, 68.86517
280.5450, 43.44202
281.7560, 39.02173
282.9670, 25.60406
284.1780, 21.18884
285.3880, 30.77600
286.5980, 42.36523
287.8090, 17.95624
289.0190, 46.54877
290.2290, 13.14276
291.4380, 7.737976
292.6480, 29.33429
293.8570, 29.93146
295.0670, 10.52936
296.2760, 4.872192
297.4850, 6.726196
298.6930, 12.67499
299.9020, 1.077515
301.1110, 19.52002
302.3190, 1.882385
303.5270, 14.28503
304.7350, 3.689758
305.9430, 2.095154
307.1510, 19.49896
308.3580, 7.092712
309.5660, 7.686096
310.7730, 17.27899
311.9800, 3.871277
313.1870, 0.5371700
314.3940, 14.05353
315.6010, 10.35657
316.8070, 6.769470
318.0130, 22.18433
319.2200, 7.395081
320.4260, 1.027161
321.6310, 5.547180
322.8370, 25.87988
324.0430, 15.31683
325.2480, 24.75922
326.4540, 12.20874
327.6590, 6.662476
328.8640, 5.880554
330.0680, 5.579956
331.2730, 4.049683
332.4780, 15.52258
333.6820, 2.992798
334.8860, 2.503113
336.0900, 1.993958
337.2940, 13.51221
338.4980, 4.971069
339.7010, 12.45172
340.9050, 13.07318
342.1080, 19.60364
343.3110, 18.15033
344.5140, 2.703125
345.7170, 2.254211
346.9200, 0.5317380
348.1220, 2.649963
349.3240, 2.893188
350.5270, 5.434937
351.7290, 7.976807
352.9310, 24.52142
354.1320, 2.922485
355.3340, 0.3693850
356.5350, 12.18408
357.7370, 0.7445070
358.9380, 1.693176
360.1390, 10.87012
361.3400, 14.44098
362.5400, 12.02167
363.7410, 11.61115
364.9410, 8.790344
366.1410, 10.80853
367.3410, 4.583435
368.5410, 4.026672
369.7410, 7.643066
370.9400, 12.26794
372.1400, 13.90393
373.3390, 20.55206
374.5380, 15.21606
375.7370, 21.89343
376.9360, 0.5879520
378.1350, 5.711365
379.3330, 9.007080
380.5310, 8.300049
381.7300, 4.861450
382.9280, 4.124695
384.1260, 9.848206
385.3230, 3.583801
386.5210, 12.32837
387.7180, 6.306244
388.9160, 16.14417
390.1130, 7.372559
391.3100, 24.59637
392.5060, 42.81775
393.7030, 35.03650
394.9000, 22.25269
396.0960, 39.48029
397.2920, 45.69116
398.4880, 77.89935
399.6840, 43.10480
400.8800, 60.30756
402.0750, 61.50751
403.2710, 88.70496
404.4660, 62.89966
405.6610, 75.09180
406.8560, 85.28101
408.0510, 97.46738
409.2450, 110.6511
410.4400, 91.83203
411.6340, 131.0103
412.8280, 120.1858
414.0220, 109.3584
415.2160, 152.5281
416.4100, 142.6949
417.6030, 177.8588
418.7970, 208.0199
419.9900, 221.1780
421.1830, 258.3333
422.3760, 305.4863
423.5690, 337.6362
424.7610, 450.7833
425.9540, 515.9273
427.1460, 681.0684
428.3380, 931.2068
429.5300, 1234.343
430.7220, 1584.365
431.9140, 2082.604
433.1050, 2472.731
434.2970, 2991.855
435.4880, 3588.975
436.6790, 4073.092
437.8700, 4260.207
439.0610, 4134.318
440.2510, 3861.350
441.4420, 3350.455
442.6320, 2839.251
443.8220, 2446.332
445.0120, 2144.428
446.2020, 2111.492
447.3910, 2014.179
448.5810, 1963.202
449.7700, 1755.251
450.9600, 1589.333
452.1490, 1330.412
453.3370, 1132.487
454.5260, 884.5594
455.7150, 717.6285
456.9030, 578.6794
458.0910, 479.7434
459.2800, 431.4699
460.4670, 360.3341
461.6550, 348.4110
462.8430, 313.4625
464.0300, 300.4796
465.2180, 275.5257
466.4050, 274.2961
467.5920, 248.6490
468.7790, 248.4398
469.9650, 233.9237
471.1520, 230.6797
472.3380, 215.7092
473.5250, 197.4866
474.7110, 186.3250
475.8970, 179.5276
477.0820, 172.5441
478.2680, 149.4167
479.4540, 133.4279
480.6390, 151.6682
481.8240, 165.6734
483.0090, 114.6760
484.1940, 123.8845
485.3780, 110.6914
486.5630, 109.5654
487.7470, 123.3118
488.9320, 100.0673
490.1160, 89.90137
491.3000, 78.87207
492.4830, 92.54742
493.6670, 91.05853
494.8500, 94.03937
496.0340, 100.7390
497.2170, 91.65417
498.4000, 79.43213
499.5820, 53.46002
500.7650, 57.14099
501.9480, 45.94513
503.1300, 58.99902
504.3120, 51.82721
505.4940, 26.78094
506.6760, 52.74371
507.8580, 43.68756
509.0390, 53.66626
510.2210, 42.49243
511.4020, 44.83893
512.5830, 27.95978
513.7640, 36.78314
514.9450, 36.48767
516.1250, 35.66742
517.3060, 41.39050
518.4860, 43.55310
519.6660, 27.01678
520.8460, 32.78412
522.0260, 29.64807
523.2060, 29.48425
524.3850, 25.19324
525.5650, 34.39941
526.7440, 29.23401
527.9230, 8.449280
529.1020, 13.10596
530.2810, 25.12897
531.4590, 20.06091
532.6380, 41.80927
533.8160, 22.75031
534.9940, 12.69684
536.1720, 29.65240
537.3500, 0.3871460
538.5270, 12.57397
539.7050, 30.54126
540.8820, 48.51239
542.0590, 21.48547
543.2360, 30.46838
544.4130, 30.52686
545.5900, 37.51697
546.7660, 39.55823
547.9430, 42.03186
549.1190, 38.55231
550.2950, 40.59991
551.4710, 44.64362
552.6470, 30.70239
553.8220, 39.74042
554.9980, 68.76727
556.1730, 34.79688
557.3480, 60.81561
558.5230, 45.83728
559.6980, 35.93274
560.8730, 46.95831
562.0470, 72.98315
563.2220, 38.19684
564.3960, 81.22778
565.5700, 58.26575
566.7440, 49.30487
567.9170, 71.39197
569.0910, 70.50262
570.2640, 67.54285
571.4380, 78.64258
572.6110, 86.68683
573.7840, 70.72864
574.9570, 94.78900
576.1290, 123.8295
577.3020, 84.86938
578.4740, 87.91510
579.6460, 112.9497
580.8180, 120.0837
581.9900, 122.1133
583.1620, 144.1852
584.3330, 136.2123
585.5040, 154.2548
586.6760, 169.3608
587.8470, 174.4250
589.0180, 206.5593
590.1880, 253.7204
591.3590, 293.7612
592.5290, 325.7694
593.7000, 420.8179
594.8700, 509.8199
596.0400, 638.8593
597.2090, 755.1921
598.3790, 963.1851
599.5490, 1124.175
600.7180, 1308.262
601.8870, 1499.248
603.0560, 1681.268
604.2250, 1759.286
605.3940, 1779.521
606.5620, 1649.596
607.7300, 1473.576
608.8990, 1219.556
610.0670, 954.5632
611.2350, 751.5977
612.4020, 572.5776
613.5700, 455.5541
614.7370, 335.5283
615.9050, 286.6824
617.0720, 273.6588
618.2390, 214.6289
619.4060, 166.7341
620.5720, 123.7049
621.7390, 90.66705
622.9050, 72.66742
624.0710, 48.63086
625.2370, 24.58551
626.4030, 35.59338
627.5690, 36.55090
628.7340, 21.50604
629.9000, 53.45862
631.0650, 44.46478
632.2300, 27.41089
633.3950, 20.36267
634.5600, 20.40448
635.7240, 48.24603
636.8890, 34.19049
638.0530, 54.13141
639.2170, 78.06952
640.3810, 42.00769
641.5450, 56.94336
642.7080, 43.87585
643.8720, 35.84418
645.0350, 54.77759
646.1980, 30.90656
647.3610, 22.84601
648.5240, 16.80078
649.6870, 40.84631
650.8490, 28.85138
652.0120, 35.01257
653.1740, 15.24097
654.3360, 14.31921
655.4980, 6.431702
656.6600, 39.58026
657.8210, 31.70013
658.9830, 42.01221
660.1440, 31.69373
661.3050, 43.65912
662.4660, 43.86957
663.6270, 39.14124
664.7870, 46.42847
665.9480, 39.60413
667.1080, 36.66602
668.2680, 56.27850
669.4280, 57.34802
670.5880, 35.89539
671.7480, 49.60962
672.9070, 46.03711
674.0670, 46.61261
675.2260, 53.85626
676.3850, 62.49963
677.5440, 52.98462
678.7030, 51.72931
679.8610, 37.90625
681.0200, 43.64172
682.1780, 40.25836
683.3360, 24.87024
684.4940, 50.48169
685.6520, 30.03534
686.8090, 41.28784
687.9670, 37.34357
689.1240, 31.52899
690.2810, 33.71997
691.4380, 33.74146
692.5950, 38.60461
693.7520, 42.62662
694.9080, 43.34103
696.0650, 53.68573
697.2210, 47.47647
698.3770, 36.92294
699.5330, 48.40536
700.6880, 49.97208
701.8440, 29.61023
702.9990, 59.83182
704.1550, 76.69089
705.3100, 56.17963
706.4650, 45.87778
707.6190, 45.45831
708.7740, 66.13318
709.9290, 48.42746
711.0830, 68.45090
712.2370, 62.09985
713.3910, 54.56393
714.5450, 78.19574
715.6980, 62.23309
716.8520, 56.84988
718.0050, 67.45526
719.1580, 44.05188
720.3110, 82.63885
721.4640, 50.21707
722.6170, 57.78610
723.7700, 53.34631
724.9220, 44.89764
726.0740, 49.43936
727.2260, 41.97186
728.3780, 39.49451
729.5300, 51.00699
730.6810, 63.51050
731.8330, 49.00513
732.9840, 76.49051
734.1350, 48.96707
735.2860, 27.43445
736.4370, 57.88998
737.5880, 64.33673
738.7380, 41.77463
739.8880, 61.20279
741.0390, 48.62213
742.1890, 48.03229
743.3380, 30.43329
744.4880, 40.82312
745.6380, 56.20325
746.7870, 59.57452
747.9360, 47.93689
749.0850, 44.29004
750.2340, 67.63379
751.3830, 51.96863
752.5310, 71.29462
753.6800, 32.61163
754.8280, 49.91809
755.9760, 50.21558
757.1240, 34.50409
758.2720, 47.78241
759.4190, 62.05170
760.5670, 42.31219
761.7140, 46.56335
762.8610, 48.80554
764.0080, 40.03888
765.1550, 51.26282
766.3020, 62.47791
767.4480, 65.68402
768.5950, 37.88129
769.7410, 51.06921
770.8870, 43.24817
772.0330, 70.41827
773.1780, 58.57953
774.3240, 57.73199
775.4690, 74.87555
776.6140, 54.01038
777.7590, 48.13629
778.9040, 81.25354
780.0490, 43.36194
781.1940, 35.46161
782.3380, 53.55212
783.4820, 23.63397
784.6260, 37.70514
785.7700, 34.76746
786.9140, 26.82074
788.0580, 28.86414
789.2010, 19.89813
790.3450, 16.92114
791.4880, 22.93268
792.6310, 20.93408
793.7730, 19.06757
794.9160, 3.134033
796.0590, 12.82697
797.2010, 3.775818
798.3430, 1.290771
799.4850, 14.62463
800.6270, 3.528809
801.7690, 31.41797
802.9100, 14.29865
804.0520, 18.16833
805.1930, 3.028015
806.3340, 16.87341
807.4750, 3.709045
808.6160, 15.46954
809.7560, 5.327881
810.8970, 13.88788
812.0370, 28.12653
813.1770, 12.39557
814.3170, 2.313538
815.4570, 17.99109
816.5960, 9.320068
817.7360, 2.668701
818.8750, 33.03333
820.0140, 17.42950
821.1530, 1.918823
822.2920, 17.35321
823.4310, 3.143982
824.5690, 6.674988
825.7070, 12.80786
826.8460, 13.35547
827.9840, 14.62665
829.1220, 21.50543
830.2590, 12.09271
831.3970, 7.683777
832.5340, 2.291321
833.6710, 9.899963
834.8080, 4.924744
835.9450, 6.025452
837.0820, 7.891907
838.2190, 9.558594
839.3550, 19.42737
840.4910, 30.12897
841.6270, 8.855896
842.7630, 5.403442
843.8990, 27.39398
845.0350, 10.76801
846.1700, 24.00818
847.3060, 3.859558
848.4410, 4.334106
849.5760, 12.47827
850.7100, 3.678528
851.8450, 6.153076
852.9800, 3.005615
854.1140, 15.15033
855.2480, 16.53156
856.3820, 27.93286
857.5160, 34.47583
858.6500, 42.56323
859.7830, 56.68915
860.9170, 59.79242
862.0500, 58.82440
863.1830, 57.89111
864.3160, 77.88226
865.4480, 62.83978
866.5810, 91.91058
867.7130, 89.00677
868.8460, 73.05554
869.9780, 93.14380
871.1100, 92.18774
872.2410, 81.93115
873.3730, 93.00800
874.5050, 89.08130
875.6360, 81.05237
876.7670, 70.11896
877.8980, 89.15021
879.0290, 66.17542
880.1590, 71.97974
881.2900, 71.93689
882.4200, 61.98840
883.5500, 61.03717
884.6800, 57.80902
885.8100, 76.04999
886.9400, 54.09137
888.0690, 47.13025
889.1990, 47.14417
890.3280, 78.01984
891.4570, 49.04852
892.5860, 89.07806
893.7140, 91.96826
894.8430, 79.98755
895.9710, 96.01404
897.1000, 71.99725
898.2280, 72.01233
899.3560, 82.03516
900.4830, 88.00519
901.6110, 66.02618
902.7380, 72.04639
903.8660, 61.06604
904.9930, 77.02875
906.1200, 89.04761
907.2460, 73.05823
908.3730, 86.07678
909.5000, 85.09528
910.6260, 84.11395
911.7520, 84.13287
912.8780, 69.15228
914.0040, 106.1722
915.1290, 137.1928
916.2550, 120.2143
917.3800, 124.2009
918.5050, 129.2245
919.6300, 124.0541
920.7550, 127.0748
921.8800, 142.0775
923.0040, 138.9913
924.1290, 153.9438
925.2530, 169.7405
926.3770, 195.4714
927.5010, 170.3553
928.6250, 189.2084
929.7480, 218.0305
930.8720, 194.8853
931.9950, 207.5540
933.1180, 220.8538
934.2410, 262.8689
935.3640, 260.6381
936.4860, 292.9854
937.6090, 309.0504
938.7310, 305.8555
939.8530, 348.7783
940.9750, 354.2528
942.0970, 431.2317
943.2180, 435.6794
944.3400, 503.9952
945.4610, 561.5625
946.5820, 664.9813
947.7030, 710.5272
948.8240, 818.0817
949.9450, 856.5758
951.0650, 958.8243
952.1860, 1090.640
953.3060, 1217.898
954.4260, 1370.274
955.5460, 1510.656
956.6650, 1814.038
957.7850, 2038.478
958.9040, 2372.220
960.0230, 2816.159
961.1420, 3218.968
962.2610, 3763.773
963.3800, 4601.528
964.4990, 5584.882
965.6170, 6875.857
966.7350, 8362.143
967.8530, 10940.80
968.9710, 14037.01
970.0890, 18403.56
971.2070, 24586.09
972.3240, 31708.53
973.4410, 40287.89
974.5580, 48871.68
975.6750, 56688.83
976.7920, 61579.35
977.9090, 61970.67
979.0250, 58117.10
980.1410, 50725.45
981.2580, 41168.17
982.3740, 32307.17
983.4890, 24802.54
984.6050, 19185.11
985.7200, 14805.51
986.8360, 11858.50
987.9510, 9607.916
989.0660, 8023.348
990.1810, 6692.792
991.2950, 5829.249
992.4100, 4989.716
993.5240, 4255.196
994.6390, 3943.688
995.7530, 3430.192
996.8660, 3020.709
997.9800, 2795.239
999.0940, 2532.781
1000.207, 2276.336
1001.320, 2050.905
1002.433, 1927.485
1003.546, 1734.079
1004.659, 1608.686
1005.772, 1448.305
1006.884, 1349.940
1007.996, 1228.587
1009.108, 1108.248
1010.220, 1036.922
1011.332, 934.6100
1012.444, 872.3115
1013.555, 807.0261
1014.666, 772.7560
1015.777, 704.4996
1016.888, 619.2573
1017.999, 600.0286
1019.110, 552.8139
1020.220, 528.6134
1021.331, 466.4271
1022.441, 451.2549
1023.551, 411.0967
1024.661, 424.9554
1025.770, 407.8283
1026.880, 401.7157
1027.989, 337.6182
1029.098, 296.5352
1030.207, 317.4700
1031.316, 258.4197
1032.425, 263.3861
1033.533, 259.3749
1034.642, 218.3786
1035.750, 190.4014
1036.858, 192.4462
1037.966, 140.5112
1039.073, 161.5914
1040.181, 138.6868
1041.288, 127.8004
1042.396, 153.9307
1043.503, 132.0764
1044.610, 135.5913
1045.716, 132.5431
1046.823, 117.6491
1047.929, 127.8866
1049.036, 102.1439
1050.142, 119.4233
1051.248, 141.7241
1052.353, 129.0405
1053.459, 108.3788
1054.564, 78.74060
1055.670, 62.12036
1056.775, 68.51782
1057.880, 21.93604
1058.985, 29.37354
1060.089, 5.832336
1061.194, 24.31189
1062.298, 26.81238
1063.402, 27.33466
1064.506, 1.882263
1065.610, 54.45349
1066.713, 2.047668
1067.817, 12.66449
1068.920, 1.698181
1070.023, 28.96008
1071.126, 22.63599
1072.229, 50.33148
1073.332, 12.95416
1074.435, 8.217102
1075.537, 29.53717
1076.639, 5.685669
1077.741, 36.11737
1078.843, 2.941284
1079.945, 34.79120
1081.046, 9.672668
1082.148, 27.57770
1083.249, 21.50403
1084.350, 40.45508
1085.451, 26.42993
1086.551, 30.42816
1087.652, 34.45459
1088.752, 53.50500
1089.853, 52.57532
1090.953, 59.67841
1092.053, 65.51575
1093.152, 68.91156
1094.252, 66.06390
1095.351, 76.23871
1096.451, 65.43640
1097.550, 80.65833
1098.649, 71.90186
1099.748, 83.16577
1100.846, 154.4485
1101.945, 104.7521
1103.043, 158.0749
1104.141, 122.4182
1105.239, 140.7849
1106.337, 166.1735
1107.434, 163.5854
1108.532, 200.0223
1109.629, 215.4788
1110.726, 226.1684
1111.823, 246.4478
1112.920, 250.9601
1114.017, 270.0483
1115.113, 318.0500
1116.210, 312.6204
1117.306, 352.2100
1118.402, 396.8149
1119.498, 427.4379
1120.593, 443.0759
1121.689, 476.7293
1122.784, 468.3978
1123.879, 507.0813
1124.974, 536.7798
1126.069, 576.4936
1127.164, 568.2228
1128.259, 581.9674
1129.353, 639.7285
1130.447, 684.5045
1131.541, 682.2952
1132.635, 733.1010
1133.729, 728.9212
1134.822, 722.7560
1135.916, 790.6061
1137.009, 781.4719
1138.102, 853.3521
1139.195, 801.2465
1140.288, 861.1558
1141.380, 818.0789
1142.473, 832.0164
1143.565, 735.9677
1144.657, 766.9332
1145.749, 769.9123
1146.841, 717.9056
1147.932, 715.9125
1149.024, 694.9329
1150.115, 632.9669
1151.206, 565.0153
1152.297, 550.0775
1153.388, 575.1528
1154.479, 526.2416
1155.569, 521.6628
1156.659, 500.7780
1157.750, 445.9061
1158.839, 459.0471
1159.929, 388.2010
1161.019, 360.0547
1162.108, 325.2338
1163.198, 311.8206
1164.287, 286.7151
1165.376, 237.9312
1166.465, 187.0576
1167.553, 224.9006
1168.642, 214.2661
1169.730, 164.5294
1170.818, 141.8042
1171.906, 140.7683
1172.994, 137.2900
1174.082, 116.6005
1175.170, 119.7389
1176.257, 118.5480
1177.344, 135.4103
1178.431, 117.8398
1179.518, 121.1294
1180.605, 101.9910
1181.691, 87.61127
1182.778, 122.0029
1183.864, 167.5808
1184.950, 120.7311
1186.036, 112.5815
1187.122, 124.2839
1188.207, 80.71204
1189.292, 121.6501
1190.378, 80.97717
1191.463, 133.3386
1192.548, 90.71613
1193.632, 104.2653
1194.717, 122.6401
1195.801, 96.46893
1196.886, 114.7477
1197.970, 50.64471
1199.054, 73.82794
1200.137, 109.6998
1201.221, 113.5598
1202.305, 47.52765
1203.388, 74.51453
1204.471, 79.92932
1205.554, 41.62335
1206.637, 49.98450
1207.719, 82.01190
1208.802, 73.09167
1209.884, 63.19122
1210.966, 81.74609
1212.048, 77.43719
1213.130, 76.52057
1214.212, 79.69788
1215.293, 77.18866
1216.374, 73.50049
1217.456, 93.13782
1218.536, 84.77563
1219.617, 111.4144
1220.698, 100.0531
1221.778, 125.6974
1222.859, 75.35992
1223.939, 82.06140
1225.019, 91.74646
1226.099, 43.49146
1227.178, 56.15430
1228.258, 53.82068
1229.337, 43.50323
1230.417, 50.19604
1231.496, 15.87189
1232.574, 32.56561
1233.653, 13.48071
1234.732, 38.01337
1235.810, 25.10052
1236.888, 17.97064
1237.966, 12.66125
