##NAMES=Anglesite
##RRUFFID=R050052
##IDEAL CHEMISTRY=Pb^2+^S^6+^O_4_
##LOCALITY=Touissite, Oujela, Morocco
##OWNER=RRUFF
##SOURCE=Eugene Schlepp
##DESCRIPTION=Yellow prismatic single crystal
##STATUS=The identification of this mineral has been confirmed by X-ray diffraction and chemical analysis
##URL=rruff.info/R050052
##MEASURED CHEMISTRY=Pb_1.00_S_1.00_O_4_
##PIN_ID=L00248
##ORIENTATION=Laser parallel to c* (0 0 1). Fiducial mark perpendicular to laser is parallel to a [1 0 0]
46.637, 0.000
48.043, 0.524
49.450, 60.659
50.856, 69.879
52.261, 86.860
53.667, 142.154
55.072, 154.753
56.477, 221.441
57.882, 253.294
59.287, 224.490
60.691, 234.759
62.095, 286.666
63.499, 292.369
64.903, 271.832
66.306, 234.713
67.709, 170.021
69.112, 117.453
70.515, 92.997
71.917, 90.643
73.319, 50.380
74.721, 42.199
76.123, 11.091
77.525, 3.050
78.926, 1.930
80.327, 24.851
81.728, 14.714
83.128, 28.481
84.529, 36.734
85.929, 71.046
87.329, 99.410
88.728, 149.823
90.128, 162.279
91.527, 256.776
92.926, 319.310
94.324, 407.876
95.723, 438.470
97.121, 529.088
98.519, 518.723
99.917, 511.372
101.314, 547.035
102.712, 508.708
104.109, 505.396
105.505, 465.099
106.902, 510.816
108.298, 502.547
109.694, 500.295
111.090, 516.077
112.486, 467.883
113.881, 541.716
115.277, 497.580
116.672, 576.481
118.066, 531.421
119.461, 538.416
120.855, 549.465
122.249, 554.528
123.643, 574.988
125.036, 570.757
126.430, 604.880
127.823, 579.999
129.216, 566.111
130.608, 583.221
132.001, 544.664
133.393, 526.471
134.785, 482.606
136.176, 484.741
137.568, 436.873
138.959, 472.998
140.350, 468.110
141.741, 427.209
143.131, 499.297
144.521, 479.370
145.911, 590.418
147.301, 659.419
148.691, 804.369
150.080, 943.309
151.469, 1070.243
152.858, 1213.172
154.247, 1167.094
155.635, 1210.013
157.024, 1043.926
158.411, 970.834
159.799, 892.839
161.187, 732.882
162.574, 749.854
163.961, 638.854
165.348, 653.963
166.734, 540.950
168.121, 504.970
169.507, 506.110
170.893, 456.160
172.278, 494.323
173.664, 413.202
175.049, 470.415
176.434, 437.562
177.819, 423.428
179.203, 460.593
180.587, 414.159
181.971, 453.434
183.355, 397.507
184.739, 435.353
186.122, 437.498
187.505, 416.008
188.888, 402.263
190.271, 388.329
191.653, 383.194
193.035, 377.925
194.417, 385.969
195.799, 365.932
197.180, 338.648
198.562, 338.388
199.943, 303.733
201.324, 305.741
202.704, 306.884
204.084, 297.754
205.465, 286.113
206.844, 270.946
208.224, 284.929
209.603, 236.816
210.983, 259.555
212.362, 244.533
213.740, 259.128
215.119, 248.591
216.497, 226.113
217.875, 242.470
219.253, 227.888
220.631, 198.197
222.008, 222.434
223.385, 179.642
224.762, 190.736
226.139, 190.794
227.515, 195.808
228.891, 157.738
230.267, 179.514
231.643, 155.213
233.018, 129.912
234.394, 150.616
235.769, 157.324
237.144, 152.037
238.518, 119.753
239.893, 133.327
241.267, 101.849
242.641, 94.991
244.014, 118.929
245.388, 81.626
246.761, 116.922
248.134, 113.888
249.507, 90.364
250.879, 95.918
252.252, 68.634
253.624, 75.366
254.996, 82.097
256.367, 75.828
257.739, 77.557
259.110, 65.286
260.481, 61.172
261.852, 58.786
263.222, 53.466
264.592, 52.190
265.962, 63.912
267.332, 59.632
268.702, 59.351
270.071, 45.068
271.440, 39.783
272.809, 35.495
274.178, 41.206
275.546, 51.914
276.915, 36.620
278.283, 35.323
279.650, 45.023
281.018, 25.720
282.385, 34.414
283.752, 30.105
285.119, 48.792
286.486, 44.475
287.852, 27.155
289.218, 24.830
290.584, 23.501
291.950, 27.167
293.316, 34.829
294.681, 11.486
296.046, 28.139
297.411, 7.213
298.775, 13.428
300.140, 14.065
301.504, 9.696
302.868, 18.323
304.231, 14.945
305.595, 8.562
306.958, 7.826
308.321, 9.779
309.684, 13.380
311.047, 5.024
312.409, 13.566
313.771, 2.152
315.133, 2.733
316.495, 7.690
317.856, 4.119
319.217, 7.554
320.578, 0.996
321.939, 2.558
323.299, 10.107
324.660, 9.652
326.020, 5.808
327.380, 11.274
328.739, 18.748
330.099, 13.233
331.458, 0.275
332.817, 12.223
334.176, 11.271
335.534, 11.241
336.892, 13.760
338.251, 10.708
339.608, 15.829
340.966, 9.624
342.323, 4.068
343.681, 11.492
345.037, 3.937
346.394, 20.640
347.751, 7.231
349.107, 6.834
350.463, 1.557
351.819, 17.059
353.174, 1.306
354.530, 6.662
355.885, 4.990
357.240, 3.344
358.594, 4.669
359.949, 4.010
361.303, 5.698
362.657, 2.601
364.011, 6.894
365.365, 3.822
366.718, 11.456
368.071, 10.731
369.424, 2.000
370.777, 18.265
372.129, 3.526
373.481, 10.784
374.833, 4.913
376.185, 8.352
377.537, 20.597
378.888, 7.868
380.239, 38.125
381.590, 12.395
382.941, 27.659
384.291, 30.881
385.642, 22.128
386.992, 51.340
388.341, 49.550
389.691, 52.807
391.040, 82.009
392.389, 92.286
393.738, 98.548
395.087, 111.844
396.435, 138.085
397.784, 122.333
399.132, 133.563
400.479, 156.790
401.827, 136.024
403.174, 164.212
404.521, 161.415
405.868, 171.610
407.215, 164.800
408.561, 175.630
409.908, 203.219
411.254, 196.427
412.599, 235.636
413.945, 254.843
415.290, 294.049
416.636, 341.254
417.980, 375.457
419.325, 490.660
420.670, 495.859
422.014, 617.057
423.358, 742.251
424.702, 896.443
426.045, 1135.633
427.389, 1342.822
428.732, 1827.009
430.075, 2274.194
431.417, 3207.375
432.760, 4630.531
434.102, 6902.666
435.444, 11617.776
436.786, 16807.912
438.127, 24368.088
439.469, 24718.193
440.810, 18548.305
442.151, 13268.443
443.492, 7805.504
444.832, 5432.601
446.172, 3749.678
447.512, 2697.830
448.852, 2214.963
450.192, 1589.020
451.531, 1443.066
452.870, 1102.103
454.209, 943.153
455.548, 831.233
456.887, 709.212
458.225, 629.852
459.563, 546.735
460.901, 512.713
462.238, 482.692
463.576, 448.650
464.913, 450.640
466.250, 402.616
467.587, 399.562
468.923, 358.992
470.259, 353.937
471.596, 365.893
472.931, 323.495
474.267, 328.446
475.603, 306.324
476.938, 294.204
478.273, 290.632
479.608, 291.277
480.942, 305.710
482.276, 253.499
483.611, 259.364
484.944, 230.273
486.278, 229.178
487.612, 212.715
488.945, 178.908
490.278, 204.631
491.611, 157.702
492.943, 161.526
494.276, 167.668
495.608, 137.575
496.940, 140.788
498.271, 114.845
499.603, 122.760
500.934, 110.700
502.265, 84.619
503.596, 92.515
504.927, 74.748
506.257, 80.652
507.587, 95.324
508.917, 67.845
510.247, 87.400
511.577, 62.309
512.906, 63.239
514.235, 66.161
515.564, 46.117
516.892, 54.815
518.221, 44.770
519.549, 51.735
520.877, 33.505
522.205, 24.200
523.533, 38.171
524.860, 31.170
526.187, 31.980
527.514, 21.007
528.841, 32.055
530.167, 44.956
531.493, 28.029
532.820, 29.140
534.145, 7.230
535.471, 15.168
536.796, 19.360
538.122, 11.588
539.447, 13.694
540.771, 9.944
542.096, 10.070
543.420, 19.249
544.744, 12.487
546.068, 21.756
547.392, 20.289
548.715, 8.394
550.039, 21.634
551.362, 2.995
552.684, 6.382
554.007, 0.401
555.329, 10.966
556.652, 9.284
557.973, 13.555
559.295, 13.809
560.617, 12.287
561.938, 23.513
563.259, 19.859
564.580, 22.300
565.901, 48.531
567.221, 18.948
568.541, 38.561
569.861, 32.737
571.181, 28.201
572.501, 33.516
573.820, 37.853
575.139, 58.404
576.458, 39.701
577.777, 65.202
579.095, 79.298
580.414, 78.527
581.732, 104.602
583.049, 87.685
584.367, 119.799
585.685, 119.603
587.002, 127.611
588.319, 171.902
589.636, 186.896
590.952, 220.164
592.268, 254.421
593.585, 279.496
594.900, 364.965
596.216, 404.947
597.532, 555.079
598.847, 712.123
600.162, 954.156
601.477, 1397.642
602.792, 1833.886
604.106, 2698.047
605.420, 2937.983
606.734, 2665.060
608.048, 2343.127
609.361, 1527.111
610.675, 1126.045
611.988, 823.172
613.301, 589.046
614.614, 488.900
615.926, 403.802
617.238, 364.707
618.550, 315.590
619.862, 281.416
621.174, 265.365
622.485, 189.175
623.797, 193.453
625.108, 169.247
626.418, 165.047
627.729, 132.828
629.039, 123.600
630.349, 122.034
631.659, 124.123
632.969, 124.873
634.279, 121.616
635.588, 122.350
636.897, 159.078
638.206, 194.800
639.515, 223.515
640.823, 316.223
642.131, 312.923
643.439, 300.780
644.747, 249.519
646.055, 197.440
647.362, 143.258
648.669, 122.588
649.976, 90.964
651.283, 85.978
652.589, 70.093
653.896, 54.802
655.202, 72.159
656.508, 76.481
657.814, 48.764
659.119, 65.825
660.424, 93.225
661.729, 81.588
663.034, 97.417
664.339, 86.027
665.643, 85.295
666.947, 84.970
668.251, 77.614
669.555, 80.557
670.859, 66.190
672.162, 81.617
673.465, 80.458
674.768, 79.831
676.071, 101.926
677.373, 81.249
678.676, 87.229
679.978, 89.996
681.280, 88.867
682.581, 67.592
683.883, 76.170
685.184, 67.404
686.485, 74.995
687.786, 87.318
689.087, 57.616
690.387, 72.086
691.687, 57.617
692.987, 57.862
694.287, 62.116
695.586, 75.480
696.886, 73.402
698.185, 79.074
699.484, 80.305
700.783, 70.950
702.081, 62.161
703.379, 62.383
704.677, 66.610
705.975, 73.754
707.273, 58.935
708.570, 56.024
709.868, 74.110
711.165, 56.145
712.462, 59.217
713.758, 62.266
715.055, 63.316
716.351, 47.351
717.647, 64.360
718.943, 53.400
720.238, 47.408
721.533, 60.408
722.829, 47.400
724.124, 38.351
725.418, 63.307
726.713, 43.249
728.007, 50.173
729.301, 48.080
730.595, 37.985
731.889, 48.858
733.182, 38.716
734.476, 64.555
735.769, 50.381
737.061, 65.190
738.354, 60.986
739.647, 55.768
740.939, 25.535
742.231, 76.281
743.523, 42.014
744.814, 70.731
746.106, 41.434
747.397, 41.121
748.688, 50.792
749.978, 31.449
751.269, 60.088
752.559, 43.714
753.849, 48.325
755.139, 47.921
756.429, 27.504
757.719, 35.069
759.008, 37.617
760.297, 52.151
761.586, 39.671
762.875, 39.177
764.163, 42.668
765.451, 45.146
766.739, 33.610
768.027, 50.060
769.315, 64.496
770.602, 41.921
771.890, 40.333
773.177, 40.731
774.463, 63.117
775.750, 34.490
777.036, 64.851
778.323, 21.199
779.609, 46.531
780.894, 38.851
782.180, 42.159
783.465, 72.455
784.750, 71.740
786.035, 91.013
787.320, 96.276
788.605, 82.526
789.889, 88.766
791.173, 72.994
792.457, 55.212
793.741, 58.418
795.024, 41.613
796.307, 41.798
797.591, 20.972
798.873, 24.133
800.156, 17.225
801.439, 19.420
802.721, 6.544
804.003, 6.651
805.285, 7.258
806.566, 8.809
807.848, 18.139
809.129, 2.885
810.410, 13.108
811.691, 13.127
812.971, 10.170
814.252, 16.237
815.532, 16.329
816.812, 8.447
818.092, 21.585
819.371, 16.751
820.651, 23.942
821.930, 24.161
823.209, 20.407
824.488, 34.678
825.766, 6.982
827.045, 30.304
828.323, 23.654
829.601, 20.030
830.878, 40.428
832.156, 19.860
833.433, 17.314
834.710, 35.787
835.987, 0.290
837.264, 48.814
838.540, 11.363
839.817, 34.951
841.093, 47.542
842.369, 32.166
843.644, 35.909
844.920, 38.619
846.195, 34.446
847.470, 35.308
848.745, 21.171
850.020, 31.981
851.294, 28.826
852.568, 2.331
853.842, 29.512
855.116, 8.585
856.390, 23.395
857.663, 0.605
858.936, 9.642
860.209, 7.726
861.482, 34.681
862.755, 18.599
864.027, 21.680
865.299, 23.602
866.571, 36.565
867.843, 25.566
869.115, 37.577
870.386, 29.355
871.657, 22.378
872.928, 15.274
874.199, 56.066
875.470, 23.063
876.740, 31.867
878.010, 48.467
879.280, 25.498
880.550, 7.234
881.820, 8.113
883.089, 0.037
884.358, 45.593
885.627, 4.472
886.896, 37.139
888.164, 40.206
889.433, 20.136
890.701, 64.214
891.969, 18.279
893.236, 44.307
894.504, 56.641
895.771, 29.766
897.038, 58.603
898.305, 31.733
899.572, 59.584
900.838, 62.442
902.105, 36.479
903.371, 40.117
904.637, 55.240
905.902, 35.208
907.168, 72.261
908.433, 24.323
909.698, 56.928
910.963, 67.772
912.228, 63.698
913.492, 67.845
914.757, 67.849
916.021, 85.862
917.285, 127.954
918.548, 61.096
919.812, 114.043
921.075, 74.241
922.338, 86.458
923.601, 112.625
924.864, 105.789
926.126, 120.977
927.388, 120.221
928.650, 147.341
929.912, 146.601
931.174, 135.392
932.435, 166.668
933.697, 169.938
934.958, 173.229
936.218, 220.530
937.479, 237.839
938.739, 247.157
940.000, 281.484
941.260, 239.820
942.520, 331.166
943.779, 343.521
945.039, 386.886
946.298, 484.261
947.557, 560.646
948.816, 644.041
950.074, 722.281
951.333, 762.641
952.591, 891.824
953.849, 940.115
955.107, 1171.902
956.365, 1336.732
957.622, 1422.762
958.879, 1797.780
960.136, 1968.208
961.393, 2325.992
962.650, 2974.820
963.906, 3197.691
965.162, 4286.792
966.418, 5080.558
967.674, 6172.362
968.930, 8645.711
970.185, 10263.283
971.441, 14909.203
972.696, 20264.729
973.950, 27000.287
975.205, 40986.129
976.459, 48911.141
977.714, 58467.934
978.968, 59913.320
980.222, 47289.176
981.475, 39645.324
982.729, 28800.254
983.982, 20636.527
985.235, 17083.023
986.488, 12128.414
987.740, 10385.962
988.993, 8490.669
990.245, 6806.723
991.497, 6363.427
992.749, 5029.409
994.000, 4440.425
995.252, 4227.277
996.503, 3402.031
997.754, 3429.115
999.005, 3016.213
1000.256, 2663.184
1001.506, 2693.619
1002.756, 2250.296
1004.006, 2209.435
1005.256, 2029.211
1006.506, 1721.404
1007.755, 1846.634
1009.005, 1556.868
1010.254, 1492.154
1011.502, 1531.463
1012.751, 1271.805
1014.000, 1383.179
1015.248, 1216.584
1016.496, 1187.017
1017.744, 1216.482
1018.991, 1027.973
1020.239, 1131.497
1021.486, 1130.050
1022.733, 968.631
1023.980, 1129.237
1025.227, 995.873
1026.473, 1075.538
1027.719, 1130.240
1028.965, 995.967
1030.211, 1175.729
1031.457, 1176.520
1032.702, 1102.343
1033.948, 1312.187
1035.193, 1171.076
1036.438, 1364.996
1037.682, 1412.946
1038.927, 1423.925
1040.171, 1652.934
1041.415, 1659.970
1042.659, 1791.034
1043.903, 2072.125
1045.146, 1955.246
1046.390, 2388.393
1047.633, 2462.567
1048.876, 2578.770
1050.118, 3232.002
1051.361, 3141.266
1052.603, 3632.557
1053.845, 3977.880
1055.087, 3865.233
1056.329, 4356.615
1057.571, 4272.023
1058.812, 4346.461
1060.053, 4731.927
1061.294, 4137.425
1062.535, 4478.950
1063.775, 4358.502
1065.016, 3802.080
1066.256, 4004.685
1067.496, 3389.321
1068.736, 3228.985
1069.975, 3182.676
1071.214, 2592.394
1072.454, 2698.138
1073.693, 2422.906
1074.931, 2096.706
1076.170, 2231.531
1077.408, 1800.383
1078.647, 1826.263
1079.885, 1762.168
1081.122, 1483.106
1082.360, 1583.071
1083.597, 1370.061
1084.835, 1324.077
1086.072, 1373.118
1087.308, 1142.183
1088.545, 1178.275
1089.781, 1096.394
1091.018, 1002.537
1092.254, 1024.706
1093.490, 910.901
1094.725, 873.122
1095.961, 891.368
1097.196, 696.639
1098.431, 775.936
1099.666, 708.258
1100.900, 599.606
1102.135, 702.980
1103.369, 585.380
1104.603, 599.808
1105.837, 597.264
1107.071, 502.751
1108.304, 554.266
1109.538, 465.815
1110.771, 427.392
1112.004, 505.001
1113.236, 417.642
1114.469, 421.315
1115.701, 418.021
1116.933, 362.758
1118.165, 452.527
1119.397, 393.328
1120.629, 388.162
1121.860, 483.029
1123.091, 381.929
1124.322, 388.862
1125.553, 428.829
1126.783, 364.825
1128.014, 477.855
1129.244, 385.916
1130.474, 435.008
1131.704, 489.136
1132.933, 458.293
1134.163, 459.537
1135.392, 516.757
1136.621, 489.212
1137.850, 578.976
1139.079, 582.281
1140.307, 610.636
1141.535, 735.809
1142.763, 750.578
1143.991, 867.638
1145.219, 901.085
1146.446, 930.579
1147.674, 1101.148
1148.901, 1155.619
1150.128, 1304.133
1151.354, 1444.734
1152.581, 1458.330
1153.807, 1671.263
1155.033, 1772.960
1156.259, 1723.468
1157.485, 1859.904
1158.710, 1785.910
1159.936, 1784.703
1161.161, 1755.488
1162.386, 1537.889
1163.611, 1469.970
1164.835, 1345.421
1166.060, 1150.016
1167.284, 1151.958
1168.508, 1003.771
1169.732, 879.518
1170.955, 908.789
1172.179, 731.646
1173.402, 711.814
1174.625, 633.547
1175.848, 601.518
1177.070, 597.682
1178.293, 515.715
1179.515, 529.186
1180.737, 551.409
1181.959, 422.879
1183.181, 433.099
1184.402, 395.132
1185.624, 369.355
1186.845, 408.351
1188.066, 337.238
1189.286, 337.032
1190.507, 342.669
1191.727, 250.136
1192.947, 295.611
1194.167, 243.334
1195.387, 248.339
1196.607, 263.295
1197.826, 194.872
1199.045, 196.440
1200.264, 243.905
1201.483, 146.504
1202.702, 206.201
1203.920, 193.806
1205.138, 163.063
1206.356, 183.582
1207.574, 111.288
1208.792, 120.591
1210.009, 123.837
1211.227, 134.953
1212.444, 132.596
1213.661, 151.998
1214.877, 124.032
1216.094, 176.597
1217.310, 114.406
1218.526, 154.141
1219.742, 158.520
1220.958, 106.969
1222.173, 140.369
1223.389, 107.533
1224.604, 103.179
1225.819, 123.969
1227.034, 68.412
1228.248, 57.536
1229.463, 101.969
1230.677, 56.617
1231.891, 43.062
1233.105, 56.512
1234.318, 16.464
1235.532, 49.179
1236.745, 58.657
1237.958, 34.611
1239.171, 24.248
1240.384, 4.002
1241.596, 48.633
1242.809, 21.167
1244.021, 22.967
1245.233, 39.522
1246.444, 3.115
1247.656, 43.713
1248.867, 66.299
1250.079, 11.918
1251.290, 56.559
1252.500, 35.173
1253.711, 16.797
1254.921, 65.429
1256.132, 32.070
1257.342, 24.719
1258.552, 78.376
1259.761, 40.037
1260.971, 21.701
1262.180, 47.366
1263.389, 36.033
1264.598, 72.689
1265.807, 31.329
1267.015, 33.962
1268.223, 30.584
1269.432, 27.193
1270.640, 32.782
1271.847, 22.358
1273.055, 6.923
1274.262, 37.472
1275.470, 20.016
1276.677, 6.549
1277.883, 34.066
1279.090, 3.435
1280.296, 17.040
1281.503, 9.501
1282.709, 17.057
1283.915, 8.373
1285.120, 0.207
1286.326, 22.792
1287.531, 12.393
1288.736, 18.012
1289.941, 24.633
1291.146, 3.711
1292.350, 41.959
1293.555, 21.653
1294.759, 21.295
1295.963, 55.013
1297.167, 20.747
1298.370, 25.511
1299.574, 37.290
1300.777, 16.092
1301.980, 46.911
1303.183, 4.761
1304.386, 34.625
1305.588, 33.506
1306.790, 26.408
1307.993, 20.327
1309.195, 25.266
1310.396, 10.224
1311.598, 31.198
1312.799, 12.191
1314.000, 10.200
1315.201, 1.225
1316.402, 10.265
1317.603, 14.321
1318.803, 38.397
1320.003, 10.501
1321.203, 27.616
1322.403, 8.758
1323.603, 14.919
1324.802, 26.101
1326.002, 13.307
1327.201, 8.534
1328.400, 4.781
1329.599, 7.047
1330.797, 2.688
1331.995, 0.230
1333.194, 2.046
1334.392, 5.708
1335.589, 10.355
1336.787, 11.142
1337.985, 6.601
1339.182, 2.200
1340.379, 3.786
1341.576, 5.649
1342.772, 13.895
1343.969, 2.574
1345.165, 4.064
1346.361, 13.426
1347.557, 16.901
1348.753, 3.359
1349.949, 21.800
1351.144, 2.775
1352.339, 39.631
1353.534, 17.023
1354.729, 23.400
1355.924, 22.763
1357.118, 5.344
1358.312, 13.675
1359.506, 28.989
1360.700, 21.289
1361.894, 24.575
1363.088, 61.846
1364.281, 8.106
1365.474, 46.349
1366.667, 15.581
1367.860, 32.783
1369.052, 27.972
1370.245, 11.147
1371.437, 19.305
1372.629, 55.445
1373.821, 37.577
1375.013, 61.697
1376.204, 63.884
1377.395, 27.920
1378.586, 39.457
1379.777, 64.984
1380.968, 33.500
1382.159, 51.007
1383.349, 46.502
1384.539, 56.989
1385.729, 99.466
1386.919, 50.932
1388.109, 92.387
1389.298, 72.831
1390.487, 75.263
1391.676, 87.682
1392.865, 79.088
1394.054, 79.482
1395.242, 105.862
1396.431, 103.230
1397.619, 113.586
1398.807, 117.930
1399.995, 112.192
1401.182, 114.257
1402.370, 128.975
1403.557, 111.260
1404.744, 133.297
1405.931, 134.312
1407.118, 141.780
1408.304, 133.923
1409.490, 121.115
1410.676, 125.466
1411.862, 147.518
1413.048, 106.053
1414.234, 105.028
1415.419, 116.594
1416.604, 91.186
1417.789, 108.188
1418.974, 87.800
1420.159, 80.444
1421.343, 106.351
1422.528, 70.486
1423.712, 96.046
1424.896, 90.229
1426.079, 70.961
1427.263, 65.385
1428.446, 90.584
1429.629, 75.569
1430.812, 72.259
1431.995, 55.719
1433.178, 57.726
1434.360, 88.419
1435.543, 64.477
1436.725, 42.480
1437.907, 70.204
1439.088, 47.812
1440.270, 75.266
1441.451, 77.185
1442.632, 80.748
1443.813, 81.343
1444.994, 81.965
1446.175, 86.075
1447.355, 86.942
1448.535, 81.124
1449.715, 85.599
1450.895, 81.533
1452.075, 79.775
1453.255, 80.014
1454.434, 76.619
1455.613, 80.112
1456.792, 59.393
1457.971, 58.675
1459.149, 47.819
1460.328, 55.823
1461.506, 54.705
1462.684, 59.487
1463.862, 56.266
1465.040, 47.060
1466.217, 56.901
1467.395, 40.794
1468.572, 45.711
1469.749, 47.639
1470.925, 42.668
1472.102, 42.785
1473.278, 55.923
1474.455, 33.033
1475.631, 42.144
1476.807, 27.355
1477.982, 44.372
1479.158, 47.538
1480.333, 39.767
1481.508, 19.012
1482.683, 42.318
1483.858, 35.604
1485.033, 17.880
1486.207, 47.165
1487.381, 31.428
1488.555, 45.680
1489.729, 37.936
1490.903, 25.222
1492.076, 31.551
1493.250, 31.923
1494.423, 14.336
1495.596, 13.786
1496.769, 34.265
1497.941, 3.222
1499.114, 21.332
1500.286, 30.885
1501.458, 15.504
1502.630, 22.158
1503.802, 19.871
1504.973, 27.651
1506.145, 35.504
1507.316, 11.434
1508.487, 27.159
1509.657, 12.837
1510.828, 15.506
1511.999, 29.117
1513.169, 18.563
1514.339, 5.652
1515.509, 32.965
1516.678, 0.185
1517.848, 0.000
##END=



