##NAMES=Anglesite
##RRUFFID=R040004
##IDEAL CHEMISTRY=Pb^2+^S^6+^O_4_
##LOCALITY=Erupcion mine, Los Lamentos, Chihuahua, Mexico
##OWNER=RRUFF
##SOURCE=University of Arizona Mineral Museum
##DESCRIPTION=Tan colored tabular crystal
##STATUS=The identification of this mineral has been confirmed by X-ray diffraction and chemical analysis
##URL=rruff.info/R040004
##MEASURED CHEMISTRY=Pb_1.00_S_1.00_O_4_
##PIN_ID=m00050
##ORIENTATION=Laser parallel to b* (0 1 0). Fiducial mark perpendicular to laser is parallel to c [0 0 1]
75.937, 0.000
77.333, 75.891
78.729, 63.038
80.125, 207.191
81.521, 301.589
82.916, 224.479
84.311, 392.164
85.706, 379.985
87.101, 549.794
88.496, 497.762
89.890, 700.316
91.284, 683.036
92.678, 723.655
94.071, 770.887
95.465, 679.471
96.858, 660.185
98.251, 533.847
99.644, 668.331
101.036, 540.614
102.428, 404.633
103.820, 491.313
105.212, 426.514
106.604, 424.665
107.995, 347.443
109.387, 311.768
110.777, 323.324
112.168, 487.147
113.559, 549.209
114.949, 518.078
116.339, 484.575
117.729, 418.104
119.119, 272.573
120.508, 183.091
121.897, 113.650
123.286, 140.930
124.675, 117.539
126.063, 226.632
127.452, 92.187
128.840, 143.897
130.228, 84.886
131.615, 0.229
133.003, 78.562
134.390, 23.844
135.777, 62.791
137.164, 89.896
138.550, 67.292
139.937, 177.472
141.323, 15.669
142.709, 204.734
144.094, 109.749
145.480, 252.339
146.865, 184.867
148.250, 410.396
149.635, 406.968
151.019, 412.513
152.403, 486.072
153.788, 396.605
155.171, 386.077
156.555, 335.650
157.939, 354.969
159.322, 305.215
160.705, 142.377
162.088, 162.489
163.470, 93.564
164.853, 190.619
166.235, 80.657
167.617, 35.682
168.998, 137.698
170.380, 17.291
171.761, 187.716
173.142, 59.719
174.523, 50.792
175.904, 47.754
177.284, 68.539
178.664, 24.819
180.044, 75.139
181.424, 158.159
182.803, 103.653
184.183, 149.328
185.562, 10.497
186.940, 38.082
188.319, 102.327
189.698, 42.400
191.076, 61.385
192.454, 12.704
193.831, 86.708
195.209, 128.394
196.586, 17.999
197.963, 104.950
199.340, 38.098
200.717, 24.855
202.093, 53.797
203.470, 41.889
204.846, 14.317
206.221, 37.751
207.597, 41.856
208.972, 4.358
210.347, 4.520
211.722, 34.314
213.097, 58.149
214.472, 95.967
215.846, 11.774
217.220, 167.738
218.594, 53.406
219.967, 58.760
221.341, 75.121
222.714, 43.392
224.087, 57.932
225.460, 13.126
226.832, 85.703
228.204, 51.191
229.577, 67.646
230.948, 92.049
232.320, 23.902
233.692, 113.285
235.063, 12.310
236.434, 144.062
237.805, 15.432
239.175, 75.787
240.545, 34.137
241.916, 108.339
243.286, 127.188
244.655, 53.439
246.025, 88.975
247.394, 66.727
248.763, 134.649
250.132, 71.712
251.501, 113.065
252.869, 139.338
254.237, 60.690
255.605, 224.111
256.973, 133.589
258.340, 153.116
259.708, 57.684
261.075, 53.285
262.442, 171.916
263.808, 21.572
265.175, 140.247
266.541, 23.939
267.907, 46.646
269.273, 70.360
270.639, 11.917
272.004, 22.803
273.369, 101.479
274.734, 74.209
276.099, 101.108
277.463, 46.462
278.828, 6.838
280.192, 52.226
281.556, 25.359
282.919, 7.937
284.283, 19.499
285.646, 94.047
287.009, 8.584
288.372, 27.104
289.734, 181.387
291.097, 41.044
292.459, 40.540
293.821, 29.845
295.183, 49.213
296.544, 2.448
297.905, 58.876
299.266, 2.178
300.627, 47.412
301.988, 85.629
303.348, 6.812
304.709, 80.950
306.069, 36.943
307.428, 174.127
308.788, 133.178
310.147, 60.216
311.507, 146.237
312.865, 3.778
314.224, 203.180
315.583, 16.124
316.941, 140.046
318.299, 67.953
319.657, 102.845
321.015, 85.715
322.372, 113.571
323.729, 114.412
325.086, 85.285
326.443, 3.901
327.800, 143.894
329.156, 19.668
330.512, 91.422
331.868, 25.162
333.224, 71.883
334.579, 84.312
335.935, 46.005
337.290, 155.680
338.645, 20.347
339.999, 159.942
341.354, 114.434
342.708, 131.873
344.062, 220.296
345.416, 117.843
346.769, 187.220
348.123, 92.503
349.476, 158.748
350.829, 169.990
352.182, 114.210
353.534, 141.575
354.887, 79.768
356.239, 107.593
357.591, 91.284
358.942, 86.446
360.294, 85.608
361.645, 2.229
362.996, 118.623
364.347, 92.226
365.698, 51.832
367.048, 116.906
368.398, 161.172
369.748, 130.884
371.098, 10.076
372.448, 130.790
373.797, 88.647
375.146, 175.667
376.495, 107.658
377.844, 29.806
379.192, 132.175
380.540, 106.100
381.889, 253.877
383.236, 199.837
384.584, 66.746
385.932, 251.643
387.279, 207.529
388.626, 263.391
389.973, 109.244
391.319, 255.085
392.666, 190.931
394.012, 177.710
395.358, 173.568
396.704, 179.487
398.049, 234.771
399.394, 170.688
400.740, 186.639
402.084, 172.487
403.429, 128.421
404.774, 144.259
406.118, 220.091
407.462, 225.945
408.806, 191.788
410.150, 197.619
411.493, 313.481
412.836, 99.313
414.179, 335.130
415.522, 290.932
416.865, 256.719
418.207, 362.493
419.549, 438.251
420.891, 393.992
422.233, 559.718
423.575, 585.427
424.916, 941.120
426.257, 886.795
427.598, 1352.455
428.939, 1758.096
430.279, 2813.721
431.619, 4469.328
432.959, 7473.676
434.299, 11119.246
435.639, 11987.833
436.978, 10313.370
438.318, 6491.838
439.657, 3983.660
440.996, 2597.895
442.334, 1719.207
443.673, 1414.668
445.011, 1039.589
446.349, 742.756
447.687, 758.181
449.024, 512.928
450.361, 548.287
451.699, 511.010
453.036, 446.367
454.372, 437.797
455.709, 283.046
457.045, 348.354
458.381, 311.979
459.717, 297.254
461.053, 421.042
462.388, 226.284
463.724, 331.510
465.059, 245.390
466.394, 350.582
467.728, 241.625
469.063, 296.805
470.397, 351.969
471.731, 307.118
473.065, 282.251
474.398, 315.122
475.732, 240.224
477.065, 204.110
478.398, 228.382
479.731, 244.235
481.063, 229.275
482.396, 204.299
483.728, 139.308
485.060, 94.301
486.391, 269.278
487.723, 101.641
489.054, 206.587
490.385, 120.149
491.716, 135.064
493.047, 258.768
494.377, 23.614
495.708, 198.480
497.038, 172.753
498.368, 97.589
499.697, 120.861
501.027, 155.671
502.356, 210.469
503.685, 175.378
505.014, 70.146
506.342, 224.937
507.671, 109.676
508.999, 224.425
510.327, 143.482
511.655, 218.211
512.982, 73.052
514.310, 137.752
515.637, 362.369
516.964, 127.162
518.291, 261.807
519.617, 230.441
520.944, 177.576
522.270, 229.287
523.596, 139.191
524.921, 215.251
526.247, 160.477
527.572, 76.621
528.897, 241.190
530.222, 186.098
531.547, 227.340
532.871, 143.255
534.196, 110.057
535.520, 254.561
536.844, 56.034
538.167, 195.936
539.491, 36.377
540.814, 160.858
542.137, 225.283
543.460, 189.903
544.783, 154.454
546.105, 128.834
547.427, 163.270
548.749, 248.188
550.071, 126.327
551.393, 224.488
552.714, 41.612
554.035, 160.457
555.356, 114.729
556.677, 242.543
557.998, 116.776
559.318, 116.074
560.638, 300.275
561.958, 114.458
563.278, 169.409
564.597, 183.559
565.917, 175.007
567.236, 339.122
568.555, 293.221
569.874, 143.455
571.192, 347.520
572.511, 191.390
573.829, 265.419
575.147, 189.433
576.464, 183.702
577.782, 307.681
579.099, 291.642
580.416, 405.588
581.733, 229.516
583.050, 383.485
584.366, 427.381
585.683, 301.258
586.999, 475.119
588.315, 388.962
589.630, 572.789
590.946, 346.600
592.261, 450.400
593.576, 514.184
594.891, 577.980
596.206, 754.439
597.520, 998.235
598.834, 1202.029
600.148, 1445.814
601.462, 1609.602
602.776, 1519.313
604.089, 1440.840
605.402, 1114.591
606.715, 1048.325
608.028, 642.048
609.341, 675.755
610.653, 469.498
611.965, 553.228
613.277, 766.957
614.589, 560.671
615.901, 764.370
617.212, 818.066
618.523, 841.746
619.834, 945.450
621.145, 1029.107
622.456, 1212.748
623.766, 1186.380
625.076, 879.997
626.386, 897.443
627.696, 621.047
629.006, 734.636
630.315, 538.210
631.624, 531.768
632.933, 495.321
634.242, 398.859
635.551, 592.388
636.859, 595.902
638.167, 649.400
639.475, 782.886
640.783, 706.355
642.090, 799.810
643.398, 783.204
644.705, 746.630
646.012, 810.046
647.318, 783.455
648.625, 776.855
649.931, 690.242
651.237, 683.619
652.543, 656.605
653.849, 489.956
655.155, 603.295
656.460, 346.604
657.765, 309.924
659.070, 233.764
660.375, 77.056
661.679, 230.332
662.984, 93.445
664.288, 196.694
665.592, 266.953
666.895, 29.824
668.199, 273.349
669.502, 76.507
670.805, 169.497
672.108, 82.627
673.411, 124.255
674.713, 178.764
676.016, 28.230
677.318, 5.271
678.620, 197.650
679.921, 49.429
681.223, 103.437
682.524, 16.323
683.825, 9.189
685.126, 231.826
686.427, 44.654
687.727, 77.467
689.028, 10.281
690.328, 6.930
691.628, 125.812
692.927, 81.443
694.227, 60.707
695.526, 66.612
696.825, 55.078
698.124, 157.686
699.423, 40.281
700.721, 22.865
702.020, 145.434
703.318, 47.992
704.616, 20.541
705.913, 36.927
707.211, 37.660
708.508, 21.996
709.805, 50.517
711.102, 51.844
712.399, 35.877
713.695, 186.431
714.992, 61.341
716.288, 90.812
717.584, 153.050
718.879, 5.184
720.175, 157.396
721.470, 100.399
722.765, 211.733
724.060, 143.858
725.355, 84.023
726.649, 298.017
727.944, 110.066
729.238, 162.111
730.532, 214.148
731.825, 6.180
733.119, 198.200
734.412, 90.214
735.705, 102.221
736.998, 174.224
738.291, 6.221
739.584, 158.209
740.876, 170.190
742.168, 122.169
743.460, 264.142
744.752, 6.110
746.043, 128.072
747.334, 60.030
748.626, 121.983
749.916, 313.934
751.207, 44.122
752.498, 277.795
753.788, 139.707
755.078, 61.614
756.368, 183.521
757.658, 64.579
758.947, 187.284
760.237, 129.146
761.526, 91.004
762.815, 122.858
764.104, 84.710
765.392, 86.559
766.680, 208.411
767.969, 60.255
769.257, 282.097
770.544, 3.937
771.832, 96.936
773.119, 168.771
774.406, 0.604
775.693, 222.435
776.980, 24.263
778.267, 76.090
779.553, 107.916
780.839, 80.259
782.125, 21.529
783.411, 33.318
784.697, 105.106
785.982, 226.895
787.267, 172.412
788.552, 310.470
789.837, 142.257
791.122, 164.044
792.406, 225.832
793.690, 47.620
794.974, 179.409
796.258, 181.201
797.542, 32.992
798.825, 174.785
800.108, 76.579
801.391, 128.376
802.674, 140.174
803.957, 31.974
805.239, 213.775
806.522, 24.420
807.804, 227.385
809.085, 119.193
810.367, 121.003
811.649, 202.816
812.930, 25.366
814.211, 236.448
815.492, 148.141
816.772, 239.962
818.053, 261.753
819.333, 156.417
820.613, 205.355
821.893, 252.816
823.173, 24.599
824.452, 516.258
825.732, 168.050
827.011, 209.797
828.290, 351.503
829.568, 83.337
830.847, 381.138
832.125, 90.414
833.403, 182.278
834.681, 318.867
835.959, 120.747
837.236, 481.377
838.514, 301.715
839.791, 253.636
841.068, 365.220
842.345, 257.130
843.621, 597.694
844.898, 457.277
846.174, 399.247
847.450, 574.242
848.726, 386.168
850.001, 582.212
851.277, 414.182
852.552, 546.237
853.827, 868.104
855.102, 669.602
856.376, 1011.701
857.651, 973.753
858.925, 745.317
860.199, 903.634
861.473, 751.955
862.746, 641.310
864.020, 758.951
865.293, 421.163
866.566, 669.832
867.839, 392.101
869.112, 429.305
870.384, 321.608
871.656, 323.926
872.928, 485.475
874.200, 277.846
875.472, 352.917
876.744, 395.319
878.015, 167.767
879.286, 264.078
880.557, 376.570
881.828, 179.077
883.098, 501.603
884.369, 294.166
885.639, 276.474
886.909, 439.073
888.178, 171.688
889.448, 374.322
890.717, 256.974
891.987, 299.584
893.256, 422.271
894.524, 364.980
895.793, 317.709
897.061, 280.455
898.330, 313.221
899.598, 396.006
900.865, 108.811
902.133, 381.635
903.401, 324.479
904.668, 324.670
905.935, 497.559
907.202, 60.469
908.468, 453.400
909.735, 156.352
911.001, 145.613
912.267, 408.605
913.533, 181.621
914.799, 274.660
916.064, 287.719
917.330, 110.799
918.595, 3.900
919.860, 137.025
921.124, 210.170
922.389, 213.340
923.653, 73.467
924.918, 419.734
926.182, 102.959
927.445, 196.178
928.709, 339.449
929.972, 172.744
931.236, 326.059
932.499, 369.400
933.761, 88.939
935.024, 422.326
936.286, 115.736
937.549, 249.172
938.811, 302.629
940.073, 186.113
941.334, 549.619
942.596, 353.150
943.857, 426.705
945.118, 400.283
946.379, 293.887
947.640, 807.516
948.900, 421.168
950.161, 494.844
951.421, 908.545
952.681, 622.270
953.940, 826.021
955.200, 1109.797
956.459, 853.596
957.719, 1277.420
958.978, 1190.725
960.236, 1524.600
961.495, 1748.498
962.753, 1972.422
964.012, 2816.371
965.270, 3129.809
966.527, 4083.807
967.785, 5597.832
969.043, 7111.881
970.300, 10665.955
971.557, 14893.035
972.814, 20837.156
974.071, 28121.324
975.327, 28655.523
976.583, 27459.744
977.840, 21559.430
979.095, 15113.701
980.351, 12058.043
981.607, 8202.404
982.862, 6326.816
984.117, 5383.531
985.372, 4038.002
986.627, 3572.520
987.882, 2967.066
989.136, 2441.646
990.390, 2249.758
991.644, 1964.393
992.898, 1949.074
994.152, 1783.781
995.405, 1848.100
996.659, 1914.166
997.912, 2048.967
999.165, 1879.439
1000.417, 1796.100
1001.670, 1499.611
1002.922, 1354.572
1004.174, 1081.635
1005.426, 796.645
1006.678, 1011.682
1007.930, 659.271
1009.181, 674.361
1010.432, 920.031
1011.683, 505.188
1012.934, 840.387
1014.185, 678.977
1015.435, 664.258
1016.685, 919.561
1017.935, 849.496
1019.185, 964.865
1020.435, 900.980
1021.684, 866.418
1022.934, 851.879
1024.183, 722.420
1025.432, 757.932
1026.680, 823.500
1027.929, 595.418
1029.177, 831.033
1030.425, 719.092
1031.673, 494.775
1032.921, 970.490
1034.169, 471.035
1035.416, 756.795
1036.663, 872.592
1037.911, 868.406
1039.157, 1074.246
1040.404, 960.129
1041.650, 1066.031
1042.897, 1441.973
1044.143, 1078.236
1045.389, 1514.244
1046.634, 1520.320
1047.880, 1396.420
1049.125, 2052.541
1050.371, 1788.695
1051.615, 2254.873
1052.860, 2301.072
1054.105, 1998.457
1055.349, 2634.789
1056.593, 2141.145
1057.837, 2257.523
1059.081, 2433.922
1060.325, 2010.363
1061.568, 2266.836
1062.812, 2023.334
1064.055, 1709.902
1065.298, 1986.490
1066.540, 1473.098
1067.783, 1419.729
1069.025, 1616.373
1070.267, 1053.043
1071.509, 1409.738
1072.751, 1156.453
1073.993, 992.023
1075.234, 1268.777
1076.475, 935.553
1077.716, 1002.350
1078.957, 1309.166
1080.198, 906.002
1081.438, 1222.857
1082.679, 819.732
1083.919, 706.646
1085.159, 913.578
1086.398, 720.525
1087.638, 597.494
1088.877, 694.479
1090.116, 481.480
1091.355, 598.496
1092.594, 465.525
1093.833, 402.570
1095.071, 529.629
1096.309, 186.699
1097.547, 443.787
1098.785, 400.885
1100.023, 327.992
1101.260, 615.115
1102.498, 172.246
1103.735, 419.389
1104.972, 476.543
1106.208, 143.705
1107.445, 520.879
1108.681, 528.061
1109.918, 235.250
1111.154, 352.451
1112.389, 209.656
1113.625, 376.869
1114.860, 364.094
1116.096, 301.322
1117.331, 388.557
1118.566, 485.797
1119.800, 363.039
1121.035, 500.320
1122.269, 217.605
1123.503, 244.895
1124.737, 142.188
1125.971, 130.525
1127.205, 196.758
1128.438, 34.059
1129.671, 281.367
1130.904, 288.695
1132.137, 63.977
1133.370, 193.361
1134.602, 270.715
1135.834, 128.084
1137.066, 86.045
1138.298, 86.584
1139.530, 40.779
1140.762, 112.148
1141.993, 29.527
1143.224, 226.924
1144.455, 25.682
1145.686, 51.701
1146.917, 79.096
1148.147, 123.496
1149.377, 53.875
1150.607, 101.855
1151.837, 50.793
1153.067, 86.562
1154.296, 14.465
1155.526, 58.180
1156.755, 369.430
1157.984, 13.195
1159.213, 114.184
1160.441, 71.572
1161.670, 71.023
1162.898, 146.375
1164.126, 193.777
1165.354, 88.812
1166.581, 118.590
1167.809, 14.000
1169.036, 183.414
1170.263, 350.840
1171.490, 91.729
1172.717, 305.688
1173.943, 373.115
1175.170, 109.453
1176.396, 257.959
1177.622, 44.621
1178.848, 132.793
1180.073, 181.846
1181.299, 80.725
1182.524, 366.688
1183.749, 116.295
1184.974, 313.730
1186.199, 281.365
1187.423, 252.961
1188.648, 260.404
1189.872, 231.426
1191.096, 4.252
1192.320, 301.713
1193.543, 20.004
1194.767, 97.477
1195.990, 364.955
1197.213, 295.373
1198.436, 362.865
1199.659, 280.730
1200.881, 5.926
1202.104, 523.430
1203.326, 392.029
1204.548, 139.543
1205.770, 307.059
1206.991, 88.865
1208.213, 216.357
1209.434, 393.855
1210.655, 202.998
1211.876, 360.502
1213.096, 398.006
1214.317, 125.514
1215.537, 483.029
1216.757, 370.830
1217.977, 348.746
1219.197, 426.283
1220.417, 193.879
1221.636, 551.436
1222.855, 309.012
1224.074, 146.916
1225.293, 544.494
1226.512, 292.057
1227.731, 249.594
1228.949, 567.133
1230.167, 274.771
1231.385, 582.117
1232.603, 439.287
1233.820, 226.699
1235.038, 833.805
1236.255, 440.582
1237.472, 387.346
1238.689, 654.053
1239.906, 450.646
1241.122, 616.967
1242.338, 613.244
1243.555, 159.760
1244.771, 585.914
1245.986, 442.002
1247.202, 448.023
1248.417, 793.957
1249.633, 219.805
1250.848, 545.553
1252.063, 551.209
1253.277, 416.764
1254.492, 662.236
1255.706, 427.623
1256.920, 263.266
1258.134, 678.496
1259.348, 283.650
1260.562, 498.730
1261.775, 853.742
1262.988, 348.691
1264.201, 853.551
1265.414, 548.354
1266.627, 363.113
1267.839, 887.838
1269.052, 542.564
1270.264, 567.357
1271.476, 740.240
1272.688, 498.578
1273.899, 676.930
1275.111, 592.941
1276.322, 331.295
1277.533, 705.973
1278.744, 464.295
1279.955, 662.609
1281.165, 509.992
1282.376, 101.795
1283.586, 550.072
1284.796, 526.043
1286.006, 1.482
1287.215, 629.109
1288.425, 337.369
1289.634, 601.768
1290.843, 584.658
1292.052, 322.027
1293.261, 570.229
1294.469, 442.373
1295.678, 102.854
1296.886, 538.008
1298.094, 346.066
1299.302, 108.111
1300.509, 566.088
1301.717, 154.043
1302.924, 271.959
1304.131, 469.439
1305.338, 227.154
1306.545, 694.850
1307.752, 482.523
1308.958, 238.504
1310.164, 605.934
1311.370, 263.324
1312.576, 240.680
1313.782, 577.883
1314.987, 255.072
1316.193, 352.244
1317.398, 469.389
1318.603, 386.518
1319.807, 393.623
1321.012, 330.703
1322.216, 277.768
1323.421, 604.807
1324.625, 81.830
1325.829, 338.844
1327.032, 415.855
1328.236, 62.871
1329.439, 269.895
1330.642, 226.932
1331.845, 13.990
1333.048, 351.074
1334.251, 28.188
1335.453, 4.654
1336.656, 362.543
1337.858, 90.205
1339.060, 337.107
1340.261, 314.488
1341.463, 51.941
1342.664, 339.473
1343.866, 217.092
1345.067, 195.305
1346.267, 492.314
1347.468, 149.932
1348.669, 446.262
1349.869, 353.947
1351.069, 22.574
1352.269, 420.150
1353.469, 327.854
1354.668, 94.400
1355.868, 652.027
1357.067, 348.652
1358.266, 376.068
1359.465, 554.107
1360.664, 272.150
1361.862, 250.219
1363.061, 688.318
1364.259, 336.441
1365.457, 554.592
1366.655, 352.775
1367.852, 280.994
1369.050, 919.258
1370.247, 382.223
1371.444, 613.074
1372.641, 680.387
1373.838, 323.621
1375.035, 718.373
1376.231, 613.904
1377.427, 249.086
1378.623, 842.197
1379.819, 490.869
1381.015, 227.508
1382.211, 618.244
1383.406, 428.521
1384.601, 380.854
1385.796, 706.844
1386.991, 91.787
1388.185, 631.785
1389.380, 623.523
1390.574, 213.764
1391.768, 529.967
1392.962, 416.383
1394.156, 259.740
1395.350, 405.139
1396.543, 237.506
1397.736, 184.861
1398.929, 451.311
1400.122, 8.545
1401.315, 257.514
1402.507, 336.109
1403.700, 54.941
1404.892, 384.801
1406.084, 286.207
1407.276, 51.705
1408.467, 334.564
1409.659, 9.088
1410.850, 116.791
1412.041, 511.068
1413.232, 0.000
##END=



