##NAMES=Anglesite
##RRUFFID=R050408
##IDEAL CHEMISTRY=Pb^2+^S^6+^O_4_
##LOCALITY=Tsumeb mine, Tsumeb, Otavi District, Oshikoto, Namibia
##OWNER=RRUFF
##SOURCE=California Institute of Technology
##DESCRIPTION=Pale yellow fragment
##STATUS=The identification of this mineral has been confirmed by X-ray diffraction and chemical analysis
##URL=rruff.info/R050408
##MEASURED CHEMISTRY=Pb_1.00_S_1.00_O_4_
##PIN_ID=L01992
##ORIENTATION=Laser parallel to b* (0 1 0). Fiducial mark perpendicular to laser is parallel to c [0 0 1]
51.43100, 0.0000000E+00
52.67100, 14.72845
53.91000, 25.54218
55.14900, 16.04263
56.38700, 4.593170
57.62600, 6.955383
58.86400, 29.89005
60.10300, 23.86884
61.34100, 22.98154
62.57900, 35.21039
63.81700, 16.39938
65.05400, 9.422302
66.29200, 3.824371
67.52900, 1.426147
68.76700, 42.54572
70.00400, 52.88077
71.24100, 130.9832
72.47700, 126.3539
73.71400, 163.1055
74.95100, 221.2040
76.18700, 235.6199
77.42300, 323.3270
78.65900, 361.3019
79.89500, 448.5240
81.13100, 514.9750
82.36700, 599.6383
83.60200, 649.5002
84.83700, 724.5481
86.07200, 796.7712
87.30800, 857.1624
88.54200, 933.7129
89.77700, 1030.411
91.01200, 1076.244
92.24600, 1141.203
93.48000, 1245.280
94.71400, 1334.469
95.94800, 1422.763
97.18200, 1475.159
98.41600, 1477.651
99.64900, 1484.234
100.8830, 1480.902
102.1160, 1369.652
103.3490, 1267.478
104.5820, 1162.378
105.8150, 1136.347
107.0470, 1048.383
108.2800, 1023.482
109.5120, 1023.642
110.7440, 1036.860
111.9760, 1010.134
113.2080, 1053.464
114.4400, 1038.860
115.6710, 1039.306
116.9030, 1152.800
118.1340, 1122.342
119.3650, 1240.952
120.5960, 1341.616
121.8270, 1451.356
123.0580, 1583.156
124.2880, 1758.998
125.5190, 1904.883
126.7490, 1984.764
127.9790, 2092.797
129.2090, 2138.776
130.4390, 2208.494
131.6680, 2185.453
132.8980, 2188.437
134.1270, 2180.440
135.3560, 2199.464
136.5850, 2104.506
137.8140, 2121.573
139.0430, 1954.689
140.2710, 1852.843
141.5000, 1716.023
142.7280, 1596.225
143.9560, 1497.449
145.1840, 1396.690
146.4120, 1308.945
147.6390, 1235.213
148.8670, 1162.495
150.0940, 1143.790
151.3210, 1088.099
152.5490, 1089.423
153.7750, 1029.761
155.0020, 1032.112
156.2290, 965.4781
157.4550, 943.8575
158.6810, 918.2506
159.9080, 861.6575
161.1340, 867.0778
162.3590, 798.5113
163.5850, 821.9579
164.8110, 807.4172
166.0360, 822.8892
167.2610, 820.3737
168.4860, 849.8704
169.7110, 811.3794
170.9360, 865.9001
172.1610, 871.4323
173.3850, 918.0391
174.6100, 958.5931
175.8340, 978.8958
177.0580, 1002.464
178.2820, 1028.043
179.5050, 1047.691
180.7290, 1081.077
181.9520, 1129.899
183.1760, 1148.524
184.3990, 1135.492
185.6220, 1169.899
186.8450, 1147.859
188.0670, 1136.719
189.2900, 1132.874
190.5120, 1078.451
191.7340, 1064.291
192.9560, 958.8542
194.1780, 943.5040
195.4000, 862.5174
196.6220, 806.5042
197.8430, 735.2733
199.0640, 705.8031
200.2860, 615.5494
201.5070, 569.8995
202.7270, 543.7496
203.9480, 528.3916
205.1690, 493.5001
206.3890, 461.3881
207.6090, 458.2869
208.8290, 389.3524
210.0490, 372.7721
211.2690, 329.8247
212.4890, 316.6086
213.7080, 303.0121
214.9280, 310.5681
216.1470, 287.3076
217.3660, 293.5782
218.5850, 283.8753
219.8030, 267.4011
221.0220, 254.2407
222.2400, 232.7178
223.4590, 227.2682
224.6770, 232.6249
225.8950, 200.8412
227.1120, 195.5027
228.3300, 164.5019
229.5480, 157.2356
230.7650, 177.8221
231.9820, 148.6127
233.1990, 163.8138
234.4160, 178.5415
235.6330, 174.5793
236.8490, 137.2286
238.0660, 119.8720
239.2820, 136.5295
240.4980, 105.2004
241.7140, 104.8844
242.9300, 84.58075
244.1460, 84.28906
245.3610, 103.0133
246.5770, 100.7439
247.7920, 68.48523
249.0070, 94.23663
250.2220, 87.99786
251.4370, 57.76923
252.6510, 83.54962
253.8660, 64.34229
255.0800, 45.14331
256.2940, 45.95258
257.5080, 72.77148
258.7220, 41.59790
259.9360, 70.43445
261.1490, 65.27802
262.3630, 62.12872
263.5760, 53.98584
264.7890, 36.84918
266.0020, 47.71851
267.2150, 53.59338
268.4270, 48.47357
269.6400, 29.35870
270.8520, 56.24860
272.0640, 38.14307
273.2760, 33.04199
274.4880, 34.94659
275.7000, 19.85565
276.9120, 37.76892
278.1230, 42.68970
279.3340, 46.61456
280.5450, 48.59338
281.7560, 43.45526
282.9670, 44.41266
284.1780, 26.35278
285.3880, 27.29645
286.5980, 14.24329
287.8090, 20.19330
289.0190, 26.14624
290.2290, 21.10205
291.4380, 35.06079
292.6480, 19.02216
293.8570, 3.013794
295.0670, 8.952515
296.2760, 25.92133
297.4850, 5.892517
298.6930, 18.13379
299.9020, 22.83905
301.1110, 9.814209
302.3190, 9.791565
303.5270, 30.77087
304.7350, 7.752258
305.9430, 2.264526
307.1510, 3.720215
308.3580, 7.706726
309.5660, 2.506226
310.7730, 10.68487
311.9800, 0.6763920
313.1870, 0.6692500
314.3940, 4.663452
315.6010, 8.340942
316.8070, 5.345581
318.0130, 12.35004
319.2200, 0.3562010
320.4260, 6.780151
321.6310, 1.370544
322.8370, 3.378967
324.0430, 10.38733
325.2480, 9.602661
326.4540, 11.40662
327.6590, 13.41760
328.8640, 6.568848
330.0680, 15.44556
331.2730, 1.466980
332.4780, 14.49011
333.6820, 9.482422
334.8860, 20.45312
336.0900, 4.418457
337.2940, 5.619568
338.4980, 4.336914
339.7010, 4.706116
340.9050, 19.24811
342.1080, 18.79883
343.3110, 6.144775
344.5140, 2.905518
345.7170, 14.95233
346.9200, 3.001038
348.1220, 5.046875
349.3240, 39.08936
350.5270, 1.852539
351.7290, 3.797791
352.9310, 34.25305
354.1320, 4.318359
355.3340, 5.615906
356.5350, 17.44672
357.7370, 1.483398
358.9380, 4.414917
360.1390, 22.65143
361.3400, 6.271484
362.5400, 7.196411
363.7410, 1.123352
364.9410, 3.949890
366.1410, 3.974182
367.3410, 15.10120
368.5410, 11.18518
369.7410, 25.27600
370.9400, 2.619202
372.1400, 20.48627
373.3390, 1.396301
374.5380, 19.29816
375.7370, 2.180115
376.9360, 4.939514
378.1350, 4.935852
379.3330, 1.189575
380.5310, 9.681519
381.7300, 12.55286
382.9280, 12.34735
384.1260, 20.29718
385.3230, 19.21228
386.5210, 15.08490
387.7180, 27.95764
388.9160, 12.83063
390.1130, 21.70355
391.3100, 33.58148
392.5060, 56.45447
393.7030, 58.32745
394.9000, 59.34821
396.0960, 62.10083
397.2920, 58.27942
398.4880, 56.74176
399.6840, 49.61383
400.8800, 52.86194
402.0750, 51.73322
403.2710, 79.19586
404.4660, 82.08984
405.6610, 95.02264
406.8560, 117.8955
408.0510, 110.0341
409.2450, 109.6322
410.4400, 104.4996
411.6340, 109.3665
412.8280, 110.2328
414.0220, 124.0986
415.2160, 132.9644
416.4100, 142.8293
417.6030, 166.9000
418.7970, 165.7634
419.9900, 206.6262
421.1830, 222.0148
422.3760, 212.0756
423.5690, 268.9369
424.7610, 319.7974
425.9540, 343.6569
427.1460, 447.5155
428.3380, 542.3736
429.5300, 699.2317
430.7220, 863.0888
431.9140, 1097.945
433.1050, 1356.801
434.2970, 1623.656
435.4880, 2111.510
436.6790, 2700.364
437.8700, 3195.165
439.0610, 3470.018
440.2510, 3331.871
441.4420, 2882.723
442.6320, 2363.947
443.8220, 1992.798
445.0120, 1643.647
446.2020, 1604.496
447.3910, 1672.344
448.5810, 1749.192
449.7700, 1923.988
450.9600, 1989.836
452.1490, 1821.683
453.3370, 1582.529
454.5260, 1288.375
455.7150, 957.2169
456.9030, 740.0582
458.0910, 568.9014
459.2800, 466.4338
460.4670, 370.0858
461.6550, 315.4053
462.8430, 288.2181
464.0300, 278.7831
465.2180, 231.5589
466.4050, 242.2540
467.5920, 190.6122
468.7790, 183.4465
469.9650, 156.7296
471.1520, 160.8961
472.3380, 168.7265
473.5250, 147.7545
474.7110, 145.4756
475.8970, 144.5286
477.0820, 134.3550
478.2680, 141.1805
479.4540, 118.0048
480.6390, 102.4774
481.8240, 125.2994
483.0090, 90.79700
484.1940, 113.6176
485.3780, 90.33337
486.5630, 96.15314
487.7470, 67.70349
488.9320, 117.5947
490.1160, 90.12177
491.3000, 86.52808
492.4830, 77.97345
493.6670, 69.70996
494.8500, 81.50299
496.0340, 49.19147
497.2170, 45.58154
498.4000, 32.38983
499.5820, 48.02295
500.7650, 57.69141
501.9480, 36.45795
503.1300, 31.74872
504.3120, 51.54437
505.4940, 19.34772
506.6760, 27.95386
507.8580, 33.27484
509.0390, 29.98541
510.2210, 42.64917
511.4020, 41.53192
512.5830, 32.57794
513.7640, 30.20050
514.9450, 29.50562
516.1250, 9.055481
517.3060, 27.85504
518.4860, 17.42676
519.6660, 28.61115
520.8460, 18.28662
522.0260, 15.66888
523.2060, 30.45392
524.3850, 11.26044
525.5650, 25.06592
526.7440, 6.870178
527.9230, 17.67712
529.1020, 20.48596
530.2810, 36.29596
531.4590, 23.10114
532.6380, 10.91315
533.8160, 17.72986
534.9940, 18.54486
536.1720, 1.361389
537.3500, 29.17615
538.5270, 10.00787
539.7050, 29.79980
540.8820, 25.63129
542.0590, 3.561462
543.2360, 17.24347
544.4130, 6.938965
545.5900, 9.865662
546.7660, 6.671936
547.9430, 12.47931
549.1190, 18.29028
550.2950, 20.22101
551.4710, 22.00366
552.6470, 27.72827
553.8220, 20.61462
554.9980, 20.43677
556.1730, 17.41803
557.3480, 38.24097
558.5230, 6.4148001E-02
559.6980, 36.88428
560.8730, 47.71368
562.0470, 8.330627
563.2220, 12.49420
564.3960, 55.43219
565.5700, 17.26276
566.7440, 32.09344
567.9170, 64.92688
569.0910, 56.81512
570.2640, 44.88013
571.4380, 71.72864
572.6110, 51.57666
573.7840, 70.42938
574.9570, 55.28864
576.1290, 74.15094
577.3020, 53.42950
578.4740, 73.29248
579.6460, 43.29657
580.8180, 90.16321
581.9900, 88.05096
583.1620, 98.92285
584.3330, 90.91376
585.5040, 134.7877
586.6760, 118.6838
587.8470, 152.6645
589.0180, 161.5814
590.1880, 135.6807
591.3590, 199.7672
592.5290, 232.6724
593.7000, 251.6881
594.8700, 340.6133
596.0400, 452.5096
597.2090, 568.4758
598.3790, 734.3179
599.5490, 921.6894
600.7180, 1131.967
601.8870, 1408.794
603.0560, 1724.775
604.2250, 2093.821
605.3940, 2387.635
606.5620, 2403.543
607.7300, 2250.348
608.8990, 2018.199
610.0670, 1635.997
611.2350, 1366.805
612.4020, 1131.599
613.5700, 1007.493
614.7370, 938.4446
615.9050, 879.2308
617.0720, 915.0159
618.2390, 931.8652
619.4060, 919.6407
620.5720, 836.4335
621.7390, 647.2457
622.9050, 521.0089
624.0710, 380.0286
625.2370, 358.7847
626.4030, 298.9721
627.5690, 271.7383
628.7340, 270.7526
629.9000, 276.5806
631.0650, 305.3394
632.2300, 306.0787
633.3950, 409.8228
634.5600, 473.8136
635.7240, 608.7257
636.8890, 711.4639
638.0530, 849.2606
639.2170, 1025.990
640.3810, 1227.719
641.5450, 1440.679
642.7080, 1502.487
643.8720, 1348.459
645.0350, 1177.543
646.1980, 889.4581
647.3610, 619.1971
648.5240, 467.9222
649.6870, 339.8815
650.8490, 274.9144
652.0120, 201.6334
653.1740, 182.4511
654.3360, 159.1625
655.4980, 121.3151
656.6600, 119.0515
657.8210, 105.9661
658.9830, 93.20728
660.1440, 92.39026
661.3050, 110.5355
662.4660, 80.24506
663.6270, 75.42889
664.7870, 106.1487
665.9480, 88.84564
667.1080, 100.4568
668.2680, 72.84003
669.4280, 102.0378
670.5880, 67.93256
671.7480, 75.40674
672.9070, 56.45593
674.0670, 81.04431
675.2260, 74.33582
676.3850, 69.04486
677.5440, 60.25549
678.7030, 70.12994
679.8610, 34.75323
681.0200, 54.90070
682.1780, 65.74561
683.3360, 38.30157
684.4940, 49.22736
685.6520, 60.55725
686.8090, 56.81018
687.9670, 53.58746
689.1240, 62.25262
690.2810, 53.52161
691.4380, 55.75928
692.5950, 36.22931
693.7520, 45.52301
694.9080, 29.65765
696.0650, 64.89709
697.2210, 62.84882
698.3770, 69.32196
699.5330, 56.40668
700.6880, 37.26392
701.8440, 64.95294
702.9990, 38.31116
704.1550, 56.22516
705.3100, 60.16705
706.4650, 56.70624
707.6190, 51.72394
708.7740, 37.02277
709.9290, 65.99707
711.0830, 78.78400
712.2370, 66.77014
713.3910, 77.23370
714.5450, 74.85760
715.6980, 32.63208
716.8520, 71.81268
718.0050, 50.52417
719.1580, 73.39868
720.3110, 65.65204
721.4640, 73.42200
722.6170, 55.61646
723.7700, 69.89667
724.9220, 65.06824
726.0740, 55.38123
727.2260, 61.52979
728.3780, 45.66693
729.5300, 46.02014
730.6810, 60.90228
731.8330, 50.06024
732.9840, 57.14771
734.1350, 59.85492
735.2860, 52.28778
736.4370, 65.34003
737.5880, 70.38123
738.7380, 74.41138
739.8880, 65.43079
741.0390, 48.43909
742.1890, 43.43506
743.3380, 65.41809
744.4880, 52.39008
745.6380, 67.35028
746.7870, 57.29950
747.9360, 87.23737
749.0850, 61.16431
750.2340, 68.08014
751.3830, 50.10876
752.5310, 45.00183
753.6800, 76.96545
754.8280, 71.83514
755.9760, 51.69391
757.1240, 80.54120
758.2720, 56.37756
759.4190, 53.25861
760.5670, 65.07245
761.7140, 35.87543
762.8610, 59.96942
764.0080, 27.74835
765.1550, 54.51263
766.3020, 34.31818
767.4480, 46.05817
768.5950, 52.78650
769.7410, 67.50391
770.8870, 61.21045
772.0330, 32.90619
773.1780, 36.70184
774.3240, 55.37207
775.4690, 44.03156
776.6140, 63.68469
777.7590, 66.32202
778.9040, 30.94867
780.0490, 39.56232
781.1940, 29.16449
782.3380, 23.75366
783.4820, 30.32892
784.6260, 41.89166
785.7700, 42.44336
786.9140, 25.98419
788.0580, 22.51202
789.2010, 40.02631
790.3450, 31.52985
791.4880, 39.02167
792.6310, 16.50275
793.7730, 32.96918
794.9160, 23.42468
796.0590, 6.132446
797.2010, 13.28638
798.3430, 13.69031
799.4850, 31.07953
800.6270, 11.45801
801.7690, 27.82147
802.9100, 28.17413
804.0520, 0.5161130
805.1930, 4.839050
806.3340, 8.145264
807.4750, 15.43616
808.6160, 1.714600
809.7560, 8.024719
810.8970, 28.21356
812.0370, 3.442139
813.1770, 12.65466
814.3170, 3.855530
815.4570, 18.04102
816.5960, 18.21954
817.7360, 3.362549
818.8750, 1.515991
820.0140, 4.344360
821.1530, 4.233154
822.2920, 2.127197
823.4310, 2.037903
824.5690, 9.964661
825.7070, 9.088318
826.8460, 2.869446
827.9840, 18.84320
829.1220, 13.15900
830.2590, 4.919312
831.3970, 2.947815
832.5340, 21.14941
833.6710, 1.211121
834.8080, 2.713745
835.9450, 36.37140
837.0820, 1.487610
838.2190, 10.74298
839.3550, 13.11438
840.4910, 36.15161
841.6270, 5.331482
842.7630, 15.52448
843.8990, 39.73566
845.0350, 13.02332
846.1700, 24.50220
847.3060, 5.781921
848.4410, 26.07336
849.5760, 34.38672
850.7100, 21.72583
851.8450, 8.083862
852.9800, 15.87024
854.1140, 8.254761
855.2480, 28.79187
856.3820, 19.20819
857.5160, 28.65961
858.6500, 26.88849
859.7830, 1.688660
860.9170, 23.84149
862.0500, 3.659607
863.1830, 50.74518
864.3160, 21.20465
865.4480, 30.47314
866.5810, 56.74609
867.7130, 1.808350
868.8460, 44.51782
869.9780, 41.92590
871.1100, 35.35461
872.2410, 37.70526
873.3730, 64.17188
874.5050, 9.646729
875.6360, 49.11761
876.7670, 12.57690
877.8980, 23.87805
879.0290, 25.10638
880.1590, 30.55945
881.2900, 25.91217
882.4200, 35.39838
883.5500, 7.759521
884.6800, 40.20306
885.8100, 15.63153
886.9400, 6.930481
888.0690, 4.400818
889.1990, 5.329468
890.3280, 6.098877
891.4570, 25.52509
892.5860, 30.88043
893.7140, 12.30280
894.8430, 4.298340
895.9710, 29.07568
897.1000, 23.49261
898.2280, 15.35181
899.3560, 19.05975
900.4830, 14.03888
901.6110, 4.566650
902.7380, 26.57489
903.8660, 7.901184
904.9930, 47.29211
906.1200, 14.69922
907.2460, 39.10614
908.3730, 8.738403
909.5000, 20.48999
910.6260, 4.896362
911.7520, 0.2413330
912.8780, 23.64880
914.0040, 16.05713
915.1290, 13.23010
916.2550, 22.55164
917.3800, 21.71045
918.5050, 19.75439
919.6300, 24.96228
920.7550, 20.34326
921.8800, 27.73657
923.0040, 41.89258
924.1290, 18.97620
925.2530, 66.37427
926.3770, 66.67786
927.5010, 62.08533
928.6250, 58.05481
929.7480, 76.41785
930.8720, 107.6202
931.9950, 62.49451
933.1180, 74.42676
934.2410, 65.39502
935.3640, 97.79822
936.4860, 79.72485
937.6090, 122.1127
938.7310, 102.5216
939.8530, 163.9716
940.9750, 164.6901
942.0970, 196.5923
943.2180, 215.7957
944.3400, 272.4181
945.4610, 296.4590
946.5820, 367.9642
947.7030, 420.7649
948.8240, 455.9988
949.9450, 567.8781
951.0650, 600.3167
952.1860, 657.7814
953.3060, 759.7209
954.4260, 857.5859
955.5460, 973.1160
956.6650, 1122.684
957.7850, 1341.416
958.9040, 1497.185
960.0230, 1737.489
961.1420, 2043.909
962.2610, 2342.725
963.3800, 2916.573
964.4990, 3379.188
965.6170, 4195.979
966.7350, 5141.932
967.8530, 6457.778
968.9710, 8144.914
970.0890, 10597.32
971.2070, 13698.33
972.3240, 17755.56
973.4410, 23070.25
974.5580, 29526.97
975.6750, 36680.15
976.7920, 44611.30
977.9090, 49966.86
979.0250, 51670.94
980.1410, 48806.74
981.2580, 41287.87
982.3740, 32863.18
983.4890, 24982.30
984.6050, 18789.95
985.7200, 14237.43
986.8360, 11244.77
987.9510, 8758.705
989.0660, 7184.108
990.1810, 5959.352
991.2950, 4942.220
992.4100, 4293.576
993.5240, 3681.509
994.6390, 3255.359
995.7530, 2900.320
996.8660, 2600.144
997.9800, 2282.135
999.0940, 2109.141
1000.207, 1804.162
1001.320, 1737.200
1002.433, 1506.195
1003.546, 1410.264
1004.659, 1298.348
1005.772, 1158.448
1006.884, 1081.563
1007.996, 987.6943
1009.108, 954.8409
1010.220, 855.0031
1011.332, 814.1808
1012.444, 773.3751
1013.555, 717.5864
1014.666, 646.8134
1015.777, 564.0570
1016.888, 585.3168
1017.999, 497.5929
1019.110, 513.8854
1020.220, 404.1943
1021.331, 430.3960
1022.441, 371.7396
1023.551, 381.0308
1024.661, 306.4214
1025.770, 363.8292
1026.880, 287.2593
1027.989, 280.7063
1029.098, 248.1147
1030.207, 239.5968
1031.316, 257.0964
1032.425, 184.3110
1033.533, 189.8494
1034.642, 162.4070
1035.750, 173.9298
1036.858, 129.5239
1037.966, 129.1360
1039.073, 110.7671
1040.181, 93.03589
1041.288, 83.08777
1042.396, 78.67639
1043.503, 95.40186
1044.610, 111.1548
1045.716, 74.93140
1046.823, 102.7325
1047.929, 129.5585
1049.036, 71.40393
1050.142, 90.27417
1051.248, 114.1761
1052.353, 87.10071
1053.459, 98.04590
1054.564, 108.0116
1055.670, 95.00696
1056.775, 75.02197
1057.880, 75.24780
1058.985, 91.13135
1060.089, 64.22241
1061.194, 86.33240
1062.298, 95.46326
1063.402, 77.61377
1064.506, 102.7905
1065.610, 62.99866
1066.713, 89.23450
1067.817, 52.49194
1068.920, 92.77368
1070.023, 94.08472
1071.126, 106.4203
1072.229, 80.78662
1073.332, 127.1771
1074.435, 140.5901
1075.537, 125.0317
1076.639, 149.4941
1077.741, 185.9830
1078.843, 197.5009
1079.945, 172.0378
1081.046, 216.5992
1082.148, 236.1812
1083.249, 209.7906
1084.350, 267.4202
1085.451, 254.0729
1086.551, 286.7476
1087.652, 315.4454
1088.752, 315.1685
1089.853, 274.9169
1090.953, 338.6890
1092.053, 313.4858
1093.152, 249.3085
1094.252, 312.1522
1095.351, 339.0187
1096.451, 342.9119
1097.550, 340.8245
1098.649, 310.7614
1099.748, 337.7253
1100.846, 345.7188
1101.945, 362.7336
1103.043, 417.7708
1104.141, 392.8473
1105.239, 438.9448
1106.337, 407.0667
1107.434, 434.2072
1108.532, 491.3782
1109.629, 491.5708
1110.726, 481.7878
1111.823, 433.0383
1112.920, 514.3124
1114.017, 520.6121
1115.113, 538.9341
1116.210, 657.2827
1117.306, 598.6594
1118.402, 652.0609
1119.498, 688.4834
1120.593, 665.9288
1121.689, 709.3945
1122.784, 716.8859
1123.879, 780.4001
1124.974, 787.9392
1126.069, 846.4963
1127.164, 907.0723
1128.259, 936.6665
1129.353, 996.2823
1130.447, 992.9163
1131.541, 975.5676
1132.635, 1053.236
1133.729, 1186.043
1134.822, 1188.747
1135.916, 1332.469
1137.009, 1409.208
1138.102, 1471.964
1139.195, 1531.737
1140.288, 1567.542
1141.380, 1720.349
1142.473, 1771.173
1143.565, 1886.013
1144.657, 2048.871
1145.749, 2182.745
1146.841, 2295.635
1147.932, 2490.542
1149.024, 2776.465
1150.115, 2932.404
1151.206, 3081.361
1152.297, 3348.332
1153.388, 3490.560
1154.479, 3791.510
1155.569, 3809.530
1156.659, 4006.596
1157.750, 3969.741
1158.839, 3917.807
1159.929, 3770.887
1161.019, 3664.014
1162.108, 3459.204
1163.198, 3268.418
1164.287, 2976.955
1165.376, 2749.113
1166.465, 2508.283
1167.553, 2303.469
1168.642, 2113.670
1169.730, 1951.068
1170.818, 1694.297
1171.906, 1586.635
1172.994, 1508.350
1174.082, 1249.707
1175.170, 1290.136
1176.257, 1122.769
1177.344, 1035.299
1178.431, 967.0848
1179.518, 921.4193
1180.605, 844.1111
1181.691, 813.2629
1182.778, 810.1243
1183.864, 674.7200
1184.950, 612.4316
1186.036, 616.3357
1187.122, 567.7526
1188.207, 517.1251
1189.292, 495.0863
1190.378, 479.9409
1191.463, 515.4004
1192.548, 426.8702
1193.632, 414.3826
1194.717, 352.3082
1195.801, 392.0676
1196.886, 348.9731
1197.970, 361.5385
1199.054, 280.2391
1200.137, 313.5275
1201.221, 278.2097
1202.305, 235.3601
1203.388, 232.0082
1204.471, 213.5802
1205.554, 198.6775
1206.637, 159.3047
1207.719, 179.6558
1208.802, 139.9800
1209.884, 177.5896
1210.966, 119.6102
1212.048, 128.2341
1213.130, 210.1317
1214.212, 180.7834
1215.293, 147.2135
1216.374, 128.8650
1217.456, 140.6910
1218.536, 84.61572
1219.617, 155.6570
1220.698, 134.4587
1221.778, 150.5837
1222.859, 141.4292
1223.939, 111.3152
1225.019, 74.01233
1226.099, 97.71411
1227.178, 81.42065
1228.258, 44.42322
1229.337, 79.28174
1230.417, 71.51514
1231.496, 72.26050
1232.574, 75.35803
1233.653, 53.14722
1234.732, 65.88257
1235.810, 75.75208
1236.888, 85.49390
1237.966, 17.37891
