##NAMES=Anglesite
##RRUFFID=R040004
##IDEAL CHEMISTRY=Pb^2+^S^6+^O_4_
##LOCALITY=Erupcion mine, Los Lamentos, Chihuahua, Mexico
##OWNER=RRUFF
##SOURCE=University of Arizona Mineral Museum
##DESCRIPTION=Tan colored tabular crystal
##STATUS=The identification of this mineral has been confirmed by X-ray diffraction and chemical analysis
##URL=rruff.info/R040004
##MEASURED CHEMISTRY=Pb_1.00_S_1.00_O_4_
##PIN_ID=m00050
##ORIENTATION=Laser parallel to b* (0 1 0). Fiducial mark perpendicular to laser is parallel to c [0 0 1]
78.729, 0.000
80.125, 52.425
81.521, 114.971
82.916, 20.483
84.311, 299.686
85.706, 214.591
87.101, 622.856
88.496, 657.352
89.890, 1029.622
91.284, 1317.675
92.678, 1656.903
94.071, 1879.756
95.465, 1725.774
96.858, 1749.569
98.251, 1287.825
99.644, 1212.338
101.036, 885.957
102.428, 712.480
103.820, 674.321
105.212, 493.225
106.604, 536.907
107.995, 323.130
109.387, 345.970
110.777, 398.180
112.168, 477.584
113.559, 471.819
114.949, 437.531
116.339, 524.315
117.729, 311.410
119.119, 402.961
120.508, 390.098
121.897, 506.307
123.286, 651.416
124.675, 602.432
126.063, 914.436
127.452, 1023.615
128.840, 1236.244
130.228, 1223.620
131.615, 1344.829
133.003, 1421.007
134.390, 1171.670
135.777, 1248.863
137.164, 1083.096
138.550, 1085.697
139.937, 849.625
141.323, 795.933
142.709, 964.372
144.094, 949.381
145.480, 1122.447
146.865, 1139.809
148.250, 1310.142
149.635, 1265.546
151.019, 1362.858
152.403, 1248.729
153.788, 929.148
155.171, 788.416
156.555, 517.908
157.939, 519.766
159.322, 368.536
160.705, 253.833
162.088, 204.374
163.470, 228.431
164.853, 203.269
166.235, 152.783
167.617, 104.354
168.998, 72.592
170.380, 49.783
171.761, 9.989
173.142, 20.275
174.523, 12.796
175.904, 57.015
177.284, 36.624
178.664, 68.919
180.044, 126.450
181.424, 87.663
182.803, 38.359
184.183, 90.015
185.562, 2.928
186.940, 109.669
188.319, 48.972
189.698, 40.850
191.076, 53.338
192.454, 3.081
193.831, 39.896
195.209, 133.177
196.586, 21.409
197.963, 14.268
199.340, 81.382
200.717, 18.883
202.093, 1.536
203.470, 9.674
204.846, 74.036
206.221, 26.561
207.597, 56.970
208.972, 60.950
210.347, 45.037
211.722, 48.213
213.097, 52.561
214.472, 5.806
215.846, 28.003
217.220, 15.315
218.594, 4.206
219.967, 26.520
221.341, 19.372
222.714, 46.726
224.087, 44.379
225.460, 47.895
226.832, 67.486
228.204, 57.534
229.577, 52.840
230.948, 66.992
232.320, 26.983
233.692, 38.146
235.063, 26.993
236.434, 72.886
237.805, 68.688
239.175, 8.050
240.545, 37.125
241.916, 8.289
243.286, 21.204
244.655, 61.020
246.025, 7.766
247.394, 15.116
248.763, 10.390
250.132, 37.091
251.501, 21.505
252.869, 20.777
254.237, 12.823
255.605, 43.826
256.973, 16.749
258.340, 70.698
259.708, 53.666
261.075, 9.360
262.442, 109.603
263.808, 6.442
265.175, 44.488
266.541, 19.396
267.907, 29.724
269.273, 47.108
270.639, 102.903
272.004, 16.657
273.369, 112.638
274.734, 18.018
276.099, 174.460
277.463, 24.009
278.828, 87.625
280.192, 45.326
281.556, 7.103
282.919, 66.947
284.283, 68.125
285.646, 15.137
287.009, 2.917
288.372, 32.044
289.734, 45.250
291.097, 116.462
292.459, 65.090
293.821, 11.382
295.183, 42.064
296.544, 84.581
297.905, 1.668
299.266, 11.837
300.627, 28.925
301.988, 115.941
303.348, 115.870
304.709, 174.734
306.069, 64.527
307.428, 156.255
308.788, 120.922
310.147, 107.528
311.507, 106.185
312.865, 112.525
314.224, 90.911
315.583, 113.236
316.941, 211.504
318.299, 84.056
319.657, 42.215
321.015, 201.290
322.372, 73.290
323.729, 172.177
325.086, 161.072
326.443, 14.778
327.800, 139.619
329.156, 182.376
330.512, 159.900
331.868, 134.859
333.224, 139.278
334.579, 167.783
335.935, 232.247
337.290, 203.609
338.645, 127.673
339.999, 167.572
341.354, 221.572
342.708, 119.963
344.062, 250.643
345.416, 197.216
346.769, 326.220
348.123, 174.652
349.476, 200.782
350.829, 254.072
352.182, 183.265
353.534, 236.468
354.887, 217.542
356.239, 155.327
357.591, 206.315
358.942, 139.304
360.294, 168.697
361.645, 130.489
362.996, 178.479
364.347, 179.283
365.698, 119.416
367.048, 206.948
368.398, 227.697
369.748, 240.111
371.098, 62.833
372.448, 214.431
373.797, 190.917
375.146, 210.571
376.495, 273.040
377.844, 244.470
379.192, 256.288
380.540, 275.493
381.889, 259.965
383.236, 365.146
384.584, 225.258
385.932, 349.447
387.279, 275.602
388.626, 317.725
389.973, 260.885
391.319, 335.037
392.666, 243.090
394.012, 170.289
395.358, 298.860
396.704, 348.804
398.049, 281.326
399.394, 207.375
400.740, 96.197
402.084, 228.781
403.429, 280.496
404.774, 249.988
406.118, 309.622
407.462, 207.729
408.806, 178.037
410.150, 215.468
411.493, 266.553
412.836, 191.102
414.179, 279.448
415.522, 217.718
416.865, 242.725
418.207, 299.098
419.549, 387.051
420.891, 343.458
422.233, 456.725
423.575, 361.967
424.916, 479.377
426.257, 412.581
427.598, 707.514
428.939, 822.860
430.279, 1191.275
431.619, 1887.027
432.959, 3045.098
434.299, 4561.933
435.639, 4900.716
436.978, 4375.332
438.318, 2860.025
439.657, 1844.060
440.996, 1434.002
442.334, 1023.516
443.673, 1075.332
445.011, 995.295
446.349, 937.571
447.687, 863.845
449.024, 768.437
450.361, 653.864
451.699, 553.729
453.036, 485.138
454.372, 362.985
455.709, 301.729
457.045, 425.949
458.381, 251.955
459.717, 336.299
461.053, 423.136
462.388, 232.654
463.724, 359.704
465.059, 228.708
466.394, 271.970
467.728, 279.229
469.063, 235.381
470.397, 376.292
471.731, 347.047
473.065, 281.747
474.398, 232.455
475.732, 363.877
477.065, 266.508
478.398, 95.630
479.731, 296.802
481.063, 210.934
482.396, 214.905
483.728, 234.733
485.060, 147.515
486.391, 190.215
487.723, 118.962
489.054, 123.450
490.385, 264.139
491.716, 58.703
493.047, 247.039
494.377, 128.375
495.708, 122.873
497.038, 133.608
498.368, 148.193
499.697, 125.296
501.027, 154.685
502.356, 244.271
503.685, 207.257
505.014, 172.932
506.342, 270.062
507.671, 296.817
508.999, 221.111
510.327, 211.630
511.655, 299.209
512.982, 134.635
514.310, 224.094
515.637, 278.520
516.964, 212.783
518.291, 226.052
519.617, 255.042
520.944, 145.120
522.270, 128.885
523.596, 212.559
524.921, 283.995
526.247, 262.008
527.572, 295.918
528.897, 234.973
530.222, 271.471
531.547, 238.818
532.871, 210.941
534.196, 125.415
535.520, 344.184
536.844, 164.571
538.167, 237.828
539.491, 164.110
540.814, 231.434
542.137, 247.580
543.460, 223.854
544.783, 179.814
546.105, 156.165
547.427, 262.704
548.749, 219.126
550.071, 150.206
551.393, 216.411
552.714, 133.586
554.035, 234.509
555.356, 194.970
556.677, 225.868
557.998, 171.899
559.318, 199.139
560.638, 294.037
561.958, 169.840
563.278, 208.945
564.597, 244.834
565.917, 210.818
567.236, 206.527
568.555, 222.098
569.874, 173.704
571.192, 299.621
572.511, 255.201
573.829, 281.107
575.147, 206.766
576.464, 304.958
577.782, 380.813
579.099, 256.672
580.416, 392.495
581.733, 338.300
583.050, 474.097
584.366, 499.876
585.683, 435.658
586.999, 521.414
588.315, 477.156
589.630, 544.134
590.946, 529.861
592.261, 485.571
593.576, 631.271
594.891, 666.993
596.206, 772.715
597.520, 998.476
598.834, 1264.239
600.148, 1523.773
601.462, 1779.562
602.776, 1885.347
604.089, 1461.146
605.402, 1026.931
606.715, 962.710
608.028, 628.486
609.341, 674.269
610.653, 370.062
611.965, 445.840
613.277, 713.596
614.589, 609.364
615.901, 749.585
617.212, 735.365
618.523, 831.146
619.834, 956.923
621.145, 972.693
622.456, 1298.508
623.766, 1144.253
625.076, 959.985
626.386, 1076.519
627.696, 662.354
629.006, 708.049
630.315, 473.732
631.624, 499.403
632.933, 475.064
634.242, 420.714
635.551, 506.351
636.859, 571.639
638.167, 597.254
639.475, 732.863
640.783, 698.460
642.090, 804.049
643.398, 819.527
644.705, 855.091
646.012, 860.453
647.318, 821.407
648.625, 841.369
649.931, 746.414
651.237, 651.936
652.543, 677.299
653.849, 472.629
655.155, 517.995
656.460, 333.732
657.765, 249.051
659.070, 274.483
660.375, 219.931
661.679, 175.369
662.984, 30.796
664.288, 136.205
665.592, 241.603
666.895, 76.991
668.199, 242.367
669.502, 67.732
670.805, 133.006
672.108, 88.349
673.411, 86.317
674.713, 168.944
676.016, 5.804
677.318, 109.422
678.620, 234.588
679.921, 30.318
681.223, 4.850
682.524, 60.005
683.825, 25.088
685.126, 10.167
686.427, 5.226
687.727, 19.737
689.028, 75.272
690.328, 79.726
691.628, 15.040
692.927, 49.961
694.227, 4.871
695.526, 49.763
696.825, 4.644
698.124, 119.505
699.423, 64.358
700.721, 149.202
702.020, 34.038
703.318, 18.849
704.616, 23.663
705.913, 61.535
707.211, 43.167
708.508, 2.091
709.805, 67.481
711.102, 52.811
712.399, 60.576
713.695, 66.388
714.992, 9.047
716.288, 65.499
717.584, 110.044
718.879, 35.418
720.175, 59.085
721.470, 53.582
722.765, 88.072
724.060, 92.558
725.355, 82.962
726.649, 171.462
727.944, 45.879
729.238, 110.293
730.532, 214.700
731.825, 30.896
733.119, 173.479
734.412, 17.850
735.705, 92.216
736.998, 196.576
738.291, 50.933
739.584, 125.283
740.876, 9.631
742.168, 43.980
743.460, 218.326
744.752, 17.332
746.043, 136.997
747.334, 131.322
748.626, 75.645
749.916, 179.962
751.207, 14.277
752.498, 158.590
753.788, 122.898
755.078, 62.796
756.368, 241.474
757.658, 35.738
758.947, 200.000
760.237, 54.259
761.526, 78.514
762.815, 22.767
764.104, 127.016
765.392, 141.263
766.680, 185.508
767.969, 40.252
769.257, 163.969
770.544, 81.813
771.832, 132.362
773.119, 256.536
774.406, 20.708
775.693, 264.878
776.980, 0.955
778.267, 83.210
779.553, 277.373
780.839, 188.466
782.125, 4.398
783.411, 149.666
784.697, 143.729
785.982, 237.791
787.267, 229.264
788.552, 145.913
789.837, 189.974
791.122, 164.034
792.406, 168.095
793.690, 102.158
794.974, 66.220
796.258, 110.282
797.542, 54.345
798.825, 188.408
800.108, 32.478
801.391, 26.548
802.674, 190.620
803.957, 104.692
805.239, 188.770
806.522, 62.847
807.804, 196.928
809.085, 81.011
810.367, 14.904
811.649, 249.181
812.930, 73.268
814.211, 277.357
815.492, 201.449
816.772, 105.545
818.053, 218.938
819.333, 123.038
820.613, 177.142
821.893, 181.112
823.173, 165.223
824.452, 329.172
825.732, 113.290
827.011, 247.346
828.290, 314.260
829.568, 98.391
830.847, 260.406
832.125, 164.548
833.403, 158.694
834.681, 369.246
835.959, 102.025
837.236, 390.770
838.514, 334.363
839.791, 177.482
841.068, 380.397
842.345, 271.790
843.621, 485.944
844.898, 473.635
846.174, 447.100
847.450, 541.193
848.726, 394.287
850.001, 678.410
851.277, 541.562
852.552, 665.822
853.827, 800.055
855.102, 744.337
856.376, 988.480
857.651, 962.381
858.925, 926.441
860.199, 985.738
861.473, 800.017
862.746, 663.127
864.020, 712.174
865.293, 502.185
866.566, 581.752
867.839, 376.170
869.112, 509.064
870.384, 433.508
871.656, 327.965
872.928, 379.343
874.200, 333.856
875.472, 428.385
876.744, 442.926
878.015, 277.490
879.286, 386.171
880.557, 360.764
881.828, 185.377
883.098, 440.003
884.369, 274.693
885.639, 286.949
886.909, 421.664
888.178, 306.375
889.448, 431.121
890.717, 385.882
891.987, 400.659
893.256, 475.453
894.524, 331.996
895.793, 396.825
897.061, 231.670
898.330, 376.012
899.598, 550.888
900.865, 205.782
902.133, 290.695
903.401, 455.622
904.668, 250.792
905.935, 445.776
907.202, 180.777
908.468, 452.043
909.735, 317.080
911.001, 182.138
912.267, 457.213
913.533, 92.307
914.799, 277.420
916.064, 282.550
917.330, 147.700
918.595, 52.868
919.860, 258.056
921.124, 151.273
922.389, 216.500
923.653, 87.283
924.918, 292.549
926.182, 197.834
927.445, 113.140
928.709, 318.465
929.972, 223.756
931.236, 289.123
932.499, 324.510
933.761, 229.104
935.024, 334.407
936.286, 269.858
937.549, 335.329
938.811, 330.824
940.073, 216.338
941.334, 451.876
942.596, 387.435
943.857, 453.017
945.118, 578.619
946.379, 534.244
947.640, 709.892
948.900, 675.561
950.161, 761.254
951.421, 1077.837
952.681, 873.574
953.940, 979.335
955.200, 1245.117
956.459, 1220.923
957.719, 1686.750
958.978, 1802.602
960.236, 2208.475
961.495, 2394.370
962.753, 2839.974
964.012, 3735.915
965.270, 4471.882
966.527, 5927.870
967.785, 8003.881
969.043, 10169.916
970.300, 15165.979
971.557, 20822.066
972.814, 28828.174
974.071, 38764.309
975.327, 39500.465
976.583, 37986.637
977.840, 29672.842
979.095, 20349.068
980.351, 16165.352
981.607, 11111.658
982.862, 8317.996
984.117, 6944.357
985.372, 5010.742
986.627, 4507.168
987.882, 3663.625
989.136, 3020.127
990.390, 2636.656
991.644, 2203.213
992.898, 2139.803
994.152, 1936.430
995.405, 1773.080
996.659, 2039.782
997.912, 2136.513
999.165, 2343.268
1000.417, 2400.052
1001.670, 1636.861
1002.922, 1313.699
1004.174, 1030.562
1005.426, 838.423
1006.678, 895.332
1007.930, 524.126
1009.181, 531.087
1010.432, 741.896
1011.683, 479.319
1012.934, 696.487
1014.185, 573.572
1015.435, 560.704
1016.685, 637.879
1017.935, 725.286
1019.185, 712.528
1020.435, 709.802
1021.684, 557.099
1022.934, 664.420
1024.183, 569.018
1025.432, 586.397
1026.680, 633.801
1027.929, 303.703
1029.177, 471.152
1030.425, 298.650
1031.673, 267.396
1032.921, 384.939
1034.169, 2.844
1035.416, 340.432
1036.663, 338.056
1037.911, 105.706
1039.157, 283.380
1040.404, 61.093
1041.650, 149.232
1042.897, 197.002
1044.143, 75.189
1045.389, 123.287
1046.634, 271.142
1047.880, 40.981
1049.125, 276.918
1050.371, 54.925
1051.615, 62.895
1052.860, 120.896
1054.105, 16.079
1055.349, 68.020
1056.593, 80.086
1057.837, 98.309
1059.081, 96.477
1060.325, 44.971
1061.568, 113.210
1062.812, 291.472
1064.055, 39.807
1065.298, 218.162
1066.540, 106.541
1067.783, 154.947
1069.025, 293.374
1070.267, 91.826
1071.509, 260.308
1072.751, 128.813
1073.993, 127.358
1075.234, 395.924
1076.475, 194.511
1077.716, 293.124
1078.957, 511.759
1080.198, 340.415
1081.438, 759.092
1082.679, 307.787
1083.919, 226.552
1085.159, 505.336
1086.398, 214.141
1087.638, 282.965
1088.877, 211.811
1090.116, 270.676
1091.355, 129.560
1092.594, 248.463
1093.833, 137.385
1095.071, 176.325
1096.309, 65.283
1097.547, 64.259
1098.785, 163.251
1100.023, 37.739
1101.260, 301.278
1102.498, 80.311
1103.735, 159.357
1104.972, 378.420
1106.208, 177.497
1107.445, 266.588
1108.681, 315.691
1109.918, 194.809
1111.154, 223.941
1112.389, 173.091
1113.625, 292.252
1114.860, 311.426
1116.096, 410.610
1117.331, 219.807
1118.566, 489.014
1119.800, 368.232
1121.035, 347.461
1122.269, 406.700
1123.503, 535.949
1124.737, 425.209
1125.971, 384.479
1127.205, 513.756
1128.438, 453.043
1129.671, 332.338
1130.904, 521.645
1132.137, 450.957
1133.370, 450.277
1134.602, 489.607
1135.834, 528.941
1137.066, 488.275
1138.298, 486.609
1139.530, 416.998
1140.762, 416.836
1141.993, 366.242
1143.224, 335.666
1144.455, 235.105
1145.686, 344.559
1146.917, 364.021
1148.147, 233.480
1149.377, 92.955
1150.607, 162.527
1151.837, 62.031
1153.067, 28.445
1154.296, 191.090
1155.526, 49.395
1156.755, 180.115
1157.984, 90.359
1159.213, 10.842
1160.441, 1.363
1161.670, 48.131
1162.898, 47.637
1164.126, 107.158
1165.354, 3.312
1166.581, 126.229
1167.809, 5.785
1169.036, 105.354
1170.263, 125.021
1171.490, 145.414
1172.717, 64.127
1173.943, 123.680
1175.170, 56.756
1176.396, 152.809
1177.622, 92.385
1178.848, 28.031
1180.073, 161.557
1181.299, 188.693
1182.524, 190.867
1183.749, 30.658
1184.974, 131.406
1186.199, 171.521
1187.423, 114.598
1188.648, 5.303
1189.872, 226.459
1191.096, 80.391
1192.320, 11.717
1193.543, 121.736
1194.767, 141.764
1195.990, 190.703
1197.213, 5.637
1198.436, 96.273
1199.659, 68.537
1200.881, 88.191
1202.104, 271.279
1203.326, 207.172
1204.548, 7.137
1205.770, 206.832
1206.991, 3.539
1208.213, 93.250
1209.434, 263.254
1210.655, 85.145
1211.876, 134.879
1213.096, 205.027
1214.317, 116.324
1215.537, 346.180
1216.757, 166.547
1217.977, 196.697
1219.197, 216.473
1220.417, 176.535
1221.636, 376.326
1222.855, 276.264
1224.074, 47.420
1225.293, 417.236
1226.512, 347.062
1227.731, 96.895
1228.949, 346.738
1230.167, 216.592
1231.385, 256.453
1232.603, 316.320
1233.820, 306.193
1235.038, 576.057
1236.255, 385.875
1237.472, 515.639
1238.689, 515.324
1239.906, 345.010
1241.122, 384.604
1242.338, 514.104
1243.555, 133.502
1244.771, 502.889
1245.986, 432.152
1247.202, 290.566
1248.417, 649.574
1249.633, 348.527
1250.848, 437.434
1252.063, 286.301
1253.277, 375.133
1254.492, 453.896
1255.706, 402.615
1256.920, 291.615
1258.134, 550.553
1259.348, 389.105
1260.562, 457.598
1261.775, 636.025
1262.988, 414.391
1264.201, 452.699
1265.414, 590.941
1266.627, 459.137
1267.839, 637.449
1269.052, 625.541
1270.264, 564.096
1271.476, 582.057
1272.688, 599.963
1273.899, 738.059
1275.111, 595.875
1276.322, 354.377
1277.533, 602.031
1278.744, 479.641
1279.955, 508.148
1281.165, 515.453
1282.376, 201.143
1283.586, 431.576
1284.796, 552.023
1286.006, 62.484
1287.215, 442.955
1288.425, 263.441
1289.634, 413.938
1290.843, 413.414
1292.052, 361.936
1293.261, 558.312
1294.469, 478.244
1295.678, 158.740
1296.886, 429.039
1298.094, 349.559
1299.302, 190.090
1300.509, 362.352
1301.717, 209.971
1302.924, 280.436
1304.131, 409.467
1305.338, 257.646
1306.545, 547.996
1307.752, 568.328
1308.958, 388.141
1310.164, 587.582
1311.370, 397.811
1312.576, 417.938
1313.782, 558.100
1314.987, 171.771
1316.193, 471.623
1317.398, 511.193
1318.603, 271.078
1319.807, 430.822
1321.012, 360.543
1322.216, 250.246
1323.421, 559.932
1324.625, 299.604
1325.829, 189.252
1327.032, 238.885
1328.236, 178.504
1329.439, 58.109
1330.642, 117.701
1331.845, 2.723
1333.048, 126.844
1334.251, 26.396
1335.453, 14.055
1336.656, 265.488
1337.858, 4.953
1339.060, 164.615
1340.261, 264.195
1341.463, 26.213
1342.664, 93.389
1343.866, 23.012
1345.067, 2.660
1346.267, 432.342
1347.468, 37.943
1348.669, 211.807
1349.869, 331.598
1351.069, 48.561
1352.269, 291.324
1353.469, 221.266
1354.668, 128.713
1355.868, 411.322
1357.067, 200.396
1358.266, 80.359
1359.465, 280.332
1360.664, 170.379
1361.862, 220.221
1363.061, 460.217
1364.259, 250.377
1365.457, 360.555
1366.655, 290.982
1367.852, 111.402
1369.050, 521.846
1370.247, 502.287
1371.444, 402.578
1372.641, 533.195
1373.838, 373.834
1375.035, 564.504
1376.231, 654.773
1377.427, 404.855
1378.623, 680.500
1379.819, 428.861
1381.015, 338.670
1382.211, 636.010
1383.406, 594.207
1384.601, 392.014
1385.796, 658.732
1386.991, 373.863
1388.185, 579.924
1389.380, 599.354
1390.574, 184.629
1391.768, 556.529
1392.962, 372.443
1394.156, 260.268
1395.350, 420.424
1396.543, 400.414
1397.736, 243.336
1398.929, 461.824
1400.122, 139.150
1401.315, 135.143
1402.507, 429.758
1403.700, 213.812
1404.892, 367.600
1406.084, 231.533
1407.276, 175.881
1408.467, 290.150
1409.659, 197.412
1410.850, 124.523
1412.041, 411.385
1413.232, 44.461
1414.423, 216.959
1415.614, 173.539
1416.804, 90.600
1417.994, 298.283
1419.184, 12.309
1420.374, 196.574
1421.564, 133.869
1422.753, 1.617
1423.943, 103.520
1425.132, 0.000
##END=



