##NAMES=Anglesite
##RRUFFID=R050052
##IDEAL CHEMISTRY=Pb^2+^S^6+^O_4_
##LOCALITY=Touissite, Oujela, Morocco
##OWNER=RRUFF
##SOURCE=Eugene Schlepp
##DESCRIPTION=Yellow prismatic single crystal
##STATUS=The identification of this mineral has been confirmed by X-ray diffraction and chemical analysis
##URL=rruff.info/R050052
##MEASURED CHEMISTRY=Pb_1.00_S_1.00_O_4_
##PIN_ID=L00472
##ORIENTATION=Laser parallel to b* (0 1 0). Fiducial mark perpendicular to laser is parallel to -c [0 0 -1]
49.365, 0.000
50.765, 29.460
52.166, 47.780
53.566, 47.299
54.966, 79.358
56.365, 120.170
57.765, 142.608
59.164, 146.061
60.563, 166.208
61.962, 177.287
63.360, 195.516
64.758, 262.178
66.157, 266.250
67.554, 226.159
68.952, 184.886
70.349, 142.898
71.747, 100.178
73.144, 39.708
74.540, 29.474
75.937, 11.459
77.333, 2.355
78.729, 28.979
80.125, 13.426
81.521, 19.708
82.916, 11.832
84.311, 17.192
85.706, 73.357
87.101, 151.657
88.496, 195.087
89.890, 355.644
91.284, 537.327
92.678, 733.132
94.071, 1095.051
95.465, 1428.077
96.858, 2017.204
98.251, 2483.423
99.644, 3173.724
101.036, 3514.102
102.428, 3832.551
103.820, 4159.071
105.212, 3947.656
106.604, 4124.309
107.995, 4029.023
109.387, 3935.799
110.777, 3842.637
112.168, 3748.532
113.559, 3712.486
114.949, 3421.496
116.339, 3533.562
117.729, 3369.682
119.119, 3303.855
120.508, 3243.080
121.897, 3359.356
123.286, 3379.691
124.675, 3429.083
126.063, 3656.533
127.452, 3627.038
128.840, 3942.600
130.228, 3982.258
131.615, 4228.994
133.003, 4419.782
134.390, 4439.615
135.777, 4542.487
137.164, 4395.393
138.550, 4367.324
139.937, 4090.277
141.323, 3791.243
142.709, 3626.219
144.094, 3312.206
145.480, 3221.201
146.865, 3121.191
148.250, 3168.140
149.635, 3078.060
151.019, 3226.991
152.403, 3253.945
153.788, 3240.924
155.171, 3261.926
156.555, 3194.952
157.939, 3161.004
159.322, 3035.081
160.705, 2952.184
162.088, 3010.312
163.470, 2838.466
164.853, 2946.646
166.235, 2771.852
167.617, 2732.084
168.998, 2534.341
170.380, 2342.625
171.761, 2120.934
173.142, 1917.270
174.523, 1867.631
175.904, 1682.017
177.284, 1589.429
178.664, 1415.866
180.044, 1431.328
181.424, 1354.816
182.803, 1297.328
184.183, 1320.865
185.562, 1211.426
186.940, 1215.012
188.319, 1163.623
189.698, 1129.258
191.076, 1132.917
192.454, 1023.599
193.831, 1061.306
195.209, 1045.172
196.586, 993.285
197.963, 987.066
199.340, 941.076
200.717, 939.080
202.093, 882.305
203.470, 942.234
204.846, 865.123
206.221, 896.044
207.597, 839.186
208.972, 850.808
210.347, 820.641
211.722, 802.002
213.097, 808.082
214.472, 746.829
215.846, 760.960
217.220, 732.260
218.594, 698.660
219.967, 688.768
221.341, 661.933
222.714, 644.043
224.087, 628.978
225.460, 618.865
226.832, 593.718
228.204, 564.524
229.577, 579.237
230.948, 525.766
232.320, 572.190
233.692, 489.646
235.063, 453.139
236.434, 490.668
237.805, 443.232
239.175, 461.570
240.545, 426.869
241.916, 463.927
243.286, 428.493
244.655, 344.534
246.025, 398.692
247.394, 358.592
248.763, 366.117
250.132, 323.795
251.501, 319.654
252.869, 347.539
254.237, 308.449
255.605, 340.383
256.973, 269.341
258.340, 307.322
259.708, 251.326
261.075, 256.353
262.442, 295.401
263.808, 255.471
265.175, 279.562
266.541, 215.674
267.907, 269.806
269.273, 227.958
270.639, 199.131
272.004, 224.323
273.369, 173.534
274.734, 218.764
276.099, 171.013
277.463, 158.281
278.828, 174.567
280.192, 138.871
281.556, 172.193
282.919, 129.532
284.283, 162.889
285.646, 151.263
287.009, 126.655
288.372, 169.062
289.734, 106.486
291.097, 163.927
292.459, 117.383
293.821, 105.855
295.183, 118.342
296.544, 80.844
297.905, 110.360
299.266, 73.892
300.627, 123.437
301.988, 112.997
303.348, 242.570
304.709, 148.158
306.069, 88.760
307.428, 105.375
308.788, 64.005
310.147, 71.648
311.507, 49.305
312.865, 94.976
314.224, 57.662
315.583, 63.362
316.941, 57.076
318.299, 26.804
319.657, 61.545
321.015, 61.301
322.372, 33.070
323.729, 38.853
325.086, 23.650
326.443, 28.460
327.800, 16.283
329.156, 35.120
330.512, 55.970
331.868, 27.833
333.224, 70.718
334.579, 20.615
335.935, 33.526
337.290, 45.450
338.645, 7.613
339.999, 45.357
341.354, 15.681
342.708, 26.293
344.062, 0.431
345.416, 10.571
346.769, 2.444
348.123, 9.529
349.476, 11.509
350.829, 4.043
352.182, 13.982
353.534, 2.091
354.887, 3.824
356.239, 15.273
357.591, 2.382
358.942, 20.501
360.294, 0.960
361.645, 28.895
362.996, 14.296
364.347, 48.082
365.698, 5.082
367.048, 27.960
368.398, 1.224
369.748, 15.581
371.098, 30.573
372.448, 22.666
373.797, 2.285
375.146, 23.074
376.495, 19.146
377.844, 14.717
379.192, 6.041
380.540, 9.685
381.889, 47.578
383.236, 4.147
384.584, 3.862
385.932, 19.432
387.279, 15.109
388.626, 28.431
389.973, 6.556
391.319, 54.909
392.666, 13.370
394.012, 32.850
395.358, 53.246
396.704, 4.656
398.049, 70.082
399.394, 33.523
400.740, 62.984
402.084, 94.458
403.429, 53.947
404.774, 113.451
406.118, 66.971
407.462, 95.516
408.806, 94.080
410.150, 63.666
411.493, 131.273
412.836, 84.893
414.179, 195.528
415.522, 163.175
416.865, 213.835
418.207, 228.507
419.549, 236.189
420.891, 355.884
422.233, 305.590
423.575, 419.309
424.916, 501.037
426.257, 598.774
427.598, 770.528
428.939, 895.290
430.279, 1290.061
431.619, 1753.843
432.959, 2600.631
434.299, 3851.433
435.639, 5758.244
436.978, 8249.063
438.318, 10476.889
439.657, 12456.726
440.996, 12156.567
442.334, 9746.420
443.673, 7444.279
445.011, 5036.146
446.349, 3579.017
447.687, 2634.898
449.024, 1871.783
450.361, 1491.675
451.699, 1125.573
453.036, 972.477
454.372, 721.385
455.709, 619.299
457.045, 562.218
458.381, 437.141
459.717, 433.070
461.053, 316.003
462.388, 331.941
463.724, 318.883
465.059, 272.830
466.394, 315.780
467.728, 236.735
469.063, 284.694
470.397, 242.656
471.731, 237.622
473.065, 229.591
474.398, 170.565
475.732, 182.568
477.065, 219.547
478.398, 163.533
479.731, 201.529
481.063, 163.520
482.396, 179.514
483.728, 106.525
485.060, 150.527
486.391, 127.559
487.723, 104.568
489.054, 112.717
490.385, 54.781
491.716, 112.797
493.047, 59.837
494.377, 24.859
495.708, 61.055
497.038, 54.128
498.368, 62.366
499.697, 6.720
501.027, 27.780
502.356, 70.632
503.685, 1.901
505.014, 27.976
506.342, 37.167
507.671, 71.316
508.999, 33.287
510.327, 3.588
511.655, 49.471
512.982, 11.916
514.310, 35.040
515.637, 32.369
516.964, 31.660
518.291, 54.819
519.617, 21.851
520.944, 10.345
522.270, 3.922
523.596, 6.174
524.921, 52.996
526.247, 30.974
527.572, 41.420
528.897, 19.771
530.222, 12.383
531.547, 5.025
532.871, 32.295
534.196, 19.308
535.520, 20.345
536.844, 2.581
538.167, 19.080
539.491, 17.789
540.814, 38.390
542.137, 17.996
543.460, 12.179
544.783, 46.424
546.105, 38.196
547.427, 46.281
548.749, 10.273
550.071, 26.737
551.393, 5.150
552.714, 5.341
554.035, 21.839
555.356, 33.129
556.677, 30.214
557.998, 26.060
559.318, 23.035
560.638, 79.414
561.958, 37.813
563.278, 74.134
564.597, 58.394
565.917, 40.845
567.236, 95.301
568.555, 44.216
569.874, 53.373
571.192, 92.813
572.511, 75.096
573.829, 109.711
575.147, 119.270
576.464, 118.072
577.782, 129.084
579.099, 111.150
580.416, 145.489
581.733, 123.285
583.050, 224.502
584.366, 178.540
585.683, 227.281
586.999, 233.193
588.315, 235.508
589.630, 288.792
590.946, 305.654
592.261, 341.749
593.576, 446.934
594.891, 482.786
596.206, 591.156
597.520, 678.979
598.834, 861.581
600.148, 1153.458
601.462, 1429.300
602.776, 2025.314
604.089, 2430.106
605.402, 3157.116
606.715, 3601.885
608.028, 3638.581
609.341, 3684.361
610.653, 3184.028
611.965, 2695.681
613.277, 2086.351
614.589, 1440.976
615.901, 1061.588
617.212, 725.184
618.523, 623.821
619.834, 467.388
621.145, 351.940
622.456, 293.517
623.766, 174.039
625.076, 171.546
626.386, 152.144
627.696, 97.620
629.006, 107.080
630.315, 75.525
631.624, 98.118
632.933, 46.532
634.242, 65.990
635.551, 83.998
636.859, 53.362
638.167, 87.822
639.475, 62.200
640.783, 53.565
642.090, 65.523
643.398, 51.840
644.705, 101.676
646.012, 34.056
647.318, 48.283
648.625, 67.985
649.931, 9.403
651.237, 74.102
652.543, 35.670
653.849, 58.557
655.155, 38.385
656.460, 28.410
657.765, 83.373
659.070, 50.671
660.375, 41.864
661.679, 82.163
662.984, 8.263
664.288, 64.901
665.592, 74.246
666.895, 78.619
668.199, 98.594
669.502, 34.154
670.805, 101.006
672.108, 55.638
673.411, 65.407
674.713, 99.273
676.016, 24.714
677.318, 92.528
678.620, 58.640
679.921, 65.885
681.223, 70.585
682.524, 42.369
683.825, 100.410
685.126, 81.618
686.427, 103.199
687.727, 83.346
689.028, 64.626
690.328, 63.919
691.628, 62.841
692.927, 50.388
694.227, 67.912
695.526, 43.739
696.825, 81.099
698.124, 70.574
699.423, 98.930
700.721, 90.227
702.020, 39.599
703.318, 73.471
704.616, 34.963
705.913, 47.354
707.211, 75.500
708.508, 40.719
709.805, 68.709
711.102, 83.860
712.399, 42.896
713.695, 50.900
714.992, 18.873
716.288, 72.807
717.584, 70.715
718.879, 75.596
720.175, 79.451
721.470, 65.281
722.765, 64.084
724.060, 43.859
725.355, 35.604
726.649, 62.315
727.944, 32.555
729.238, 54.204
730.532, 55.825
731.825, 45.417
733.119, 103.978
734.412, 35.516
735.705, 63.020
736.998, 42.498
738.291, 67.945
739.584, 83.366
740.876, 15.763
742.168, 105.120
743.460, 57.455
744.752, 57.762
746.043, 126.043
747.334, 27.300
748.626, 59.524
749.916, 97.722
751.207, 47.897
752.498, 97.044
753.788, 37.168
755.078, 76.263
756.368, 80.333
757.658, 59.381
758.947, 84.404
760.237, 56.404
761.526, 81.379
762.815, 120.331
764.104, 70.261
765.392, 120.168
766.680, 102.053
767.969, 82.917
769.257, 123.758
770.544, 111.578
771.832, 121.376
773.119, 72.152
774.406, 103.907
775.693, 123.640
776.980, 72.352
778.267, 119.042
779.553, 83.712
780.839, 55.360
782.125, 103.986
783.411, 83.592
784.697, 93.177
785.982, 45.742
787.267, 71.285
788.552, 55.780
789.837, 23.281
791.122, 77.756
792.406, 44.204
793.690, 53.638
794.974, 51.052
796.258, 18.431
797.542, 51.799
798.825, 19.118
800.108, 35.442
801.391, 75.606
802.674, 18.837
803.957, 20.097
805.239, 20.314
806.522, 2.471
807.804, 8.454
809.085, 24.339
810.367, 3.580
811.649, 3.243
812.930, 18.704
814.211, 19.210
815.492, 22.991
816.772, 18.966
818.053, 12.396
819.333, 40.552
820.613, 6.271
821.893, 58.912
823.173, 15.128
824.452, 48.015
825.732, 66.249
827.011, 5.812
828.290, 40.304
829.568, 18.694
830.847, 31.280
832.125, 79.768
833.403, 31.352
834.681, 60.421
835.959, 14.231
837.236, 0.331
838.514, 71.319
839.791, 8.857
841.068, 37.868
842.345, 76.736
843.621, 10.974
844.898, 41.213
846.174, 36.553
847.450, 9.265
848.726, 9.585
850.001, 1.536
851.277, 24.670
852.552, 0.003
853.827, 29.979
855.102, 3.116
856.376, 45.734
857.651, 9.539
858.925, 39.201
860.199, 36.359
861.473, 7.902
862.746, 66.041
864.020, 4.339
865.293, 13.474
866.566, 73.477
867.839, 62.703
869.112, 105.785
870.384, 64.448
871.656, 35.076
872.928, 95.767
874.200, 36.504
875.472, 83.037
876.744, 75.549
878.015, 8.587
879.286, 69.368
880.557, 49.147
881.828, 44.472
883.098, 23.746
884.369, 4.061
885.639, 59.119
886.909, 31.953
888.178, 71.720
889.448, 91.200
890.717, 62.208
891.987, 89.782
893.256, 11.522
894.524, 98.546
895.793, 99.384
897.061, 85.808
898.330, 89.249
899.598, 66.100
900.865, 76.704
902.133, 110.207
903.401, 46.029
904.668, 86.322
905.935, 51.149
907.202, 68.184
908.468, 141.933
909.735, 68.704
911.001, 132.291
912.267, 140.090
913.533, 80.656
914.799, 170.455
916.064, 118.314
917.330, 118.078
918.595, 179.943
919.860, 147.810
921.124, 214.651
922.389, 165.525
923.653, 156.402
924.918, 197.284
926.182, 180.114
927.445, 234.004
928.709, 276.898
929.972, 224.757
931.236, 275.661
932.499, 246.571
933.761, 283.378
935.024, 317.298
936.286, 292.224
937.549, 410.157
938.811, 358.931
940.073, 373.876
941.334, 403.768
942.596, 376.099
943.857, 426.066
945.118, 467.929
946.379, 522.866
947.640, 639.812
948.900, 728.159
950.161, 803.137
951.421, 901.588
952.681, 994.489
953.940, 1188.532
955.200, 1195.093
956.459, 1472.737
957.719, 1659.470
958.978, 1823.135
960.236, 2168.471
961.495, 2510.860
962.753, 2876.046
964.012, 3571.265
965.270, 4053.162
966.527, 5089.158
967.785, 6346.891
969.043, 7599.965
970.300, 10457.491
971.557, 13339.309
972.814, 18134.098
974.071, 24854.875
975.327, 33698.461
976.583, 46633.750
977.840, 56144.262
979.095, 61328.613
980.351, 59320.883
981.607, 49654.559
982.862, 39317.547
984.117, 30527.533
985.372, 22232.947
986.627, 17614.293
987.882, 13328.614
989.136, 10583.889
990.390, 8894.775
991.644, 7165.293
992.898, 6298.434
994.152, 5299.209
995.405, 4623.182
996.659, 4260.363
997.912, 3544.920
999.165, 3309.152
1000.417, 3064.417
1001.670, 2749.058
1002.922, 2586.682
1004.174, 2246.424
1005.426, 2064.237
1006.678, 1952.973
1007.930, 1759.839
1009.181, 1763.449
1010.432, 1587.365
1011.683, 1426.320
1012.934, 1452.105
1014.185, 1240.111
1015.435, 1308.066
1016.685, 1165.135
1017.935, 1046.231
1019.185, 1125.356
1020.435, 920.513
1021.684, 914.699
1022.934, 934.915
1024.183, 854.156
1025.432, 911.433
1026.680, 781.736
1027.929, 833.069
1029.177, 856.455
1030.425, 757.869
1031.673, 814.762
1032.921, 868.249
1034.169, 734.763
1035.416, 872.323
1036.663, 788.911
1037.911, 871.525
1039.157, 961.173
1040.404, 958.847
1041.650, 984.563
1042.897, 1003.330
1044.143, 1053.123
1045.389, 1164.964
1046.634, 1114.838
1047.880, 1273.739
1049.125, 1349.682
1050.371, 1421.650
1051.615, 1770.650
1052.860, 1796.677
1054.105, 1956.730
1055.349, 2107.812
1056.593, 2084.920
1057.837, 2146.058
1059.081, 2237.232
1060.325, 2222.432
1061.568, 2341.660
1062.812, 2243.937
1064.055, 2284.241
1065.298, 2223.573
1066.540, 2045.933
1067.783, 1990.320
1069.025, 1805.737
1070.267, 1691.180
1071.509, 1671.650
1072.751, 1440.147
1073.993, 1458.671
1075.234, 1288.222
1076.475, 1161.800
1077.716, 1224.405
1078.957, 1017.037
1080.198, 1049.697
1081.438, 969.383
1082.679, 760.098
1083.919, 936.844
1085.159, 821.618
1086.398, 731.436
1087.638, 853.282
1088.877, 650.155
1090.116, 690.059
1091.355, 710.989
1092.594, 623.981
1093.833, 644.986
1095.071, 538.001
1096.309, 539.443
1097.547, 643.517
1098.785, 453.622
1100.023, 579.844
1101.260, 516.007
1102.498, 424.199
1103.735, 610.422
1104.972, 470.674
1106.208, 536.959
1107.445, 480.272
1108.681, 355.620
1109.918, 429.256
1111.154, 359.680
1112.389, 260.136
1113.625, 366.625
1114.860, 273.151
1116.096, 369.706
1117.331, 438.299
1118.566, 396.919
1119.800, 525.426
1121.035, 457.124
1122.269, 538.852
1123.503, 591.835
1124.737, 527.644
1125.971, 639.192
1127.205, 604.075
1128.438, 529.989
1129.671, 612.943
1130.904, 574.932
1132.137, 589.957
1133.370, 711.033
1134.602, 559.135
1135.834, 639.280
1137.066, 656.458
1138.298, 542.663
1139.530, 741.643
1140.762, 636.919
1141.993, 604.230
1143.224, 724.581
1144.455, 558.967
1145.686, 644.504
1146.917, 657.958
1148.147, 513.440
1149.377, 573.455
1150.607, 471.988
1151.837, 483.144
1153.067, 528.806
1154.296, 348.415
1155.526, 437.702
1156.755, 328.358
1157.984, 267.038
1159.213, 283.513
1160.441, 203.243
1161.670, 223.996
1162.898, 301.255
1164.126, 144.054
1165.354, 278.875
1166.581, 236.169
1167.809, 174.034
1169.036, 237.906
1170.263, 139.959
1171.490, 120.886
1172.717, 194.330
1173.943, 99.297
1175.170, 158.255
1176.396, 118.851
1177.622, 103.878
1178.848, 249.784
1180.073, 72.368
1181.299, 170.460
1182.524, 216.941
1183.749, 89.070
1184.974, 192.217
1186.199, 119.227
1187.423, 109.409
1188.648, 206.218
1189.872, 80.196
1191.096, 101.430
1192.320, 164.203
1193.543, 93.749
1194.767, 186.032
1195.990, 129.401
1197.213, 122.716
1198.436, 175.046
1199.659, 99.391
1200.881, 158.752
1202.104, 226.127
1203.326, 50.517
1204.548, 219.922
1205.770, 181.177
1206.991, 122.610
1208.213, 267.059
1209.434, 115.730
1210.655, 149.205
1211.876, 181.693
1213.096, 61.445
1214.317, 225.959
1215.537, 209.018
1216.757, 175.558
1217.977, 260.109
1219.197, 146.673
1220.417, 224.250
1221.636, 226.838
1222.855, 183.438
1224.074, 259.049
1225.293, 145.674
1226.512, 164.310
1227.731, 222.956
1228.949, 118.887
1230.167, 142.264
1231.385, 126.945
1232.603, 8.765
1233.820, 160.465
1235.038, 102.176
1236.255, 16.288
1237.472, 195.017
1238.689, 2.243
1239.906, 0.499
1241.122, 101.260
1242.338, 50.192
1243.555, 81.582
1244.771, 60.370
1245.986, 6.722
1247.202, 109.094
1248.417, 13.923
1249.633, 89.745
1250.848, 183.602
1252.063, 43.910
1253.277, 105.789
1254.492, 84.681
1255.706, 12.963
1256.920, 142.947
1258.134, 31.870
1259.348, 59.974
1260.562, 166.921
1261.775, 42.880
1262.988, 57.842
1264.201, 124.815
1265.414, 27.177
1266.627, 92.792
1267.839, 21.751
1269.052, 8.215
1270.264, 128.743
1271.476, 21.295
1272.688, 123.702
1273.899, 152.663
1275.111, 23.613
1276.322, 164.567
1277.533, 24.523
1278.744, 60.607
1279.955, 133.555
1281.165, 9.469
1282.376, 51.549
1283.586, 130.454
1284.796, 36.663
1286.006, 88.321
1287.215, 49.182
1288.425, 75.860
1289.634, 49.922
1290.843, 0.686
1292.052, 54.451
1293.261, 64.219
1294.469, 64.010
1295.678, 56.958
1296.886, 8.297
1298.094, 54.592
1299.302, 93.113
1300.509, 8.202
1301.717, 22.479
1302.924, 107.161
1304.131, 46.157
1305.338, 75.648
1306.545, 76.316
1307.752, 56.026
1308.958, 96.048
1310.164, 65.653
1311.370, 0.251
1312.576, 120.140
1313.782, 9.278
1314.987, 11.704
1316.193, 101.882
1317.398, 34.569
1318.603, 17.959
1319.807, 6.520
1321.012, 82.013
1322.216, 62.553
1323.421, 20.981
1324.625, 14.533
1325.829, 45.043
1327.032, 59.534
1328.236, 48.861
1329.439, 26.319
1330.642, 0.304
1331.845, 66.056
1333.048, 28.593
1334.251, 78.265
1335.453, 107.187
1336.656, 41.531
1337.858, 5.271
1339.060, 95.976
1340.261, 32.789
1341.463, 126.425
1342.664, 46.631
1343.866, 33.830
1345.067, 171.029
1346.267, 37.192
1347.468, 85.339
1348.669, 113.501
1349.869, 9.375
1351.069, 68.732
1352.269, 70.126
1353.469, 61.787
1354.668, 147.269
1355.868, 36.400
1357.067, 23.434
1358.266, 132.458
1359.465, 17.495
1360.664, 71.495
1361.862, 174.531
1363.061, 54.514
1364.259, 122.488
1365.457, 71.662
1366.655, 94.621
1367.852, 189.573
1369.050, 81.005
1370.247, 74.931
1371.444, 220.850
1372.641, 31.172
1373.838, 20.076
1375.035, 83.960
1376.231, 37.054
1377.427, 105.757
1378.623, 86.696
1379.819, 31.423
1381.015, 184.090
1382.211, 95.615
1383.406, 67.106
1384.601, 161.263
1385.796, 24.013
1386.991, 177.076
1388.185, 152.228
1389.380, 52.369
1390.574, 177.505
1391.768, 99.368
1392.962, 26.491
1394.156, 216.608
1395.350, 45.720
1396.543, 138.891
1397.736, 200.985
1398.929, 48.837
1400.122, 165.111
1401.315, 210.179
1402.507, 67.241
1403.700, 233.295
1404.892, 174.344
1406.084, 132.329
1407.276, 203.346
1408.467, 90.513
1409.659, 137.330
1410.850, 213.939
1412.041, 87.098
1413.232, 214.097
1414.423, 239.104
1415.614, 91.351
1416.804, 259.123
1417.994, 117.286
1419.184, 134.387
1420.374, 236.742
1421.564, 74.843
1422.753, 142.037
1423.943, 182.466
1425.132, 60.316
1426.321, 175.592
1427.510, 201.665
1428.698, 65.743
1429.887, 193.162
1431.075, 52.735
1432.263, 99.538
1433.451, 264.810
1434.639, 92.738
1435.827, 90.649
1437.014, 247.545
1438.201, 33.438
1439.388, 158.258
1440.575, 186.352
1441.762, 69.588
1442.949, 198.307
1444.135, 93.906
1445.321, 107.484
1446.507, 231.037
1447.693, 2.436
1448.879, 151.065
1450.064, 171.693
1451.250, 7.213
1452.435, 182.475
1453.620, 169.933
1454.805, 18.124
1455.989, 236.675
1457.174, 77.726
1458.358, 68.466
1459.542, 250.228
1460.726, 125.000
1461.910, 113.631
1463.093, 205.140
1464.277, 49.161
1465.460, 162.445
1466.643, 166.647
1467.826, 36.712
1469.009, 206.694
1470.191, 110.818
1471.373, 52.787
1472.556, 226.851
1473.738, 73.493
1474.919, 95.560
1476.101, 256.216
1477.283, 31.108
1478.464, 141.042
1479.645, 202.632
1480.826, 71.200
1482.007, 215.983
1483.187, 158.565
1484.368, 96.179
1485.548, 203.787
1486.728, 61.138
1487.908, 104.492
1489.088, 214.231
1490.268, 60.510
1491.447, 141.947
1492.626, 180.282
1493.805, 5.757
1494.984, 167.823
1496.163, 163.325
1497.341, 49.119
1498.520, 175.251
1499.698, 132.794
1500.876, 66.389
1502.054, 191.077
1503.232, 62.684
1504.409, 138.320
1505.586, 199.936
1506.763, 26.616
1507.940, 155.459
1509.117, 176.640
1510.294, 3.909
1511.470, 202.379
1512.647, 198.640
1513.823, 6.763
1514.999, 206.692
1516.174, 132.029
1517.350, 69.312
1518.526, 201.290
