##NAMES=Anglesite
##RRUFFID=R050408
##IDEAL CHEMISTRY=Pb^2+^S^6+^O_4_
##LOCALITY=Tsumeb mine, Tsumeb, Otavi District, Oshikoto, Namibia
##OWNER=RRUFF
##SOURCE=California Institute of Technology
##DESCRIPTION=Pale yellow fragment
##STATUS=The identification of this mineral has been confirmed by X-ray diffraction and chemical analysis
##URL=rruff.info/R050408
##MEASURED CHEMISTRY=Pb_1.00_S_1.00_O_4_
##PIN_ID=L01992
##ORIENTATION=Laser parallel to b* (0 1 0). Fiducial mark perpendicular to laser is parallel to c [0 0 1]
51.43100, 0.0000000E+00
52.67100, 16.02063
53.91000, 25.44479
55.14900, 16.57132
56.38700, 0.3673400
57.62600, 6.048584
58.86400, 19.43582
60.10300, 2.906677
61.34100, 8.078033
62.57900, 7.282623
63.81700, 6.633606
65.05400, 4.668762
66.29200, 2.691162
67.52900, 15.59058
68.76700, 43.35352
70.00400, 84.66418
71.24100, 124.6963
72.47700, 176.3110
73.71400, 234.4559
74.95100, 322.0853
76.18700, 370.1589
77.42300, 476.6410
78.65900, 538.5000
79.89500, 666.7076
81.13100, 738.2385
82.36700, 866.0703
83.60200, 995.1825
84.83700, 1132.557
86.07200, 1250.181
87.30800, 1352.046
88.54200, 1551.144
89.77700, 1703.458
91.01200, 1968.967
92.24600, 2120.657
93.48000, 2373.518
94.71400, 2566.540
95.94800, 2777.715
97.18200, 2899.035
98.41600, 3054.493
99.64900, 3073.082
100.8830, 2946.794
102.1160, 2780.625
103.3490, 2702.567
104.5820, 2502.615
105.8150, 2320.766
107.0470, 2228.013
108.2800, 2129.354
109.5120, 2139.784
110.7440, 2060.300
111.9760, 2010.898
113.2080, 1976.575
114.4400, 2000.329
115.6710, 1974.156
116.9030, 1984.163
118.1340, 2025.025
119.3650, 2034.101
120.5960, 2097.282
121.8270, 2194.593
123.0580, 2283.878
124.2880, 2456.499
125.5190, 2544.058
126.7490, 2694.635
127.9790, 2856.215
129.2090, 2944.780
130.4390, 3052.359
131.6680, 3208.968
132.8980, 3284.605
134.1270, 3218.290
135.3560, 3379.016
136.5850, 3262.805
137.8140, 3314.625
139.0430, 3208.469
140.2710, 3022.350
141.5000, 2864.267
142.7280, 2705.223
143.9560, 2497.216
145.1840, 2330.240
146.4120, 2208.286
147.6390, 2078.354
148.8670, 2066.446
150.0940, 1983.563
151.3210, 1975.703
152.5490, 1905.865
153.7750, 1871.049
155.0020, 1797.256
156.2290, 1711.485
157.4550, 1678.737
158.6810, 1500.010
159.9080, 1497.307
161.1340, 1418.624
162.3590, 1388.964
163.5850, 1383.324
164.8110, 1317.707
166.0360, 1274.109
167.2610, 1245.532
168.4860, 1218.527
169.7110, 1217.440
170.9360, 1192.923
172.1610, 1201.425
173.3850, 1186.947
174.6100, 1186.391
175.8340, 1186.350
177.0580, 1198.623
178.2820, 1196.218
179.5050, 1224.830
180.7290, 1256.460
181.9520, 1270.107
183.1760, 1222.770
184.3990, 1212.667
185.6220, 1292.816
186.8450, 1217.157
188.0670, 1280.707
189.2900, 1217.504
190.5120, 1153.053
191.7340, 1114.774
192.9560, 1063.013
194.1780, 1014.735
195.4000, 984.9337
196.6220, 939.0565
197.8430, 869.7817
199.0640, 864.4784
200.2860, 790.7867
201.5070, 771.0957
202.7270, 719.5406
203.9480, 707.5134
205.1690, 605.5690
206.3890, 559.0784
207.6090, 543.2923
208.8290, 507.5892
210.0490, 479.6288
211.2690, 471.7100
212.4890, 438.0486
213.7080, 441.9402
214.9280, 454.8114
216.1470, 417.8853
217.3660, 393.2021
218.5850, 409.6719
219.8030, 344.7810
221.0220, 370.0042
222.2400, 328.3168
223.4590, 352.5553
224.6770, 326.9467
225.8950, 312.3743
227.1120, 297.7556
228.3300, 276.8364
229.5480, 251.5440
230.7650, 220.2698
231.9820, 251.8561
233.1990, 243.7863
234.4160, 220.8647
235.6330, 197.5305
236.8490, 213.8600
238.0660, 225.6464
239.2820, 177.3822
240.4980, 169.1395
241.7140, 158.9177
242.9300, 156.8307
244.1460, 163.6484
245.3610, 183.4848
246.5770, 161.5336
247.7920, 140.4111
249.0070, 158.3054
250.2220, 116.2162
251.4370, 126.1429
252.6510, 144.0852
253.8660, 108.0423
255.0800, 107.0139
256.2940, 120.0000
257.5080, 85.99976
258.7220, 98.01282
259.9360, 81.04199
261.1490, 81.69464
262.3630, 76.59363
263.5760, 90.20319
264.7890, 70.28021
266.0020, 74.36816
267.2150, 87.46954
268.4270, 77.58246
269.6400, 94.70471
270.8520, 66.83582
272.0640, 104.9755
273.2760, 69.12366
274.4880, 28.28040
275.7000, 52.44562
276.9120, 72.61938
278.1230, 66.80145
279.3340, 39.99182
280.5450, 50.19012
281.7560, 53.39624
282.9670, 32.60986
284.1780, 68.83093
285.3880, 19.05920
286.5980, 46.29468
287.8090, 64.53735
289.0190, 32.78668
290.2290, 31.04266
291.4380, 30.30493
292.6480, 47.57361
293.8570, 26.84851
295.0670, 26.12946
296.2760, 36.41638
297.4850, 13.70917
298.6930, 22.00769
299.9020, 28.31189
301.1110, 2.621643
302.3190, 10.93677
303.5270, 23.25720
304.7350, 27.58282
305.9430, 31.91364
307.1510, 6.249329
308.3580, 18.58997
309.5660, 3.935364
310.7730, 25.28546
311.9800, 22.64014
313.1870, 5.999268
314.3940, 6.637207
315.6010, 9.729431
316.8070, 2.899719
318.0130, 28.52539
319.2200, 41.84711
320.4260, 14.77637
321.6310, 18.39905
322.8370, 8.978333
324.0430, 25.64081
325.2480, 17.26178
326.4540, 32.11700
327.6590, 52.50079
328.8640, 0.8728030
330.0680, 20.24805
331.2730, 10.61957
332.4780, 10.00897
333.6820, 17.64093
334.8860, 23.56921
336.0900, 9.941772
337.2940, 31.59961
338.4980, 0.7353520
339.7010, 4.937561
340.9050, 3.380310
342.1080, 21.69836
343.3110, 26.98065
344.5140, 20.66272
345.7170, 2.344788
346.9200, 24.01855
348.1220, 5.306152
349.3240, 4.642212
350.5270, 3.988770
351.7290, 8.656189
352.9310, 8.298828
354.1320, 2.939331
355.3340, 27.57556
356.5350, 25.78058
357.7370, 12.85626
358.9380, 29.49481
360.1390, 36.85657
361.3400, 16.78571
362.5400, 18.43292
363.7410, 29.08606
364.9410, 11.75043
366.1410, 16.58173
367.3410, 10.08105
368.5410, 31.25287
369.7410, 37.59143
370.9400, 10.06537
372.1400, 3.726379
373.3390, 4.611206
374.5380, 14.04938
375.7370, 37.28345
376.9360, 16.37988
378.1350, 5.1330999E-02
379.3330, 19.27643
380.5310, 3.392334
381.7300, 9.936035
382.9280, 26.26685
384.1260, 26.60071
385.3230, 31.93762
386.5210, 9.277466
387.7180, 33.61914
388.9160, 47.96313
390.1130, 7.377441
391.3100, 19.89038
392.5060, 81.23987
393.7030, 72.59192
394.9000, 78.97998
396.0960, 79.35010
397.2920, 58.70874
398.4880, 67.06958
399.6840, 84.55115
400.8800, 114.9161
402.0750, 126.2893
403.2710, 108.4019
404.4660, 115.7736
405.6610, 135.1633
406.8560, 160.5383
408.0510, 160.9155
409.2450, 153.2941
410.4400, 192.3477
411.6340, 151.0793
412.8280, 216.4628
414.0220, 182.8475
415.2160, 243.2338
416.4100, 247.6213
417.6030, 258.0104
418.7970, 324.4006
419.9900, 314.7922
421.1830, 338.1852
422.3760, 382.5793
423.5690, 426.9755
424.7610, 500.3728
425.9540, 612.7712
427.1460, 712.1709
428.3380, 929.5750
429.5300, 1114.981
430.7220, 1386.438
431.9140, 1779.846
433.1050, 2227.255
434.2970, 2705.665
435.4880, 3480.076
436.6790, 4217.492
437.8700, 5007.907
439.0610, 5470.326
440.2510, 5721.746
441.4420, 5741.167
442.6320, 5604.588
443.8220, 5806.013
445.0120, 6383.437
446.2020, 7327.861
447.3910, 8654.285
448.5810, 10019.71
449.7700, 10913.14
450.9600, 11098.57
452.1490, 10256.00
453.3370, 8356.431
454.5260, 6452.864
455.7150, 4730.295
456.9030, 3464.727
458.0910, 2618.962
459.2800, 2046.398
460.4670, 1768.746
461.6550, 1490.936
462.8430, 1265.373
464.0300, 1214.214
465.2180, 1021.865
466.4050, 885.3027
467.5920, 836.5590
468.7790, 698.2205
469.9650, 626.6631
471.1520, 595.4121
472.3380, 506.8408
473.5250, 457.2915
474.7110, 475.7426
475.8970, 458.6882
477.0820, 405.2362
478.2680, 385.4561
479.4540, 346.3630
480.6390, 297.1125
481.8240, 259.4952
483.0090, 233.6140
484.1940, 228.0663
485.3780, 205.0110
486.5630, 211.4485
487.7470, 187.7059
488.9320, 180.9025
490.1160, 189.9513
491.3000, 173.4155
492.4830, 156.8682
493.6670, 134.2992
494.8500, 115.1230
496.0340, 99.95447
497.2170, 86.68225
498.4000, 92.80457
499.5820, 66.27429
500.7650, 76.80994
501.9480, 67.42908
503.1300, 70.90320
504.3120, 59.18774
505.4940, 54.37036
506.6760, 56.96326
507.8580, 58.48743
509.0390, 57.78723
510.2210, 77.56677
511.4020, 46.05225
512.5830, 65.53796
513.7640, 35.10425
514.9450, 21.00513
516.1250, 26.31396
517.3060, 22.64258
518.4860, 15.13940
519.6660, 13.26965
520.8460, 81.40991
522.0260, 16.92200
523.2060, 23.79944
524.3850, 56.24377
525.5650, 17.76086
526.7440, 25.27783
527.9230, 16.79517
529.1020, 11.19678
530.2810, 45.71643
531.4590, 4.235107
532.6380, 17.43945
533.8160, 13.06860
534.9940, 36.58020
536.1720, 7.105713
537.3500, 9.633301
538.5270, 18.16833
539.7050, 22.71008
540.8820, 2.252197
542.0590, 44.79675
543.2360, 11.55090
544.4130, 9.901001
545.5900, 37.64771
546.7660, 10.21228
547.9430, 14.76160
549.1190, 32.34717
550.2950, 36.89819
551.4710, 8.512085
552.6470, 2.951538
553.8220, 16.61023
554.9980, 44.17603
556.1730, 15.74158
557.3480, 51.31189
558.5230, 23.88696
559.6980, 34.46729
560.8730, 46.05261
562.0470, 37.64746
563.2220, 46.24658
564.3960, 53.98364
565.5700, 46.97339
566.7440, 39.17871
567.9170, 47.79883
569.0910, 41.16968
570.2640, 58.80420
571.4380, 10.44336
572.6110, 35.14185
573.7840, 43.77673
574.9570, 60.40918
576.1290, 78.03870
577.3020, 76.31848
578.4740, 71.95642
579.6460, 96.85535
580.8180, 70.76514
581.9900, 93.49500
583.1620, 125.1244
584.3330, 103.7498
585.5040, 158.3716
586.6760, 116.9912
587.8470, 199.6174
589.0180, 168.6183
590.1880, 216.2765
591.3590, 232.8867
592.5290, 280.6144
593.7000, 342.2183
594.8700, 384.8152
596.0400, 501.4077
597.2090, 627.9955
598.3790, 764.6379
599.5490, 1019.741
600.7180, 1275.463
601.8870, 1515.033
603.0560, 1906.668
604.2250, 2308.425
605.3940, 2601.989
606.5620, 2644.551
607.7300, 2478.306
608.8990, 2155.958
610.0670, 1844.182
611.2350, 1519.231
612.4020, 1332.610
613.5700, 1013.600
614.7370, 952.2322
615.9050, 799.8347
617.0720, 820.3700
618.2390, 775.9034
619.4060, 745.4363
620.5720, 660.9661
621.7390, 560.6785
622.9050, 448.2037
624.0710, 314.8008
625.2370, 301.4565
626.4030, 222.6375
627.5690, 222.4027
628.7340, 230.3628
629.9000, 244.1410
631.0650, 271.9531
632.2300, 322.4529
633.3950, 365.9457
634.5600, 437.4319
635.7240, 526.2139
636.8890, 592.7002
638.0530, 770.2690
639.2170, 967.7417
640.3810, 1176.600
641.5450, 1207.611
642.7080, 1284.200
643.8720, 1186.711
645.0350, 998.2615
646.1980, 751.3000
647.3610, 545.8149
648.5240, 381.4236
649.6870, 308.1713
650.8490, 223.2094
652.0120, 191.6940
653.1740, 162.1106
654.3360, 161.8159
655.4980, 103.9969
656.6600, 124.2572
657.8210, 78.67639
658.9830, 86.80859
660.1440, 102.2299
661.3050, 105.6473
662.4660, 96.21790
663.6270, 52.82446
664.7870, 91.20166
665.9480, 98.65100
667.1080, 140.1648
668.2680, 101.4858
669.4280, 76.65173
670.5880, 59.95349
671.7480, 81.69421
672.9070, 85.81116
674.0670, 94.05737
675.2260, 84.80103
676.3850, 87.16382
677.5440, 78.04199
678.7030, 70.04297
679.8610, 85.58960
681.0200, 57.79602
682.1780, 35.31799
683.3360, 57.57727
684.4940, 80.01379
685.6520, 54.68738
686.8090, 71.08813
687.9670, 52.92676
689.1240, 97.41150
690.2810, 55.52942
691.4380, 68.42932
692.5950, 91.60181
693.7520, 88.01501
694.9080, 69.40955
696.0650, 84.20020
697.2210, 68.57642
698.3770, 91.31445
699.5330, 73.94763
700.6880, 79.66931
701.8440, 87.15833
702.9990, 58.48779
704.1550, 95.52881
705.3100, 83.34363
706.4650, 74.12463
707.6190, 29.43884
708.7740, 101.3851
709.9290, 111.9082
711.0830, 78.14014
712.2370, 87.03613
713.3910, 104.9568
714.5450, 87.82788
715.6980, 41.76099
716.8520, 123.8002
718.0050, 63.66663
719.1580, 62.57446
720.3110, 77.31909
721.4640, 131.0482
722.6170, 92.76221
723.7700, 103.4615
724.9220, 117.5520
726.0740, 89.70544
727.2260, 56.35974
728.3780, 84.05652
729.5300, 114.6769
730.6810, 74.28210
731.8330, 88.87109
732.9840, 120.4451
734.1350, 89.00378
735.2860, 95.54736
736.4370, 80.07629
737.5880, 46.58887
738.7380, 70.08191
739.8880, 98.55835
741.0390, 78.01965
742.1890, 65.46509
743.3380, 88.89368
744.4880, 86.30701
745.6380, 63.70508
746.7870, 72.08618
747.9360, 37.45129
749.0850, 44.40015
750.2340, 31.11938
751.3830, 46.42126
752.5310, 70.70386
753.6800, 72.97058
754.8280, 84.16028
755.9760, 88.45691
757.1240, 80.67700
758.2720, 86.88208
759.4190, 59.07178
760.5670, 86.24451
761.7140, 67.40198
762.8610, 60.54346
764.0080, 31.66833
765.1550, 50.77209
766.3020, 40.45740
767.4480, 49.25024
768.5950, 46.60645
769.7410, 75.25232
770.8870, 86.26831
772.0330, 100.2690
773.1780, 45.25452
774.3240, 69.22205
775.4690, 16.17444
776.6140, 75.10193
777.7590, 38.01440
778.9040, 30.90808
780.0490, 52.78174
781.1940, 58.63928
782.3380, 53.48938
783.4820, 27.31519
784.6260, 55.12085
785.7700, 10.91077
786.9140, 36.67554
788.0580, 24.42236
789.2010, 52.14905
790.3450, 60.86023
791.4880, 34.55676
792.6310, 17.23572
793.7730, 4.107056
794.9160, 51.51941
796.0590, 34.86914
797.2010, 47.69568
798.3430, 46.24561
799.4850, 4.780640
800.6270, 30.29053
801.7690, 44.78394
802.9100, 36.26245
804.0520, 30.72583
805.1930, 53.17322
806.3340, 8.606567
807.4750, 48.01831
808.6160, 15.41614
809.7560, 41.79565
810.8970, 4.166748
812.0370, 36.48486
813.1770, 7.819824
814.3170, 14.89526
815.4570, 10.64185
816.5960, 15.58240
817.7360, 1.209717
818.8750, 5.024536
820.0140, 21.93066
821.1530, 16.92310
822.2920, 7.196167
823.4310, 12.28247
824.5690, 2.368408
825.7070, 8.400391
826.8460, 19.54907
827.9840, 27.56042
829.1220, 11.57056
830.2590, 10.60388
831.3970, 5.338623
832.5340, 15.73450
833.6710, 14.83350
834.8080, 18.95776
835.9450, 18.10864
837.0820, 36.28564
838.2190, 17.49756
839.3550, 0.2656250
840.4910, 4.875610
841.6270, 9.388428
842.7630, 25.67139
843.8990, 50.99805
845.0350, 78.10315
846.1700, 24.50696
847.3060, 4.935913
848.4410, 2.560181
849.5760, 1.106323
850.7100, 1.720581
851.8450, 51.83374
852.9800, 3.985718
854.1140, 20.50977
855.2480, 2.312622
856.3820, 12.86035
857.5160, 14.43164
858.6500, 3.629272
859.7830, 24.04944
860.9170, 10.53882
862.0500, 32.13928
863.1830, 45.23499
864.3160, 1.777344
865.4480, 17.54065
866.5810, 16.89478
867.7130, 29.12000
868.8460, 39.45752
869.9780, 9.790161
871.1100, 57.11597
872.2410, 1.435181
873.3730, 30.68872
874.5050, 35.47107
875.6360, 55.62463
876.7670, 35.91895
877.8980, 40.14319
879.0290, 71.23560
880.1590, 23.51294
881.2900, 25.78491
882.4200, 7.854614
883.5500, 18.02075
884.6800, 31.60950
885.8100, 7.363770
886.9400, 46.78918
888.0690, 44.59387
889.1990, 22.74707
890.3280, 25.92004
891.4570, 17.15320
892.5860, 28.38306
893.7140, 35.60962
894.8430, 55.83301
895.9710, 40.87207
897.1000, 24.09021
898.2280, 5.229004
899.3560, 18.30066
900.4830, 40.83838
901.6110, 29.20972
902.7380, 6.541504
903.8660, 16.46741
904.9930, 29.64233
906.1200, 44.54968
907.2460, 23.74072
908.3730, 25.93115
909.5000, 13.82117
910.6260, 38.00256
911.7520, 16.09607
912.8780, 19.17932
914.0040, 60.08362
915.1290, 8.725586
916.2550, 6.791138
917.3800, 2.5024001E-02
918.5050, 21.02441
919.6300, 11.63245
920.7550, 40.76624
921.8800, 77.80432
923.0040, 48.69739
924.1290, 43.29883
925.2530, 58.44800
926.3770, 82.65967
927.5010, 74.58179
928.6250, 36.02588
929.7480, 85.38684
930.8720, 86.58936
931.9950, 143.0741
933.1180, 145.2710
934.2410, 128.4697
935.3640, 168.4550
936.4860, 141.5151
937.6090, 201.7452
938.7310, 176.8993
939.8530, 176.9851
940.9750, 179.2603
942.0970, 274.6874
943.2180, 251.9756
944.3400, 240.7540
945.4610, 352.0564
946.5820, 363.3918
947.7030, 477.2275
948.8240, 533.8242
949.9450, 616.0894
951.0650, 685.6604
952.1860, 764.6831
953.3060, 858.9258
954.4260, 996.9692
955.5460, 1157.267
956.6650, 1346.649
957.7850, 1561.535
958.9040, 1794.676
960.0230, 2054.395
961.1420, 2423.466
962.2610, 2838.902
963.3800, 3336.883
964.4990, 4032.913
965.6170, 4961.052
966.7350, 6069.209
967.8530, 7554.125
968.9710, 9546.146
970.0890, 12362.96
971.2070, 16141.88
972.3240, 21153.71
973.4410, 27649.77
974.5580, 35220.99
975.6750, 43897.51
976.7920, 52186.25
977.9090, 57928.03
979.0250, 59512.27
980.1410, 55889.87
981.2580, 47681.91
982.3740, 37914.17
983.4890, 29241.84
984.6050, 22136.47
985.7200, 16862.17
986.8360, 13042.80
987.9510, 10464.32
989.0660, 8518.025
990.1810, 6907.682
991.2950, 5866.506
992.4100, 5069.347
993.5240, 4432.206
994.6390, 3851.083
995.7530, 3319.572
996.8660, 2958.001
997.9800, 2630.933
999.0940, 2412.824
1000.207, 2191.794
1001.320, 2063.784
1002.433, 1792.793
1003.546, 1716.822
1004.659, 1565.870
1005.772, 1409.937
1006.884, 1309.023
1007.996, 1237.129
1009.108, 1160.259
1010.220, 999.4080
1011.332, 975.5778
1012.444, 896.7721
1013.555, 822.9875
1014.666, 837.2252
1015.777, 687.4834
1016.888, 607.7631
1017.999, 652.0640
1019.110, 582.3892
1020.220, 527.7374
1021.331, 549.1106
1022.441, 469.5070
1023.551, 451.9252
1024.661, 431.3710
1025.770, 433.8384
1026.880, 397.3279
1027.989, 356.8390
1029.098, 297.3723
1030.207, 288.9285
1031.316, 275.5068
1032.425, 284.1135
1033.533, 251.7432
1034.642, 215.4031
1035.750, 236.4543
1036.858, 196.1636
1037.966, 233.8967
1039.073, 239.0396
1040.181, 184.8350
1041.288, 161.6594
1042.396, 138.5205
1043.503, 138.4204
1044.610, 138.3459
1045.716, 166.3030
1046.823, 150.6887
1047.929, 93.32349
1049.036, 152.3879
1050.142, 119.4768
1051.248, 152.5874
1052.353, 144.7307
1053.459, 135.9099
1054.564, 135.6440
1055.670, 120.3506
1056.775, 110.6362
1057.880, 101.9592
1058.985, 93.32080
1060.089, 123.7068
1061.194, 145.1196
1062.298, 113.5706
1063.402, 110.0664
1064.506, 94.58789
1065.610, 126.1501
1066.713, 71.73730
1067.817, 122.3494
1068.920, 72.00415
1070.023, 117.6846
1071.126, 105.3965
1072.229, 149.1379
1073.332, 115.9077
1074.435, 149.7021
1075.537, 140.5312
1076.639, 177.3850
1077.741, 227.2744
1078.843, 241.1907
1079.945, 209.1365
1081.046, 197.1226
1082.148, 249.1367
1083.249, 200.1877
1084.350, 317.2715
1085.451, 334.3823
1086.551, 207.5283
1087.652, 304.7051
1088.752, 317.9089
1089.853, 298.1467
1090.953, 303.4121
1092.053, 288.7036
1093.152, 288.6013
1094.252, 305.7683
1095.351, 302.7578
1096.451, 336.1899
1097.550, 375.6531
1098.649, 372.1479
1099.748, 369.6689
1100.846, 368.2222
1101.945, 412.8110
1103.043, 386.4321
1104.141, 398.0859
1105.239, 442.7766
1106.337, 438.9797
1107.434, 464.3267
1108.532, 489.0317
1109.629, 503.8396
1110.726, 553.6819
1111.823, 592.5630
1112.920, 605.4902
1114.017, 599.4521
1115.113, 613.4404
1116.210, 634.4583
1117.306, 708.5017
1118.402, 699.5701
1119.498, 760.6758
1120.593, 755.8071
1121.689, 817.9675
1122.784, 783.1528
1123.879, 896.3616
1124.974, 923.5942
1126.069, 917.8499
1127.164, 997.1353
1128.259, 1029.446
1129.353, 1085.788
1130.447, 1105.152
1131.541, 1185.541
1132.635, 1255.953
1133.729, 1274.388
1134.822, 1295.848
1135.916, 1362.332
1137.009, 1444.837
1138.102, 1597.368
1139.195, 1589.922
1140.288, 1756.498
1141.380, 1790.096
1142.473, 1833.717
1143.565, 2008.217
1144.657, 2140.893
1145.749, 2267.833
1146.841, 2340.546
1147.932, 2469.281
1149.024, 2704.037
1150.115, 2845.815
1151.206, 3075.614
1152.297, 3270.434
1153.388, 3435.276
1154.479, 3569.122
1155.569, 3745.227
1156.659, 3730.131
1157.750, 3784.764
1158.839, 3760.000
1159.929, 3672.965
1161.019, 3497.951
1162.108, 3297.957
1163.198, 3176.152
1164.287, 2861.196
1165.376, 2625.225
1166.465, 2492.311
1167.553, 2143.486
1168.642, 1931.612
1169.730, 1783.757
1170.818, 1699.290
1171.906, 1495.717
1172.994, 1455.021
1174.082, 1250.412
1175.170, 1227.040
1176.257, 1126.945
1177.344, 1062.150
1178.431, 925.1890
1179.518, 991.0068
1180.605, 901.3308
1181.691, 802.8977
1182.778, 775.2549
1183.864, 712.6626
1184.950, 695.3647
1186.036, 669.8901
1187.122, 569.0735
1188.207, 576.8203
1189.292, 495.4133
1190.378, 561.8904
1191.463, 483.5048
1192.548, 496.3154
1193.632, 434.5986
1194.717, 477.2963
1195.801, 341.8270
1196.886, 338.3711
1197.970, 369.9272
1199.054, 333.3398
1200.137, 301.9199
1201.221, 293.8976
1202.305, 269.4156
1203.388, 250.8406
1204.471, 234.1346
1205.554, 217.0089
1206.637, 185.6554
1207.719, 174.5134
1208.802, 234.2223
1209.884, 169.9038
1210.966, 207.6030
1212.048, 225.2994
1213.130, 164.4835
1214.212, 146.2212
1215.293, 176.0312
1216.374, 228.8226
1217.456, 185.5641
1218.536, 180.6111
1219.617, 171.3716
1220.698, 155.1400
1221.778, 137.9175
1222.859, 157.7025
1223.939, 127.9425
1225.019, 116.4296
1226.099, 153.6431
1227.178, 149.4556
1228.258, 159.3303
1229.337, 90.15527
1230.417, 118.9863
1231.496, 45.74561
1232.574, 57.58826
1233.653, 35.55286
1234.732, 72.42236
1235.810, 32.31873
1236.888, 28.36487
1237.966, 86.23132
