##NAMES=Anglesite
##RRUFFID=R050052
##IDEAL CHEMISTRY=Pb^2+^S^6+^O_4_
##LOCALITY=Touissite, Oujela, Morocco
##OWNER=RRUFF
##SOURCE=Eugene Schlepp
##DESCRIPTION=Yellow prismatic single crystal
##STATUS=The identification of this mineral has been confirmed by X-ray diffraction and chemical analysis
##URL=rruff.info/R050052
##MEASURED CHEMISTRY=Pb_1.00_S_1.00_O_4_
##PIN_ID=L00231
##ORIENTATION=Laser parallel to -a* (-1 0 0). Fiducial mark perpendicular to laser is parallel to -b [0 -1 0]
46.637, 0.000
48.043, 12.666
49.450, 29.819
50.856, 26.002
52.261, 76.171
53.667, 89.354
55.072, 124.116
56.477, 127.668
57.882, 153.610
59.287, 166.919
60.691, 201.083
62.095, 217.210
63.499, 220.751
64.903, 206.984
66.306, 151.420
67.709, 121.990
69.112, 71.682
70.515, 34.484
71.917, 29.387
73.319, 32.379
74.721, 7.550
76.123, 16.406
77.525, 2.805
78.926, 6.922
80.327, 8.586
81.728, 14.811
83.128, 30.414
84.529, 80.779
85.929, 100.343
87.329, 157.954
88.728, 217.608
90.128, 305.301
91.527, 449.032
92.926, 557.797
94.324, 821.592
95.723, 915.412
97.121, 1180.252
98.519, 1133.107
99.917, 1092.976
101.314, 1122.858
102.712, 1034.762
104.109, 980.680
105.505, 919.613
106.902, 969.568
108.298, 969.542
109.694, 941.536
111.090, 1011.582
112.486, 977.662
113.881, 1093.764
115.277, 1106.913
116.672, 1300.095
118.066, 1325.302
119.461, 1408.532
120.855, 1513.781
122.249, 1671.036
123.643, 1916.294
125.036, 2001.558
126.430, 2385.816
127.823, 2444.083
129.216, 2827.349
130.608, 3052.612
132.001, 3163.896
133.393, 3457.195
134.785, 3312.503
136.176, 3399.814
137.568, 3115.122
138.959, 2922.419
140.350, 2757.704
141.741, 2400.973
143.131, 2348.225
144.521, 2035.449
145.911, 2018.621
147.301, 1885.754
148.691, 1909.888
150.080, 1952.061
151.469, 1920.160
152.858, 1966.248
154.247, 1778.399
155.635, 1709.597
157.024, 1465.013
158.411, 1349.223
159.799, 1229.432
161.187, 1068.650
162.574, 1041.842
163.961, 910.163
165.348, 896.591
166.734, 808.000
168.121, 753.398
169.507, 783.807
170.893, 698.195
172.278, 689.662
173.664, 646.178
175.049, 668.152
176.434, 616.882
177.819, 598.542
179.203, 585.851
180.587, 555.915
181.971, 553.059
183.355, 502.467
184.739, 460.327
186.122, 481.820
187.505, 445.417
188.888, 439.826
190.271, 401.288
191.653, 435.029
193.035, 356.477
194.417, 380.475
195.799, 387.639
197.180, 322.742
198.562, 342.277
199.943, 295.473
201.324, 344.947
202.704, 290.152
204.084, 273.083
205.465, 263.301
206.844, 258.251
208.224, 257.812
209.603, 238.509
210.983, 261.641
212.362, 238.507
213.740, 226.403
215.119, 236.201
216.497, 213.299
217.875, 248.004
219.253, 214.710
220.631, 223.223
222.008, 176.767
223.385, 189.212
224.762, 168.492
226.139, 160.752
227.515, 169.850
228.891, 135.817
230.267, 144.687
231.643, 109.527
233.018, 122.372
234.394, 120.222
235.769, 108.991
237.144, 99.560
238.518, 106.102
239.893, 107.682
241.267, 97.737
242.641, 80.173
244.014, 85.358
245.388, 84.014
246.761, 87.597
248.134, 50.071
249.507, 72.707
250.879, 64.572
252.252, 42.436
253.624, 65.299
254.996, 52.160
256.367, 68.020
257.739, 57.878
259.110, 41.735
260.481, 62.589
261.852, 35.440
263.222, 49.289
264.592, 17.136
265.962, 30.979
267.332, 37.820
268.702, 40.657
270.071, 38.491
271.440, 38.076
272.809, 41.150
274.178, 31.975
275.546, 36.796
276.915, 38.613
278.283, 17.426
279.650, 34.235
281.018, 10.039
282.385, 20.839
283.752, 15.634
285.119, 15.423
286.486, 18.207
287.852, 11.986
289.218, 13.854
290.584, 11.528
291.950, 14.291
293.316, 11.654
294.681, 5.800
296.046, 5.546
297.411, 2.714
298.775, 9.981
300.140, 6.234
301.504, 1.461
302.868, 0.172
304.231, 3.124
305.595, 0.574
306.958, 2.734
308.321, 10.950
309.684, 6.630
311.047, 9.696
312.409, 9.969
313.771, 9.370
315.133, 0.718
316.495, 14.071
317.856, 0.567
319.217, 7.198
320.578, 8.176
321.939, 2.441
323.299, 2.947
324.660, 1.657
326.020, 4.744
327.380, 12.153
328.739, 4.572
330.099, 3.998
331.458, 4.567
332.817, 5.126
334.176, 8.322
335.534, 15.221
336.892, 5.243
338.251, 4.720
339.608, 8.207
340.966, 1.294
342.323, 0.788
343.681, 4.275
345.037, 2.753
346.394, 2.780
347.751, 4.325
349.107, 2.879
350.463, 15.558
351.819, 7.012
353.174, 5.405
354.530, 14.815
355.885, 3.783
357.240, 9.612
358.594, 16.999
359.949, 0.379
361.303, 3.247
362.657, 11.872
364.011, 4.515
365.365, 0.891
366.718, 3.259
368.071, 2.635
369.424, 5.994
370.777, 21.355
372.129, 5.253
373.481, 12.094
374.833, 8.449
376.185, 3.141
377.537, 23.490
378.888, 5.084
380.239, 21.232
381.590, 5.672
382.941, 34.954
384.291, 7.264
385.642, 13.594
386.992, 38.897
388.341, 26.211
389.691, 58.501
391.040, 39.778
392.389, 36.047
393.738, 68.274
395.087, 50.546
396.435, 69.844
397.784, 70.147
399.132, 86.390
400.479, 100.610
401.827, 100.822
403.174, 126.073
404.521, 95.288
405.868, 130.531
407.215, 127.751
408.561, 135.974
409.908, 189.199
411.254, 153.406
412.599, 192.626
413.945, 190.844
415.290, 214.014
416.636, 242.226
417.980, 248.432
419.325, 280.637
420.670, 296.839
422.014, 338.994
423.358, 368.189
424.702, 424.311
426.045, 485.488
427.389, 554.529
428.732, 729.625
430.075, 862.745
431.417, 1167.876
432.760, 1659.995
434.102, 2415.110
435.444, 3906.234
436.786, 5447.316
438.127, 7709.416
439.469, 7654.521
440.810, 5745.534
442.151, 4131.613
443.492, 2634.588
444.832, 1991.605
446.172, 1680.597
447.512, 1548.585
448.852, 1686.581
450.192, 1656.547
451.531, 1601.517
452.870, 1251.473
454.209, 947.437
455.548, 741.385
456.887, 533.300
458.225, 468.209
459.563, 391.931
460.901, 314.201
462.238, 309.702
463.576, 266.562
464.913, 273.396
466.250, 241.078
467.587, 257.917
468.923, 227.612
470.259, 219.514
471.596, 219.393
472.931, 204.651
474.267, 198.214
475.603, 175.807
476.938, 174.573
478.273, 159.543
479.608, 140.349
480.942, 144.203
482.276, 113.534
483.611, 122.348
484.944, 122.989
486.278, 110.789
487.612, 102.323
488.945, 86.388
490.278, 91.927
491.611, 94.500
492.943, 76.315
494.276, 73.136
495.608, 52.447
496.940, 59.312
498.271, 58.821
499.603, 57.365
500.934, 66.725
502.265, 56.530
503.596, 55.333
504.927, 37.168
506.257, 29.995
507.587, 40.665
508.917, 40.261
510.247, 43.939
511.577, 36.841
512.906, 37.546
514.235, 42.156
515.564, 30.062
516.892, 31.713
518.221, 20.600
519.549, 21.519
520.877, 37.372
522.205, 19.062
523.533, 24.238
524.860, 6.953
526.187, 14.828
527.514, 11.834
528.841, 11.710
530.167, 14.322
531.493, 3.341
532.820, 12.005
534.145, 9.041
535.471, 9.941
536.796, 8.097
538.122, 2.797
539.447, 11.983
540.771, 4.052
542.096, 17.156
543.420, 9.195
544.744, 3.093
546.068, 8.109
547.392, 4.598
548.715, 9.445
550.039, 11.503
551.362, 12.636
552.684, 25.723
554.007, 10.874
555.329, 4.000
556.652, 2.127
557.973, 16.304
559.295, 21.442
560.617, 25.683
561.938, 14.007
563.259, 32.292
564.580, 18.600
565.901, 38.714
567.221, 38.850
568.541, 35.973
569.861, 45.948
571.181, 40.998
572.501, 42.190
573.820, 32.471
575.139, 48.663
576.458, 63.699
577.777, 60.865
579.095, 60.894
580.414, 55.990
581.732, 55.052
583.049, 55.979
584.367, 94.059
585.685, 100.375
587.002, 96.245
588.319, 136.178
589.636, 142.526
590.952, 160.548
592.268, 197.517
593.585, 242.495
594.900, 294.423
596.216, 355.445
597.532, 505.690
598.847, 618.518
600.162, 881.329
601.477, 1303.260
602.792, 1730.202
604.106, 2609.266
605.420, 2944.053
606.734, 2764.942
608.048, 2410.705
609.361, 1685.464
610.675, 1394.216
611.988, 1135.962
613.301, 1002.702
614.614, 1144.436
615.926, 1263.164
617.238, 1789.886
618.550, 1936.603
619.862, 1714.317
621.174, 1306.026
622.485, 797.730
623.797, 549.428
625.108, 361.121
626.418, 281.807
627.729, 236.489
629.039, 170.164
630.349, 159.834
631.659, 133.499
632.969, 130.159
634.279, 114.814
635.588, 102.464
636.897, 113.112
638.206, 115.753
639.515, 119.388
640.823, 126.020
642.131, 118.644
643.439, 113.264
644.747, 92.877
646.055, 77.485
647.362, 52.305
648.669, 48.469
649.976, 53.885
651.283, 38.872
652.589, 42.427
653.896, 50.181
655.202, 40.816
656.508, 43.776
657.814, 26.691
659.119, 39.693
660.424, 37.624
661.729, 39.692
663.034, 59.708
664.339, 67.611
665.643, 71.994
666.947, 77.651
668.251, 76.848
669.555, 65.619
670.859, 59.424
672.162, 70.165
673.465, 70.859
674.768, 53.096
676.071, 69.642
677.373, 46.993
678.676, 59.008
679.978, 60.433
681.280, 36.007
682.581, 50.844
683.883, 34.172
685.184, 62.611
686.485, 48.482
687.786, 46.817
689.087, 51.471
690.387, 42.306
691.687, 43.806
692.987, 41.406
694.287, 43.901
695.586, 42.557
696.886, 70.547
698.185, 34.043
699.484, 60.635
700.783, 68.052
702.081, 47.289
703.379, 34.794
704.677, 53.965
705.975, 54.146
707.273, 44.323
708.570, 46.494
709.868, 41.692
711.165, 42.831
712.462, 42.043
713.758, 38.431
715.055, 40.131
716.351, 34.265
717.647, 30.392
718.943, 31.465
720.238, 30.112
721.533, 38.630
722.829, 36.705
724.124, 36.769
725.418, 47.820
726.713, 39.861
728.007, 31.891
729.301, 27.908
730.595, 30.912
731.889, 37.904
733.182, 30.884
734.476, 36.852
735.769, 32.809
737.061, 33.754
738.354, 41.688
739.647, 31.611
740.939, 22.522
742.231, 47.420
743.523, 37.308
744.814, 20.186
746.106, 31.049
747.397, 32.901
748.688, 31.743
749.978, 33.573
751.269, 28.394
752.559, 20.202
753.849, 37.998
755.139, 39.784
756.429, 29.561
757.719, 28.327
759.008, 23.082
760.297, 36.826
761.586, 28.561
762.875, 59.285
764.163, 52.001
765.451, 55.708
766.739, 67.406
768.027, 63.095
769.315, 63.776
770.602, 70.448
771.890, 59.111
773.177, 88.766
774.463, 92.413
775.750, 79.051
777.036, 113.681
778.323, 76.303
779.609, 68.916
780.894, 84.521
782.180, 68.119
783.465, 95.708
784.750, 111.289
786.035, 143.863
787.320, 117.428
788.605, 112.986
789.889, 113.536
791.173, 81.078
792.457, 77.613
793.741, 59.141
795.024, 57.660
796.307, 57.173
797.591, 29.678
798.873, 26.176
800.156, 31.667
801.439, 10.150
802.721, 2.625
804.003, 1.914
805.285, 11.467
806.566, 5.040
807.848, 8.629
809.129, 7.235
810.410, 12.858
811.691, 12.625
812.971, 14.498
814.252, 13.871
815.532, 16.571
816.812, 16.290
818.092, 15.029
819.371, 22.787
820.651, 28.567
821.930, 21.372
823.209, 15.198
824.488, 16.297
825.766, 15.903
827.045, 15.782
828.323, 8.677
829.601, 14.585
830.878, 11.806
832.156, 23.463
833.433, 14.419
834.710, 17.389
835.987, 23.459
837.264, 31.481
838.540, 17.637
839.817, 25.677
841.093, 33.779
842.369, 23.917
843.644, 27.056
844.920, 22.278
846.195, 30.511
847.470, 23.664
848.745, 10.092
850.020, 15.408
851.294, 8.586
852.568, 8.081
853.842, 5.295
855.116, 1.192
856.390, 8.785
857.663, 5.710
858.936, 2.457
860.209, 7.205
861.482, 17.785
862.755, 20.869
864.027, 33.201
865.299, 39.854
866.571, 40.500
867.843, 57.090
869.115, 56.975
870.386, 58.448
871.657, 62.652
872.928, 51.110
874.199, 49.540
875.470, 36.160
876.740, 28.752
878.010, 45.351
879.280, 29.094
880.550, 50.757
881.820, 39.273
883.089, 40.695
884.358, 61.203
885.627, 24.862
886.896, 39.387
888.164, 42.043
889.433, 44.631
890.701, 52.247
891.969, 42.996
893.236, 39.587
894.504, 44.939
895.771, 43.735
897.038, 67.463
898.305, 50.775
899.572, 53.409
900.838, 71.095
902.105, 48.768
903.371, 90.489
904.637, 72.113
905.902, 76.512
907.168, 89.326
908.433, 61.156
909.698, 78.863
910.963, 119.559
912.228, 92.131
913.492, 125.979
914.757, 95.725
916.021, 89.594
917.285, 138.468
918.548, 120.348
919.812, 145.232
921.075, 114.123
922.338, 156.020
923.601, 181.922
924.864, 139.831
926.126, 164.745
927.388, 216.666
928.650, 169.594
929.912, 225.528
931.174, 205.469
932.435, 244.417
933.697, 234.371
934.958, 239.333
936.218, 288.302
937.479, 263.279
938.739, 359.263
940.000, 395.255
941.260, 350.255
942.520, 463.262
943.779, 481.278
945.039, 543.302
946.298, 636.334
947.557, 678.375
948.816, 812.424
950.074, 873.484
951.333, 907.554
952.591, 1087.632
953.849, 1135.504
955.107, 1390.038
956.365, 1553.323
957.622, 1735.039
958.879, 2185.190
960.136, 2307.149
961.393, 2847.230
962.650, 3491.990
963.906, 3699.800
965.162, 4949.530
966.418, 5881.333
967.674, 7088.003
968.930, 9620.730
970.185, 11467.574
971.441, 16473.969
972.696, 21910.041
973.950, 29116.607
975.205, 43003.609
976.459, 50700.570
977.714, 59447.609
978.968, 58704.695
980.222, 46072.250
981.475, 37569.488
982.729, 26726.941
983.982, 19083.727
985.235, 15241.103
986.488, 10828.348
987.740, 9013.277
988.993, 7293.756
990.245, 5701.115
991.497, 5080.048
992.749, 4109.535
994.000, 3585.662
995.252, 3318.652
996.503, 2757.970
997.754, 2637.857
999.005, 2329.192
1000.256, 2120.291
1001.506, 2057.167
1002.756, 1739.418
1004.006, 1686.736
1005.256, 1555.206
1006.506, 1383.843
1007.755, 1411.244
1009.005, 1197.972
1010.254, 1175.728
1011.502, 1172.510
1012.751, 1014.314
1014.000, 1087.148
1015.248, 957.009
1016.496, 927.898
1017.744, 978.813
1018.991, 817.753
1020.239, 891.719
1021.486, 865.707
1022.733, 779.718
1023.980, 848.751
1025.227, 758.807
1026.473, 758.887
1027.719, 782.990
1028.965, 695.114
1030.211, 774.260
1031.457, 704.432
1032.702, 665.626
1033.948, 718.845
1035.193, 648.084
1036.438, 685.343
1037.682, 654.628
1038.927, 623.932
1040.171, 685.260
1041.415, 670.610
1042.659, 689.980
1043.903, 724.373
1045.146, 608.787
1046.390, 761.221
1047.633, 739.678
1048.876, 778.158
1050.118, 897.659
1051.361, 861.185
1052.603, 1002.737
1053.845, 1059.310
1055.087, 974.905
1056.329, 1129.521
1057.571, 1066.162
1058.812, 1111.824
1060.053, 1250.505
1061.294, 1114.208
1062.535, 1211.930
1063.775, 1149.674
1065.016, 1024.436
1066.256, 1073.218
1067.496, 918.022
1068.736, 903.844
1069.975, 869.687
1071.214, 744.549
1072.454, 776.431
1073.693, 689.334
1074.931, 634.257
1076.170, 669.200
1077.408, 531.162
1078.647, 554.146
1079.885, 560.150
1081.122, 442.173
1082.360, 526.216
1083.597, 467.279
1084.835, 439.362
1086.072, 502.464
1087.308, 389.585
1088.545, 453.725
1089.781, 459.884
1091.018, 373.062
1092.254, 448.259
1093.490, 388.475
1094.725, 412.741
1095.961, 472.994
1097.196, 404.265
1098.431, 457.063
1099.666, 462.373
1100.900, 422.758
1102.135, 539.106
1103.369, 439.474
1104.603, 505.888
1105.837, 567.299
1107.071, 512.736
1108.304, 597.197
1109.538, 555.682
1110.771, 553.190
1112.004, 624.723
1113.236, 595.282
1114.469, 679.866
1115.701, 696.475
1116.933, 699.111
1118.165, 802.771
1119.397, 783.456
1120.629, 816.168
1121.860, 899.908
1123.091, 856.672
1124.322, 974.461
1125.553, 976.283
1126.783, 941.118
1128.014, 1108.013
1129.244, 988.893
1130.474, 1076.795
1131.704, 1219.718
1132.933, 1030.665
1134.163, 1190.634
1135.392, 1224.625
1136.621, 1142.639
1137.850, 1327.679
1139.079, 1124.740
1140.307, 1164.824
1141.535, 1210.933
1142.763, 996.064
1143.991, 1133.454
1145.219, 997.735
1146.446, 864.595
1147.674, 938.460
1148.901, 764.944
1150.128, 787.083
1151.354, 722.869
1152.581, 573.189
1153.807, 646.747
1155.033, 506.308
1156.259, 430.406
1157.485, 471.164
1158.710, 355.303
1159.936, 354.884
1161.161, 364.916
1162.386, 265.580
1163.611, 261.001
1164.835, 237.368
1166.060, 203.180
1167.284, 183.253
1168.508, 153.770
1169.732, 135.749
1170.955, 129.676
1172.179, 94.288
1173.402, 111.659
1174.625, 82.231
1175.848, 78.249
1177.070, 122.605
1178.293, 98.590
1179.515, 97.087
1180.737, 85.409
1181.959, 87.175
1183.181, 106.047
1184.402, 84.165
1185.624, 68.792
1186.845, 107.375
1188.066, 87.372
1189.286, 92.611
1190.507, 111.808
1191.727, 64.685
1192.947, 101.403
1194.167, 63.086
1195.387, 100.473
1196.607, 114.222
1197.826, 59.336
1199.045, 79.406
1200.264, 121.603
1201.483, 73.871
1202.702, 73.636
1203.920, 78.658
1205.138, 65.895
1206.356, 103.667
1207.574, 63.782
1208.792, 73.582
1210.009, 92.702
1211.227, 77.519
1212.444, 100.469
1213.661, 93.731
1214.877, 95.541
1216.094, 114.732
1217.310, 92.786
1218.526, 127.716
1219.742, 150.011
1220.958, 105.126
1222.173, 112.261
1223.389, 62.203
1224.604, 81.714
1225.819, 89.654
1227.034, 56.811
1228.248, 66.960
1229.463, 81.992
1230.677, 32.099
1231.891, 34.115
1233.105, 33.055
1234.318, 20.008
1235.532, 47.989
1236.745, 26.935
1237.958, 20.895
1239.171, 24.815
1240.384, 3.259
1241.596, 27.675
1242.809, 24.616
1244.021, 25.215
1245.233, 19.791
1246.444, 5.247
1247.656, 9.909
1248.867, 46.885
1250.079, 2.109
1251.290, 41.880
1252.500, 7.876
1253.711, 13.023
1254.921, 42.032
1256.132, 9.047
1257.342, 17.232
1258.552, 40.336
1259.761, 11.509
1260.971, 19.708
1262.180, 22.869
1263.389, 21.918
1264.598, 53.008
1265.807, 6.039
1267.015, 17.056
1268.223, 58.066
1269.432, 40.055
1270.640, 0.024
1271.847, 40.972
1273.055, 2.099
1274.262, 35.816
1275.470, 22.726
1276.677, 14.624
1277.883, 44.514
1279.090, 7.389
1280.296, 25.265
1281.503, 10.136
1282.709, 12.001
1283.915, 14.843
1285.120, 7.676
1286.326, 6.410
1287.531, 15.334
1288.736, 6.862
1289.941, 3.031
1291.146, 15.225
1292.350, 14.463
1293.555, 24.689
1294.759, 17.948
1295.963, 28.215
1297.167, 19.497
1298.370, 22.792
1299.574, 22.102
1300.777, 13.427
1301.980, 39.766
1303.183, 29.123
1304.386, 19.498
1305.588, 41.887
1306.790, 35.294
1307.993, 30.718
1309.195, 29.157
1310.396, 19.612
1311.598, 23.083
1312.799, 13.568
1314.000, 4.069
1315.201, 2.580
1316.402, 13.105
1317.603, 8.644
1318.803, 11.200
1320.003, 1.774
1321.203, 6.534
1322.403, 15.969
1323.603, 7.593
1324.802, 4.232
1326.002, 6.115
1327.201, 4.451
1328.400, 15.226
1329.599, 14.081
1330.797, 5.622
1331.995, 4.659
1333.194, 0.929
1334.392, 2.185
1335.589, 9.429
1336.787, 15.662
1337.985, 4.116
1339.182, 1.092
1340.379, 17.286
1341.576, 9.530
1342.772, 8.362
1343.969, 6.790
1345.165, 5.929
1346.361, 22.073
1347.557, 5.812
1348.753, 8.287
1349.949, 25.374
1351.144, 12.451
1352.339, 25.516
1353.534, 13.572
1354.729, 26.616
1355.924, 20.651
1357.118, 11.676
1358.312, 38.689
1359.506, 14.693
1360.700, 19.686
1361.894, 25.669
1363.088, 13.648
1364.281, 19.612
1365.474, 19.565
1366.667, 28.510
1367.860, 10.447
1369.052, 30.377
1370.245, 21.298
1371.437, 22.211
1372.629, 27.768
1373.821, 25.237
1375.013, 30.137
1376.204, 35.973
1377.395, 35.719
1378.586, 35.647
1379.777, 40.570
1380.968, 41.454
1382.159, 66.365
1383.349, 51.739
1384.539, 55.570
1385.729, 62.426
1386.919, 36.299
1388.109, 49.163
1389.298, 63.017
1390.487, 41.861
1391.676, 66.691
1392.865, 58.511
1394.054, 72.320
1395.242, 71.119
1396.431, 50.898
1397.619, 73.637
1398.807, 78.408
1399.995, 53.171
1401.182, 61.925
1402.370, 57.671
1403.557, 57.408
1404.744, 61.581
1405.931, 77.604
1407.118, 67.913
1408.304, 75.519
1409.490, 87.196
1410.676, 77.169
1411.862, 105.196
1413.048, 67.545
1414.234, 67.203
1415.419, 82.027
1416.604, 76.619
1417.789, 98.534
1418.974, 60.949
1420.159, 61.914
1421.343, 76.789
1422.528, 46.400
1423.712, 46.751
1424.896, 44.468
1426.079, 53.421
1427.263, 59.589
1428.446, 59.065
1429.629, 41.236
1430.812, 60.706
1431.995, 31.490
1433.178, 34.260
1434.360, 50.986
1435.543, 32.982
1436.725, 40.932
1437.907, 57.154
1439.088, 37.849
1440.270, 68.229
1441.451, 65.629
1442.632, 45.970
1443.813, 53.907
1444.994, 40.489
1446.175, 51.895
1447.355, 54.391
1448.535, 34.327
1449.715, 51.187
1450.895, 38.128
1452.075, 39.102
1453.255, 59.523
1454.434, 35.210
1455.613, 33.502
1456.792, 58.061
1457.971, 43.239
1459.149, 43.646
1460.328, 49.362
1461.506, 31.796
1462.684, 32.538
1463.862, 68.423
1465.040, 30.467
1466.217, 57.612
1467.395, 36.899
1468.572, 34.249
1469.749, 26.623
1470.925, 42.019
1472.102, 31.370
1473.278, 43.818
1474.455, 25.219
1475.631, 46.589
1476.807, 43.051
1477.982, 25.526
1479.158, 53.042
1480.333, 42.558
1481.508, 22.089
1482.683, 41.627
1483.858, 24.159
1485.033, 21.659
1486.207, 40.128
1487.381, 10.588
1488.555, 39.049
1489.729, 27.530
1490.903, 25.086
1492.076, 25.701
1493.250, 36.357
1494.423, 17.041
1495.596, 35.753
1496.769, 26.492
1497.941, 20.265
1499.114, 40.067
1500.286, 22.898
1501.458, 14.763
1502.630, 54.673
1503.802, 10.476
1504.973, 29.509
1506.145, 18.610
1507.316, 21.786
1508.487, 33.045
1509.657, 12.404
1510.828, 29.886
1511.999, 21.430
1513.169, 20.259
1514.339, 0.772
1515.509, 39.593
1516.678, 6.246
1517.848, 0.000
##END=



