##NAMES=Anglesite
##RRUFFID=R050408
##IDEAL CHEMISTRY=Pb^2+^S^6+^O_4_
##LOCALITY=Tsumeb mine, Tsumeb, Otavi District, Oshikoto, Namibia
##OWNER=RRUFF
##SOURCE=California Institute of Technology
##DESCRIPTION=Pale yellow fragment
##STATUS=The identification of this mineral has been confirmed by X-ray diffraction and chemical analysis
##URL=rruff.info/R050408
##MEASURED CHEMISTRY=Pb_1.00_S_1.00_O_4_
##PIN_ID=L01992
##ORIENTATION=Laser parallel to b* (0 1 0). Fiducial mark perpendicular to laser is parallel to c [0 0 1]
51.43100, 0.0000000E+00
52.67100, 12.07181
53.91000, 20.83594
55.14900, 13.80252
56.38700, 38.38742
57.62600, 17.56631
58.86400, 8.300873
60.10300, 7.108673
61.34100, 13.03372
62.57900, 2.762085
63.81700, 4.605011
65.05400, 0.7766110
66.29200, 0.1694340
67.52900, 27.49088
68.76700, 58.70035
70.00400, 76.40991
71.24100, 126.5761
72.47700, 159.1592
73.71400, 189.1238
74.95100, 264.4392
76.18700, 303.0790
77.42300, 364.0197
78.65900, 423.2402
79.89500, 481.7214
81.13100, 554.4461
82.36700, 638.3988
83.60200, 740.5654
84.83700, 823.9335
86.07200, 945.4916
87.30800, 1085.230
88.54200, 1261.139
89.77700, 1429.208
91.01200, 1635.423
92.24600, 1920.773
93.48000, 2164.250
94.71400, 2453.849
95.94800, 2918.568
97.18200, 3144.400
98.41600, 3258.342
99.64900, 3283.389
100.8830, 3134.538
102.1160, 2834.783
103.3490, 2568.121
104.5820, 2324.548
105.8150, 2106.059
107.0470, 1960.650
108.2800, 1878.320
109.5120, 1703.064
110.7440, 1637.880
111.9760, 1542.766
113.2080, 1464.719
114.4400, 1469.736
115.6710, 1436.815
116.9030, 1457.954
118.1340, 1456.157
119.3650, 1496.421
120.5960, 1572.740
121.8270, 1583.110
123.0580, 1677.538
124.2880, 1797.035
125.5190, 1892.583
126.7490, 1940.144
127.9790, 2098.703
129.2090, 2279.267
130.4390, 2498.861
131.6680, 2549.460
132.8980, 2687.093
134.1270, 2797.752
135.3560, 2977.441
136.5850, 2932.189
137.8140, 2908.002
139.0430, 2836.859
140.2710, 2761.765
141.5000, 2698.710
142.7280, 2630.691
143.9560, 2467.697
145.1840, 2487.737
146.4120, 2420.814
147.6390, 2463.934
148.8670, 2455.087
150.0940, 2552.266
151.3210, 2604.465
152.5490, 2747.684
153.7750, 2779.923
155.0020, 2705.182
156.2290, 2514.461
157.4550, 2292.760
158.6810, 2155.079
159.9080, 1949.418
161.1340, 1703.776
162.3590, 1574.154
163.5850, 1410.551
164.8110, 1279.967
166.0360, 1235.402
167.2610, 1174.856
168.4860, 1125.328
169.7110, 1084.819
170.9360, 1023.853
172.1610, 993.8541
173.3850, 922.3987
174.6100, 893.9603
175.8340, 865.5394
177.0580, 800.1353
178.2820, 825.7482
179.5050, 850.3774
180.7290, 771.0228
181.9520, 743.6841
183.1760, 724.3612
184.3990, 721.4901
185.6220, 691.1941
186.8450, 686.9150
188.0670, 669.6489
189.2900, 660.3971
190.5120, 669.1597
191.7340, 675.9365
192.9560, 625.7366
194.1780, 653.9518
195.4000, 611.6236
196.6220, 633.4433
197.8430, 559.2761
199.0640, 595.5844
200.2860, 577.2248
201.5070, 558.0341
202.7270, 504.5690
203.9480, 552.1425
205.1690, 553.7568
206.3890, 501.1410
207.6090, 477.6077
208.8290, 512.7153
210.0490, 487.6375
211.2690, 466.1379
212.4890, 426.4879
213.7080, 395.0759
214.9280, 459.2118
216.1470, 409.4797
217.3660, 405.7059
218.5850, 405.4709
219.8030, 339.0438
221.0220, 371.9121
222.2400, 331.6389
223.4590, 288.2641
224.6770, 302.7118
225.8950, 298.3073
227.1120, 311.3538
228.3300, 322.8898
229.5480, 299.4998
230.7650, 301.6052
231.9820, 258.8705
233.1990, 249.7827
234.4160, 240.4458
235.6330, 232.7380
236.8490, 230.0371
238.0660, 202.7646
239.2820, 238.6736
240.4980, 171.6215
241.7140, 225.9224
242.9300, 192.7538
244.1460, 152.9855
245.3610, 205.8176
246.5770, 154.6785
247.7920, 175.5552
249.0070, 149.4489
250.2220, 174.3575
251.4370, 159.2896
252.6510, 130.2313
253.8660, 140.1870
255.0800, 112.1561
256.2940, 145.1394
257.5080, 96.13538
258.7220, 145.1453
259.9360, 136.1674
261.1490, 140.2012
262.3630, 123.2466
263.5760, 143.3033
264.7890, 112.3708
266.0020, 105.4492
267.2150, 84.53760
268.4270, 104.6362
269.6400, 110.7446
270.8520, 78.86267
272.0640, 98.98993
273.2760, 81.12634
274.4880, 90.27185
275.7000, 80.42657
276.9120, 82.59027
278.1230, 48.76294
279.3340, 86.94452
280.5450, 58.13477
281.7560, 81.33356
282.9670, 67.54071
284.1780, 34.75580
285.3880, 80.97870
286.5980, 46.20923
287.8090, 39.44714
289.0190, 90.69226
290.2290, 48.94452
291.4380, 38.20367
292.6480, 34.46954
293.8570, 31.74200
295.0670, 14.02087
296.2760, 15.30603
297.4850, 21.59729
298.6930, 12.89465
299.9020, 18.65546
301.1110, 20.50708
302.3190, 23.82202
303.5270, 24.14258
304.7350, 29.89270
305.9430, 21.80042
307.1510, 32.13739
308.3580, 4.479675
309.5660, 6.827148
310.7730, 25.17969
311.9800, 9.537231
313.1870, 18.89966
314.3940, 14.73309
315.6010, 2.636780
316.8070, 5.011292
318.0130, 14.39032
319.2200, 7.773865
320.4260, 1.161743
321.6310, 8.553772
322.8370, 10.95007
324.0430, 9.350525
325.2480, 8.754944
326.4540, 5.163330
327.6590, 11.57568
328.8640, 10.92004
330.0680, 7.249390
331.2730, 12.83069
332.4780, 0.2555540
333.6820, 6.316223
334.8860, 6.885681
336.0900, 0.5470580
337.2940, 20.01703
338.4980, 14.41809
339.7010, 3.854065
340.9050, 2.288940
342.1080, 26.72693
343.3110, 33.83215
344.5140, 38.60315
345.7170, 4.952698
346.9200, 4.498352
348.1220, 5.959778
349.3240, 0.5696410
350.5270, 16.09070
351.7290, 32.60992
352.9310, 11.86414
354.1320, 4.349304
355.3340, 12.15808
356.5350, 5.663635
357.7370, 28.16559
358.9380, 4.325684
360.1390, 1.0315000E-02
361.3400, 8.492249
362.5400, 26.99927
363.7410, 22.49835
364.9410, 27.00330
366.1410, 23.51648
367.3410, 38.35223
368.5410, 14.11316
369.7410, 18.41663
370.9400, 25.95117
372.1400, 6.505066
373.3390, 16.59009
374.5380, 6.134460
375.7370, 8.679688
376.9360, 1.227051
378.1350, 7.227478
379.3330, 7.314392
380.5310, 6.858521
381.7300, 7.595154
382.9280, 16.94788
384.1260, 1.615723
385.3230, 22.93341
386.5210, 6.507019
387.7180, 1.886841
388.9160, 12.44501
390.1130, 10.02112
391.3100, 18.45929
392.5060, 44.17310
393.7030, 18.61652
394.9000, 10.98083
396.0960, 28.42883
397.2920, 25.91400
398.4880, 29.36646
399.6840, 12.98883
400.8800, 32.44580
402.0750, 42.23816
403.2710, 43.69910
404.4660, 27.16193
405.6610, 45.62811
406.8560, 42.11298
408.0510, 62.59595
409.2450, 62.06647
410.4400, 76.53882
411.6340, 76.01270
412.8280, 95.48810
414.0220, 93.99506
415.2160, 127.4734
416.4100, 125.9533
417.6030, 150.4346
418.7970, 129.9171
419.9900, 167.4011
421.1830, 162.8865
422.3760, 234.3730
423.5690, 275.8608
424.7610, 264.3498
425.9540, 371.8400
427.1460, 466.3313
428.3380, 541.8254
429.5300, 768.3221
430.7220, 964.8197
431.9140, 1290.318
433.1050, 1741.819
434.2970, 2124.320
435.4880, 2911.823
436.6790, 3928.326
437.8700, 4605.831
439.0610, 5138.336
440.2510, 5015.843
441.4420, 4377.353
442.6320, 3582.862
443.8220, 2712.372
445.0120, 2220.883
446.2020, 1929.394
447.3910, 1790.907
448.5810, 1835.419
449.7700, 1782.933
450.9600, 1738.447
452.1490, 1501.961
453.3370, 1295.476
454.5260, 1030.991
455.7150, 749.5065
456.9030, 606.0222
458.0910, 471.1422
459.2800, 417.6588
460.4670, 352.1756
461.6550, 380.6946
462.8430, 294.2163
464.0300, 269.7388
465.2180, 272.2631
466.4050, 251.7875
467.5920, 224.3120
468.7790, 200.8363
469.9650, 238.3616
471.1520, 210.8915
472.3380, 216.4210
473.5250, 178.9506
474.7110, 187.4800
475.8970, 191.0002
477.0820, 156.3430
478.2680, 155.6584
479.4540, 130.1820
480.6390, 104.8753
481.8240, 100.4048
483.0090, 127.9338
484.1940, 110.4623
485.3780, 83.99121
486.5630, 112.8824
487.7470, 99.41211
488.9320, 85.73920
490.1160, 83.47290
491.3000, 68.00195
492.4830, 74.47766
493.6670, 81.23035
494.8500, 70.08228
496.0340, 92.60907
497.2170, 80.13489
498.4000, 55.03516
499.5820, 55.24921
500.7650, 53.27191
501.9480, 12.79852
503.1300, 37.23846
504.3120, 28.76270
505.4940, 41.78796
506.6760, 74.04340
507.8580, 45.03986
509.0390, 2.787842
510.2210, 53.51562
511.4020, 34.02802
512.5830, 46.58026
513.7640, 73.56024
514.9450, 0.9208980
516.1250, 20.63226
517.3060, 35.64417
518.4860, 22.53394
519.6660, 22.98242
520.8460, 25.49493
522.0260, 16.40442
523.2060, 25.32800
524.3850, 18.84296
525.5650, 4.198181
526.7440, 41.53680
527.9230, 16.54742
529.1020, 15.95465
530.2810, 31.15454
531.4590, 6.681458
532.6380, 13.19525
533.8160, 1.291992
534.9940, 23.21686
536.1720, 12.26306
537.3500, 31.23602
538.5270, 6.749268
539.7050, 36.26215
540.8820, 0.8385010
542.0590, 20.35260
543.2360, 2.132690
544.4130, 26.37854
545.5900, 23.89789
546.7660, 11.42664
547.9430, 9.036194
549.1190, 9.564880
550.2950, 13.09229
551.4710, 16.64606
552.6470, 58.17133
553.8220, 36.69702
554.9980, 8.223816
556.1730, 55.74872
557.3480, 34.27509
558.5230, 31.80865
559.6980, 32.34808
560.8730, 42.88739
562.0470, 41.74493
563.2220, 36.97687
564.3960, 49.52289
565.5700, 45.07819
566.7440, 50.63104
567.9170, 63.18158
569.0910, 55.08911
570.2640, 86.03748
571.4380, 37.58423
572.6110, 77.13892
573.7840, 53.80554
574.9570, 52.49670
576.1290, 74.06061
577.3020, 55.62195
578.4740, 76.24036
579.6460, 77.82349
580.8180, 97.68512
581.9900, 70.24194
583.1620, 96.93475
584.3330, 90.48749
585.5040, 145.0375
586.6760, 127.6118
587.8470, 165.1558
589.0180, 151.6969
590.1880, 188.3632
591.3590, 209.8983
592.5290, 234.4313
593.7000, 288.0237
594.8700, 313.5493
596.0400, 400.0715
597.2090, 454.5905
598.3790, 604.1065
599.5490, 751.8074
600.7180, 937.3184
601.8870, 1100.276
603.0560, 1393.441
604.2250, 1566.536
605.3940, 1750.033
606.5620, 1659.614
607.7300, 1462.103
608.8990, 1219.589
610.0670, 954.3351
611.2350, 722.9340
612.4020, 550.4083
613.5700, 413.9308
614.7370, 323.4404
615.9050, 243.9623
617.0720, 233.4632
618.2390, 215.1619
619.4060, 203.8402
620.5720, 175.2885
621.7390, 129.7559
622.9050, 106.1996
624.0710, 94.63904
625.2370, 42.26709
626.4030, 53.87439
627.5690, 75.57776
628.7340, 31.00677
629.9000, 5.748962
631.0650, 44.16815
632.2300, 63.59680
633.3950, 54.00732
634.5600, 59.41681
635.7240, 72.04846
636.8890, 66.45593
638.0530, 83.85864
639.2170, 73.25891
640.3810, 81.71393
641.5450, 71.11346
642.7080, 67.13318
643.8720, 43.03247
645.0350, 54.41772
646.1980, 49.67859
647.3610, 42.26477
648.5240, 64.65979
649.6870, 61.36560
650.8490, 67.76031
652.0120, 9.888184
653.1740, 38.40717
654.3360, 58.01434
655.4980, 14.00775
656.6600, 60.39032
657.8210, 20.77008
658.9830, 8.316711
660.1440, 57.96545
661.3050, 59.46741
662.4660, 57.93616
663.6270, 40.29639
664.7870, 34.25635
665.9480, 35.12988
667.1080, 40.49335
668.2680, 41.00586
669.4280, 61.19116
670.5880, 69.99231
671.7480, 56.32245
672.9070, 37.65680
674.0670, 56.71094
675.2260, 29.08459
676.3850, 55.56903
677.5440, 59.37732
678.7030, 46.88953
679.8610, 24.43561
681.0200, 38.56238
682.1780, 37.24048
683.3360, 53.41724
684.4940, 40.89911
685.6520, 59.66272
686.8090, 26.91779
687.9670, 46.84808
689.1240, 38.07587
690.2810, 32.31097
691.4380, 52.85913
692.5950, 68.50043
693.7520, 61.30084
694.9080, 68.00757
696.0650, 64.89044
697.2210, 62.67596
698.3770, 59.61938
699.5330, 58.15564
700.6880, 59.73267
701.8440, 62.84485
702.9990, 55.42993
704.1550, 44.30408
705.3100, 57.15857
706.4650, 77.29041
707.6190, 20.90533
708.7740, 19.01843
709.9290, 58.17767
711.0830, 89.64368
712.2370, 40.40167
713.3910, 39.57489
714.5450, 88.64185
715.6980, 76.70056
716.8520, 44.75079
718.0050, 49.14520
719.1580, 29.10632
720.3110, 101.1281
721.4640, 39.45410
722.6170, 66.45776
723.7700, 59.45288
724.9220, 49.43945
726.0740, 60.41724
727.2260, 60.38660
728.3780, 39.34753
729.5300, 63.29871
730.6810, 52.24146
731.8330, 44.17566
732.9840, 59.10071
734.1350, 72.01746
735.2860, 62.92566
736.4370, 69.82544
737.5880, 33.71655
738.7380, 78.59766
739.8880, 20.47021
741.0390, 13.33044
742.1890, 15.17639
743.3380, 73.00879
744.4880, 39.83264
745.6380, 74.64734
746.7870, 54.45361
747.9360, 27.25134
749.0850, 2.038330
750.2340, 54.80725
751.3830, 41.56763
752.5310, 42.31921
753.6800, 40.06189
754.8280, 41.79578
755.9760, 26.52087
757.1240, 27.23547
758.2720, 52.93970
759.4190, 43.20874
760.5670, 66.32324
761.7140, 50.00232
762.8610, 27.67334
764.0080, 28.33435
765.1550, 22.98535
766.3020, 49.62585
767.4480, 20.25793
768.5950, 46.67529
769.7410, 40.28833
770.8870, 47.89307
772.0330, 46.48962
773.1780, 23.07800
774.3240, 56.65649
775.4690, 51.22668
776.6140, 0.7889400
777.7590, 32.33411
778.9040, 45.87073
780.0490, 17.39917
781.1940, 50.91797
782.3380, 38.42859
783.4820, 37.93127
784.6260, 28.42603
785.7700, 34.91211
786.9140, 42.39014
788.0580, 56.86340
789.2010, 3.328491
790.3450, 3.375488
791.4880, 17.05713
792.6310, 26.47998
793.7730, 52.79956
794.9160, 39.20837
796.0590, 17.58228
797.2010, 12.76514
798.3430, 4.853638
799.4850, 19.50977
800.6270, 44.86450
801.7690, 3.211548
802.9100, 3.454590
804.0520, 14.13660
805.1930, 14.15967
806.3340, 25.44641
807.4750, 4.731567
808.6160, 21.00488
809.7560, 24.27075
810.8970, 27.52917
812.0370, 6.218384
813.1770, 14.00977
814.3170, 29.75842
815.4570, 7.444580
816.5960, 10.36182
817.7360, 18.75452
818.8750, 2.923950
820.0140, 6.082764
821.1530, 26.76611
822.2920, 31.64099
823.4310, 27.45593
824.5690, 3.536377
825.7070, 34.54089
826.8460, 22.61121
827.9840, 1.647095
829.1220, 0.2985840
830.2590, 3.254639
831.3970, 6.777466
832.5340, 5.197266
833.6710, 28.18457
834.8080, 23.19617
835.9450, 1.229248
837.0820, 18.27197
838.2190, 11.33325
839.3550, 3.408813
840.4910, 8.494629
841.6270, 24.60059
842.7630, 15.28052
843.8990, 5.843872
845.0350, 34.66479
846.1700, 1.125000
847.3060, 37.02136
848.4410, 42.19324
849.5760, 17.49622
850.7100, 15.16370
851.8450, 44.94360
852.9800, 18.71875
854.1140, 6.570679
855.2480, 16.83374
856.3820, 17.61304
857.5160, 6.642456
858.6500, 10.95728
859.7830, 60.68994
860.9170, 39.41858
862.0500, 44.11572
863.1830, 34.83630
864.3160, 36.55298
865.4480, 45.13745
866.5810, 71.84668
867.7130, 85.55103
868.8460, 58.18945
869.9780, 56.88782
871.1100, 46.58289
872.2410, 92.27490
873.3730, 60.96375
874.5050, 88.46252
875.6360, 62.14526
876.7670, 81.37512
877.8980, 42.39124
879.0290, 51.47144
880.1590, 51.14343
881.2900, 69.72534
882.4200, 27.39258
883.5500, 59.05762
884.6800, 32.45642
885.8100, 9.996826
886.9400, 22.65588
888.0690, 47.26111
889.1990, 43.87354
890.3280, 76.46814
891.4570, 57.07837
892.5860, 44.48669
893.7140, 52.91077
894.8430, 49.56006
895.9710, 46.30493
897.1000, 58.83630
898.2280, 45.48291
899.3560, 36.93579
900.4830, 43.40454
901.6110, 26.77966
902.7380, 36.42407
903.8660, 92.75195
904.9930, 51.39685
906.1200, 65.02795
907.2460, 93.67310
908.3730, 41.31836
909.5000, 77.74463
910.6260, 77.39062
911.7520, 51.03735
912.8780, 91.68530
914.0040, 67.27600
915.1290, 64.92505
916.2550, 95.27441
917.3800, 53.92554
918.5050, 85.57800
919.6300, 50.23206
920.7550, 81.81482
921.8800, 101.4661
923.0040, 88.12500
924.1290, 112.3857
925.2530, 110.7101
926.3770, 115.2448
927.5010, 113.6951
928.6250, 120.3767
929.7480, 107.9851
930.8720, 123.6610
931.9950, 139.1703
933.1180, 120.5752
934.2410, 130.1244
935.3640, 142.7073
936.4860, 132.3990
937.6090, 171.4889
938.7310, 162.1919
939.8530, 210.2422
940.9750, 203.7859
942.0970, 297.6165
943.2180, 287.8699
944.3400, 290.5663
945.4610, 374.2876
946.5820, 424.0144
947.7030, 508.6956
948.8240, 557.3464
949.9450, 587.5906
951.0650, 612.0948
952.1860, 724.5986
953.3060, 764.3530
954.4260, 922.7576
955.5460, 998.2944
956.6650, 1112.858
957.7850, 1362.140
958.9040, 1480.927
960.0230, 1764.023
961.1420, 2052.823
962.2610, 2387.629
963.3800, 2807.123
964.4990, 3376.523
965.6170, 4005.763
966.7350, 5021.552
967.8530, 6221.724
968.9710, 7896.479
970.0890, 10125.58
971.2070, 13146.08
972.3240, 17190.54
973.4410, 22537.48
974.5580, 29478.94
975.6750, 36554.11
976.7920, 44230.29
977.9090, 49753.20
979.0250, 50852.63
980.1410, 46772.57
981.2580, 39588.45
982.3740, 30874.03
983.4890, 23755.32
984.6050, 18140.19
985.7200, 13962.17
986.8360, 10782.16
987.9510, 8547.155
989.0660, 7002.810
990.1810, 5792.900
991.2950, 5061.930
992.4100, 4231.658
993.5240, 3596.709
994.6390, 3256.770
995.7530, 2851.841
996.8660, 2538.924
997.9800, 2298.016
999.0940, 2072.120
1000.207, 1826.233
1001.320, 1724.358
1002.433, 1621.494
1003.546, 1471.641
1004.659, 1306.799
1005.772, 1266.968
1006.884, 1095.148
1007.996, 989.3400
1009.108, 910.5436
1010.220, 825.7585
1011.332, 748.9871
1012.444, 687.2297
1013.555, 706.4863
1014.666, 600.7552
1015.777, 587.0403
1016.888, 563.3372
1017.999, 477.6458
1019.110, 441.9673
1020.220, 425.3055
1021.331, 390.6560
1022.441, 388.0186
1023.551, 356.3990
1024.661, 310.7971
1025.770, 348.2087
1026.880, 270.6338
1027.989, 225.0721
1029.098, 278.5227
1030.207, 238.9857
1031.316, 224.4613
1032.425, 239.9493
1033.533, 215.4514
1034.642, 166.9669
1035.750, 152.4965
1036.858, 116.0385
1037.966, 97.59668
1039.073, 93.53186
1040.181, 140.7545
1041.288, 97.36243
1042.396, 94.99170
1043.503, 107.6348
1044.610, 60.29102
1045.716, 97.96021
1046.823, 73.64697
1047.929, 87.35559
1049.036, 47.07764
1050.142, 56.81860
1051.248, 109.5780
1052.353, 112.3652
1053.459, 83.16602
1054.564, 51.98682
1055.670, 84.82141
1056.775, 57.66931
1057.880, 53.53345
1058.985, 83.41455
1060.089, 102.3138
1061.194, 61.22803
1062.298, 66.15588
1063.402, 110.0996
1064.506, 59.05664
1065.610, 40.02832
1066.713, 69.01733
1067.817, 58.02515
1068.920, 55.04700
1070.023, 47.08276
1071.126, 50.14197
1072.229, 19.22058
1073.332, 40.32019
1074.435, 14.56104
1075.537, 22.57031
1076.639, 36.72083
1077.741, 16.88525
1078.843, 70.06702
1079.945, 102.8298
1081.046, 64.12561
1082.148, 87.35376
1083.249, 52.60645
1084.350, 54.87402
1085.451, 21.16089
1086.551, 5.538574
1087.652, 47.84131
1088.752, 46.17566
1089.853, 30.53333
1090.953, 12.91541
1092.053, 83.31201
1093.152, 78.72559
1094.252, 73.15649
1095.351, 56.60107
1096.451, 101.0609
1097.550, 80.53735
1098.649, 87.03418
1099.748, 67.54517
1100.846, 77.07764
1101.945, 122.6335
1103.043, 141.4095
1104.141, 158.0505
1105.239, 90.72363
1106.337, 131.3566
1107.434, 111.0051
1108.532, 139.6713
1109.629, 197.3604
1110.726, 179.0605
1111.823, 198.7766
1112.920, 237.5118
1114.017, 228.2673
1115.113, 299.0463
1116.210, 221.8552
1117.306, 252.6820
1118.402, 325.5221
1119.498, 327.3781
1120.593, 395.3014
1121.689, 342.1852
1122.784, 372.0862
1123.879, 461.0010
1124.974, 486.9313
1126.069, 435.8745
1127.164, 528.8306
1128.259, 510.7999
1129.353, 535.7821
1130.447, 541.7766
1131.541, 548.7839
1132.635, 598.8047
1133.729, 600.8378
1134.822, 629.8831
1135.916, 621.9408
1137.009, 677.0107
1138.102, 646.0934
1139.195, 700.2883
1140.288, 704.3950
1141.380, 674.5139
1142.473, 677.6505
1143.565, 644.7988
1144.657, 646.9595
1145.749, 608.2188
1146.841, 559.3326
1147.932, 595.5286
1149.024, 546.7361
1150.115, 502.9548
1151.206, 482.1851
1152.297, 427.4270
1153.388, 469.6801
1154.479, 387.2234
1155.569, 388.6421
1156.659, 410.1687
1157.750, 333.4656
1158.839, 279.7732
1159.929, 276.0913
1161.019, 218.4204
1162.108, 189.7595
1163.198, 211.1093
1164.287, 167.5841
1165.376, 203.9543
1166.465, 168.3368
1167.553, 180.7292
1168.642, 134.5734
1169.730, 128.9868
1170.818, 51.96741
1171.906, 91.32031
1172.994, 30.66272
1174.082, 60.11865
1175.170, 88.58374
1176.257, 31.05859
1177.344, 55.54285
1178.431, 52.01367
1179.518, 37.51562
1180.605, 55.02673
1181.691, 102.7170
1182.778, 77.59570
1183.864, 75.19482
1184.950, 81.17554
1186.036, 25.75793
1187.122, 57.32092
1188.207, 68.49280
1189.292, 32.07129
1190.378, 38.65747
1191.463, 48.27222
1192.548, 39.87341
1193.632, 54.92444
1194.717, 57.17908
1195.801, 58.16882
1196.886, 57.37415
1197.970, 38.01379
1199.054, 8.660034
1200.137, 54.31750
1201.221, 83.56787
1202.305, 46.52356
1203.388, 52.19556
1204.471, 24.93066
1205.554, 34.49011
1206.637, 22.90466
1207.719, 29.60059
1208.802, 7.129150
1209.884, 25.16345
1210.966, 6.456055
1212.048, 5.255737
1213.130, 37.97278
1214.212, 37.69507
1215.293, 14.42212
1216.374, 58.15515
1217.456, 5.101685
1218.536, 83.39893
1219.617, 42.14563
1220.698, 49.89673
1221.778, 32.82080
1222.859, 62.58069
1223.939, 28.19165
1225.019, 45.95935
1226.099, 36.73096
1227.178, 29.66614
1228.258, 25.39746
1229.337, 29.17969
1230.417, 28.09875
1231.496, 35.01831
1232.574, 10.18921
1233.653, 3.396240
1234.732, 3.907471
1235.810, 18.88977
1236.888, 12.68933
1237.966, 34.65173
