##NAMES=Anglesite
##RRUFFID=R050408
##IDEAL CHEMISTRY=Pb^2+^S^6+^O_4_
##LOCALITY=Tsumeb mine, Tsumeb, Otavi District, Oshikoto, Namibia
##OWNER=RRUFF
##SOURCE=California Institute of Technology
##DESCRIPTION=Pale yellow fragment
##STATUS=The identification of this mineral has been confirmed by X-ray diffraction and chemical analysis
##URL=rruff.info/R050408
##MEASURED CHEMISTRY=Pb_1.00_S_1.00_O_4_
##PIN_ID=L00529
##ORIENTATION=Laser parallel to c* (0 0 1). Fiducial mark perpendicular to laser is parallel to a [1 0 0]
51.43100, 0.0000000E+00
52.67100, 11.83023
53.91000, 18.38202
55.14900, 11.03403
56.38700, 5.961395
57.62600, 10.54074
58.86400, 1.517578
60.10300, 2.730133
61.34100, 1.268738
62.57900, 4.057953
63.81700, 7.385773
65.05400, 6.831818
66.29200, 32.50372
67.52900, 47.53568
68.76700, 87.19421
70.00400, 139.4221
71.24100, 213.1689
72.47700, 245.3870
73.71400, 322.0335
74.95100, 392.0700
76.18700, 474.4628
77.42300, 571.1818
78.65900, 614.2004
79.89500, 739.4952
81.13100, 815.0455
82.36700, 951.8332
83.60200, 1057.847
84.83700, 1143.080
86.07200, 1316.523
87.30800, 1450.170
88.54200, 1604.007
89.77700, 1765.019
91.01200, 1950.188
92.24600, 2185.500
93.48000, 2355.944
94.71400, 2574.512
95.94800, 2674.196
97.18200, 2740.988
98.41600, 2805.882
99.64900, 2715.872
100.8830, 2571.951
102.1160, 2455.117
103.3490, 2286.363
104.5820, 2230.687
105.8150, 2149.083
107.0470, 2097.550
108.2800, 2079.084
109.5120, 2036.681
110.7440, 2018.340
111.9760, 1986.058
113.2080, 1990.860
114.4400, 1994.752
115.6710, 2022.440
116.9030, 2034.879
118.1340, 2139.052
119.3650, 2179.321
120.5960, 2304.705
121.8270, 2399.180
123.0580, 2623.702
124.2880, 2853.264
125.5190, 2989.854
126.7490, 3118.432
127.9790, 3333.989
129.2090, 3693.548
130.4390, 3882.112
131.6680, 3979.680
132.8980, 4128.243
134.1270, 4259.819
135.3560, 4268.424
136.5850, 4248.048
137.8140, 4000.693
139.0430, 3909.355
140.2710, 3625.031
141.5000, 3427.718
142.7280, 3169.417
143.9560, 3095.130
145.1840, 2890.855
146.4120, 2745.594
147.6390, 2620.347
148.8670, 2583.114
150.0940, 2530.894
151.3210, 2477.690
152.5490, 2506.499
153.7750, 2279.322
155.0020, 2276.161
156.2290, 2042.012
157.4550, 1942.878
158.6810, 1750.758
159.9080, 1636.652
161.1340, 1501.559
162.3590, 1384.479
163.5850, 1296.411
164.8110, 1224.357
166.0360, 1190.315
167.2610, 1120.285
168.4860, 1079.267
169.7110, 1056.284
170.9360, 1012.288
172.1610, 976.3038
173.3850, 945.8763
174.6100, 975.1699
175.8340, 952.3709
177.0580, 919.1784
178.2820, 883.3876
179.5050, 864.3810
180.7290, 885.2322
181.9520, 838.7991
183.1760, 775.4061
184.3990, 776.8759
185.6220, 713.5759
186.8450, 752.7860
188.0670, 691.2925
189.2900, 698.9082
190.5120, 692.0835
191.7340, 623.9838
192.9560, 605.4020
194.1780, 580.1333
195.4000, 605.1651
196.6220, 564.3039
197.8430, 570.2849
199.0640, 492.4440
200.2860, 519.4318
201.5070, 487.4943
202.7270, 471.3164
203.9480, 490.6188
205.1690, 446.1652
206.3890, 410.1620
207.6090, 416.8400
208.8290, 374.3228
210.0490, 377.2097
211.2690, 342.5321
212.4890, 366.9483
213.7080, 346.5137
214.9280, 309.6152
216.1470, 330.8715
217.3660, 320.6315
218.5850, 271.4856
219.8030, 315.7223
221.0220, 278.8696
222.2400, 264.1014
223.4590, 263.3048
224.6770, 253.4842
225.8950, 238.7354
227.1120, 194.5302
228.3300, 203.5279
229.5480, 200.5117
230.7650, 173.5166
231.9820, 196.5412
233.1990, 151.6396
234.4160, 150.7009
235.6330, 145.7788
236.8490, 130.8727
238.0660, 134.9816
239.2820, 144.1050
240.4980, 125.2421
241.7140, 151.3923
242.9300, 90.55493
244.1460, 123.7296
245.3610, 123.9156
246.5770, 80.11273
247.7920, 83.32025
249.0070, 90.53784
250.2220, 94.76508
251.4370, 76.00159
252.6510, 81.24695
253.8660, 85.50092
255.0800, 59.76312
256.2940, 82.03326
257.5080, 85.31409
258.7220, 71.60217
259.9360, 85.89771
261.1490, 55.19940
262.3630, 63.50854
263.5760, 51.82294
264.7890, 51.14221
266.0020, 40.46594
267.2150, 46.79364
268.4270, 33.12524
269.6400, 48.46021
270.8520, 27.79803
272.0640, 28.13879
273.2760, 35.48248
274.4880, 35.82910
275.7000, 35.67755
276.9120, 17.53143
278.1230, 33.88696
279.3340, 12.24548
280.5450, 11.60693
281.7560, 18.97107
282.9670, 6.337891
284.1780, 30.70721
285.3880, 0.9210210
286.5980, 25.45282
287.8090, 23.82898
289.0190, 23.20740
290.2290, 11.58789
291.4380, 27.97052
292.6480, 0.3551640
293.8570, 12.25842
295.0670, 6.127502
296.2760, 23.48474
297.4850, 4.100220
298.6930, 0.7148440
299.9020, 30.32819
301.1110, 0.9468380
302.3190, 24.56439
303.5270, 15.18610
304.7350, 17.80988
305.9430, 3.563477
307.1510, 11.06201
308.3580, 21.68903
309.5660, 7.320190
310.7730, 2.952271
311.9800, 9.415527
313.1870, 10.21588
314.3940, 3.150696
315.6010, 7.482300
316.8070, 0.8832400
318.0130, 26.75122
319.2200, 20.39484
320.4260, 15.04913
321.6310, 33.70831
322.8370, 5.384033
324.0430, 10.07141
325.2480, 14.76575
326.4540, 32.47253
327.6590, 0.1905520
328.8640, 10.91180
330.0680, 0.6383670
331.2730, 10.62665
332.4780, 5.118042
333.6820, 0.1243290
334.8860, 7.641418
336.0900, 5.580750
337.2940, 2.798767
338.4980, 16.98517
339.7010, 14.22235
340.9050, 9.429932
342.1080, 13.63287
343.3110, 16.16357
344.5140, 8.035156
345.7170, 2.239563
346.9200, 6.448181
348.1220, 1.337097
349.3240, 3.120056
350.5270, 13.90228
351.7290, 2.688354
352.9310, 2.525757
354.1320, 5.258179
355.3340, 12.95642
356.5350, 20.17499
357.7370, 10.39691
358.9380, 3.378601
360.1390, 5.156372
361.3400, 12.93768
362.5400, 4.273376
363.7410, 2.515259
364.9410, 0.3068850
366.1410, 1.100525
367.3410, 2.4400000E-04
368.5410, 0.9995120
369.7410, 5.503235
370.9400, 6.701782
372.1400, 8.900146
373.3390, 20.09857
374.5380, 14.29749
375.7370, 16.49731
376.9360, 8.697388
378.1350, 31.89703
379.3330, 25.27679
380.5310, 23.29639
381.7300, 36.49597
382.9280, 34.69543
384.1260, 56.89478
385.3230, 57.09375
386.5210, 55.29242
387.7180, 63.49072
388.9160, 67.68866
390.1130, 89.88617
391.3100, 78.08301
392.5060, 79.27936
393.7030, 104.4758
394.9000, 125.6708
396.0960, 144.8651
397.2920, 169.0593
398.4880, 183.2769
399.6840, 186.4697
400.8800, 208.4207
402.0750, 227.5583
403.2710, 230.8500
404.4660, 273.0411
405.6610, 271.5458
406.8560, 291.7362
408.0510, 322.9260
409.2450, 318.1154
410.4400, 353.3043
411.6340, 378.5888
412.8280, 416.7766
414.0220, 452.9639
415.2160, 479.7951
416.4100, 517.9747
417.6030, 547.5217
418.7970, 581.7075
419.9900, 636.8927
421.1830, 660.0770
422.3760, 775.2609
423.5690, 860.4443
424.7610, 997.6279
425.9540, 1214.811
427.1460, 1406.993
428.3380, 1713.174
429.5300, 2188.335
430.7220, 2703.516
431.9140, 3479.697
433.1050, 4236.876
434.2970, 5228.058
435.4880, 6419.237
436.6790, 7556.411
437.8700, 8426.144
439.0610, 9213.320
440.2510, 10117.44
441.4420, 10951.50
442.6320, 12069.65
443.8220, 13505.35
445.0120, 15495.49
446.2020, 18098.48
447.3910, 20202.96
448.5810, 20683.29
449.7700, 19827.47
450.9600, 17571.13
452.1490, 14659.21
453.3370, 11579.04
454.5260, 8764.073
455.7150, 6514.250
456.9030, 5050.899
458.0910, 4010.076
459.2800, 3252.845
460.4670, 2778.002
461.6550, 2423.663
462.8430, 2057.680
464.0300, 1829.987
465.2180, 1558.196
466.4050, 1405.006
467.5920, 1273.551
468.7790, 1105.829
469.9650, 1010.058
471.1520, 924.1003
472.3380, 854.5594
473.5250, 768.5652
474.7110, 744.7403
475.8970, 659.4879
477.0820, 615.5119
478.2680, 553.1070
479.4540, 496.2853
480.6390, 450.4116
481.8240, 427.4451
483.0090, 414.6232
484.1940, 380.8011
485.3780, 364.9791
486.5630, 323.0249
487.7470, 286.2026
488.9320, 292.2649
490.1160, 258.4367
491.3000, 252.2969
492.4830, 194.0529
493.6670, 188.1778
494.8500, 191.9431
496.0340, 155.9755
497.2170, 179.5807
498.4000, 150.7535
499.5820, 129.9257
500.7650, 127.0970
501.9480, 109.7777
503.1300, 117.3458
504.3120, 109.4503
505.4940, 108.4984
506.6760, 99.19861
507.8580, 86.02032
509.0390, 68.78833
510.2210, 78.61328
511.4020, 85.48877
512.5830, 45.54431
513.7640, 42.62854
514.9450, 52.75903
516.1250, 53.92566
517.3060, 57.22498
518.4860, 37.39252
519.6660, 31.50476
520.8460, 33.67126
522.0260, 30.84015
523.2060, 20.01208
524.3850, 39.18591
525.5650, 42.36023
526.7440, 13.53528
527.9230, 19.71216
529.1020, 24.89490
530.2810, 6.093750
531.4590, 8.278137
532.6380, 10.46216
533.8160, 6.648071
534.9940, 0.8343510
536.1720, 2.854309
537.3500, 10.21344
538.5270, 7.580078
539.7050, 1.204041
540.8820, 9.998596
542.0590, 14.77856
543.2360, 13.50464
544.4130, 4.106750
545.5900, 20.28369
546.7660, 8.398926
547.9430, 5.991211
549.1190, 9.264648
550.2950, 22.62561
551.4710, 26.01617
552.6470, 3.707520
553.8220, 14.68597
554.9980, 12.00488
556.1730, 36.27551
557.3480, 40.60126
558.5230, 16.19659
559.6980, 22.61816
560.8730, 9.953857
562.0470, 26.31323
563.2220, 32.66357
564.3960, 33.09137
565.5700, 21.60834
566.7440, 24.92273
567.9170, 27.29285
569.0910, 36.65735
570.2640, 40.10162
571.4380, 59.57086
572.6110, 64.03003
573.7840, 41.50098
574.9570, 33.05005
576.1290, 51.55176
577.3020, 59.03143
578.4740, 53.57935
579.6460, 55.00342
580.8180, 62.74573
581.9900, 68.40387
583.1620, 76.50464
584.3330, 94.06677
585.5040, 98.47961
586.6760, 120.1140
587.8470, 153.6054
589.0180, 155.9895
590.1880, 183.4775
591.3590, 239.0161
592.5290, 295.8893
593.7000, 364.4626
594.8700, 417.8481
596.0400, 558.2101
597.2090, 724.6423
598.3790, 930.9921
599.5490, 1173.346
600.7180, 1429.694
601.8870, 1739.031
603.0560, 2039.564
604.2250, 2171.917
605.3940, 2195.450
606.5620, 2079.883
607.7300, 1870.307
608.8990, 1563.638
610.0670, 1389.192
611.2350, 1153.539
612.4020, 1080.079
613.5700, 1026.549
614.7370, 1032.958
615.9050, 1079.325
617.0720, 1162.932
618.2390, 1085.340
619.4060, 1060.156
620.5720, 906.5035
621.7390, 650.7909
622.9050, 449.1490
624.0710, 372.4559
625.2370, 259.8094
626.4030, 229.0738
627.5690, 163.3774
628.7340, 162.6481
629.9000, 132.8965
631.0650, 117.1375
632.2300, 141.3726
633.3950, 141.6022
634.5600, 159.8288
635.7240, 178.0499
636.8890, 189.2639
638.0530, 208.4728
639.2170, 228.6737
640.3810, 269.8666
641.5450, 256.0515
642.7080, 224.2540
643.8720, 246.5723
645.0350, 173.8959
646.1980, 128.1959
647.3610, 140.3524
648.5240, 94.64532
649.6870, 63.79364
650.8490, 51.92975
652.0120, 55.31476
653.1740, 60.43945
654.3360, 54.80377
655.4980, 37.17847
656.6600, 16.95245
657.8210, 36.03680
658.9830, 39.28265
660.1440, 36.41327
661.3050, 45.28564
662.4660, 55.28430
663.6270, 48.00189
664.7870, 42.42383
665.9480, 65.89795
667.1080, 51.61182
668.2680, 62.26025
669.4280, 36.89807
670.5880, 53.23212
671.7480, 66.42688
672.9070, 60.15662
674.0670, 66.54071
675.2260, 43.43329
676.3850, 43.71356
677.5440, 24.43329
678.7030, 42.27643
679.8610, 45.25375
681.0200, 42.19717
682.1780, 35.52954
683.3360, 28.16376
684.4940, 28.86646
685.6520, 38.65305
686.8090, 33.18835
687.9670, 46.77390
689.1240, 40.37106
690.2810, 39.63220
691.4380, 57.69763
692.5950, 45.76700
693.7520, 55.78876
694.9080, 75.61322
696.0650, 60.66107
697.2210, 38.00290
698.3770, 52.84946
699.5330, 65.87491
700.6880, 65.51059
701.8440, 69.32321
702.9990, 63.94052
704.1550, 55.54675
705.3100, 90.08923
706.4650, 73.32349
707.6190, 77.41174
708.7740, 69.67673
709.9290, 69.37827
711.0830, 72.63959
712.2370, 71.99689
713.3910, 67.82272
714.5450, 76.09689
715.6980, 79.31000
716.8520, 73.87350
718.0050, 88.44836
719.1580, 78.61447
720.3110, 75.38171
721.4640, 103.1049
722.6170, 78.66904
723.7700, 95.99402
724.9220, 72.32361
726.0740, 84.61310
727.2260, 100.8850
728.3780, 84.14023
729.5300, 78.37784
730.6810, 56.59729
731.8330, 74.79581
732.9840, 95.97586
734.1350, 100.1390
735.2860, 86.28543
736.4370, 101.2625
737.5880, 97.52661
738.7380, 97.62207
739.8880, 99.70068
741.0390, 72.76270
742.1890, 93.80615
743.3380, 71.83264
744.4880, 80.84076
745.6380, 80.83109
746.7870, 95.80389
747.9360, 67.75983
749.0850, 90.69696
750.2340, 67.61700
751.3830, 72.51843
752.5310, 77.40161
753.6800, 81.55951
754.8280, 60.40771
755.9760, 74.23645
757.1240, 48.04984
758.2720, 78.83951
759.4190, 103.7408
760.5670, 75.49634
761.7140, 80.23438
762.8610, 72.95538
764.0080, 95.65881
765.1550, 76.34564
766.3020, 80.01523
767.4480, 94.66803
768.5950, 92.30420
769.7410, 86.92377
770.8870, 90.52679
772.0330, 100.1133
773.1780, 95.68323
774.3240, 100.9866
775.4690, 88.77377
776.6140, 98.29443
777.7590, 91.79865
778.9040, 77.28656
780.0490, 67.75824
781.1940, 55.21332
782.3380, 53.65088
783.4820, 54.07062
784.6260, 69.47302
785.7700, 51.85919
786.9140, 65.22797
788.0580, 73.58057
789.2010, 42.91724
790.3450, 62.23566
791.4880, 41.53815
792.6310, 39.82239
793.7730, 24.08838
794.9160, 63.20190
796.0590, 42.43036
797.2010, 48.64178
798.3430, 17.83691
799.4850, 14.00928
800.6270, 20.15765
801.7690, 28.28461
802.9100, 25.39252
804.0520, 17.48108
805.1930, 1.451904
806.3340, 17.58545
807.4750, 25.58734
808.6160, 29.58563
809.7560, 12.56683
810.8970, 20.52631
812.0370, 7.466980
813.1770, 21.38416
814.3170, 7.717102
815.4570, 5.980713
816.5960, 27.80890
817.7360, 2.633606
818.8750, 15.58270
820.0140, 9.888184
821.1530, 2.677124
822.2920, 29.78003
823.4310, 4.192810
824.5690, 7.701599
825.7070, 29.11584
826.8460, 8.645508
827.9840, 38.22687
829.1220, 24.72375
830.2590, 7.364136
831.3970, 36.95117
832.5340, 9.518616
833.6710, 0.8376460
834.8080, 24.09387
835.9450, 27.87628
837.0820, 22.59802
838.2190, 26.36713
839.3550, 40.15161
840.4910, 13.95880
841.6270, 25.03436
842.7630, 4.848145
843.8990, 35.73529
845.0350, 23.64240
846.1700, 31.65106
847.3060, 25.70825
848.4410, 11.77728
849.5760, 36.87610
850.7100, 61.07727
851.8450, 12.26135
852.9800, 19.44073
854.1140, 20.70697
855.2480, 31.86609
856.3820, 26.14929
857.5160, 26.50940
858.6500, 4.683960
859.7830, 16.95044
860.9170, 0.7280270
862.0500, 22.27142
863.1830, 8.950684
864.3160, 34.72815
865.4480, 25.39331
866.5810, 44.99579
867.7130, 21.25397
868.8460, 48.80511
869.9780, 15.53400
871.1100, 71.27539
872.2410, 41.93524
873.3730, 13.66840
874.5050, 42.38586
875.6360, 35.09979
876.7670, 39.81519
877.8980, 60.32880
879.0290, 42.01672
880.1590, 11.51910
881.2900, 41.11908
882.4200, 10.71838
883.5500, 15.40362
884.6800, 17.85980
885.8100, 24.52148
886.9400, 17.98041
888.0690, 14.50378
889.1990, 15.92169
890.3280, 4.683838
891.4570, 11.04199
892.5860, 1.590759
893.7140, 23.72443
894.8430, 9.682739
895.9710, 24.96130
897.1000, 30.53070
898.2280, 3.142578
899.3560, 44.69904
900.4830, 30.33618
901.6110, 24.93079
902.7380, 21.55017
903.8660, 9.184631
904.9930, 16.81873
906.1200, 43.45264
907.2460, 53.08661
908.3730, 55.72095
909.5000, 62.32031
910.6260, 46.99133
911.7520, 51.62793
912.8780, 51.26581
914.0040, 31.90509
915.1290, 49.54614
916.2550, 59.16571
917.3800, 66.66638
918.5050, 56.16040
919.6300, 79.67303
920.7550, 65.32599
921.8800, 78.83881
923.0040, 43.49280
924.1290, 75.15564
925.2530, 81.56622
926.3770, 94.23297
927.5010, 118.6559
928.6250, 87.06433
929.7480, 131.0691
930.8720, 142.7589
931.9950, 123.2831
933.1180, 135.9192
934.2410, 135.8098
935.3640, 142.1337
936.4860, 184.6094
937.6090, 171.9406
938.7310, 185.2164
939.8530, 211.2500
940.9750, 269.3461
942.0970, 307.4506
943.2180, 366.8563
944.3400, 395.3990
945.4610, 473.4048
946.5820, 574.7543
947.7030, 638.5931
948.8240, 682.0433
949.9450, 720.0525
951.0650, 863.9364
952.1860, 929.6609
953.3060, 1088.442
954.4260, 1185.129
955.5460, 1426.218
956.6650, 1555.137
957.7850, 1828.071
958.9040, 2125.659
960.0230, 2494.076
961.1420, 2897.199
962.2610, 3464.657
963.3800, 4184.311
964.4990, 4981.865
965.6170, 6111.563
966.7350, 7480.459
967.8530, 9401.133
968.9710, 12180.52
970.0890, 16046.39
971.2070, 20880.09
972.3240, 27575.18
973.4410, 35373.10
974.5580, 44052.21
975.6750, 52246.33
976.7920, 58383.53
977.9090, 60700.03
979.0250, 58794.68
980.1410, 52319.15
981.2580, 43525.19
982.3740, 34185.68
983.4890, 25966.07
984.6050, 19921.00
985.7200, 15127.48
986.8360, 12039.02
987.9510, 9513.225
989.0660, 7909.414
990.1810, 6508.018
991.2950, 5538.022
992.4100, 4771.075
993.5240, 4068.292
994.6390, 3658.751
995.7530, 3161.211
996.8660, 2937.714
997.9800, 2579.240
999.0940, 2327.788
1000.207, 2157.358
1001.320, 1995.950
1002.433, 1734.568
1003.546, 1704.208
1004.659, 1480.872
1005.772, 1412.559
1006.884, 1333.268
1007.996, 1244.001
1009.108, 1173.757
1010.220, 1044.536
1011.332, 1028.339
1012.444, 956.1670
1013.555, 865.0186
1014.666, 832.8948
1015.777, 768.7959
1016.888, 747.7218
1017.999, 751.6716
1019.110, 716.6467
1020.220, 664.6466
1021.331, 646.6719
1022.441, 665.7227
1023.551, 590.5062
1024.661, 631.6143
1025.770, 580.7488
1026.880, 537.9087
1027.989, 589.1045
1029.098, 504.1973
1030.207, 547.4480
1031.316, 525.7246
1032.425, 454.0291
1033.533, 453.3655
1034.642, 451.7365
1035.750, 461.1392
1036.858, 449.5806
1037.966, 427.0529
1039.073, 412.5635
1040.181, 419.1101
1041.288, 415.6885
1042.396, 394.2986
1043.503, 418.9478
1044.610, 429.6292
1045.716, 464.3414
1046.823, 477.0929
1047.929, 501.8779
1049.036, 529.6926
1050.142, 547.5389
1051.248, 587.4136
1052.353, 638.3225
1053.459, 666.2593
1054.564, 712.2321
1055.670, 689.2354
1056.775, 694.2708
1057.880, 747.3428
1058.985, 776.4502
1060.089, 737.5955
1061.194, 759.7787
1062.298, 742.9963
1063.402, 691.2493
1064.506, 712.5344
1065.610, 700.8518
1066.713, 624.2029
1067.817, 607.5898
1068.920, 553.0159
1070.023, 554.4805
1071.126, 504.9808
1072.229, 482.5179
1073.332, 417.0901
1074.435, 395.7008
1075.537, 367.3447
1076.639, 337.6555
1077.741, 311.7272
1078.843, 302.4722
1079.945, 330.2484
1081.046, 321.0593
1082.148, 281.9014
1083.249, 282.7880
1084.350, 241.7095
1085.451, 258.6621
1086.551, 279.6539
1087.652, 249.6860
1088.752, 284.7576
1089.853, 251.8630
1090.953, 271.0127
1092.053, 258.1995
1093.152, 235.4216
1094.252, 260.6848
1095.351, 281.9832
1096.451, 291.3282
1097.550, 283.7120
1098.649, 275.1326
1099.748, 300.7666
1100.846, 362.0944
1101.945, 338.6287
1103.043, 382.2567
1104.141, 381.8691
1105.239, 434.5193
1106.337, 437.2065
1107.434, 448.9371
1108.532, 462.6959
1109.629, 472.5210
1110.726, 538.3480
1111.823, 511.3339
1112.920, 566.2358
1114.017, 596.3628
1115.113, 601.3374
1116.210, 674.3434
1117.306, 684.3868
1118.402, 671.4749
1119.498, 718.5933
1120.593, 737.7441
1121.689, 807.9281
1122.784, 818.1489
1123.879, 885.4023
1124.974, 895.6899
1126.069, 919.0051
1127.164, 928.3467
1128.259, 999.7142
1129.353, 1031.108
1130.447, 1047.528
1131.541, 1119.974
1132.635, 1114.445
1133.729, 1115.987
1134.822, 1213.509
1135.916, 1218.119
1137.009, 1204.697
1138.102, 1251.295
1139.195, 1200.918
1140.288, 1297.565
1141.380, 1257.237
1142.473, 1253.936
1143.565, 1194.788
1144.657, 1137.536
1145.749, 1122.308
1146.841, 1099.177
1147.932, 1046.996
1149.024, 1022.839
1150.115, 1001.705
1151.206, 992.5947
1152.297, 973.9324
1153.388, 985.4429
1154.479, 931.4015
1155.569, 897.8707
1156.659, 838.8765
1157.750, 830.3767
1158.839, 800.6697
1159.929, 756.7415
1161.019, 707.5442
1162.108, 667.6602
1163.198, 578.1489
1164.287, 516.5129
1165.376, 484.5825
1166.465, 395.9760
1167.553, 377.0018
1168.642, 351.2097
1169.730, 313.1672
1170.818, 316.5891
1171.906, 295.9692
1172.994, 240.3728
1174.082, 217.5132
1175.170, 174.0237
1176.257, 154.2665
1177.344, 144.3770
1178.431, 166.2655
1179.518, 145.1204
1180.605, 159.4674
1181.691, 157.9890
1182.778, 154.7615
1183.864, 144.2556
1184.950, 144.6538
1186.036, 145.6354
1187.122, 129.0464
1188.207, 147.7467
1189.292, 124.6689
1190.378, 161.5710
1191.463, 125.1331
1192.548, 140.9791
1193.632, 106.4879
1194.717, 133.0385
1195.801, 84.42212
1196.886, 105.2402
1197.970, 101.9159
1199.054, 99.91956
1200.137, 78.36682
1201.221, 78.35693
1202.305, 84.57861
1203.388, 63.00330
1204.471, 51.47217
1205.554, 67.58386
1206.637, 73.77197
1207.719, 48.86353
1208.802, 54.11725
1209.884, 56.07672
1210.966, 93.32904
1212.048, 53.38495
1213.130, 62.07776
1214.212, 105.4235
1215.293, 104.7452
1216.374, 63.98560
1217.456, 96.39044
1218.536, 103.9772
1219.617, 64.13983
1220.698, 109.7037
1221.778, 96.27527
1222.859, 102.2516
1223.939, 52.28461
1225.019, 93.29785
1226.099, 76.16412
1227.178, 72.13904
1228.258, 75.74969
1229.337, 60.64520
1230.417, 52.45129
1231.496, 21.15747
1232.574, 6.765503
1233.653, 15.68384
1234.732, 8.860657
1235.810, 22.84607
1236.888, 4.349731
