##NAMES=Anhydrite
##RRUFFID=R040061
##IDEAL CHEMISTRY=CaS^6+^O_4_
##LOCALITY=Chester County, Pennsylvania, USA
##OWNER=RRUFF
##SOURCE=University of Arizona Mineral Museum
##DESCRIPTION=Pale purple fractured single crystal
##STATUS=The identification of this mineral has been confirmed by X-ray diffraction and chemical analysis
##URL=rruff.info/R040061
##MEASURED CHEMISTRY=Ca_0.98_S_1.01_O_4_
##PIN_ID=M00472
##ORIENTATION=Laser parallel to b* (0 1 0). Fiducial mark perpendicular to laser is parallel to c [0 0 1]
87.798, 0.000
89.193, 2.797
90.587, 16.721
91.981, 26.751
93.375, 48.363
94.768, 38.779
96.161, 52.733
97.554, 21.526
98.947, 59.393
100.340, 46.760
101.732, 43.528
103.124, 64.627
104.516, 61.033
105.908, 91.672
107.300, 94.498
108.691, 65.403
110.082, 109.426
111.473, 91.770
112.864, 95.314
114.254, 148.784
115.644, 315.385
117.034, 662.065
118.424, 1074.880
119.813, 1653.965
121.203, 2053.000
122.592, 1951.986
123.981, 1190.824
125.369, 497.678
126.758, 203.518
128.146, 120.211
129.534, 113.766
130.922, 60.199
132.309, 58.547
133.696, 3.793
135.083, 17.955
136.470, 26.751
137.857, 32.610
139.243, 24.408
140.630, 33.937
142.016, 35.309
143.401, 45.022
144.787, 32.641
146.172, 39.164
147.557, 26.395
148.942, 18.797
150.327, 31.022
151.711, 17.488
153.096, 11.713
154.480, 46.748
155.863, 6.966
157.247, 59.096
158.630, 16.517
160.013, 49.561
161.396, 33.360
162.779, 67.765
164.161, 106.784
165.544, 223.658
166.926, 269.300
168.308, 227.965
169.689, 169.590
171.070, 91.195
172.452, 68.860
173.833, 77.590
175.213, 36.305
176.594, 0.936
177.974, 43.759
179.354, 19.406
180.734, 12.218
182.114, 35.944
183.493, 26.435
184.872, 24.097
186.251, 21.109
187.630, 17.096
189.008, 38.031
190.387, 15.711
191.765, 8.380
193.143, 38.051
194.520, 7.061
195.898, 0.162
197.275, 1.219
198.652, 39.136
200.029, 22.096
201.405, 20.764
202.782, 36.388
204.158, 28.970
205.534, 39.712
206.909, 1.862
208.285, 10.091
209.660, 32.468
211.035, 4.625
212.410, 15.138
213.784, 12.567
215.159, 31.009
216.533, 17.485
217.907, 31.306
219.281, 33.589
220.654, 32.258
222.027, 25.693
223.400, 17.196
224.773, 16.734
226.146, 45.144
227.518, 4.986
228.891, 48.377
230.263, 22.772
231.634, 35.676
233.006, 40.667
234.377, 41.989
235.748, 3.690
237.119, 3.369
238.490, 18.953
239.860, 10.661
241.231, 18.661
242.601, 15.970
243.970, 54.269
245.340, 67.560
246.709, 40.845
248.079, 24.126
249.448, 35.408
250.816, 26.694
252.185, 31.981
253.553, 28.610
254.921, 25.838
256.289, 23.383
257.657, 19.283
259.024, 23.205
260.391, 17.142
261.758, 42.090
263.125, 32.045
264.492, 39.003
265.858, 64.963
267.224, 7.923
268.590, 45.880
269.956, 59.833
271.321, 20.782
272.687, 19.725
274.052, 24.663
275.416, 13.593
276.781, 67.515
278.146, 1.573
279.510, 59.330
280.874, 40.223
282.237, 23.106
283.601, 3.979
284.964, 2.840
286.327, 52.688
287.690, 5.525
289.053, 29.351
290.416, 61.167
291.778, 31.971
293.140, 58.766
294.502, 36.551
295.863, 79.327
297.225, 53.090
298.586, 6.845
299.947, 41.553
301.308, 1.745
302.668, 21.052
304.029, 15.629
305.389, 8.302
306.749, 49.954
308.108, 2.405
309.468, 6.228
310.827, 14.829
312.186, 33.422
313.545, 27.997
314.903, 32.542
316.262, 58.069
317.620, 39.585
318.978, 29.105
320.336, 0.592
321.693, 2.896
323.051, 26.392
324.408, 4.925
325.765, 27.538
327.121, 24.014
328.478, 30.415
329.834, 30.842
331.190, 53.266
332.546, 12.310
333.902, 38.107
335.257, 43.523
336.612, 18.938
337.967, 73.351
339.322, 16.761
340.677, 48.892
342.031, 57.299
343.385, 62.690
344.739, 41.050
346.093, 2.119
347.446, 35.276
348.799, 16.670
350.153, 51.052
351.505, 38.415
352.858, 45.800
354.210, 39.152
355.563, 43.467
356.915, 16.847
358.267, 6.496
359.618, 38.491
360.969, 64.422
362.321, 50.776
363.672, 4.891
365.022, 39.434
366.373, 29.780
367.723, 49.969
369.073, 26.309
370.423, 23.314
371.773, 2.493
373.122, 37.821
374.471, 98.329
375.821, 70.185
377.169, 57.223
378.518, 34.538
379.866, 40.817
381.215, 42.160
382.563, 36.521
383.910, 51.889
385.258, 55.232
386.605, 64.376
387.952, 8.126
389.299, 72.497
390.646, 76.765
391.992, 52.134
393.339, 101.470
394.685, 92.193
396.031, 116.580
397.376, 93.967
398.722, 56.740
400.067, 65.545
401.412, 61.905
402.757, 113.288
404.101, 73.656
405.446, 48.014
406.790, 112.429
408.134, 117.843
409.478, 80.361
410.821, 108.758
412.165, 61.269
413.508, 137.745
414.851, 64.170
416.193, 102.593
417.536, 92.169
418.878, 95.622
420.220, 82.000
421.562, 93.875
422.904, 102.821
424.245, 121.233
425.586, 112.643
426.927, 135.053
428.268, 73.459
429.609, 73.764
430.949, 86.164
432.289, 128.561
433.629, 110.914
434.969, 182.257
436.309, 143.617
437.648, 169.927
438.987, 159.308
440.326, 81.270
441.665, 141.644
443.003, 111.016
444.342, 173.344
445.680, 198.543
447.018, 193.711
448.355, 141.070
449.693, 178.279
451.030, 207.615
452.367, 258.965
453.704, 226.304
455.041, 221.650
456.377, 243.993
457.713, 225.333
459.049, 286.670
460.385, 303.865
461.721, 378.204
463.056, 425.085
464.391, 418.755
465.726, 442.006
467.061, 422.208
468.395, 506.535
469.730, 505.368
471.064, 473.542
472.398, 574.777
473.731, 588.086
475.065, 596.371
476.398, 708.673
477.731, 784.986
479.064, 861.297
480.397, 960.580
481.729, 1079.607
483.062, 1331.417
484.394, 1481.754
485.725, 1683.441
487.057, 2149.708
488.389, 2653.201
489.720, 3316.477
491.051, 4380.757
492.382, 5903.052
493.712, 8110.297
495.043, 10786.588
496.373, 13466.878
497.703, 15388.102
499.032, 14609.386
500.362, 11846.597
501.691, 8821.878
503.020, 6107.163
504.349, 4400.442
505.678, 3188.780
507.007, 2333.781
508.335, 1698.151
509.663, 1419.374
510.991, 1075.745
512.319, 870.025
513.646, 732.356
514.973, 566.632
516.300, 509.907
517.627, 434.121
518.954, 340.296
520.280, 323.570
521.607, 311.844
522.933, 252.130
524.259, 212.031
525.584, 159.444
526.910, 149.209
528.235, 130.761
529.560, 149.312
530.885, 129.712
532.209, 146.880
533.534, 156.188
534.858, 99.527
536.182, 91.618
537.506, 68.899
538.829, 45.398
540.152, 55.331
541.476, 80.097
542.799, 54.183
544.121, 83.801
545.444, 5.213
546.766, 88.140
548.088, 55.498
549.410, 6.764
550.732, 53.113
552.053, 73.320
553.375, 69.737
554.696, 64.564
556.017, 106.902
557.337, 60.217
558.658, 77.707
559.978, 41.306
561.298, 39.657
562.618, 52.667
563.938, 59.076
565.257, 48.310
566.576, 47.600
567.895, 15.933
569.214, 64.225
570.533, 17.442
571.851, 28.873
573.170, 51.127
574.488, 49.453
575.805, 5.651
577.123, 29.983
578.440, 66.320
579.758, 28.504
581.075, 53.000
582.391, 97.291
583.708, 73.461
585.024, 106.293
586.341, 78.570
587.657, 115.790
588.972, 116.943
590.288, 87.092
591.603, 70.282
592.918, 46.422
594.233, 63.594
595.548, 82.725
596.863, 110.852
598.177, 83.011
599.491, 123.131
600.805, 58.387
602.119, 73.511
603.432, 76.707
604.746, 108.810
606.059, 83.909
607.372, 125.003
608.685, 162.094
609.997, 118.299
611.309, 120.380
612.621, 74.719
613.933, 107.792
615.245, 94.935
616.557, 98.999
617.868, 100.082
619.179, 156.699
620.490, 162.756
621.801, 331.139
623.111, 429.189
624.421, 838.234
625.731, 1257.275
627.041, 1461.325
628.351, 1004.457
629.660, 525.487
630.970, 301.512
632.279, 151.608
633.588, 184.625
634.896, 156.865
636.205, 79.871
637.513, 72.873
638.821, 91.897
640.129, 116.891
641.437, 128.882
642.744, 147.799
644.051, 113.876
645.358, 174.865
646.665, 144.857
647.972, 147.536
649.278, 161.574
650.584, 145.508
651.890, 156.487
653.196, 148.459
654.502, 129.428
655.807, 104.396
657.113, 96.355
658.418, 76.508
659.722, 68.326
661.027, 59.272
662.331, 36.213
663.636, 54.148
664.940, 30.080
666.244, 54.007
667.547, 28.929
668.851, 64.846
670.154, 37.758
671.457, 56.665
672.760, 160.566
674.062, 138.463
675.365, 178.356
676.667, 75.244
677.969, 69.127
679.271, 47.005
680.572, 70.879
681.874, 15.749
683.175, 12.614
684.476, 13.374
685.777, 2.676
687.077, 16.164
688.378, 35.999
689.678, 41.828
690.978, 34.653
692.278, 51.528
693.577, 55.254
694.877, 73.969
696.176, 17.241
697.475, 46.532
698.774, 19.858
700.072, 3.795
701.371, 2.560
702.669, 27.020
703.967, 11.427
705.265, 46.050
706.562, 25.572
707.860, 6.817
709.157, 8.782
710.454, 48.626
711.751, 26.931
713.047, 31.483
714.344, 5.029
715.640, 61.432
716.936, 21.065
718.232, 20.443
719.527, 7.028
720.823, 62.493
722.118, 31.954
723.413, 20.410
724.708, 28.758
726.002, 66.203
727.297, 28.454
728.591, 33.906
729.885, 15.317
731.179, 48.724
732.472, 10.961
733.766, 8.302
735.059, 54.693
736.352, 14.981
737.645, 15.389
738.937, 79.755
740.230, 4.884
741.522, 12.467
742.814, 26.813
744.106, 96.155
745.397, 78.492
746.689, 29.825
747.980, 64.154
749.271, 31.479
750.562, 40.800
751.853, 63.117
753.143, 30.430
754.433, 79.739
755.723, 5.043
757.013, 35.343
758.303, 16.639
759.592, 52.931
760.881, 56.219
762.170, 46.503
763.459, 46.784
764.748, 8.061
766.036, 79.333
767.325, 1.398
768.613, 45.865
769.901, 17.124
771.188, 46.378
772.476, 28.630
773.763, 23.122
775.050, 32.108
776.337, 3.664
777.624, 72.556
778.910, 66.773
780.196, 97.987
781.482, 29.198
782.768, 8.405
784.054, 62.607
785.339, 62.807
786.625, 13.004
787.910, 52.197
789.195, 2.613
790.479, 60.579
791.764, 91.769
793.048, 22.957
794.332, 117.143
795.616, 111.341
796.900, 75.536
798.183, 26.729
799.467, 42.919
800.750, 96.114
802.033, 12.694
803.316, 132.494
804.598, 23.679
805.880, 42.862
807.163, 56.041
808.445, 27.218
809.726, 24.392
811.008, 75.563
812.289, 8.732
813.570, 100.899
814.851, 27.063
816.132, 47.225
817.413, 55.327
818.693, 59.485
819.973, 56.556
821.253, 68.234
822.533, 73.769
823.813, 89.917
825.092, 62.010
826.371, 79.153
827.650, 92.294
828.929, 63.433
830.208, 116.569
831.486, 87.703
832.764, 56.835
834.042, 99.951
835.320, 110.079
836.598, 110.061
837.875, 95.036
839.152, 73.013
840.429, 183.402
841.706, 108.393
842.983, 81.466
844.259, 166.570
845.536, 72.646
846.812, 139.983
848.088, 24.131
849.363, 153.060
850.639, 137.550
851.914, 86.205
853.189, 77.536
854.464, 92.332
855.739, 130.756
857.013, 83.807
858.288, 82.793
859.562, 170.925
860.836, 156.971
862.110, 110.154
863.383, 144.125
864.656, 160.693
865.930, 74.746
867.203, 89.820
868.475, 100.717
869.748, 66.504
871.020, 24.536
872.292, 63.910
873.564, 69.881
874.836, 42.024
876.108, 97.108
877.379, 111.145
878.650, 121.219
879.922, 73.365
881.192, 63.292
882.463, 51.395
883.733, 37.420
885.004, 66.571
886.274, 50.583
887.544, 111.608
888.813, 120.783
890.083, 114.643
891.352, 42.709
892.621, 65.893
893.890, 61.422
895.159, 65.484
896.427, 55.612
897.695, 99.804
898.964, 61.998
900.232, 80.146
901.499, 55.342
902.767, 122.502
904.034, 80.702
905.301, 69.902
906.568, 129.066
907.835, 54.269
909.102, 97.333
910.368, 94.527
911.634, 103.646
912.900, 43.858
914.166, 87.078
915.432, 13.300
916.697, 26.523
917.962, 66.629
919.227, 78.856
920.492, 37.823
921.757, 50.052
923.021, 71.208
924.285, 104.441
925.550, 70.651
926.813, 91.325
928.077, 68.556
929.341, 53.460
930.604, 101.701
931.867, 32.945
933.130, 74.190
934.393, 153.425
935.655, 31.576
936.918, 161.828
938.180, 39.083
939.442, 89.274
940.703, 119.552
941.965, 79.368
943.226, 57.724
944.488, 22.391
945.749, 94.630
947.009, 112.640
948.270, 67.911
949.530, 67.292
950.791, 61.561
952.051, 24.554
953.311, 60.932
954.570, 91.577
955.830, 103.940
957.089, 120.265
958.348, 132.120
959.607, 158.832
960.866, 133.119
962.124, 138.469
963.383, 109.761
964.641, 182.205
965.899, 142.591
967.156, 147.903
968.414, 163.375
969.671, 149.690
970.928, 214.006
972.185, 140.325
973.442, 217.645
974.699, 190.966
975.955, 285.289
977.211, 220.613
978.468, 280.938
979.723, 231.265
980.979, 266.592
982.234, 372.921
983.490, 281.252
984.745, 324.630
986.000, 359.040
987.254, 273.375
988.509, 384.897
989.763, 381.235
991.017, 384.110
992.271, 531.467
993.525, 517.864
994.779, 553.102
996.032, 660.433
997.285, 922.008
998.538, 1025.396
999.791, 1335.955
1001.044, 1344.485
1002.296, 1438.065
1003.548, 1446.484
1004.800, 1643.911
1006.052, 1980.340
1007.304, 2448.773
1008.555, 3166.209
1009.807, 4162.647
1011.058, 5863.086
1012.309, 9210.525
1013.559, 15517.971
1014.810, 28845.416
1016.060, 47988.891
1017.310, 57600.348
1018.560, 45335.832
1019.810, 26286.299
1021.060, 14094.808
1022.309, 8175.312
1023.558, 5398.826
1024.807, 3738.341
1026.056, 2795.855
1027.305, 2180.371
1028.553, 1677.886
1029.801, 1408.401
1031.049, 1129.917
1032.297, 1002.529
1033.545, 839.053
1034.793, 686.688
1036.040, 648.253
1037.287, 550.411
1038.534, 521.241
1039.781, 503.891
1041.027, 459.482
1042.274, 308.060
1043.520, 367.732
1044.766, 256.392
1046.012, 258.398
1047.257, 218.078
1048.503, 315.637
1049.748, 246.202
1050.993, 282.876
1052.238, 229.439
1053.483, 179.002
1054.727, 187.565
1055.971, 206.127
1057.216, 193.694
1058.459, 193.415
1059.703, 107.979
1060.947, 161.665
1062.190, 126.760
1063.433, 38.712
1064.676, 95.348
1065.919, 71.960
1067.162, 174.516
1068.404, 45.071
1069.646, 31.671
1070.888, 94.225
1072.130, 63.791
1073.372, 55.340
1074.613, 131.888
1075.855, 125.434
1077.096, 138.984
1078.337, 182.532
1079.578, 120.088
1080.818, 190.673
1082.059, 117.267
1083.299, 98.970
1084.539, 128.530
1085.779, 96.229
1087.018, 66.811
1088.258, 25.343
1089.497, 23.934
1090.736, 32.541
1091.975, 7.154
1093.213, 8.294
1094.452, 68.205
1095.690, 62.911
1096.928, 45.551
1098.166, 6.152
1099.404, 37.607
1100.642, 29.941
1101.879, 9.492
1103.116, 19.078
1104.353, 14.390
1105.590, 22.008
1106.827, 63.422
1108.063, 55.964
1109.299, 62.511
1110.536, 22.595
1111.771, 61.997
1113.007, 1.454
1114.243, 17.161
1115.478, 45.770
1116.713, 4.162
1117.948, 115.541
1119.183, 45.981
1120.418, 49.475
1121.652, 131.841
1122.886, 121.205
1124.120, 128.563
1125.354, 98.917
1126.588, 190.268
1127.821, 95.614
1129.055, 226.956
1130.288, 266.293
1131.521, 155.743
1132.753, 37.071
1133.986, 30.395
1135.218, 96.712
1136.450, 30.934
1137.682, 86.385
1138.914, 20.226
1140.146, 48.041
1141.377, 39.356
1142.609, 25.388
1143.840, 10.710
1145.071, 30.367
1146.301, 49.143
1147.532, 8.698
1148.762, 22.068
1149.992, 12.245
1151.222, 73.435
1152.452, 70.597
1153.682, 172.754
1154.911, 230.183
1156.140, 351.472
1157.369, 660.948
1158.598, 1311.246
1159.827, 2264.646
1161.055, 2700.773
1162.284, 2064.886
1163.512, 1234.929
1164.740, 589.029
1165.967, 284.014
1167.195, 240.252
1168.422, 181.426
1169.650, 170.501
1170.877, 112.679
1172.103, 137.739
1173.330, 100.510
1174.557, 160.017
1175.783, 75.055
1177.009, 74.087
1178.235, 93.111
1179.461, 47.128
1180.686, 143.138
1181.912, 42.139
1183.137, 59.205
1184.362, 62.669
1185.587, 8.622
1186.811, 40.822
1188.036, 4.813
1189.260, 62.227
1190.484, 42.652
1191.708, 46.810
1192.932, 8.278
1194.155, 47.485
1195.378, 78.502
1196.602, 115.783
1197.825, 51.690
1199.047, 134.681
1200.270, 80.809
1201.492, 144.815
1202.715, 87.866
1203.937, 133.935
1205.159, 43.812
1206.380, 86.589
1207.602, 52.359
1208.823, 9.222
1210.044, 6.031
1211.265, 63.698
1212.486, 69.424
1213.707, 132.135
1214.927, 90.073
1216.147, 71.769
1217.367, 128.758
1218.587, 80.442
1219.807, 116.116
1221.027, 84.783
1222.246, 105.441
1223.465, 85.091
1224.684, 115.732
1225.903, 83.416
1227.121, 76.040
1228.340, 73.654
1229.558, 47.259
1230.776, 80.854
1231.994, 47.439
1233.212, 75.163
1234.429, 95.842
1235.646, 72.385
1236.864, 172.911
1238.081, 41.662
1239.297, 75.092
1240.514, 126.206
1241.730, 16.713
1242.947, 109.655
1244.163, 49.147
1245.378, 183.701
1246.594, 166.215
1247.810, 108.964
1249.025, 101.562
1250.240, 70.953
1251.455, 34.336
1252.670, 110.872
1253.885, 147.731
1255.099, 24.135
1256.313, 4.531
1257.527, 97.855
1258.741, 47.298
1259.955, 30.453
1261.168, 36.276
1262.382, 82.063
1263.595, 86.236
1264.808, 68.558
1266.021, 54.870
1267.233, 114.250
1268.446, 96.544
1269.658, 114.832
1270.870, 99.109
1272.082, 100.407
1273.294, 108.667
1274.505, 110.949
1275.716, 88.177
1276.928, 57.384
1278.139, 119.583
1279.349, 87.727
1280.560, 126.833
1281.770, 76.007
1282.981, 77.064
1284.191, 59.223
1285.401, 83.834
1286.610, 69.951
1287.820, 91.015
1289.029, 9.208
1290.239, 51.298
1291.448, 15.126
1292.656, 11.149
1293.865, 33.988
1295.073, 91.863
1296.282, 73.875
1297.490, 106.680
1298.698, 83.664
1299.906, 19.639
1301.113, 44.603
1302.320, 13.558
1303.528, 39.502
1304.735, 20.438
1305.942, 77.364
1307.148, 85.283
1308.355, 2.808
1309.561, 124.087
1310.767, 18.025
1311.973, 42.845
1313.179, 21.293
1314.384, 94.549
1315.590, 52.382
1316.795, 110.203
1318.000, 36.016
1319.205, 113.813
1320.410, 115.601
1321.614, 98.381
1322.819, 142.151
1324.023, 117.913
1325.227, 107.970
1326.431, 82.323
1327.634, 60.947
1328.838, 44.631
1330.041, 8.545
1331.244, 16.280
1332.447, 13.311
1333.650, 40.318
1334.852, 15.051
1336.055, 15.478
1337.257, 31.987
1338.459, 8.194
1339.661, 33.694
1340.862, 13.693
1342.064, 55.907
1343.265, 33.389
1344.466, 10.975
1345.667, 25.553
1346.868, 17.974
1348.068, 11.312
1349.269, 50.239
1350.469, 87.629
1351.669, 141.168
1352.869, 46.582
1354.069, 106.576
1355.268, 76.560
1356.468, 69.002
1357.667, 140.521
1358.866, 18.312
1360.065, 159.819
1361.263, 11.427
1362.462, 129.927
1363.660, 128.410
1364.858, 112.039
1366.056, 79.583
1367.254, 195.075
1368.451, 144.568
1369.649, 58.022
1370.846, 165.464
1372.043, 80.854
1373.240, 81.166
1374.436, 74.336
1375.633, 119.622
1376.829, 33.740
1378.025, 41.987
1379.221, 158.215
1380.417, 123.361
1381.613, 90.812
1382.808, 119.525
1384.003, 124.308
1385.199, 85.748
1386.393, 24.436
1387.588, 101.264
1388.783, 26.044
1389.977, 59.655
1391.171, 74.174
1392.365, 17.236
1393.559, 112.605
1394.753, 55.841
1395.946, 24.487
1397.140, 0.054
1398.333, 88.745
1399.526, 88.423
1400.719, 93.090
1401.911, 49.609
1403.104, 151.251
1404.296, 89.835
1405.488, 152.319
1406.680, 150.899
1407.872, 105.005
1409.063, 166.131
1410.255, 46.107
1411.446, 146.730
1412.637, 93.372
1413.828, 130.466
1415.018, 57.436
1416.209, 154.676
1417.399, 55.034
1418.589, 180.083
1419.779, 120.588
1420.969, 142.930
1422.159, 112.166
1423.348, 263.638
1424.537, 76.102
1425.726, 40.558
1426.915, 184.901
1428.104, 124.649
1429.293, 166.586
1430.481, 54.542
1431.669, 218.613
1432.857, 211.208
1434.045, 113.219
1435.233, 217.801
1436.420, 224.398
1437.608, 177.471
1438.795, 216.721
1439.982, 199.794
1441.169, 205.032
1442.355, 259.867
1443.542, 315.559
1444.728, 335.744
1445.914, 331.916
1447.100, 400.077
1448.286, 362.130
1449.472, 368.609
1450.657, 429.402
1451.842, 339.019
1453.027, 358.135
1454.212, 355.247
1455.397, 365.346
1456.581, 415.040
1457.766, 422.628
1458.950, 380.135
1460.134, 438.078
1461.318, 273.734
1462.501, 246.721
1463.685, 357.529
1464.868, 282.458
1466.051, 298.360
1467.234, 222.247
1468.417, 308.925
1469.600, 239.765
1470.782, 349.514
1471.965, 232.269
1473.147, 317.188
1474.329, 270.086
1475.510, 185.731
1476.692, 167.573
1477.873, 180.478
1479.055, 152.525
1480.236, 270.638
1481.416, 196.799
1482.597, 187.986
1483.778, 211.175
1484.958, 75.380
1486.138, 176.585
1487.318, 268.792
1488.498, 101.007
1489.678, 128.235
1490.857, 165.473
1492.037, 233.755
1493.216, 46.091
1494.395, 51.483
1495.574, 65.910
1496.752, 9.619
1497.931, 90.908
1499.109, 32.496
1500.287, 2.149
1501.465, 79.618
1502.643, 12.320
1503.820, 136.540
1504.998, 101.468
1506.175, 21.476
1507.352, 40.577
1508.529, 137.785
1509.706, 76.110
1510.882, 51.729
1512.059, 131.819
1513.235, 88.971
1514.411, 37.936
1515.587, 146.570
1516.762, 43.973
1517.938, 98.035
1519.113, 20.924
1520.288, 107.707
1521.463, 91.796
1522.638, 0.283
1523.813, 0.000
##END=



