##NAMES=Anhydrite
##RRUFFID=R040061
##IDEAL CHEMISTRY=CaS^6+^O_4_
##LOCALITY=Chester County, Pennsylvania, USA
##OWNER=RRUFF
##SOURCE=University of Arizona Mineral Museum
##DESCRIPTION=Pale purple fractured single crystal
##STATUS=The identification of this mineral has been confirmed by X-ray diffraction and chemical analysis
##URL=rruff.info/R040061
##MEASURED CHEMISTRY=Ca_0.98_S_1.01_O_4_
##PIN_ID=M00369
##ORIENTATION=Laser parallel to a* (1 0 0). Fiducial mark perpendicular to laser is parallel to b [0 1 0]
90.587, 0.000
91.981, 4.485
93.375, 0.366
94.768, 33.783
96.161, 22.595
97.554, 2.880
98.947, 13.517
100.340, 8.423
101.732, 39.555
103.124, 34.870
104.516, 14.330
105.908, 70.909
107.300, 55.585
108.691, 47.340
110.082, 33.216
111.473, 75.187
112.864, 80.210
114.254, 194.288
115.644, 329.399
117.034, 493.541
118.424, 437.712
119.813, 451.908
121.203, 626.124
122.592, 631.354
123.981, 399.597
125.369, 194.851
126.758, 112.114
128.146, 124.385
129.534, 191.168
130.922, 218.398
132.309, 161.647
133.696, 97.922
135.083, 70.762
136.470, 43.127
137.857, 49.534
139.243, 74.952
140.630, 51.372
142.016, 50.793
143.401, 39.235
144.787, 15.692
146.172, 47.167
147.557, 38.626
148.942, 4.070
150.327, 10.503
151.711, 0.923
153.096, 18.331
154.480, 24.729
155.863, 3.117
157.247, 24.510
158.630, 27.906
160.013, 38.291
161.396, 62.686
162.779, 59.083
164.161, 50.469
165.544, 11.844
166.926, 8.791
168.308, 16.563
169.689, 15.907
171.070, 56.245
172.452, 49.933
173.833, 33.248
175.213, 6.556
176.594, 3.292
177.974, 3.526
179.354, 34.212
180.734, 0.536
182.114, 25.715
183.493, 42.191
184.872, 19.096
186.251, 23.289
187.630, 8.483
189.008, 5.480
190.387, 31.877
191.765, 9.060
193.143, 18.365
194.520, 32.707
195.898, 22.876
197.275, 52.516
198.652, 26.045
200.029, 33.768
201.405, 16.909
202.782, 7.146
204.158, 36.288
205.534, 29.432
206.909, 48.576
208.285, 38.835
209.660, 56.979
211.035, 21.173
212.410, 42.338
213.784, 43.495
215.159, 48.661
216.533, 72.802
217.907, 68.048
219.281, 75.115
220.654, 72.423
222.027, 78.790
223.400, 84.806
224.773, 92.020
226.146, 126.307
227.518, 187.427
228.891, 193.546
230.263, 280.429
231.634, 268.976
233.006, 251.587
234.377, 208.687
235.748, 157.805
237.119, 114.904
238.490, 101.002
239.860, 56.100
241.231, 64.198
242.601, 30.294
243.970, 43.391
245.340, 11.486
246.709, 25.581
248.079, 46.675
249.448, 6.874
250.816, 19.966
252.185, 7.057
253.553, 0.852
254.921, 37.237
256.289, 16.379
257.657, 12.531
259.024, 16.687
260.391, 6.085
261.758, 9.929
263.125, 0.726
264.492, 6.425
265.858, 17.712
267.224, 1.938
268.590, 12.167
269.956, 21.400
271.321, 28.636
272.687, 8.876
274.052, 17.883
275.416, 35.358
276.781, 7.599
278.146, 13.158
279.510, 13.081
280.874, 52.320
282.237, 30.559
283.601, 41.798
284.964, 27.036
286.327, 14.274
287.690, 45.511
289.053, 7.253
290.416, 43.980
291.778, 41.213
293.140, 28.444
294.502, 1.668
295.863, 9.109
297.225, 34.111
298.586, 25.329
299.947, 21.544
301.308, 2.243
302.668, 45.967
304.029, 19.177
305.389, 11.616
306.749, 3.414
308.108, 41.786
309.468, 31.984
310.827, 65.180
312.186, 21.375
313.545, 2.568
314.903, 17.759
316.262, 11.948
317.620, 35.136
318.978, 31.323
320.336, 40.509
321.693, 24.694
323.051, 24.878
324.408, 2.060
325.765, 20.240
327.121, 33.419
328.478, 4.597
329.834, 40.773
331.190, 6.588
332.546, 37.762
333.902, 47.934
335.257, 8.106
336.612, 40.274
337.967, 6.441
339.322, 22.608
340.677, 16.767
342.031, 1.784
343.385, 46.935
344.739, 19.073
346.093, 9.222
347.446, 2.361
348.799, 26.492
350.153, 0.378
351.505, 20.751
352.858, 8.120
354.210, 4.001
355.563, 3.121
356.915, 7.240
358.267, 0.353
359.618, 13.466
360.969, 16.575
362.321, 38.679
363.672, 26.780
365.022, 30.880
366.373, 12.980
367.723, 7.921
369.073, 3.176
370.423, 2.729
371.773, 10.365
373.122, 4.542
374.471, 22.548
375.821, 13.639
377.169, 7.729
378.518, 29.818
379.866, 38.907
381.215, 26.995
382.563, 12.083
383.910, 18.170
385.258, 18.256
386.605, 19.026
387.952, 25.826
389.299, 25.499
390.646, 40.578
391.992, 37.658
393.339, 50.593
394.685, 28.807
396.031, 42.878
397.376, 56.949
398.722, 29.021
400.067, 23.094
401.412, 41.166
402.757, 29.238
404.101, 21.310
405.446, 0.382
406.790, 50.453
408.134, 44.524
409.478, 46.595
410.821, 124.666
412.165, 233.735
413.508, 433.805
414.851, 655.875
416.193, 644.765
417.536, 417.835
418.878, 184.599
420.220, 110.668
421.562, 70.736
422.904, 43.801
424.245, 70.137
425.586, 52.284
426.927, 10.262
428.268, 55.510
429.609, 38.533
430.949, 29.600
432.289, 70.666
433.629, 32.283
434.969, 36.351
436.309, 30.834
437.648, 19.099
438.987, 24.959
440.326, 17.300
441.665, 28.367
443.003, 38.433
444.342, 44.498
445.680, 33.562
447.018, 42.625
448.355, 39.215
449.693, 52.749
451.030, 33.201
452.367, 35.261
453.704, 24.320
455.041, 12.377
456.377, 21.358
457.713, 45.682
459.049, 43.737
460.385, 55.792
461.721, 60.845
463.056, 19.592
464.391, 67.644
465.726, 18.694
467.061, 57.848
468.395, 32.714
469.730, 53.762
471.064, 62.809
472.398, 87.863
473.731, 67.910
475.065, 85.891
476.398, 41.936
477.731, 110.987
479.064, 82.042
480.397, 137.258
481.729, 129.396
483.062, 142.455
484.394, 208.514
485.725, 263.489
487.057, 310.548
488.389, 369.615
489.720, 477.645
491.051, 654.711
492.382, 891.759
493.712, 1253.827
495.043, 1678.893
496.373, 2212.946
497.703, 2529.022
499.032, 2408.076
500.362, 2005.149
501.691, 1520.222
503.020, 995.211
504.349, 733.283
505.678, 545.355
507.007, 418.420
508.335, 313.423
509.663, 250.496
510.991, 175.393
512.319, 162.474
513.646, 122.883
514.973, 109.919
516.300, 96.942
517.627, 96.001
518.954, 61.942
520.280, 32.018
521.607, 35.094
522.933, 57.168
524.259, 41.242
525.584, 29.315
526.910, 50.387
528.235, 38.809
529.560, 38.827
530.885, 43.575
532.209, 50.640
533.534, 44.490
534.858, 64.342
536.182, 43.410
537.506, 37.460
538.829, 54.526
540.152, 22.590
541.476, 56.654
542.799, 20.717
544.121, 31.780
545.444, 46.845
546.766, 8.906
548.088, 26.967
549.410, 38.026
550.732, 43.084
552.053, 57.142
553.375, 23.199
554.696, 40.255
556.017, 25.311
557.337, 51.720
558.658, 50.780
559.978, 29.876
561.298, 39.934
562.618, 38.991
563.938, 46.047
565.257, 17.999
566.576, 11.055
567.895, 13.110
569.214, 72.166
570.533, 23.219
571.851, 43.298
573.170, 53.349
574.488, 20.400
575.805, 31.450
577.123, 10.500
578.440, 40.543
579.758, 19.584
581.075, 10.626
582.391, 4.666
583.708, 3.316
585.024, 22.251
586.341, 2.229
587.657, 10.797
588.972, 27.578
590.288, 15.602
591.603, 7.228
592.918, 33.790
594.233, 9.194
595.548, 9.820
596.863, 2.167
598.177, 38.520
599.491, 53.533
600.805, 71.545
602.119, 76.555
603.432, 172.565
604.746, 312.585
606.059, 637.592
607.372, 1057.682
608.685, 1296.687
609.997, 702.710
611.309, 323.716
612.621, 140.720
613.933, 79.723
615.245, 80.725
616.557, 77.789
617.868, 25.792
619.179, 26.794
620.490, 21.794
621.801, 62.795
623.111, 63.795
624.421, 62.793
625.731, 1.206
627.041, 77.794
628.351, 29.792
629.660, 9.065
630.970, 54.061
632.279, 35.056
633.588, 36.050
634.896, 39.551
636.205, 47.873
637.513, 0.863
638.821, 4.336
640.129, 66.321
641.437, 27.304
642.744, 39.285
644.051, 51.673
645.358, 26.892
646.665, 31.885
647.972, 43.860
649.278, 32.835
650.584, 73.151
651.890, 53.122
653.196, 46.091
654.502, 90.575
655.807, 57.541
657.113, 79.505
658.418, 59.467
659.722, 89.428
661.027, 127.471
662.331, 155.428
663.636, 164.238
664.940, 200.191
666.244, 360.225
667.547, 548.264
668.851, 932.213
670.154, 1500.160
671.457, 2935.108
672.760, 5639.055
674.062, 9133.998
675.365, 9793.942
676.667, 6507.882
677.969, 3019.823
679.271, 1378.760
680.572, 750.696
681.874, 457.629
683.175, 300.561
684.476, 212.491
685.777, 159.421
687.077, 115.350
688.378, 97.278
689.678, 64.205
690.978, 88.131
692.278, 30.056
693.577, 102.978
694.877, 24.899
696.176, 90.818
697.475, 40.734
698.774, 69.649
700.072, 43.562
701.371, 19.473
702.669, 20.382
703.967, 44.289
705.265, 51.194
706.562, 37.098
707.860, 21.999
709.157, 31.899
710.454, 27.796
711.751, 57.692
713.047, 2.877
714.344, 32.765
715.640, 12.652
716.936, 51.536
718.232, 75.419
719.527, 40.299
720.823, 47.178
722.118, 41.377
723.413, 49.252
724.708, 20.126
726.002, 37.997
727.297, 13.867
728.591, 35.735
729.885, 35.925
731.179, 44.485
732.472, 44.348
733.766, 31.512
735.059, 25.399
736.352, 34.342
737.645, 38.197
738.937, 56.036
740.230, 18.637
741.522, 42.047
742.814, 47.711
744.106, 5.442
745.397, 37.396
746.689, 11.767
747.980, 30.510
749.271, 37.334
750.562, 38.484
751.853, 42.304
753.143, 5.109
754.433, 35.702
755.723, 30.512
757.013, 70.320
758.303, 26.127
759.592, 10.933
760.881, 29.737
762.170, 5.073
763.459, 31.415
764.748, 9.214
766.036, 36.011
767.325, 64.807
768.613, 46.602
769.901, 59.481
771.188, 5.188
772.476, 47.979
773.763, 42.768
775.050, 37.556
776.337, 70.342
777.624, 55.128
778.910, 24.912
780.196, 73.695
781.482, 14.276
782.768, 28.057
784.054, 0.164
785.339, 29.605
786.625, 21.379
787.910, 16.153
789.195, 20.075
790.479, 17.317
791.764, 33.428
793.048, 19.988
794.332, 21.664
795.616, 38.394
796.900, 31.122
798.183, 3.151
799.467, 32.428
800.750, 4.274
802.033, 7.975
803.316, 40.676
804.598, 2.625
805.880, 19.071
807.163, 48.765
808.445, 37.541
809.726, 13.130
811.008, 35.801
812.289, 17.470
813.570, 6.140
814.851, 0.808
816.132, 9.474
817.413, 11.860
818.693, 39.798
819.973, 0.455
821.253, 31.889
822.533, 44.748
823.813, 6.384
825.092, 6.020
826.371, 36.655
827.650, 42.290
828.929, 24.924
830.208, 46.558
831.486, 27.191
832.764, 29.824
834.042, 60.457
835.320, 61.090
836.598, 49.722
837.875, 48.353
839.152, 35.985
840.429, 67.616
841.706, 50.247
842.983, 25.877
844.259, 28.508
845.536, 69.138
846.812, 48.768
848.088, 38.398
849.363, 67.028
850.639, 30.658
851.914, 41.288
853.189, 24.918
854.464, 39.548
855.739, 43.174
857.013, 21.804
858.288, 25.434
859.562, 12.064
860.836, 46.694
862.110, 11.324
863.383, 31.955
864.656, 46.586
865.930, 23.783
867.203, 7.487
868.475, 34.111
869.748, 27.698
871.020, 43.323
872.292, 11.948
873.564, 51.573
874.836, 8.798
876.108, 2.831
877.379, 4.461
878.650, 42.090
879.922, 13.721
881.192, 41.326
882.463, 1.038
883.733, 26.598
885.004, 26.235
886.274, 9.873
887.544, 1.485
888.813, 3.842
890.083, 1.264
891.352, 20.446
892.621, 29.093
893.890, 21.742
895.159, 41.399
896.427, 16.057
897.695, 31.961
898.964, 20.622
900.232, 23.136
901.499, 16.801
902.767, 14.468
904.034, 13.269
905.301, 13.815
906.568, 16.807
907.835, 17.483
909.102, 39.160
910.368, 40.838
911.634, 56.531
912.900, 18.213
914.166, 77.908
915.432, 4.478
916.697, 9.220
917.962, 47.904
919.227, 20.607
920.492, 34.312
921.757, 82.018
923.021, 56.726
924.285, 57.378
925.550, 27.089
926.813, 42.803
928.077, 78.519
929.341, 7.237
930.604, 50.956
931.867, 37.677
933.130, 63.402
934.393, 34.129
935.655, 15.859
936.918, 67.313
938.180, 37.046
939.442, 75.780
940.703, 88.516
941.965, 26.745
943.226, 57.154
944.488, 49.896
945.749, 78.155
947.009, 52.903
948.270, 51.653
949.530, 91.409
950.791, 70.759
952.051, 28.279
953.311, 8.025
954.570, 64.790
955.830, 46.556
957.089, 51.981
958.348, 31.752
959.607, 29.530
960.866, 22.793
962.124, 62.576
963.383, 69.361
964.641, 94.149
965.899, 85.941
967.156, 86.652
968.414, 90.449
969.671, 97.152
970.928, 134.198
972.185, 130.922
973.442, 153.642
974.699, 190.453
975.955, 145.267
977.211, 181.084
978.468, 228.904
979.723, 220.726
980.979, 216.554
982.234, 238.385
983.490, 191.218
984.745, 231.055
986.000, 272.894
987.254, 222.737
988.509, 357.582
989.763, 309.430
991.017, 359.281
992.271, 392.135
993.525, 413.992
994.779, 473.852
996.032, 543.722
997.285, 763.594
998.538, 972.470
999.791, 1183.348
1001.044, 1094.230
1002.296, 1140.118
1003.548, 1238.010
1004.800, 1420.904
1006.052, 1756.802
1007.304, 2224.702
1008.555, 2994.606
1009.807, 4089.514
1011.058, 5843.424
1012.309, 9310.342
1013.559, 16082.262
1014.810, 29941.184
1016.060, 50962.121
1017.310, 60833.758
1018.560, 47839.547
1019.810, 27443.475
1021.060, 14755.422
1022.309, 8592.369
1023.558, 5775.331
1024.807, 3973.801
1026.056, 2999.154
1027.305, 2195.139
1028.553, 1717.129
1029.801, 1391.122
1031.049, 1148.118
1032.297, 943.942
1033.545, 820.923
1034.793, 689.927
1036.040, 596.939
1037.287, 535.957
1038.534, 466.948
1039.781, 404.014
1041.027, 362.591
1042.274, 297.625
1043.520, 285.661
1044.766, 243.701
1046.012, 227.743
1047.257, 181.805
1048.503, 222.856
1049.748, 145.909
1050.993, 217.970
1052.238, 149.033
1053.483, 134.098
1054.727, 140.167
1055.971, 200.237
1057.216, 111.312
1058.459, 127.390
1059.703, 135.533
1060.947, 113.621
1062.190, 123.706
1063.433, 81.803
1064.676, 69.929
1065.919, 95.004
1067.162, 87.529
1068.404, 66.624
1069.646, 54.745
1070.888, 69.844
1072.130, 56.196
1073.372, 30.299
1074.613, 66.465
1075.855, 36.572
1077.096, 19.815
1078.337, 34.926
1079.578, 40.038
1080.818, 80.193
1082.059, 23.770
1083.299, 60.887
1084.539, 42.018
1085.779, 32.138
1087.018, 62.262
1088.258, 60.387
1089.497, 63.514
1090.736, 61.668
1091.975, 40.835
1093.213, 43.998
1094.452, 38.331
1095.690, 37.484
1096.928, 47.639
1098.166, 73.558
1099.404, 74.716
1100.642, 30.877
1101.879, 83.049
1103.116, 94.223
1104.353, 155.399
1105.590, 219.575
1106.827, 301.755
1108.063, 543.800
1109.299, 914.982
1110.536, 1156.300
1111.771, 1167.496
1113.007, 972.692
1114.243, 839.221
1115.478, 721.420
1116.713, 570.694
1117.948, 525.896
1119.183, 455.179
1120.418, 572.475
1121.652, 778.684
1122.886, 1018.902
1124.120, 1555.121
1125.354, 2599.341
1126.588, 4859.618
1127.821, 8680.845
1129.055, 12406.500
1130.288, 11786.855
1131.521, 7453.133
1132.753, 3707.358
1133.986, 1943.581
1135.218, 1195.806
1136.450, 724.052
1137.682, 520.354
1138.914, 409.578
1140.146, 320.803
1141.377, 270.028
1142.609, 180.451
1143.840, 174.094
1145.071, 179.381
1146.301, 87.605
1147.532, 118.903
1148.762, 117.257
1149.992, 68.233
1151.222, 31.622
1152.452, 48.892
1153.682, 51.138
1154.911, 43.975
1156.140, 47.659
1157.369, 62.938
1158.598, 52.603
1159.827, 92.280
1161.055, 87.575
1162.284, 101.478
1163.512, 10.845
1164.740, 38.063
1165.967, 20.579
1167.195, 45.636
1168.422, 17.114
1169.650, 47.377
1170.877, 31.832
1172.103, 12.958
1173.330, 14.575
1174.557, 26.623
1175.783, 41.145
1177.009, 13.553
1178.235, 38.748
1179.461, 16.006
1180.686, 38.209
1181.912, 40.413
1183.137, 39.762
1184.362, 11.447
1185.587, 35.625
1186.811, 29.302
1188.036, 11.523
1189.260, 58.727
1190.484, 13.944
1191.708, 44.169
1192.932, 57.429
1194.155, 9.588
1195.378, 34.822
1196.602, 45.994
1197.825, 65.146
1199.047, 66.296
1200.270, 61.228
1201.492, 71.592
1202.715, 34.736
1203.937, 59.877
1205.159, 45.015
1206.380, 2.152
1207.602, 46.714
1208.823, 47.470
1210.044, 15.573
1211.265, 9.673
1212.486, 4.771
1213.707, 5.134
1214.927, 22.955
1216.147, 14.041
1217.367, 42.124
1218.587, 1.795
1219.807, 25.281
1221.027, 6.354
1222.246, 24.425
1223.465, 0.493
1224.684, 28.556
1225.903, 26.617
1227.121, 12.676
1228.340, 4.269
1229.558, 25.780
1230.776, 20.826
1231.994, 55.872
1233.212, 36.969
1234.429, 61.010
1235.646, 25.068
1236.864, 48.104
1238.081, 12.136
1239.297, 21.166
1240.514, 1.202
1241.730, 45.224
1242.947, 36.298
1244.163, 7.688
1245.378, 45.322
1246.594, 61.380
1247.810, 55.382
1249.025, 78.458
1250.240, 53.455
1251.455, 47.542
1252.670, 29.533
1253.885, 8.479
1255.099, 61.503
1256.313, 5.483
1257.527, 58.552
1258.741, 33.523
1259.955, 0.491
1261.168, 63.456
1262.382, 13.417
1263.595, 39.445
1264.808, 13.450
1266.021, 11.446
1267.233, 50.387
1268.446, 37.321
1269.658, 41.749
1270.870, 73.177
1272.082, 20.181
1273.294, 32.095
1274.505, 0.002
1275.716, 8.296
1276.928, 21.800
1278.139, 35.691
1279.349, 38.560
1280.560, 53.407
1281.770, 30.247
1282.981, 17.083
1284.191, 63.915
1285.401, 40.732
1286.610, 55.536
1287.820, 6.336
1289.029, 14.870
1290.239, 21.913
1291.448, 41.691
1292.656, 19.465
1293.865, 11.235
1295.073, 4.000
1296.282, 8.757
1297.490, 26.508
1298.698, 32.309
1299.906, 53.052
1301.113, 19.791
1302.320, 24.526
1303.528, 1.256
1304.735, 1.143
1305.942, 20.860
1307.148, 2.427
1308.355, 11.279
1309.561, 64.979
1310.767, 12.675
1311.973, 68.520
1313.179, 5.206
1314.384, 26.886
1315.590, 43.439
1316.795, 61.217
1318.000, 42.636
1319.205, 63.304
1320.410, 2.931
1321.614, 6.550
1322.819, 56.164
1324.023, 25.773
1325.227, 30.549
1326.431, 33.146
1327.634, 11.263
1328.838, 0.682
1330.041, 53.891
1331.244, 16.541
1332.447, 48.016
1333.650, 17.898
1334.852, 25.447
1336.055, 22.991
1337.257, 15.615
1338.459, 40.068
1339.661, 19.583
1340.862, 34.112
1342.064, 48.636
1343.265, 58.158
1344.466, 37.675
1345.667, 44.187
1346.868, 54.694
1348.068, 44.199
1349.269, 64.699
1350.469, 44.197
1351.669, 91.628
1352.869, 17.114
1354.069, 72.602
1355.268, 63.077
1356.468, 83.523
1357.667, 62.945
1358.866, 86.992
1360.065, 117.469
1361.263, 82.920
1362.462, 72.394
1363.660, 66.669
1364.858, 52.140
1366.056, 62.550
1367.254, 58.573
1368.451, 62.120
1369.649, 59.828
1370.846, 78.300
1372.043, 67.734
1373.240, 83.780
1374.436, 83.297
1375.633, 70.346
1376.829, 23.829
1378.025, 81.316
1379.221, 31.805
1380.417, 76.211
1381.613, 75.588
1382.808, 82.993
1384.003, 34.146
1385.199, 63.696
1386.393, 22.651
1387.588, 83.370
1388.783, 54.082
1389.977, 24.788
1391.171, 65.578
1392.365, 18.133
1393.559, 83.811
1394.753, 15.124
1395.946, 42.705
1397.140, 76.176
1398.333, 60.822
1399.526, 59.462
1400.719, 16.025
1401.911, 91.003
1403.104, 45.556
1404.296, 43.164
1405.488, 41.650
1406.680, 21.246
1407.872, 25.598
1409.063, 23.874
1410.255, 76.857
1411.446, 36.318
1412.637, 57.589
1413.828, 71.089
1415.018, 16.440
1416.209, 62.792
1417.399, 46.297
1418.589, 93.580
1419.779, 53.877
1420.969, 69.926
1422.159, 82.960
1423.348, 99.989
1424.537, 41.604
1425.726, 65.878
1426.915, 61.156
1428.104, 100.077
1429.293, 87.184
1430.481, 65.340
1431.669, 54.441
1432.857, 81.555
1434.045, 51.664
1435.233, 100.910
1436.420, 109.144
1437.608, 65.374
1438.795, 52.595
1439.982, 48.700
1441.169, 8.947
1442.355, 65.187
1443.542, 35.426
1444.728, 64.658
1445.914, 43.885
1447.100, 2.895
1448.286, 102.319
1449.472, 22.523
1450.657, 56.725
1451.842, 112.806
1453.027, 118.937
1454.212, 83.095
1455.397, 37.224
1456.581, 56.251
1457.766, 74.380
1458.950, 49.388
1460.134, 99.325
1461.318, 42.204
1462.501, 55.267
1463.685, 72.097
1464.868, 67.125
1466.051, 76.129
1467.234, 46.825
1468.417, 57.690
1469.600, 57.683
1470.782, 38.447
1471.965, 41.432
1473.147, 53.412
1474.329, 100.431
1475.510, 56.597
1476.692, 67.765
1477.873, 113.015
1479.055, 54.296
1480.236, 78.583
1481.416, 95.873
1482.597, 61.165
1483.778, 82.284
1484.958, 77.061
1486.138, 84.871
1487.318, 65.567
1488.498, 69.848
1489.678, 33.137
1490.857, 67.434
1492.037, 113.743
1493.216, 37.071
1494.395, 79.426
1495.574, 26.811
1496.752, 72.229
1497.931, 64.693
1499.109, 52.205
1500.287, 42.762
1501.465, 53.355
1502.643, 29.979
1503.820, 34.633
1504.998, 9.327
1506.175, 29.066
1507.352, 62.896
1508.529, 71.791
1509.706, 75.157
1510.882, 90.816
1512.059, 65.965
1513.235, 27.217
1514.411, 21.584
1515.587, 20.352
1516.762, 4.075
1517.938, 42.656
1519.113, 54.568
1520.288, 55.818
1521.463, 26.814
1522.638, 28.796
1523.813, 0.238
1524.987, 0.000
##END=



