##NAMES=Anhydrite
##RRUFFID=R040012
##IDEAL CHEMISTRY=CaS^6+^O_4_
##LOCALITY=Moundhouse, Nevada, USA
##OWNER=RRUFF
##SOURCE=University of Arizona Mineral Museum
##DESCRIPTION=White massive
##STATUS=The identification of this mineral has been confirmed by X-ray diffraction and chemical analysis
##URL=rruff.info/R040012
##MEASURED CHEMISTRY=Ca_1.00_S_1.00_O_4_
##PIN_ID=S00004
##ORIENTATION=Laser parallel to -a* (-1 0 0). Fiducial mark perpendicular to laser is parallel to b [0 1 0]
91.981, 0.000
93.375, 25.219
94.768, 21.567
96.161, 46.638
97.554, 61.393
98.947, 57.431
100.340, 56.657
101.732, 63.530
103.124, 14.299
104.516, 34.622
105.908, 57.677
107.300, 114.419
108.691, 59.820
110.082, 66.082
111.473, 25.367
112.864, 20.350
114.254, 81.564
115.644, 130.128
117.034, 254.152
118.424, 330.401
119.813, 514.362
121.203, 501.972
122.592, 541.719
123.981, 431.973
125.369, 294.853
126.758, 199.058
128.146, 153.029
129.534, 304.750
130.922, 276.310
132.309, 262.604
133.696, 164.078
135.083, 140.237
136.470, 35.493
137.857, 76.466
139.243, 64.211
140.630, 54.625
142.016, 17.906
143.401, 53.423
144.787, 45.950
146.172, 63.582
147.557, 82.209
148.942, 56.100
150.327, 40.128
151.711, 70.901
153.096, 77.813
154.480, 47.627
155.863, 6.269
157.247, 41.167
158.630, 6.910
160.013, 2.634
161.396, 8.176
162.779, 51.678
164.161, 37.140
165.544, 61.853
166.926, 70.325
168.308, 0.261
169.689, 33.808
171.070, 35.341
172.452, 6.326
173.833, 5.827
175.213, 26.636
176.594, 0.786
177.974, 12.828
179.354, 12.760
180.734, 9.855
182.114, 31.095
183.493, 5.990
184.872, 3.826
186.251, 29.085
187.630, 8.084
189.008, 20.897
190.387, 32.188
191.765, 1.157
193.143, 1.479
194.520, 7.045
195.898, 28.314
197.275, 18.580
198.652, 4.561
200.029, 5.381
201.405, 24.007
202.782, 15.470
204.158, 41.069
205.534, 50.625
206.909, 6.749
208.285, 20.457
209.660, 65.091
211.035, 47.481
212.410, 37.783
213.784, 12.272
215.159, 25.586
216.533, 57.804
217.907, 60.593
219.281, 78.167
220.654, 80.886
222.027, 108.500
223.400, 137.178
224.773, 147.130
226.146, 179.777
227.518, 209.027
228.891, 239.016
230.263, 289.923
231.634, 334.539
233.006, 251.964
234.377, 272.495
235.748, 211.117
237.119, 164.769
238.490, 176.372
239.860, 124.682
241.231, 123.670
242.601, 131.508
243.970, 108.273
245.340, 104.016
246.709, 47.044
248.079, 118.220
249.448, 78.189
250.816, 91.488
252.185, 114.250
253.553, 96.906
254.921, 115.548
256.289, 136.178
257.657, 109.977
259.024, 147.693
260.391, 139.580
261.758, 153.256
263.125, 142.867
264.492, 134.516
265.858, 137.820
267.224, 132.444
268.590, 130.766
269.956, 144.088
271.321, 134.240
272.687, 138.941
274.052, 142.438
275.416, 128.774
276.781, 143.860
278.146, 106.105
279.510, 94.077
280.874, 83.538
282.237, 80.483
283.601, 75.104
284.964, 88.417
286.327, 89.603
287.690, 78.676
289.053, 74.595
290.416, 71.463
291.778, 91.975
293.140, 104.591
294.502, 105.868
295.863, 107.039
297.225, 117.758
298.586, 105.116
299.947, 121.772
301.308, 129.792
302.668, 105.998
304.029, 128.876
305.389, 137.574
306.749, 133.687
308.108, 158.110
309.468, 129.346
310.827, 170.698
312.186, 126.122
313.545, 151.300
314.903, 123.249
316.262, 123.470
317.620, 134.719
318.978, 119.685
320.336, 110.825
321.693, 133.686
323.051, 149.865
324.408, 103.859
325.765, 87.110
327.121, 110.063
328.478, 106.865
329.834, 122.894
331.190, 95.987
332.546, 88.885
333.902, 79.626
335.257, 84.380
336.612, 97.922
337.967, 68.154
339.322, 112.786
340.677, 126.707
342.031, 115.131
343.385, 147.553
344.739, 130.915
346.093, 92.964
347.446, 124.234
348.799, 131.004
350.153, 87.189
351.505, 101.691
352.858, 81.191
354.210, 48.179
355.563, 58.112
356.915, 54.204
358.267, 43.836
359.618, 35.302
360.969, 26.140
362.321, 35.326
363.672, 8.525
365.022, 22.550
366.373, 21.021
367.723, 35.606
369.073, 51.263
370.423, 59.246
371.773, 51.566
373.122, 46.969
374.471, 31.571
375.821, 29.241
377.169, 18.557
378.518, 24.777
379.866, 4.448
381.215, 14.125
382.563, 14.881
383.910, 39.747
385.258, 42.693
386.605, 81.792
387.952, 62.888
389.299, 99.177
390.646, 77.436
391.992, 100.770
393.339, 90.021
394.685, 101.275
396.031, 119.548
397.376, 59.812
398.722, 56.087
400.067, 62.261
401.412, 14.501
402.757, 83.531
404.101, 34.623
405.446, 10.711
406.790, 25.675
408.134, 77.619
409.478, 76.323
410.821, 119.339
412.165, 246.191
413.508, 553.095
414.851, 898.092
416.193, 916.014
417.536, 658.011
418.878, 333.092
420.220, 132.034
421.562, 17.105
422.904, 38.111
424.245, 21.144
425.586, 31.896
426.927, 29.985
428.268, 14.148
429.609, 10.337
430.949, 13.563
432.289, 12.662
433.629, 3.962
434.969, 14.682
436.309, 15.393
437.648, 27.021
438.987, 12.308
440.326, 14.178
441.665, 4.408
443.003, 40.938
444.342, 3.253
445.680, 23.525
447.018, 19.835
448.355, 18.133
449.693, 21.367
451.030, 2.568
452.367, 54.739
453.704, 1.018
455.041, 68.262
456.377, 68.535
457.713, 49.801
459.049, 59.100
460.385, 107.334
461.721, 95.629
463.056, 57.951
464.391, 120.166
465.726, 98.470
467.061, 50.806
468.395, 85.126
469.730, 157.544
471.064, 101.840
472.398, 123.281
473.731, 112.558
475.065, 65.937
476.398, 98.199
477.731, 129.459
479.064, 113.763
480.397, 113.003
481.729, 150.211
483.062, 173.514
484.394, 227.890
485.725, 268.078
487.057, 296.201
488.389, 391.417
489.720, 528.620
491.051, 633.888
492.382, 897.040
493.712, 1259.169
495.043, 1641.258
496.373, 2162.366
497.703, 2539.540
499.032, 2538.593
500.362, 2165.832
501.691, 1681.134
503.020, 1195.389
504.349, 900.733
505.678, 683.057
507.007, 504.241
508.335, 402.559
509.663, 297.903
510.991, 281.090
512.319, 247.346
513.646, 176.516
514.973, 162.568
516.300, 160.665
517.627, 156.749
518.954, 111.796
520.280, 114.807
521.607, 120.792
522.933, 88.817
524.259, 112.731
525.584, 77.703
526.910, 91.679
528.235, 132.715
529.560, 107.814
530.885, 100.952
532.209, 102.238
533.534, 87.174
534.858, 58.959
536.182, 65.979
537.506, 89.091
538.829, 63.798
540.152, 74.230
541.476, 64.902
542.799, 41.109
544.121, 50.963
545.444, 50.154
546.766, 64.443
548.088, 56.154
549.410, 76.563
550.732, 54.836
552.053, 74.483
553.375, 91.423
554.696, 134.047
556.017, 133.364
557.337, 115.374
558.658, 107.607
559.978, 122.035
561.298, 99.426
562.618, 79.667
563.938, 88.710
565.257, 145.214
566.576, 107.477
567.895, 147.944
569.214, 185.105
570.533, 149.920
571.851, 136.247
573.170, 162.354
574.488, 124.408
575.805, 162.453
577.123, 156.997
578.440, 173.512
579.758, 169.527
581.075, 153.250
582.391, 161.052
583.708, 188.774
585.024, 178.315
586.341, 256.057
587.657, 235.324
588.972, 282.796
590.288, 211.065
591.603, 193.356
592.918, 241.951
594.233, 229.583
595.548, 252.210
596.863, 224.879
598.177, 259.141
599.491, 296.742
600.805, 280.200
602.119, 395.901
603.432, 486.520
604.746, 714.136
606.059, 1208.838
607.372, 1768.420
608.685, 1998.011
609.997, 1402.569
611.309, 819.288
612.621, 478.754
613.933, 397.518
615.245, 368.278
616.557, 448.953
617.868, 472.661
619.179, 529.424
620.490, 567.179
621.801, 597.865
623.111, 720.606
624.421, 870.339
625.731, 864.977
627.041, 896.694
628.351, 758.403
629.660, 601.105
630.970, 552.798
632.279, 446.484
633.588, 394.147
634.896, 303.817
636.205, 372.480
637.513, 339.135
638.821, 372.783
640.129, 487.423
641.437, 470.056
642.744, 463.680
644.051, 596.298
645.358, 625.908
646.665, 620.511
647.972, 613.106
649.278, 669.694
650.584, 585.275
651.890, 626.849
653.196, 565.416
654.502, 529.976
655.807, 492.529
657.113, 375.075
658.418, 363.613
659.722, 309.144
661.027, 260.667
662.331, 267.182
663.636, 302.689
664.940, 272.188
666.244, 451.681
667.547, 523.165
668.851, 948.641
670.154, 1551.110
671.457, 2842.572
672.760, 5377.027
674.062, 8097.475
675.365, 9354.918
676.667, 7281.352
677.969, 3880.778
679.271, 1747.200
680.572, 864.614
681.874, 542.022
683.175, 347.425
684.476, 242.820
685.777, 149.209
687.077, 79.591
688.378, 31.243
689.678, 25.333
690.978, 5.310
692.278, 1.026
693.577, 36.348
694.877, 26.338
696.176, 9.946
697.475, 26.781
698.774, 3.539
700.072, 8.415
701.371, 57.276
702.669, 29.203
703.967, 41.112
705.265, 26.894
706.562, 39.972
707.860, 7.043
709.157, 60.000
710.454, 86.998
711.751, 33.941
713.047, 64.127
714.344, 16.756
715.640, 71.370
716.936, 26.548
718.232, 30.246
719.527, 2.962
720.823, 21.298
722.118, 7.451
723.413, 7.191
724.708, 53.080
726.002, 15.392
727.297, 10.273
728.591, 42.930
729.885, 70.580
731.179, 75.724
732.472, 81.966
733.766, 74.495
735.059, 65.121
736.352, 51.742
737.645, 50.808
738.937, 50.612
740.230, 50.579
741.522, 45.187
742.814, 52.792
744.106, 18.394
745.397, 58.993
746.689, 43.590
747.980, 72.185
749.271, 65.776
750.562, 73.364
751.853, 53.948
753.143, 67.529
754.433, 38.108
755.723, 44.684
757.013, 63.257
758.303, 10.827
759.592, 88.393
760.881, 3.956
762.170, 34.515
763.459, 79.071
764.748, 12.625
766.036, 93.176
767.325, 77.728
768.613, 117.277
769.901, 91.824
771.188, 40.367
772.476, 90.907
773.763, 99.444
775.050, 103.978
776.337, 51.509
777.624, 61.037
778.910, 48.562
780.196, 62.085
781.482, 91.605
782.768, 29.122
784.054, 15.637
785.339, 51.149
786.625, 73.658
787.910, 149.165
789.195, 99.670
790.479, 75.172
791.764, 106.673
793.048, 64.170
794.332, 117.666
795.616, 145.160
796.900, 132.652
798.183, 96.142
799.467, 178.631
800.750, 99.117
802.033, 70.602
803.316, 116.086
804.598, 59.568
805.880, 148.048
807.163, 110.527
808.445, 108.005
809.726, 72.482
811.008, 122.958
812.289, 72.432
813.570, 109.905
814.851, 109.377
816.132, 115.849
817.413, 116.668
818.693, 132.870
819.973, 147.477
821.253, 160.729
822.533, 185.197
823.813, 183.665
825.092, 195.133
826.371, 202.867
827.650, 191.068
828.929, 221.535
830.208, 216.624
831.486, 243.469
832.764, 238.937
834.042, 246.404
835.320, 250.872
836.598, 323.340
837.875, 297.808
839.152, 345.277
840.429, 354.746
841.706, 358.216
842.983, 358.507
844.259, 377.212
845.536, 376.829
846.812, 399.288
848.088, 406.166
849.363, 451.364
850.639, 428.310
851.914, 445.058
853.189, 468.273
854.464, 541.195
855.739, 585.062
857.013, 635.705
858.288, 714.616
859.562, 719.957
860.836, 790.359
862.110, 701.448
863.383, 748.228
864.656, 608.329
865.930, 521.732
867.203, 483.304
868.475, 423.652
869.748, 339.828
871.020, 308.837
872.292, 293.282
873.564, 323.185
874.836, 255.593
876.108, 278.768
877.379, 284.954
878.650, 295.438
879.922, 308.313
881.192, 236.672
882.463, 284.250
883.733, 220.880
885.004, 257.516
886.274, 248.159
887.544, 258.808
888.813, 239.471
890.083, 211.140
891.352, 265.819
892.621, 273.507
893.890, 250.202
895.159, 262.903
896.427, 277.615
897.695, 298.238
898.964, 280.966
900.232, 240.702
901.499, 233.450
902.767, 233.638
904.034, 244.980
905.301, 245.756
906.568, 255.555
907.835, 245.361
909.102, 195.174
910.368, 191.995
911.634, 242.757
912.900, 179.608
914.166, 196.378
915.432, 125.265
916.697, 72.313
917.962, 134.170
919.227, 65.861
920.492, 41.785
921.757, 39.718
923.021, 58.659
924.285, 80.609
925.550, 25.565
926.813, 41.530
928.077, 89.502
929.341, 51.482
930.604, 137.471
931.867, 56.467
933.130, 123.472
934.393, 184.485
935.655, 59.506
936.918, 94.536
938.180, 59.574
939.442, 54.620
940.703, 130.675
941.965, 80.738
943.226, 70.809
944.488, 14.889
945.749, 62.977
947.009, 60.073
948.270, 29.179
949.530, 83.293
950.791, 97.416
952.051, 55.547
953.311, 36.687
954.570, 115.836
955.830, 149.993
957.089, 95.159
958.348, 79.334
959.607, 160.518
960.866, 31.711
962.124, 11.913
963.383, 134.123
964.641, 113.343
965.899, 118.572
967.156, 119.809
968.414, 108.056
969.671, 96.311
970.928, 70.576
972.185, 142.850
973.442, 103.133
974.699, 139.425
975.955, 110.727
977.211, 112.037
978.468, 119.357
979.723, 77.686
980.979, 117.024
982.234, 206.371
983.490, 155.728
984.745, 209.094
986.000, 257.469
987.254, 246.854
988.509, 314.247
989.763, 307.651
991.017, 274.063
992.271, 328.485
993.525, 376.916
994.779, 469.357
996.032, 579.809
997.285, 811.276
998.538, 1017.759
999.791, 1421.250
1001.044, 1693.458
1002.296, 1903.766
1003.548, 1967.312
1004.800, 1924.886
1006.052, 2062.530
1007.304, 2303.770
1008.555, 2931.968
1009.807, 3880.622
1011.058, 5707.286
1012.309, 8816.960
1013.559, 14914.648
1014.810, 26852.369
1016.060, 46009.121
1017.310, 59740.883
1018.560, 53281.914
1019.810, 34833.715
1021.060, 19151.551
1022.309, 11080.410
1023.558, 7264.448
1024.807, 4861.327
1026.056, 3546.223
1027.305, 2667.131
1028.553, 2161.049
1029.801, 1683.994
1031.049, 1359.954
1032.297, 1140.208
1033.545, 945.985
1034.793, 718.972
1036.040, 640.968
1037.287, 543.971
1038.534, 393.570
1039.781, 469.590
1041.027, 322.081
1042.274, 266.679
1043.520, 268.722
1044.766, 182.773
1046.012, 184.525
1047.257, 190.592
1048.503, 241.005
1049.748, 165.376
1050.993, 196.662
1052.238, 167.938
1053.483, 95.208
1054.727, 75.336
1055.971, 111.870
1057.216, 52.013
1058.459, 47.234
1059.703, 47.391
1060.947, 25.924
1062.190, 14.117
1063.433, 2.530
1064.676, 39.303
1065.919, 10.918
1067.162, 58.279
1068.404, 31.516
1069.646, 19.688
1070.888, 70.898
1072.130, 5.114
1073.372, 1.337
1074.613, 104.566
1075.855, 72.802
1077.096, 106.067
1078.337, 165.315
1079.578, 198.569
1080.818, 238.160
1082.059, 220.094
1083.299, 291.365
1084.539, 310.643
1085.779, 294.926
1087.018, 250.215
1088.258, 198.510
1089.497, 193.811
1090.736, 97.117
1091.975, 124.429
1093.213, 79.746
1094.452, 107.070
1095.690, 102.398
1096.928, 95.732
1098.166, 107.071
1099.404, 122.415
1100.642, 118.410
1101.879, 72.119
1103.116, 126.479
1104.353, 194.844
1105.590, 215.215
1106.827, 368.590
1108.063, 564.970
1109.299, 1074.355
1110.536, 1455.745
1111.771, 1438.142
1113.007, 1320.542
1114.243, 1078.953
1115.478, 791.371
1116.713, 752.792
1117.948, 627.219
1119.183, 531.649
1120.418, 597.083
1121.652, 742.523
1122.886, 1069.966
1124.120, 1574.415
1125.354, 2420.867
1126.588, 4321.324
1127.821, 7614.784
1129.055, 11624.248
1130.288, 12282.718
1131.521, 8745.189
1132.753, 4633.663
1133.986, 2481.139
1135.218, 1531.620
1136.450, 782.103
1137.682, 648.588
1138.914, 403.077
1140.146, 306.567
1141.377, 183.061
1142.609, 87.555
1143.840, 115.055
1145.071, 57.561
1146.301, 48.068
1147.532, 20.576
1148.762, 15.916
1149.992, 17.412
1151.222, 15.092
1152.452, 21.398
1153.682, 0.889
1154.911, 13.396
1156.140, 11.902
1157.369, 32.593
1158.598, 44.091
1159.827, 139.594
1161.055, 78.100
1162.284, 287.604
1163.512, 186.110
1164.740, 45.613
1165.967, 70.885
1167.195, 40.600
1168.422, 36.084
1169.650, 40.568
1170.877, 0.954
1172.103, 22.518
1173.330, 65.974
1174.557, 73.431
1175.783, 67.871
1177.009, 46.289
1178.235, 76.695
1179.461, 1.898
1180.686, 11.492
1181.912, 5.912
1183.137, 29.316
1184.362, 38.720
1185.587, 23.875
1186.811, 78.524
1188.036, 4.076
1189.260, 5.678
1190.484, 47.717
1191.708, 10.112
1192.932, 7.466
1194.155, 18.995
1195.378, 0.525
1196.602, 1.993
1197.825, 13.314
1199.047, 12.774
1200.270, 5.605
1201.492, 22.026
1202.715, 47.597
1203.937, 48.764
1205.159, 9.125
1206.380, 33.484
1207.602, 46.157
1208.823, 12.187
1210.044, 59.471
1211.265, 1.138
1212.486, 16.819
1213.707, 31.345
1214.927, 51.781
1216.147, 39.336
1217.367, 50.643
1218.587, 29.948
1219.807, 112.251
1221.027, 26.552
1222.246, 102.894
1223.465, 14.193
1224.684, 48.490
1225.903, 18.807
1227.121, 25.101
1228.340, 62.393
1229.558, 105.683
1230.776, 60.972
1231.994, 67.260
1233.212, 73.547
1234.429, 124.834
1235.646, 131.121
1236.864, 189.408
1238.081, 177.695
1239.297, 238.982
1240.514, 239.269
1241.730, 268.555
1242.947, 199.797
1244.163, 125.030
1245.378, 217.262
1246.594, 216.491
1247.810, 216.720
1249.025, 261.242
1250.240, 194.466
1251.455, 252.689
1252.670, 225.907
1253.885, 211.123
1255.099, 256.337
1256.313, 224.578
1257.527, 200.261
1258.741, 220.467
1259.955, 173.913
1261.168, 192.556
1262.382, 166.776
1263.595, 181.972
1264.808, 190.164
1266.021, 271.354
1267.233, 320.542
1268.446, 347.730
1269.658, 313.248
1270.870, 415.424
1272.082, 333.599
1273.294, 371.751
1274.505, 389.847
1275.716, 435.911
1276.928, 397.963
1278.139, 443.018
1279.349, 379.016
1280.560, 331.989
1281.770, 302.938
1282.981, 266.512
1284.191, 241.132
1285.401, 222.697
1286.610, 212.792
1287.820, 195.371
1289.029, 213.979
1290.239, 222.353
1291.448, 237.479
1292.656, 281.268
1293.865, 298.733
1295.073, 362.048
1296.282, 313.616
1297.490, 343.184
1298.698, 347.749
1299.906, 265.697
1301.113, 255.217
1302.320, 291.545
1303.528, 242.060
1304.735, 132.573
1305.942, 262.086
1307.148, 310.351
1308.355, 222.848
1309.561, 358.477
1310.767, 362.404
1311.973, 403.202
1313.179, 323.825
1314.384, 385.863
1315.590, 373.474
1316.795, 368.220
1318.000, 343.292
1319.205, 394.520
1320.410, 394.481
1321.614, 389.187
1322.819, 379.690
1324.023, 363.675
1325.227, 314.839
1326.431, 296.997
1327.634, 234.148
1328.838, 185.259
1330.041, 157.960
1331.244, 140.525
1332.447, 114.649
1333.650, 67.765
1334.852, 91.874
1336.055, 38.976
1337.257, 33.069
1338.459, 23.155
1339.661, 20.234
1340.862, 39.696
1342.064, 7.364
1343.265, 14.416
1344.466, 84.459
1345.667, 31.488
1346.868, 53.487
1348.068, 67.473
1349.269, 51.089
1350.469, 101.415
1351.669, 47.366
1352.869, 85.306
1354.069, 75.237
1355.268, 42.160
1356.468, 68.077
1357.667, 46.988
1358.866, 19.895
1360.065, 40.796
1361.263, 59.677
1362.462, 61.550
1363.660, 64.436
1364.858, 58.305
1366.056, 37.187
1367.254, 92.086
1368.451, 91.958
1369.649, 42.814
1370.846, 99.674
1372.043, 95.543
1373.240, 74.416
1374.436, 107.327
1375.633, 63.331
1376.829, 66.479
1378.025, 105.753
1379.221, 145.027
1380.417, 83.301
1381.613, 70.578
1382.808, 151.855
1384.003, 147.137
1385.199, 176.129
1386.393, 104.166
1387.588, 144.668
1388.783, 99.475
1389.977, 104.417
1391.171, 88.351
1392.365, 4.277
1393.559, 167.154
1394.753, 121.065
1395.946, 97.369
1397.140, 51.247
1398.333, 92.118
1399.526, 24.792
1400.719, 0.540
1401.911, 64.373
1403.104, 12.809
1404.296, 0.018
1405.488, 45.718
1406.680, 71.389
1407.872, 81.982
1409.063, 124.785
1410.255, 64.938
1411.446, 56.105
1412.637, 5.005
1413.828, 73.071
1415.018, 92.167
1416.209, 76.465
1417.399, 49.299
1418.589, 77.493
1419.779, 42.120
1420.969, 36.186
1422.159, 99.109
1423.348, 41.575
1424.537, 53.044
1425.726, 27.285
1426.915, 20.653
1428.104, 53.267
1429.293, 0.253
1430.481, 0.000
##END=



