##NAMES=Anhydrite
##RRUFFID=R040061
##IDEAL CHEMISTRY=CaS^6+^O_4_
##LOCALITY=Chester County, Pennsylvania, USA
##OWNER=RRUFF
##SOURCE=University of Arizona Mineral Museum
##DESCRIPTION=Pale purple fractured single crystal
##STATUS=The identification of this mineral has been confirmed by X-ray diffraction and chemical analysis
##URL=rruff.info/R040061
##MEASURED CHEMISTRY=Ca_0.98_S_1.01_O_4_
##PIN_ID=S00304
##ORIENTATION=Laser parallel to -c* (0 0 -1). Fiducial mark perpendicular to laser is parallel to a [1 0 0]
51.466, 0.000
52.866, 5.832
54.266, 6.069
55.666, 17.135
57.065, 17.343
58.464, 9.712
59.863, 13.947
61.262, 3.053
62.661, 0.392
64.059, 0.541
65.458, 2.202
66.856, 4.335
68.253, 1.883
69.651, 7.116
71.048, 19.308
72.445, 21.674
73.842, 38.198
75.239, 42.864
76.635, 73.661
78.031, 59.577
79.427, 74.602
80.823, 85.726
82.218, 116.944
83.614, 107.247
85.009, 117.631
86.404, 136.090
87.798, 128.620
89.193, 149.217
90.587, 128.877
91.981, 130.597
93.375, 150.376
94.768, 167.210
96.161, 161.095
97.554, 139.026
98.947, 171.001
100.340, 163.017
101.732, 167.072
103.124, 173.163
104.516, 166.289
105.908, 172.888
107.300, 177.640
108.691, 175.862
110.082, 182.114
111.473, 179.395
112.864, 181.703
114.254, 252.040
115.644, 339.402
117.034, 414.791
118.424, 425.204
119.813, 484.642
121.203, 563.105
122.592, 558.593
123.981, 555.103
125.369, 471.636
126.758, 393.191
128.146, 289.767
129.534, 275.367
130.922, 235.989
132.309, 219.640
133.696, 160.316
135.083, 184.013
136.470, 175.727
137.857, 180.451
139.243, 141.176
140.630, 143.902
142.016, 139.633
143.401, 134.368
144.787, 140.114
146.172, 146.867
147.557, 145.628
148.942, 139.397
150.327, 126.174
151.711, 126.736
153.096, 128.757
154.480, 122.562
155.863, 128.377
157.247, 130.203
158.630, 152.038
160.013, 148.884
161.396, 150.740
162.779, 132.607
164.161, 119.485
165.544, 123.373
166.926, 113.273
168.308, 136.183
169.689, 111.104
171.070, 114.036
172.452, 101.978
173.833, 94.934
175.213, 113.900
176.594, 109.876
177.974, 103.863
179.354, 104.861
180.734, 100.868
182.114, 83.886
183.493, 97.914
184.872, 111.952
186.251, 106.003
187.630, 85.061
189.008, 87.129
190.387, 90.207
191.765, 84.902
193.143, 90.425
194.520, 91.606
195.898, 88.721
197.275, 98.846
198.652, 81.980
200.029, 96.124
201.405, 70.277
202.782, 91.439
204.158, 99.610
205.534, 104.791
206.909, 102.366
208.285, 101.963
209.660, 82.673
211.035, 90.303
212.410, 80.570
213.784, 70.115
215.159, 73.347
216.533, 96.752
217.907, 85.960
219.281, 114.217
220.654, 108.561
222.027, 140.613
223.400, 136.393
224.773, 154.198
226.146, 212.028
227.518, 199.885
228.891, 235.751
230.263, 278.657
231.634, 308.534
233.006, 282.503
234.377, 270.437
235.748, 234.708
237.119, 188.709
238.490, 203.735
239.860, 137.769
241.231, 132.818
242.601, 119.880
243.970, 80.957
245.340, 65.045
246.709, 56.147
248.079, 75.260
249.448, 41.385
250.816, 36.521
252.185, 55.668
253.553, 36.826
254.921, 55.995
256.289, 40.174
257.657, 46.364
259.024, 65.566
260.391, 43.780
261.758, 41.002
263.125, 62.235
264.492, 36.477
265.858, 58.728
267.224, 8.988
268.590, 26.257
269.956, 33.534
271.321, 30.821
272.687, 30.116
274.052, 33.420
275.416, 55.734
276.781, 25.058
278.146, 48.392
279.510, 27.733
280.874, 31.086
282.237, 27.444
283.601, 36.810
284.964, 42.183
286.327, 55.562
287.690, 45.947
289.053, 34.339
290.416, 36.737
291.778, 10.142
293.140, 49.700
294.502, 12.117
295.863, 13.539
297.225, 40.967
298.586, 22.401
299.947, 12.841
301.308, 43.286
302.668, 19.736
304.029, 37.192
305.389, 12.654
306.749, 26.121
308.108, 44.594
309.468, 21.072
310.827, 23.555
312.186, 46.044
313.545, 10.538
314.903, 21.038
316.262, 11.543
317.620, 0.055
318.978, 6.573
320.336, 4.095
321.693, 19.623
323.051, 36.156
324.408, 16.696
325.765, 29.241
327.121, 12.791
328.478, 4.653
329.834, 11.907
331.190, 23.472
332.546, 42.041
333.902, 39.616
335.257, 22.196
336.612, 19.780
337.967, 14.369
339.322, 14.963
340.677, 11.684
342.031, 11.313
343.385, 10.773
344.739, 13.386
346.093, 19.003
347.446, 24.624
348.799, 13.250
350.153, 5.881
351.505, 11.515
352.858, 4.154
354.210, 32.798
355.563, 12.445
356.915, 19.883
358.267, 9.248
359.618, 12.410
360.969, 17.073
362.321, 3.739
363.672, 1.410
365.022, 0.085
366.373, 12.237
367.723, 2.444
369.073, 16.129
370.423, 2.184
371.773, 2.506
373.122, 9.799
374.471, 2.896
375.821, 14.594
377.169, 5.706
378.518, 0.998
379.866, 16.296
381.215, 16.004
382.563, 16.880
383.910, 9.171
385.258, 13.541
386.605, 35.259
387.952, 27.195
389.299, 32.236
390.646, 13.993
391.992, 14.733
393.339, 10.479
394.685, 0.771
396.031, 2.133
397.376, 8.235
398.722, 5.027
400.067, 0.022
401.412, 7.890
402.757, 22.765
404.101, 21.551
405.446, 19.337
406.790, 50.131
408.134, 96.929
409.478, 187.731
410.821, 360.537
412.165, 504.347
413.508, 722.171
414.851, 967.989
416.193, 1097.005
417.536, 905.922
418.878, 616.921
420.220, 381.390
421.562, 249.631
422.904, 197.537
424.245, 111.613
425.586, 69.749
426.927, 54.603
428.268, 19.488
429.609, 12.694
430.949, 15.558
432.289, 19.834
433.629, 12.895
434.969, 25.926
436.309, 40.393
437.648, 18.808
438.987, 5.462
440.326, 7.389
441.665, 26.106
443.003, 43.999
444.342, 25.895
445.680, 32.794
447.018, 42.695
448.355, 26.599
449.693, 35.505
451.030, 18.416
452.367, 16.331
453.704, 1.752
455.041, 25.166
456.377, 33.087
457.713, 33.010
459.049, 16.936
460.385, 31.864
461.721, 22.794
463.056, 39.727
464.391, 34.662
465.726, 42.605
467.061, 45.031
468.395, 27.486
469.730, 43.430
471.064, 30.376
472.398, 21.325
473.731, 59.277
475.065, 73.230
476.398, 87.186
477.731, 109.264
479.064, 120.459
480.397, 137.534
481.729, 149.503
483.062, 161.474
484.394, 179.818
485.725, 251.797
487.057, 292.872
488.389, 392.859
489.720, 457.758
491.051, 671.752
492.382, 884.746
493.712, 1218.749
495.043, 1581.762
496.373, 1934.779
497.703, 2254.798
499.032, 2309.818
500.362, 2156.839
501.691, 1731.862
503.020, 1349.886
504.349, 1037.911
505.678, 762.938
507.007, 559.967
508.335, 388.996
509.663, 294.027
510.991, 215.061
512.319, 201.097
513.646, 154.133
514.973, 121.171
516.300, 113.210
517.627, 66.250
518.954, 56.017
520.280, 57.059
521.607, 48.104
522.933, 49.150
524.259, 54.197
525.584, 24.242
526.910, 41.888
528.235, 26.938
529.560, 58.988
530.885, 51.990
532.209, 69.042
533.534, 38.780
534.858, 60.833
536.182, 53.887
537.506, 45.776
538.829, 39.831
540.152, 50.290
541.476, 23.760
542.799, 9.187
544.121, 34.943
545.444, 39.001
546.766, 35.059
548.088, 13.128
549.410, 6.813
550.732, 24.242
552.053, 38.298
553.375, 31.354
554.696, 10.387
556.017, 5.443
557.337, 5.736
558.658, 0.683
559.978, 2.242
561.298, 2.271
562.618, 6.859
563.938, 8.641
565.257, 14.390
566.576, 14.438
567.895, 19.518
569.214, 14.566
570.533, 14.588
571.851, 7.641
573.170, 11.712
574.488, 0.856
575.805, 3.902
577.123, 1.653
578.440, 6.681
579.758, 2.643
581.075, 5.393
582.391, 0.527
583.708, 0.436
585.024, 10.619
586.341, 7.653
587.657, 1.255
588.972, 15.775
590.288, 2.196
591.603, 1.830
592.918, 2.853
594.233, 5.126
595.548, 4.111
596.863, 8.101
598.177, 7.901
599.491, 8.945
600.805, 24.048
602.119, 13.041
603.432, 59.033
604.746, 103.025
606.059, 168.017
607.372, 244.009
608.685, 330.221
609.997, 240.641
611.309, 135.630
612.621, 58.469
613.933, 36.456
615.245, 48.442
616.557, 36.427
617.868, 25.411
619.179, 24.222
620.490, 17.793
621.801, 17.357
623.111, 12.337
624.421, 26.316
625.731, 21.294
627.041, 38.270
628.351, 45.245
629.660, 26.486
630.970, 32.480
632.279, 15.466
633.588, 16.444
634.896, 1.587
636.205, 15.348
637.513, 25.351
638.821, 21.622
640.129, 29.582
641.437, 0.540
642.744, 19.367
644.051, 9.319
645.358, 29.679
646.665, 24.113
647.972, 44.059
649.278, 35.005
650.584, 45.486
651.890, 53.359
653.196, 44.929
654.502, 72.867
655.807, 64.803
657.113, 68.737
658.418, 92.669
659.722, 115.605
661.027, 134.533
662.331, 129.494
663.636, 192.418
664.940, 278.349
666.244, 386.345
667.547, 541.714
668.851, 1053.630
670.154, 1822.544
671.457, 3077.508
672.760, 5189.417
674.062, 7473.408
675.365, 8791.310
676.667, 7604.216
677.969, 4805.530
679.271, 2692.430
680.572, 1592.327
681.874, 968.223
683.175, 539.116
684.476, 356.008
685.777, 256.899
687.077, 181.787
688.378, 168.673
689.678, 122.557
690.978, 117.440
692.278, 84.321
693.577, 85.199
694.877, 71.426
696.176, 75.951
697.475, 62.826
698.774, 54.701
700.072, 66.577
701.371, 55.452
702.669, 55.324
703.967, 22.195
705.265, 48.062
706.562, 57.381
707.860, 28.245
709.157, 34.105
710.454, 37.964
711.751, 40.820
713.047, 17.654
714.344, 32.007
715.640, 14.630
716.936, 49.381
718.232, 17.128
719.527, 28.966
720.823, 2.194
722.118, 38.637
723.413, 18.466
724.708, 24.293
726.002, 36.118
727.297, 28.940
728.591, 25.751
729.885, 13.568
731.179, 23.189
732.472, 4.912
733.766, 18.650
735.059, 34.842
736.352, 28.660
737.645, 13.515
738.937, 52.084
740.230, 18.594
741.522, 38.387
742.814, 15.151
744.106, 37.780
745.397, 59.566
746.689, 40.943
747.980, 39.534
749.271, 41.158
750.562, 40.346
751.853, 20.587
753.143, 21.590
754.433, 7.322
755.723, 34.264
757.013, 18.030
758.303, 33.935
759.592, 49.758
760.881, 28.633
762.170, 41.439
763.459, 4.196
764.748, 0.051
766.036, 23.696
767.325, 47.442
768.613, 40.186
769.901, 17.929
771.188, 52.670
772.476, 31.409
773.763, 21.199
775.050, 26.934
776.337, 22.668
777.624, 23.937
778.910, 39.124
780.196, 21.852
781.482, 38.579
782.768, 24.304
784.054, 2.027
785.339, 12.746
786.625, 13.463
787.910, 14.179
789.195, 29.892
790.479, 9.859
791.764, 9.842
793.048, 0.542
794.332, 25.237
795.616, 17.931
796.900, 8.748
798.183, 17.935
799.467, 17.479
800.750, 2.811
802.033, 14.851
803.316, 30.511
804.598, 19.830
805.880, 26.186
807.163, 5.559
808.445, 52.060
809.726, 16.678
811.008, 15.295
812.289, 16.910
813.570, 10.524
814.851, 14.137
816.132, 6.749
817.413, 11.358
818.693, 8.967
819.973, 3.574
821.253, 3.820
822.533, 32.780
823.813, 26.379
825.092, 3.976
826.371, 18.572
827.650, 2.167
828.929, 29.761
830.208, 30.353
831.486, 4.056
832.764, 32.531
834.042, 23.116
835.320, 48.701
836.598, 52.284
837.875, 61.867
839.152, 72.449
840.429, 57.031
841.706, 47.611
842.983, 66.191
844.259, 41.769
845.536, 17.348
846.812, 27.925
848.088, 16.502
849.363, 55.078
850.639, 12.654
851.914, 6.228
853.189, 44.803
854.464, 37.376
855.739, 36.949
857.013, 33.522
858.288, 44.085
859.562, 45.656
860.836, 4.230
862.110, 14.803
863.383, 31.375
864.656, 53.948
865.930, 18.520
867.203, 35.039
868.475, 21.613
869.748, 24.101
871.020, 3.676
872.292, 3.203
873.564, 16.778
874.836, 16.654
876.108, 7.229
877.379, 18.773
878.650, 5.363
879.922, 20.923
881.192, 14.581
882.463, 9.073
883.733, 7.553
885.004, 2.129
886.274, 3.599
887.544, 1.045
888.813, 9.466
890.083, 20.884
891.352, 16.596
892.621, 22.176
893.890, 58.736
895.159, 23.319
896.427, 6.158
897.695, 11.425
898.964, 18.008
900.232, 8.594
901.499, 8.181
902.767, 30.769
904.034, 3.360
905.301, 36.954
906.568, 25.552
907.835, 36.998
909.102, 13.601
910.368, 5.796
911.634, 3.193
912.900, 5.071
914.166, 2.707
915.432, 14.615
916.697, 7.996
917.962, 16.169
919.227, 10.774
920.492, 26.379
921.757, 19.986
923.021, 0.593
924.285, 33.201
925.550, 3.190
926.813, 16.419
928.077, 21.029
929.341, 38.640
930.604, 5.252
931.867, 37.865
933.130, 13.479
934.393, 4.095
935.655, 26.711
936.918, 50.062
938.180, 33.659
939.442, 20.264
940.703, 36.878
941.965, 27.804
943.226, 47.154
944.488, 27.739
945.749, 48.057
947.009, 36.687
948.270, 45.317
949.530, 42.931
950.791, 47.714
952.051, 36.940
953.311, 52.094
954.570, 56.734
955.830, 71.376
957.089, 73.481
958.348, 63.201
959.607, 55.222
960.866, 61.196
962.124, 76.532
963.383, 66.190
964.641, 71.851
965.899, 67.354
967.156, 121.171
968.414, 84.803
969.671, 111.471
970.928, 143.132
972.185, 136.729
973.442, 145.953
974.699, 148.630
975.955, 199.314
977.211, 186.947
978.468, 191.635
979.723, 214.243
980.979, 205.942
982.234, 231.644
983.490, 228.937
984.745, 245.644
986.000, 224.352
987.254, 241.064
988.509, 276.777
989.763, 265.493
991.017, 346.212
992.271, 379.939
993.525, 411.669
994.779, 486.401
996.032, 560.135
997.285, 771.873
998.538, 955.612
999.791, 1166.356
1001.044, 1218.102
1002.296, 1242.853
1003.548, 1323.607
1004.800, 1465.363
1006.052, 1912.121
1007.304, 2374.885
1008.555, 3183.652
1009.807, 4253.420
1011.058, 6227.191
1012.309, 9783.967
1013.559, 16651.756
1014.810, 29359.539
1016.060, 47581.332
1017.310, 58834.129
1018.560, 51932.926
1019.810, 35288.730
1021.060, 21478.545
1022.309, 13289.354
1023.558, 8616.171
1024.807, 5672.992
1026.056, 3922.819
1027.305, 2873.649
1028.553, 2223.481
1029.801, 1752.317
1031.049, 1389.154
1032.297, 1149.995
1033.545, 969.860
1034.793, 797.707
1036.040, 675.561
1037.287, 597.316
1038.534, 519.152
1039.781, 456.435
1041.027, 395.350
1042.274, 363.535
1043.520, 319.618
1044.766, 303.272
1046.012, 268.146
1047.257, 257.837
1048.503, 255.715
1049.748, 212.600
1050.993, 231.486
1052.238, 202.376
1053.483, 184.267
1054.727, 182.161
1055.971, 162.058
1057.216, 131.957
1058.459, 100.859
1059.703, 129.763
1060.947, 134.529
1062.190, 114.377
1063.433, 109.175
1064.676, 94.042
1065.919, 76.621
1067.162, 98.878
1068.404, 53.801
1069.646, 53.728
1070.888, 70.656
1072.130, 65.587
1073.372, 65.520
1074.613, 72.456
1075.855, 58.341
1077.096, 53.282
1078.337, 70.224
1079.578, 25.169
1080.818, 37.117
1082.059, 73.070
1083.299, 34.022
1084.539, 56.976
1085.779, 50.933
1087.018, 33.893
1088.258, 8.856
1089.497, 35.822
1090.736, 56.790
1091.975, 21.761
1093.213, 29.738
1094.452, 22.718
1095.690, 7.701
1096.928, 6.761
1098.166, 11.509
1099.404, 43.744
1100.642, 15.740
1101.879, 80.745
1103.116, 54.754
1104.353, 88.768
1105.590, 75.782
1106.827, 114.966
1108.063, 118.002
1109.299, 226.044
1110.536, 224.087
1111.771, 243.132
1113.007, 247.179
1114.243, 274.229
1115.478, 304.281
1116.713, 327.334
1117.948, 344.390
1119.183, 373.552
1120.418, 505.632
1121.652, 755.694
1122.886, 1067.762
1124.120, 1644.876
1125.354, 2695.945
1126.588, 5011.021
1127.821, 8592.097
1129.055, 12250.728
1130.288, 12484.887
1131.521, 8787.992
1132.753, 5095.075
1133.986, 2959.161
1135.218, 1797.245
1136.450, 1093.332
1137.682, 814.423
1138.914, 527.542
1140.146, 392.161
1141.377, 268.271
1142.609, 249.366
1143.840, 205.512
1145.071, 198.609
1146.301, 165.707
1147.532, 157.238
1148.762, 132.338
1149.992, 94.885
1151.222, 79.031
1152.452, 76.135
1153.682, 53.253
1154.911, 54.083
1156.140, 57.190
1157.369, 63.297
1158.598, 43.405
1159.827, 90.514
1161.055, 110.705
1162.284, 104.876
1163.512, 81.516
1164.740, 42.291
1165.967, 10.444
1167.195, 11.557
1168.422, 15.110
1169.650, 5.588
1170.877, 30.449
1172.103, 2.408
1173.330, 26.716
1174.557, 14.833
1175.783, 8.950
1177.009, 15.125
1178.235, 41.264
1179.461, 28.380
1180.686, 1.319
1181.912, 24.908
1183.137, 0.043
1184.362, 5.168
1185.587, 37.287
1186.811, 20.594
1188.036, 35.562
1189.260, 25.321
1190.484, 46.785
1191.708, 30.909
1192.932, 11.371
1194.155, 14.477
1195.378, 7.600
1196.602, 11.353
1197.825, 1.460
1199.047, 30.566
1200.270, 21.557
1201.492, 24.779
1202.715, 22.885
1203.937, 20.990
1205.159, 19.096
1206.380, 19.201
1207.602, 14.553
1208.823, 16.120
1210.044, 7.516
1211.265, 20.621
1212.486, 21.727
1213.707, 30.832
1214.927, 43.936
1216.147, 39.040
1217.367, 45.899
1218.587, 42.250
1219.807, 38.354
1221.027, 41.457
1222.246, 18.560
1223.465, 3.663
1224.684, 34.765
1225.903, 47.867
1227.121, 29.968
1228.340, 2.069
1229.558, 27.170
1230.776, 9.270
1231.994, 39.369
1233.212, 32.468
1234.429, 27.566
1235.646, 18.922
1236.864, 21.017
1238.081, 28.113
1239.297, 18.210
1240.514, 17.337
1241.730, 42.471
1242.947, 0.416
1244.163, 12.681
1245.378, 40.771
1246.594, 28.862
1247.810, 33.000
1249.025, 26.044
1250.240, 7.135
1251.455, 12.237
1252.670, 16.766
1253.885, 15.313
1255.099, 34.392
1256.313, 13.463
1257.527, 51.532
1258.741, 17.630
1259.955, 27.763
1261.168, 49.866
1262.382, 31.926
1263.595, 15.984
1264.808, 1.042
1266.021, 7.095
1267.233, 13.146
1268.446, 12.195
1269.658, 13.642
1270.870, 57.402
1272.082, 12.488
1273.294, 25.510
1274.505, 21.454
1275.716, 2.564
1276.928, 7.567
1278.139, 19.592
1279.349, 25.586
1280.560, 24.578
1281.770, 30.567
1282.981, 14.554
1284.191, 8.539
1285.401, 20.323
1286.610, 11.652
1287.820, 25.649
1289.029, 6.641
1290.239, 16.604
1291.448, 40.565
1292.656, 2.476
1293.865, 30.480
1295.073, 2.566
1296.282, 8.384
1297.490, 35.333
1298.698, 14.279
1299.906, 6.776
1301.113, 35.163
1302.320, 19.100
1303.528, 48.036
1304.735, 22.969
1305.942, 28.099
1307.148, 7.822
1308.355, 3.260
1309.561, 5.349
1310.767, 10.557
1311.973, 20.461
1313.179, 1.639
1314.384, 5.258
1315.590, 19.151
1316.795, 7.958
1318.000, 2.917
1319.205, 37.789
1320.410, 20.659
1321.614, 9.524
1322.819, 15.387
1324.023, 15.247
1325.227, 4.125
1326.431, 5.955
1327.634, 16.804
1328.838, 19.646
1330.041, 23.489
1331.244, 35.330
1332.447, 11.157
1333.650, 20.990
1334.852, 38.501
1336.055, 15.330
1337.257, 0.844
1338.459, 20.979
1339.661, 15.800
1340.862, 5.382
1342.064, 21.431
1343.265, 53.242
1344.466, 29.050
1345.667, 39.856
1346.868, 56.673
1348.068, 68.474
1349.269, 28.273
1350.469, 48.070
1351.669, 20.865
1352.869, 44.659
1354.069, 70.450
1355.268, 37.240
1356.468, 68.028
1357.667, 61.814
1358.866, 90.600
1360.065, 47.384
1361.263, 60.459
1362.462, 25.241
1363.660, 52.023
1364.858, 80.803
1366.056, 75.583
1367.254, 74.364
1368.451, 48.144
1369.649, 42.924
1370.846, 40.712
1372.043, 48.505
1373.240, 33.427
1374.436, 57.186
1375.633, 49.942
1376.829, 31.690
1378.025, 38.400
1379.221, 2.085
1380.417, 66.748
1381.613, 50.748
1382.808, 60.745
1384.003, 15.664
1385.199, 14.655
1386.393, 19.644
1387.588, 41.626
1388.783, 38.375
1389.977, 54.337
1391.171, 50.612
1392.365, 39.251
1393.559, 31.203
1394.753, 21.036
1395.946, 8.042
1397.140, 50.713
1398.333, 45.636
1399.526, 29.762
1400.719, 67.538
1401.911, 15.437
1403.104, 10.334
1404.296, 14.189
1405.488, 22.204
1406.680, 40.008
1407.872, 27.872
1409.063, 37.192
1410.255, 33.425
1411.446, 32.249
1412.637, 4.152
1413.828, 18.979
1415.018, 6.524
1416.209, 21.057
1417.399, 11.885
1418.589, 13.047
1419.779, 34.648
1420.969, 7.946
1422.159, 31.670
1423.348, 43.276
1424.537, 51.727
1425.726, 49.249
1426.915, 28.941
1428.104, 0.423
1429.293, 15.290
1430.481, 8.431
1431.669, 9.111
1432.857, 45.789
1434.045, 43.473
1435.233, 54.152
1436.420, 55.827
1437.608, 31.497
1438.795, 52.163
1439.982, 28.824
1441.169, 33.480
1442.355, 42.129
1443.542, 77.771
1444.728, 65.407
1445.914, 49.037
1447.100, 76.661
1448.286, 45.277
1449.472, 17.886
1450.657, 73.489
1451.842, 18.567
1453.027, 80.145
1454.212, 52.564
1455.397, 58.072
1456.581, 76.621
1457.766, 81.153
1458.950, 77.286
1460.134, 63.087
1461.318, 60.570
1462.501, 51.989
1463.685, 45.214
1464.868, 43.697
1466.051, 59.170
1467.234, 4.645
1468.417, 17.798
1469.600, 51.164
1470.782, 15.624
1471.965, 40.107
1473.147, 46.681
1474.329, 37.258
1475.510, 44.360
1476.692, 29.841
1477.873, 47.339
1479.055, 49.914
1480.236, 49.482
1481.416, 59.611
1482.597, 21.593
1483.778, 70.136
1484.958, 39.672
1486.138, 43.200
1487.318, 56.730
1488.498, 5.266
1489.678, 18.803
1490.857, 52.339
1492.037, 32.957
1493.216, 46.593
1494.395, 16.244
1495.574, 37.804
1496.752, 46.499
1497.931, 40.208
1499.109, 10.940
1500.287, 49.707
1501.465, 46.493
1502.643, 3.700
1503.820, 56.135
1504.998, 45.006
1506.175, 29.801
1507.352, 16.753
1508.529, 23.750
1509.706, 35.808
1510.882, 31.924
1512.059, 12.104
1513.235, 4.715
1514.411, 0.645
1515.587, 30.853
1516.762, 33.046
1517.938, 53.036
1519.113, 22.283
1520.288, 29.166
1521.463, 0.000
##END=



