##NAMES=Anhydrite
##RRUFFID=R040061
##IDEAL CHEMISTRY=CaS^6+^O_4_
##LOCALITY=Chester County, Pennsylvania, USA
##OWNER=RRUFF
##SOURCE=University of Arizona Mineral Museum
##DESCRIPTION=Pale purple fractured single crystal
##STATUS=The identification of this mineral has been confirmed by X-ray diffraction and chemical analysis
##URL=rruff.info/R040061
##MEASURED CHEMISTRY=Ca_0.98_S_1.01_O_4_
##PIN_ID=M00472
##ORIENTATION=Laser parallel to b* (0 1 0). Fiducial mark perpendicular to laser is parallel to c [0 0 1]
83.614, 0.000
85.009, 18.115
86.404, 19.790
87.798, 18.436
89.193, 66.409
90.587, 66.911
91.981, 75.630
93.375, 129.066
94.768, 75.019
96.161, 85.325
97.554, 77.838
98.947, 109.467
100.340, 120.155
101.732, 94.867
103.124, 95.581
104.516, 89.284
105.908, 88.971
107.300, 97.660
108.691, 45.485
110.082, 41.526
111.473, 49.779
112.864, 64.020
114.254, 81.150
115.644, 197.182
117.034, 261.128
118.424, 262.000
119.813, 203.808
121.203, 183.559
122.592, 141.261
123.981, 76.919
125.369, 51.538
126.758, 62.122
128.146, 35.673
129.534, 92.195
130.922, 49.338
132.309, 52.819
133.696, 6.198
135.083, 48.207
136.470, 24.155
137.857, 59.702
139.243, 58.475
140.630, 16.370
142.016, 40.325
143.401, 29.348
144.787, 47.324
146.172, 47.361
147.557, 47.606
148.942, 24.327
150.327, 43.332
151.711, 40.347
153.096, 24.382
154.480, 56.412
155.863, 12.440
157.247, 47.493
158.630, 58.540
160.013, 52.592
161.396, 49.645
162.779, 74.720
164.161, 124.794
165.544, 177.861
166.926, 158.066
168.308, 224.981
169.689, 111.044
171.070, 57.112
172.452, 12.185
173.833, 26.265
175.213, 27.351
176.594, 1.559
177.974, 42.535
179.354, 28.446
180.734, 27.536
182.114, 22.299
183.493, 23.070
184.872, 6.748
186.251, 14.341
187.630, 6.957
189.008, 30.547
190.387, 17.527
191.765, 22.385
193.143, 42.699
194.520, 23.228
195.898, 33.843
197.275, 14.003
198.652, 38.551
200.029, 57.795
201.405, 35.868
202.782, 6.898
204.158, 41.926
205.534, 31.986
206.909, 6.012
208.285, 16.037
209.660, 16.063
211.035, 14.586
212.410, 24.226
213.784, 28.506
215.159, 48.605
216.533, 63.712
217.907, 97.687
219.281, 100.662
220.654, 80.669
222.027, 138.618
223.400, 195.517
224.773, 271.475
226.146, 379.467
227.518, 434.365
228.891, 681.808
230.263, 737.689
231.634, 873.592
233.006, 823.515
234.377, 704.453
235.748, 607.254
237.119, 388.125
238.490, 366.996
239.860, 259.035
241.231, 225.639
242.601, 141.513
243.970, 123.366
245.340, 125.219
246.709, 80.073
248.079, 84.926
249.448, 56.922
250.816, 45.661
252.185, 87.163
253.553, 40.347
254.921, 25.556
256.289, 48.781
257.657, 73.018
259.024, 72.262
260.391, 38.513
261.758, 41.845
263.125, 51.097
264.492, 71.346
265.858, 68.593
267.224, 44.836
268.590, 41.077
269.956, 63.314
271.321, 99.548
272.687, 32.780
274.052, 1.993
275.416, 53.194
276.781, 26.374
278.146, 12.549
279.510, 30.718
280.874, 3.904
282.237, 33.062
283.601, 14.217
284.964, 20.368
286.327, 3.486
287.690, 18.656
289.053, 10.206
290.416, 34.027
291.778, 3.182
293.140, 24.460
294.502, 29.228
295.863, 54.689
297.225, 34.263
298.586, 35.975
299.947, 38.133
301.308, 33.732
302.668, 40.813
304.029, 34.744
305.389, 42.739
306.749, 41.732
308.108, 19.725
309.468, 19.718
310.827, 7.288
312.186, 8.302
313.545, 2.318
314.903, 1.663
316.262, 20.642
317.620, 43.619
318.978, 34.595
320.336, 66.570
321.693, 44.544
323.051, 82.516
324.408, 22.487
325.765, 46.457
327.121, 83.425
328.478, 43.392
329.834, 36.358
331.190, 51.322
332.546, 28.285
333.902, 41.247
335.257, 37.873
336.612, 41.165
337.967, 27.122
339.322, 31.077
340.677, 3.845
342.031, 8.797
343.385, 12.882
344.739, 34.686
346.093, 45.127
347.446, 8.935
348.799, 33.473
350.153, 72.400
351.505, 23.723
352.858, 63.560
354.210, 13.474
355.563, 10.178
356.915, 29.729
358.267, 15.018
359.618, 27.922
360.969, 47.824
362.321, 27.718
363.672, 11.605
365.022, 36.491
366.373, 4.358
367.723, 32.241
369.073, 40.123
370.423, 2.019
371.773, 15.141
373.122, 35.730
374.471, 27.601
375.821, 19.470
377.169, 51.341
378.518, 22.209
379.866, 17.073
381.215, 39.934
382.563, 11.796
383.910, 58.652
385.258, 11.458
386.605, 53.398
387.952, 25.258
389.299, 59.117
390.646, 31.082
391.992, 3.931
393.339, 14.220
394.685, 9.330
396.031, 38.516
397.376, 20.365
398.722, 35.209
400.067, 36.052
401.412, 29.896
402.757, 44.735
404.101, 51.605
405.446, 44.843
406.790, 26.280
408.134, 46.117
409.478, 29.954
410.821, 55.792
412.165, 75.628
413.508, 154.463
414.851, 133.355
416.193, 163.127
417.536, 128.955
418.878, 48.780
420.220, 58.603
421.562, 28.423
422.904, 7.240
424.245, 34.054
425.586, 46.866
426.927, 59.676
428.268, 71.510
429.609, 67.988
430.949, 46.200
432.289, 59.107
433.629, 38.955
434.969, 39.748
436.309, 36.306
437.648, 55.097
438.987, 33.886
440.326, 45.972
441.665, 22.479
443.003, 57.113
444.342, 30.996
445.680, 40.761
447.018, 59.554
448.355, 41.197
449.693, 42.727
451.030, 2.752
452.367, 20.554
453.704, 0.869
455.041, 9.078
456.377, 4.292
457.713, 6.140
459.049, 8.740
460.385, 8.025
461.721, 39.794
463.056, 44.567
464.391, 39.338
465.726, 85.106
467.061, 68.871
468.395, 42.637
469.730, 99.370
471.064, 58.104
472.398, 94.754
473.731, 119.594
475.065, 57.808
476.398, 119.265
477.731, 56.991
479.064, 137.744
480.397, 123.495
481.729, 155.244
483.062, 177.994
484.394, 206.740
485.725, 216.460
487.057, 343.202
488.389, 383.941
489.720, 574.677
491.051, 721.410
492.382, 969.141
493.712, 1367.867
495.043, 1795.593
496.373, 2350.316
497.703, 2589.036
499.032, 2485.743
500.362, 2087.459
501.691, 1559.977
503.020, 1017.592
504.349, 789.234
505.678, 545.943
507.007, 408.662
508.335, 360.479
509.663, 255.207
510.991, 209.940
512.319, 154.656
513.646, 162.406
514.973, 132.101
516.300, 97.012
517.627, 100.759
518.954, 64.477
520.280, 95.225
521.607, 80.971
522.933, 102.713
524.259, 88.403
525.584, 86.139
526.910, 65.791
528.235, 53.522
529.560, 61.249
530.885, 62.701
532.209, 57.242
533.534, 53.046
534.858, 63.971
536.182, 66.466
537.506, 90.174
538.829, 80.343
540.152, 37.704
541.476, 62.594
542.799, 43.236
544.121, 22.990
545.444, 76.255
546.766, 34.802
548.088, 64.660
549.410, 5.337
550.732, 76.010
552.053, 38.591
553.375, 19.355
554.696, 42.959
556.017, 30.718
557.337, 78.122
558.658, 50.918
559.978, 42.714
561.298, 73.787
562.618, 24.568
563.938, 52.964
565.257, 84.700
566.576, 35.449
567.895, 90.187
569.214, 88.272
570.533, 68.020
571.851, 95.665
573.170, 59.306
574.488, 49.910
575.805, 64.510
577.123, 45.107
578.440, 40.771
579.758, 81.389
581.075, 58.999
582.391, 53.599
583.708, 63.196
585.024, 44.036
586.341, 28.640
587.657, 21.588
588.972, 28.788
590.288, 9.399
591.603, 23.090
592.918, 51.633
594.233, 17.043
595.548, 52.526
596.863, 83.123
598.177, 23.999
599.491, 80.575
600.805, 55.199
602.119, 19.959
603.432, 71.807
604.746, 103.721
606.059, 0.680
607.372, 48.901
608.685, 49.377
609.997, 42.872
611.309, 51.315
612.621, 69.715
613.933, 85.528
615.245, 80.637
616.557, 77.690
617.868, 108.511
619.179, 95.790
620.490, 202.274
621.801, 331.704
623.111, 454.166
624.421, 828.586
625.731, 1230.556
627.041, 1454.101
628.351, 957.474
629.660, 468.010
630.970, 338.547
632.279, 163.105
633.588, 158.597
634.896, 105.118
636.205, 190.605
637.513, 81.062
638.821, 144.489
640.129, 158.629
641.437, 152.991
642.744, 174.347
644.051, 141.699
645.358, 142.044
646.665, 205.384
647.972, 153.802
649.278, 173.130
650.584, 143.534
651.890, 127.679
653.196, 159.164
654.502, 121.470
655.807, 87.833
657.113, 133.370
658.418, 126.761
659.722, 125.727
661.027, 170.006
662.331, 151.380
663.636, 163.174
664.940, 152.547
666.244, 313.706
667.547, 378.633
668.851, 784.881
670.154, 1343.670
671.457, 2606.906
672.760, 5123.136
674.062, 7625.363
675.365, 7806.583
676.667, 5000.797
677.969, 2208.017
679.271, 1090.264
680.572, 546.459
681.874, 388.649
683.175, 263.831
684.476, 193.008
685.777, 208.178
687.077, 101.342
688.378, 138.500
689.678, 62.657
690.978, 13.808
692.278, 1.050
693.577, 79.079
694.877, 17.201
696.176, 64.316
697.475, 14.424
698.774, 79.525
700.072, 5.381
701.371, 5.666
702.669, 2.262
703.967, 14.796
705.265, 62.846
706.562, 101.782
707.860, 70.819
709.157, 24.851
710.454, 15.167
711.751, 28.844
713.047, 1.155
714.344, 17.835
715.640, 16.819
716.936, 4.795
718.232, 18.265
719.527, 1.316
720.823, 26.629
722.118, 22.567
723.413, 24.803
724.708, 3.727
726.002, 20.058
727.297, 43.598
728.591, 43.498
729.885, 66.391
731.179, 79.278
732.472, 68.366
733.766, 33.034
735.059, 42.903
736.352, 43.765
737.645, 25.622
738.937, 44.472
740.230, 7.316
741.522, 40.152
742.814, 45.955
744.106, 44.721
745.397, 34.512
746.689, 14.215
747.980, 47.968
749.271, 3.233
750.562, 36.316
751.853, 28.097
753.143, 13.128
754.433, 30.572
755.723, 41.677
757.013, 5.042
758.303, 29.333
759.592, 14.647
760.881, 18.021
762.170, 20.249
763.459, 44.904
764.748, 14.554
766.036, 93.194
767.325, 10.167
768.613, 78.458
769.901, 79.082
771.188, 26.702
772.476, 41.318
773.763, 24.068
775.050, 29.525
776.337, 61.112
777.624, 31.694
778.910, 48.272
780.196, 2.588
781.482, 7.974
782.768, 9.470
784.054, 7.197
785.339, 5.744
786.625, 3.797
787.910, 14.788
789.195, 6.307
790.479, 12.820
791.764, 18.327
793.048, 23.795
794.332, 7.674
795.616, 44.812
796.900, 38.292
798.183, 49.769
799.467, 93.240
800.750, 69.708
802.033, 14.171
803.316, 72.629
804.598, 14.083
805.880, 45.531
807.163, 44.976
808.445, 59.417
809.726, 16.853
811.008, 0.715
812.289, 6.710
813.570, 8.670
814.851, 43.540
816.132, 5.946
817.413, 22.652
818.693, 2.733
819.973, 44.887
821.253, 25.536
822.533, 76.797
823.813, 39.873
825.092, 30.431
826.371, 65.732
827.650, 50.029
828.929, 43.323
830.208, 75.613
831.486, 21.900
832.764, 13.184
834.042, 47.464
835.320, 71.741
836.598, 148.015
837.875, 132.611
839.152, 33.554
840.429, 119.819
841.706, 76.080
842.983, 58.339
844.259, 153.595
845.536, 135.639
846.812, 91.087
848.088, 66.335
849.363, 107.419
850.639, 155.662
851.914, 56.710
853.189, 109.948
854.464, 120.121
855.739, 180.926
857.013, 179.030
858.288, 135.347
859.562, 176.574
860.836, 171.800
862.110, 157.024
863.383, 154.128
864.656, 140.693
865.930, 138.812
867.203, 93.260
868.475, 61.330
869.748, 125.395
871.020, 109.178
872.292, 53.248
873.564, 51.698
874.836, 31.802
876.108, 10.111
877.379, 22.980
878.650, 57.719
879.922, 2.209
881.192, 65.960
882.463, 42.130
883.733, 57.361
885.004, 63.599
886.274, 45.840
887.544, 111.009
888.813, 34.220
890.083, 81.435
891.352, 73.574
892.621, 46.793
893.890, 115.765
895.159, 36.968
896.427, 77.197
897.695, 121.421
898.964, 105.605
900.232, 116.705
901.499, 104.816
902.767, 74.405
904.034, 61.617
905.301, 69.795
906.568, 50.692
907.835, 93.884
909.102, 26.001
910.368, 35.002
911.634, 73.911
912.900, 27.751
914.166, 87.904
915.432, 42.071
916.697, 44.339
917.962, 77.487
919.227, 62.757
920.492, 72.000
921.757, 39.273
923.021, 24.546
924.285, 83.758
925.550, 95.032
926.813, 93.391
928.077, 19.623
929.341, 99.903
930.604, 116.148
931.867, 24.568
933.130, 57.160
934.393, 98.308
935.655, 9.375
936.918, 88.775
938.180, 34.923
939.442, 34.048
940.703, 62.240
941.965, 83.400
943.226, 32.591
944.488, 11.809
945.749, 12.052
947.009, 26.579
948.270, 43.881
949.530, 21.191
950.791, 51.502
952.051, 36.815
953.311, 43.746
954.570, 86.365
955.830, 46.684
957.089, 47.925
958.348, 34.250
959.607, 111.578
960.866, 30.909
962.124, 71.190
963.383, 79.302
964.641, 27.567
965.899, 83.271
967.156, 10.660
968.414, 80.951
969.671, 127.820
970.928, 91.107
972.185, 85.607
973.442, 102.337
974.699, 129.741
975.955, 172.601
977.211, 177.011
978.468, 177.424
979.723, 121.840
980.979, 72.259
982.234, 186.682
983.490, 135.100
984.745, 221.486
986.000, 272.921
987.254, 234.359
988.509, 340.801
989.763, 319.245
991.017, 279.691
992.271, 393.143
993.525, 432.596
994.779, 520.053
996.032, 621.529
997.285, 718.008
998.538, 957.495
999.791, 1184.987
1001.044, 1285.483
1002.296, 1340.981
1003.548, 1348.490
1004.800, 1536.004
1006.052, 1866.527
1007.304, 2308.056
1008.555, 2996.594
1009.807, 4012.137
1011.058, 5760.685
1012.309, 8969.234
1013.559, 15377.803
1014.810, 28429.373
1016.060, 47263.949
1017.310, 55277.539
1018.560, 42551.129
1019.810, 24286.744
1021.060, 13009.362
1022.309, 7563.986
1023.558, 5038.614
1024.807, 3580.247
1026.056, 2651.883
1027.305, 2100.217
1028.553, 1744.859
1029.801, 1393.650
1031.049, 1183.246
1032.297, 955.076
1033.545, 795.826
1034.793, 660.373
1036.040, 534.778
1037.287, 478.566
1038.534, 441.347
1039.781, 430.011
1041.027, 311.725
1042.274, 303.699
1043.520, 253.438
1044.766, 244.113
1046.012, 227.921
1047.257, 220.790
1048.503, 191.740
1049.748, 190.425
1050.993, 182.591
1052.238, 225.910
1053.483, 168.124
1054.727, 207.827
1055.971, 178.705
1057.216, 120.481
1058.459, 105.196
1059.703, 82.141
1060.947, 109.154
1062.190, 87.042
1063.433, 54.240
1064.676, 128.992
1065.919, 62.745
1067.162, 117.591
1068.404, 20.345
1069.646, 5.856
1070.888, 78.187
1072.130, 32.951
1073.372, 125.711
1074.613, 97.538
1075.855, 67.444
1077.096, 65.311
1078.337, 114.081
1079.578, 50.852
1080.818, 139.937
1082.059, 106.141
1083.299, 135.938
1084.539, 113.714
1085.779, 111.811
1087.018, 97.592
1088.258, 86.375
1089.497, 51.358
1090.736, 40.174
1091.975, 21.144
1093.213, 16.061
1094.452, 150.848
1095.690, 40.722
1096.928, 124.692
1098.166, 76.766
1099.404, 71.555
1100.642, 106.470
1101.879, 107.269
1103.116, 158.056
1104.353, 191.896
1105.590, 82.835
1106.827, 168.859
1108.063, 151.058
1109.299, 174.076
1110.536, 207.234
1111.771, 206.126
1113.007, 309.161
1114.243, 404.800
1115.478, 415.000
1116.713, 614.019
1117.948, 715.012
1119.183, 934.795
1120.418, 1317.616
1121.652, 1770.408
1122.886, 2601.374
1124.120, 4040.168
1125.354, 6596.033
1126.588, 12653.044
1127.821, 21955.857
1129.055, 30781.674
1130.288, 28854.762
1131.521, 17528.492
1132.753, 8811.288
1133.986, 4615.168
1135.218, 2724.949
1136.450, 1709.883
1137.682, 1369.712
1138.914, 971.483
1140.146, 758.692
1141.377, 562.457
1142.609, 536.241
1143.840, 426.816
1145.071, 358.569
1146.301, 350.765
1147.532, 261.042
1148.762, 224.783
1149.992, 259.533
1151.222, 237.858
1152.452, 292.349
1153.682, 273.225
1154.911, 337.376
1156.140, 453.617
1157.369, 683.784
1158.598, 1401.739
1159.827, 2405.720
1161.055, 2595.787
1162.284, 2092.579
1163.512, 1168.431
1164.740, 642.113
1165.967, 322.908
1167.195, 263.503
1168.422, 125.565
1169.650, 186.304
1170.877, 97.974
1172.103, 147.622
1173.330, 70.325
1174.557, 125.961
1175.783, 114.594
1177.009, 14.230
1178.235, 72.851
1179.461, 7.464
1180.686, 111.931
1181.912, 26.361
1183.137, 12.844
1184.362, 21.786
1185.587, 24.281
1186.811, 62.827
1188.036, 42.416
1189.260, 1.111
1190.484, 38.589
1191.708, 70.692
1192.932, 25.219
1194.155, 11.942
1195.378, 0.580
1196.602, 79.282
1197.825, 37.451
1199.047, 129.125
1200.270, 19.474
1201.492, 76.908
1202.715, 20.377
1203.937, 46.743
1205.159, 71.467
1206.380, 11.818
1207.602, 2.158
1208.823, 29.578
1210.044, 1.101
1211.265, 124.422
1212.486, 81.725
1213.707, 44.020
1214.927, 136.306
1216.147, 56.586
1217.367, 4.796
1218.587, 67.057
1219.807, 81.311
1221.027, 53.557
1222.246, 34.796
1223.465, 47.029
1224.684, 121.261
1225.903, 89.649
1227.121, 4.868
1228.340, 103.075
1229.558, 67.277
1230.776, 87.777
1231.994, 1.961
1233.212, 139.213
1234.429, 102.648
1235.646, 27.797
1236.864, 67.939
1238.081, 32.610
1239.297, 45.738
1240.514, 122.852
1241.730, 56.959
1242.947, 35.061
1244.163, 9.845
1245.378, 83.233
1246.594, 49.294
1247.810, 77.327
1249.025, 83.332
1250.240, 68.329
1251.455, 44.318
1252.670, 24.712
1253.885, 6.432
1255.099, 26.234
1256.313, 25.813
1257.527, 21.462
1258.741, 23.603
1259.955, 49.076
1261.168, 7.792
1262.382, 27.651
1263.595, 33.529
1264.808, 90.345
1266.021, 76.152
1267.233, 113.938
1268.446, 45.712
1269.658, 88.472
1270.870, 72.220
1272.082, 36.939
1273.294, 84.648
1274.505, 82.318
1275.716, 22.977
1276.928, 1.230
1278.139, 87.403
1279.349, 65.026
1280.560, 116.640
1281.770, 52.244
1282.981, 76.837
1284.191, 139.420
1285.401, 10.993
1286.610, 101.597
1287.820, 85.140
1289.029, 46.330
1290.239, 120.162
1291.448, 11.643
1292.656, 8.112
1293.865, 95.565
1295.073, 89.009
1296.282, 10.559
1297.490, 2.856
1298.698, 56.258
1299.906, 13.648
1301.113, 9.027
1302.320, 12.394
1303.528, 33.746
1304.735, 30.087
1305.942, 38.587
1307.148, 69.714
1308.355, 54.001
1309.561, 130.272
1310.767, 65.532
1311.973, 63.219
1313.179, 17.997
1314.384, 75.201
1315.590, 90.394
1316.795, 192.576
1318.000, 79.747
1319.205, 94.907
1320.410, 176.339
1321.614, 92.478
1322.819, 94.460
1324.023, 115.577
1325.227, 123.505
1326.431, 81.505
1327.634, 96.358
1328.838, 56.030
1330.041, 86.970
1331.244, 72.909
1332.447, 60.958
1333.650, 128.950
1334.852, 30.674
1336.055, 0.628
1337.257, 68.639
1338.459, 24.513
1339.661, 38.320
1340.862, 25.038
1342.064, 16.984
1343.265, 26.885
1344.466, 107.915
1345.667, 88.350
1346.868, 63.292
1348.068, 106.054
1349.269, 13.919
1350.469, 114.837
1351.669, 109.533
1352.869, 65.158
1354.069, 196.914
1355.268, 35.365
1356.468, 159.289
1357.667, 139.306
1358.866, 144.102
1360.065, 164.989
1361.263, 162.830
1362.462, 134.428
1363.660, 184.305
1364.858, 166.410
1366.056, 188.280
1367.254, 114.822
1368.451, 125.472
1369.649, 50.458
1370.846, 134.351
1372.043, 212.937
1373.240, 147.822
1374.436, 25.390
1375.633, 180.885
1376.829, 69.790
1378.025, 29.013
1379.221, 226.136
1380.417, 118.324
1381.613, 6.406
1382.808, 135.700
1384.003, 131.555
1385.199, 114.766
1386.393, 111.083
1387.588, 111.783
1388.783, 115.778
1389.977, 115.235
1391.171, 123.713
1392.365, 124.186
1393.559, 127.808
1394.753, 149.872
1395.946, 204.774
1397.140, 120.782
1398.333, 110.589
1399.526, 171.267
1400.719, 106.181
1401.911, 123.070
1403.104, 115.812
1404.296, 92.255
1405.488, 244.186
1406.680, 66.405
1407.872, 195.068
1409.063, 210.912
1410.255, 93.750
1411.446, 209.797
1412.637, 123.294
1413.828, 144.348
1415.018, 172.443
1416.209, 172.881
1417.399, 197.639
1418.589, 185.533
1419.779, 30.038
1420.969, 84.461
1422.159, 87.938
1423.348, 102.411
1424.537, 210.873
1425.726, 121.246
1426.915, 169.714
1428.104, 156.091
1429.293, 52.262
1430.481, 137.203
1431.669, 210.923
1432.857, 194.152
1434.045, 220.567
1435.233, 261.820
1436.420, 173.603
1437.608, 269.829
1438.795, 237.829
1439.982, 244.175
1441.169, 244.504
1442.355, 246.387
1443.542, 351.112
1444.728, 274.379
1445.914, 328.285
1447.100, 355.470
1448.286, 320.038
1449.472, 292.021
1450.657, 464.610
1451.842, 346.618
1453.027, 343.675
1454.212, 458.701
1455.397, 323.688
1456.581, 344.734
1457.766, 350.876
1458.950, 282.986
1460.134, 188.062
1461.318, 94.121
1462.501, 1.155
1463.685, 139.163
1464.868, 147.125
1466.051, 235.218
1467.234, 149.344
1468.417, 267.525
1469.600, 144.820
1470.782, 371.788
1471.965, 134.150
1473.147, 348.506
1474.329, 240.855
1475.510, 132.067
1476.692, 102.459
1477.873, 207.949
1479.055, 76.452
1480.236, 359.978
1481.416, 116.517
1482.597, 255.066
1483.778, 208.636
1484.958, 205.242
1486.138, 40.900
1487.318, 76.426
1488.498, 166.435
1489.678, 74.277
1490.857, 131.172
1492.037, 149.756
1493.216, 107.732
1494.395, 159.781
1495.574, 146.901
1496.752, 91.108
1497.931, 59.392
1499.109, 37.771
1500.287, 104.242
1501.465, 115.812
1502.643, 155.496
1503.820, 128.694
1504.998, 80.597
1506.175, 33.642
1507.352, 67.965
1508.529, 1.491
1509.706, 14.134
1510.882, 65.069
1512.059, 120.095
1513.235, 119.487
1514.411, 152.173
1515.587, 97.706
1516.762, 66.954
1517.938, 59.565
1519.113, 27.917
1520.288, 0.000
##END=



