##NAMES=Anhydrite
##RRUFFID=R040012
##IDEAL CHEMISTRY=CaS^6+^O_4_
##LOCALITY=Moundhouse, Nevada, USA
##OWNER=RRUFF
##SOURCE=University of Arizona Mineral Museum
##DESCRIPTION=White massive
##STATUS=The identification of this mineral has been confirmed by X-ray diffraction and chemical analysis
##URL=rruff.info/R040012
##MEASURED CHEMISTRY=Ca_1.00_S_1.00_O_4_
##PIN_ID=S00008
##ORIENTATION=Laser parallel to b* (0 1 0). Fiducial mark perpendicular to laser is parallel to -c [0 0 -1]
91.981, 0.000
93.375, 7.866
94.768, 33.491
96.161, 30.916
97.554, 1.133
98.947, 26.182
100.340, 12.828
101.732, 33.741
103.124, 39.752
104.516, 44.886
105.908, 71.174
107.300, 51.666
108.691, 76.513
110.082, 72.317
111.473, 84.877
112.864, 116.249
114.254, 193.577
115.644, 329.915
117.034, 490.547
118.424, 638.196
119.813, 842.206
121.203, 1111.660
122.592, 1508.742
123.981, 1766.522
125.369, 1272.688
126.758, 706.206
128.146, 382.376
129.534, 212.321
130.922, 202.533
132.309, 164.906
133.696, 144.472
135.083, 102.095
136.470, 58.308
137.857, 63.312
139.243, 55.668
140.630, 23.458
142.016, 22.458
143.401, 58.364
144.787, 41.174
146.172, 36.939
147.557, 39.115
148.942, 40.273
150.327, 22.010
151.711, 24.105
153.096, 22.536
154.480, 22.086
155.863, 4.154
157.247, 29.287
158.630, 18.325
160.013, 18.395
161.396, 36.904
162.779, 18.527
164.161, 35.404
165.544, 45.360
166.926, 46.937
168.308, 60.937
169.689, 62.677
171.070, 32.953
172.452, 23.669
173.833, 42.270
175.213, 13.490
176.594, 27.509
177.974, 43.553
179.354, 0.055
180.734, 0.389
182.114, 11.866
183.493, 6.304
184.872, 26.353
186.251, 18.686
187.630, 2.930
189.008, 15.430
190.387, 19.349
191.765, 21.592
193.143, 1.713
194.520, 2.729
195.898, 15.489
197.275, 33.627
198.652, 26.878
200.029, 5.113
201.405, 33.277
202.782, 10.353
204.158, 33.315
205.534, 7.311
206.909, 26.748
208.285, 17.230
209.660, 18.234
211.035, 2.720
212.410, 11.621
213.784, 16.426
215.159, 11.367
216.533, 14.246
217.907, 40.176
219.281, 13.028
220.654, 15.928
222.027, 20.813
223.400, 3.296
224.773, 36.541
226.146, 16.403
227.518, 12.347
228.891, 25.143
230.263, 50.212
231.634, 25.984
233.006, 31.695
234.377, 0.399
235.748, 8.914
237.119, 1.769
238.490, 18.449
239.860, 3.873
241.231, 9.798
242.601, 0.533
243.970, 9.136
245.340, 6.196
246.709, 2.466
248.079, 27.123
249.448, 23.776
250.816, 10.426
252.185, 16.929
253.553, 9.283
254.921, 11.358
256.289, 30.990
257.657, 6.859
259.024, 36.696
260.391, 27.496
261.758, 6.716
263.125, 21.979
264.492, 9.731
265.858, 9.463
267.224, 13.174
268.590, 2.864
269.956, 6.072
271.321, 4.175
272.687, 7.795
274.052, 6.390
275.416, 13.959
276.781, 7.496
278.146, 30.023
279.510, 0.520
280.874, 14.992
282.237, 4.436
283.601, 5.854
284.964, 16.246
286.327, 22.609
287.690, 8.058
289.053, 14.234
290.416, 21.500
291.778, 7.259
293.140, 33.957
294.502, 47.156
295.863, 37.341
297.225, 0.507
298.586, 32.651
299.947, 14.780
301.308, 35.872
302.668, 11.942
304.029, 14.997
305.389, 10.922
306.749, 15.827
308.108, 24.811
309.468, 10.700
310.827, 20.556
312.186, 26.411
313.545, 37.260
314.903, 32.968
316.262, 38.610
317.620, 23.233
318.978, 35.846
320.336, 32.902
321.693, 20.743
323.051, 31.294
324.408, 20.846
325.765, 20.547
327.121, 21.105
328.478, 9.780
329.834, 9.493
331.190, 9.045
332.546, 15.968
333.902, 8.730
335.257, 22.368
336.612, 17.912
337.967, 41.560
339.322, 26.966
340.677, 40.203
342.031, 12.189
343.385, 42.123
344.739, 47.097
346.093, 22.495
347.446, 8.765
348.799, 9.325
350.153, 22.823
351.505, 3.632
352.858, 19.097
354.210, 18.599
355.563, 11.123
356.915, 18.021
358.267, 0.869
359.618, 24.928
360.969, 5.474
362.321, 33.094
363.672, 4.400
365.022, 10.000
366.373, 28.429
367.723, 28.031
369.073, 4.425
370.423, 23.879
371.773, 11.397
373.122, 8.933
374.471, 32.941
375.821, 30.406
377.169, 24.946
378.518, 37.452
379.866, 11.990
381.215, 27.661
382.563, 28.199
383.910, 53.764
385.258, 45.369
386.605, 54.486
387.952, 65.172
389.299, 53.776
390.646, 62.349
391.992, 53.998
393.339, 59.749
394.685, 62.405
396.031, 79.100
397.376, 50.573
398.722, 88.482
400.067, 48.014
401.412, 76.683
402.757, 89.956
404.101, 77.588
405.446, 88.160
406.790, 60.732
408.134, 76.921
409.478, 81.515
410.821, 72.248
412.165, 95.975
413.508, 83.652
414.851, 73.247
416.193, 79.336
417.536, 76.030
418.878, 80.810
420.220, 83.483
421.562, 85.281
422.904, 90.479
424.245, 93.897
425.586, 99.051
426.927, 102.725
428.268, 107.395
429.609, 109.077
430.949, 124.701
432.289, 104.348
433.629, 117.978
434.969, 161.629
436.309, 155.274
437.648, 137.948
438.987, 134.222
440.326, 122.964
441.665, 160.564
443.003, 175.245
444.342, 170.879
445.680, 186.518
447.018, 199.198
448.355, 200.906
449.693, 215.185
451.030, 238.848
452.367, 240.548
453.704, 249.882
455.041, 274.636
456.377, 280.396
457.713, 327.154
459.049, 340.761
460.385, 373.507
461.721, 393.177
463.056, 420.930
464.391, 448.588
465.726, 473.259
467.061, 489.917
468.395, 516.596
469.730, 571.313
471.064, 585.972
472.398, 646.673
473.731, 645.400
475.065, 712.150
476.398, 771.900
477.731, 873.650
479.064, 934.370
480.397, 1087.122
481.729, 1266.875
483.062, 1396.595
484.394, 1656.349
485.725, 1970.075
487.057, 2383.800
488.389, 2925.530
489.720, 3672.215
491.051, 4681.900
492.382, 6174.583
493.712, 8276.299
495.043, 10353.984
496.373, 12843.729
497.703, 15082.458
499.032, 16092.215
500.362, 14803.977
501.691, 12327.734
503.020, 9147.446
504.349, 6606.209
505.678, 4754.989
507.007, 3522.756
508.335, 2589.864
509.663, 1963.588
510.991, 1532.358
512.319, 1183.068
513.646, 967.842
514.973, 759.617
516.300, 666.366
517.627, 613.145
518.954, 466.865
520.280, 410.654
521.607, 334.292
522.933, 351.081
524.259, 279.467
525.584, 281.052
526.910, 250.869
528.235, 216.724
529.560, 218.495
530.885, 153.454
532.209, 161.739
533.534, 137.693
534.858, 164.283
536.182, 129.283
537.506, 141.438
538.829, 90.995
540.152, 66.804
541.476, 78.107
542.799, 63.947
544.121, 69.937
545.444, 76.867
546.766, 52.139
548.088, 84.472
549.410, 68.282
550.732, 54.867
552.053, 64.704
553.375, 58.283
554.696, 18.262
556.017, 72.918
557.337, 35.981
558.658, 41.078
559.978, 50.210
561.298, 47.439
562.618, 38.398
563.938, 33.237
565.257, 34.077
566.576, 42.827
567.895, 24.627
569.214, 49.458
570.533, 78.255
571.851, 21.837
573.170, 34.380
574.488, 33.177
575.805, 66.124
577.123, 17.921
578.440, 37.738
579.758, 39.984
581.075, 40.775
582.391, 67.599
583.708, 35.387
585.024, 30.660
586.341, 78.444
587.657, 74.227
588.972, 64.007
590.288, 60.786
591.603, 46.563
592.918, 64.067
594.233, 91.441
595.548, 80.213
596.863, 60.149
598.177, 87.918
599.491, 128.699
600.805, 142.883
602.119, 204.645
603.432, 305.417
604.746, 501.176
606.059, 662.455
607.372, 852.209
608.685, 836.517
609.997, 1023.722
611.309, 727.472
612.621, 404.021
613.933, 258.767
615.245, 146.510
616.557, 168.250
617.868, 106.989
619.179, 123.725
620.490, 158.458
621.801, 212.189
623.111, 237.917
624.421, 308.339
625.731, 354.062
627.041, 434.783
628.351, 389.503
629.660, 278.219
630.970, 174.932
632.279, 149.643
633.588, 124.351
634.896, 76.056
636.205, 107.759
637.513, 118.458
638.821, 111.155
640.129, 85.849
641.437, 161.540
642.744, 138.229
644.051, 89.915
645.358, 150.597
646.665, 159.277
647.972, 108.955
649.278, 104.630
650.584, 91.302
651.890, 151.972
653.196, 148.639
654.502, 131.303
655.807, 64.964
657.113, 79.622
658.418, 93.278
659.722, 71.930
661.027, 63.580
662.331, 17.227
663.636, 26.870
664.940, 1.489
666.244, 24.145
667.547, 49.776
668.851, 40.404
670.154, 55.029
671.457, 61.652
672.760, 116.271
674.062, 144.887
675.365, 177.500
676.667, 166.111
677.969, 102.718
679.271, 61.323
680.572, 5.075
681.874, 5.518
683.175, 14.108
684.476, 5.695
685.777, 18.278
687.077, 2.858
688.378, 18.567
689.678, 2.991
690.978, 7.455
692.278, 13.911
693.577, 16.381
694.877, 6.866
696.176, 25.640
697.475, 2.858
698.774, 11.636
700.072, 13.873
701.371, 19.395
702.669, 11.934
703.967, 3.485
705.265, 17.956
706.562, 7.606
707.860, 10.822
709.157, 27.247
710.454, 42.331
711.751, 24.938
713.047, 15.563
714.344, 0.203
715.640, 0.848
716.936, 2.500
718.232, 1.842
719.527, 7.179
720.823, 6.512
722.118, 11.157
723.413, 17.162
724.708, 7.478
726.002, 12.208
727.297, 8.907
728.591, 8.422
729.885, 14.667
731.179, 0.946
732.472, 17.221
733.766, 7.494
735.059, 4.237
736.352, 28.026
737.645, 3.286
738.937, 28.542
740.230, 5.203
741.522, 18.044
742.814, 29.289
744.106, 30.532
745.397, 19.772
746.689, 12.010
747.980, 9.754
749.271, 7.820
750.562, 25.691
751.853, 17.093
753.143, 21.111
754.433, 4.313
755.723, 21.488
757.013, 54.697
758.303, 3.879
759.592, 48.059
760.881, 7.762
762.170, 12.409
763.459, 24.578
764.748, 2.745
766.036, 40.910
767.325, 12.927
768.613, 58.227
769.901, 6.379
771.188, 33.529
772.476, 73.677
773.763, 7.824
775.050, 38.968
776.337, 6.111
777.624, 28.252
778.910, 12.608
780.196, 42.523
781.482, 6.653
782.768, 0.781
784.054, 19.907
785.339, 29.032
786.625, 15.155
787.910, 26.277
789.195, 23.398
790.479, 30.517
791.764, 21.634
793.048, 32.751
794.332, 55.865
795.616, 71.979
796.900, 44.091
798.183, 27.203
799.467, 19.312
800.750, 13.331
802.033, 24.529
803.316, 20.635
804.598, 35.741
805.880, 45.845
807.163, 44.861
808.445, 41.449
809.726, 46.153
811.008, 23.254
812.289, 18.354
813.570, 17.453
814.851, 61.551
816.132, 42.648
817.413, 56.731
818.693, 49.827
819.973, 40.534
821.253, 49.629
822.533, 75.723
823.813, 87.817
825.092, 73.910
826.371, 48.003
827.650, 57.095
828.929, 51.688
830.208, 77.279
831.486, 64.370
832.764, 45.461
834.042, 50.551
835.320, 92.011
836.598, 118.036
837.875, 137.101
839.152, 93.128
840.429, 156.210
841.706, 139.143
842.983, 88.751
844.259, 125.703
845.536, 118.022
846.812, 121.938
848.088, 131.710
849.363, 109.083
850.639, 126.203
851.914, 106.838
853.189, 104.940
854.464, 119.895
855.739, 157.507
857.013, 162.590
858.288, 163.208
859.562, 202.349
860.836, 158.716
862.110, 198.831
863.383, 150.978
864.656, 131.177
865.930, 139.473
867.203, 151.364
868.475, 143.226
869.748, 95.055
871.020, 91.788
872.292, 72.795
873.564, 68.729
874.836, 90.061
876.108, 74.285
877.379, 101.462
878.650, 99.610
879.922, 92.795
881.192, 58.196
882.463, 82.635
883.733, 80.827
885.004, 88.874
886.274, 114.072
887.544, 95.253
888.813, 75.015
890.083, 87.233
891.352, 80.420
892.621, 99.648
893.890, 97.399
895.159, 84.640
896.427, 48.887
897.695, 80.136
898.964, 118.388
900.232, 61.643
901.499, 69.171
902.767, 80.831
904.034, 79.095
905.301, 92.195
906.568, 68.465
907.835, 77.724
909.102, 77.582
910.368, 61.862
911.634, 73.134
912.900, 70.421
914.166, 72.188
915.432, 83.482
916.697, 28.779
917.962, 69.071
919.227, 18.375
920.492, 21.881
921.757, 46.192
923.021, 45.507
924.285, 86.825
925.550, 17.150
926.813, 59.477
928.077, 67.809
929.341, 32.144
930.604, 72.483
931.867, 57.130
933.130, 29.477
934.393, 63.827
935.655, 71.181
936.918, 76.539
938.180, 25.901
939.442, 68.267
940.703, 59.637
941.965, 42.011
943.226, 104.389
944.488, 93.771
945.749, 114.157
947.009, 94.547
948.270, 82.941
949.530, 85.339
950.791, 115.741
952.051, 68.147
953.311, 98.561
954.570, 143.979
955.830, 147.402
957.089, 111.829
958.348, 98.260
959.607, 90.695
960.866, 127.134
962.124, 125.578
963.383, 136.632
964.641, 150.477
965.899, 156.933
967.156, 189.393
968.414, 208.858
969.671, 222.327
970.928, 225.801
972.185, 235.392
973.442, 211.763
974.699, 227.251
975.955, 213.743
977.211, 176.239
978.468, 225.740
979.723, 203.245
980.979, 231.755
982.234, 283.269
983.490, 255.787
984.745, 294.310
986.000, 308.836
987.254, 307.371
988.509, 368.910
989.763, 334.453
991.017, 416.002
992.271, 457.555
993.525, 482.113
994.779, 600.036
996.032, 681.610
997.285, 885.375
998.538, 1102.351
999.791, 1319.471
1001.044, 1466.079
1002.296, 1545.110
1003.548, 1627.847
1004.800, 1765.225
1006.052, 2135.042
1007.304, 2661.685
1008.555, 3465.396
1009.807, 4696.054
1011.058, 6632.716
1012.309, 10291.386
1013.559, 17073.053
1014.810, 29628.734
1016.060, 48755.422
1017.310, 60624.133
1018.560, 55201.172
1019.810, 37618.895
1021.060, 22031.971
1022.309, 12797.699
1023.558, 8205.816
1024.807, 5478.556
1026.056, 3928.300
1027.305, 2886.226
1028.553, 2237.167
1029.801, 1763.055
1031.049, 1434.098
1032.297, 1205.872
1033.545, 1012.653
1034.793, 822.750
1036.040, 749.539
1037.287, 640.174
1038.534, 587.958
1039.781, 547.758
1041.027, 475.325
1042.274, 426.409
1043.520, 395.892
1044.766, 346.708
1046.012, 310.102
1047.257, 285.936
1048.503, 284.773
1049.748, 277.617
1050.993, 275.464
1052.238, 204.317
1053.483, 211.176
1054.727, 195.037
1055.971, 201.906
1057.216, 158.779
1058.459, 178.654
1059.703, 143.539
1060.947, 128.426
1062.190, 159.315
1063.433, 121.208
1064.676, 105.105
1065.919, 103.005
1067.162, 92.215
1068.404, 86.812
1069.646, 97.720
1070.888, 119.634
1072.130, 125.551
1073.372, 90.470
1074.613, 107.820
1075.855, 46.744
1077.096, 75.670
1078.337, 113.599
1079.578, 80.535
1080.818, 97.469
1082.059, 128.408
1083.299, 134.349
1084.539, 137.293
1085.779, 95.239
1087.018, 102.187
1088.258, 105.138
1089.497, 83.090
1090.736, 77.045
1091.975, 59.002
1093.213, 45.960
1094.452, 45.089
1095.690, 29.884
1096.928, 54.848
1098.166, 48.815
1099.404, 77.783
1100.642, 47.754
1101.879, 73.542
1103.116, 85.516
1104.353, 155.573
1105.590, 187.551
1106.827, 351.531
1108.063, 552.520
1109.299, 925.502
1110.536, 1222.487
1111.771, 1291.473
1113.007, 1145.461
1114.243, 971.452
1115.478, 690.444
1116.713, 543.437
1117.948, 352.432
1119.183, 256.429
1120.418, 197.616
1121.652, 205.426
1122.886, 161.426
1124.120, 129.428
1125.354, 125.431
1126.588, 137.436
1127.821, 189.446
1129.055, 231.458
1130.288, 190.472
1131.521, 162.487
1132.753, 116.503
1133.986, 62.521
1135.218, 4.539
1136.450, 19.558
1137.682, 36.579
1138.914, 3.600
1140.146, 2.622
1141.377, 10.645
1142.609, 56.331
1143.840, 2.665
1145.071, 4.338
1146.301, 40.343
1147.532, 10.368
1148.762, 22.603
1149.992, 24.427
1151.222, 19.468
1152.452, 13.519
1153.682, 3.576
1154.911, 40.365
1156.140, 0.694
1157.369, 87.246
1158.598, 110.186
1159.827, 233.127
1161.055, 259.068
1162.284, 184.009
1163.512, 99.228
1164.740, 101.169
1165.967, 4.891
1167.195, 23.047
1168.422, 5.016
1169.650, 9.917
1170.877, 21.149
1172.103, 34.771
1173.330, 23.692
1174.557, 1.388
1175.783, 1.470
1177.009, 0.365
1178.235, 2.724
1179.461, 8.268
1180.686, 13.178
1181.912, 2.913
1183.137, 10.992
1184.362, 11.104
1185.587, 29.208
1186.811, 23.671
1188.036, 9.452
1189.260, 1.582
1190.484, 23.716
1191.708, 29.135
1192.932, 6.009
1194.155, 23.822
1195.378, 26.705
1196.602, 20.451
1197.825, 36.292
1199.047, 46.170
1200.270, 19.009
1201.492, 63.847
1202.715, 23.684
1203.937, 50.594
1205.159, 15.428
1206.380, 40.262
1207.602, 46.094
1208.823, 98.924
1210.044, 88.880
1211.265, 25.582
1212.486, 82.409
1213.707, 77.241
1214.927, 64.071
1216.147, 83.900
1217.367, 92.804
1218.587, 53.631
1219.807, 21.458
1221.027, 0.309
1222.246, 43.130
1223.465, 42.949
1224.684, 39.642
1225.903, 15.590
1227.121, 37.405
1228.340, 19.219
1229.558, 28.031
1230.776, 34.869
1231.994, 28.677
1233.212, 52.484
1234.429, 78.289
1235.646, 73.091
1236.864, 60.892
1238.081, 53.691
1239.297, 49.696
1240.514, 70.279
1241.730, 51.071
1242.947, 28.861
1244.163, 45.649
1245.378, 69.432
1246.594, 28.214
1247.810, 3.987
1249.025, 93.787
1250.240, 11.560
1251.455, 44.331
1252.670, 81.100
1253.885, 20.867
1255.099, 42.665
1256.313, 51.429
1257.527, 68.191
1258.741, 70.724
1259.955, 71.844
1261.168, 66.798
1262.382, 62.552
1263.595, 50.305
1264.808, 41.055
1266.021, 96.805
1267.233, 84.563
1268.446, 92.308
1269.658, 61.051
1270.870, 79.803
1272.082, 87.542
1273.294, 81.327
1274.505, 78.319
1275.716, 77.052
1276.928, 75.871
1278.139, 75.600
1279.349, 70.049
1280.560, 72.488
1281.770, 61.778
1282.981, 68.521
1284.191, 72.242
1285.401, 56.961
1286.610, 59.678
1287.820, 38.395
1289.029, 34.755
1290.239, 56.450
1291.448, 43.343
1292.656, 50.559
1293.865, 48.418
1295.073, 52.100
1296.282, 69.361
1297.490, 63.922
1298.698, 80.845
1299.906, 60.337
1301.113, 66.568
1302.320, 44.624
1303.528, 72.295
1304.735, 58.965
1305.942, 81.634
1307.148, 81.301
1308.355, 2.966
1309.561, 115.629
1310.767, 74.291
1311.973, 137.626
1313.179, 70.285
1314.384, 106.595
1315.590, 74.251
1316.795, 86.527
1318.000, 57.181
1319.205, 57.478
1320.410, 60.311
1321.614, 58.775
1322.819, 66.292
1324.023, 63.996
1325.227, 65.058
1326.431, 61.947
1327.634, 62.275
1328.838, 57.916
1330.041, 51.696
1331.244, 67.330
1332.447, 49.451
1333.650, 56.654
1334.852, 23.147
1336.055, 34.091
1337.257, 17.706
1338.459, 44.255
1339.661, 9.346
1340.862, 11.053
1342.064, 32.543
1343.265, 10.138
1344.466, 27.733
1345.667, 19.328
1346.868, 36.921
1348.068, 5.515
1349.269, 20.108
1350.469, 39.700
1351.669, 43.292
1352.869, 58.883
1354.069, 47.474
1355.268, 54.740
1356.468, 36.656
1357.667, 66.721
1358.866, 64.313
1360.065, 90.905
1361.263, 7.709
1362.462, 32.307
1363.660, 83.903
1364.858, 16.645
1366.056, 50.909
1367.254, 75.645
1368.451, 54.252
1369.649, 21.858
1370.846, 79.461
1372.043, 81.002
1373.240, 70.529
1374.436, 17.049
1375.633, 88.594
1376.829, 78.065
1378.025, 31.512
1379.221, 48.943
1380.417, 46.487
1381.613, 41.888
1382.808, 42.206
1384.003, 44.829
1385.199, 48.081
1386.393, 45.712
1387.588, 54.340
1388.783, 34.121
1389.977, 49.346
1391.171, 19.250
1392.365, 59.855
1393.559, 49.455
1394.753, 35.049
1395.946, 42.639
1397.140, 65.225
1398.333, 16.808
1399.526, 44.385
1400.719, 49.954
1401.911, 4.511
1403.104, 1.062
1404.296, 45.609
1405.488, 49.151
1406.680, 34.689
1407.872, 37.222
1409.063, 24.785
1410.255, 22.360
1411.446, 47.950
1412.637, 37.560
1413.828, 23.184
1415.018, 59.807
1416.209, 12.571
1417.399, 0.049
1418.589, 55.300
1419.779, 8.914
1420.969, 67.530
1422.159, 52.155
1423.348, 31.787
1424.537, 71.422
1425.726, 22.060
1426.915, 49.700
1428.104, 38.344
1429.293, 87.010
1430.481, 69.694
1431.669, 95.400
1432.857, 57.565
1434.045, 100.778
1435.233, 120.368
1436.420, 116.017
1437.608, 143.547
1438.795, 115.196
1439.982, 178.845
1441.169, 193.494
1442.355, 169.133
1443.542, 223.762
1444.728, 211.256
1445.914, 227.830
1447.100, 269.454
1448.286, 227.065
1449.472, 257.685
1450.657, 293.256
1451.842, 285.878
1453.027, 287.504
1454.212, 309.133
1455.397, 269.770
1456.581, 319.409
1457.766, 312.054
1458.950, 296.668
1460.134, 303.323
1461.318, 283.978
1462.501, 243.562
1463.685, 231.218
1464.868, 205.547
1466.051, 210.749
1467.234, 176.397
1468.417, 177.780
1469.600, 134.673
1470.782, 173.286
1471.965, 151.511
1473.147, 153.856
1474.329, 173.426
1475.510, 138.992
1476.692, 102.492
1477.873, 132.043
1479.055, 144.584
1480.236, 118.255
1481.416, 145.945
1482.597, 188.637
1483.778, 140.329
1484.958, 68.020
1486.138, 126.717
1487.318, 131.416
1488.498, 76.116
1489.678, 88.819
1490.857, 67.522
1492.037, 103.226
1493.216, 45.931
1494.395, 38.636
1495.574, 67.357
1496.752, 42.097
1497.931, 33.840
1499.109, 17.334
1500.287, 38.604
1501.465, 39.572
1502.643, 6.578
1503.820, 34.615
1504.998, 42.682
1506.175, 12.785
1507.352, 18.930
1508.529, 15.125
1509.706, 38.379
1510.882, 41.238
1512.059, 69.119
1513.235, 54.843
1514.411, 38.020
1515.587, 69.167
1516.762, 12.020
1517.938, 21.686
1519.113, 28.893
1520.288, 24.487
1521.463, 0.322
1522.638, 9.621
1523.813, 31.440
1524.987, 0.000
##END=



