##NAMES=Anhydrite
##RRUFFID=R040012
##IDEAL CHEMISTRY=CaS^6+^O_4_
##LOCALITY=Moundhouse, Nevada, USA
##OWNER=RRUFF
##SOURCE=University of Arizona Mineral Museum
##DESCRIPTION=White massive
##STATUS=The identification of this mineral has been confirmed by X-ray diffraction and chemical analysis
##URL=rruff.info/R040012
##MEASURED CHEMISTRY=Ca_1.00_S_1.00_O_4_
##PIN_ID=S00008
##ORIENTATION=Laser parallel to b* (0 1 0). Fiducial mark perpendicular to laser is parallel to -c [0 0 -1]
91.981, 0.000
93.375, 6.451
94.768, 0.627
96.161, 28.447
97.554, 30.325
98.947, 24.778
100.340, 50.666
101.732, 32.886
103.124, 83.328
104.516, 64.004
105.908, 98.877
107.300, 106.882
108.691, 82.027
110.082, 104.261
111.473, 104.562
112.864, 120.763
114.254, 149.959
115.644, 183.490
117.034, 237.617
118.424, 274.172
119.813, 284.776
121.203, 313.359
122.592, 377.142
123.981, 477.161
125.369, 486.847
126.758, 376.782
128.146, 234.243
129.534, 199.387
130.922, 205.400
132.309, 190.668
133.696, 148.199
135.083, 125.506
136.470, 113.925
137.857, 73.498
139.243, 88.009
140.630, 83.129
142.016, 45.344
143.401, 76.661
144.787, 74.152
146.172, 78.815
147.557, 70.530
148.942, 67.112
150.327, 63.859
151.711, 56.279
153.096, 48.402
154.480, 37.045
155.863, 35.946
157.247, 34.620
158.630, 32.038
160.013, 22.451
161.396, 23.865
162.779, 32.271
164.161, 14.669
165.544, 42.066
166.926, 1.468
168.308, 15.851
169.689, 16.485
171.070, 33.308
172.452, 11.011
173.833, 31.445
175.213, 3.997
176.594, 5.769
177.974, 21.445
179.354, 8.849
180.734, 8.032
182.114, 9.439
183.493, 2.809
184.872, 14.136
186.251, 7.736
187.630, 3.788
189.008, 8.555
190.387, 7.238
191.765, 3.520
193.143, 4.760
194.520, 5.729
195.898, 6.871
197.275, 6.580
198.652, 2.843
200.029, 3.146
201.405, 11.312
202.782, 8.741
204.158, 25.140
205.534, 18.676
206.909, 12.240
208.285, 9.483
209.660, 18.760
211.035, 3.030
212.410, 19.332
213.784, 19.669
215.159, 1.886
216.533, 35.011
217.907, 49.144
219.281, 41.414
220.654, 47.917
222.027, 61.222
223.400, 88.311
224.773, 95.563
226.146, 147.824
227.518, 163.223
228.891, 155.662
230.263, 225.174
231.634, 214.320
233.006, 241.392
234.377, 247.703
235.748, 240.768
237.119, 213.073
238.490, 157.918
239.860, 101.489
241.231, 117.575
242.601, 71.425
243.970, 69.265
245.340, 32.037
246.709, 62.893
248.079, 35.816
249.448, 33.069
250.816, 58.054
252.185, 20.865
253.553, 60.528
254.921, 45.186
256.289, 39.839
257.657, 48.879
259.024, 22.853
260.391, 40.759
261.758, 45.713
263.125, 30.754
264.492, 22.744
265.858, 51.765
267.224, 13.748
268.590, 44.671
269.956, 38.713
271.321, 61.717
272.687, 59.682
274.052, 29.447
275.416, 69.278
276.781, 21.990
278.146, 29.693
279.510, 27.332
280.874, 26.981
282.237, 11.583
283.601, 40.181
284.964, 44.714
286.327, 45.248
287.690, 19.715
289.053, 24.161
290.416, 0.529
291.778, 38.864
293.140, 32.177
294.502, 25.447
295.863, 7.688
297.225, 18.903
298.586, 26.101
299.947, 45.262
301.308, 46.384
302.668, 22.462
304.029, 35.501
305.389, 62.505
306.749, 36.400
308.108, 47.348
309.468, 47.259
310.827, 43.165
312.186, 53.006
313.545, 44.823
314.903, 52.611
316.262, 31.354
317.620, 40.053
318.978, 36.692
320.336, 25.320
321.693, 55.933
323.051, 55.522
324.408, 44.029
325.765, 59.545
327.121, 53.129
328.478, 45.542
329.834, 44.168
331.190, 44.258
332.546, 33.682
333.902, 43.110
335.257, 48.680
336.612, 45.030
337.967, 53.581
339.322, 52.170
340.677, 48.997
342.031, 50.480
343.385, 36.945
344.739, 29.231
346.093, 15.659
347.446, 3.501
348.799, 1.632
350.153, 43.900
351.505, 32.078
352.858, 40.554
354.210, 4.801
355.563, 31.960
356.915, 11.664
358.267, 12.305
359.618, 0.129
360.969, 0.544
362.321, 1.730
363.672, 1.935
365.022, 5.669
366.373, 1.166
367.723, 1.942
369.073, 14.265
370.423, 10.526
371.773, 15.652
373.122, 4.937
374.471, 15.173
375.821, 1.482
377.169, 16.790
378.518, 1.864
379.866, 4.679
381.215, 6.237
382.563, 9.562
383.910, 9.409
385.258, 0.936
386.605, 2.448
387.952, 13.126
389.299, 18.605
390.646, 26.079
391.992, 22.549
393.339, 22.022
394.685, 36.483
396.031, 21.021
397.376, 26.483
398.722, 9.943
400.067, 0.401
401.412, 18.864
402.757, 3.315
404.101, 7.232
405.446, 4.779
406.790, 34.674
408.134, 28.015
409.478, 8.468
410.821, 63.807
412.165, 121.130
413.508, 202.554
414.851, 269.821
416.193, 385.253
417.536, 451.625
418.878, 295.025
420.220, 149.416
421.562, 43.679
422.904, 54.008
424.245, 8.350
425.586, 15.628
426.927, 2.863
428.268, 6.211
429.609, 14.371
430.949, 3.326
432.289, 3.055
433.629, 2.697
434.969, 25.643
436.309, 2.850
437.648, 24.187
438.987, 19.349
440.326, 27.536
441.665, 17.705
443.003, 20.866
444.342, 13.924
445.680, 22.125
447.018, 14.341
448.355, 22.553
449.693, 19.651
451.030, 37.762
452.367, 48.632
453.704, 27.793
455.041, 40.919
456.377, 31.013
457.713, 31.982
459.049, 27.038
460.385, 38.119
461.721, 31.275
463.056, 38.431
464.391, 49.483
465.726, 35.585
467.061, 34.793
468.395, 28.893
469.730, 54.036
471.064, 23.175
472.398, 85.294
473.731, 54.451
475.065, 77.576
476.398, 85.735
477.731, 88.803
479.064, 129.908
480.397, 119.997
481.729, 154.036
483.062, 145.201
484.394, 194.363
485.725, 253.475
487.057, 279.644
488.389, 364.794
489.720, 470.910
491.051, 618.018
492.382, 848.129
493.712, 1143.195
495.043, 1424.300
496.373, 1788.425
497.703, 2170.535
499.032, 2400.678
500.362, 2346.816
501.691, 2081.940
503.020, 1677.069
504.349, 1234.147
505.678, 941.193
507.007, 670.188
508.335, 507.110
509.663, 407.031
510.991, 306.155
512.319, 238.231
513.646, 186.347
514.973, 121.305
516.300, 152.386
517.627, 124.385
518.954, 106.391
520.280, 89.325
521.607, 69.258
522.933, 94.161
524.259, 89.064
525.584, 69.812
526.910, 54.780
528.235, 70.752
529.560, 65.777
530.885, 45.785
532.209, 81.813
533.534, 54.596
534.858, 69.621
536.182, 44.626
537.506, 53.655
538.829, 6.621
540.152, 75.416
541.476, 30.139
542.799, 23.733
544.121, 45.317
545.444, 30.255
546.766, 0.154
548.088, 44.643
549.410, 28.729
550.732, 49.550
552.053, 20.626
553.375, 22.697
554.696, 2.848
556.017, 34.402
557.337, 29.923
558.658, 47.579
559.978, 25.088
561.298, 42.498
562.618, 48.990
563.938, 55.594
565.257, 58.767
566.576, 28.002
567.895, 51.151
569.214, 46.087
570.533, 64.126
571.851, 65.081
573.170, 65.248
574.488, 58.310
575.805, 42.862
577.123, 19.913
578.440, 29.200
579.758, 50.367
581.075, 33.379
582.391, 76.387
583.708, 81.083
585.024, 60.062
586.341, 59.989
587.657, 68.423
588.972, 86.338
590.288, 63.081
591.603, 72.870
592.918, 60.684
594.233, 62.184
595.548, 79.424
596.863, 108.363
598.177, 79.278
599.491, 122.226
600.805, 129.135
602.119, 198.049
603.432, 308.939
604.746, 489.488
606.059, 617.368
607.372, 702.279
608.685, 890.176
609.997, 912.116
611.309, 724.054
612.621, 466.979
613.933, 331.912
615.245, 244.846
616.557, 181.774
617.868, 216.689
619.179, 162.612
620.490, 128.531
621.801, 213.446
623.111, 201.360
624.421, 292.681
625.731, 264.588
627.041, 311.492
628.351, 247.392
629.660, 246.279
630.970, 237.174
632.279, 202.337
633.588, 169.129
634.896, 156.438
636.205, 124.752
637.513, 124.631
638.821, 143.506
640.129, 137.378
641.437, 163.262
642.744, 151.127
644.051, 217.337
645.358, 214.397
646.665, 211.253
647.972, 216.104
649.278, 220.020
650.584, 227.067
651.890, 234.908
653.196, 218.747
654.502, 195.582
655.807, 185.414
657.113, 180.242
658.418, 194.067
659.722, 127.888
661.027, 151.706
662.331, 153.521
663.636, 245.341
664.940, 277.150
666.244, 351.956
667.547, 529.760
668.851, 940.560
670.154, 1614.356
671.457, 2775.149
672.760, 4314.940
674.062, 6151.728
675.365, 8383.512
676.667, 8638.295
677.969, 6161.072
679.271, 3599.849
680.572, 2021.622
681.874, 1213.394
683.175, 721.163
684.476, 418.930
685.777, 236.694
687.077, 165.455
688.378, 122.213
689.678, 118.967
690.978, 62.720
692.278, 20.470
693.577, 31.217
694.877, 48.961
696.176, 29.632
697.475, 42.371
698.774, 13.108
700.072, 17.844
701.371, 24.579
702.669, 22.311
703.967, 0.052
705.265, 11.670
706.562, 4.612
707.860, 16.096
709.157, 15.793
710.454, 10.973
711.751, 32.890
713.047, 0.217
714.344, 3.552
715.640, 17.895
716.936, 0.738
718.232, 17.629
719.527, 8.012
720.823, 15.404
722.118, 11.810
723.413, 6.757
724.708, 23.333
726.002, 29.907
727.297, 10.477
728.591, 43.045
729.885, 14.609
731.179, 17.830
732.472, 14.715
733.766, 2.207
735.059, 4.731
736.352, 31.264
737.645, 27.793
738.937, 22.680
740.230, 7.829
741.522, 7.336
742.814, 3.161
744.106, 28.336
745.397, 10.170
746.689, 14.315
747.980, 9.798
749.271, 3.721
750.562, 1.247
751.853, 32.221
753.143, 29.687
754.433, 26.151
755.723, 13.613
757.013, 25.073
758.303, 12.531
759.592, 6.013
760.881, 29.436
762.170, 23.882
763.459, 12.327
764.748, 22.900
766.036, 58.341
767.325, 15.780
768.613, 36.548
769.901, 9.983
771.188, 24.416
772.476, 12.848
773.763, 23.277
775.050, 19.705
776.337, 40.131
777.624, 20.609
778.910, 3.968
780.196, 16.449
781.482, 30.865
782.768, 8.279
784.054, 3.691
785.339, 13.102
786.625, 18.488
787.910, 12.757
789.195, 45.295
790.479, 12.290
791.764, 15.086
793.048, 41.462
794.332, 10.836
795.616, 1.209
796.900, 49.580
798.183, 5.050
799.467, 2.685
800.750, 6.677
802.033, 23.038
803.316, 0.602
804.598, 3.244
805.880, 33.110
807.163, 7.464
808.445, 24.817
809.726, 30.168
811.008, 23.519
812.289, 47.869
813.570, 32.219
814.851, 11.567
816.132, 42.915
817.413, 0.262
818.693, 62.609
819.973, 42.954
821.253, 22.299
822.533, 59.644
823.813, 59.987
825.092, 66.331
826.371, 73.684
827.650, 42.017
828.929, 73.359
830.208, 61.701
831.486, 68.042
832.764, 76.383
834.042, 62.724
835.320, 91.065
836.598, 89.510
837.875, 115.746
839.152, 108.086
840.429, 96.427
841.706, 108.767
842.983, 139.107
844.259, 124.446
845.536, 139.787
846.812, 119.090
848.088, 136.430
849.363, 138.771
850.639, 137.233
851.914, 163.453
853.189, 151.730
854.464, 173.027
855.739, 199.354
857.013, 200.673
858.288, 225.524
859.562, 273.800
860.836, 284.369
862.110, 225.668
863.383, 250.966
864.656, 211.243
865.930, 210.051
867.203, 209.912
868.475, 160.569
869.748, 112.330
871.020, 128.266
872.292, 104.053
873.564, 100.453
874.836, 96.395
876.108, 93.569
877.379, 121.801
878.650, 76.162
879.922, 96.532
881.192, 52.854
882.463, 77.231
883.733, 27.577
885.004, 102.432
886.274, 41.787
887.544, 64.908
888.813, 47.147
890.083, 92.540
891.352, 62.938
892.621, 51.542
893.890, 85.898
895.159, 77.260
896.427, 99.136
897.695, 65.567
898.964, 71.027
900.232, 66.451
901.499, 57.860
902.767, 79.754
904.034, 59.813
905.301, 92.262
906.568, 75.714
907.835, 91.169
909.102, 48.623
910.368, 36.084
911.634, 59.543
912.900, 53.378
914.166, 68.849
915.432, 67.422
916.697, 9.193
917.962, 56.294
919.227, 4.785
920.492, 16.722
921.757, 7.772
923.021, 14.266
924.285, 18.766
925.550, 15.270
926.813, 9.778
928.077, 6.292
929.341, 5.190
930.604, 32.333
931.867, 30.451
933.130, 51.984
934.393, 24.520
935.655, 59.059
936.918, 48.592
938.180, 28.138
939.442, 22.416
940.703, 52.065
941.965, 3.377
943.226, 48.325
944.488, 18.890
945.749, 6.458
947.009, 32.030
948.270, 18.591
949.530, 47.170
950.791, 68.405
952.051, 76.791
953.311, 67.382
954.570, 74.978
955.830, 52.510
957.089, 63.912
958.348, 53.519
959.607, 55.131
960.866, 52.747
962.124, 58.367
963.383, 54.991
964.641, 64.989
965.899, 84.252
967.156, 82.889
968.414, 89.530
969.671, 94.166
970.928, 69.816
972.185, 65.469
973.442, 109.128
974.699, 79.790
975.955, 118.457
977.211, 153.129
978.468, 131.805
979.723, 98.485
980.979, 142.169
982.234, 161.859
983.490, 183.552
984.745, 180.250
986.000, 197.953
987.254, 200.660
988.509, 241.371
989.763, 246.087
991.017, 285.808
992.271, 331.533
993.525, 337.263
994.779, 458.998
996.032, 541.737
997.285, 716.480
998.538, 915.228
999.791, 1156.982
1001.044, 1292.739
1002.296, 1376.502
1003.548, 1442.269
1004.800, 1631.041
1006.052, 1898.817
1007.304, 2302.598
1008.555, 3033.385
1009.807, 4122.178
1011.058, 5906.978
1012.309, 9028.784
1013.559, 14935.594
1014.810, 25791.408
1016.060, 42624.238
1017.310, 57950.078
1018.560, 56281.926
1019.810, 40940.773
1021.060, 25843.641
1022.309, 16010.510
1023.558, 10340.035
1024.807, 6695.926
1026.056, 4611.867
1027.305, 3338.779
1028.553, 2514.696
1029.801, 1953.807
1031.049, 1528.455
1032.297, 1262.387
1033.545, 1071.451
1034.793, 866.391
1036.040, 723.537
1037.287, 628.253
1038.534, 588.216
1039.781, 456.183
1041.027, 442.394
1042.274, 371.371
1043.520, 333.567
1044.766, 332.113
1046.012, 261.782
1047.257, 245.431
1048.503, 222.016
1049.748, 192.045
1050.993, 202.079
1052.238, 188.116
1053.483, 177.160
1054.727, 157.211
1055.971, 122.265
1057.216, 130.398
1058.459, 89.572
1059.703, 79.638
1060.947, 82.948
1062.190, 87.023
1063.433, 64.104
1064.676, 76.946
1065.919, 47.036
1067.162, 70.020
1068.404, 29.117
1069.646, 44.218
1070.888, 76.120
1072.130, 64.229
1073.372, 84.342
1074.613, 77.459
1075.855, 50.805
1077.096, 84.649
1078.337, 80.778
1079.578, 103.484
1080.818, 105.175
1082.059, 124.317
1083.299, 148.463
1084.539, 103.613
1085.779, 105.766
1087.018, 129.922
1088.258, 96.083
1089.497, 89.252
1090.736, 62.429
1091.975, 79.581
1093.213, 67.769
1094.452, 68.961
1095.690, 80.156
1096.928, 41.354
1098.166, 47.556
1099.404, 88.761
1100.642, 81.971
1101.879, 125.186
1103.116, 109.405
1104.353, 174.627
1105.590, 220.853
1106.827, 366.087
1108.063, 573.325
1109.299, 932.565
1110.536, 1180.809
1111.771, 1284.057
1113.007, 1244.307
1114.243, 1086.562
1115.478, 915.822
1116.713, 811.086
1117.948, 702.354
1119.183, 614.625
1120.418, 670.899
1121.652, 843.178
1122.886, 1127.460
1124.120, 1629.745
1125.354, 2521.034
1126.588, 4446.326
1127.821, 7641.619
1129.055, 11549.916
1130.288, 12501.220
1131.521, 9567.521
1132.753, 5945.827
1133.986, 3480.135
1135.218, 2121.448
1136.450, 1304.763
1137.682, 862.080
1138.914, 607.400
1140.146, 434.724
1141.377, 307.049
1142.609, 238.378
1143.840, 196.709
1145.071, 193.042
1146.301, 143.379
1147.532, 148.717
1148.762, 85.059
1149.992, 79.402
1151.222, 75.749
1152.452, 124.097
1153.682, 18.448
1154.911, 50.802
1156.140, 52.158
1157.369, 19.516
1158.598, 26.876
1159.827, 48.239
1161.055, 64.604
1162.284, 71.971
1163.512, 46.340
1164.740, 45.712
1165.967, 0.085
1167.195, 23.461
1168.422, 28.838
1169.650, 43.218
1170.877, 13.401
1172.103, 24.976
1173.330, 0.645
1174.557, 7.735
1175.783, 36.117
1177.009, 22.499
1178.235, 14.124
1179.461, 17.245
1180.686, 2.384
1181.912, 8.988
1183.137, 3.640
1184.362, 14.267
1185.587, 15.099
1186.811, 1.480
1188.036, 4.163
1189.260, 2.205
1190.484, 21.426
1191.708, 26.033
1192.932, 27.811
1194.155, 10.477
1195.378, 9.147
1196.602, 18.033
1197.825, 5.359
1199.047, 16.686
1200.270, 8.015
1201.492, 18.344
1202.715, 19.674
1203.937, 1.006
1205.159, 0.337
1206.380, 43.667
1207.602, 2.002
1208.823, 13.328
1210.044, 8.659
1211.265, 11.010
1212.486, 14.315
1213.707, 15.358
1214.927, 18.960
1216.147, 24.280
1217.367, 0.634
1218.587, 53.033
1219.807, 24.359
1221.027, 16.687
1222.246, 0.877
1223.465, 9.528
1224.684, 8.770
1225.903, 7.778
1227.121, 6.461
1228.340, 21.852
1229.558, 24.164
1230.776, 19.477
1231.994, 34.791
1233.212, 45.105
1234.429, 70.419
1235.646, 38.732
1236.864, 47.046
1238.081, 46.360
1239.297, 81.676
1240.514, 73.992
1241.730, 59.308
1242.947, 51.625
1244.163, 74.943
1245.378, 63.260
1246.594, 83.579
1247.810, 37.898
1249.025, 63.217
1250.240, 48.679
1251.455, 58.998
1252.670, 72.117
1253.885, 34.437
1255.099, 55.757
1256.313, 57.078
1257.527, 54.398
1258.741, 69.844
1259.955, 39.165
1261.168, 27.176
1262.382, 52.539
1263.595, 66.080
1264.808, 60.401
1266.021, 72.721
1267.233, 98.405
1268.446, 104.725
1269.658, 109.045
1270.870, 126.407
1272.082, 111.727
1273.294, 148.046
1274.505, 111.365
1275.716, 118.706
1276.928, 116.025
1278.139, 131.343
1279.349, 127.661
1280.560, 113.031
1281.770, 124.349
1282.981, 63.666
1284.191, 62.983
1285.401, 90.299
1286.610, 52.603
1287.820, 100.907
1289.029, 87.205
1290.239, 44.503
1291.448, 61.800
1292.656, 105.097
1293.865, 118.394
1295.073, 99.691
1296.282, 128.988
1297.490, 115.285
1298.698, 87.581
1299.906, 96.877
1301.113, 80.413
1302.320, 101.466
1303.528, 68.759
1304.735, 90.051
1305.942, 87.344
1307.148, 103.636
1308.355, 93.929
1309.561, 134.221
1310.767, 131.513
1311.973, 129.794
1313.179, 145.320
1314.384, 130.379
1315.590, 145.669
1316.795, 136.308
1318.000, 119.590
1319.205, 155.832
1320.410, 120.112
1321.614, 120.384
1322.819, 147.462
1324.023, 149.004
1325.227, 132.267
1326.431, 88.401
1327.634, 64.662
1328.838, 71.729
1330.041, 40.499
1331.244, 92.487
1332.447, 20.745
1333.650, 18.764
1334.852, 24.021
1336.055, 24.929
1337.257, 14.775
1338.459, 21.360
1339.661, 19.973
1340.862, 10.347
1342.064, 27.898
1343.265, 21.143
1344.466, 20.388
1345.667, 25.633
1346.868, 22.879
1348.068, 28.359
1349.269, 27.066
1350.469, 26.721
1351.669, 26.674
1352.869, 24.990
1354.069, 26.932
1355.268, 26.182
1356.468, 50.678
1357.667, 66.965
1358.866, 21.200
1360.065, 47.491
1361.263, 3.752
1362.462, 1.889
1363.660, 58.222
1364.858, 22.493
1366.056, 1.768
1367.254, 44.833
1368.451, 14.443
1369.649, 0.749
1370.846, 40.415
1372.043, 39.077
1373.240, 29.301
1374.436, 51.491
1375.633, 23.786
1376.829, 69.929
1378.025, 54.007
1379.221, 28.027
1380.417, 12.340
1381.613, 23.653
1382.808, 13.610
1384.003, 22.105
1385.199, 25.585
1386.393, 38.894
1387.588, 54.200
1388.783, 59.498
1389.977, 38.794
1391.171, 20.088
1392.365, 17.376
1393.559, 0.682
1394.753, 24.938
1395.946, 9.789
1397.140, 24.483
1398.333, 42.752
1399.526, 15.020
1400.719, 45.285
1401.911, 1.547
1403.104, 41.808
1404.296, 7.934
1405.488, 6.322
1406.680, 0.424
1407.872, 16.829
1409.063, 31.079
1410.255, 2.673
1411.446, 39.573
1412.637, 36.817
1413.828, 7.059
1415.018, 22.299
1416.209, 38.536
1417.399, 15.772
1418.589, 10.005
1419.779, 34.239
1420.969, 27.476
1422.159, 47.712
1423.348, 6.965
1424.537, 70.223
1425.726, 28.482
1426.915, 25.752
1428.104, 51.024
1429.293, 59.364
1430.481, 44.646
1431.669, 44.601
1432.857, 87.895
1434.045, 98.188
1435.233, 130.482
1436.420, 101.778
1437.608, 158.078
1438.795, 170.380
1439.982, 169.694
1441.169, 246.024
1442.355, 274.155
1443.542, 332.468
1444.728, 293.583
1445.914, 360.662
1447.100, 331.999
1448.286, 366.342
1449.472, 370.688
1450.657, 396.040
1451.842, 436.394
1453.027, 397.748
1454.212, 460.102
1455.397, 401.455
1456.581, 393.809
1457.766, 405.846
1458.950, 425.378
1460.134, 444.694
1461.318, 396.009
1462.501, 343.023
1463.685, 383.526
1464.868, 333.244
1466.051, 312.571
1467.234, 286.809
1468.417, 286.929
1469.600, 279.160
1470.782, 271.328
1471.965, 234.553
1473.147, 193.618
1474.329, 198.831
1475.510, 182.077
1476.692, 129.378
1477.873, 158.695
1479.055, 162.010
1480.236, 199.323
1481.416, 177.633
1482.597, 140.946
1483.778, 147.269
1484.958, 162.592
1486.138, 141.909
1487.318, 154.219
1488.498, 132.522
1489.678, 107.823
1490.857, 94.199
1492.037, 74.928
1493.216, 92.071
1494.395, 49.634
1495.574, 75.229
1496.752, 77.858
1497.931, 48.532
1499.109, 17.245
1500.287, 39.997
1501.465, 18.795
1502.643, 75.647
1503.820, 58.562
1504.998, 10.444
1506.175, 38.646
1507.352, 45.839
1508.529, 30.135
1509.706, 23.547
1510.882, 31.630
1512.059, 55.755
1513.235, 31.886
1514.411, 18.222
1515.587, 30.673
1516.762, 0.013
1517.938, 31.263
1519.113, 18.079
1520.288, 0.000
##END=



