##NAMES=Anhydrite
##RRUFFID=R040061
##IDEAL CHEMISTRY=CaS^6+^O_4_
##LOCALITY=Chester County, Pennsylvania, USA
##OWNER=RRUFF
##SOURCE=University of Arizona Mineral Museum
##DESCRIPTION=Pale purple fractured single crystal
##STATUS=The identification of this mineral has been confirmed by X-ray diffraction and chemical analysis
##URL=rruff.info/R040061
##MEASURED CHEMISTRY=Ca_0.98_S_1.01_O_4_
##PIN_ID=M00369
##ORIENTATION=Laser parallel to a* (1 0 0). Fiducial mark perpendicular to laser is parallel to b [0 1 0]
83.614, 0.000
85.009, 0.092
86.404, 0.414
87.798, 2.827
89.193, 9.163
90.587, 13.790
91.981, 17.740
93.375, 31.937
94.768, 24.318
96.161, 42.955
97.554, 45.816
98.947, 45.856
100.340, 26.024
101.732, 52.361
103.124, 38.828
104.516, 54.355
105.908, 44.950
107.300, 80.597
108.691, 81.334
110.082, 90.219
111.473, 106.131
112.864, 176.047
114.254, 324.942
115.644, 497.129
117.034, 894.647
118.424, 984.503
119.813, 1368.114
121.203, 1672.884
122.592, 1733.752
123.981, 1235.682
125.369, 697.708
126.758, 435.827
128.146, 298.917
129.534, 261.968
130.922, 214.966
132.309, 196.275
133.696, 131.350
135.083, 81.688
136.470, 73.362
137.857, 62.142
139.243, 62.429
140.630, 50.206
142.016, 40.930
143.401, 26.709
144.787, 27.311
146.172, 22.888
147.557, 16.030
148.942, 21.971
150.327, 10.486
151.711, 17.301
153.096, 25.278
154.480, 13.705
155.863, 7.656
157.247, 14.739
158.630, 34.377
160.013, 11.628
161.396, 25.995
162.779, 24.544
164.161, 46.961
165.544, 41.310
166.926, 53.500
168.308, 58.861
169.689, 53.725
171.070, 55.911
172.452, 27.146
173.833, 38.229
175.213, 32.652
176.594, 28.720
177.974, 31.781
179.354, 4.316
180.734, 29.384
182.114, 26.696
183.493, 0.954
184.872, 1.247
186.251, 14.305
187.630, 27.342
189.008, 1.409
190.387, 37.454
191.765, 32.574
193.143, 30.629
194.520, 2.682
195.898, 9.736
197.275, 13.792
198.652, 5.849
200.029, 31.932
201.405, 12.992
202.782, 24.051
204.158, 28.109
205.534, 33.167
206.909, 37.226
208.285, 22.285
209.660, 20.343
211.035, 28.401
212.410, 20.484
213.784, 22.725
215.159, 15.595
216.533, 16.044
217.907, 16.084
219.281, 2.122
220.654, 1.221
222.027, 3.745
223.400, 18.288
224.773, 23.319
226.146, 2.351
227.518, 34.382
228.891, 15.412
230.263, 11.443
231.634, 1.474
233.006, 10.505
234.377, 18.465
235.748, 16.560
237.119, 26.584
238.490, 5.394
239.860, 1.371
241.231, 3.349
242.601, 14.354
243.970, 6.671
245.340, 17.325
246.709, 3.332
248.079, 3.652
249.448, 9.821
250.816, 9.986
252.185, 20.767
253.553, 2.531
254.921, 0.281
256.289, 2.978
257.657, 3.245
259.024, 15.517
260.391, 8.206
261.758, 8.070
263.125, 7.348
264.492, 1.372
265.858, 22.907
267.224, 11.185
268.590, 8.463
269.956, 15.739
271.321, 28.014
272.687, 14.286
274.052, 2.444
275.416, 12.821
276.781, 10.083
278.146, 10.342
279.510, 0.402
280.874, 1.849
282.237, 0.098
283.601, 18.658
284.964, 3.429
286.327, 0.794
287.690, 1.985
289.053, 11.230
290.416, 21.442
291.778, 13.649
293.140, 6.853
294.502, 22.052
295.863, 41.248
297.225, 2.438
298.586, 20.620
299.947, 9.791
301.308, 21.956
302.668, 21.119
304.029, 16.276
305.389, 22.430
306.749, 24.581
308.108, 21.730
309.468, 21.787
310.827, 12.021
312.186, 13.165
313.545, 14.306
314.903, 6.446
316.262, 16.583
317.620, 18.767
318.978, 18.839
320.336, 28.575
321.693, 31.700
323.051, 27.823
324.408, 22.932
325.765, 30.036
327.121, 26.134
328.478, 28.223
329.834, 32.299
331.190, 33.374
332.546, 34.430
333.902, 37.165
335.257, 12.537
336.612, 30.585
337.967, 29.634
339.322, 3.681
340.677, 19.729
342.031, 37.777
343.385, 28.719
344.739, 25.766
346.093, 5.188
347.446, 43.499
348.799, 38.097
350.153, 15.125
351.505, 33.161
352.858, 33.930
354.210, 1.033
355.563, 22.004
356.915, 15.041
358.267, 24.895
359.618, 32.909
360.969, 38.944
362.321, 24.913
363.672, 37.953
365.022, 22.987
366.373, 29.027
367.723, 17.068
369.073, 45.111
370.423, 28.154
371.773, 15.198
373.122, 49.243
374.471, 45.289
375.821, 29.335
377.169, 33.383
378.518, 41.431
379.866, 33.478
381.215, 41.625
382.563, 59.443
383.910, 52.323
385.258, 70.905
386.605, 85.955
387.952, 66.007
389.299, 59.961
390.646, 65.019
391.992, 67.077
393.339, 53.135
394.685, 84.079
396.031, 96.137
397.376, 55.857
398.722, 81.925
400.067, 81.995
401.412, 69.565
402.757, 88.393
404.101, 100.103
405.446, 87.131
406.790, 84.198
408.134, 68.082
409.478, 53.824
410.821, 111.881
412.165, 86.969
413.508, 121.307
414.851, 119.972
416.193, 121.788
417.536, 108.749
418.878, 81.831
420.220, 101.899
421.562, 87.000
422.904, 131.471
424.245, 111.568
425.586, 115.667
426.927, 148.720
428.268, 137.829
429.609, 126.937
430.949, 124.038
432.289, 144.146
433.629, 151.254
434.969, 177.361
436.309, 140.195
437.648, 160.301
438.987, 169.405
440.326, 202.509
441.665, 163.471
443.003, 182.519
444.342, 171.511
445.680, 192.326
447.018, 229.099
448.355, 191.126
449.693, 192.992
451.030, 242.098
452.367, 248.210
453.704, 251.322
455.041, 273.418
456.377, 301.532
457.713, 299.647
459.049, 328.714
460.385, 331.829
461.721, 377.941
463.056, 385.056
464.391, 420.171
465.726, 443.286
467.061, 442.401
468.395, 505.517
469.730, 550.634
471.064, 532.752
472.398, 600.869
473.731, 578.987
475.065, 656.106
476.398, 731.210
477.731, 838.330
479.064, 903.450
480.397, 1024.633
481.729, 1185.846
483.062, 1332.968
484.394, 1582.089
485.725, 1895.211
487.057, 2283.635
488.389, 2873.756
489.720, 3642.878
491.051, 4749.000
492.382, 6276.124
493.712, 8433.249
495.043, 10823.371
496.373, 13264.495
497.703, 14626.618
499.032, 14205.741
500.362, 12134.849
501.691, 9366.971
503.020, 6727.097
504.349, 4817.222
505.678, 3469.349
507.007, 2496.155
508.335, 1929.084
509.663, 1516.609
510.991, 1147.740
512.319, 890.879
513.646, 715.011
514.973, 594.091
516.300, 522.224
517.627, 442.357
518.954, 381.490
520.280, 333.624
521.607, 304.758
522.933, 266.892
524.259, 227.026
525.584, 222.185
526.910, 207.319
528.235, 181.716
529.560, 158.864
530.885, 153.998
532.209, 129.327
533.534, 122.478
534.858, 108.612
536.182, 96.829
537.506, 96.141
538.829, 86.278
540.152, 68.426
541.476, 79.559
542.799, 60.708
544.121, 39.857
545.444, 61.026
546.766, 54.535
548.088, 47.045
549.410, 31.868
550.732, 52.005
552.053, 56.140
553.375, 69.276
554.696, 44.912
556.017, 41.047
557.337, 29.129
558.658, 29.709
559.978, 6.232
561.298, 48.373
562.618, 24.515
563.938, 43.231
565.257, 9.403
566.576, 2.124
567.895, 25.356
569.214, 14.518
570.533, 30.668
571.851, 39.969
573.170, 21.776
574.488, 12.156
575.805, 19.850
577.123, 0.326
578.440, 9.831
579.758, 53.986
581.075, 22.260
582.391, 39.417
583.708, 19.826
585.024, 3.019
586.341, 16.133
587.657, 12.285
588.972, 38.477
590.288, 10.627
591.603, 26.776
592.918, 13.923
594.233, 23.069
595.548, 40.216
596.863, 32.361
598.177, 41.505
599.491, 64.674
600.805, 80.816
602.119, 119.964
603.432, 298.104
604.746, 485.657
606.059, 766.802
607.372, 1071.116
608.685, 1135.260
609.997, 799.840
611.309, 390.051
612.621, 208.191
613.933, 150.973
615.245, 73.110
616.557, 45.246
617.868, 40.544
619.179, 50.735
620.490, 37.867
621.801, 88.997
623.111, 101.126
624.421, 132.253
625.731, 153.379
627.041, 172.034
628.351, 127.156
629.660, 75.278
630.970, 69.397
632.279, 41.078
633.588, 16.195
634.896, 20.309
636.205, 36.423
637.513, 2.534
638.821, 1.643
640.129, 30.750
641.437, 13.855
642.744, 12.958
644.051, 1.940
645.358, 25.157
646.665, 24.253
647.972, 25.346
649.278, 22.508
650.584, 23.416
651.890, 20.220
653.196, 22.853
654.502, 16.938
655.807, 15.022
657.113, 20.145
658.418, 32.225
659.722, 24.304
661.027, 34.381
662.331, 22.493
663.636, 21.566
664.940, 9.339
666.244, 2.860
667.547, 15.784
668.851, 8.841
670.154, 44.897
671.457, 78.950
672.760, 115.002
674.062, 174.052
675.365, 184.100
676.667, 125.147
677.969, 105.192
679.271, 35.234
680.572, 20.276
681.874, 5.315
683.175, 35.352
684.476, 0.613
685.777, 7.418
687.077, 24.448
688.378, 0.475
689.678, 6.498
690.978, 12.520
692.278, 0.460
693.577, 8.556
694.877, 9.569
696.176, 6.930
697.475, 10.591
698.774, 6.599
700.072, 6.606
701.371, 4.610
702.669, 2.387
703.967, 2.390
705.265, 7.399
706.562, 23.586
707.860, 13.568
709.157, 31.548
710.454, 4.473
711.751, 39.499
713.047, 11.530
714.344, 3.569
715.640, 18.614
716.936, 23.327
718.232, 16.267
719.527, 5.796
720.823, 4.135
722.118, 1.936
723.413, 2.039
724.708, 5.880
726.002, 13.797
727.297, 0.714
728.591, 7.374
729.885, 16.468
731.179, 5.575
732.472, 7.688
733.766, 27.175
735.059, 9.053
736.352, 15.071
737.645, 13.794
738.937, 17.342
740.230, 12.509
741.522, 16.211
742.814, 15.059
744.106, 1.906
745.397, 7.862
746.689, 6.705
747.980, 10.981
749.271, 12.815
750.562, 20.227
751.853, 15.064
753.143, 4.900
754.433, 1.735
755.723, 11.568
757.013, 2.657
758.303, 4.437
759.592, 4.941
760.881, 6.883
762.170, 1.294
763.459, 12.525
764.748, 21.657
766.036, 0.148
767.325, 35.950
768.613, 9.249
769.901, 27.545
771.188, 8.338
772.476, 1.827
773.763, 0.039
775.050, 12.748
776.337, 23.534
777.624, 10.319
778.910, 17.102
780.196, 28.885
781.482, 8.334
782.768, 5.441
784.054, 17.216
785.339, 11.989
786.625, 9.238
787.910, 1.528
789.195, 5.294
790.479, 8.058
791.764, 21.822
793.048, 3.521
794.332, 61.193
795.616, 307.717
796.900, 157.800
798.183, 176.439
799.467, 16.930
800.750, 19.688
802.033, 2.445
803.316, 1.799
804.598, 2.044
805.880, 0.446
807.163, 26.463
808.445, 12.215
809.726, 7.967
811.008, 1.282
812.289, 43.468
813.570, 12.217
814.851, 20.967
816.132, 1.285
817.413, 8.463
818.693, 0.790
819.973, 9.156
821.253, 22.508
822.533, 32.254
823.813, 32.675
825.092, 40.810
826.371, 22.482
827.650, 47.228
828.929, 29.973
830.208, 31.718
831.486, 31.918
832.764, 18.208
834.042, 27.952
835.320, 19.697
836.598, 28.417
837.875, 74.162
839.152, 23.644
840.429, 46.377
841.706, 48.124
842.983, 26.676
844.259, 31.406
845.536, 60.156
846.812, 32.653
848.088, 38.396
849.363, 49.144
850.639, 7.882
851.914, 1.634
853.189, 50.373
854.464, 24.113
855.739, 33.836
857.013, 12.218
858.288, 27.600
859.562, 21.670
860.836, 29.427
862.110, 31.655
863.383, 19.943
864.656, 36.202
865.930, 32.962
867.203, 40.781
868.475, 36.102
869.748, 39.482
871.020, 37.245
872.292, 46.009
873.564, 43.104
874.836, 45.953
876.108, 41.410
877.379, 25.874
878.650, 23.666
879.922, 46.474
881.192, 41.136
882.463, 19.297
883.733, 4.892
885.004, 40.175
886.274, 24.331
887.544, 69.154
888.813, 12.979
890.083, 29.686
891.352, 35.514
892.621, 33.091
893.890, 22.924
895.159, 12.759
896.427, 37.596
897.695, 7.607
898.964, 40.233
900.232, 26.075
901.499, 22.918
902.767, 1.764
904.034, 41.611
905.301, 14.460
906.568, 27.311
907.835, 57.139
909.102, 20.994
910.368, 2.845
911.634, 17.704
912.900, 21.158
914.166, 43.021
915.432, 15.718
916.697, 43.585
917.962, 36.018
919.227, 71.821
920.492, 48.695
921.757, 62.929
923.021, 70.808
924.285, 4.311
925.550, 50.409
926.813, 28.237
928.077, 39.125
929.341, 42.016
930.604, 73.909
931.867, 30.804
933.130, 25.702
934.393, 83.071
935.655, 0.974
936.918, 64.880
938.180, 26.787
939.442, 59.135
940.703, 48.048
941.965, 45.964
943.226, 38.882
944.488, 51.072
945.749, 59.727
947.009, 76.654
948.270, 94.584
949.530, 97.516
950.791, 69.452
952.051, 88.391
953.311, 83.333
954.570, 77.279
955.830, 82.157
957.089, 87.036
958.348, 103.995
959.607, 122.957
960.866, 95.923
962.124, 116.893
963.383, 134.824
964.641, 113.800
965.899, 142.779
967.156, 137.761
968.414, 152.708
969.671, 197.696
970.928, 178.664
972.185, 174.661
973.442, 207.663
974.699, 229.667
975.955, 237.674
977.211, 252.792
978.468, 253.700
979.723, 267.717
980.979, 281.737
982.234, 298.760
983.490, 307.020
984.745, 296.823
986.000, 324.861
987.254, 320.901
988.509, 329.946
989.763, 376.994
991.017, 396.339
992.271, 441.395
993.525, 493.453
994.779, 546.534
996.032, 652.246
997.285, 817.315
998.538, 1007.389
999.791, 1254.466
1001.044, 1284.546
1002.296, 1320.628
1003.548, 1352.114
1004.800, 1563.204
1006.052, 1955.298
1007.304, 2462.397
1008.555, 3297.501
1009.807, 4376.611
1011.058, 6399.729
1012.309, 10072.849
1013.559, 16991.971
1014.810, 29831.090
1016.060, 47354.223
1017.310, 57171.359
1018.560, 46717.500
1019.810, 28294.643
1021.060, 15523.798
1022.309, 9028.954
1023.558, 5932.589
1024.807, 4031.907
1026.056, 2972.111
1027.305, 2306.222
1028.553, 1791.333
1029.801, 1431.428
1031.049, 1151.295
1032.297, 959.927
1033.545, 870.127
1034.793, 673.399
1036.040, 632.720
1037.287, 573.954
1038.534, 471.161
1039.781, 428.371
1041.027, 430.596
1042.274, 370.052
1043.520, 323.292
1044.766, 307.540
1046.012, 265.784
1047.257, 238.030
1048.503, 230.166
1049.748, 206.416
1050.993, 218.668
1052.238, 207.922
1053.483, 188.177
1054.727, 169.435
1055.971, 164.694
1057.216, 146.955
1058.459, 128.218
1059.703, 148.483
1060.947, 101.750
1062.190, 101.018
1063.433, 138.290
1064.676, 106.563
1065.919, 70.840
1067.162, 114.117
1068.404, 69.403
1069.646, 58.691
1070.888, 78.980
1072.130, 55.273
1073.372, 67.568
1074.613, 72.823
1075.855, 72.122
1077.096, 76.019
1078.337, 58.726
1079.578, 68.030
1080.818, 65.336
1082.059, 47.643
1083.299, 80.951
1084.539, 44.263
1085.779, 58.577
1087.018, 26.892
1088.258, 49.208
1089.497, 53.528
1090.736, 62.850
1091.975, 23.187
1093.213, 49.511
1094.452, 34.836
1095.690, 34.162
1096.928, 53.491
1098.166, 52.871
1099.404, 63.202
1100.642, 79.978
1101.879, 54.893
1103.116, 129.227
1104.353, 151.593
1105.590, 213.357
1106.827, 369.695
1108.063, 589.034
1109.299, 942.732
1110.536, 1190.073
1111.771, 1174.468
1113.007, 992.905
1114.243, 796.312
1115.478, 575.706
1116.713, 449.051
1117.948, 297.397
1119.183, 171.743
1120.418, 145.090
1121.652, 154.438
1122.886, 190.786
1124.120, 153.134
1125.354, 122.743
1126.588, 169.092
1127.821, 205.441
1129.055, 231.791
1130.288, 247.159
1131.521, 161.606
1132.753, 92.956
1133.986, 76.510
1135.218, 93.860
1136.450, 26.577
1137.682, 42.045
1138.914, 7.604
1140.146, 13.767
1141.377, 27.121
1142.609, 0.531
1143.840, 13.143
1145.071, 5.261
1146.301, 58.959
1147.532, 11.300
1148.762, 51.646
1149.992, 22.997
1151.222, 8.289
1152.452, 13.146
1153.682, 23.651
1154.911, 38.354
1156.140, 68.157
1157.369, 77.377
1158.598, 127.072
1159.827, 158.445
1161.055, 184.832
1162.284, 168.161
1163.512, 68.491
1164.740, 65.819
1165.967, 31.147
1167.195, 42.516
1168.422, 53.842
1169.650, 29.167
1170.877, 7.338
1172.103, 18.020
1173.330, 31.994
1174.557, 30.306
1175.783, 30.150
1177.009, 13.850
1178.235, 10.066
1179.461, 6.203
1180.686, 5.861
1181.912, 0.090
1183.137, 0.683
1184.362, 2.541
1185.587, 17.829
1186.811, 11.171
1188.036, 25.474
1189.260, 1.032
1190.484, 36.980
1191.708, 12.353
1192.932, 41.563
1194.155, 36.772
1195.378, 33.980
1196.602, 26.186
1197.825, 33.502
1199.047, 42.593
1200.270, 47.793
1201.492, 53.073
1202.715, 58.897
1203.937, 88.468
1205.159, 55.661
1206.380, 38.855
1207.602, 38.048
1208.823, 69.239
1210.044, 48.427
1211.265, 59.614
1212.486, 56.799
1213.707, 63.981
1214.927, 88.162
1216.147, 75.341
1217.367, 88.518
1218.587, 82.692
1219.807, 90.865
1221.027, 80.105
1222.246, 67.274
1223.465, 69.441
1224.684, 88.606
1225.903, 53.769
1227.121, 32.930
1228.340, 75.088
1229.558, 42.244
1230.776, 34.398
1231.994, 43.591
1233.212, 92.740
1234.429, 40.913
1235.646, 55.057
1236.864, 56.245
1238.081, 19.384
1239.297, 53.519
1240.514, 72.652
1241.730, 92.783
1242.947, 80.246
1244.163, 12.414
1245.378, 74.539
1246.594, 67.656
1247.810, 18.790
1249.025, 70.900
1250.240, 18.008
1251.455, 15.886
1252.670, 34.210
1253.885, 53.305
1255.099, 1.398
1256.313, 37.486
1257.527, 13.583
1258.741, 9.665
1259.955, 12.740
1261.168, 14.811
1262.382, 47.004
1263.595, 51.067
1264.808, 45.128
1266.021, 46.186
1267.233, 33.453
1268.446, 28.312
1269.658, 33.358
1270.870, 4.398
1272.082, 64.432
1273.294, 31.461
1274.505, 53.486
1275.716, 24.509
1276.928, 9.471
1278.139, 74.542
1279.349, 6.581
1280.560, 42.597
1281.770, 2.599
1282.981, 10.597
1284.191, 31.592
1285.401, 24.292
1286.610, 28.281
1287.820, 42.252
1289.029, 20.196
1290.239, 15.508
1291.448, 2.464
1292.656, 41.417
1293.865, 28.366
1295.073, 27.312
1296.282, 2.255
1297.490, 11.796
1298.698, 7.732
1299.906, 2.213
1301.113, 7.591
1302.320, 7.515
1303.528, 2.435
1304.735, 20.350
1305.942, 17.262
1307.148, 36.171
1308.355, 34.077
1309.561, 51.979
1310.767, 34.878
1311.973, 20.774
1313.179, 31.667
1314.384, 31.553
1315.590, 8.435
1316.795, 31.840
1318.000, 35.562
1319.205, 27.398
1320.410, 58.329
1321.614, 13.261
1322.819, 36.206
1324.023, 30.379
1325.227, 22.786
1326.431, 51.628
1327.634, 33.401
1328.838, 30.152
1330.041, 8.969
1331.244, 3.811
1332.447, 29.350
1333.650, 0.524
1334.852, 8.927
1336.055, 1.890
1337.257, 45.698
1338.459, 33.510
1339.661, 45.109
1340.862, 63.053
1342.064, 51.932
1343.265, 53.736
1344.466, 81.537
1345.667, 7.335
1346.868, 35.132
1348.068, 22.927
1349.269, 31.754
1350.469, 29.151
1351.669, 38.002
1352.869, 44.789
1354.069, 33.574
1355.268, 45.358
1356.468, 68.140
1357.667, 55.920
1358.866, 49.699
1360.065, 48.476
1361.263, 25.289
1362.462, 64.065
1363.660, 65.875
1364.858, 9.675
1366.056, 37.448
1367.254, 59.219
1368.451, 57.184
1369.649, 65.927
1370.846, 40.667
1372.043, 55.405
1373.240, 31.138
1374.436, 79.865
1375.633, 14.584
1376.829, 29.282
1378.025, 17.998
1379.221, 67.680
1380.417, 13.431
1381.613, 49.088
1382.808, 60.693
1384.003, 69.276
1385.199, 52.176
1386.393, 0.980
1387.588, 14.907
1388.783, 26.764
1389.977, 66.121
1391.171, 18.980
1392.365, 63.454
1393.559, 33.141
1394.753, 37.857
1395.946, 43.689
1397.140, 33.516
1398.333, 45.339
1399.526, 40.864
1400.719, 20.673
1401.911, 55.457
1403.104, 22.990
1404.296, 47.535
1405.488, 2.740
1406.680, 54.477
1407.872, 25.230
1409.063, 37.863
1410.255, 16.182
1411.446, 28.907
1412.637, 34.058
1413.828, 42.112
1415.018, 22.380
1416.209, 35.571
1417.399, 61.201
1418.589, 39.898
1419.779, 35.533
1420.969, 50.218
1422.159, 12.667
1423.348, 17.367
1424.537, 64.047
1425.726, 46.817
1426.915, 67.593
1428.104, 44.370
1429.293, 45.873
1430.481, 26.141
1431.669, 62.428
1432.857, 23.133
1434.045, 38.835
1435.233, 18.533
1436.420, 48.099
1437.608, 38.785
1438.795, 34.465
1439.982, 34.136
1441.169, 47.802
1442.355, 28.464
1443.542, 65.122
1444.728, 39.775
1445.914, 36.298
1447.100, 29.938
1448.286, 17.570
1449.472, 24.611
1450.657, 27.462
1451.842, 40.358
1453.027, 38.917
1454.212, 56.432
1455.397, 45.036
1456.581, 55.948
1457.766, 58.436
1458.950, 54.908
1460.134, 52.580
1461.318, 48.143
1462.501, 45.710
1463.685, 32.245
1464.868, 48.808
1466.051, 47.083
1467.234, 23.651
1468.417, 54.162
1469.600, 21.730
1470.782, 8.318
1471.965, 56.917
1473.147, 67.511
1474.329, 79.019
1475.510, 31.575
1476.692, 19.152
1477.873, 26.719
1479.055, 44.389
1480.236, 61.074
1481.416, 48.758
1482.597, 38.442
1483.778, 56.124
1484.958, 53.805
1486.138, 27.487
1487.318, 31.171
1488.498, 37.856
1489.678, 38.547
1490.857, 6.245
1492.037, 8.026
1493.216, 3.252
1494.395, 32.466
1495.574, 17.230
1496.752, 56.019
1497.931, 41.826
1499.109, 20.524
1500.287, 41.360
1501.465, 24.220
1502.643, 8.102
1503.820, 74.000
1504.998, 8.918
1506.175, 10.857
1507.352, 45.823
1508.529, 39.532
1509.706, 1.386
1510.882, 31.176
1512.059, 32.688
1513.235, 44.139
1514.411, 44.017
1515.587, 24.680
1516.762, 30.098
1517.938, 10.980
1519.113, 4.394
1520.288, 19.356
1521.463, 0.137
1522.638, 25.763
1523.813, 4.746
1524.987, 0.000
##END=



