##NAMES=Anhydrite
##RRUFFID=R040061
##IDEAL CHEMISTRY=CaS^6+^O_4_
##LOCALITY=Chester County, Pennsylvania, USA
##OWNER=RRUFF
##SOURCE=University of Arizona Mineral Museum
##DESCRIPTION=Pale purple fractured single crystal
##STATUS=The identification of this mineral has been confirmed by X-ray diffraction and chemical analysis
##URL=rruff.info/R040061
##MEASURED CHEMISTRY=Ca_0.98_S_1.01_O_4_
##PIN_ID=S00304
##ORIENTATION=Laser parallel to -c* (0 0 -1). Fiducial mark perpendicular to laser is parallel to a [1 0 0]
51.466, 0.000
52.866, 7.747
54.266, 23.753
55.666, 8.900
57.065, 16.002
58.464, 13.457
59.863, 4.915
61.262, 2.146
62.661, 2.995
64.059, 11.351
65.458, 19.131
66.856, 8.269
68.253, 13.716
69.651, 10.431
71.048, 27.381
72.445, 28.540
73.842, 44.886
75.239, 40.400
76.635, 47.064
78.031, 47.866
79.427, 34.791
80.823, 52.828
82.218, 65.969
83.614, 63.204
85.009, 83.528
86.404, 65.934
87.798, 71.415
89.193, 80.968
90.587, 94.589
91.981, 88.274
93.375, 81.023
94.768, 97.830
96.161, 92.690
97.554, 84.599
98.947, 92.552
100.340, 89.547
101.732, 77.581
103.124, 84.651
104.516, 96.756
105.908, 109.893
107.300, 100.060
108.691, 99.257
110.082, 100.482
111.473, 110.063
112.864, 116.012
114.254, 151.315
115.644, 167.653
117.034, 168.162
118.424, 179.143
119.813, 161.799
121.203, 165.227
122.592, 153.675
123.981, 124.147
125.369, 119.638
126.758, 93.150
128.146, 92.682
129.534, 82.250
130.922, 87.852
132.309, 64.488
133.696, 56.156
135.083, 68.838
136.470, 65.516
137.857, 70.190
139.243, 63.866
140.630, 78.550
142.016, 76.237
143.401, 47.927
144.787, 65.620
146.172, 56.317
147.557, 63.018
148.942, 57.725
150.327, 57.436
151.711, 60.154
153.096, 68.877
154.480, 61.606
155.863, 49.342
157.247, 53.084
158.630, 68.833
160.013, 56.589
161.396, 62.351
162.779, 82.120
164.161, 88.896
165.544, 60.682
166.926, 86.478
168.308, 77.282
169.689, 98.093
171.070, 89.911
172.452, 56.735
173.833, 51.566
175.213, 60.404
176.594, 35.249
177.974, 49.579
179.354, 41.431
180.734, 48.306
182.114, 44.171
183.493, 52.041
184.872, 34.918
186.251, 37.801
187.630, 48.853
189.008, 22.746
190.387, 26.794
191.765, 40.698
193.143, 31.606
194.520, 44.781
195.898, 36.699
197.275, 47.622
198.652, 32.729
200.029, 53.661
201.405, 26.799
202.782, 51.837
204.158, 45.788
205.534, 47.402
206.909, 63.164
208.285, 55.646
209.660, 73.008
211.035, 51.259
212.410, 58.493
213.784, 68.612
215.159, 72.317
216.533, 98.263
217.907, 118.065
219.281, 134.481
220.654, 167.094
222.027, 211.641
223.400, 276.227
224.773, 349.837
226.146, 481.128
227.518, 598.797
228.891, 727.826
230.263, 889.542
231.634, 962.279
233.006, 966.034
234.377, 904.808
235.748, 810.630
237.119, 666.463
238.490, 566.282
239.860, 418.113
241.231, 321.957
242.601, 260.813
243.970, 219.680
245.340, 176.558
246.709, 145.782
248.079, 123.343
249.448, 105.249
250.816, 84.164
252.185, 78.088
253.553, 69.019
254.921, 68.959
256.289, 67.905
257.657, 50.859
259.024, 56.820
260.391, 39.787
261.758, 19.760
263.125, 34.739
264.492, 38.725
265.858, 21.716
267.224, 40.713
268.590, 27.715
269.956, 6.723
271.321, 20.737
272.687, 29.757
274.052, 4.783
275.416, 18.919
276.781, 16.958
278.146, 32.369
279.510, 13.416
280.874, 18.469
282.237, 24.651
283.601, 9.715
284.964, 13.785
286.327, 11.858
287.690, 3.936
289.053, 17.019
290.416, 16.106
291.778, 27.197
293.140, 26.290
294.502, 8.387
295.863, 3.488
297.225, 11.592
298.586, 15.699
299.947, 8.808
301.308, 11.080
302.668, 25.033
304.029, 2.149
305.389, 46.267
306.749, 0.612
308.108, 37.511
309.468, 16.637
310.827, 6.766
312.186, 5.897
313.545, 14.030
314.903, 13.166
316.262, 13.756
317.620, 22.446
318.978, 5.590
320.336, 13.736
321.693, 4.115
323.051, 17.036
324.408, 7.189
325.765, 3.652
327.121, 11.508
328.478, 7.671
329.834, 11.836
331.190, 12.004
332.546, 5.173
333.902, 5.655
335.257, 21.518
336.612, 9.692
337.967, 4.869
339.322, 20.048
340.677, 9.229
342.031, 3.591
343.385, 17.591
344.739, 2.774
346.093, 5.960
347.446, 3.853
348.799, 7.335
350.153, 1.475
351.505, 8.716
352.858, 8.908
354.210, 1.102
355.563, 3.703
356.915, 8.507
358.267, 4.687
359.618, 15.116
360.969, 9.922
362.321, 3.271
363.672, 7.534
365.022, 4.660
366.373, 5.145
367.723, 7.050
369.073, 0.757
370.423, 21.566
371.773, 5.620
373.122, 2.195
374.471, 23.989
375.821, 13.830
377.169, 13.348
378.518, 4.524
379.866, 8.299
381.215, 2.879
382.563, 0.939
383.910, 2.245
385.258, 2.433
386.605, 20.624
387.952, 11.183
389.299, 20.008
390.646, 4.798
391.992, 20.396
393.339, 13.592
394.685, 15.791
396.031, 17.992
397.376, 2.195
398.722, 2.401
400.067, 27.608
401.412, 31.818
402.757, 13.029
404.101, 51.243
405.446, 38.458
406.790, 44.676
408.134, 95.895
409.478, 215.116
410.821, 390.339
412.165, 605.564
413.508, 832.790
414.851, 1043.019
416.193, 1034.248
417.536, 831.479
418.878, 579.712
420.220, 379.947
421.562, 250.185
422.904, 154.422
424.245, 105.661
425.586, 81.902
426.927, 33.143
428.268, 41.481
429.609, 26.726
430.949, 33.971
432.289, 22.637
433.629, 14.885
434.969, 8.633
436.309, 2.481
437.648, 26.804
438.987, 2.942
440.326, 17.338
441.665, 25.727
443.003, 2.341
444.342, 34.115
445.680, 39.811
447.018, 44.065
448.355, 30.321
449.693, 15.147
451.030, 40.404
452.367, 28.744
453.704, 15.003
455.041, 44.261
456.377, 41.664
457.713, 37.033
459.049, 17.352
460.385, 32.614
461.721, 38.875
463.056, 46.770
464.391, 50.034
465.726, 50.299
467.061, 54.565
468.395, 53.817
469.730, 75.084
471.064, 72.354
472.398, 65.626
473.731, 96.898
475.065, 95.171
476.398, 125.444
477.731, 147.717
479.064, 131.087
480.397, 165.364
481.729, 200.722
483.062, 201.868
484.394, 254.150
485.725, 321.279
487.057, 393.439
488.389, 491.724
489.720, 653.015
491.051, 866.305
492.382, 1167.596
493.712, 1615.888
495.043, 2017.955
496.373, 2506.247
497.703, 2903.540
499.032, 2958.832
500.362, 2579.127
501.691, 2156.421
503.020, 1595.559
504.349, 1208.854
505.678, 890.150
507.007, 632.448
508.335, 451.566
509.663, 382.866
510.991, 281.080
512.319, 223.384
513.646, 171.687
514.973, 148.988
516.300, 146.101
517.627, 121.988
518.954, 88.298
520.280, 100.846
521.607, 72.650
522.933, 55.962
524.259, 51.877
525.584, 40.190
526.910, 84.210
528.235, 59.525
529.560, 77.742
530.885, 72.904
532.209, 68.218
533.534, 85.360
534.858, 92.673
536.182, 82.235
537.506, 79.548
538.829, 65.861
540.152, 33.690
541.476, 53.000
542.799, 36.179
544.121, 61.475
545.444, 29.774
546.766, 39.085
548.088, 29.746
549.410, 34.056
550.732, 36.030
552.053, 43.339
553.375, 12.648
554.696, 44.956
556.017, 13.264
557.337, 16.560
558.658, 43.865
559.978, 29.172
561.298, 27.477
562.618, 56.782
563.938, 61.087
565.257, 61.397
566.576, 68.460
567.895, 60.053
569.214, 66.362
570.533, 48.669
571.851, 51.975
573.170, 32.281
574.488, 40.587
575.805, 51.892
577.123, 38.197
578.440, 21.555
579.758, 9.858
581.075, 11.160
582.391, 30.466
583.708, 37.838
585.024, 22.137
586.341, 4.440
587.657, 23.745
588.972, 24.053
590.288, 2.529
591.603, 20.774
592.918, 3.839
594.233, 4.539
595.548, 3.650
596.863, 10.942
598.177, 7.864
599.491, 3.153
600.805, 1.558
602.119, 4.324
603.432, 2.928
604.746, 12.350
606.059, 30.667
607.372, 5.061
608.685, 21.204
609.997, 5.468
611.309, 23.794
612.621, 15.055
613.933, 3.314
615.245, 4.571
616.557, 6.826
617.868, 17.083
619.179, 21.258
620.490, 30.585
621.801, 44.210
623.111, 59.459
624.421, 86.707
625.731, 96.081
627.041, 107.443
628.351, 135.121
629.660, 103.773
630.970, 75.013
632.279, 31.252
633.588, 22.489
634.896, 16.729
636.205, 6.485
637.513, 23.716
638.821, 7.971
640.129, 39.198
641.437, 22.466
642.744, 8.310
644.051, 25.710
645.358, 39.924
646.665, 16.254
647.972, 30.556
649.278, 28.764
650.584, 34.167
651.890, 46.371
653.196, 53.635
654.502, 29.836
655.807, 59.146
657.113, 62.770
658.418, 49.983
659.722, 69.418
661.027, 84.625
662.331, 85.814
663.636, 183.559
664.940, 249.177
666.244, 335.381
667.547, 549.439
668.851, 1038.637
670.154, 1835.815
671.457, 3333.809
672.760, 5534.741
674.062, 7815.951
675.365, 8764.215
676.667, 7077.088
677.969, 4304.280
679.271, 2315.449
680.572, 1343.765
681.874, 824.932
683.175, 476.096
684.476, 309.920
685.777, 205.080
687.077, 162.239
688.378, 121.426
689.678, 101.584
690.978, 79.740
692.278, 75.894
693.577, 63.197
694.877, 66.201
696.176, 47.350
697.475, 56.499
698.774, 39.645
700.072, 46.790
701.371, 32.932
702.669, 31.072
703.967, 28.209
705.265, 38.346
706.562, 29.481
707.860, 39.615
709.157, 30.746
710.454, 24.875
711.751, 29.001
713.047, 17.124
714.344, 16.245
715.640, 23.363
716.936, 59.479
718.232, 27.592
719.527, 39.774
720.823, 18.882
722.118, 29.988
723.413, 14.634
724.708, 19.734
726.002, 22.575
727.297, 21.670
728.591, 38.808
729.885, 28.062
731.179, 37.148
732.472, 37.920
733.766, 14.317
735.059, 37.395
736.352, 23.468
737.645, 19.541
738.937, 12.611
740.230, 30.678
741.522, 26.867
742.814, 36.714
744.106, 28.720
745.397, 12.777
746.689, 44.412
747.980, 13.461
749.271, 21.009
750.562, 35.901
751.853, 24.269
753.143, 35.307
754.433, 32.314
755.723, 23.573
757.013, 13.244
758.303, 10.956
759.592, 19.539
760.881, 14.562
762.170, 25.583
763.459, 33.029
764.748, 28.189
766.036, 11.975
767.325, 26.984
768.613, 20.991
769.901, 29.016
771.188, 19.930
772.476, 17.871
773.763, 21.869
775.050, 37.864
776.337, 1.857
777.624, 51.844
778.910, 34.828
780.196, 7.813
781.482, 14.791
782.768, 1.232
784.054, 0.737
785.339, 22.700
786.625, 22.660
787.910, 30.619
789.195, 15.575
790.479, 1.471
791.764, 16.382
793.048, 9.673
794.332, 22.182
795.616, 10.114
796.900, 27.043
798.183, 6.878
799.467, 27.040
800.750, 12.044
802.033, 5.860
803.316, 26.761
804.598, 2.660
805.880, 29.556
807.163, 6.449
808.445, 29.340
809.726, 4.229
811.008, 1.885
812.289, 8.995
813.570, 0.873
814.851, 8.747
816.132, 14.620
817.413, 4.510
818.693, 2.646
819.973, 7.212
821.253, 9.932
822.533, 6.915
823.813, 18.760
825.092, 9.396
826.371, 8.562
827.650, 4.265
828.929, 2.090
830.208, 8.088
831.486, 4.727
832.764, 12.540
834.042, 0.352
835.320, 48.160
836.598, 44.968
837.875, 8.226
839.152, 26.573
840.429, 50.370
841.706, 2.167
842.983, 43.962
844.259, 34.756
845.536, 18.548
846.812, 15.340
848.088, 25.131
849.363, 40.921
850.639, 26.709
851.914, 20.497
853.189, 16.284
854.464, 25.070
855.739, 38.856
857.013, 50.640
858.288, 35.424
859.562, 28.207
860.836, 25.989
862.110, 17.608
863.383, 8.198
864.656, 10.333
865.930, 4.113
867.203, 1.871
868.475, 38.622
869.748, 18.400
871.020, 26.179
872.292, 2.044
873.564, 17.733
874.836, 0.503
876.108, 10.721
877.379, 11.003
878.650, 14.231
879.922, 5.533
881.192, 1.703
882.463, 4.940
883.733, 0.821
885.004, 0.284
886.274, 4.448
887.544, 9.049
888.813, 8.810
890.083, 12.571
891.352, 4.327
892.621, 16.017
893.890, 22.221
895.159, 18.469
896.427, 19.724
897.695, 4.014
898.964, 0.640
900.232, 3.380
901.499, 6.034
902.767, 11.227
904.034, 12.485
905.301, 10.254
906.568, 5.993
907.835, 11.266
909.102, 25.472
910.368, 7.862
911.634, 37.762
912.900, 24.502
914.166, 36.203
915.432, 44.949
916.697, 1.698
917.962, 33.449
919.227, 20.135
920.492, 33.888
921.757, 7.359
923.021, 1.605
924.285, 14.150
925.550, 19.903
926.813, 32.092
928.077, 44.420
929.341, 36.805
930.604, 36.567
931.867, 0.329
933.130, 23.966
934.393, 14.716
935.655, 21.945
936.918, 48.303
938.180, 36.073
939.442, 40.844
940.703, 36.617
941.965, 34.075
943.226, 49.642
944.488, 31.420
945.749, 48.175
947.009, 48.957
948.270, 46.700
949.530, 53.486
950.791, 49.472
952.051, 72.266
953.311, 47.945
954.570, 74.651
955.830, 53.451
957.089, 71.057
958.348, 62.862
959.607, 105.609
960.866, 95.420
962.124, 98.123
963.383, 131.515
964.641, 122.319
965.899, 114.905
967.156, 142.720
968.414, 142.553
969.671, 162.835
970.928, 167.247
972.185, 188.080
973.442, 182.062
974.699, 202.905
975.955, 221.769
977.211, 226.156
978.468, 244.928
979.723, 247.762
980.979, 252.546
982.234, 262.721
983.490, 248.584
984.745, 289.474
986.000, 286.218
987.254, 324.119
988.509, 343.023
989.763, 378.268
991.017, 392.178
992.271, 440.092
993.525, 497.983
994.779, 616.904
996.032, 715.838
997.285, 906.775
998.538, 1141.721
999.791, 1373.671
1001.044, 1436.624
1002.296, 1515.581
1003.548, 1580.541
1004.800, 1849.507
1006.052, 2263.478
1007.304, 2887.454
1008.555, 3810.437
1009.807, 5112.422
1011.058, 7415.417
1012.309, 11547.422
1013.559, 19638.428
1014.810, 34365.438
1016.060, 54838.453
1017.310, 64546.480
1018.560, 54794.508
1019.810, 35471.531
1021.060, 21113.564
1022.309, 12935.608
1023.558, 8454.583
1024.807, 5577.634
1026.056, 4049.688
1027.305, 2975.207
1028.553, 2373.273
1029.801, 1880.600
1031.049, 1551.676
1032.297, 1250.710
1033.545, 1136.631
1034.793, 957.719
1036.040, 821.813
1037.287, 765.913
1038.534, 684.018
1039.781, 587.127
1041.027, 505.240
1042.274, 476.357
1043.520, 430.479
1044.766, 400.479
1046.012, 365.219
1047.257, 338.916
1048.503, 304.054
1049.748, 282.197
1050.993, 262.345
1052.238, 246.498
1053.483, 227.265
1054.727, 218.473
1055.971, 208.138
1057.216, 198.308
1058.459, 188.121
1059.703, 165.300
1060.947, 193.279
1062.190, 126.468
1063.433, 138.661
1064.676, 96.859
1065.919, 141.062
1067.162, 101.269
1068.404, 57.480
1069.646, 88.697
1070.888, 119.917
1072.130, 108.980
1073.372, 121.189
1074.613, 102.423
1075.855, 93.661
1077.096, 86.905
1078.337, 82.235
1079.578, 84.406
1080.818, 84.664
1082.059, 90.925
1083.299, 98.193
1084.539, 97.465
1085.779, 67.744
1087.018, 88.030
1088.258, 100.320
1089.497, 114.615
1090.736, 81.914
1091.975, 91.217
1093.213, 114.527
1094.452, 129.842
1095.690, 71.166
1096.928, 99.494
1098.166, 104.827
1099.404, 136.165
1100.642, 157.510
1101.879, 166.860
1103.116, 203.220
1104.353, 160.584
1105.590, 161.952
1106.827, 217.326
1108.063, 249.813
1109.299, 328.373
1110.536, 382.931
1111.771, 434.806
1113.007, 531.204
1114.243, 625.446
1115.478, 731.862
1116.713, 813.274
1117.948, 995.306
1119.183, 1235.626
1120.418, 1684.361
1121.652, 2286.120
1122.886, 3247.561
1124.120, 5072.006
1125.354, 8513.467
1126.588, 15686.923
1127.821, 26815.391
1129.055, 37190.855
1130.288, 35411.324
1131.521, 23704.320
1132.753, 13446.252
1133.986, 7583.736
1135.218, 4599.155
1136.450, 2873.648
1137.682, 2068.144
1138.914, 1460.647
1140.146, 1119.153
1141.377, 897.667
1142.609, 731.179
1143.840, 679.927
1145.071, 553.447
1146.301, 476.139
1147.532, 422.664
1148.762, 408.193
1149.992, 344.725
1151.222, 286.261
1152.452, 266.198
1153.682, 235.173
1154.911, 217.716
1156.140, 220.180
1157.369, 228.692
1158.598, 246.130
1159.827, 273.108
1161.055, 309.868
1162.284, 240.429
1163.512, 180.992
1164.740, 176.558
1165.967, 143.471
1167.195, 125.042
1168.422, 101.622
1169.650, 113.465
1170.877, 71.043
1172.103, 104.673
1173.330, 62.691
1174.557, 64.334
1175.783, 72.431
1177.009, 54.024
1178.235, 56.623
1179.461, 64.589
1180.686, 67.192
1181.912, 62.798
1183.137, 70.134
1184.362, 45.744
1185.587, 61.357
1186.811, 54.971
1188.036, 69.589
1189.260, 60.208
1190.484, 56.828
1191.708, 37.450
1192.932, 49.079
1194.155, 56.714
1195.378, 37.355
1196.602, 56.998
1197.825, 52.642
1199.047, 21.289
1200.270, 26.937
1201.492, 56.588
1202.715, 41.244
1203.937, 38.903
1205.159, 47.562
1206.380, 39.226
1207.602, 28.890
1208.823, 21.557
1210.044, 62.226
1211.265, 60.896
1212.486, 84.568
1213.707, 59.240
1214.927, 52.914
1216.147, 49.590
1217.367, 45.812
1218.587, 63.945
1219.807, 60.625
1221.027, 60.306
1222.246, 81.990
1223.465, 45.674
1224.684, 58.359
1225.903, 78.046
1227.121, 52.734
1228.340, 24.422
1229.558, 49.112
1230.776, 37.802
1231.994, 46.493
1233.212, 58.185
1234.429, 25.877
1235.646, 14.569
1236.864, 10.264
1238.081, 32.961
1239.297, 18.659
1240.514, 19.359
1241.730, 19.062
1242.947, 31.766
1244.163, 15.471
1245.378, 21.635
1246.594, 0.949
1247.810, 13.655
1249.025, 17.358
1250.240, 1.059
1251.455, 26.750
1252.670, 25.442
1253.885, 2.866
1255.099, 4.174
1256.313, 1.519
1257.527, 11.822
1258.741, 8.890
1259.955, 14.428
1261.168, 0.252
1262.382, 8.932
1263.595, 10.384
1264.808, 14.723
1266.021, 21.066
1267.233, 5.280
1268.446, 1.398
1269.658, 6.039
1270.870, 0.668
1272.082, 26.295
1273.294, 29.922
1274.505, 15.547
1275.716, 18.164
1276.928, 7.220
1278.139, 5.991
1279.349, 6.995
1280.560, 13.403
1281.770, 13.195
1282.981, 11.787
1284.191, 10.379
1285.401, 20.969
1286.610, 2.560
1287.820, 5.149
1289.029, 33.263
1290.239, 29.316
1291.448, 16.107
1292.656, 6.464
1293.865, 22.034
1295.073, 11.604
1296.282, 4.172
1297.490, 3.262
1298.698, 3.698
1299.906, 19.863
1301.113, 10.578
1302.320, 25.976
1303.528, 10.472
1304.735, 18.924
1305.942, 0.615
1307.148, 21.152
1308.355, 12.687
1309.561, 13.220
1310.767, 1.248
1311.973, 20.280
1313.179, 6.806
1314.384, 15.671
1315.590, 27.845
1316.795, 5.359
1318.000, 2.130
1319.205, 5.377
1320.410, 3.118
1321.614, 10.382
1322.819, 17.899
1324.023, 0.606
1325.227, 31.885
1326.431, 18.374
1327.634, 6.139
1328.838, 19.344
1330.041, 29.825
1331.244, 25.305
1332.447, 10.783
1333.650, 13.260
1334.852, 32.736
1336.055, 41.211
1337.257, 63.684
1338.459, 40.156
1339.661, 56.735
1340.862, 47.204
1342.064, 50.672
1343.265, 21.137
1344.466, 36.602
1345.667, 36.102
1346.868, 52.696
1348.068, 43.266
1349.269, 46.773
1350.469, 66.231
1351.669, 27.687
1352.869, 52.143
1354.069, 88.597
1355.268, 66.053
1356.468, 76.506
1357.667, 74.958
1358.866, 61.052
1360.065, 62.856
1361.263, 44.303
1362.462, 45.749
1363.660, 47.187
1364.858, 44.617
1366.056, 81.280
1367.254, 67.707
1368.451, 87.132
1369.649, 58.554
1370.846, 82.974
1372.043, 72.391
1373.240, 73.809
1374.436, 86.197
1375.633, 58.577
1376.829, 61.942
1378.025, 69.298
1379.221, 21.646
1380.417, 49.327
1381.613, 62.007
1382.808, 65.685
1384.003, 52.361
1385.199, 77.035
1386.393, 44.706
1387.588, 43.376
1388.783, 65.927
1389.977, 14.400
1391.171, 62.347
1392.365, 33.065
1393.559, 37.022
1394.753, 48.182
1395.946, 32.420
1397.140, 67.007
1398.333, 34.606
1399.526, 22.203
1400.719, 57.659
1401.911, 31.135
1403.104, 31.704
1404.296, 49.271
1405.488, 53.830
1406.680, 13.630
1407.872, 32.698
1409.063, 37.212
1410.255, 5.212
1411.446, 10.155
1412.637, 41.501
1413.828, 35.932
1415.018, 20.103
1416.209, 43.537
1417.399, 42.498
1418.589, 60.159
1419.779, 42.488
1420.969, 10.186
1422.159, 31.839
1423.348, 23.676
1424.537, 33.030
1425.726, 19.299
1426.915, 20.629
1428.104, 15.950
1429.293, 9.269
1430.481, 19.581
1431.669, 51.886
1432.857, 29.185
1434.045, 50.476
1435.233, 10.759
1436.420, 47.032
1437.608, 42.299
1438.795, 44.558
1439.982, 35.809
1441.169, 56.052
1442.355, 38.287
1443.542, 20.514
1444.728, 59.728
1445.914, 21.934
1447.100, 50.130
1448.286, 34.318
1449.472, 35.496
1450.657, 55.667
1451.842, 23.820
1453.027, 51.951
1454.212, 51.060
1455.397, 47.148
1456.581, 21.084
1457.766, 42.167
1458.950, 27.286
1460.134, 43.390
1461.318, 33.483
1462.501, 29.589
1463.685, 48.674
1464.868, 2.776
1466.051, 30.567
1467.234, 25.629
1468.417, 17.845
1469.600, 57.057
1470.782, 25.307
1471.965, 26.577
1473.147, 36.863
1474.329, 50.171
1475.510, 39.476
1476.692, 38.777
1477.873, 30.076
1479.055, 13.371
1480.236, 37.665
1481.416, 1.042
1482.597, 67.252
1483.778, 40.547
1484.958, 20.845
1486.138, 16.148
1487.318, 0.992
1488.498, 1.294
1489.678, 0.878
1490.857, 0.479
1492.037, 24.853
1493.216, 35.152
1494.395, 50.580
1495.574, 38.027
1496.752, 7.488
1497.931, 17.960
1499.109, 27.444
1500.287, 43.942
1501.465, 45.389
1502.643, 48.186
1503.820, 47.653
1504.998, 34.671
1506.175, 22.582
1507.352, 2.130
1508.529, 29.123
1509.706, 37.286
1510.882, 62.388
1512.059, 57.476
1513.235, 13.534
1514.411, 0.802
1515.587, 15.027
1516.762, 5.709
1517.938, 13.053
1519.113, 25.234
1520.288, 0.000
##END=



