##NAMES=Anhydrite
##RRUFFID=R040012
##IDEAL CHEMISTRY=CaS^6+^O_4_
##LOCALITY=Moundhouse, Nevada, USA
##OWNER=RRUFF
##SOURCE=University of Arizona Mineral Museum
##DESCRIPTION=White massive
##STATUS=The identification of this mineral has been confirmed by X-ray diffraction and chemical analysis
##URL=rruff.info/R040012
##MEASURED CHEMISTRY=Ca_1.00_S_1.00_O_4_
##PIN_ID=M00042
##ORIENTATION=Laser parallel to -c* (0 0 -1). Fiducial mark perpendicular to laser is parallel to a [1 0 0]
70.515, 0.000
71.917, 28.792
73.319, 170.917
74.721, 392.843
76.123, 513.060
77.525, 579.941
78.926, 634.376
80.327, 615.531
81.728, 688.022
83.128, 613.774
84.529, 486.135
85.929, 545.896
87.329, 437.821
88.728, 484.542
90.128, 341.607
91.527, 447.622
92.926, 477.313
94.324, 447.485
95.723, 494.002
97.121, 491.328
98.519, 532.707
99.917, 488.628
101.314, 496.660
102.712, 518.458
104.109, 575.896
105.505, 611.335
106.902, 641.732
108.298, 702.560
109.694, 606.880
111.090, 633.746
112.486, 610.198
113.881, 623.272
115.277, 577.006
116.672, 517.437
118.066, 428.593
119.461, 458.514
120.855, 381.214
122.249, 394.751
123.643, 315.892
125.036, 307.384
126.430, 243.787
127.823, 288.834
129.216, 190.262
130.608, 259.591
132.001, 199.858
133.393, 230.042
134.785, 251.721
136.176, 190.352
137.568, 221.786
138.959, 187.544
140.350, 169.659
141.741, 146.040
143.131, 141.473
144.521, 147.853
145.911, 126.275
147.301, 124.769
148.691, 117.293
150.080, 125.793
151.469, 112.256
152.858, 111.677
154.247, 107.065
155.635, 62.443
157.024, 48.841
158.411, 71.284
159.799, 74.756
161.187, 90.257
162.574, 120.790
163.961, 88.352
165.348, 93.942
166.734, 132.952
168.121, 32.606
169.507, 86.299
170.893, 17.105
172.278, 30.132
173.664, 2.058
175.049, 36.185
176.434, 0.452
177.819, 46.774
179.203, 18.021
180.587, 17.039
181.971, 46.090
183.355, 31.801
184.739, 53.908
186.122, 60.582
187.505, 58.583
188.888, 37.658
190.271, 33.308
191.653, 59.296
193.035, 0.226
194.417, 52.480
195.799, 16.548
197.180, 41.192
198.562, 51.769
199.943, 27.713
201.324, 74.168
202.704, 11.856
204.084, 27.208
205.465, 9.197
206.844, 26.143
208.224, 56.153
209.603, 2.885
210.983, 33.328
212.362, 9.158
213.740, 44.767
215.119, 8.767
216.497, 32.387
217.875, 39.289
219.253, 46.538
220.631, 103.363
222.008, 230.255
223.385, 222.254
224.762, 364.249
226.139, 473.962
227.515, 555.746
228.891, 689.335
230.267, 768.653
231.643, 829.685
233.018, 785.714
234.394, 644.065
235.769, 537.569
237.144, 429.878
238.518, 285.075
239.893, 232.656
241.267, 228.624
242.641, 235.657
244.014, 141.721
245.388, 135.921
246.761, 126.049
248.134, 150.237
249.507, 53.468
250.879, 68.729
252.252, 108.010
253.624, 97.299
254.996, 140.588
256.367, 117.367
257.739, 68.142
259.110, 80.399
260.481, 44.638
261.852, 37.859
263.222, 70.561
264.592, 101.090
265.962, 74.554
267.332, 92.596
268.702, 79.735
270.071, 76.726
271.440, 103.739
272.809, 107.757
274.178, 83.886
275.546, 55.795
276.915, 56.695
278.283, 2.695
279.650, 48.646
281.018, 7.470
282.385, 15.500
283.752, 81.483
285.119, 22.116
286.486, 48.088
287.852, 15.523
289.218, 78.079
290.584, 3.376
291.950, 74.794
293.316, 69.902
294.681, 61.950
296.046, 39.856
297.411, 65.789
298.775, 54.542
300.140, 85.243
301.504, 19.809
302.868, 56.340
304.231, 64.821
305.595, 119.238
306.958, 85.603
308.321, 51.952
309.684, 73.286
311.047, 82.645
312.409, 51.947
313.771, 158.231
315.133, 91.501
316.495, 101.755
317.856, 61.993
319.217, 115.215
320.578, 55.422
321.939, 68.612
323.299, 64.784
324.660, 53.940
326.020, 75.078
327.380, 29.199
328.739, 91.299
330.099, 119.382
331.458, 37.447
332.817, 148.490
334.176, 50.516
335.534, 111.522
336.892, 63.877
338.251, 146.585
339.608, 138.079
340.966, 137.221
342.323, 142.317
343.681, 142.168
345.037, 113.948
346.394, 91.865
347.751, 78.639
349.107, 58.041
350.463, 49.700
351.819, 24.800
353.174, 45.013
354.530, 26.459
355.885, 39.234
357.240, 17.564
358.594, 24.689
359.949, 39.031
361.303, 23.786
362.657, 11.837
364.011, 27.344
365.365, 29.902
366.718, 4.673
368.071, 29.244
369.424, 18.739
370.777, 34.666
372.129, 38.158
373.481, 11.040
374.833, 22.826
376.185, 26.802
377.537, 10.511
378.888, 60.783
380.239, 34.208
381.590, 13.497
382.941, 20.990
384.291, 52.388
385.642, 75.606
386.992, 41.796
388.341, 102.658
389.691, 82.944
391.040, 145.205
392.389, 81.358
393.738, 74.648
395.087, 33.813
396.435, 23.985
397.784, 55.159
399.132, 80.322
400.479, 37.485
401.827, 42.631
403.174, 27.826
404.521, 47.954
405.868, 5.934
407.215, 69.162
408.561, 178.235
409.908, 418.288
411.254, 744.321
412.599, 1367.331
413.945, 1906.321
415.290, 2119.290
416.636, 1795.236
417.980, 1003.159
419.325, 641.126
420.670, 289.004
422.014, 173.861
423.358, 135.600
424.702, 18.278
426.045, 33.059
427.389, 36.820
428.732, 2.452
430.075, 4.747
431.417, 19.082
432.760, 96.516
434.102, 84.127
435.444, 46.716
436.786, 89.255
438.127, 2.353
439.469, 24.003
440.810, 47.723
442.151, 68.951
443.492, 24.825
444.832, 25.038
446.172, 85.353
447.512, 18.730
448.852, 111.747
450.192, 61.740
451.531, 108.927
452.870, 55.186
454.209, 106.307
455.548, 91.382
456.887, 138.365
458.225, 80.951
459.563, 120.913
460.901, 95.728
462.238, 106.756
463.576, 118.558
464.913, 105.028
466.250, 124.161
467.587, 104.251
468.923, 116.183
470.259, 130.787
471.596, 93.615
472.931, 186.476
474.267, 184.014
475.603, 128.033
476.938, 163.876
478.273, 146.743
479.608, 143.340
480.942, 247.227
482.276, 180.692
483.611, 291.298
484.944, 367.846
486.278, 392.222
487.612, 392.822
488.945, 550.553
490.278, 659.212
491.611, 957.971
492.943, 1260.887
494.276, 1686.692
495.608, 2100.863
496.940, 2375.518
498.271, 2368.879
499.603, 2105.633
500.934, 1652.381
502.265, 1233.111
503.596, 916.845
504.927, 727.565
506.257, 551.180
507.587, 438.710
508.917, 315.185
510.247, 261.529
511.577, 296.821
512.906, 193.737
514.235, 210.033
515.564, 177.061
516.892, 185.344
518.221, 176.228
519.549, 180.329
520.877, 172.636
522.205, 132.765
523.533, 141.705
524.860, 140.946
526.187, 153.270
527.514, 174.666
528.841, 147.505
530.167, 103.024
531.493, 123.414
532.820, 152.185
534.145, 191.494
535.471, 116.700
536.796, 146.048
538.122, 133.842
539.447, 63.521
540.771, 91.053
542.096, 38.328
543.420, 52.689
544.744, 90.314
546.068, 100.330
547.392, 3.416
548.715, 74.302
550.039, 81.031
551.362, 141.767
552.684, 78.821
554.007, 113.811
555.329, 144.656
556.652, 126.324
557.973, 166.412
559.295, 140.321
560.617, 173.572
561.938, 113.912
563.259, 192.977
564.580, 169.220
565.901, 178.505
567.221, 191.667
568.541, 174.095
569.861, 185.621
571.181, 225.896
572.501, 196.418
573.820, 241.758
575.139, 182.009
576.458, 143.268
577.777, 109.468
579.095, 164.653
580.414, 173.825
581.732, 240.118
583.049, 257.262
584.367, 201.064
585.685, 243.858
587.002, 279.630
588.319, 183.770
589.636, 252.755
590.952, 201.844
592.268, 226.834
593.585, 241.759
594.900, 235.365
596.216, 272.283
597.532, 274.338
598.847, 276.125
600.162, 255.846
601.477, 336.867
602.792, 285.429
604.106, 310.974
605.420, 282.897
606.734, 264.363
608.048, 237.292
609.361, 300.024
610.675, 194.936
611.988, 255.633
613.301, 256.530
614.614, 430.356
615.926, 353.234
617.238, 449.001
618.550, 487.860
619.862, 662.670
621.174, 752.509
622.485, 951.342
623.797, 1116.166
625.108, 1276.979
626.418, 1179.781
627.729, 935.573
629.039, 700.355
630.349, 587.086
631.659, 446.854
632.969, 415.607
634.279, 397.349
635.588, 324.082
636.897, 315.804
638.206, 421.517
639.515, 442.219
640.823, 480.913
642.131, 529.598
643.439, 563.273
644.747, 703.940
646.055, 543.598
647.362, 646.250
648.669, 589.894
649.976, 515.526
651.283, 577.153
652.589, 550.769
653.896, 448.378
655.202, 471.977
656.508, 358.569
657.814, 347.151
659.119, 297.723
660.424, 252.285
661.729, 287.837
663.034, 235.380
664.339, 297.912
665.643, 340.436
666.947, 516.951
668.251, 893.457
669.555, 1647.955
670.859, 3153.447
672.162, 5204.931
673.465, 6957.409
674.768, 6831.885
676.071, 4709.354
677.373, 2614.817
678.676, 1348.272
679.978, 742.720
681.280, 450.161
682.581, 248.593
683.883, 219.018
685.184, 134.439
686.485, 87.863
687.786, 78.286
689.087, 26.700
690.387, 54.103
691.687, 57.500
692.987, 60.152
694.287, 21.847
695.586, 36.427
696.886, 37.553
698.185, 45.228
699.484, 40.788
700.783, 29.842
702.081, 36.957
703.379, 24.771
704.677, 2.303
705.975, 17.289
707.273, 27.718
708.570, 71.191
709.868, 23.282
711.165, 56.279
712.462, 39.324
713.758, 4.593
715.055, 23.506
716.351, 36.363
717.647, 65.775
718.943, 50.990
720.238, 1.208
721.533, 32.423
722.829, 70.333
724.124, 34.081
725.418, 18.820
726.713, 61.549
728.007, 16.271
729.301, 36.991
730.595, 53.686
731.889, 47.381
733.182, 68.069
734.476, 76.686
735.769, 70.360
737.061, 21.027
738.354, 83.687
739.647, 14.340
740.939, 40.986
742.231, 120.628
743.523, 92.264
744.814, 77.898
746.106, 41.532
747.397, 101.168
748.688, 59.798
749.978, 3.576
751.269, 62.036
752.559, 69.643
753.849, 26.751
755.139, 57.831
756.429, 5.409
757.719, 30.979
759.008, 75.546
760.297, 15.110
761.586, 123.675
762.875, 42.237
764.163, 102.795
765.451, 128.348
766.739, 60.897
768.027, 72.442
769.315, 92.983
770.602, 44.126
771.890, 50.659
773.177, 62.189
774.463, 90.861
775.750, 90.382
777.036, 47.898
778.323, 65.412
779.609, 67.921
780.894, 79.426
782.180, 79.928
783.465, 130.426
784.750, 112.498
786.035, 8.412
787.320, 103.900
788.605, 50.385
789.889, 46.934
791.173, 156.468
792.457, 158.944
793.741, 101.416
795.024, 193.885
796.307, 111.352
797.591, 94.816
798.873, 165.278
800.156, 94.737
801.439, 78.194
802.721, 60.648
804.003, 81.101
805.285, 86.551
806.566, 62.998
807.848, 98.444
809.129, 107.888
810.410, 119.530
811.691, 102.970
812.971, 108.408
814.252, 110.442
815.532, 46.280
816.812, 128.714
818.092, 118.146
819.371, 151.578
820.651, 109.008
821.930, 89.437
823.209, 184.865
824.488, 190.292
825.766, 134.719
827.045, 241.145
828.323, 174.317
829.601, 152.741
830.878, 347.165
832.156, 161.588
833.433, 260.011
834.710, 215.434
835.987, 300.856
837.264, 304.278
838.540, 350.700
839.817, 368.605
841.093, 310.541
842.369, 358.922
843.644, 360.983
844.920, 299.269
846.195, 390.773
847.470, 389.118
848.745, 386.876
850.020, 423.087
851.294, 442.315
852.568, 484.587
853.842, 544.847
855.116, 550.022
856.390, 713.891
857.663, 669.537
858.936, 750.609
860.209, 775.754
861.482, 597.955
862.755, 650.744
864.027, 524.556
865.299, 482.314
866.571, 475.153
867.843, 335.751
869.115, 401.621
870.386, 320.953
871.657, 293.211
872.928, 178.623
874.199, 158.982
875.470, 164.845
876.740, 196.913
878.010, 196.297
879.280, 201.818
880.550, 223.095
881.820, 201.359
883.089, 197.810
884.358, 205.340
885.627, 196.855
886.896, 163.425
888.164, 219.001
889.433, 303.584
890.701, 166.044
891.969, 308.646
893.236, 215.080
894.504, 208.658
895.771, 250.282
897.038, 202.913
898.305, 207.551
899.572, 242.188
900.838, 201.857
902.105, 193.533
903.371, 150.364
904.637, 238.056
905.902, 229.755
907.168, 160.230
908.433, 290.960
909.698, 132.479
910.963, 182.231
912.228, 134.010
913.492, 96.152
914.757, 116.947
916.021, 77.163
917.285, 43.561
918.548, 46.380
919.812, 60.208
921.075, 44.043
922.338, 30.113
923.601, 29.863
924.864, 42.718
926.126, 11.418
927.388, 48.453
928.650, 83.333
929.912, 45.221
931.174, 71.121
932.435, 68.030
933.697, 166.947
934.958, 72.874
936.218, 42.810
937.479, 88.755
938.739, 19.703
940.000, 12.667
941.260, 6.360
942.520, 5.378
943.779, 19.612
945.039, 11.612
946.298, 21.622
947.557, 87.641
948.816, 80.670
950.074, 200.710
951.333, 122.759
952.591, 115.817
953.849, 98.886
955.107, 25.964
956.365, 80.052
957.622, 74.151
958.879, 20.260
960.136, 53.379
961.393, 14.492
962.650, 62.646
963.906, 107.794
965.162, 5.953
966.418, 105.121
967.674, 57.300
968.930, 39.490
970.185, 108.690
971.441, 48.901
972.696, 58.124
973.950, 3.356
975.205, 12.599
976.459, 52.853
977.714, 61.119
978.968, 62.606
980.222, 109.665
981.475, 47.947
982.729, 166.241
983.982, 164.545
985.235, 180.860
986.488, 296.187
987.740, 232.524
988.993, 280.873
990.245, 327.233
991.497, 250.604
992.749, 421.986
994.000, 448.380
995.252, 679.787
996.503, 997.206
997.754, 1275.658
999.005, 1736.143
1000.256, 1763.650
1001.506, 1873.171
1002.756, 1825.704
1004.006, 1876.249
1005.256, 2221.807
1006.506, 2784.377
1007.755, 3615.975
1009.005, 5292.597
1010.254, 8057.237
1011.502, 13451.898
1012.751, 24726.572
1014.000, 39941.281
1015.248, 51116.012
1016.496, 45590.785
1017.744, 30775.576
1018.991, 18960.381
1020.239, 11485.219
1021.486, 7460.061
1022.733, 4954.939
1023.980, 3492.987
1025.227, 2616.895
1026.473, 2046.828
1027.719, 1578.771
1028.965, 1381.728
1030.211, 1004.696
1031.457, 946.676
1032.702, 677.444
1033.948, 663.449
1035.193, 668.465
1036.438, 510.379
1037.682, 448.419
1038.927, 298.470
1040.171, 352.176
1041.415, 206.250
1042.659, 229.337
1043.903, 261.615
1045.146, 211.731
1046.390, 163.861
1047.633, 270.082
1048.876, 202.222
1050.118, 167.108
1051.361, 175.306
1052.603, 96.515
1053.845, 122.818
1055.087, 133.054
1056.329, 80.065
1057.571, 25.334
1058.812, 69.551
1060.053, 27.642
1061.294, 93.944
1062.535, 43.742
1063.775, 36.569
1065.016, 38.891
1066.256, 36.224
1067.496, 91.567
1068.736, 20.922
1069.975, 33.287
1071.214, 148.663
1072.454, 6.558
1073.693, 25.837
1074.931, 123.245
1076.170, 106.524
1077.408, 181.961
1078.647, 240.408
1079.885, 259.353
1081.122, 297.828
1082.360, 218.313
1083.597, 275.810
1084.835, 239.316
1086.072, 178.833
1087.308, 240.360
1088.545, 150.897
1089.781, 109.444
1091.018, 95.935
1092.254, 28.447
1093.490, 206.024
1094.725, 29.612
1095.961, 123.209
1097.196, 98.816
1098.431, 10.433
1099.666, 125.059
1100.900, 73.694
1102.135, 84.339
1103.369, 162.994
1104.603, 152.658
1105.837, 251.331
1107.071, 310.014
1108.304, 311.705
1109.538, 387.405
1110.771, 446.915
1112.004, 334.633
1113.236, 669.360
1114.469, 589.096
1115.701, 712.840
1116.933, 1008.594
1118.165, 1304.356
1119.397, 1814.126
1120.629, 2546.912
1121.860, 3814.707
1123.091, 6880.510
1124.322, 11946.323
1125.553, 21682.141
1126.783, 29227.969
1128.014, 27002.057
1129.244, 18697.900
1130.474, 10733.751
1131.704, 5979.606
1132.933, 3695.472
1134.163, 2134.344
1135.392, 1568.221
1136.621, 1124.106
1137.850, 682.997
1139.079, 726.891
1140.307, 391.795
1141.535, 408.708
1142.763, 373.631
1143.991, 153.564
1145.219, 257.506
1146.446, 226.458
1147.674, 121.419
1148.901, 174.390
1150.128, 80.370
1151.354, 88.359
1152.581, 74.357
1153.807, 65.365
1155.033, 158.381
1156.259, 323.401
1157.485, 356.430
1158.710, 502.468
1159.936, 275.500
1161.161, 222.542
1162.386, 187.586
1163.611, 50.631
1164.835, 73.684
1166.060, 77.744
1167.284, 38.811
1168.508, 60.865
1169.732, 29.926
1170.955, 25.005
1172.179, 112.044
1173.402, 37.067
1174.625, 146.097
1175.848, 86.133
1177.070, 19.176
1178.293, 108.226
1179.515, 54.719
1180.737, 92.332
1181.959, 43.388
1183.181, 17.553
1184.402, 10.508
1185.624, 11.574
1186.845, 32.353
1188.066, 48.718
1189.286, 31.147
1190.507, 0.770
1191.727, 26.676
1192.947, 35.296
1194.167, 2.394
1195.387, 35.389
1196.607, 29.876
1197.826, 50.221
1199.045, 38.349
1200.264, 4.456
1201.483, 93.749
1202.702, 64.134
1203.920, 78.972
1205.138, 13.895
1206.356, 79.728
1207.574, 49.367
1208.792, 39.543
1210.009, 30.230
1211.227, 77.340
1212.444, 71.686
1213.661, 113.806
1214.877, 85.989
1216.094, 66.145
1217.310, 115.278
1218.526, 78.552
1219.742, 39.567
1220.958, 97.217
1222.173, 61.124
1223.389, 135.283
1224.604, 39.483
1225.819, 2.556
1227.034, 103.613
1228.248, 95.787
1229.463, 74.966
1230.677, 203.151
1231.891, 81.342
1233.105, 314.539
1234.318, 166.741
1235.532, 143.949
1236.745, 244.164
1237.958, 255.379
1239.171, 154.575
1240.384, 232.718
1241.596, 123.843
1242.809, 88.971
1244.021, 255.099
1245.233, 188.229
1246.444, 226.360
1247.656, 196.492
1248.867, 248.622
1250.079, 281.751
1251.290, 155.882
1252.500, 270.011
1253.711, 132.096
1254.921, 114.178
1256.132, 194.219
1257.342, 188.256
1258.552, 45.288
1259.761, 265.313
1260.971, 142.330
1262.180, 253.646
1263.389, 304.649
1264.598, 279.647
1265.807, 389.538
1267.015, 315.521
1268.223, 341.625
1269.432, 398.591
1270.640, 360.553
1271.847, 384.590
1273.055, 406.543
1274.262, 362.539
1275.470, 334.407
1276.677, 297.180
1277.883, 275.919
1279.090, 244.799
1280.296, 157.417
1281.503, 202.200
1282.709, 263.654
1283.915, 26.790
1285.120, 170.289
1286.326, 130.795
1287.531, 173.310
1288.736, 187.831
1289.941, 174.360
1291.146, 305.897
1292.350, 292.441
1293.555, 240.992
1294.759, 185.550
1295.963, 288.114
1297.167, 224.686
1298.370, 269.264
1299.574, 200.850
1300.777, 159.133
1301.980, 271.722
1303.183, 246.319
1304.386, 138.690
1305.588, 368.273
1306.790, 251.809
1307.993, 485.420
1309.195, 286.992
1310.396, 266.342
1311.598, 359.805
1312.799, 403.729
1314.000, 316.194
1315.201, 397.563
1316.402, 312.172
1317.603, 318.101
1318.803, 458.443
1320.003, 295.804
1321.203, 353.165
1322.403, 371.526
1323.603, 253.889
1324.802, 273.251
1326.002, 187.591
1327.201, 222.233
1328.400, 251.542
1329.599, 64.851
1330.797, 122.158
1331.995, 50.464
1333.194, 14.770
1334.392, 162.073
1335.589, 5.623
1336.787, 10.681
1337.985, 93.985
1339.182, 48.709
1340.379, 5.403
1341.576, 140.903
1342.772, 55.213
1343.969, 76.526
1345.165, 30.841
1346.361, 77.158
1347.557, 87.451
1348.753, 61.747
1349.949, 55.046
1351.144, 119.352
1352.339, 52.665
1353.534, 68.990
1354.729, 186.328
1355.924, 34.690
1357.118, 112.052
1358.312, 62.403
1359.506, 71.742
1360.700, 99.066
1361.894, 49.375
1363.088, 137.669
1364.281, 23.957
1365.474, 5.762
1366.667, 98.568
1367.860, 76.924
1369.052, 5.712
1370.245, 149.695
1371.437, 141.146
1372.629, 149.787
1373.821, 206.520
1375.013, 114.261
1376.204, 216.011
1377.395, 228.783
1378.586, 210.578
1379.777, 285.386
1380.968, 250.120
1382.159, 201.925
1383.349, 313.124
1384.539, 144.667
1385.729, 226.727
1386.919, 264.209
1388.109, 226.208
1389.298, 248.050
1390.487, 208.722
1391.676, 198.258
1392.865, 132.402
1394.054, 169.132
1395.242, 146.303
1396.431, 128.449
1397.619, 133.089
1398.807, 105.831
1399.995, 123.988
1401.182, 96.307
1402.370, 120.365
1403.557, 142.119
1404.744, 28.754
1405.931, 176.129
1407.118, 84.438
1408.304, 13.475
1409.490, 199.383
1410.676, 48.966
1411.862, 161.653
1413.048, 155.920
1414.234, 60.527
1415.419, 170.210
1416.604, 74.740
1417.789, 32.830
1418.974, 162.257
1420.159, 116.044
1421.343, 8.574
1422.528, 101.313
1423.712, 0.147
1424.896, 88.914
1426.079, 0.000
##END=



