##NAMES=Anhydrite
##RRUFFID=R040012
##IDEAL CHEMISTRY=CaS^6+^O_4_
##LOCALITY=Moundhouse, Nevada, USA
##OWNER=RRUFF
##SOURCE=University of Arizona Mineral Museum
##DESCRIPTION=White massive
##STATUS=The identification of this mineral has been confirmed by X-ray diffraction and chemical analysis
##URL=rruff.info/R040012
##MEASURED CHEMISTRY=Ca_1.00_S_1.00_O_4_
##PIN_ID=S00004
##ORIENTATION=Laser parallel to -a* (-1 0 0). Fiducial mark perpendicular to laser is parallel to b [0 1 0]
93.375, 0.000
94.768, 0.175
96.161, 41.515
97.554, 50.488
98.947, 61.959
100.340, 110.018
101.732, 75.029
103.124, 57.822
104.516, 70.192
105.908, 144.806
107.300, 145.580
108.691, 158.550
110.082, 172.429
111.473, 102.543
112.864, 119.649
114.254, 210.544
115.644, 266.816
117.034, 449.431
118.424, 711.929
119.813, 1195.587
121.203, 1471.142
122.592, 1615.576
123.981, 1364.310
125.369, 976.933
126.758, 681.179
128.146, 542.567
129.534, 516.241
130.922, 401.979
132.309, 308.985
133.696, 161.046
135.083, 142.063
136.470, 43.463
137.857, 64.588
139.243, 70.139
140.630, 82.291
142.016, 95.722
143.401, 78.688
144.787, 87.410
146.172, 100.166
147.557, 55.305
148.942, 119.144
150.327, 114.286
151.711, 115.547
153.096, 79.157
154.480, 102.992
155.863, 79.788
157.247, 60.029
158.630, 62.031
160.013, 58.792
161.396, 68.263
162.779, 88.292
164.161, 83.338
165.544, 96.214
166.926, 44.813
168.308, 69.354
169.689, 55.815
171.070, 83.077
172.452, 23.341
173.833, 45.653
175.213, 37.910
176.594, 26.874
177.974, 37.932
179.354, 28.991
180.734, 21.298
182.114, 16.395
183.493, 10.432
184.872, 3.870
186.251, 22.198
187.630, 21.819
189.008, 24.984
190.387, 29.964
191.765, 28.839
193.143, 33.266
194.520, 10.739
195.898, 14.420
197.275, 23.951
198.652, 2.164
200.029, 5.883
201.405, 8.327
202.782, 14.174
204.158, 8.973
205.534, 6.973
206.909, 34.869
208.285, 18.863
209.660, 21.860
211.035, 24.999
212.410, 1.782
213.784, 15.278
215.159, 12.243
216.533, 23.302
217.907, 21.132
219.281, 20.750
220.654, 30.475
222.027, 41.497
223.400, 49.715
224.773, 70.234
226.146, 88.911
227.518, 92.589
228.891, 77.018
230.263, 72.062
231.634, 128.923
233.006, 103.660
234.377, 84.797
235.748, 113.722
237.119, 82.188
238.490, 109.609
239.860, 102.181
241.231, 105.469
242.601, 93.743
243.970, 87.005
245.340, 102.256
246.709, 60.497
248.079, 132.729
249.448, 82.063
250.816, 93.366
252.185, 155.963
253.553, 114.758
254.921, 151.353
256.289, 113.962
257.657, 123.558
259.024, 141.205
260.391, 154.866
261.758, 174.347
263.125, 137.628
264.492, 174.839
265.858, 120.046
267.224, 174.255
268.590, 154.144
269.956, 191.888
271.321, 174.510
272.687, 159.048
274.052, 123.411
275.416, 167.644
276.781, 146.750
278.146, 135.733
279.510, 147.594
280.874, 197.309
282.237, 117.883
283.601, 150.305
284.964, 90.576
286.327, 89.694
287.690, 72.681
289.053, 74.536
290.416, 90.259
291.778, 66.855
293.140, 110.342
294.502, 47.730
295.863, 101.015
297.225, 81.209
298.586, 53.302
299.947, 99.213
301.308, 98.606
302.668, 97.975
304.029, 111.193
305.389, 136.246
306.749, 123.138
308.108, 156.651
309.468, 118.061
310.827, 140.423
312.186, 132.263
313.545, 171.603
314.903, 153.864
316.262, 159.099
317.620, 152.976
318.978, 177.018
320.336, 163.649
321.693, 124.435
323.051, 150.044
324.408, 122.608
325.765, 115.276
327.121, 119.103
328.478, 111.882
329.834, 94.761
331.190, 116.139
332.546, 102.781
333.902, 120.294
335.257, 101.040
336.612, 96.038
337.967, 92.427
339.322, 103.722
340.677, 104.315
342.031, 101.431
343.385, 124.602
344.739, 139.631
346.093, 149.543
347.446, 126.085
348.799, 90.055
350.153, 95.890
351.505, 135.763
352.858, 68.453
354.210, 72.839
355.563, 50.304
356.915, 24.499
358.267, 21.115
359.618, 23.509
360.969, 25.311
362.321, 39.756
363.672, 3.597
365.022, 11.840
366.373, 8.615
367.723, 35.580
369.073, 12.837
370.423, 9.397
371.773, 25.552
373.122, 12.543
374.471, 5.689
375.821, 21.932
377.169, 18.114
378.518, 36.875
379.866, 12.695
381.215, 8.468
382.563, 29.644
383.910, 91.938
385.258, 97.332
386.605, 102.812
387.952, 132.442
389.299, 129.156
390.646, 163.884
391.992, 153.554
393.339, 153.216
394.685, 108.115
396.031, 150.912
397.376, 127.635
398.722, 85.489
400.067, 91.203
401.412, 53.052
402.757, 87.878
404.101, 73.727
405.446, 60.534
406.790, 28.324
408.134, 34.184
409.478, 7.873
410.821, 3.866
412.165, 2.647
413.508, 50.475
414.851, 11.565
416.193, 34.480
417.536, 22.546
418.878, 22.455
420.220, 13.402
421.562, 12.395
422.904, 43.415
424.245, 75.489
425.586, 67.382
426.927, 43.405
428.268, 16.171
429.609, 65.136
430.949, 74.991
432.289, 97.924
433.629, 59.816
434.969, 114.619
436.309, 130.250
437.648, 96.043
438.987, 141.728
440.326, 109.345
441.665, 176.991
443.003, 139.752
444.342, 146.235
445.680, 166.835
447.018, 173.168
448.355, 182.480
449.693, 177.704
451.030, 198.921
452.367, 211.723
453.704, 227.345
455.041, 263.669
456.377, 300.718
457.713, 353.977
459.049, 339.142
460.385, 369.177
461.721, 388.394
463.056, 386.600
464.391, 487.796
465.726, 481.039
467.061, 540.380
468.395, 539.661
469.730, 558.079
471.064, 582.333
472.398, 637.677
473.731, 654.989
475.065, 709.450
476.398, 703.848
477.731, 859.265
479.064, 884.656
480.397, 1007.095
481.729, 1128.530
483.062, 1247.802
484.394, 1484.183
485.725, 1731.451
487.057, 2062.688
488.389, 2541.941
489.720, 3115.163
491.051, 4125.312
492.382, 5473.554
493.712, 7397.740
495.043, 9824.000
496.373, 12303.178
497.703, 14423.341
499.032, 14828.486
500.362, 13409.686
501.691, 11017.911
503.020, 8391.126
504.349, 6169.441
505.678, 4601.821
507.007, 3413.205
508.335, 2539.550
509.663, 1995.756
510.991, 1470.008
512.319, 1162.412
513.646, 1023.592
514.973, 847.814
516.300, 706.966
517.627, 632.035
518.954, 498.104
520.280, 499.200
521.607, 432.323
522.933, 411.534
524.259, 392.733
525.584, 323.737
526.910, 320.785
528.235, 239.883
529.560, 269.142
530.885, 213.066
532.209, 231.356
533.534, 224.439
534.858, 195.845
536.182, 198.421
537.506, 163.790
538.829, 185.298
540.152, 112.483
541.476, 144.710
542.799, 99.631
544.121, 107.019
545.444, 117.960
546.766, 136.023
548.088, 149.621
549.410, 112.632
550.732, 154.083
552.053, 135.098
553.375, 182.097
554.696, 175.776
556.017, 148.076
557.337, 134.313
558.658, 137.598
559.978, 160.400
561.298, 163.080
562.618, 162.242
563.938, 126.385
565.257, 202.859
566.576, 147.948
567.895, 191.566
569.214, 186.747
570.533, 188.740
571.851, 175.652
573.170, 220.888
574.488, 181.817
575.805, 170.833
577.123, 127.788
578.440, 188.732
579.758, 206.629
581.075, 254.511
582.391, 222.512
583.708, 244.624
585.024, 280.705
586.341, 297.674
587.657, 332.520
588.972, 322.560
590.288, 323.615
591.603, 306.659
592.918, 340.647
594.233, 364.667
595.548, 383.678
596.863, 344.677
598.177, 426.665
599.491, 480.643
600.805, 432.610
602.119, 456.566
603.432, 587.517
604.746, 828.452
606.059, 1185.378
607.372, 1671.295
608.685, 1986.202
609.997, 1647.101
611.309, 1174.990
612.621, 787.871
613.933, 689.741
615.245, 593.604
616.557, 603.457
617.868, 636.302
619.179, 670.137
620.490, 709.964
621.801, 910.782
623.111, 1036.590
624.421, 1191.389
625.731, 1322.179
627.041, 1324.959
628.351, 1245.728
629.660, 1057.488
630.970, 946.239
632.279, 716.979
633.588, 631.709
634.896, 534.429
636.205, 520.139
637.513, 526.839
638.821, 542.528
640.129, 548.207
641.437, 604.118
642.744, 701.536
644.051, 721.186
645.358, 800.826
646.665, 853.456
647.972, 894.077
649.278, 846.688
650.584, 812.291
651.890, 798.883
653.196, 777.466
654.502, 708.040
655.807, 640.604
657.113, 570.159
658.418, 495.704
659.722, 401.240
661.027, 302.766
662.331, 220.283
663.636, 159.789
664.940, 162.284
666.244, 145.770
667.547, 113.246
668.851, 144.712
670.154, 134.168
671.457, 154.615
672.760, 169.052
674.062, 261.479
675.365, 267.897
676.667, 248.307
677.969, 140.707
679.271, 93.098
680.572, 42.479
681.874, 43.850
683.175, 11.789
684.476, 0.546
685.777, 20.135
687.077, 25.846
688.378, 11.591
689.678, 28.360
690.978, 18.164
692.278, 61.998
693.577, 32.881
694.877, 54.802
696.176, 19.767
697.475, 47.760
698.774, 25.797
700.072, 13.868
701.371, 38.967
702.669, 73.106
703.967, 18.304
705.265, 7.469
706.562, 16.774
707.860, 58.045
709.157, 26.366
710.454, 21.720
711.751, 32.105
713.047, 47.525
714.344, 0.988
715.640, 73.469
716.936, 10.008
718.232, 16.568
719.527, 1.154
720.823, 23.758
722.118, 4.391
723.413, 2.958
724.708, 14.294
726.002, 51.620
727.297, 71.939
728.591, 33.251
729.885, 92.555
731.179, 77.852
732.472, 105.141
733.766, 139.424
735.059, 109.700
736.352, 86.970
737.645, 77.233
738.937, 105.489
740.230, 95.739
741.522, 80.981
742.814, 68.217
744.106, 109.446
745.397, 101.669
746.689, 128.885
747.980, 104.095
749.271, 111.298
750.562, 123.494
751.853, 66.685
753.143, 53.869
754.433, 118.047
755.723, 78.218
757.013, 66.384
758.303, 34.543
759.592, 101.697
760.881, 100.845
762.170, 112.988
763.459, 127.125
764.748, 106.258
766.036, 162.388
767.325, 99.513
768.613, 91.632
769.901, 112.747
771.188, 99.857
772.476, 109.223
773.763, 149.062
775.050, 120.157
776.337, 142.248
777.624, 151.334
778.910, 99.417
780.196, 105.494
781.482, 102.298
782.768, 85.637
784.054, 108.702
785.339, 132.763
786.625, 133.821
787.910, 113.874
789.195, 104.924
790.479, 135.970
791.764, 198.013
793.048, 228.053
794.332, 218.089
795.616, 231.123
796.900, 228.153
798.183, 190.179
799.467, 198.204
800.750, 207.225
802.033, 179.244
803.316, 222.260
804.598, 149.273
805.880, 197.284
807.163, 206.293
808.445, 168.300
809.726, 188.304
811.008, 193.307
812.289, 177.307
813.570, 202.306
814.851, 196.303
816.132, 235.298
817.413, 229.292
818.693, 238.285
819.973, 260.276
821.253, 236.266
822.533, 321.254
823.813, 288.242
825.092, 321.229
826.371, 319.215
827.650, 358.200
828.929, 350.184
830.208, 364.742
831.486, 365.152
832.764, 372.135
834.042, 375.097
835.320, 386.341
836.598, 415.610
837.875, 414.629
839.152, 427.428
840.429, 450.943
841.706, 496.111
842.983, 481.192
844.259, 553.250
845.536, 578.984
846.812, 546.998
848.088, 571.862
849.363, 642.381
850.639, 638.117
851.914, 645.124
853.189, 684.538
854.464, 766.729
855.739, 819.370
857.013, 881.892
858.288, 955.881
859.562, 1033.455
860.836, 1071.584
862.110, 1026.146
863.383, 1018.720
864.656, 851.612
865.930, 778.878
867.203, 713.204
868.475, 624.211
869.748, 589.328
871.020, 515.001
872.292, 513.389
873.564, 485.777
874.836, 430.779
876.108, 405.029
877.379, 440.772
878.650, 368.842
879.922, 393.082
881.192, 396.395
882.463, 463.584
883.733, 454.914
885.004, 399.252
886.274, 380.599
887.544, 425.954
888.813, 393.318
890.083, 419.690
891.352, 400.071
892.621, 440.461
893.890, 462.859
895.159, 443.267
896.427, 427.683
897.695, 469.109
898.964, 419.543
900.232, 450.987
901.499, 442.440
902.767, 408.903
904.034, 364.375
905.301, 402.856
906.568, 388.346
907.835, 310.847
909.102, 325.357
910.368, 294.877
911.634, 354.412
912.900, 315.967
914.166, 319.536
915.432, 249.117
916.697, 278.068
917.962, 213.000
919.227, 184.611
920.492, 225.242
921.757, 136.874
923.021, 133.516
924.285, 123.168
925.550, 140.831
926.813, 183.504
928.077, 120.188
929.341, 142.882
930.604, 168.588
931.867, 137.303
933.130, 116.030
934.393, 190.768
935.655, 155.516
936.918, 188.275
938.180, 144.045
939.442, 157.826
940.703, 181.619
941.965, 133.422
943.226, 99.237
944.488, 101.063
945.749, 135.900
947.009, 121.749
948.270, 120.608
949.530, 161.479
950.791, 153.362
952.051, 181.256
953.311, 226.162
954.570, 211.079
955.830, 195.008
957.089, 212.948
958.348, 152.900
959.607, 206.864
960.866, 129.840
962.124, 154.827
963.383, 195.826
964.641, 211.837
965.899, 131.861
967.156, 181.896
968.414, 136.942
969.671, 218.001
970.928, 177.072
972.185, 221.155
973.442, 113.250
974.699, 170.357
975.955, 165.476
977.211, 136.608
978.468, 204.751
979.723, 143.907
980.979, 167.075
982.234, 228.256
983.490, 165.448
984.745, 246.653
986.000, 294.871
987.254, 345.101
988.509, 356.346
989.763, 399.611
991.017, 439.754
992.271, 403.843
993.525, 419.504
994.779, 555.921
996.032, 643.237
997.285, 889.316
998.538, 1163.406
999.791, 1740.912
1001.044, 2027.173
1002.296, 2391.446
1003.548, 2343.979
1004.800, 2254.003
1006.052, 2334.872
1007.304, 2565.599
1008.555, 3177.627
1009.807, 4146.288
1011.058, 5728.962
1012.309, 8850.653
1013.559, 14601.380
1014.810, 26246.121
1016.060, 44000.891
1017.310, 56390.684
1018.560, 51150.504
1019.810, 35243.328
1021.060, 21508.197
1022.309, 13299.081
1023.558, 8817.980
1024.807, 5868.897
1026.056, 4132.834
1027.305, 3084.786
1028.553, 2406.750
1029.801, 1856.725
1031.049, 1506.710
1032.297, 1207.704
1033.545, 1079.709
1034.793, 815.723
1036.040, 668.747
1037.287, 633.780
1038.534, 580.823
1039.781, 503.875
1041.027, 414.936
1042.274, 310.007
1043.520, 351.087
1044.766, 303.176
1046.012, 261.274
1047.257, 278.382
1048.503, 248.499
1049.748, 193.625
1050.993, 249.759
1052.238, 294.903
1053.483, 135.057
1054.727, 158.220
1055.971, 125.393
1057.216, 93.573
1058.459, 84.763
1059.703, 61.961
1060.947, 23.367
1062.190, 79.880
1063.433, 31.881
1064.676, 19.502
1065.919, 19.258
1067.162, 18.065
1068.404, 36.238
1069.646, 0.497
1070.888, 54.764
1072.130, 85.048
1073.372, 93.340
1074.613, 113.641
1075.855, 162.949
1077.096, 114.265
1078.337, 194.589
1079.578, 243.920
1080.818, 351.260
1082.059, 362.606
1083.299, 409.960
1084.539, 422.322
1085.779, 424.691
1087.018, 390.067
1088.258, 356.451
1089.497, 280.842
1090.736, 219.240
1091.975, 184.646
1093.213, 177.058
1094.452, 173.478
1095.690, 79.904
1096.928, 109.338
1098.166, 130.778
1099.404, 58.226
1100.642, 80.680
1101.879, 149.141
1103.116, 137.608
1104.353, 251.082
1105.590, 223.563
1106.827, 376.050
1108.063, 614.543
1109.299, 1054.042
1110.536, 1394.548
1111.771, 1425.060
1113.007, 1329.578
1114.243, 1087.101
1115.478, 828.631
1116.713, 616.166
1117.948, 459.916
1119.183, 321.254
1120.418, 260.807
1121.652, 233.365
1122.886, 173.764
1124.120, 169.397
1125.354, 159.073
1126.588, 203.654
1127.821, 261.239
1129.055, 366.831
1130.288, 325.427
1131.521, 299.029
1132.753, 169.636
1133.986, 119.250
1135.218, 90.868
1136.450, 37.491
1137.682, 39.120
1138.914, 33.256
1140.146, 12.668
1141.377, 41.125
1142.609, 85.617
1143.840, 99.144
1145.071, 78.716
1146.301, 45.316
1147.532, 67.931
1148.762, 10.559
1149.992, 46.187
1151.222, 49.823
1152.452, 40.468
1153.682, 19.121
1154.911, 15.776
1156.140, 20.433
1157.369, 19.907
1158.598, 154.250
1159.827, 242.597
1161.055, 261.946
1162.284, 244.298
1163.512, 184.653
1164.740, 83.010
1165.967, 83.370
1167.195, 110.733
1168.422, 32.097
1169.650, 115.464
1170.877, 60.833
1172.103, 73.203
1173.330, 98.554
1174.557, 131.898
1175.783, 98.244
1177.009, 58.591
1178.235, 69.938
1179.461, 93.287
1180.686, 30.636
1181.912, 118.986
1183.137, 66.337
1184.362, 49.688
1185.587, 26.039
1186.811, 66.390
1188.036, 31.741
1189.260, 48.093
1190.484, 26.445
1191.708, 22.796
1192.932, 32.147
1194.155, 35.498
1195.378, 21.848
1196.602, 34.188
1197.825, 45.547
1199.047, 56.895
1200.270, 45.630
1201.492, 81.976
1202.715, 73.321
1203.937, 76.664
1205.159, 54.007
1206.380, 34.500
1207.602, 24.314
1208.823, 8.986
1210.044, 0.333
1211.265, 8.646
1212.486, 75.956
1213.707, 132.906
1214.927, 150.381
1216.147, 134.693
1217.367, 176.995
1218.587, 177.509
1219.807, 143.822
1221.027, 131.181
1222.246, 136.495
1223.465, 93.809
1224.684, 173.124
1225.903, 80.438
1227.121, 96.753
1228.340, 142.068
1229.558, 134.384
1230.776, 69.700
1231.994, 143.017
1233.212, 212.335
1234.429, 186.653
1235.646, 265.973
1236.864, 297.293
1238.081, 311.614
1239.297, 326.936
1240.514, 313.259
1241.730, 323.576
1242.947, 318.129
1244.163, 304.429
1245.378, 305.535
1246.594, 280.858
1247.810, 268.183
1249.025, 268.499
1250.240, 329.817
1251.455, 261.093
1252.670, 343.367
1253.885, 354.641
1255.099, 278.915
1256.313, 270.188
1257.527, 262.472
1258.741, 333.744
1259.955, 308.327
1261.168, 264.285
1262.382, 328.554
1263.595, 318.821
1264.808, 363.086
1266.021, 400.350
1267.233, 435.612
1268.446, 456.876
1269.658, 440.141
1270.870, 530.407
1272.082, 522.675
1273.294, 489.945
1274.505, 577.273
1275.716, 636.552
1276.928, 578.925
1278.139, 593.235
1279.349, 562.755
1280.560, 515.016
1281.770, 455.015
1282.981, 431.745
1284.191, 401.646
1285.401, 345.909
1286.610, 336.562
1287.820, 316.108
1289.029, 317.160
1290.239, 301.515
1291.448, 342.328
1292.656, 359.196
1293.865, 378.548
1295.073, 452.896
1296.282, 377.241
1297.490, 418.582
1298.698, 403.918
1299.906, 326.250
1301.113, 380.578
1302.320, 294.902
1303.528, 295.221
1304.735, 308.536
1305.942, 322.846
1307.148, 381.151
1308.355, 415.451
1309.561, 427.746
1310.767, 502.035
1311.973, 529.319
1313.179, 551.189
1314.384, 500.865
1315.590, 576.127
1316.795, 554.382
1318.000, 532.964
1319.205, 573.580
1320.410, 603.748
1321.614, 536.908
1322.819, 569.048
1324.023, 534.166
1325.227, 530.274
1326.431, 434.371
1327.634, 403.268
1328.838, 334.535
1330.041, 280.601
1331.244, 204.655
1332.447, 128.698
1333.650, 116.727
1334.852, 73.852
1336.055, 108.748
1337.257, 64.736
1338.459, 34.711
1339.661, 73.671
1340.862, 31.617
1342.064, 34.548
1343.265, 11.463
1344.466, 4.639
1345.667, 13.242
1346.868, 84.106
1348.068, 34.951
1349.269, 29.777
1350.469, 86.581
1351.669, 6.363
1352.869, 20.118
1354.069, 50.849
1355.268, 15.571
1356.468, 47.514
1357.667, 10.695
1358.866, 7.967
1360.065, 29.420
1361.263, 3.800
1362.462, 34.827
1363.660, 39.540
1364.858, 0.099
1366.056, 23.256
1367.254, 18.604
1368.451, 60.946
1369.649, 54.281
1370.846, 32.611
1372.043, 100.992
1373.240, 103.473
1374.436, 117.960
1375.633, 78.456
1376.829, 121.962
1378.025, 48.480
1379.221, 168.013
1380.417, 151.563
1381.613, 203.133
1382.808, 137.726
1384.003, 198.347
1385.199, 103.618
1386.393, 143.265
1387.588, 105.952
1388.783, 117.686
1389.977, 165.476
1391.171, 78.324
1392.365, 123.059
1393.559, 148.886
1394.753, 85.419
1395.946, 65.645
1397.140, 18.077
1398.333, 14.228
1399.526, 42.906
1400.719, 4.284
1401.911, 35.627
1403.104, 15.927
1404.296, 14.171
1405.488, 45.390
1406.680, 10.576
1407.872, 88.656
1409.063, 64.677
1410.255, 60.047
1411.446, 57.845
1412.637, 46.914
1413.828, 37.869
1415.018, 31.363
1416.209, 24.460
1417.399, 3.804
1418.589, 20.415
1419.779, 3.049
1420.969, 18.316
1422.159, 0.384
1423.348, 30.756
1424.537, 0.000
##END=



