##NAMES=Anhydrite
##RRUFFID=R040012
##IDEAL CHEMISTRY=CaS^6+^O_4_
##LOCALITY=Moundhouse, Nevada, USA
##OWNER=RRUFF
##SOURCE=University of Arizona Mineral Museum
##DESCRIPTION=White massive
##STATUS=The identification of this mineral has been confirmed by X-ray diffraction and chemical analysis
##URL=rruff.info/R040012
##MEASURED CHEMISTRY=Ca_1.00_S_1.00_O_4_
##PIN_ID=M00042
##ORIENTATION=Laser parallel to -c* (0 0 -1). Fiducial mark perpendicular to laser is parallel to a [1 0 0]
71.917, 0.000
73.319, 8.082
74.721, 251.218
76.123, 585.330
77.525, 883.031
78.926, 1142.615
80.327, 1378.934
81.728, 1542.998
83.128, 1718.658
84.529, 1713.465
85.929, 1764.495
87.329, 1647.373
88.728, 1697.742
90.128, 1520.999
91.527, 1493.333
92.926, 1368.072
94.324, 1285.746
95.723, 1303.040
97.121, 1253.901
98.519, 1220.471
99.917, 1191.271
101.314, 1123.681
102.712, 1104.851
104.109, 1054.696
105.505, 1008.692
106.902, 961.595
108.298, 1070.786
109.694, 991.038
111.090, 1091.222
112.486, 952.439
113.881, 1008.774
115.277, 1008.305
116.672, 788.129
118.066, 786.349
119.461, 700.092
120.855, 704.383
122.249, 666.945
123.643, 561.638
125.036, 520.820
126.430, 427.801
127.823, 429.045
129.216, 373.344
130.608, 418.828
132.001, 395.182
133.393, 357.346
134.785, 403.003
136.176, 320.389
137.568, 425.145
138.959, 326.099
140.350, 334.841
141.741, 321.710
143.131, 301.674
144.521, 277.278
145.911, 232.754
147.301, 220.978
148.691, 168.419
150.080, 202.229
151.469, 173.978
152.858, 189.631
154.247, 226.189
155.635, 175.669
157.024, 142.143
158.411, 165.671
159.799, 38.457
161.187, 71.631
162.574, 108.830
163.961, 151.978
165.348, 48.904
166.734, 69.301
168.121, 49.925
169.507, 48.644
170.893, 30.101
172.278, 9.715
173.664, 1.840
175.049, 47.056
176.434, 5.423
177.819, 67.534
179.203, 88.007
180.587, 22.444
181.971, 44.117
183.355, 18.016
184.739, 32.832
186.122, 82.172
187.505, 9.260
188.888, 6.462
190.271, 84.880
191.653, 85.967
193.035, 59.432
194.417, 55.083
195.799, 74.164
197.180, 68.569
198.562, 73.362
199.943, 57.368
201.324, 78.686
202.704, 55.634
204.084, 58.846
205.465, 38.906
206.844, 60.550
208.224, 4.642
209.603, 16.244
210.983, 16.883
212.362, 8.847
213.740, 16.119
215.119, 23.681
216.497, 46.587
217.875, 89.448
219.253, 43.087
220.631, 127.905
222.008, 177.738
223.385, 200.379
224.762, 338.961
226.139, 301.182
227.515, 503.750
228.891, 609.657
230.267, 715.615
231.643, 673.436
233.018, 694.210
234.394, 560.833
235.769, 491.648
237.144, 358.272
238.518, 346.699
239.893, 288.210
241.267, 178.147
242.641, 110.505
244.014, 146.158
245.388, 179.025
246.761, 92.045
248.134, 101.173
249.507, 77.375
250.879, 124.627
252.252, 68.907
253.624, 94.196
254.996, 30.478
256.367, 53.736
257.739, 81.962
259.110, 24.148
260.481, 18.287
261.852, 77.373
263.222, 120.409
264.592, 100.385
265.962, 99.306
267.332, 88.155
268.702, 53.218
270.071, 46.913
271.440, 55.814
272.809, 57.318
274.178, 91.129
275.546, 86.617
276.915, 104.190
278.283, 36.779
279.650, 91.084
281.018, 53.257
282.385, 43.371
283.752, 64.318
285.119, 1.261
286.486, 78.100
287.852, 1.372
289.218, 49.202
290.584, 9.597
291.950, 60.710
293.316, 42.965
294.681, 23.820
296.046, 55.636
297.411, 22.219
298.775, 22.613
300.140, 64.802
301.504, 30.742
302.868, 34.500
304.231, 34.121
305.595, 70.637
306.958, 75.153
308.321, 80.733
309.684, 111.167
311.047, 124.616
312.409, 95.893
313.771, 108.139
315.133, 56.355
316.495, 101.542
317.856, 75.700
319.217, 90.829
320.578, 103.930
321.939, 105.004
323.299, 100.049
324.660, 126.065
326.020, 158.052
327.380, 137.387
328.739, 155.928
330.099, 119.815
331.458, 106.656
332.817, 120.463
334.176, 134.238
335.534, 160.965
336.892, 85.242
338.251, 183.189
339.608, 119.036
340.966, 166.088
342.323, 139.531
343.681, 185.564
345.037, 188.581
346.394, 145.127
347.751, 190.248
349.107, 121.353
350.463, 69.249
351.819, 147.761
353.174, 73.043
354.530, 102.558
355.885, 135.959
357.240, 47.984
358.594, 130.232
359.949, 49.237
361.303, 31.551
362.657, 37.521
364.011, 48.492
365.365, 33.053
366.718, 4.021
368.071, 11.749
369.424, 51.311
370.777, 0.775
372.129, 23.184
373.481, 26.083
374.833, 11.010
376.185, 8.689
377.537, 5.735
378.888, 24.933
380.239, 17.727
381.590, 16.852
382.941, 10.367
384.291, 146.109
385.642, 74.803
386.992, 166.568
388.341, 102.213
389.691, 108.801
391.040, 147.550
392.389, 142.995
393.738, 183.472
395.087, 118.904
396.435, 112.570
397.784, 132.032
399.132, 152.443
400.479, 169.845
401.827, 57.226
403.174, 162.696
404.521, 202.056
405.868, 212.540
407.215, 535.033
408.561, 824.308
409.908, 1699.429
411.254, 3804.539
412.599, 7475.500
413.945, 11760.611
415.290, 13895.576
416.636, 10830.588
417.980, 5725.000
419.325, 2845.664
420.670, 1448.354
422.014, 793.365
423.358, 480.105
424.702, 269.638
426.045, 225.303
427.389, 138.833
428.732, 137.312
430.075, 65.696
431.417, 130.747
432.760, 94.635
434.102, 89.590
435.444, 30.515
436.786, 85.683
438.127, 43.772
439.469, 21.900
440.810, 67.136
442.151, 80.104
443.492, 75.583
444.832, 96.780
446.172, 80.321
447.512, 84.340
448.852, 138.294
450.192, 88.342
451.531, 95.379
452.870, 115.942
454.209, 48.106
455.548, 99.822
456.887, 87.860
458.225, 92.780
459.563, 95.663
460.901, 99.535
462.238, 119.035
463.576, 155.636
464.913, 148.839
466.250, 121.006
467.587, 107.982
468.923, 77.997
470.259, 94.062
471.596, 82.386
472.931, 116.761
474.267, 120.908
475.603, 139.134
476.938, 127.692
478.273, 140.813
479.608, 165.644
480.942, 194.627
482.276, 257.695
483.611, 238.748
484.944, 323.735
486.278, 370.880
487.612, 377.135
488.945, 561.281
490.278, 626.481
491.611, 1004.508
492.943, 1267.408
494.276, 1723.393
495.608, 2044.411
496.940, 2378.519
498.271, 2437.160
499.603, 2099.336
500.934, 1721.253
502.265, 1252.350
503.596, 912.356
504.927, 680.586
506.257, 517.829
507.587, 381.900
508.917, 353.158
510.247, 244.134
511.577, 294.838
512.906, 193.941
514.235, 141.654
515.564, 166.590
516.892, 161.701
518.221, 219.357
519.549, 116.484
520.877, 169.236
522.205, 130.883
523.533, 94.634
524.860, 125.513
526.187, 103.253
527.514, 129.866
528.841, 118.713
530.167, 128.781
531.493, 149.601
532.820, 139.292
534.145, 125.053
535.471, 124.073
536.796, 91.647
538.122, 105.628
539.447, 95.225
540.771, 92.590
542.096, 57.667
543.420, 54.662
544.744, 65.559
546.068, 51.649
547.392, 82.947
548.715, 99.236
550.039, 60.195
551.362, 170.252
552.684, 119.449
554.007, 184.870
555.329, 75.531
556.652, 122.889
557.973, 168.052
559.295, 142.333
560.617, 142.652
561.938, 118.281
563.259, 179.730
564.580, 105.543
565.901, 101.689
567.221, 220.681
568.541, 144.684
569.861, 156.886
571.181, 221.761
572.501, 147.882
573.820, 111.785
575.139, 116.469
576.458, 176.268
577.777, 130.169
579.095, 226.142
580.414, 261.017
581.732, 280.381
583.049, 287.142
584.367, 285.089
585.685, 323.773
587.002, 269.634
588.319, 215.426
589.636, 272.876
590.952, 336.446
592.268, 222.970
593.585, 197.460
594.900, 269.568
596.216, 288.892
597.532, 203.137
598.847, 249.154
600.162, 268.335
601.477, 315.623
602.792, 280.837
604.106, 282.131
605.420, 281.440
606.734, 362.676
608.048, 329.114
609.361, 382.391
610.675, 289.658
611.988, 287.015
613.301, 263.077
614.614, 459.350
615.926, 406.571
617.238, 455.804
618.550, 491.309
619.862, 505.570
621.174, 703.966
622.485, 804.310
623.797, 937.644
625.108, 1110.971
626.418, 975.239
627.729, 883.395
629.039, 618.584
630.349, 571.712
631.659, 366.542
632.969, 394.790
634.279, 364.025
635.588, 418.249
636.897, 406.370
638.206, 454.660
639.515, 421.847
640.823, 425.020
642.131, 456.181
643.439, 496.329
644.747, 620.465
646.055, 515.585
647.362, 645.693
648.669, 517.787
649.976, 560.868
651.283, 505.937
652.589, 417.993
653.896, 443.036
655.202, 387.066
656.508, 352.084
657.814, 342.089
659.119, 195.081
660.424, 268.059
661.729, 292.024
663.034, 205.976
664.339, 354.914
665.643, 366.837
666.947, 520.747
668.251, 870.644
669.555, 1713.528
670.859, 3199.399
672.162, 5524.259
673.465, 7636.106
674.768, 7817.946
676.071, 5349.774
677.373, 2915.589
678.676, 1559.391
679.978, 811.181
681.280, 565.925
682.581, 218.690
683.883, 281.442
685.184, 89.184
686.485, 57.913
687.786, 75.639
689.087, 24.647
690.387, 65.033
691.687, 10.704
692.987, 57.355
694.287, 30.041
695.586, 69.445
696.886, 60.959
698.185, 1.445
699.484, 60.675
700.783, 50.120
702.081, 61.939
703.379, 58.895
704.677, 45.795
705.975, 24.692
707.273, 8.199
708.570, 4.645
709.868, 31.555
711.165, 5.465
712.462, 1.646
713.758, 29.658
715.055, 0.336
716.351, 35.305
717.647, 59.741
718.943, 35.938
720.238, 5.917
721.533, 16.412
722.829, 83.206
724.124, 74.993
725.418, 22.765
726.713, 95.524
728.007, 29.271
729.301, 75.704
730.595, 13.414
731.889, 124.154
733.182, 58.832
734.476, 36.434
735.769, 54.086
737.061, 27.275
738.354, 72.329
739.647, 21.921
740.939, 81.500
742.231, 28.067
743.523, 37.622
744.814, 42.164
746.106, 130.696
747.397, 44.217
748.688, 38.272
749.978, 81.201
751.269, 91.666
752.559, 40.121
753.849, 95.567
755.139, 5.994
756.429, 52.426
757.719, 140.838
759.008, 78.242
760.297, 41.363
761.586, 116.008
762.875, 83.371
764.163, 46.725
765.451, 129.071
766.739, 82.408
768.027, 70.738
769.315, 111.061
770.602, 74.376
771.890, 125.683
773.177, 48.018
774.463, 131.244
775.750, 25.499
777.036, 123.745
778.323, 109.983
779.609, 69.213
780.894, 150.435
782.180, 31.350
783.465, 47.838
784.750, 59.021
786.035, 7.804
787.320, 112.357
788.605, 118.512
789.889, 40.659
791.173, 56.799
792.457, 105.933
793.741, 124.059
795.024, 136.179
796.307, 141.527
797.591, 114.399
798.873, 120.500
800.156, 97.594
801.439, 78.683
802.721, 83.765
804.003, 85.841
805.285, 93.898
806.566, 95.156
807.848, 97.311
809.129, 103.090
810.410, 96.138
811.691, 106.182
812.971, 100.057
814.252, 118.253
815.532, 100.281
816.812, 121.305
818.092, 112.324
819.371, 117.285
820.651, 146.348
821.930, 110.354
823.209, 152.355
824.488, 116.530
825.766, 146.450
827.045, 110.440
828.323, 204.908
829.601, 204.891
830.878, 203.870
832.156, 224.846
833.433, 288.819
834.710, 184.788
835.987, 359.754
837.264, 266.718
838.540, 260.679
839.817, 328.491
841.093, 481.172
842.369, 349.928
843.644, 413.898
844.920, 318.611
846.195, 481.670
847.470, 493.352
848.745, 474.989
850.020, 476.157
851.294, 506.833
852.568, 565.490
853.842, 609.198
855.116, 660.605
856.390, 753.280
857.663, 747.159
858.936, 768.872
860.209, 830.924
861.482, 642.989
862.755, 700.898
864.027, 583.566
865.299, 535.887
866.571, 507.467
867.843, 364.306
869.115, 407.047
870.386, 273.739
871.657, 310.755
872.928, 211.286
874.199, 220.438
875.470, 314.241
876.740, 206.182
878.010, 223.098
879.280, 172.799
880.550, 288.814
881.820, 173.570
883.089, 253.545
884.358, 192.725
885.627, 238.777
886.896, 228.716
888.164, 129.573
889.433, 203.515
890.701, 124.959
891.969, 286.002
893.236, 248.846
894.504, 228.956
895.771, 318.867
897.038, 224.831
898.305, 197.834
899.572, 246.982
900.838, 307.031
902.105, 228.085
903.371, 184.272
904.637, 149.467
905.902, 242.557
907.168, 208.796
908.433, 202.506
909.698, 238.317
910.963, 182.745
912.228, 174.080
913.492, 216.897
914.757, 255.250
916.021, 180.611
917.285, 163.952
918.548, 72.332
919.812, 75.863
921.075, 132.262
922.338, 103.670
923.601, 97.088
924.864, 122.516
926.126, 73.694
927.388, 147.142
928.650, 85.536
929.912, 141.004
931.174, 90.483
932.435, 92.964
933.697, 74.473
934.958, 102.959
936.218, 95.481
937.479, 146.014
938.739, 113.986
940.000, 97.541
941.260, 97.106
942.520, 141.685
943.779, 125.273
945.039, 211.875
946.298, 73.487
947.557, 177.111
948.816, 148.747
950.074, 235.396
951.333, 151.056
952.591, 224.729
953.849, 254.413
955.107, 249.109
956.365, 140.818
957.622, 262.540
958.879, 75.274
960.136, 166.021
961.393, 94.780
962.650, 90.553
963.906, 191.338
965.162, 21.136
966.418, 188.947
967.674, 124.771
968.930, 80.608
970.185, 238.458
971.441, 12.322
972.696, 10.199
973.950, 62.090
975.205, 18.994
976.459, 11.089
977.714, 35.841
978.968, 67.215
980.222, 144.729
981.475, 50.687
982.729, 208.659
983.982, 204.645
985.235, 173.644
986.488, 244.658
987.740, 241.686
988.993, 275.728
990.245, 381.784
991.497, 260.855
992.749, 405.942
994.000, 497.045
995.252, 755.174
996.503, 1134.318
997.754, 1324.481
999.005, 1564.801
1000.256, 2021.869
1001.506, 1923.117
1002.756, 1904.402
1004.006, 2005.710
1005.256, 2437.030
1006.506, 3148.388
1007.755, 4059.781
1009.005, 5901.214
1010.254, 8852.678
1011.502, 14944.170
1012.751, 27505.680
1014.000, 44797.211
1015.248, 56798.781
1016.496, 52520.359
1017.744, 36071.965
1018.991, 22643.602
1020.239, 13986.572
1021.486, 8818.243
1022.733, 6089.953
1023.980, 4121.691
1025.227, 3083.448
1026.473, 2375.232
1027.719, 1887.030
1028.965, 1578.843
1030.211, 1119.672
1031.457, 1020.515
1032.702, 851.506
1033.948, 731.379
1035.193, 641.276
1036.438, 512.188
1037.682, 485.115
1038.927, 319.057
1040.171, 282.016
1041.415, 324.999
1042.659, 296.999
1043.903, 240.944
1045.146, 216.938
1046.390, 272.997
1047.633, 281.339
1048.876, 201.448
1050.118, 115.055
1051.361, 107.472
1052.603, 180.164
1053.845, 78.346
1055.087, 78.542
1056.329, 140.484
1057.571, 23.728
1058.812, 101.276
1060.053, 6.893
1061.294, 25.553
1062.535, 77.338
1063.775, 56.978
1065.016, 55.282
1066.256, 45.606
1067.496, 59.944
1068.736, 8.704
1069.975, 39.662
1071.214, 118.042
1072.454, 60.436
1073.693, 191.846
1074.931, 174.269
1076.170, 141.729
1077.408, 411.205
1078.647, 310.694
1079.885, 439.196
1081.122, 449.712
1082.360, 343.240
1083.597, 405.780
1084.835, 320.345
1086.072, 225.920
1087.308, 250.510
1088.545, 216.115
1089.781, 249.733
1091.018, 227.112
1092.254, 203.440
1093.490, 193.665
1094.725, 167.334
1095.961, 145.017
1097.196, 174.709
1098.431, 144.221
1099.666, 106.134
1100.900, 171.863
1102.135, 76.606
1103.369, 189.360
1104.603, 191.126
1105.837, 349.906
1107.071, 334.699
1108.304, 304.503
1109.538, 428.319
1110.771, 450.147
1112.004, 404.988
1113.236, 612.839
1114.469, 614.702
1115.701, 758.575
1116.933, 981.460
1118.165, 1254.355
1119.397, 1897.273
1120.629, 2630.201
1121.860, 3823.139
1123.091, 6806.088
1124.322, 11529.046
1125.553, 21151.914
1126.783, 28764.895
1128.014, 26976.402
1129.244, 18979.402
1130.474, 11042.420
1131.704, 6125.441
1132.933, 3918.471
1134.163, 2281.510
1135.392, 1624.559
1136.621, 1157.621
1137.850, 680.690
1139.079, 703.769
1140.307, 278.851
1141.535, 437.938
1142.763, 396.027
1143.991, 115.129
1145.219, 292.242
1146.446, 193.368
1147.674, 27.506
1148.901, 102.656
1150.128, 11.818
1151.354, 102.992
1152.581, 135.178
1153.807, 70.375
1155.033, 116.584
1156.259, 268.797
1157.485, 257.022
1158.710, 292.036
1159.936, 256.505
1161.161, 274.762
1162.386, 172.016
1163.611, 140.280
1164.835, 179.555
1166.060, 55.840
1167.284, 29.881
1168.508, 210.397
1169.732, 53.680
1170.955, 20.956
1172.179, 151.238
1173.402, 119.492
1174.625, 129.720
1175.848, 123.913
1177.070, 21.114
1178.293, 111.322
1179.515, 63.460
1180.737, 9.750
1181.959, 34.967
1183.181, 55.193
1184.402, 82.425
1185.624, 108.665
1186.845, 71.209
1188.066, 78.232
1189.286, 15.760
1190.507, 56.973
1191.727, 16.480
1192.947, 15.782
1194.167, 22.948
1195.387, 36.855
1196.607, 44.771
1197.826, 114.590
1199.045, 10.837
1200.264, 21.443
1201.483, 121.729
1202.702, 111.979
1203.920, 14.712
1205.138, 88.442
1206.356, 124.192
1207.574, 27.998
1208.792, 29.662
1210.009, 9.077
1211.227, 100.315
1212.444, 101.802
1213.661, 90.051
1214.877, 132.412
1216.094, 78.048
1217.310, 106.801
1218.526, 100.110
1219.742, 106.941
1220.958, 130.286
1222.173, 96.353
1223.389, 179.641
1224.604, 93.060
1225.819, 18.432
1227.034, 159.733
1228.248, 153.056
1229.463, 106.364
1230.677, 229.678
1231.891, 153.075
1233.105, 336.429
1234.318, 249.763
1235.532, 253.102
1236.745, 436.449
1237.958, 349.802
1239.171, 253.159
1240.384, 356.479
1241.596, 149.806
1242.809, 283.074
1244.021, 436.342
1245.233, 259.613
1246.444, 352.889
1247.656, 316.167
1248.867, 399.525
1250.079, 362.790
1251.290, 286.287
1252.500, 299.859
1253.711, 203.089
1254.921, 246.649
1256.132, 359.991
1257.342, 223.148
1258.552, 146.570
1259.761, 379.720
1260.971, 282.861
1262.180, 336.164
1263.389, 419.293
1264.598, 315.073
1265.807, 478.187
1267.015, 461.295
1268.223, 534.557
1269.432, 557.684
1270.640, 450.748
1271.847, 644.186
1273.055, 417.218
1274.262, 320.453
1275.470, 593.686
1276.677, 506.600
1277.883, 339.429
1279.090, 332.356
1280.296, 275.075
1281.503, 239.375
1282.709, 151.938
1283.915, 104.418
1285.120, 306.525
1286.326, 288.312
1287.531, 259.801
1288.736, 353.605
1289.941, 337.417
1291.146, 401.237
1292.350, 408.697
1293.555, 338.904
1294.759, 402.752
1295.963, 336.605
1297.167, 300.468
1298.370, 344.338
1299.574, 178.216
1300.777, 170.651
1301.980, 384.530
1303.183, 248.419
1304.386, 132.316
1305.588, 516.224
1306.790, 336.525
1307.993, 570.418
1309.195, 534.318
1310.396, 488.229
1311.598, 518.626
1312.799, 501.331
1314.000, 483.606
1315.201, 604.327
1316.402, 517.090
1317.603, 552.341
1318.803, 607.935
1320.003, 391.745
1321.203, 405.216
1322.403, 408.719
1323.603, 292.217
1324.802, 385.707
1326.002, 159.192
1327.201, 152.656
1328.400, 236.104
1329.599, 139.548
1330.797, 212.990
1331.995, 66.431
1333.194, 29.867
1334.392, 173.302
1335.589, 33.267
1336.787, 100.162
1337.985, 183.589
1339.182, 52.985
1340.379, 70.438
1341.576, 73.858
1342.772, 37.271
1343.969, 140.679
1345.165, 174.084
1346.361, 127.489
1347.557, 190.892
1348.753, 204.258
1349.949, 127.624
1351.144, 90.990
1352.339, 34.354
1353.534, 17.718
1354.729, 141.085
1355.924, 4.461
1357.118, 187.826
1358.312, 91.215
1359.506, 34.650
1360.700, 38.084
1361.894, 111.495
1363.088, 34.886
1364.281, 108.249
1365.474, 18.415
1366.667, 134.920
1367.860, 98.227
1369.052, 111.536
1370.245, 224.850
1371.437, 128.169
1372.629, 171.538
1373.821, 284.979
1375.013, 118.689
1376.204, 132.710
1377.395, 226.745
1378.586, 300.795
1379.777, 394.860
1380.968, 368.944
1382.159, 242.067
1383.349, 426.396
1384.539, 250.266
1385.729, 189.392
1386.919, 321.621
1388.109, 235.064
1389.298, 338.495
1390.487, 271.915
1391.676, 123.468
1392.865, 303.959
1394.054, 82.321
1395.242, 72.828
1396.431, 153.509
1397.619, 73.570
1398.807, 93.623
1399.995, 234.707
1401.182, 76.485
1402.370, 158.197
1403.557, 179.139
1404.744, 100.358
1405.931, 241.270
1407.118, 17.867
1408.304, 143.315
1409.490, 314.694
1410.676, 105.790
1411.862, 136.119
1413.048, 182.422
1414.234, 70.226
1415.419, 229.983
1416.604, 98.438
1417.789, 97.462
1418.974, 114.655
1420.159, 141.191
1421.343, 93.312
1422.528, 230.012
1423.712, 4.024
1424.896, 207.686
1426.079, 170.420
1427.263, 56.494
1428.446, 50.386
1429.629, 0.000
##END=



