##NAMES=Anhydrite
##RRUFFID=R040061
##IDEAL CHEMISTRY=CaS^6+^O_4_
##LOCALITY=Chester County, Pennsylvania, USA
##OWNER=RRUFF
##SOURCE=University of Arizona Mineral Museum
##DESCRIPTION=Pale purple fractured single crystal
##STATUS=The identification of this mineral has been confirmed by X-ray diffraction and chemical analysis
##URL=rruff.info/R040061
##MEASURED CHEMISTRY=Ca_0.98_S_1.01_O_4_
##PIN_ID=M00369
##ORIENTATION=Laser parallel to a* (1 0 0). Fiducial mark perpendicular to laser is parallel to b [0 1 0]
87.798, 0.000
89.193, 1.410
90.587, 17.413
91.981, 13.024
93.375, 20.197
94.768, 2.295
96.161, 10.196
97.554, 31.435
98.947, 36.255
100.340, 53.542
101.732, 38.245
103.124, 40.292
104.516, 52.617
105.908, 94.171
107.300, 109.915
108.691, 113.820
110.082, 105.892
111.473, 114.101
112.864, 165.403
114.254, 284.062
115.644, 384.063
117.034, 664.573
118.424, 713.377
119.813, 885.235
121.203, 1135.128
122.592, 1193.056
123.981, 1033.019
125.369, 744.010
126.758, 641.025
128.146, 849.057
129.534, 1175.104
130.922, 1400.162
132.309, 1250.190
133.696, 809.236
135.083, 490.289
136.470, 244.349
137.857, 168.516
139.243, 170.609
140.630, 114.897
142.016, 44.853
143.401, 102.094
144.787, 81.039
146.172, 71.020
147.557, 54.114
148.942, 73.274
150.327, 59.806
151.711, 81.120
153.096, 64.383
154.480, 39.715
155.863, 58.070
157.247, 50.458
158.630, 54.849
160.013, 55.231
161.396, 83.593
162.779, 75.936
164.161, 72.260
165.544, 107.567
166.926, 116.858
168.308, 119.133
169.689, 80.393
171.070, 82.638
172.452, 96.869
173.833, 62.089
175.213, 59.302
176.594, 7.492
177.974, 26.709
179.354, 9.907
180.734, 19.102
182.114, 19.294
183.493, 19.484
184.872, 14.671
186.251, 22.857
187.630, 0.628
189.008, 25.450
190.387, 10.274
191.765, 3.099
193.143, 17.074
194.520, 26.246
195.898, 7.417
197.275, 0.415
198.652, 10.249
200.029, 20.916
201.405, 23.078
202.782, 31.301
204.158, 1.416
205.534, 23.697
206.909, 29.558
208.285, 4.254
209.660, 9.941
211.035, 18.553
212.410, 0.874
213.784, 1.158
215.159, 9.177
216.533, 8.765
217.907, 19.899
219.281, 29.879
220.654, 46.825
222.027, 64.609
223.400, 94.518
224.773, 108.296
226.146, 145.368
227.518, 145.383
228.891, 124.001
230.263, 131.018
231.634, 107.886
233.006, 115.753
234.377, 92.619
235.748, 57.485
237.119, 69.350
238.490, 53.214
239.860, 33.078
241.231, 42.940
242.601, 28.802
243.970, 26.662
245.340, 22.522
246.709, 19.377
248.079, 14.469
249.448, 26.094
250.816, 14.950
252.185, 31.805
253.553, 57.581
254.921, 11.441
256.289, 50.352
257.657, 49.298
259.024, 62.276
260.391, 29.251
261.758, 25.276
263.125, 26.319
264.492, 33.376
265.858, 52.445
267.224, 56.526
268.590, 44.614
269.956, 45.711
271.321, 31.814
272.687, 37.715
274.052, 72.036
275.416, 46.154
276.781, 69.274
278.146, 70.398
279.510, 44.523
280.874, 62.648
282.237, 53.775
283.601, 54.902
284.964, 1.029
286.327, 40.156
287.690, 83.282
289.053, 37.408
290.416, 57.534
291.778, 36.660
293.140, 76.785
294.502, 48.909
295.863, 50.033
297.225, 31.152
298.586, 45.271
299.947, 17.389
301.308, 62.506
302.668, 40.622
304.029, 54.715
305.389, 24.806
306.749, 26.924
308.108, 49.983
309.468, 20.068
310.827, 21.152
312.186, 19.236
313.545, 45.318
314.903, 6.398
316.262, 25.475
317.620, 8.551
318.978, 16.375
320.336, 13.691
321.693, 30.245
323.051, 11.810
324.408, 3.137
325.765, 18.911
327.121, 13.043
328.478, 7.996
329.834, 12.967
331.190, 17.064
332.546, 0.908
333.902, 0.117
335.257, 6.862
336.612, 9.155
337.967, 27.170
339.322, 14.183
340.677, 13.933
342.031, 2.943
343.385, 18.049
344.739, 13.048
346.093, 14.945
347.446, 18.063
348.799, 9.078
350.153, 22.900
351.505, 15.847
352.858, 12.353
354.210, 1.784
355.563, 16.074
356.915, 16.038
358.267, 19.000
359.618, 20.039
360.969, 1.111
362.321, 5.568
363.672, 3.378
365.022, 41.321
366.373, 5.736
367.723, 24.193
369.073, 32.108
370.423, 3.018
371.773, 41.920
373.122, 22.813
374.471, 50.703
375.821, 38.461
377.169, 48.302
378.518, 18.183
379.866, 29.053
381.215, 55.917
382.563, 60.766
383.910, 22.615
385.258, 52.456
386.605, 32.296
387.952, 47.128
389.299, 44.955
390.646, 72.780
391.992, 34.602
393.339, 70.424
394.685, 46.245
396.031, 75.067
397.376, 59.888
398.722, 87.710
400.067, 77.531
401.412, 73.353
402.757, 117.174
404.101, 106.996
405.446, 105.818
406.790, 124.709
408.134, 107.467
409.478, 140.301
410.821, 154.136
412.165, 161.970
413.508, 252.890
414.851, 366.728
416.193, 363.566
417.536, 262.406
418.878, 223.252
420.220, 125.113
421.562, 118.959
422.904, 145.807
424.245, 120.655
425.586, 125.502
426.927, 126.358
428.268, 120.219
429.609, 87.083
430.949, 128.947
432.289, 143.817
433.629, 101.679
434.969, 108.540
436.309, 130.400
437.648, 104.260
438.987, 120.120
440.326, 90.984
441.665, 106.850
443.003, 108.722
444.342, 94.592
445.680, 144.468
447.018, 141.143
448.355, 114.022
449.693, 127.901
451.030, 119.781
452.367, 148.667
453.704, 149.556
455.041, 144.451
456.377, 157.345
457.713, 178.238
459.049, 172.130
460.385, 187.021
461.721, 191.913
463.056, 189.807
464.391, 224.700
465.726, 205.592
467.061, 259.483
468.395, 196.373
469.730, 274.261
471.064, 269.149
472.398, 275.035
473.731, 329.920
475.065, 305.804
476.398, 383.643
477.731, 418.544
479.064, 474.419
480.397, 487.926
481.729, 595.866
483.062, 707.084
484.394, 817.960
485.725, 978.280
487.057, 1213.154
488.389, 1522.846
489.720, 1936.696
491.051, 2514.387
492.382, 3420.257
493.712, 4546.701
495.043, 5933.208
496.373, 7444.274
497.703, 8410.132
499.032, 8213.995
500.362, 7016.859
501.691, 5202.724
503.020, 3602.385
504.349, 2605.750
505.678, 1859.428
507.007, 1389.288
508.335, 1049.648
509.663, 784.571
510.991, 663.429
512.319, 502.286
513.646, 431.051
514.973, 334.498
516.300, 306.360
517.627, 247.726
518.954, 224.082
520.280, 186.386
521.607, 179.879
522.933, 184.110
524.259, 154.852
525.584, 159.956
526.910, 136.932
528.235, 147.789
529.560, 121.646
530.885, 105.375
532.209, 125.230
533.534, 119.085
534.858, 100.940
536.182, 74.795
537.506, 66.649
538.829, 52.503
540.152, 76.356
541.476, 79.209
542.799, 63.061
544.121, 50.913
545.444, 110.764
546.766, 52.615
548.088, 100.465
549.410, 88.315
550.732, 61.165
552.053, 56.014
553.375, 39.863
554.696, 44.762
556.017, 41.610
557.337, 65.457
558.658, 52.304
559.978, 53.151
561.298, 75.021
562.618, 26.866
563.938, 3.712
565.257, 44.296
566.576, 66.147
567.895, 43.092
569.214, 53.000
570.533, 64.862
571.851, 4.634
573.170, 59.271
574.488, 10.148
575.805, 40.309
577.123, 23.537
578.440, 0.462
579.758, 3.337
581.075, 15.795
582.391, 27.702
583.708, 6.561
585.024, 19.869
586.341, 24.879
587.657, 16.582
588.972, 41.482
590.288, 6.376
591.603, 10.311
592.918, 13.211
594.233, 28.091
595.548, 54.291
596.863, 71.244
598.177, 117.353
599.491, 177.800
600.805, 384.217
602.119, 625.070
603.432, 1127.578
604.746, 2026.427
606.059, 3949.495
607.372, 6809.377
608.685, 7955.880
609.997, 5173.292
611.309, 2084.107
612.621, 854.583
613.933, 407.493
615.245, 230.327
616.557, 191.158
617.868, 105.004
619.179, 73.516
620.490, 82.000
621.801, 109.821
623.111, 161.640
624.421, 184.456
625.731, 254.269
627.041, 223.158
628.351, 249.937
629.660, 146.766
630.970, 116.569
632.279, 44.397
633.588, 74.195
634.896, 16.992
636.205, 58.878
637.513, 20.669
638.821, 7.463
640.129, 6.745
641.437, 38.047
642.744, 51.837
644.051, 40.627
645.358, 28.414
646.665, 50.204
647.972, 74.991
649.278, 71.781
650.584, 61.568
651.890, 105.355
653.196, 47.140
654.502, 71.927
655.807, 46.710
657.113, 77.492
658.418, 71.270
659.722, 84.046
661.027, 83.819
662.331, 97.597
663.636, 105.377
664.940, 116.154
666.244, 209.935
667.547, 255.718
668.851, 403.497
670.154, 692.274
671.457, 1156.053
672.760, 2016.831
674.062, 2994.606
675.365, 3415.378
676.667, 2428.148
677.969, 1171.920
679.271, 546.693
680.572, 334.465
681.874, 244.234
683.175, 167.001
684.476, 86.768
685.777, 135.532
687.077, 83.293
688.378, 110.051
689.678, 54.807
690.978, 96.560
692.278, 60.310
693.577, 76.057
694.877, 45.800
696.176, 46.541
697.475, 38.279
698.774, 50.014
700.072, 39.746
701.371, 42.474
702.669, 38.200
703.967, 34.923
705.265, 92.643
706.562, 62.360
707.860, 60.074
709.157, 49.785
710.454, 13.493
711.751, 54.198
713.047, 36.900
714.344, 41.599
715.640, 28.295
716.936, 19.987
718.232, 48.677
719.527, 35.482
720.823, 6.302
722.118, 33.372
723.413, 27.958
724.708, 13.691
726.002, 24.337
727.297, 5.015
728.591, 13.536
729.885, 20.165
731.179, 1.147
732.472, 15.316
733.766, 12.296
735.059, 25.762
736.352, 2.467
737.645, 20.186
738.937, 37.037
740.230, 30.823
741.522, 9.940
742.814, 4.564
744.106, 23.968
745.397, 24.910
746.689, 15.012
747.980, 22.533
749.271, 27.049
750.562, 3.562
751.853, 12.069
753.143, 11.429
754.433, 0.942
755.723, 16.463
757.013, 56.319
758.303, 17.223
759.592, 39.217
760.881, 10.346
762.170, 24.076
763.459, 1.505
764.748, 16.096
766.036, 6.704
767.325, 17.324
768.613, 14.038
769.901, 46.397
771.188, 51.752
772.476, 27.103
773.763, 2.548
775.050, 2.210
776.337, 51.120
777.624, 74.445
778.910, 32.768
780.196, 53.088
781.482, 18.404
782.768, 31.717
784.054, 24.026
785.339, 71.333
786.625, 22.636
787.910, 61.936
789.195, 34.232
790.479, 8.506
791.764, 35.796
793.048, 41.077
794.332, 73.299
795.616, 75.069
796.900, 72.264
798.183, 75.539
799.467, 55.811
800.750, 35.080
802.033, 73.346
803.316, 76.609
804.598, 33.869
805.880, 81.126
807.163, 92.380
808.445, 63.632
809.726, 49.880
811.008, 67.126
812.289, 54.821
813.570, 83.610
814.851, 66.847
816.132, 84.082
817.413, 98.314
818.693, 77.543
819.973, 72.770
821.253, 61.994
822.533, 94.215
823.813, 90.434
825.092, 95.082
826.371, 53.863
827.650, 109.074
828.929, 58.282
830.208, 81.488
831.486, 101.692
832.764, 46.893
834.042, 86.091
835.320, 66.287
836.598, 93.481
837.875, 88.672
839.152, 95.861
840.429, 107.048
841.706, 69.232
842.983, 105.414
844.259, 76.594
845.536, 39.773
846.812, 73.948
848.088, 87.123
849.363, 42.295
850.639, 61.465
851.914, 31.637
853.189, 45.813
854.464, 42.988
855.739, 67.161
857.013, 58.333
858.288, 68.920
859.562, 72.673
860.836, 74.840
862.110, 30.006
863.383, 17.170
864.656, 27.282
865.930, 64.443
867.203, 11.603
868.475, 52.766
869.748, 58.927
871.020, 14.062
872.292, 0.779
873.564, 24.623
874.836, 14.786
876.108, 28.926
877.379, 54.971
878.650, 54.444
879.922, 5.189
881.192, 28.677
882.463, 17.762
883.733, 24.125
885.004, 17.306
886.274, 1.441
887.544, 17.511
888.813, 4.419
890.083, 20.912
891.352, 6.817
892.621, 12.777
893.890, 9.091
895.159, 19.183
896.427, 7.056
897.695, 16.097
898.964, 31.142
900.232, 15.145
901.499, 28.181
902.767, 8.236
904.034, 3.969
905.301, 58.948
906.568, 24.770
907.835, 22.252
909.102, 30.238
910.368, 36.830
911.634, 70.241
912.900, 64.309
914.166, 73.159
915.432, 70.192
916.697, 71.605
917.962, 59.107
919.227, 98.203
920.492, 109.638
921.757, 110.888
923.021, 66.712
924.285, 125.789
925.550, 74.849
926.813, 94.241
928.077, 87.661
929.341, 53.743
930.604, 56.826
931.867, 104.910
933.130, 86.996
934.393, 115.035
935.655, 104.124
936.918, 109.192
938.180, 77.283
939.442, 88.350
940.703, 92.445
941.965, 56.542
943.226, 128.547
944.488, 115.647
945.749, 77.749
947.009, 86.852
948.270, 131.960
949.530, 150.070
950.791, 111.182
952.051, 148.296
953.311, 81.411
954.570, 129.528
955.830, 133.647
957.089, 120.769
958.348, 120.892
959.607, 138.019
960.866, 124.148
962.124, 127.471
963.383, 121.412
964.641, 136.548
965.899, 156.691
967.156, 200.837
968.414, 154.985
969.671, 173.136
970.928, 216.289
972.185, 173.444
973.442, 165.601
974.699, 218.768
975.955, 234.938
977.211, 215.116
978.468, 226.297
979.723, 258.481
980.979, 223.668
982.234, 268.858
983.490, 240.051
984.745, 267.246
986.000, 262.445
987.254, 213.649
988.509, 310.867
989.763, 294.098
991.017, 362.335
992.271, 370.577
993.525, 390.831
994.779, 504.089
996.032, 598.356
997.285, 827.627
998.538, 894.903
999.791, 1107.182
1001.044, 1148.464
1002.296, 1163.511
1003.548, 1266.255
1004.800, 1419.552
1006.052, 1781.853
1007.304, 2303.373
1008.555, 3041.714
1009.807, 4155.031
1011.058, 6116.357
1012.309, 9636.697
1013.559, 16400.045
1014.810, 29440.398
1016.060, 48522.766
1017.310, 57252.113
1018.560, 44812.316
1019.810, 25999.680
1021.060, 14003.097
1022.309, 8241.471
1023.558, 5407.726
1024.807, 3738.608
1026.056, 2711.995
1027.305, 2094.382
1028.553, 1646.293
1029.801, 1375.963
1031.049, 1080.361
1032.297, 926.770
1033.545, 826.181
1034.793, 685.240
1036.040, 590.741
1037.287, 565.160
1038.534, 458.773
1039.781, 474.030
1041.027, 329.403
1042.274, 358.588
1043.520, 309.471
1044.766, 287.601
1046.012, 242.258
1047.257, 258.728
1048.503, 247.200
1049.748, 184.676
1050.993, 236.155
1052.238, 226.636
1053.483, 177.120
1054.727, 109.608
1055.971, 191.099
1057.216, 185.598
1058.459, 140.103
1059.703, 133.296
1060.947, 139.812
1062.190, 144.338
1063.433, 146.867
1064.676, 111.404
1065.919, 113.943
1067.162, 121.488
1068.404, 102.042
1069.646, 133.603
1070.888, 155.173
1072.130, 94.746
1073.372, 95.322
1074.613, 113.899
1075.855, 101.479
1077.096, 112.065
1078.337, 172.656
1079.578, 104.249
1080.818, 79.844
1082.059, 149.442
1083.299, 94.042
1084.539, 83.643
1085.779, 121.248
1087.018, 95.854
1088.258, 119.462
1089.497, 122.072
1090.736, 104.685
1091.975, 128.300
1093.213, 84.917
1094.452, 72.536
1095.690, 71.157
1096.928, 101.780
1098.166, 101.405
1099.404, 146.040
1100.642, 164.670
1101.879, 177.308
1103.116, 254.942
1104.353, 392.577
1105.590, 581.312
1106.827, 990.951
1108.063, 1678.879
1109.299, 2823.522
1110.536, 3894.209
1111.771, 3875.924
1113.007, 2859.704
1114.243, 2140.613
1115.478, 1596.332
1116.713, 1234.015
1117.948, 878.767
1119.183, 619.482
1120.418, 597.145
1121.652, 627.813
1122.886, 704.051
1124.120, 891.890
1125.354, 1300.139
1126.588, 2193.864
1127.821, 3762.708
1129.055, 5406.508
1130.288, 4994.278
1131.521, 3082.019
1132.753, 1581.885
1133.986, 821.842
1135.218, 529.032
1136.450, 298.320
1137.682, 244.410
1138.914, 134.983
1140.146, 91.411
1141.377, 94.094
1142.609, 63.165
1143.840, 68.458
1145.071, 37.285
1146.301, 6.549
1147.532, 11.356
1148.762, 40.109
1149.992, 21.957
1151.222, 32.872
1152.452, 45.905
1153.682, 6.911
1154.911, 8.295
1156.140, 0.087
1157.369, 93.883
1158.598, 195.081
1159.827, 266.668
1161.055, 316.445
1162.284, 268.434
1163.512, 129.530
1164.740, 112.210
1165.967, 18.711
1167.195, 59.019
1168.422, 5.827
1169.650, 31.454
1170.877, 61.089
1172.103, 8.713
1173.330, 17.388
1174.557, 30.032
1175.783, 28.220
1177.009, 6.502
1178.235, 22.101
1179.461, 69.701
1180.686, 43.299
1181.912, 24.895
1183.137, 34.552
1184.362, 26.184
1185.587, 7.781
1186.811, 52.379
1188.036, 48.975
1189.260, 21.573
1190.484, 39.169
1191.708, 52.765
1192.932, 19.359
1194.155, 26.953
1195.378, 38.544
1196.602, 37.259
1197.825, 57.716
1199.047, 66.297
1200.270, 83.874
1201.492, 106.447
1202.715, 88.017
1203.937, 80.583
1205.159, 126.145
1206.380, 104.703
1207.602, 116.262
1208.823, 125.818
1210.044, 102.370
1211.265, 166.918
1212.486, 87.461
1213.707, 100.000
1214.927, 135.538
1216.147, 103.071
1217.367, 147.600
1218.587, 136.125
1219.807, 144.644
1221.027, 127.159
1222.246, 131.854
1223.465, 97.175
1224.684, 130.677
1225.903, 72.173
1227.121, 58.664
1228.340, 155.150
1229.558, 111.631
1230.776, 114.107
1231.994, 78.577
1233.212, 98.042
1234.429, 103.503
1235.646, 138.957
1236.864, 111.519
1238.081, 69.966
1239.297, 100.411
1240.514, 105.854
1241.730, 73.294
1242.947, 66.733
1244.163, 52.168
1245.378, 43.573
1246.594, 83.420
1247.810, 44.845
1249.025, 49.261
1250.240, 68.674
1251.455, 24.083
1252.670, 60.533
1253.885, 3.039
1255.099, 57.469
1256.313, 38.871
1257.527, 33.243
1258.741, 18.609
1259.955, 12.045
1261.168, 34.274
1262.382, 43.616
1263.595, 30.207
1264.808, 39.484
1266.021, 52.845
1267.233, 64.974
1268.446, 14.776
1269.658, 19.515
1270.870, 14.309
1272.082, 45.868
1273.294, 21.224
1274.505, 28.412
1275.716, 36.563
1276.928, 43.752
1278.139, 19.891
1279.349, 12.021
1280.560, 4.145
1281.770, 29.688
1282.981, 26.378
1284.191, 2.089
1285.401, 0.420
1286.610, 19.459
1287.820, 8.666
1289.029, 13.031
1290.239, 27.996
1291.448, 4.016
1292.656, 32.027
1293.865, 45.031
1295.073, 17.029
1296.282, 9.743
1297.490, 33.091
1298.698, 10.150
1299.906, 29.199
1301.113, 3.939
1302.320, 8.638
1303.528, 12.212
1304.735, 34.291
1305.942, 5.389
1307.148, 11.501
1308.355, 7.410
1309.561, 54.256
1310.767, 8.121
1311.973, 39.140
1313.179, 24.989
1314.384, 94.781
1315.590, 60.610
1316.795, 111.431
1318.000, 52.206
1319.205, 59.006
1320.410, 33.801
1321.614, 36.075
1322.819, 80.572
1324.023, 99.330
1325.227, 77.060
1326.431, 96.771
1327.634, 48.473
1328.838, 55.168
1330.041, 86.855
1331.244, 120.473
1332.447, 120.143
1333.650, 132.630
1334.852, 71.430
1336.055, 129.062
1337.257, 90.687
1338.459, 87.278
1339.661, 118.882
1340.862, 125.474
1342.064, 113.058
1343.265, 159.633
1344.466, 87.198
1345.667, 68.754
1346.868, 147.301
1348.068, 117.839
1349.269, 90.366
1350.469, 138.885
1351.669, 150.393
1352.869, 166.892
1354.069, 227.382
1355.268, 114.864
1356.468, 199.337
1357.667, 143.802
1358.866, 117.984
1360.065, 119.433
1361.263, 147.875
1362.462, 125.310
1363.660, 206.738
1364.858, 161.160
1366.056, 136.583
1367.254, 186.992
1368.451, 212.405
1369.649, 130.805
1370.846, 160.157
1372.043, 101.500
1373.240, 116.833
1374.436, 132.154
1375.633, 104.460
1376.829, 154.757
1378.025, 99.047
1379.221, 154.336
1380.417, 34.637
1381.613, 105.676
1382.808, 111.706
1384.003, 118.728
1385.199, 119.732
1386.393, 62.728
1387.588, 94.721
1388.783, 13.600
1389.977, 114.265
1391.171, 119.104
1392.365, 78.535
1393.559, 104.351
1394.753, 105.090
1395.946, 52.974
1397.140, 35.877
1398.333, 49.854
1399.526, 55.323
1400.719, 70.938
1401.911, 80.019
1403.104, 62.229
1404.296, 70.983
1405.488, 43.315
1406.680, 10.518
1407.872, 55.163
1409.063, 29.474
1410.255, 20.084
1411.446, 62.855
1412.637, 35.482
1413.828, 6.757
1415.018, 69.321
1416.209, 8.638
1417.399, 33.351
1418.589, 81.316
1419.779, 29.629
1420.969, 59.165
1422.159, 119.979
1423.348, 48.128
1424.537, 27.423
1425.726, 6.620
1426.915, 6.844
1428.104, 0.388
1429.293, 25.349
1430.481, 20.584
1431.669, 3.808
1432.857, 48.020
1434.045, 60.221
1435.233, 70.410
1436.420, 51.589
1437.608, 56.755
1438.795, 67.911
1439.982, 2.055
1441.169, 17.183
1442.355, 17.294
1443.542, 108.393
1444.728, 39.480
1445.914, 94.555
1447.100, 95.618
1448.286, 70.670
1449.472, 71.711
1450.657, 144.741
1451.842, 102.534
1453.027, 95.518
1454.212, 146.464
1455.397, 122.367
1456.581, 74.393
1457.766, 111.223
1458.950, 71.028
1460.134, 121.452
1461.318, 148.074
1462.501, 88.833
1463.685, 128.673
1464.868, 72.297
1466.051, 185.964
1467.234, 111.066
1468.417, 91.236
1469.600, 116.669
1470.782, 83.526
1471.965, 107.322
1473.147, 111.227
1474.329, 146.334
1475.510, 66.229
1476.692, 64.578
1477.873, 103.469
1479.055, 62.149
1480.236, 159.798
1481.416, 90.355
1482.597, 58.281
1483.778, 96.775
1484.958, 75.228
1486.138, 21.637
1487.318, 138.004
1488.498, 83.328
1489.678, 85.623
1490.857, 74.888
1492.037, 132.126
1493.216, 131.319
1494.395, 48.595
1495.574, 92.096
1496.752, 25.643
1497.931, 47.154
1499.109, 35.715
1500.287, 11.653
1501.465, 20.991
1502.643, 28.718
1503.820, 71.486
1504.998, 49.295
1506.175, 61.166
1507.352, 5.122
1508.529, 34.193
1509.706, 5.367
1510.882, 36.656
1512.059, 50.895
1513.235, 38.119
1514.411, 38.816
1515.587, 53.562
1516.762, 7.123
1517.938, 16.405
1519.113, 16.813
1520.288, 9.482
1521.463, 0.000
##END=



