##NAMES=Anhydrite
##RRUFFID=R040061
##IDEAL CHEMISTRY=CaS^6+^O_4_
##LOCALITY=Chester County, Pennsylvania, USA
##OWNER=RRUFF
##SOURCE=University of Arizona Mineral Museum
##DESCRIPTION=Pale purple fractured single crystal
##STATUS=The identification of this mineral has been confirmed by X-ray diffraction and chemical analysis
##URL=rruff.info/R040061
##MEASURED CHEMISTRY=Ca_0.98_S_1.01_O_4_
##PIN_ID=S00304
##ORIENTATION=Laser parallel to -c* (0 0 -1). Fiducial mark perpendicular to laser is parallel to a [1 0 0]
51.466, 0.000
52.866, 9.239
54.266, 6.941
55.666, 27.333
57.065, 10.756
58.464, 9.884
59.863, 23.526
61.262, 31.561
62.661, 10.908
64.059, 6.509
65.458, 19.319
66.856, 4.303
68.253, 4.437
69.651, 11.701
71.048, 1.084
72.445, 14.569
73.842, 21.143
75.239, 10.795
76.635, 15.515
78.031, 22.295
79.427, 30.128
80.823, 23.013
82.218, 41.945
83.614, 34.921
85.009, 41.937
86.404, 34.992
87.798, 48.121
89.193, 48.283
90.587, 63.470
91.981, 55.678
93.375, 40.908
94.768, 37.155
96.161, 50.418
97.554, 47.695
98.947, 57.985
100.340, 41.287
101.732, 43.600
103.124, 50.922
104.516, 57.254
105.908, 67.594
107.300, 58.957
108.691, 65.356
110.082, 51.770
111.473, 43.192
112.864, 56.625
114.254, 92.084
115.644, 123.550
117.034, 178.026
118.424, 186.515
119.813, 188.007
121.203, 250.511
122.592, 250.922
123.981, 219.640
125.369, 141.143
126.758, 114.656
128.146, 78.169
129.534, 61.682
130.922, 34.192
132.309, 42.700
133.696, 16.222
135.083, 39.740
136.470, 31.250
137.857, 26.755
139.243, 36.257
140.630, 14.756
142.016, 23.254
143.401, 28.750
144.787, 10.246
146.172, 17.742
147.557, 11.237
148.942, 35.733
150.327, 20.229
151.711, 29.725
153.096, 44.223
154.480, 43.720
155.863, 55.219
157.247, 72.718
158.630, 64.218
160.013, 58.719
161.396, 34.462
162.779, 27.563
164.161, 42.572
165.544, 12.743
166.926, 35.288
168.308, 24.769
169.689, 22.252
171.070, 19.195
172.452, 10.709
173.833, 3.189
175.213, 14.720
176.594, 10.191
177.974, 2.764
179.354, 11.584
180.734, 6.054
182.114, 9.021
183.493, 0.820
184.872, 1.305
186.251, 9.771
187.630, 2.553
189.008, 15.018
190.387, 0.061
191.765, 8.518
193.143, 4.055
194.520, 11.409
195.898, 3.941
197.275, 5.047
198.652, 22.373
200.029, 7.954
201.405, 18.405
202.782, 10.023
204.158, 19.474
205.534, 19.922
206.909, 15.414
208.285, 13.862
209.660, 20.309
211.035, 20.758
212.410, 21.206
213.784, 19.536
215.159, 20.978
216.533, 26.420
217.907, 29.686
219.281, 45.000
220.654, 66.346
222.027, 76.716
223.400, 103.104
224.773, 147.509
226.146, 209.927
227.518, 251.356
228.891, 335.795
230.263, 428.243
231.634, 454.698
233.006, 475.161
234.377, 417.630
235.748, 356.104
237.119, 287.584
238.490, 251.068
239.860, 165.556
241.231, 126.049
242.601, 100.544
243.970, 84.043
245.340, 62.545
246.709, 46.050
248.079, 32.557
249.448, 24.066
250.816, 27.578
252.185, 24.091
253.553, 14.606
254.921, 7.123
256.289, 13.641
257.657, 17.160
259.024, 11.680
260.391, 6.201
261.758, 15.723
263.125, 13.246
264.492, 14.651
265.858, 4.295
267.224, 12.820
268.590, 6.346
269.956, 3.124
271.321, 7.594
272.687, 5.934
274.052, 6.535
275.416, 2.995
276.781, 8.475
278.146, 8.054
279.510, 0.418
280.874, 9.114
282.237, 11.646
283.601, 11.181
284.964, 4.716
286.327, 10.252
287.690, 5.217
289.053, 0.311
290.416, 19.840
291.778, 0.368
293.140, 5.895
294.502, 2.423
295.863, 4.050
297.225, 8.524
298.586, 4.002
299.947, 1.528
301.308, 3.054
302.668, 0.420
304.029, 3.895
305.389, 14.628
306.749, 18.152
308.108, 19.675
309.468, 5.802
310.827, 2.719
312.186, 1.240
313.545, 3.239
314.903, 1.280
316.262, 3.799
317.620, 15.318
318.978, 11.836
320.336, 4.356
321.693, 3.124
323.051, 15.395
324.408, 6.913
325.765, 17.430
327.121, 5.056
328.478, 0.454
329.834, 4.960
331.190, 12.466
332.546, 13.303
333.902, 3.477
335.257, 12.980
336.612, 5.483
337.967, 1.014
339.322, 15.483
340.677, 6.020
342.031, 10.526
343.385, 1.964
344.739, 14.453
346.093, 0.060
347.446, 10.424
348.799, 11.909
350.153, 0.607
351.505, 5.875
352.858, 24.358
354.210, 19.836
355.563, 12.028
356.915, 3.404
358.267, 1.884
359.618, 2.261
360.969, 11.737
362.321, 18.210
363.672, 15.681
365.022, 18.153
366.373, 17.624
367.723, 19.094
369.073, 19.565
370.423, 5.036
371.773, 7.493
373.122, 3.025
374.471, 29.442
375.821, 24.909
377.169, 25.371
378.518, 37.835
379.866, 29.298
381.215, 32.829
382.563, 34.996
383.910, 33.691
385.258, 36.157
386.605, 44.623
387.952, 44.089
389.299, 44.555
390.646, 68.021
391.992, 44.488
393.339, 60.954
394.685, 50.421
396.031, 73.887
397.376, 84.354
398.722, 111.820
400.067, 99.286
401.412, 135.757
402.757, 166.228
404.101, 206.698
405.446, 254.169
406.790, 408.639
408.134, 728.109
409.478, 1431.578
410.821, 2759.048
412.165, 4929.517
413.508, 8484.985
414.851, 12223.456
416.193, 13683.922
417.536, 10909.390
418.878, 6382.858
420.220, 3558.325
421.562, 1944.792
422.904, 1186.259
424.245, 702.725
425.586, 407.190
426.927, 261.656
428.268, 195.122
429.609, 161.587
430.949, 132.825
432.289, 120.129
433.629, 89.188
434.969, 92.153
436.309, 77.348
437.648, 89.811
438.987, 66.818
440.326, 69.280
441.665, 62.633
443.003, 57.094
444.342, 54.250
445.680, 65.710
447.018, 66.313
448.355, 57.792
449.693, 47.942
451.030, 39.378
452.367, 59.836
453.704, 45.270
455.041, 52.727
456.377, 41.264
457.713, 52.460
459.049, 37.986
460.385, 41.454
461.721, 53.999
463.056, 47.453
464.391, 39.830
465.726, 65.014
467.061, 57.466
468.395, 51.918
469.730, 71.369
471.064, 44.428
472.398, 62.878
473.731, 60.314
475.065, 60.515
476.398, 62.948
477.731, 104.398
479.064, 120.847
480.397, 123.734
481.729, 154.185
483.062, 159.376
484.394, 198.826
485.725, 218.275
487.057, 300.723
488.389, 376.793
489.720, 430.178
491.051, 624.629
492.382, 848.081
493.712, 1136.531
495.043, 1472.982
496.373, 1824.432
497.703, 2147.883
499.032, 2185.171
500.362, 1909.622
501.691, 1531.612
503.020, 1158.317
504.349, 889.746
505.678, 656.198
507.007, 470.534
508.335, 342.989
509.663, 263.445
510.991, 233.750
512.319, 172.207
513.646, 144.663
514.973, 99.122
516.300, 97.581
517.627, 81.043
518.954, 68.477
520.280, 50.923
521.607, 40.383
522.933, 39.810
524.259, 38.598
525.584, 44.760
526.910, 48.218
528.235, 50.675
529.560, 50.132
530.885, 42.588
532.209, 48.282
533.534, 52.632
534.858, 54.086
536.182, 63.540
537.506, 64.993
538.829, 41.445
540.152, 30.897
541.476, 34.348
542.799, 22.799
544.121, 26.259
545.444, 29.724
546.766, 27.172
548.088, 31.620
549.410, 19.068
550.732, 35.561
552.053, 23.007
553.375, 38.452
554.696, 13.897
556.017, 33.381
557.337, 17.847
558.658, 34.290
559.978, 42.821
561.298, 24.262
562.618, 15.783
563.938, 45.226
565.257, 26.667
566.576, 33.109
567.895, 36.592
569.214, 31.038
570.533, 24.484
571.851, 14.929
573.170, 32.373
574.488, 29.816
575.805, 36.258
577.123, 29.699
578.440, 23.140
579.758, 30.579
581.075, 17.018
582.391, 16.633
583.708, 22.921
585.024, 9.420
586.341, 8.981
587.657, 9.416
588.972, 10.147
590.288, 11.363
591.603, 8.796
592.918, 5.769
594.233, 1.661
595.548, 14.090
596.863, 5.519
598.177, 11.948
599.491, 12.624
600.805, 7.796
602.119, 8.786
603.432, 23.625
604.746, 0.035
606.059, 5.664
607.372, 51.071
608.685, 54.522
609.997, 55.929
611.309, 43.335
612.621, 9.742
613.933, 2.147
615.245, 14.551
616.557, 7.045
617.868, 6.355
619.179, 1.753
620.490, 27.150
621.801, 14.545
623.111, 35.940
624.421, 31.352
625.731, 77.746
627.041, 89.139
628.351, 74.531
629.660, 68.923
630.970, 26.677
632.279, 14.150
633.588, 27.540
634.896, 15.929
636.205, 15.316
637.513, 4.297
638.821, 15.814
640.129, 20.194
641.437, 15.575
642.744, 28.953
644.051, 27.385
645.358, 12.669
646.665, 20.251
647.972, 21.627
649.278, 21.001
650.584, 28.172
651.890, 18.824
653.196, 33.195
654.502, 27.998
655.807, 18.366
657.113, 53.733
658.418, 60.120
659.722, 66.486
661.027, 84.854
662.331, 118.221
663.636, 165.587
664.940, 210.096
666.244, 299.459
667.547, 463.312
668.851, 871.780
670.154, 1524.139
671.457, 2714.078
672.760, 4563.433
674.062, 6713.282
675.365, 7708.635
676.667, 6110.985
677.969, 3711.335
679.271, 2042.683
680.572, 1143.030
681.874, 724.374
683.175, 440.717
684.476, 271.059
685.777, 150.399
687.077, 121.737
688.378, 93.073
689.678, 63.411
690.978, 56.698
692.278, 61.083
693.577, 50.417
694.877, 51.749
696.176, 54.079
697.475, 33.408
698.774, 36.735
700.072, 12.060
701.371, 11.384
702.669, 15.706
703.967, 18.026
705.265, 20.344
706.562, 8.661
707.860, 26.976
709.157, 30.289
710.454, 31.601
711.751, 8.911
713.047, 10.218
714.344, 15.524
715.640, 12.172
716.936, 24.122
718.232, 6.413
719.527, 13.228
720.823, 22.515
722.118, 14.304
723.413, 10.583
724.708, 29.228
726.002, 27.508
727.297, 36.787
728.591, 34.843
729.885, 25.339
731.179, 28.612
732.472, 25.884
733.766, 29.154
735.059, 17.422
736.352, 24.782
737.645, 11.047
738.937, 23.358
740.230, 8.620
741.522, 5.957
742.814, 31.213
744.106, 24.116
745.397, 7.596
746.689, 22.791
747.980, 23.184
749.271, 21.939
750.562, 33.101
751.853, 26.344
753.143, 35.569
754.433, 17.809
755.723, 24.112
757.013, 29.348
758.303, 15.887
759.592, 33.121
760.881, 2.209
762.170, 26.418
763.459, 7.862
764.748, 22.101
766.036, 29.324
767.325, 31.886
768.613, 24.106
769.901, 21.245
771.188, 13.462
772.476, 11.082
773.763, 27.283
775.050, 16.404
776.337, 36.616
777.624, 53.825
778.910, 8.036
780.196, 34.256
781.482, 24.461
782.768, 17.665
784.054, 18.867
785.339, 0.932
786.625, 4.645
787.910, 23.459
789.195, 9.651
790.479, 14.843
791.764, 24.033
793.048, 7.217
794.332, 29.964
795.616, 23.143
796.900, 10.322
798.183, 4.499
799.467, 10.326
800.750, 0.840
802.033, 8.003
803.316, 27.165
804.598, 4.326
805.880, 4.484
807.163, 32.642
808.445, 3.202
809.726, 22.948
811.008, 26.098
812.289, 12.753
813.570, 9.386
814.851, 19.524
816.132, 17.660
817.413, 5.796
818.693, 15.069
819.973, 16.054
821.253, 4.823
822.533, 1.294
823.813, 4.409
825.092, 6.477
826.371, 8.631
827.650, 5.262
828.929, 11.840
830.208, 23.941
831.486, 34.041
832.764, 38.342
834.042, 43.207
835.320, 39.336
836.598, 44.432
837.875, 43.528
839.152, 40.624
840.429, 38.718
841.706, 32.812
842.983, 25.905
844.259, 17.997
845.536, 34.089
846.812, 32.180
848.088, 19.271
849.363, 18.361
850.639, 10.450
851.914, 13.539
853.189, 24.628
854.464, 34.705
855.739, 33.058
857.013, 36.864
858.288, 29.950
859.562, 29.941
860.836, 28.404
862.110, 24.161
863.383, 20.247
864.656, 16.332
865.930, 2.376
867.203, 5.437
868.475, 7.521
869.748, 11.515
871.020, 1.599
872.292, 9.398
873.564, 0.680
874.836, 9.241
876.108, 17.166
877.379, 7.137
878.650, 9.926
879.922, 16.989
881.192, 17.680
882.463, 21.042
883.733, 9.179
885.004, 15.244
886.274, 5.309
887.544, 1.374
888.813, 2.561
890.083, 20.504
891.352, 1.457
892.621, 17.608
893.890, 2.389
895.159, 7.550
896.427, 13.384
897.695, 0.676
898.964, 18.340
900.232, 4.284
901.499, 0.229
902.767, 9.829
904.034, 8.887
905.301, 11.947
906.568, 13.177
907.835, 3.068
909.102, 11.133
910.368, 5.200
911.634, 2.270
912.900, 19.341
914.166, 14.192
915.432, 6.735
916.697, 0.706
917.962, 7.367
919.227, 9.559
920.492, 2.671
921.757, 14.584
923.021, 3.658
924.285, 23.733
925.550, 9.811
926.813, 26.891
928.077, 12.971
929.341, 6.053
930.604, 0.136
931.867, 0.885
933.130, 47.288
934.393, 6.374
935.655, 25.462
936.918, 35.550
938.180, 22.276
939.442, 11.285
940.703, 19.378
941.965, 28.471
943.226, 34.566
944.488, 31.663
945.749, 66.033
947.009, 17.134
948.270, 10.238
949.530, 38.343
950.791, 59.395
952.051, 48.595
953.311, 50.500
954.570, 51.611
955.830, 54.724
957.089, 65.795
958.348, 66.876
959.607, 64.995
960.866, 56.681
962.124, 83.803
963.383, 78.930
964.641, 78.037
965.899, 89.170
967.156, 93.306
968.414, 94.444
969.671, 122.584
970.928, 102.582
972.185, 145.726
973.442, 146.380
974.699, 154.421
975.955, 142.572
977.211, 195.144
978.468, 205.300
979.723, 204.964
980.979, 202.124
982.234, 197.287
983.490, 231.451
984.745, 233.619
986.000, 281.788
987.254, 276.960
988.509, 305.135
989.763, 275.314
991.017, 322.495
992.271, 379.678
993.525, 434.865
994.779, 473.056
996.032, 585.250
997.285, 754.446
998.538, 945.644
999.791, 1171.845
1001.044, 1204.048
1002.296, 1251.254
1003.548, 1334.465
1004.800, 1547.679
1006.052, 1828.896
1007.304, 2375.122
1008.555, 3203.351
1009.807, 4238.585
1011.058, 6069.823
1012.309, 9683.066
1013.559, 16384.312
1014.810, 29028.559
1016.060, 47329.812
1017.310, 59148.078
1018.560, 51141.344
1019.810, 32974.613
1021.060, 19630.898
1022.309, 11977.181
1023.558, 7773.946
1024.807, 5147.237
1026.056, 3663.032
1027.305, 2689.339
1028.553, 2100.280
1029.801, 1650.588
1031.049, 1337.900
1032.297, 1111.214
1033.545, 960.534
1034.793, 804.021
1036.040, 705.347
1037.287, 580.703
1038.534, 531.035
1039.781, 502.276
1041.027, 407.615
1042.274, 382.909
1043.520, 319.254
1044.766, 344.523
1046.012, 298.875
1047.257, 257.582
1048.503, 265.940
1049.748, 219.356
1050.993, 212.578
1052.238, 211.939
1053.483, 182.315
1054.727, 180.693
1055.971, 155.075
1057.216, 153.459
1058.459, 150.847
1059.703, 116.238
1060.947, 136.632
1062.190, 103.029
1063.433, 96.429
1064.676, 115.833
1065.919, 112.023
1067.162, 117.420
1068.404, 112.895
1069.646, 110.451
1070.888, 91.329
1072.130, 94.752
1073.372, 78.178
1074.613, 51.607
1075.855, 49.039
1077.096, 34.474
1078.337, 51.912
1079.578, 68.354
1080.818, 64.796
1082.059, 73.230
1083.299, 49.680
1084.539, 56.134
1085.779, 43.591
1087.018, 46.050
1088.258, 36.515
1089.497, 52.983
1090.736, 36.454
1091.975, 69.928
1093.213, 65.405
1094.452, 67.885
1095.690, 65.510
1096.928, 70.000
1098.166, 63.492
1099.404, 66.988
1100.642, 88.487
1101.879, 89.993
1103.116, 70.503
1104.353, 108.016
1105.590, 84.533
1106.827, 128.053
1108.063, 148.728
1109.299, 194.254
1110.536, 234.785
1111.771, 276.917
1113.007, 320.454
1114.243, 398.646
1115.478, 399.192
1116.713, 464.936
1117.948, 602.489
1119.183, 735.044
1120.418, 946.607
1121.652, 1337.173
1122.886, 1885.744
1124.120, 2973.318
1125.354, 4890.895
1126.588, 8969.619
1127.821, 15772.202
1129.055, 22656.791
1130.288, 22840.391
1131.521, 15740.983
1132.753, 8770.588
1133.986, 4891.187
1135.218, 3049.789
1136.450, 1837.394
1137.682, 1255.438
1138.914, 898.048
1140.146, 714.659
1141.377, 570.415
1142.609, 440.389
1143.840, 364.007
1145.071, 333.628
1146.301, 308.251
1147.532, 255.877
1148.762, 206.504
1149.992, 166.133
1151.222, 149.378
1152.452, 178.011
1153.682, 121.647
1154.911, 130.984
1156.140, 102.624
1157.369, 106.954
1158.598, 146.598
1159.827, 115.675
1161.055, 153.594
1162.284, 180.244
1163.512, 124.040
1164.740, 107.240
1165.967, 62.846
1167.195, 83.622
1168.422, 33.663
1169.650, 50.323
1170.877, 8.552
1172.103, 35.220
1173.330, 55.515
1174.557, 43.350
1175.783, 36.027
1177.009, 30.924
1178.235, 5.676
1179.461, 20.364
1180.686, 27.605
1181.912, 7.710
1183.137, 28.974
1184.362, 2.339
1185.587, 10.402
1186.811, 21.090
1188.036, 19.086
1189.260, 10.777
1190.484, 40.470
1191.708, 20.163
1192.932, 19.862
1194.155, 0.558
1195.378, 39.258
1196.602, 20.959
1197.825, 28.289
1199.047, 39.013
1200.270, 5.218
1201.492, 42.928
1202.715, 24.639
1203.937, 24.351
1205.159, 18.063
1206.380, 19.776
1207.602, 21.098
1208.823, 18.205
1210.044, 28.921
1211.265, 32.639
1212.486, 39.443
1213.707, 19.078
1214.927, 48.800
1216.147, 19.523
1217.367, 18.248
1218.587, 28.974
1219.807, 29.700
1221.027, 40.427
1222.246, 36.154
1223.465, 29.883
1224.684, 47.611
1225.903, 21.340
1227.121, 14.070
1228.340, 6.799
1229.558, 10.530
1230.776, 4.260
1231.994, 23.991
1233.212, 26.723
1234.429, 37.453
1235.646, 35.183
1236.864, 35.913
1238.081, 46.644
1239.297, 16.376
1240.514, 38.109
1241.730, 4.158
1242.947, 29.625
1244.163, 11.360
1245.378, 25.096
1246.594, 7.832
1247.810, 2.583
1249.025, 21.346
1250.240, 3.227
1251.455, 33.960
1252.670, 17.694
1253.885, 3.551
1255.099, 11.182
1256.313, 7.916
1257.527, 10.349
1258.741, 2.383
1259.955, 10.883
1261.168, 9.845
1262.382, 3.427
1263.595, 9.316
1264.808, 12.054
1266.021, 15.780
1267.233, 47.504
1268.446, 19.228
1269.658, 14.943
1270.870, 29.654
1272.082, 1.638
1273.294, 37.062
1274.505, 2.753
1275.716, 1.440
1276.928, 12.124
1278.139, 1.807
1279.349, 5.499
1280.560, 17.175
1281.770, 8.847
1282.981, 5.481
1284.191, 8.187
1285.401, 25.853
1286.610, 0.482
1287.820, 3.818
1289.029, 5.843
1290.239, 23.500
1291.448, 15.152
1292.656, 23.803
1293.865, 33.453
1295.073, 17.102
1296.282, 7.250
1297.490, 8.395
1298.698, 9.061
1299.906, 24.297
1301.113, 9.337
1302.320, 8.030
1303.528, 18.598
1304.735, 3.774
1305.942, 1.150
1307.148, 24.471
1308.355, 14.909
1309.561, 5.295
1310.767, 11.685
1311.973, 1.919
1313.179, 2.480
1314.384, 22.118
1315.590, 5.286
1316.795, 10.304
1318.000, 6.107
1319.205, 1.476
1320.410, 13.057
1321.614, 0.649
1322.819, 4.224
1324.023, 10.808
1325.227, 4.604
1326.431, 19.962
1327.634, 24.377
1328.838, 32.939
1330.041, 5.471
1331.244, 30.029
1332.447, 0.414
1333.650, 38.140
1334.852, 33.692
1336.055, 38.243
1337.257, 12.792
1338.459, 18.340
1339.661, 35.886
1340.862, 34.431
1342.064, 5.026
1343.265, 10.574
1344.466, 2.889
1345.667, 15.645
1346.868, 56.177
1348.068, 52.708
1349.269, 26.237
1350.469, 57.765
1351.669, 57.291
1352.869, 68.816
1354.069, 70.349
1355.268, 54.342
1356.468, 52.863
1357.667, 59.401
1358.866, 56.984
1360.065, 72.533
1361.263, 51.146
1362.462, 57.676
1363.660, 75.199
1364.858, 76.711
1366.056, 46.223
1367.254, 56.804
1368.451, 46.310
1369.649, 58.793
1370.846, 48.266
1372.043, 53.728
1373.240, 38.245
1374.436, 63.682
1375.633, 24.116
1376.829, 18.530
1378.025, 45.918
1379.221, 35.283
1380.417, 55.627
1381.613, 30.332
1382.808, 31.036
1384.003, 35.596
1385.199, 46.295
1386.393, 11.993
1387.588, 24.688
1388.783, 29.381
1389.977, 43.909
1391.171, 16.949
1392.365, 13.923
1393.559, 6.380
1394.753, 32.048
1395.946, 24.713
1397.140, 16.376
1398.333, 52.878
1399.526, 32.536
1400.719, 44.186
1401.911, 26.833
1403.104, 36.487
1404.296, 47.613
1405.488, 33.086
1406.680, 18.290
1407.872, 19.927
1409.063, 47.561
1410.255, 30.421
1411.446, 53.045
1412.637, 34.473
1413.828, 45.171
1415.018, 25.829
1416.209, 23.873
1417.399, 52.405
1418.589, 32.248
1419.779, 24.981
1420.969, 14.606
1422.159, 11.866
1423.348, 39.939
1424.537, 22.602
1425.726, 37.068
1426.915, 33.450
1428.104, 29.448
1429.293, 23.897
1430.481, 23.336
1431.669, 20.911
1432.857, 35.227
1434.045, 20.824
1435.233, 34.227
1436.420, 43.626
1437.608, 20.020
1438.795, 25.409
1439.982, 48.786
1441.169, 8.156
1442.355, 37.519
1443.542, 38.875
1444.728, 47.225
1445.914, 35.567
1447.100, 35.903
1448.286, 34.233
1449.472, 51.557
1450.657, 30.873
1451.842, 56.190
1453.027, 45.495
1454.212, 42.786
1455.397, 35.959
1456.581, 44.218
1457.766, 34.375
1458.950, 48.295
1460.134, 33.477
1461.318, 64.691
1462.501, 27.886
1463.685, 9.067
1464.868, 27.199
1466.051, 9.327
1467.234, 7.477
1468.417, 50.665
1469.600, 7.884
1470.782, 25.161
1471.965, 11.455
1473.147, 34.728
1474.329, 16.058
1475.510, 21.388
1476.692, 19.716
1477.873, 21.050
1479.055, 12.414
1480.236, 22.774
1481.416, 43.131
1482.597, 30.405
1483.778, 13.753
1484.958, 2.099
1486.138, 17.444
1487.318, 45.789
1488.498, 21.134
1489.678, 23.485
1490.857, 25.852
1492.037, 15.236
1493.216, 27.567
1494.395, 32.922
1495.574, 10.255
1496.752, 5.391
1497.931, 31.055
1499.109, 8.516
1500.287, 2.986
1501.465, 6.464
1502.643, 1.571
1503.820, 9.992
1504.998, 11.481
1506.175, 15.985
1507.352, 25.504
1508.529, 4.044
1509.706, 6.140
1510.882, 11.911
1512.059, 25.424
1513.235, 24.163
1514.411, 0.057
1515.587, 29.756
1516.762, 3.566
1517.938, 10.514
1519.113, 20.277
1520.288, 2.485
1521.463, 0.000
##END=



