##NAMES=Anhydrite
##RRUFFID=R040012
##IDEAL CHEMISTRY=CaS^6+^O_4_
##LOCALITY=Moundhouse, Nevada, USA
##OWNER=RRUFF
##SOURCE=University of Arizona Mineral Museum
##DESCRIPTION=White massive
##STATUS=The identification of this mineral has been confirmed by X-ray diffraction and chemical analysis
##URL=rruff.info/R040012
##MEASURED CHEMISTRY=Ca_1.00_S_1.00_O_4_
##PIN_ID=M00042
##ORIENTATION=Laser parallel to -c* (0 0 -1). Fiducial mark perpendicular to laser is parallel to a [1 0 0]
70.515, 0.000
71.917, 18.792
73.319, 159.509
74.721, 260.213
76.123, 518.668
77.525, 562.978
78.926, 736.846
80.327, 802.568
81.728, 1042.193
83.128, 1146.352
84.529, 1121.368
85.929, 1166.763
87.329, 1136.878
88.728, 1231.186
90.128, 1185.208
91.527, 1084.514
92.926, 1128.787
94.324, 1067.938
95.723, 1116.296
97.121, 1067.412
98.519, 1040.315
99.917, 1017.523
101.314, 971.740
102.712, 920.468
104.109, 877.393
105.505, 814.511
106.902, 804.495
108.298, 757.652
109.694, 779.196
111.090, 744.388
112.486, 722.257
113.881, 726.828
115.277, 725.129
116.672, 685.296
118.066, 765.605
119.461, 796.651
120.855, 875.249
122.249, 830.753
123.643, 683.261
125.036, 547.039
126.430, 464.965
127.823, 413.826
129.216, 311.159
130.608, 317.024
132.001, 307.437
133.393, 239.600
134.785, 285.931
136.176, 231.529
137.568, 234.044
138.959, 197.153
140.350, 186.220
141.741, 181.952
143.131, 154.090
144.521, 179.773
145.911, 171.841
147.301, 80.951
148.691, 116.073
150.080, 84.167
151.469, 109.209
152.858, 89.200
154.247, 83.146
155.635, 71.049
157.024, 55.952
158.411, 35.874
159.799, 58.820
161.187, 3.796
162.574, 50.186
163.961, 13.218
165.348, 22.719
166.734, 30.372
168.121, 36.503
169.507, 10.169
170.893, 38.989
172.278, 71.784
173.664, 25.562
175.049, 50.326
176.434, 53.311
177.819, 76.627
179.203, 57.124
180.587, 42.216
181.971, 41.898
183.355, 56.499
184.739, 36.504
186.122, 36.298
187.505, 47.238
188.888, 9.872
190.271, 7.648
191.653, 17.023
193.035, 33.564
194.417, 5.638
195.799, 10.111
197.180, 67.606
198.562, 27.026
199.943, 0.706
201.324, 2.507
202.704, 56.527
204.084, 6.969
205.465, 26.311
206.844, 15.915
208.224, 0.844
209.603, 19.776
210.983, 53.550
212.362, 21.894
213.740, 43.618
215.119, 37.642
216.497, 1.018
217.875, 50.345
219.253, 34.466
220.631, 93.985
222.008, 37.653
223.385, 99.440
224.762, 86.191
226.139, 148.553
227.515, 198.767
228.891, 222.327
230.267, 253.761
231.643, 261.780
233.018, 226.378
234.394, 237.906
235.769, 192.814
237.144, 123.567
238.518, 125.198
239.893, 67.487
241.267, 29.259
242.641, 55.274
244.014, 39.535
245.388, 47.476
246.761, 61.263
248.134, 76.219
249.507, 68.434
250.879, 93.856
252.252, 10.489
253.624, 89.148
254.996, 26.823
256.367, 35.506
257.739, 64.190
259.110, 38.871
260.481, 56.544
261.852, 43.204
263.222, 74.041
264.592, 83.191
265.962, 41.918
267.332, 32.705
268.702, 65.464
270.071, 73.115
271.440, 75.956
272.809, 91.493
274.178, 81.007
275.546, 89.366
276.915, 83.656
278.283, 75.319
279.650, 43.398
281.018, 43.640
282.385, 32.066
283.752, 23.591
285.119, 26.420
286.486, 18.688
287.852, 10.604
289.218, 15.633
290.584, 6.516
291.950, 7.958
293.316, 3.187
294.681, 0.309
296.046, 0.581
297.411, 12.894
298.775, 24.071
300.140, 18.243
301.504, 25.292
302.868, 50.327
304.231, 0.293
305.595, 94.171
306.958, 69.999
308.321, 38.781
309.684, 76.538
311.047, 73.277
312.409, 75.999
313.771, 97.703
315.133, 64.389
316.495, 96.056
317.856, 91.707
319.217, 64.340
320.578, 30.955
321.939, 40.419
323.299, 78.119
324.660, 57.673
326.020, 62.179
327.380, 89.690
328.739, 49.183
330.099, 59.658
331.458, 74.110
332.817, 93.912
334.176, 96.812
335.534, 112.472
336.892, 106.416
338.251, 76.619
339.608, 86.603
340.966, 129.402
342.323, 123.912
343.681, 48.413
345.037, 91.585
346.394, 73.650
347.751, 102.796
349.107, 70.912
350.463, 52.971
351.819, 79.382
353.174, 76.649
354.530, 44.988
355.885, 42.900
357.240, 16.137
358.594, 64.673
359.949, 9.224
361.303, 7.337
362.657, 32.804
364.011, 9.236
365.365, 44.552
366.718, 6.915
368.071, 13.963
369.424, 25.976
370.777, 5.472
372.129, 13.120
373.481, 1.816
374.833, 1.458
376.185, 50.114
377.537, 35.052
378.888, 13.605
380.239, 44.838
381.590, 15.377
382.941, 61.908
384.291, 68.378
385.642, 59.840
386.992, 123.364
388.341, 154.868
389.691, 73.308
391.040, 114.735
392.389, 99.215
393.738, 142.766
395.087, 44.225
396.435, 24.669
397.784, 61.305
399.132, 64.734
400.479, 94.527
401.827, 77.957
403.174, 58.369
404.521, 68.762
405.868, 62.135
407.215, 77.495
408.561, 178.833
409.908, 348.150
411.254, 750.465
412.599, 1432.758
413.945, 2186.035
415.290, 2647.075
416.636, 2102.304
417.980, 1149.513
419.325, 647.698
420.670, 341.906
422.014, 197.044
423.358, 118.160
424.702, 65.253
426.045, 29.319
427.389, 76.358
428.732, 58.371
430.075, 57.255
431.417, 67.324
432.760, 39.158
434.102, 75.071
435.444, 70.960
436.786, 98.824
438.127, 106.498
439.469, 54.483
440.810, 104.276
442.151, 92.815
443.492, 52.301
444.832, 0.408
446.172, 63.138
447.512, 47.907
448.852, 92.303
450.192, 50.254
451.531, 52.389
452.870, 108.005
454.209, 60.685
455.548, 40.615
456.887, 108.718
458.225, 78.795
459.563, 116.514
460.901, 78.689
462.238, 132.580
463.576, 83.727
464.913, 87.603
466.250, 143.438
467.587, 98.779
468.923, 103.926
470.259, 116.367
471.596, 117.541
472.931, 158.646
474.267, 193.758
475.603, 138.983
476.938, 192.871
478.273, 223.047
479.608, 152.183
480.942, 214.986
482.276, 217.914
483.611, 232.111
484.944, 338.037
486.278, 340.601
487.612, 390.232
488.945, 539.199
490.278, 676.491
491.611, 974.014
492.943, 1177.755
494.276, 1659.698
495.608, 2100.637
496.940, 2411.637
498.271, 2360.623
499.603, 2103.417
500.934, 1685.307
502.265, 1204.334
503.596, 940.364
504.927, 694.872
506.257, 533.806
507.587, 384.648
508.917, 339.636
510.247, 220.478
511.577, 233.153
512.906, 178.047
514.235, 134.919
515.564, 183.500
516.892, 184.035
518.221, 146.450
519.549, 157.210
520.877, 162.057
522.205, 139.155
523.533, 141.596
524.860, 113.531
526.187, 143.110
527.514, 128.053
528.841, 109.174
530.167, 79.625
531.493, 140.100
532.820, 77.530
534.145, 139.362
535.471, 98.440
536.796, 73.256
538.122, 92.219
539.447, 78.074
540.771, 96.984
542.096, 72.807
543.420, 84.614
544.744, 96.410
546.068, 65.223
547.392, 66.283
548.715, 83.024
550.039, 111.175
551.362, 78.920
552.684, 71.007
554.007, 97.727
555.329, 102.724
556.652, 60.889
557.973, 156.921
559.295, 41.223
560.617, 106.883
561.938, 148.468
563.259, 216.931
564.580, 148.472
565.901, 164.780
567.221, 167.230
568.541, 123.954
569.861, 161.198
571.181, 154.727
572.501, 159.747
573.820, 178.248
575.139, 117.737
576.458, 203.693
577.777, 150.154
579.095, 103.602
580.414, 159.043
581.732, 179.720
583.049, 235.195
584.367, 187.389
585.685, 269.226
587.002, 258.437
588.319, 150.855
589.636, 241.931
590.952, 186.062
592.268, 216.969
593.585, 267.104
594.900, 255.208
596.216, 260.416
597.532, 232.641
598.847, 272.595
600.162, 298.785
601.477, 287.916
602.792, 284.816
604.106, 386.940
605.420, 474.922
606.734, 525.774
608.048, 545.871
609.361, 454.749
610.675, 316.649
611.988, 360.817
613.301, 287.798
614.614, 284.647
615.926, 314.826
617.238, 376.908
618.550, 466.083
619.862, 547.166
621.174, 645.333
622.485, 848.437
623.797, 867.550
625.108, 931.704
626.418, 837.848
627.729, 747.983
629.039, 584.112
630.349, 520.231
631.659, 396.341
632.969, 393.441
634.279, 343.532
635.588, 385.614
636.897, 395.065
638.206, 465.750
639.515, 472.805
640.823, 472.856
642.131, 523.902
643.439, 553.939
644.747, 667.969
646.055, 594.992
647.362, 685.006
648.669, 649.015
649.976, 641.016
651.283, 605.010
652.589, 581.996
653.896, 501.972
655.202, 480.940
656.508, 364.899
657.814, 376.850
659.119, 334.792
660.424, 280.726
661.729, 302.650
663.034, 280.568
664.339, 368.477
665.643, 397.378
666.947, 693.270
668.251, 1140.153
669.555, 1962.030
670.859, 3750.898
672.162, 6345.759
673.465, 8860.612
674.768, 8915.459
676.071, 6120.310
677.373, 3370.151
678.676, 1693.994
679.978, 944.836
681.280, 572.672
682.581, 328.503
683.883, 252.328
685.184, 162.148
686.485, 54.963
687.786, 70.771
689.087, 39.422
690.387, 45.352
691.687, 24.124
692.987, 35.109
694.287, 39.402
695.586, 5.293
696.886, 6.040
698.185, 5.624
699.484, 37.237
700.783, 35.119
702.081, 4.510
703.379, 17.997
704.677, 33.503
705.975, 73.976
707.273, 2.482
708.570, 88.067
709.868, 50.769
711.165, 28.415
712.462, 51.077
713.758, 4.032
715.055, 32.675
716.351, 43.225
717.647, 21.532
718.943, 43.697
720.238, 30.920
721.533, 19.864
722.829, 75.330
724.124, 15.517
725.418, 65.304
726.713, 68.829
728.007, 15.044
729.301, 101.063
730.595, 60.164
731.889, 0.259
733.182, 121.344
734.476, 91.422
735.769, 38.449
737.061, 2.517
738.354, 21.576
739.647, 81.629
740.939, 54.678
742.231, 105.725
743.523, 0.233
744.814, 46.802
746.106, 77.833
747.397, 24.861
748.688, 140.886
749.978, 55.908
751.269, 33.926
752.559, 121.941
753.849, 28.952
755.139, 78.961
756.429, 33.967
757.719, 45.969
759.008, 107.970
760.297, 19.972
761.586, 127.978
762.875, 42.982
764.163, 66.984
765.451, 48.984
766.739, 35.982
768.027, 30.977
769.315, 85.970
770.602, 30.962
771.890, 65.951
773.177, 34.938
774.463, 117.921
775.750, 83.904
777.036, 61.882
778.323, 79.859
779.609, 76.834
780.894, 81.918
782.180, 73.888
783.465, 81.855
784.750, 44.822
786.035, 68.786
787.320, 66.092
788.605, 59.707
789.889, 91.665
791.173, 111.622
792.457, 140.577
793.741, 157.580
795.024, 124.482
796.307, 141.433
797.591, 180.382
798.873, 71.331
800.156, 85.279
801.439, 91.227
802.721, 105.172
804.003, 89.118
805.285, 103.062
806.566, 59.005
807.848, 157.948
809.129, 84.891
810.410, 123.832
811.691, 96.773
812.971, 142.714
814.252, 126.655
815.532, 77.595
816.812, 173.535
818.092, 171.476
819.371, 109.416
820.651, 228.356
821.930, 124.297
823.209, 228.238
824.488, 185.180
825.766, 143.402
827.045, 202.345
828.323, 219.366
829.601, 198.310
830.878, 317.254
832.156, 242.199
833.433, 294.146
834.710, 226.092
835.987, 316.041
837.264, 349.990
838.540, 284.940
839.817, 324.893
841.093, 356.763
842.369, 319.704
843.644, 384.208
844.920, 372.050
846.195, 388.751
847.470, 436.553
848.745, 375.096
850.020, 450.421
851.294, 418.081
852.568, 464.448
853.842, 596.295
855.116, 626.173
856.390, 678.986
857.663, 797.700
858.936, 840.722
860.209, 789.218
861.482, 697.218
862.755, 719.864
864.027, 586.872
865.299, 426.302
866.571, 492.331
867.843, 414.828
869.115, 379.058
870.386, 256.051
871.657, 318.039
872.928, 313.055
874.199, 264.029
875.470, 322.198
876.740, 302.279
878.010, 210.200
879.280, 234.594
880.550, 282.695
881.820, 253.298
883.089, 222.413
884.358, 231.536
885.627, 199.185
886.896, 198.329
888.164, 232.481
889.433, 226.632
890.701, 197.559
891.969, 204.681
893.236, 239.887
894.504, 318.104
895.771, 250.343
897.038, 330.270
898.305, 280.531
899.572, 316.799
900.838, 219.078
902.105, 265.387
903.371, 210.703
904.637, 254.043
905.902, 285.392
907.168, 195.751
908.433, 265.117
909.698, 259.506
910.963, 234.907
912.228, 132.315
913.492, 141.133
914.757, 191.559
916.021, 96.994
917.285, 98.438
918.548, 85.890
919.812, 65.351
921.075, 37.821
922.338, 44.300
923.601, 39.788
924.864, 161.285
926.126, 22.795
927.388, 116.316
928.650, 111.845
929.912, 19.383
931.174, 99.932
932.435, 11.511
933.697, 74.055
934.958, 145.630
936.218, 59.215
937.479, 38.808
938.739, 41.412
940.000, 47.025
941.260, 32.093
942.520, 100.280
943.779, 19.922
945.039, 58.573
946.298, 66.258
947.557, 157.930
948.816, 125.610
950.074, 84.518
951.333, 167.218
952.591, 167.929
953.849, 148.650
955.107, 62.381
956.365, 81.121
957.622, 89.873
958.879, 41.634
960.136, 111.404
961.393, 68.186
962.650, 38.978
963.906, 331.780
965.162, 173.867
966.418, 595.414
967.674, 99.247
968.930, 75.091
970.185, 95.945
971.441, 6.809
972.696, 53.684
973.950, 28.569
975.205, 37.465
976.459, 21.628
977.714, 7.286
978.968, 8.789
980.222, 24.102
981.475, 125.092
982.729, 101.048
983.982, 160.015
985.235, 166.992
986.488, 308.980
987.740, 218.980
988.993, 353.990
990.245, 377.011
991.497, 337.043
992.749, 422.086
994.000, 502.141
995.252, 698.222
996.503, 976.314
997.754, 1321.418
999.005, 1762.547
1000.256, 1880.702
1001.506, 1900.957
1002.756, 1924.422
1004.006, 1922.679
1005.256, 2301.954
1006.506, 2928.189
1007.755, 3827.442
1009.005, 5545.708
1010.254, 8590.997
1011.502, 14536.322
1012.751, 26931.662
1014.000, 44307.035
1015.248, 57882.445
1016.496, 52317.875
1017.744, 35583.328
1018.991, 21738.797
1020.239, 13296.266
1021.486, 8481.771
1022.733, 5867.564
1023.980, 3966.098
1025.227, 3000.642
1026.473, 2234.204
1027.719, 1885.777
1028.965, 1519.361
1030.211, 1091.975
1031.457, 869.600
1032.702, 786.241
1033.948, 672.893
1035.193, 647.555
1036.438, 516.845
1037.682, 501.529
1038.927, 327.225
1040.171, 333.782
1041.415, 258.498
1042.659, 323.799
1043.903, 276.195
1045.146, 277.869
1046.390, 140.657
1047.633, 277.909
1048.876, 176.686
1050.118, 218.914
1051.361, 209.708
1052.603, 115.513
1053.845, 100.933
1055.087, 86.755
1056.329, 76.748
1057.571, 76.588
1058.812, 109.583
1060.053, 88.033
1061.294, 61.900
1062.535, 43.223
1063.775, 119.649
1065.016, 102.531
1066.256, 45.421
1067.496, 141.319
1068.736, 37.227
1069.975, 5.144
1071.214, 113.068
1072.454, 61.001
1073.693, 157.943
1074.931, 199.022
1076.170, 150.986
1077.408, 188.958
1078.647, 249.021
1079.885, 307.009
1081.122, 354.005
1082.360, 332.898
1083.597, 360.911
1084.835, 254.931
1086.072, 171.958
1087.308, 196.995
1088.545, 163.039
1089.781, 172.090
1091.018, 178.150
1092.254, 88.218
1093.490, 110.293
1094.725, 0.624
1095.961, 118.466
1097.196, 125.564
1098.431, 8.330
1099.666, 152.781
1100.900, 92.899
1102.135, 108.025
1103.369, 155.158
1104.603, 120.299
1105.837, 144.448
1107.071, 306.603
1108.304, 233.766
1109.538, 380.943
1110.771, 277.126
1112.004, 259.317
1113.236, 402.515
1114.469, 320.721
1115.701, 432.934
1116.933, 479.154
1118.165, 581.381
1119.397, 817.615
1120.629, 1171.856
1121.860, 1627.104
1123.091, 2944.358
1124.322, 4990.619
1125.553, 9286.607
1126.783, 12922.879
1128.014, 12059.082
1129.244, 8385.371
1130.474, 4951.663
1131.704, 2762.965
1132.933, 1784.274
1134.163, 1026.592
1135.392, 684.917
1136.621, 504.250
1137.850, 309.590
1139.079, 288.938
1140.307, 140.292
1141.535, 221.646
1142.763, 132.009
1143.991, 7.378
1145.219, 95.756
1146.446, 39.141
1147.674, 22.532
1148.901, 0.921
1150.128, 3.686
1151.354, 2.051
1152.581, 19.883
1153.807, 29.524
1155.033, 55.938
1156.259, 70.357
1157.485, 20.775
1158.710, 80.178
1159.936, 36.579
1161.161, 33.965
1162.386, 45.347
1163.611, 8.705
1164.835, 86.067
1166.060, 17.414
1167.284, 34.237
1168.508, 88.086
1169.732, 0.587
1170.955, 58.742
1172.179, 76.075
1173.402, 39.413
1174.625, 53.753
1175.848, 122.091
1177.070, 19.433
1178.293, 81.776
1179.515, 47.123
1180.737, 35.473
1181.959, 119.827
1183.181, 24.816
1184.402, 100.537
1185.624, 44.892
1186.845, 62.749
1188.066, 81.596
1189.286, 23.057
1190.507, 5.713
1191.727, 46.370
1192.947, 9.963
1194.167, 20.702
1195.387, 32.634
1196.607, 86.033
1197.826, 116.278
1199.045, 17.592
1200.264, 56.091
1201.483, 78.211
1202.702, 6.515
1203.920, 17.820
1205.138, 47.873
1206.356, 2.578
1207.574, 79.715
1208.792, 34.338
1210.009, 23.234
1211.227, 60.531
1212.444, 41.829
1213.661, 117.127
1214.877, 74.704
1216.094, 46.004
1217.310, 144.305
1218.526, 85.607
1219.742, 103.921
1220.958, 11.772
1222.173, 42.772
1223.389, 165.081
1224.604, 11.392
1225.819, 74.721
1227.034, 83.038
1228.248, 113.359
1229.463, 99.685
1230.677, 187.013
1231.891, 106.345
1233.105, 270.681
1234.318, 193.021
1235.532, 254.363
1236.745, 391.710
1237.958, 294.062
1239.171, 220.417
1240.384, 281.775
1241.596, 138.116
1242.809, 240.477
1244.021, 179.842
1245.233, 271.989
1246.444, 305.357
1247.656, 261.731
1248.867, 178.080
1250.079, 305.433
1251.290, 190.790
1252.500, 251.151
1253.711, 157.517
1254.921, 214.338
1256.132, 306.711
1257.342, 248.090
1258.552, 215.472
1259.761, 223.859
1260.971, 226.987
1262.180, 219.648
1263.389, 288.055
1264.598, 331.471
1265.807, 358.797
1267.015, 350.121
1268.223, 388.436
1269.432, 427.738
1270.640, 324.026
1271.847, 458.519
1273.055, 405.802
1274.262, 293.877
1275.470, 472.553
1276.677, 379.233
1277.883, 319.917
1279.090, 324.605
1280.296, 317.297
1281.503, 235.992
1282.709, 243.691
1283.915, 201.394
1285.120, 243.706
1286.326, 260.188
1287.531, 214.885
1288.736, 283.583
1289.941, 268.285
1291.146, 295.990
1292.350, 285.699
1293.555, 321.131
1294.759, 279.510
1295.963, 356.209
1297.167, 245.911
1298.370, 339.619
1299.574, 222.331
1300.777, 179.048
1301.980, 299.769
1303.183, 225.655
1304.386, 192.324
1305.588, 340.380
1306.790, 225.014
1307.993, 331.484
1309.195, 358.986
1310.396, 336.673
1311.598, 395.903
1312.799, 390.247
1314.000, 306.633
1315.201, 428.034
1316.402, 375.434
1317.603, 393.829
1318.803, 453.224
1320.003, 302.961
1321.203, 309.316
1322.403, 351.541
1323.603, 150.889
1324.802, 333.233
1326.002, 282.576
1327.201, 224.914
1328.400, 364.249
1329.599, 262.579
1330.797, 255.905
1331.995, 170.228
1333.194, 101.548
1334.392, 65.862
1335.589, 22.171
1336.787, 13.463
1337.985, 145.736
1339.182, 8.003
1340.379, 50.260
1341.576, 105.508
1342.772, 32.748
1343.969, 75.980
1345.165, 141.203
1346.361, 33.419
1347.557, 111.618
1348.753, 72.794
1349.949, 121.947
1351.144, 132.073
1352.339, 0.804
1353.534, 64.305
1354.729, 136.385
1355.924, 18.457
1357.118, 118.530
1358.312, 0.429
1359.506, 16.577
1360.700, 100.644
1361.894, 12.829
1363.088, 10.170
1364.281, 55.635
1365.474, 15.782
1366.667, 121.867
1367.860, 119.520
1369.052, 13.200
1370.245, 186.915
1371.437, 78.643
1372.629, 52.383
1373.821, 93.137
1375.013, 83.907
1376.204, 147.695
1377.395, 265.502
1378.586, 142.315
1379.777, 269.172
1380.968, 206.061
1382.159, 135.983
1383.349, 213.946
1384.539, 176.959
1385.729, 195.544
1386.919, 249.621
1388.109, 157.417
1389.298, 221.588
1390.487, 169.785
1391.676, 130.193
1392.865, 147.202
1394.054, 98.140
1395.242, 91.168
1396.431, 140.206
1397.619, 14.753
1398.807, 73.292
1399.995, 185.328
1401.182, 41.341
1402.370, 107.450
1403.557, 190.653
1404.744, 91.154
1405.931, 251.075
1407.118, 129.153
1408.304, 83.314
1409.490, 215.347
1410.676, 153.516
1411.862, 167.028
1413.048, 138.483
1414.234, 0.243
1415.419, 162.140
1416.604, 0.000
##END=



