##NAMES=Ankerite
##RRUFFID=R050181
##IDEAL CHEMISTRY=CaFe^2+^(CO_3_)_2_
##LOCALITY=Cerro Sapo, Cochabamba Department, Bolivia
##OWNER=RRUFF
##SOURCE=Marcus Origlieri
##DESCRIPTION=White coarsely crystalline massive
##STATUS=The identification of this mineral has been confirmed by X-ray diffraction and chemical analysis
##URL=rruff.info/R050181
##MEASURED CHEMISTRY=Ca_1.00_(Fe^2+^_0.60_Mg_0.35_Mn^2+^_0.05_)_Î£=1_(CO_3_)_2_ ; C not measured but estimated by difference and stoichiometry
##PIN_ID=M00493
##ORIENTATION=Laser parallel to -a* (-1 0 0). Fiducial mark perpendicular to laser is parallel to c [0 0 1]
84.311, 0.000
85.706, 9.393
87.101, 57.101
88.496, 29.823
89.890, 68.781
91.284, 0.333
92.678, 99.637
94.071, 157.192
95.465, 161.403
96.858, 249.704
98.251, 218.616
99.644, 143.812
101.036, 123.230
102.428, 80.190
103.820, 75.344
105.212, 153.530
106.604, 139.669
107.995, 192.723
109.387, 215.138
110.777, 205.924
112.168, 282.082
113.559, 221.998
114.949, 261.141
116.339, 293.425
117.729, 223.955
119.119, 245.525
120.508, 145.021
121.897, 84.329
123.286, 28.369
124.675, 1.225
126.063, 16.308
127.452, 17.376
128.840, 10.466
130.228, 5.757
131.615, 3.771
133.003, 19.132
134.390, 33.187
135.777, 91.398
137.164, 74.316
138.550, 92.432
139.937, 125.957
141.323, 223.337
142.709, 240.495
144.094, 277.276
145.480, 239.871
146.865, 303.816
148.250, 348.314
149.635, 382.843
151.019, 567.659
152.403, 595.343
153.788, 604.679
155.171, 733.616
156.555, 932.041
157.939, 1119.862
159.322, 1416.781
160.705, 1764.158
162.088, 2171.684
163.470, 2765.805
164.853, 3434.942
166.235, 4012.072
167.617, 4488.221
168.998, 4755.498
170.380, 4858.891
171.761, 4510.361
173.142, 4101.902
174.523, 3497.501
175.904, 2847.133
177.284, 2324.776
178.664, 1851.408
180.044, 1403.017
181.424, 1104.602
182.803, 860.193
184.183, 769.756
185.562, 559.286
186.940, 523.760
188.319, 373.134
189.698, 369.388
191.076, 273.543
192.454, 188.625
193.831, 172.652
195.209, 86.631
196.586, 109.575
197.963, 31.483
199.340, 30.355
200.717, 20.193
202.093, 26.992
203.470, 18.749
204.846, 20.463
206.221, 16.137
207.597, 1.230
208.972, 27.358
210.347, 10.906
211.722, 30.410
213.097, 13.939
214.472, 12.688
215.846, 23.240
217.220, 11.731
218.594, 66.221
219.967, 34.909
221.341, 57.761
222.714, 47.015
224.087, 56.264
225.460, 56.938
226.832, 104.612
228.204, 90.212
229.577, 125.799
230.948, 120.608
232.320, 112.288
233.692, 118.492
235.063, 197.979
236.434, 207.217
237.805, 223.456
239.175, 318.673
240.545, 294.571
241.916, 300.151
243.286, 323.810
244.655, 365.244
246.025, 460.712
247.394, 549.114
248.763, 582.712
250.132, 654.029
251.501, 769.213
252.869, 886.044
254.237, 981.437
255.605, 1121.686
256.973, 1256.309
258.340, 1405.146
259.708, 1641.835
261.075, 1816.803
262.442, 2029.882
263.808, 2333.446
265.175, 2656.991
266.541, 3037.334
267.907, 3393.423
269.273, 3840.947
270.639, 4340.335
272.004, 5039.366
273.369, 5630.146
274.734, 6415.063
276.099, 6966.715
277.463, 7785.702
278.828, 8354.428
280.192, 9031.193
281.556, 9537.895
282.919, 9824.298
284.283, 9880.818
285.646, 9796.851
287.009, 9552.393
288.372, 9367.193
289.734, 9000.983
291.097, 8463.780
292.459, 7790.441
293.821, 7244.607
295.183, 6569.992
296.544, 5972.986
297.905, 5283.350
299.266, 4700.974
300.627, 4147.048
301.988, 3545.114
303.348, 3114.252
304.709, 2720.424
306.069, 2324.167
307.428, 2037.737
308.788, 1755.258
310.147, 1557.705
311.507, 1313.226
312.865, 1201.562
314.224, 1077.035
315.583, 909.442
316.941, 815.630
318.299, 772.666
319.657, 724.704
321.015, 627.729
322.372, 607.608
323.729, 536.494
325.086, 466.495
326.443, 454.408
327.800, 428.275
329.156, 392.063
330.512, 360.734
331.868, 336.510
333.224, 315.420
334.579, 294.797
335.935, 288.349
337.290, 282.899
338.645, 279.331
339.999, 231.891
341.354, 211.244
342.708, 213.633
344.062, 224.054
345.416, 226.304
346.769, 212.552
348.123, 237.745
349.476, 247.990
350.829, 198.124
352.182, 228.235
353.534, 159.367
354.887, 162.380
356.239, 179.006
357.591, 116.539
358.942, 127.641
360.294, 127.855
361.645, 97.403
362.996, 49.915
364.347, 65.275
365.698, 77.697
367.048, 27.990
368.398, 101.280
369.748, 10.484
371.098, 45.251
372.448, 25.555
373.797, 19.600
375.146, 11.892
376.495, 9.940
377.844, 20.943
379.192, 25.068
380.540, 37.992
381.889, 0.485
383.236, 26.330
384.584, 8.013
385.932, 11.764
387.279, 8.502
388.626, 11.742
389.973, 26.267
391.319, 2.303
392.666, 12.758
394.012, 14.275
395.358, 29.134
396.704, 27.486
398.049, 31.168
399.394, 5.821
400.740, 18.491
402.084, 7.633
403.429, 22.180
404.774, 14.953
406.118, 21.694
407.462, 13.394
408.806, 2.937
410.150, 17.699
411.493, 17.302
412.836, 2.854
414.179, 12.353
415.522, 14.198
416.865, 18.195
418.207, 22.540
419.549, 11.840
420.891, 0.093
422.233, 10.699
423.575, 12.458
424.916, 11.428
426.257, 33.637
427.598, 18.662
428.939, 4.647
430.279, 51.592
431.619, 57.502
432.959, 26.376
434.299, 69.242
435.639, 18.049
436.978, 45.822
438.318, 21.574
439.657, 32.720
440.996, 29.958
442.334, 52.579
443.673, 55.168
445.011, 37.788
446.349, 41.344
447.687, 43.839
449.024, 43.392
450.361, 50.833
451.699, 56.387
453.036, 67.881
454.372, 46.425
455.709, 59.953
457.045, 42.305
458.381, 51.633
459.717, 43.009
461.053, 76.289
462.388, 35.640
463.724, 44.966
465.059, 82.291
466.394, 27.574
467.728, 67.885
469.063, 98.107
470.397, 60.241
471.731, 72.422
473.065, 101.540
474.398, 53.546
475.732, 54.583
477.065, 94.667
478.398, 118.660
479.731, 106.625
481.063, 99.667
482.396, 124.517
483.728, 113.450
485.060, 77.279
486.391, 91.261
487.723, 95.044
489.054, 106.922
490.385, 127.698
491.716, 122.494
493.047, 88.362
494.377, 117.068
495.708, 126.716
497.038, 119.347
498.368, 139.939
499.697, 101.521
501.027, 142.990
502.356, 126.392
503.685, 110.743
505.014, 158.121
506.342, 137.097
507.671, 154.389
508.999, 121.791
510.327, 162.221
511.655, 154.135
512.982, 128.492
514.310, 138.609
515.637, 156.699
516.964, 178.081
518.291, 146.895
519.617, 155.825
520.944, 160.612
522.270, 160.986
523.596, 170.487
524.921, 171.134
526.247, 171.651
527.572, 175.883
528.897, 172.889
530.222, 177.522
531.547, 166.994
532.871, 179.182
534.196, 175.378
535.520, 164.482
536.844, 141.517
538.167, 169.638
539.491, 190.826
540.814, 154.402
542.137, 169.317
543.460, 173.622
544.783, 152.611
546.105, 164.817
547.427, 155.792
548.749, 148.052
550.071, 140.888
551.393, 131.632
552.714, 138.738
554.035, 126.741
555.356, 136.196
556.677, 153.984
557.998, 149.064
559.318, 149.920
560.638, 151.620
561.958, 123.992
563.278, 141.950
564.597, 126.836
565.917, 154.767
567.236, 145.617
568.555, 142.208
569.874, 145.072
571.192, 127.922
572.511, 133.640
573.829, 154.428
575.147, 145.317
576.464, 145.133
577.782, 157.976
579.099, 120.721
580.416, 133.347
581.733, 119.430
583.050, 128.156
584.366, 100.187
585.683, 125.029
586.999, 129.782
588.315, 108.411
589.630, 104.298
590.946, 109.201
592.261, 75.965
593.576, 96.899
594.891, 97.604
596.206, 77.424
597.520, 100.132
598.834, 71.792
600.148, 104.524
601.462, 101.343
602.776, 60.167
604.089, 66.910
605.402, 90.660
606.715, 52.412
608.028, 105.155
609.341, 39.920
610.653, 49.701
611.965, 33.521
613.277, 32.244
614.589, 69.014
615.901, 75.702
617.212, 51.423
618.523, 70.099
619.834, 43.908
621.145, 42.573
622.456, 36.021
623.766, 39.045
625.076, 24.644
626.386, 38.379
627.696, 52.240
629.006, 34.131
630.315, 41.864
631.624, 66.711
632.933, 48.320
634.242, 29.963
635.551, 44.766
636.859, 44.664
638.167, 19.505
639.475, 60.345
640.783, 32.248
642.090, 51.625
643.398, 8.490
644.705, 49.235
646.012, 19.992
647.318, 37.791
648.625, 16.865
649.931, 13.733
651.237, 35.437
652.543, 43.411
653.849, 41.266
655.155, 46.039
656.460, 45.820
657.765, 59.466
659.070, 43.375
660.375, 53.206
661.679, 62.313
662.984, 10.729
664.288, 57.128
665.592, 46.004
666.895, 36.791
668.199, 31.246
669.502, 31.596
670.805, 15.879
672.108, 21.061
673.411, 5.120
674.713, 33.375
676.016, 12.179
677.318, 43.270
678.620, 12.936
679.921, 26.846
681.223, 7.077
682.524, 48.850
683.825, 53.620
685.126, 23.464
686.427, 76.676
687.727, 45.436
689.028, 51.363
690.328, 29.118
691.628, 32.869
692.927, 54.619
694.227, 47.708
695.526, 35.530
696.825, 79.251
698.124, 75.410
699.423, 91.160
700.721, 63.915
702.020, 111.669
703.318, 118.425
704.616, 136.178
705.913, 133.930
707.211, 174.680
708.508, 185.429
709.805, 245.181
711.102, 233.934
712.399, 359.686
713.695, 387.444
714.992, 463.200
716.288, 575.954
717.584, 721.713
718.879, 833.472
720.175, 960.230
721.470, 1091.986
722.765, 1202.741
724.060, 1169.495
725.355, 1169.249
726.649, 1046.002
727.944, 967.753
729.238, 908.504
730.532, 731.254
731.825, 693.007
733.119, 549.759
734.412, 509.510
735.705, 441.261
736.998, 381.207
738.291, 363.512
739.584, 319.264
740.876, 268.019
742.168, 261.772
743.460, 203.525
744.752, 188.277
746.043, 200.233
747.334, 145.983
748.626, 143.845
749.916, 145.593
751.207, 125.508
752.498, 111.242
753.788, 105.018
755.078, 82.906
756.368, 75.659
757.658, 66.135
758.947, 85.823
760.237, 37.542
761.526, 61.292
762.815, 101.954
764.104, 60.702
765.392, 40.315
766.680, 36.972
767.969, 44.562
769.257, 57.149
770.544, 40.892
771.832, 71.635
773.119, 41.309
774.406, 41.052
775.693, 12.698
776.980, 30.341
778.267, 32.959
779.553, 13.591
780.839, 44.196
782.125, 16.830
783.411, 1.523
784.697, 53.141
785.982, 29.792
787.267, 12.124
788.552, 44.937
789.837, 20.534
791.122, 60.194
792.406, 17.855
793.690, 7.413
794.974, 33.135
796.258, 4.251
797.542, 2.439
798.825, 19.948
800.108, 31.630
801.391, 22.191
802.674, 1.829
803.957, 8.378
805.239, 12.916
806.522, 2.547
807.804, 22.210
809.085, 12.133
810.367, 26.467
811.649, 34.177
812.930, 7.857
814.211, 31.495
815.492, 10.827
816.772, 5.156
818.053, 14.907
819.333, 14.571
820.613, 38.211
821.893, 2.814
823.173, 5.769
824.452, 5.647
825.732, 3.134
827.011, 15.399
828.290, 9.309
829.568, 59.270
830.847, 2.237
832.125, 18.384
833.403, 7.278
834.681, 23.165
835.959, 26.293
837.236, 19.923
838.514, 1.552
839.791, 5.915
841.068, 10.709
842.345, 0.667
843.621, 22.956
844.898, 15.515
846.174, 19.091
847.450, 4.285
848.726, 17.664
850.001, 16.086
851.277, 40.483
852.552, 22.100
853.827, 43.684
855.102, 48.268
856.376, 13.853
857.651, 15.438
858.925, 22.024
860.199, 10.611
861.473, 5.198
862.746, 40.786
864.020, 20.374
865.293, 35.964
866.566, 53.554
867.839, 49.144
869.112, 89.736
870.384, 107.328
871.656, 166.922
872.928, 210.516
874.200, 230.111
875.472, 204.708
876.744, 171.305
878.015, 94.903
879.286, 72.503
880.557, 30.103
881.828, 55.705
883.098, 11.308
884.369, 22.912
885.639, 7.518
886.909, 22.125
888.178, 36.733
889.448, 3.658
890.717, 11.049
891.987, 25.557
893.256, 5.163
894.524, 4.771
895.793, 2.381
897.061, 20.992
898.330, 4.396
899.598, 4.217
900.865, 3.170
902.133, 13.444
903.401, 3.940
904.668, 16.675
905.935, 0.708
907.202, 24.089
908.468, 24.521
909.735, 15.867
911.001, 16.740
912.267, 25.350
913.533, 13.961
914.799, 76.575
916.064, 6.190
917.330, 8.808
918.595, 63.428
919.860, 12.051
921.124, 16.677
922.389, 17.305
923.653, 10.936
924.918, 34.568
926.182, 16.203
927.445, 31.841
928.709, 35.448
929.972, 32.091
931.236, 35.739
932.499, 1.636
933.761, 3.017
935.024, 70.665
936.286, 25.122
937.549, 40.783
938.811, 10.553
940.073, 11.856
941.334, 22.806
942.596, 33.472
943.857, 15.140
945.118, 34.812
946.379, 64.451
947.640, 22.128
948.900, 33.284
950.161, 40.797
951.421, 60.484
952.681, 53.997
953.940, 56.869
955.200, 54.374
956.459, 26.060
957.719, 47.765
958.978, 20.319
960.236, 53.030
961.495, 80.790
962.753, 45.716
964.012, 41.438
965.270, 36.158
966.527, 19.886
967.785, 50.753
969.043, 0.054
970.300, 8.687
971.557, 36.431
972.814, 28.180
974.071, 3.170
975.327, 76.590
976.583, 38.856
977.840, 60.266
979.095, 99.041
980.351, 40.136
981.607, 54.921
982.862, 77.417
984.117, 87.210
985.372, 77.013
986.627, 71.368
987.882, 78.180
989.136, 74.996
990.390, 80.114
991.644, 55.113
992.898, 89.941
994.152, 34.604
995.405, 35.443
996.659, 95.287
997.912, 88.140
999.165, 36.654
1000.417, 88.438
1001.670, 83.333
1002.922, 101.803
1004.174, 52.685
1005.426, 79.573
1006.678, 193.464
1007.930, 140.596
1009.181, 148.274
1010.432, 77.190
1011.683, 205.112
1012.934, 72.117
1014.185, 183.975
1015.435, 124.914
1016.685, 121.858
1017.935, 165.810
1019.185, 143.772
1020.435, 146.744
1021.684, 197.733
1022.934, 184.727
1024.183, 175.726
1025.432, 246.730
1026.680, 220.739
1027.929, 225.753
1029.177, 250.781
1030.425, 241.813
1031.673, 240.857
1032.921, 275.905
1034.169, 323.958
1035.416, 296.018
1036.663, 280.082
1037.911, 364.157
1039.157, 337.236
1040.404, 334.124
1041.650, 435.661
1042.897, 439.754
1044.143, 422.853
1045.389, 494.956
1046.634, 495.064
1047.880, 523.269
1049.125, 574.100
1050.371, 553.232
1051.615, 572.233
1052.860, 541.381
1054.105, 560.451
1055.349, 590.522
1056.593, 589.655
1057.837, 617.667
1059.081, 635.846
1060.325, 678.310
1061.568, 668.502
1062.812, 749.700
1064.055, 814.902
1065.298, 897.110
1066.540, 913.322
1067.783, 1011.539
1069.025, 1115.761
1070.267, 1280.001
1071.509, 1431.233
1072.751, 1477.473
1073.993, 1568.717
1075.234, 1659.967
1076.475, 1707.221
1077.716, 2021.606
1078.957, 2135.871
1080.198, 2460.325
1081.438, 2912.604
1082.679, 3442.859
1083.919, 4407.150
1085.159, 5656.446
1086.398, 7529.749
1087.638, 10723.057
1088.877, 15812.020
1090.116, 24170.953
1091.355, 35480.277
1092.594, 46059.609
1093.833, 52878.945
1095.071, 49198.289
1096.309, 40387.633
1097.547, 30266.986
1098.785, 20896.346
1100.023, 13785.709
1101.260, 9205.076
1102.498, 6294.450
1103.735, 4384.826
1104.972, 3208.209
1106.208, 2462.601
1107.445, 2008.993
1108.681, 1618.389
1109.918, 1382.791
1111.154, 1125.200
1112.389, 949.622
1113.625, 878.048
1114.860, 766.479
1116.096, 716.914
1117.331, 646.357
1118.566, 525.803
1119.800, 517.258
1121.035, 421.717
1122.269, 373.179
1123.503, 459.613
1124.737, 347.084
1125.971, 369.562
1127.205, 302.047
1128.438, 263.535
1129.671, 260.030
1130.904, 239.529
1132.137, 229.033
1133.370, 237.023
1134.602, 195.534
1135.834, 168.056
1137.066, 147.581
1138.298, 158.110
1139.530, 159.642
1140.762, 139.180
1141.993, 158.721
1143.224, 117.876
1144.455, 81.425
1145.686, 144.794
1146.917, 126.349
1148.147, 85.972
1149.377, 115.298
1150.607, 129.944
1151.837, 100.590
1153.067, 119.252
1154.296, 91.846
1155.526, 85.788
1156.755, 49.408
1157.984, 110.023
1159.213, 121.868
1160.441, 51.126
1161.670, 106.735
1162.898, 121.360
1164.126, 47.084
1165.354, 87.414
1166.581, 81.464
1167.809, 59.210
1169.036, 37.511
1170.263, 81.321
1171.490, 74.032
1172.717, 67.737
1173.943, 52.422
1175.170, 53.156
1176.396, 40.740
1177.622, 36.434
1178.848, 28.673
1180.073, 38.308
1181.299, 52.945
1182.524, 77.951
1183.749, 54.590
1184.974, 65.446
1186.199, 66.151
1187.423, 56.794
1188.648, 81.438
1189.872, 25.085
1191.096, 61.733
1192.320, 92.416
1193.543, 46.158
1194.767, 11.928
1195.990, 34.481
1197.213, 48.185
1198.436, 83.036
1199.659, 25.896
1200.881, 63.616
1202.104, 27.373
1203.326, 32.139
1204.548, 17.999
1205.770, 45.949
1206.991, 76.520
1208.213, 25.185
1209.434, 54.850
1210.655, 43.515
1211.876, 59.226
1213.096, 23.930
1214.317, 25.499
1215.537, 24.077
1216.757, 1.017
1217.977, 30.705
1219.197, 8.040
1220.417, 25.733
1221.636, 17.398
1222.855, 38.121
1224.074, 6.216
1225.293, 50.596
1226.512, 7.382
1227.731, 96.276
1228.949, 53.934
1230.167, 59.875
1231.385, 61.558
1232.603, 17.628
1233.820, 53.284
1235.038, 34.038
1236.255, 10.858
1237.472, 35.513
1238.689, 27.276
1239.906, 35.929
1241.122, 0.577
1242.338, 39.353
1243.555, 69.004
1244.771, 60.697
1245.986, 18.349
1247.202, 47.002
1248.417, 8.655
1249.633, 56.309
1250.848, 43.964
1252.063, 3.620
1253.277, 55.275
1254.492, 41.932
1255.706, 49.588
1256.920, 71.246
1258.134, 30.903
1259.348, 15.561
1260.562, 58.216
1261.775, 33.871
1262.988, 50.527
1264.201, 36.182
1265.414, 56.835
1266.627, 65.482
1267.839, 55.129
1269.052, 57.738
1270.264, 53.510
1271.476, 45.037
1272.688, 45.659
1273.899, 52.275
1275.111, 53.891
1276.322, 26.500
1277.533, 38.703
1278.744, 5.329
1279.955, 38.242
1281.165, 34.812
1282.376, 28.367
1283.586, 45.912
1284.796, 20.452
1286.006, 60.982
1287.215, 30.511
1288.425, 5.963
1289.634, 33.559
1290.843, 8.924
1292.052, 52.575
1293.261, 9.062
1294.469, 23.455
1295.678, 8.016
1296.886, 11.468
1298.094, 8.916
1299.302, 27.361
1300.509, 0.198
1301.717, 26.761
1302.924, 24.657
1304.131, 2.072
1305.338, 4.519
1306.545, 31.872
1307.752, 26.260
1308.958, 7.640
1310.164, 4.987
1311.370, 16.307
1312.576, 11.314
1313.782, 35.930
1314.987, 5.396
1316.193, 11.716
1317.398, 14.031
1318.603, 19.340
1319.807, 10.644
1321.012, 25.058
1322.216, 41.226
1323.421, 17.496
1324.625, 43.769
1325.829, 39.029
1327.032, 2.282
1328.236, 60.528
1329.439, 11.233
1330.642, 20.994
1331.845, 42.216
1333.048, 45.431
1334.251, 47.793
1335.453, 45.227
1336.656, 30.044
1337.858, 16.237
1339.060, 13.424
1340.261, 21.395
1341.463, 26.772
1342.664, 10.028
1343.866, 9.124
1345.067, 24.404
1346.267, 16.544
1347.468, 15.680
1348.669, 9.845
1349.869, 11.031
1351.069, 4.916
1352.269, 53.190
1353.469, 48.291
1354.668, 44.403
1355.868, 31.554
1357.067, 33.642
1358.266, 38.843
1359.465, 33.940
1360.664, 43.141
1361.862, 30.210
1363.061, 0.428
1364.259, 37.632
1365.457, 45.744
1366.655, 30.794
1367.852, 84.841
1369.050, 15.787
1370.247, 11.174
1371.444, 63.675
1372.641, 54.854
1373.838, 8.862
1375.035, 39.922
1376.231, 4.966
1377.427, 56.083
1378.623, 23.073
1379.819, 15.997
1381.015, 111.980
1382.211, 22.098
1383.406, 50.977
1384.601, 81.219
1385.796, 20.707
1386.991, 69.191
1388.185, 39.671
1389.380, 67.147
1390.574, 87.613
1391.768, 70.080
1392.962, 76.542
1394.156, 73.998
1395.350, 67.450
1396.543, 111.897
1397.736, 119.339
1398.929, 78.776
1400.122, 137.207
1401.315, 116.633
1402.507, 107.054
1403.700, 100.913
1404.892, 116.320
1406.084, 123.721
1407.276, 185.119
1408.467, 144.780
1409.659, 144.172
1410.850, 186.463
1412.041, 149.561
1413.232, 204.735
1414.423, 231.629
1415.614, 192.351
1416.804, 290.488
1417.994, 273.744
1419.184, 311.924
1420.374, 350.761
1421.564, 341.103
1422.753, 376.042
1423.943, 374.976
1425.132, 428.273
1426.321, 493.151
1427.510, 511.703
1428.698, 527.008
1429.887, 567.950
1431.075, 636.981
1432.263, 678.955
1433.451, 723.118
1434.639, 778.644
1435.827, 808.416
1437.014, 851.077
1438.201, 915.488
1439.388, 909.816
1440.575, 881.658
1441.762, 957.414
1442.949, 968.140
1444.135, 880.879
1445.321, 792.405
1446.507, 726.118
1447.693, 642.763
1448.879, 549.747
1450.064, 545.435
1451.250, 451.528
1452.435, 410.386
1453.620, 346.495
1454.805, 312.883
1455.989, 287.258
1457.174, 260.778
1458.358, 251.218
1459.542, 246.706
1460.726, 228.156
1461.910, 225.566
1463.093, 210.934
1464.277, 191.258
1465.460, 171.543
1466.643, 177.786
1467.826, 118.987
1469.009, 143.167
1470.191, 126.346
1471.373, 85.514
1472.556, 104.687
1473.738, 102.874
1474.919, 82.145
1476.101, 94.414
1477.283, 42.737
1478.464, 88.074
1479.645, 94.375
1480.826, 98.684
1482.007, 68.060
1483.187, 100.473
1484.368, 20.910
1485.548, 116.328
1486.728, 0.761
1487.908, 70.218
1489.088, 81.712
1490.268, 21.237
1491.447, 49.771
1492.626, 59.308
1493.805, 41.848
1494.984, 30.394
1496.163, 25.953
1497.341, 15.535
1498.520, 31.147
1499.698, 2.795
1500.876, 25.479
1502.054, 2.197
1503.232, 27.950
1504.409, 4.257
1505.586, 44.318
1506.763, 17.207
1507.940, 89.042
1509.117, 31.624
1510.294, 25.510
1511.470, 67.292
1512.647, 43.638
1513.823, 2.027
1514.999, 69.125
1516.174, 15.594
1517.350, 17.755
1518.526, 3.908
1519.701, 27.111
1520.876, 55.822
1522.051, 14.263
1523.226, 0.208
1524.400, 10.767
1525.574, 0.000
##END=



