##NAMES=Ankerite
##RRUFFID=R050181
##IDEAL CHEMISTRY=CaFe^2+^(CO_3_)_2_
##LOCALITY=Cerro Sapo, Cochabamba Department, Bolivia
##OWNER=RRUFF
##SOURCE=Marcus Origlieri
##DESCRIPTION=White coarsely crystalline massive
##STATUS=The identification of this mineral has been confirmed by X-ray diffraction and chemical analysis
##URL=rruff.info/R050181
##MEASURED CHEMISTRY=Ca_1.00_(Fe^2+^_0.60_Mg_0.35_Mn^2+^_0.05_)_Î£=1_(CO_3_)_2_ ; C not measured but estimated by difference and stoichiometry
##PIN_ID=M00493
##ORIENTATION=Laser parallel to -a* (-1 0 0). Fiducial mark perpendicular to laser is parallel to c [0 0 1]
91.284, 0.000
92.678, 14.334
94.071, 53.296
95.465, 73.978
96.858, 77.684
98.251, 56.448
99.644, 74.922
101.036, 42.548
102.428, 32.617
103.820, 76.303
105.212, 5.760
106.604, 57.980
107.995, 29.861
109.387, 102.016
110.777, 125.867
112.168, 120.995
113.559, 144.885
114.949, 125.936
116.339, 196.123
117.729, 176.166
119.119, 210.979
120.508, 127.180
121.897, 51.941
123.286, 0.161
124.675, 7.425
126.063, 46.029
127.452, 43.581
128.840, 9.926
130.228, 37.678
131.615, 28.756
133.003, 51.090
134.390, 101.637
135.777, 48.443
137.164, 94.582
138.550, 153.452
139.937, 130.577
141.323, 175.027
142.709, 178.152
144.094, 225.597
145.480, 248.269
146.865, 251.877
148.250, 291.094
149.635, 324.740
151.019, 318.563
152.403, 434.916
153.788, 462.849
155.171, 557.892
156.555, 594.657
157.939, 764.519
159.322, 862.112
160.705, 1019.252
162.088, 1208.963
163.470, 1470.823
164.853, 1776.036
166.235, 1968.353
167.617, 2156.253
168.998, 2289.039
170.380, 2252.052
171.761, 2110.872
173.142, 1823.795
174.523, 1527.657
175.904, 1214.492
177.284, 1020.105
178.664, 741.725
180.044, 568.420
181.424, 487.170
182.803, 344.959
184.183, 248.782
185.562, 232.635
186.940, 205.510
188.319, 134.401
189.698, 100.297
191.076, 81.170
192.454, 66.025
193.831, 57.850
195.209, 11.645
196.586, 46.411
197.963, 30.150
199.340, 14.865
200.717, 36.553
202.093, 11.217
203.470, 2.853
204.846, 2.523
206.221, 7.375
207.597, 8.583
208.972, 10.480
210.347, 12.646
211.722, 11.775
213.097, 15.947
214.472, 9.412
215.846, 9.873
217.220, 11.603
218.594, 12.543
219.967, 39.525
221.341, 5.599
222.714, 8.679
224.087, 13.683
225.460, 23.620
226.832, 25.390
228.204, 22.693
229.577, 28.148
230.948, 7.365
232.320, 15.228
233.692, 21.320
235.063, 12.064
236.434, 0.020
237.805, 20.438
239.175, 0.976
240.545, 25.667
241.916, 35.359
243.286, 12.945
244.655, 36.579
246.025, 41.081
247.394, 34.462
248.763, 69.742
250.132, 59.944
251.501, 110.949
252.869, 115.055
254.237, 113.229
255.605, 153.525
256.973, 190.363
258.340, 238.942
259.708, 243.238
261.075, 256.261
262.442, 337.088
263.808, 379.645
265.175, 471.218
266.541, 508.255
267.907, 583.994
269.273, 657.857
270.639, 742.686
272.004, 851.114
273.369, 949.042
274.734, 1071.128
276.099, 1149.071
277.463, 1318.944
278.828, 1364.952
280.192, 1443.568
281.556, 1585.110
282.919, 1599.593
284.283, 1588.064
285.646, 1646.255
287.009, 1580.002
288.372, 1553.957
289.734, 1480.058
291.097, 1382.399
292.459, 1265.634
293.821, 1179.258
295.183, 1080.121
296.544, 1002.781
297.905, 889.585
299.266, 814.504
300.627, 730.031
301.988, 647.768
303.348, 565.865
304.709, 514.586
306.069, 451.490
307.428, 412.111
308.788, 382.993
310.147, 336.716
311.507, 280.415
312.865, 283.041
314.224, 249.529
315.583, 237.985
316.941, 259.245
318.299, 226.364
319.657, 218.439
321.015, 193.504
322.372, 179.339
323.729, 198.138
325.086, 206.786
326.443, 211.434
327.800, 196.990
329.156, 182.412
330.512, 204.780
331.868, 181.101
333.224, 198.380
334.579, 211.619
335.935, 228.825
337.290, 215.614
338.645, 207.292
339.999, 183.317
341.354, 168.425
342.708, 153.512
344.062, 143.577
345.416, 132.813
346.769, 139.639
348.123, 120.331
349.476, 116.633
350.829, 120.408
352.182, 95.564
353.534, 115.452
354.887, 93.165
356.239, 94.735
357.591, 103.197
358.942, 69.819
360.294, 90.113
361.645, 107.160
362.996, 83.877
364.347, 105.010
365.698, 89.608
367.048, 59.842
368.398, 56.057
369.748, 68.506
371.098, 55.944
372.448, 61.408
373.797, 56.680
375.146, 59.007
376.495, 62.072
377.844, 50.550
379.192, 73.073
380.540, 57.639
381.889, 155.223
383.236, 112.744
384.584, 105.652
385.932, 99.058
387.279, 35.640
388.626, 70.385
389.973, 36.868
391.319, 58.521
392.666, 32.835
394.012, 35.454
395.358, 14.017
396.704, 39.766
398.049, 7.101
399.394, 23.201
400.740, 21.025
402.084, 18.201
403.429, 22.881
404.774, 19.679
406.118, 18.762
407.462, 40.977
408.806, 23.807
410.150, 1.575
411.493, 21.633
412.836, 8.397
414.179, 17.880
415.522, 4.164
416.865, 14.570
418.207, 16.852
419.549, 25.387
420.891, 35.085
422.233, 40.763
423.575, 27.458
424.916, 21.164
426.257, 8.164
427.598, 29.473
428.939, 46.078
430.279, 18.653
431.619, 11.196
432.959, 24.713
434.299, 43.200
435.639, 43.661
436.978, 53.094
438.318, 23.501
439.657, 7.119
440.996, 26.232
442.334, 41.557
443.673, 34.857
445.011, 18.133
446.349, 29.385
447.687, 28.614
449.024, 22.820
450.361, 10.016
451.699, 30.192
453.036, 22.348
454.372, 41.484
455.709, 44.603
457.045, 42.704
458.381, 35.789
459.717, 62.855
461.053, 51.905
462.388, 59.939
463.724, 11.957
465.059, 56.956
466.394, 32.939
467.728, 78.915
469.063, 31.864
470.397, 55.796
471.731, 38.711
473.065, 30.609
474.398, 40.490
475.732, 20.357
477.065, 39.163
478.398, 51.011
479.731, 42.760
481.063, 28.471
482.396, 76.069
483.728, 53.603
485.060, 64.207
486.391, 46.840
487.723, 47.489
489.054, 61.070
490.385, 73.590
491.716, 71.200
493.047, 83.707
494.377, 65.281
495.708, 61.910
497.038, 56.634
498.368, 45.272
499.697, 87.871
501.027, 93.367
502.356, 92.822
503.685, 81.185
505.014, 82.503
506.342, 76.775
507.671, 107.070
508.999, 68.285
510.327, 87.481
511.655, 96.693
512.982, 76.801
514.310, 100.997
515.637, 80.105
516.964, 87.228
518.291, 110.390
519.617, 111.421
520.944, 84.542
522.270, 87.742
523.596, 92.856
524.921, 110.063
526.247, 100.214
527.572, 114.253
528.897, 109.369
530.222, 109.107
531.547, 112.456
532.871, 101.564
534.196, 127.673
535.520, 114.818
536.844, 91.997
538.167, 105.146
539.491, 137.399
540.814, 98.597
542.137, 111.213
543.460, 87.655
544.783, 108.078
546.105, 107.481
547.427, 89.627
548.749, 107.925
550.071, 131.107
551.393, 86.403
552.714, 75.617
554.035, 128.857
555.356, 105.015
556.677, 111.303
557.998, 129.471
559.318, 120.717
560.638, 110.976
561.958, 86.232
563.278, 86.000
564.597, 101.789
565.917, 77.067
567.236, 93.442
568.555, 92.751
569.874, 102.972
571.192, 102.280
572.511, 72.383
573.829, 139.681
575.147, 130.924
576.464, 107.901
577.782, 99.200
579.099, 93.768
580.416, 83.912
581.733, 86.312
583.050, 78.657
584.366, 69.976
585.683, 62.095
586.999, 69.449
588.315, 85.873
589.630, 61.183
590.946, 63.463
592.261, 45.801
593.576, 85.216
594.891, 67.635
596.206, 73.097
597.520, 51.436
598.834, 76.586
600.148, 47.940
601.462, 45.360
602.776, 61.753
604.089, 54.605
605.402, 56.276
606.715, 41.370
608.028, 49.538
609.341, 47.838
610.653, 37.284
611.965, 51.658
613.277, 43.096
614.589, 35.566
615.901, 59.014
617.212, 17.436
618.523, 36.496
619.834, 69.990
621.145, 39.540
622.456, 50.266
623.766, 23.789
625.076, 2.214
626.386, 21.204
627.696, 41.631
629.006, 21.329
630.315, 36.789
631.624, 19.218
632.933, 47.284
634.242, 15.771
635.551, 15.116
636.859, 25.744
638.167, 38.494
639.475, 42.345
640.783, 48.799
642.090, 40.349
643.398, 13.946
644.705, 48.554
646.012, 32.089
647.318, 33.071
648.625, 46.033
649.931, 16.145
651.237, 42.737
652.543, 17.623
653.849, 4.273
655.155, 39.411
656.460, 39.980
657.765, 41.307
659.070, 4.893
660.375, 59.580
661.679, 26.725
662.984, 28.850
664.288, 38.435
665.592, 34.811
666.895, 40.374
668.199, 40.148
669.502, 43.149
670.805, 42.854
672.108, 38.013
673.411, 48.097
674.713, 40.999
676.016, 43.353
677.318, 42.943
678.620, 31.240
679.921, 51.171
681.223, 22.762
682.524, 61.354
683.825, 51.945
685.126, 59.266
686.427, 56.276
687.727, 60.162
689.028, 78.062
690.328, 79.075
691.628, 91.252
692.927, 96.743
694.227, 104.186
695.526, 103.546
696.825, 120.494
698.124, 121.122
699.423, 125.713
700.721, 135.303
702.020, 163.892
703.318, 180.480
704.616, 195.067
705.913, 223.978
707.211, 278.241
708.508, 292.827
709.805, 341.412
711.102, 414.997
712.399, 551.582
713.695, 602.166
714.992, 747.749
716.288, 851.333
717.584, 1028.915
718.879, 1207.497
720.175, 1379.078
721.470, 1522.658
722.765, 1643.238
724.060, 1615.816
725.355, 1530.394
726.649, 1348.971
727.944, 1169.547
729.238, 1003.123
730.532, 785.699
731.825, 701.274
733.119, 529.849
734.412, 437.423
735.705, 343.997
736.998, 302.569
738.291, 281.140
739.584, 208.710
740.876, 136.279
742.168, 160.848
743.460, 96.416
744.752, 79.982
746.043, 89.548
747.334, 67.112
748.626, 64.676
749.916, 34.238
751.207, 42.243
752.498, 28.021
753.788, 37.360
755.078, 16.918
756.368, 21.475
757.658, 25.030
758.947, 6.416
760.237, 9.133
761.526, 31.679
762.815, 27.775
764.104, 35.754
765.392, 3.281
766.680, 7.807
767.969, 20.331
769.257, 7.854
770.544, 21.518
771.832, 25.038
773.119, 5.444
774.406, 22.067
775.693, 6.577
776.980, 2.915
778.267, 20.588
779.553, 16.089
780.839, 2.423
782.125, 10.071
783.411, 1.563
784.697, 59.052
785.982, 22.299
787.267, 5.974
788.552, 3.505
789.837, 43.019
791.122, 3.432
792.406, 17.121
793.690, 2.686
794.974, 10.257
796.258, 39.163
797.542, 9.581
798.825, 14.003
800.108, 12.401
801.391, 19.196
802.674, 1.807
803.957, 4.424
805.239, 22.953
806.522, 17.673
807.804, 4.688
809.085, 4.980
810.367, 6.371
811.649, 8.279
812.930, 15.062
814.211, 3.375
815.492, 5.289
816.772, 4.960
818.053, 26.362
819.333, 9.318
820.613, 10.994
821.893, 3.696
823.173, 2.608
824.452, 15.091
825.732, 5.802
827.011, 21.520
828.290, 3.748
829.568, 12.013
830.847, 8.276
832.125, 8.462
833.403, 2.209
834.681, 14.040
835.959, 25.287
837.236, 16.533
838.514, 9.223
839.791, 3.987
841.068, 9.756
842.345, 11.534
843.621, 4.248
844.898, 24.113
846.174, 0.080
847.450, 14.269
848.726, 2.543
850.001, 3.360
851.277, 3.819
852.552, 26.996
853.827, 19.172
855.102, 48.346
856.376, 24.519
857.651, 34.813
858.925, 33.863
860.199, 30.033
861.473, 36.202
862.746, 21.370
864.020, 16.537
865.293, 27.704
866.566, 32.869
867.839, 44.996
869.112, 63.475
870.384, 78.360
871.656, 103.522
872.928, 126.684
874.200, 143.844
875.472, 140.005
876.744, 120.164
878.015, 62.323
879.286, 74.482
880.557, 44.640
881.828, 53.797
883.098, 51.955
884.369, 23.112
885.639, 41.268
886.909, 46.424
888.178, 19.580
889.448, 46.736
890.717, 22.891
891.987, 43.047
893.256, 17.202
894.524, 14.357
895.793, 43.512
897.061, 18.667
898.330, 12.823
899.598, 37.978
900.865, 11.133
902.133, 21.289
903.401, 9.556
904.668, 23.596
905.935, 18.748
907.202, 17.900
908.468, 29.052
909.735, 30.205
911.001, 30.358
912.267, 42.984
913.533, 35.289
914.799, 24.277
916.064, 22.615
917.330, 28.771
918.595, 18.868
919.860, 18.006
921.124, 52.165
922.389, 5.693
923.653, 23.467
924.918, 37.628
926.182, 17.267
927.445, 68.430
928.709, 27.575
929.972, 25.345
931.236, 43.512
932.499, 25.680
933.761, 36.472
935.024, 39.642
936.286, 1.645
937.549, 0.818
938.811, 44.994
940.073, 20.578
941.334, 58.661
942.596, 41.969
943.857, 15.050
945.118, 30.978
946.379, 5.751
947.640, 19.083
948.900, 8.274
950.161, 7.903
951.421, 24.583
952.681, 20.781
953.940, 43.593
955.200, 40.085
956.459, 10.114
957.719, 41.324
958.978, 29.243
960.236, 32.398
961.495, 55.068
962.753, 43.270
964.012, 35.755
965.270, 79.983
966.527, 9.112
967.785, 56.786
969.043, 31.484
970.300, 36.724
971.557, 42.178
972.814, 69.425
974.071, 46.220
975.327, 27.350
976.583, 62.490
977.840, 32.181
979.095, 71.950
980.351, 31.141
981.607, 53.414
982.862, 78.691
984.117, 99.264
985.372, 91.209
986.627, 58.498
987.882, 95.791
989.136, 80.089
990.390, 65.661
991.644, 64.549
992.898, 111.109
994.152, 62.574
995.405, 102.474
996.659, 98.218
997.912, 63.358
999.165, 86.697
1000.417, 62.723
1001.670, 107.716
1002.922, 126.035
1004.174, 122.393
1005.426, 117.756
1006.678, 120.125
1007.930, 124.897
1009.181, 133.007
1010.432, 143.277
1011.683, 152.674
1012.934, 166.075
1014.185, 175.334
1015.435, 187.027
1016.685, 195.311
1017.935, 209.740
1019.185, 218.173
1020.435, 229.612
1021.684, 243.933
1022.934, 250.518
1024.183, 270.982
1025.432, 270.456
1026.680, 279.936
1027.929, 295.423
1029.177, 312.921
1030.425, 292.425
1031.673, 361.938
1032.921, 371.457
1034.169, 393.981
1035.416, 379.511
1036.663, 405.046
1037.911, 415.587
1039.157, 449.134
1040.404, 463.686
1041.650, 521.247
1042.897, 514.814
1044.143, 553.387
1045.389, 633.975
1046.634, 593.569
1047.880, 663.168
1049.125, 685.773
1050.371, 648.384
1051.615, 698.000
1052.860, 674.625
1054.105, 716.814
1055.349, 701.452
1056.593, 746.096
1057.837, 866.746
1059.081, 847.402
1060.325, 879.073
1061.568, 957.748
1062.812, 958.440
1064.055, 1072.137
1065.298, 1133.840
1066.540, 1210.562
1067.783, 1379.290
1069.025, 1495.025
1070.267, 1639.849
1071.509, 1868.510
1072.751, 1968.318
1073.993, 2073.081
1075.234, 2281.850
1076.475, 2342.629
1077.716, 2670.413
1078.957, 2893.205
1080.198, 3361.004
1081.438, 3958.810
1082.679, 4656.624
1083.919, 6006.446
1085.159, 7677.277
1086.398, 10266.113
1087.638, 14735.958
1088.877, 21875.811
1090.116, 33385.676
1091.355, 48525.539
1092.594, 61705.426
1093.833, 64085.316
1095.071, 63305.227
1096.309, 51045.152
1097.547, 37805.078
1098.785, 25555.002
1100.023, 16744.939
1101.260, 11104.887
1102.498, 7560.841
1103.735, 5277.805
1104.972, 3926.777
1106.208, 2994.163
1107.445, 2473.148
1108.681, 1971.144
1109.918, 1647.146
1111.154, 1425.156
1112.389, 1187.188
1113.625, 1090.212
1114.860, 922.242
1116.096, 826.277
1117.331, 753.321
1118.566, 661.372
1119.800, 626.429
1121.035, 551.495
1122.269, 527.566
1123.503, 525.644
1124.737, 550.729
1125.971, 470.823
1127.205, 424.925
1128.438, 371.039
1129.671, 303.158
1130.904, 315.305
1132.137, 270.435
1133.370, 259.572
1134.602, 235.717
1135.834, 224.877
1137.066, 217.031
1138.298, 194.051
1139.530, 176.356
1140.762, 161.529
1141.993, 147.711
1143.224, 143.907
1144.455, 120.591
1145.686, 145.661
1146.917, 129.888
1148.147, 115.106
1149.377, 136.329
1150.607, 137.558
1151.837, 113.824
1153.067, 127.095
1154.296, 92.337
1155.526, 68.868
1156.755, 79.784
1157.984, 110.068
1159.213, 102.349
1160.441, 82.610
1161.670, 76.874
1162.898, 80.212
1164.126, 64.095
1165.354, 48.147
1166.581, 52.433
1167.809, 33.723
1169.036, 40.452
1170.263, 28.235
1171.490, 27.888
1172.717, 8.232
1173.943, 38.528
1175.170, 29.488
1176.396, 54.960
1177.622, 60.253
1178.848, 62.682
1180.073, 66.008
1181.299, 40.371
1182.524, 22.722
1183.749, 23.243
1184.974, 28.448
1186.199, 22.824
1187.423, 38.148
1188.648, 51.423
1189.872, 23.751
1191.096, 77.120
1192.320, 31.880
1193.543, 38.247
1194.767, 72.589
1195.990, 21.925
1197.213, 33.360
1198.436, 30.700
1199.659, 14.920
1200.881, 36.491
1202.104, 18.996
1203.326, 5.383
1204.548, 45.769
1205.770, 15.301
1206.991, 20.693
1208.213, 22.079
1209.434, 30.194
1210.655, 12.548
1211.876, 39.953
1213.096, 60.624
1214.317, 39.980
1215.537, 55.498
1216.757, 15.856
1217.977, 40.214
1219.197, 10.713
1220.417, 14.383
1221.636, 51.001
1222.855, 16.427
1224.074, 21.927
1225.293, 28.620
1226.512, 37.012
1227.731, 32.662
1228.949, 48.446
1230.167, 44.438
1231.385, 24.960
1232.603, 41.710
1233.820, 41.067
1235.038, 39.305
1236.255, 43.669
1237.472, 23.112
1238.689, 44.309
1239.906, 33.905
1241.122, 41.204
1242.338, 2.935
1243.555, 35.331
1244.771, 15.793
1245.986, 13.193
1247.202, 11.556
1248.417, 4.922
1249.633, 5.288
1250.848, 6.655
1252.063, 12.935
1253.277, 17.475
1254.492, 39.844
1255.706, 28.214
1256.920, 27.584
1258.134, 1.044
1259.348, 37.328
1260.562, 1.700
1261.775, 48.074
1262.988, 18.448
1264.201, 12.823
1265.414, 30.216
1266.627, 17.584
1267.839, 18.952
1269.052, 23.052
1270.264, 14.424
1271.476, 28.044
1272.688, 7.401
1273.899, 12.758
1275.111, 13.106
1276.322, 0.546
1277.533, 12.792
1278.744, 10.119
1279.955, 15.441
1281.165, 0.754
1282.376, 14.060
1283.586, 9.365
1284.796, 6.667
1286.006, 17.969
1287.215, 7.262
1288.425, 5.539
1289.634, 7.187
1290.843, 12.917
1292.052, 5.342
1293.261, 20.596
1294.469, 10.847
1295.678, 18.080
1296.886, 3.299
1298.094, 3.514
1299.302, 25.717
1300.509, 2.083
1301.717, 23.894
1302.924, 6.277
1304.131, 8.444
1305.338, 18.604
1306.545, 23.755
1307.752, 3.895
1308.958, 11.029
1310.164, 17.850
1311.370, 15.254
1312.576, 15.350
1313.782, 18.561
1314.987, 2.517
1316.193, 6.411
1317.398, 11.769
1318.603, 21.707
1319.807, 5.245
1321.012, 13.206
1322.216, 9.823
1323.421, 11.155
1324.625, 17.856
1325.829, 10.860
1327.032, 13.857
1328.236, 27.848
1329.439, 8.831
1330.642, 11.807
1331.845, 31.777
1333.048, 8.261
1334.251, 39.690
1335.453, 15.634
1336.656, 31.429
1337.858, 17.490
1339.060, 24.402
1340.261, 27.307
1341.463, 11.206
1342.664, 41.097
1343.866, 6.018
1345.067, 5.856
1346.267, 8.723
1347.468, 18.583
1348.669, 19.438
1349.869, 8.286
1351.069, 23.873
1352.269, 20.954
1353.469, 19.226
1354.668, 64.581
1355.868, 18.383
1357.067, 11.822
1358.266, 46.962
1359.465, 11.011
1360.664, 36.784
1361.862, 49.551
1363.061, 1.687
1364.259, 2.128
1365.457, 7.618
1366.655, 18.359
1367.852, 13.096
1369.050, 5.827
1370.247, 24.554
1371.444, 7.263
1372.641, 3.966
1373.838, 0.661
1375.035, 11.350
1376.231, 5.032
1377.427, 39.708
1378.623, 7.382
1379.819, 0.076
1381.015, 67.744
1382.211, 2.611
1383.406, 10.625
1384.601, 11.853
1385.796, 20.076
1386.991, 28.295
1388.185, 20.510
1389.380, 28.292
1390.574, 46.493
1391.768, 38.690
1392.962, 53.865
1394.156, 53.051
1395.350, 30.232
1396.543, 30.408
1397.736, 71.579
1398.929, 50.744
1400.122, 45.904
1401.315, 75.032
1402.507, 61.180
1403.700, 61.310
1404.892, 84.448
1406.084, 80.581
1407.276, 84.701
1408.467, 38.170
1409.659, 66.253
1410.850, 107.349
1412.041, 71.357
1413.232, 95.078
1414.423, 103.964
1415.614, 112.983
1416.804, 152.936
1417.994, 156.077
1419.184, 163.118
1420.374, 179.946
1421.564, 210.508
1422.753, 214.537
1423.943, 255.748
1425.132, 231.121
1426.321, 281.885
1427.510, 304.637
1428.698, 287.433
1429.887, 306.877
1431.075, 357.971
1432.263, 386.707
1433.451, 417.349
1434.639, 470.743
1435.827, 512.885
1437.014, 579.510
1438.201, 568.588
1439.388, 611.272
1440.575, 618.824
1441.762, 658.193
1442.949, 673.500
1444.135, 655.810
1445.321, 603.569
1446.507, 567.702
1447.693, 508.523
1448.879, 473.653
1450.064, 461.578
1451.250, 399.231
1452.435, 374.694
1453.620, 312.351
1454.805, 267.702
1455.989, 250.937
1457.174, 227.591
1458.358, 222.751
1459.542, 200.870
1460.726, 200.761
1461.910, 188.990
1463.093, 183.768
1464.277, 160.699
1465.460, 153.577
1466.643, 148.822
1467.826, 134.159
1469.009, 137.910
1470.191, 137.653
1471.373, 119.359
1472.556, 105.050
1473.738, 111.775
1474.919, 72.512
1476.101, 119.214
1477.283, 85.876
1478.464, 67.592
1479.645, 105.271
1480.826, 80.927
1482.007, 51.670
1483.187, 65.437
1484.368, 23.214
1485.548, 65.024
1486.728, 62.839
1487.908, 19.698
1489.088, 73.629
1490.268, 41.601
1491.447, 44.569
1492.626, 23.525
1493.805, 31.477
1494.984, 33.428
1496.163, 44.387
1497.341, 14.361
1498.520, 37.357
1499.698, 32.377
1500.876, 4.575
1502.054, 29.509
1503.232, 16.634
1504.409, 5.798
1505.586, 28.004
1506.763, 8.251
1507.940, 18.533
1509.117, 29.857
1510.294, 18.235
1511.470, 23.679
1512.647, 0.788
1513.823, 28.988
1514.999, 26.175
1516.174, 3.314
1517.350, 27.343
1518.526, 15.509
1519.701, 16.061
1520.876, 0.172
1522.051, 7.047
1523.226, 0.000
##END=



