##NAMES=Ankerite
##RRUFFID=R050181
##IDEAL CHEMISTRY=CaFe^2+^(CO_3_)_2_
##LOCALITY=Cerro Sapo, Cochabamba Department, Bolivia
##OWNER=RRUFF
##SOURCE=Marcus Origlieri
##DESCRIPTION=White coarsely crystalline massive
##STATUS=The identification of this mineral has been confirmed by X-ray diffraction and chemical analysis
##URL=rruff.info/R050181
##MEASURED CHEMISTRY=Ca_1.00_(Fe^2+^_0.60_Mg_0.35_Mn^2+^_0.05_)_Î£=1_(CO_3_)_2_ ; C not measured but estimated by difference and stoichiometry
##PIN_ID=L00069
##ORIENTATION=Laser parallel to c* (0 0 1). Fiducial mark perpendicular to laser is parallel to -b [0 -1 0]
82.916, 0.000
84.311, 20.406
85.706, 35.218
87.101, 56.013
88.496, 17.141
89.890, 16.414
91.284, 8.385
92.678, 27.576
94.071, 23.169
95.465, 53.298
96.858, 48.886
98.251, 62.868
99.644, 60.194
101.036, 77.821
102.428, 112.717
103.820, 100.856
105.212, 110.213
106.604, 118.766
107.995, 170.496
109.387, 194.388
110.777, 157.425
112.168, 129.594
113.559, 239.884
114.949, 307.283
116.339, 348.783
117.729, 351.375
119.119, 339.054
120.508, 265.837
121.897, 282.717
123.286, 248.671
124.675, 283.694
126.063, 273.783
127.452, 236.934
128.840, 251.145
130.228, 272.408
131.615, 256.722
133.003, 286.065
134.390, 318.482
135.777, 319.922
137.164, 334.398
138.550, 341.908
139.937, 350.784
141.323, 360.106
142.709, 376.614
144.094, 374.234
145.480, 398.893
146.865, 404.541
148.250, 448.223
149.635, 485.923
151.019, 491.639
152.403, 564.376
153.788, 601.165
155.171, 663.980
156.555, 738.874
157.939, 872.663
159.322, 970.607
160.705, 1134.567
162.088, 1366.539
163.470, 1593.540
164.853, 1869.553
166.235, 2080.599
167.617, 2238.651
168.998, 2333.737
170.380, 2166.854
171.761, 1992.989
173.142, 1627.120
174.523, 1353.246
175.904, 1057.378
177.284, 831.520
178.664, 639.655
180.044, 493.786
181.424, 418.927
182.803, 314.071
184.183, 258.213
185.562, 182.354
186.940, 146.502
188.319, 169.644
189.698, 106.787
191.076, 84.927
192.454, 107.062
193.831, 54.198
195.209, 81.332
196.586, 56.462
197.963, 67.588
199.340, 31.710
200.717, 76.834
202.093, 84.953
203.470, 16.069
204.846, 17.182
206.221, 39.289
207.597, 32.392
208.972, 19.491
210.347, 50.585
211.722, 28.673
213.097, 14.757
214.472, 26.836
215.846, 47.910
217.220, 36.979
218.594, 43.070
219.967, 45.277
221.341, 25.537
222.714, 29.325
224.087, 29.560
225.460, 6.781
226.832, 24.760
228.204, 2.939
229.577, 40.357
230.948, 19.079
232.320, 76.643
233.692, 28.743
235.063, 58.930
236.434, 68.383
237.805, 61.546
239.175, 54.588
240.545, 67.413
241.916, 89.216
243.286, 87.472
244.655, 97.493
246.025, 113.557
247.394, 117.834
248.763, 139.879
250.132, 171.863
251.501, 204.904
252.869, 204.227
254.237, 223.998
255.605, 252.418
256.973, 279.039
258.340, 364.931
259.708, 404.204
261.075, 478.080
262.442, 535.087
263.808, 571.049
265.175, 666.914
266.541, 720.460
267.907, 851.590
269.273, 962.388
270.639, 1053.302
272.004, 1255.268
273.369, 1382.135
274.734, 1482.126
276.099, 1687.197
277.463, 1820.922
278.828, 1962.059
280.192, 2069.345
281.556, 2113.325
282.919, 2146.454
284.283, 2148.237
285.646, 2124.625
287.009, 2071.624
288.372, 1971.261
289.734, 1885.195
291.097, 1777.109
292.459, 1578.081
293.821, 1483.310
295.183, 1343.319
296.544, 1207.290
297.905, 1071.204
299.266, 929.118
300.627, 809.194
301.988, 702.935
303.348, 607.323
304.709, 531.377
306.069, 475.284
307.428, 435.291
308.788, 379.193
310.147, 327.120
311.507, 292.018
312.865, 232.965
314.224, 218.902
315.583, 164.245
316.941, 176.132
318.299, 171.016
319.657, 141.897
321.015, 144.878
322.372, 117.747
323.729, 144.696
325.086, 109.557
326.443, 94.415
327.800, 126.268
329.156, 113.117
330.512, 100.996
331.868, 98.836
333.224, 120.671
334.579, 86.502
335.935, 88.328
337.290, 127.148
338.645, 80.964
339.999, 55.775
341.354, 91.581
342.708, 53.382
344.062, 60.177
345.416, 43.968
346.769, 77.753
348.123, 56.534
349.476, 49.309
350.829, 39.078
352.182, 26.843
353.534, 29.602
354.887, 6.355
356.239, 19.103
357.591, 5.846
358.942, 29.582
360.294, 21.687
361.645, 16.032
362.996, 9.746
364.347, 5.454
365.698, 23.155
367.048, 11.149
368.398, 35.538
369.748, 3.220
371.098, 8.895
372.448, 13.564
373.797, 1.228
375.146, 16.115
376.495, 14.469
377.844, 19.255
379.192, 1.792
380.540, 10.590
381.889, 3.018
383.236, 17.619
384.584, 5.214
385.932, 1.795
387.279, 0.631
388.626, 24.934
389.973, 3.490
391.319, 22.015
392.666, 24.556
394.012, 0.683
395.358, 5.807
396.704, 7.311
398.049, 9.176
399.394, 0.654
400.740, 13.125
402.084, 16.590
403.429, 25.044
404.774, 6.489
406.118, 11.074
407.462, 4.353
408.806, 14.232
410.150, 16.167
411.493, 10.560
412.836, 15.054
414.179, 21.683
415.522, 14.331
416.865, 23.074
418.207, 21.675
419.549, 12.374
420.891, 2.087
422.233, 16.191
423.575, 4.463
424.916, 9.727
426.257, 30.986
427.598, 4.761
428.939, 2.480
430.279, 8.287
431.619, 30.933
432.959, 20.453
434.299, 56.354
435.639, 18.556
436.978, 8.751
438.318, 6.060
439.657, 5.115
440.996, 1.231
442.334, 27.440
443.673, 6.592
445.011, 15.735
446.349, 6.874
447.687, 26.009
449.024, 3.862
450.361, 42.259
451.699, 58.374
453.036, 33.483
454.372, 3.590
455.709, 24.693
457.045, 33.790
458.381, 49.881
459.717, 51.965
461.053, 13.043
462.388, 9.114
463.724, 23.177
465.059, 15.234
466.394, 56.283
467.728, 23.326
469.063, 65.363
470.397, 41.393
471.731, 57.420
473.065, 35.440
474.398, 37.455
475.732, 1.463
477.065, 50.462
478.398, 77.461
479.731, 52.454
481.063, 23.446
482.396, 60.430
483.728, 28.408
485.060, 79.379
486.391, 81.345
487.723, 67.308
489.054, 70.266
490.385, 40.223
491.716, 93.174
493.047, 107.122
494.377, 69.063
495.708, 88.000
497.038, 78.931
498.368, 66.857
499.697, 89.779
501.027, 76.700
502.356, 74.615
503.685, 83.523
505.014, 81.304
506.342, 112.322
507.671, 96.212
508.999, 102.100
510.327, 117.982
511.655, 111.858
512.982, 85.710
514.310, 86.565
515.637, 137.319
516.964, 107.120
518.291, 111.857
519.617, 152.686
520.944, 138.074
522.270, 110.840
523.596, 102.575
524.921, 156.282
526.247, 137.059
527.572, 137.034
528.897, 135.848
530.222, 132.503
531.547, 140.218
532.871, 127.895
534.196, 144.511
535.520, 152.090
536.844, 130.762
538.167, 136.118
539.491, 121.709
540.814, 135.582
542.137, 124.169
543.460, 132.837
544.783, 133.427
546.105, 129.973
547.427, 171.403
548.749, 136.075
550.071, 119.618
551.393, 169.265
552.714, 123.916
554.035, 146.385
555.356, 133.434
556.677, 129.376
557.998, 155.931
559.318, 100.350
560.638, 130.919
561.958, 121.497
563.278, 120.104
564.597, 126.601
565.917, 137.226
567.236, 133.684
568.555, 152.088
569.874, 136.629
571.192, 132.128
572.511, 146.448
573.829, 140.343
575.147, 108.689
576.464, 141.477
577.782, 90.343
579.099, 84.785
580.416, 112.864
581.733, 74.358
583.050, 116.734
584.366, 93.169
585.683, 100.711
586.999, 102.581
588.315, 102.876
589.630, 141.510
590.946, 79.033
592.261, 94.508
593.576, 63.086
594.891, 113.544
596.206, 84.925
597.520, 76.652
598.834, 98.970
600.148, 70.141
601.462, 59.618
602.776, 33.946
604.089, 73.768
605.402, 80.040
606.715, 78.494
608.028, 54.464
609.341, 44.978
610.653, 113.508
611.965, 59.757
613.277, 87.415
614.589, 65.839
615.901, 70.298
617.212, 71.809
618.523, 68.317
619.834, 93.658
621.145, 48.952
622.456, 78.407
623.766, 38.781
625.076, 82.274
626.386, 68.784
627.696, 54.276
629.006, 73.118
630.315, 72.673
631.624, 80.230
632.933, 50.656
634.242, 56.973
635.551, 51.599
636.859, 44.385
638.167, 55.715
639.475, 34.064
640.783, 53.512
642.090, 61.875
643.398, 57.414
644.705, 50.634
646.012, 84.224
647.318, 38.029
648.625, 70.422
649.931, 56.431
651.237, 61.850
652.543, 55.569
653.849, 49.332
655.155, 44.782
656.460, 43.626
657.765, 41.078
659.070, 47.475
660.375, 64.868
661.679, 90.258
662.984, 58.645
664.288, 81.027
665.592, 76.360
666.895, 42.736
668.199, 81.108
669.502, 46.382
670.805, 76.747
672.108, 61.984
673.411, 46.344
674.713, 84.699
676.016, 77.051
677.318, 97.343
678.620, 89.694
679.921, 94.522
681.223, 86.867
682.524, 70.209
683.825, 71.547
685.126, 103.886
686.427, 84.221
687.727, 117.855
689.028, 91.428
690.328, 123.754
691.628, 128.158
692.927, 119.248
694.227, 116.575
695.526, 135.905
696.825, 158.233
698.124, 147.560
699.423, 176.886
700.721, 169.208
702.020, 179.528
703.318, 226.845
704.616, 190.161
705.913, 255.474
707.211, 302.784
708.508, 341.091
709.805, 417.396
711.102, 489.699
712.399, 586.001
713.695, 710.012
714.992, 855.604
716.288, 1007.903
717.584, 1192.200
718.879, 1391.493
720.175, 1661.785
721.470, 1626.074
722.765, 1811.364
724.060, 1694.653
725.355, 1543.945
726.649, 1474.233
727.944, 1164.520
729.238, 987.810
730.532, 808.105
731.825, 623.402
733.119, 576.705
734.412, 455.013
735.705, 361.323
736.998, 289.633
738.291, 231.941
739.584, 237.247
740.876, 150.568
742.168, 164.870
743.460, 142.205
744.752, 88.506
746.043, 63.810
747.334, 96.111
748.626, 80.411
749.916, 65.708
751.207, 34.003
752.498, 40.297
753.788, 19.997
755.078, 49.457
756.368, 74.751
757.658, 20.042
758.947, 0.332
760.237, 8.383
761.526, 18.892
762.815, 11.835
764.104, 25.430
765.392, 17.692
766.680, 6.048
767.969, 16.778
769.257, 29.460
770.544, 13.697
771.832, 35.022
773.119, 17.255
774.406, 13.485
775.693, 17.715
776.980, 6.944
778.267, 8.170
779.553, 10.395
780.839, 4.317
782.125, 8.850
783.411, 0.932
784.697, 5.262
785.982, 3.492
787.267, 14.238
788.552, 0.445
789.837, 13.352
791.122, 0.029
792.406, 8.842
793.690, 38.335
794.974, 18.512
796.258, 17.687
797.542, 3.861
798.825, 7.968
800.108, 2.196
801.391, 17.645
802.674, 27.502
803.957, 5.352
805.239, 10.787
806.522, 1.075
807.804, 19.058
809.085, 2.810
810.367, 3.682
811.649, 13.560
812.930, 6.552
814.211, 10.663
815.492, 23.773
816.772, 38.882
818.053, 34.015
819.333, 12.878
820.613, 36.220
821.893, 27.317
823.173, 12.587
824.452, 4.501
825.732, 12.412
827.011, 3.666
828.290, 25.743
829.568, 4.820
830.847, 30.103
832.125, 3.956
833.403, 6.986
834.681, 7.068
835.959, 16.121
837.236, 29.174
838.514, 4.227
839.791, 18.280
841.068, 4.668
842.345, 3.619
843.621, 25.427
844.898, 0.527
846.174, 13.481
847.450, 5.557
848.726, 21.595
850.001, 5.633
851.277, 1.671
852.552, 20.709
853.827, 43.747
855.102, 33.786
856.376, 24.824
857.651, 26.863
858.925, 20.602
860.199, 28.942
861.473, 23.981
862.746, 18.022
864.020, 33.062
865.293, 31.609
866.566, 15.145
867.839, 39.187
869.112, 23.230
870.384, 13.273
871.656, 32.630
872.928, 101.362
874.200, 51.408
875.472, 98.454
876.744, 96.501
878.015, 75.550
879.286, 70.599
880.557, 15.649
881.828, 17.699
883.098, 1.751
884.369, 42.804
885.639, 7.858
886.909, 15.914
888.178, 41.970
889.448, 5.027
890.717, 18.085
891.987, 68.145
893.256, 0.795
894.524, 10.270
895.793, 1.665
897.061, 11.402
898.330, 18.470
899.598, 35.539
900.865, 40.610
902.133, 10.683
903.401, 21.756
904.668, 14.832
905.935, 13.091
907.202, 7.016
908.468, 17.060
909.735, 52.136
911.001, 50.933
912.267, 56.889
913.533, 56.022
914.799, 30.106
916.064, 19.035
917.330, 34.123
918.595, 60.213
919.860, 1.474
921.124, 11.171
922.389, 38.268
923.653, 5.633
924.918, 13.467
926.182, 14.570
927.445, 23.675
928.709, 11.783
929.972, 16.833
931.236, 27.917
932.499, 0.971
933.761, 56.021
935.024, 56.131
936.286, 25.863
937.549, 67.908
938.811, 20.101
940.073, 30.026
941.334, 62.852
942.596, 8.178
943.857, 32.630
945.118, 38.894
946.379, 12.035
947.640, 42.180
948.900, 48.327
950.161, 37.380
951.421, 40.752
952.681, 42.282
953.940, 48.542
955.200, 50.707
956.459, 39.290
957.719, 50.462
958.978, 85.336
960.236, 36.517
961.495, 59.308
962.753, 16.057
964.012, 60.199
965.270, 24.396
966.527, 61.596
967.785, 37.800
969.043, 2.991
970.300, 55.221
971.557, 32.485
972.814, 52.706
974.071, 49.931
975.327, 1.258
976.583, 63.495
977.840, 9.862
979.095, 64.108
980.351, 95.359
981.607, 43.616
982.862, 20.933
984.117, 82.198
985.372, 49.994
986.627, 77.274
987.882, 96.559
989.136, 80.852
990.390, 81.148
991.644, 109.450
992.898, 73.455
994.152, 81.523
995.405, 74.842
996.659, 126.084
997.912, 95.653
999.165, 99.991
1000.417, 107.336
1001.670, 76.685
1002.922, 97.039
1004.174, 98.401
1005.426, 130.777
1006.678, 130.497
1007.930, 87.543
1009.181, 135.934
1010.432, 128.334
1011.683, 121.738
1012.934, 148.155
1014.185, 118.577
1015.435, 202.008
1016.685, 143.445
1017.935, 157.887
1019.185, 220.336
1020.435, 185.790
1021.684, 141.250
1022.934, 207.721
1024.183, 183.200
1025.432, 239.685
1026.680, 192.175
1027.929, 256.671
1029.177, 318.175
1030.425, 283.685
1031.673, 283.201
1032.921, 313.726
1034.169, 318.257
1035.416, 362.793
1036.663, 376.337
1037.911, 403.886
1039.157, 422.445
1040.404, 457.011
1041.650, 466.583
1042.897, 440.168
1044.143, 521.350
1045.389, 490.947
1046.634, 568.524
1047.880, 583.142
1049.125, 561.770
1050.371, 587.403
1051.615, 571.044
1052.860, 576.694
1054.105, 589.350
1055.349, 680.011
1056.593, 665.273
1057.837, 707.778
1059.081, 757.455
1060.325, 707.138
1061.568, 798.828
1062.812, 818.525
1064.055, 880.232
1065.298, 988.943
1066.540, 1026.666
1067.783, 1186.394
1069.025, 1311.127
1070.267, 1396.851
1071.509, 1626.605
1072.751, 1694.364
1073.993, 1895.043
1075.234, 1979.817
1076.475, 2000.595
1077.716, 2355.380
1078.957, 2553.169
1080.198, 2929.965
1081.438, 3593.766
1082.679, 4208.567
1083.919, 5528.383
1085.159, 7089.206
1086.398, 9541.048
1087.638, 14699.893
1088.877, 20938.209
1090.116, 32677.066
1091.355, 46885.930
1092.594, 55284.684
1093.833, 60173.559
1095.071, 51632.461
1096.309, 38141.355
1097.547, 28020.254
1098.785, 17359.166
1100.023, 11358.098
1101.260, 7717.021
1102.498, 5052.950
1103.735, 3866.892
1104.972, 2887.866
1106.208, 2217.828
1107.445, 1887.823
1108.681, 1462.788
1109.918, 1339.758
1111.154, 1116.735
1112.389, 933.720
1113.625, 883.715
1114.860, 759.716
1116.096, 627.720
1117.331, 624.770
1118.566, 526.759
1119.800, 477.777
1121.035, 451.803
1122.269, 529.834
1123.503, 572.621
1124.737, 488.663
1125.971, 359.780
1127.205, 341.834
1128.438, 314.993
1129.671, 307.082
1130.904, 259.148
1132.137, 213.226
1133.370, 269.525
1134.602, 153.612
1135.834, 221.777
1137.066, 227.250
1138.298, 146.347
1139.530, 173.448
1140.762, 206.552
1141.993, 149.661
1143.224, 175.166
1144.455, 111.323
1145.686, 165.434
1146.917, 136.817
1148.147, 96.952
1149.377, 156.084
1150.607, 98.297
1151.837, 117.018
1153.067, 106.017
1154.296, 105.158
1155.526, 120.388
1156.755, 79.556
1157.984, 74.396
1159.213, 98.561
1160.441, 106.328
1161.670, 68.482
1162.898, 55.424
1164.126, 42.893
1165.354, 99.073
1166.581, 44.321
1167.809, 61.656
1169.036, 36.985
1170.263, 42.537
1171.490, 55.304
1172.717, 96.558
1173.943, 57.748
1175.170, 30.001
1176.396, 84.896
1177.622, 44.208
1178.848, 59.452
1180.073, 18.573
1181.299, 54.939
1182.524, 44.166
1183.749, 12.705
1184.974, 17.972
1186.199, 77.270
1187.423, 28.858
1188.648, 70.083
1189.872, 39.120
1191.096, 23.604
1192.320, 20.727
1193.543, 35.698
1194.767, 54.704
1195.990, 61.173
1197.213, 40.056
1198.436, 48.060
1199.659, 25.917
1200.881, 4.242
1202.104, 12.593
1203.326, 15.671
1204.548, 22.844
1205.770, 14.071
1206.991, 29.652
1208.213, 32.943
1209.434, 22.274
1210.655, 30.434
1211.876, 32.592
1213.096, 17.984
1214.317, 28.298
1215.537, 19.451
1216.757, 25.545
1217.977, 58.930
1219.197, 39.129
1220.417, 35.387
1221.636, 41.533
1222.855, 5.700
1224.074, 58.885
1225.293, 37.261
1226.512, 61.633
1227.731, 61.772
1228.949, 40.161
1230.167, 53.971
1231.385, 64.523
1232.603, 48.695
1233.820, 46.868
1235.038, 29.026
1236.255, 58.352
1237.472, 65.612
1238.689, 33.464
1239.906, 12.698
1241.122, 34.838
1242.338, 43.990
1243.555, 11.238
1244.771, 24.499
1245.986, 0.735
1247.202, 27.176
1248.417, 40.298
1249.633, 61.845
1250.848, 1.161
1252.063, 6.282
1253.277, 0.533
1254.492, 59.655
1255.706, 28.769
1256.920, 26.189
1258.134, 41.301
1259.348, 30.988
1260.562, 71.089
1261.775, 56.189
1262.988, 4.452
1264.201, 65.580
1265.414, 26.667
1266.627, 43.798
1267.839, 18.878
1269.052, 12.054
1270.264, 45.008
1271.476, 2.064
1272.688, 29.109
1273.899, 0.145
1275.111, 14.178
1276.322, 80.206
1277.533, 28.220
1278.744, 17.770
1279.955, 65.228
1281.165, 6.221
1282.376, 3.795
1283.586, 53.180
1284.796, 27.145
1286.006, 42.104
1287.215, 51.046
1288.425, 3.027
1289.634, 17.881
1290.843, 12.221
1292.052, 0.337
1293.261, 27.542
1294.469, 40.415
1295.678, 11.280
1296.886, 4.861
1298.094, 25.010
1299.302, 31.827
1300.509, 11.658
1301.717, 27.476
1302.924, 5.712
1304.131, 30.091
1305.338, 20.114
1306.545, 43.659
1307.752, 6.599
1308.958, 1.134
1310.164, 30.856
1311.370, 15.565
1312.576, 5.267
1313.782, 5.959
1314.987, 15.360
1316.193, 2.696
1317.398, 17.956
1318.603, 33.599
1319.807, 19.231
1321.012, 4.151
1322.216, 10.455
1323.421, 23.050
1324.625, 7.364
1325.829, 7.209
1327.032, 28.772
1328.236, 2.505
1329.439, 20.031
1330.642, 9.594
1331.845, 1.927
1333.048, 31.436
1334.251, 21.063
1335.453, 19.421
1336.656, 11.287
1337.858, 20.247
1339.060, 4.797
1340.261, 6.360
1341.463, 27.065
1342.664, 4.520
1343.866, 2.117
1345.067, 13.274
1346.267, 21.657
1347.468, 57.031
1348.669, 44.398
1349.869, 31.757
1351.069, 3.108
1352.269, 18.450
1353.469, 13.785
1354.668, 51.112
1355.868, 57.433
1357.067, 9.748
1358.266, 16.055
1359.465, 56.356
1360.664, 14.651
1361.862, 48.941
1363.061, 37.226
1364.259, 7.494
1365.457, 49.779
1366.655, 45.789
1367.852, 41.179
1369.050, 12.319
1370.247, 12.581
1371.444, 56.842
1372.641, 8.896
1373.838, 44.363
1375.035, 37.586
1376.231, 37.152
1377.427, 42.012
1378.623, 45.143
1379.819, 16.444
1381.015, 23.276
1382.211, 0.151
1383.406, 28.016
1384.601, 50.875
1385.796, 48.709
1386.991, 27.551
1388.185, 26.353
1389.380, 30.129
1390.574, 12.943
1391.768, 67.747
1392.962, 9.539
1394.156, 22.278
1395.350, 76.053
1396.543, 30.821
1397.736, 58.729
1398.929, 63.394
1400.122, 15.985
1401.315, 110.714
1402.507, 6.002
1403.700, 98.166
1404.892, 115.855
1406.084, 28.536
1407.276, 54.681
1408.467, 67.798
1409.659, 51.431
1410.850, 87.225
1412.041, 90.741
1413.232, 77.915
1414.423, 129.573
1415.614, 135.004
1416.804, 161.099
1417.994, 158.438
1419.184, 173.482
1420.374, 162.228
1421.564, 141.532
1422.753, 185.838
1423.943, 241.961
1425.132, 219.728
1426.321, 238.509
1427.510, 323.086
1428.698, 234.743
1429.887, 338.093
1431.075, 355.371
1432.263, 369.852
1433.451, 453.629
1434.639, 458.456
1435.827, 512.458
1437.014, 631.499
1438.201, 640.734
1439.388, 657.575
1440.575, 701.288
1441.762, 725.117
1442.949, 722.899
1444.135, 684.894
1445.321, 566.893
1446.507, 583.408
1447.693, 521.978
1448.879, 494.508
1450.064, 526.416
1451.250, 346.089
1452.435, 364.220
1453.620, 367.271
1454.805, 345.873
1455.989, 347.971
1457.174, 328.768
1458.358, 219.245
1459.542, 286.279
1460.726, 221.382
1461.910, 184.039
1463.093, 242.977
1464.277, 182.234
1465.460, 194.947
1466.643, 150.999
1467.826, 152.145
1469.009, 177.265
1470.191, 155.397
1471.373, 128.490
1472.556, 167.590
1473.738, 164.657
1474.919, 122.711
1476.101, 179.760
1477.283, 118.870
1478.464, 110.056
1479.645, 147.247
1480.826, 132.400
1482.007, 125.522
1483.187, 144.602
1484.368, 73.690
1485.548, 97.741
1486.728, 127.918
1487.908, 87.169
1489.088, 116.458
1490.268, 58.758
1491.447, 112.101
1492.626, 115.473
1493.805, 34.920
1494.984, 69.410
1496.163, 80.931
1497.341, 68.487
1498.520, 51.086
1499.698, 55.738
1500.876, 35.443
1502.054, 64.205
1503.232, 59.037
1504.409, 36.962
1505.586, 78.982
1506.763, 31.103
1507.940, 8.664
1509.117, 114.692
1510.294, 52.187
1511.470, 39.846
1512.647, 40.696
1513.823, 65.773
1514.999, 56.117
1516.174, 21.656
1517.350, 11.132
1518.526, 25.054
1519.701, 25.976
1520.876, 0.170
1522.051, 0.000
##END=



