##NAMES=Ankerite
##RRUFFID=R050181
##IDEAL CHEMISTRY=CaFe^2+^(CO_3_)_2_
##LOCALITY=Cerro Sapo, Cochabamba Department, Bolivia
##OWNER=RRUFF
##SOURCE=Marcus Origlieri
##DESCRIPTION=White coarsely crystalline massive
##STATUS=The identification of this mineral has been confirmed by X-ray diffraction and chemical analysis
##URL=rruff.info/R050181
##MEASURED CHEMISTRY=Ca_1.00_(Fe^2+^_0.60_Mg_0.35_Mn^2+^_0.05_)_Î£=1_(CO_3_)_2_ ; C not measured but estimated by difference and stoichiometry
##PIN_ID=L00069
##ORIENTATION=Laser parallel to c* (0 0 1). Fiducial mark perpendicular to laser is parallel to -b [0 -1 0]
89.890, 0.000
91.284, 0.909
92.678, 25.283
94.071, 18.393
95.465, 2.580
96.858, 10.864
98.251, 3.394
99.644, 16.790
101.036, 19.984
102.428, 29.470
103.820, 44.716
105.212, 62.283
106.604, 107.225
107.995, 145.485
109.387, 160.019
110.777, 137.792
112.168, 122.775
113.559, 172.945
114.949, 225.282
116.339, 309.766
117.729, 343.383
119.119, 289.117
120.508, 271.081
121.897, 254.199
123.286, 221.381
124.675, 250.641
126.063, 264.960
127.452, 263.342
128.840, 270.554
130.228, 246.290
131.615, 252.853
133.003, 270.472
134.390, 245.139
135.777, 265.850
137.164, 287.600
138.550, 330.385
139.937, 335.462
141.323, 365.048
142.709, 369.920
144.094, 385.816
145.480, 429.733
146.865, 381.670
148.250, 455.624
149.635, 489.169
151.019, 526.242
152.403, 600.695
153.788, 628.615
155.171, 721.552
156.555, 788.505
157.939, 957.893
159.322, 1068.870
160.705, 1263.915
162.088, 1570.044
163.470, 1821.259
164.853, 2126.511
166.235, 2406.776
167.617, 2589.083
168.998, 2714.402
170.380, 2582.769
171.761, 2306.157
173.142, 1888.582
174.523, 1597.000
175.904, 1251.415
177.284, 927.818
178.664, 691.211
180.044, 557.599
181.424, 412.982
182.803, 351.357
184.183, 264.724
185.562, 200.086
186.940, 175.441
188.319, 129.793
189.698, 98.107
191.076, 65.491
192.454, 62.832
193.831, 45.166
195.209, 33.348
196.586, 25.818
197.963, 22.137
199.340, 29.450
200.717, 37.759
202.093, 29.273
203.470, 33.991
204.846, 19.645
206.221, 13.928
207.597, 16.204
208.972, 29.527
210.347, 4.263
211.722, 15.993
213.097, 20.756
214.472, 1.512
215.846, 53.725
217.220, 15.956
218.594, 20.179
219.967, 20.678
221.341, 21.886
222.714, 6.140
224.087, 11.659
225.460, 9.147
226.832, 28.103
228.204, 13.441
229.577, 16.767
230.948, 4.187
232.320, 25.609
233.692, 7.789
235.063, 3.253
236.434, 30.478
237.805, 9.522
239.175, 21.635
240.545, 37.807
241.916, 78.629
243.286, 68.353
244.655, 65.458
246.025, 96.628
247.394, 86.653
248.763, 119.179
250.132, 142.815
251.501, 131.268
252.869, 177.165
254.237, 161.513
255.605, 235.733
256.973, 275.664
258.340, 316.598
259.708, 306.719
261.075, 361.706
262.442, 434.758
263.808, 461.835
265.175, 577.886
266.541, 610.121
267.907, 714.299
269.273, 818.581
270.639, 943.809
272.004, 1056.481
273.369, 1188.995
274.734, 1299.006
276.099, 1453.036
277.463, 1576.395
278.828, 1673.524
280.192, 1709.574
281.556, 1821.759
282.919, 1830.828
284.283, 1779.878
285.646, 1758.437
287.009, 1755.487
288.372, 1674.917
289.734, 1543.035
291.097, 1483.124
292.459, 1327.175
293.821, 1267.253
295.183, 1113.305
296.544, 1018.354
297.905, 924.482
299.266, 812.582
300.627, 684.680
301.988, 606.775
303.348, 523.982
304.709, 449.038
306.069, 399.071
307.428, 343.102
308.788, 294.232
310.147, 252.256
311.507, 216.278
312.865, 185.513
314.224, 183.299
315.583, 140.298
316.941, 141.287
318.299, 130.273
319.657, 117.255
321.015, 145.233
322.372, 119.206
323.729, 85.175
325.086, 91.141
326.443, 116.101
327.800, 104.057
329.156, 114.008
330.512, 126.954
331.868, 90.895
333.224, 94.830
334.579, 98.760
335.935, 100.684
337.290, 96.602
338.645, 61.515
339.999, 86.421
341.354, 51.322
342.708, 65.216
344.062, 44.105
345.416, 42.989
346.769, 37.866
348.123, 2.738
349.476, 35.603
350.829, 66.462
352.182, 43.316
353.534, 25.163
354.887, 3.005
356.239, 31.840
357.591, 34.669
358.942, 42.492
360.294, 27.309
361.645, 32.951
362.996, 17.926
364.347, 24.725
365.698, 1.518
367.048, 15.696
368.398, 2.923
369.748, 0.842
371.098, 7.599
372.448, 7.588
373.797, 40.902
375.146, 1.180
376.495, 17.972
377.844, 11.335
379.192, 8.361
380.540, 20.948
381.889, 0.271
383.236, 0.396
384.584, 15.056
385.932, 48.709
387.279, 11.355
388.626, 36.823
389.973, 2.544
391.319, 8.919
392.666, 17.315
394.012, 26.271
395.358, 11.258
396.704, 49.396
398.049, 26.936
399.394, 9.540
400.740, 16.970
402.084, 46.473
403.429, 13.971
404.774, 29.545
406.118, 16.084
407.462, 12.365
408.806, 27.802
410.150, 0.234
411.493, 27.648
412.836, 6.951
414.179, 4.561
415.522, 18.185
416.865, 1.169
418.207, 5.514
419.549, 10.147
420.891, 5.178
422.233, 10.496
423.575, 12.807
424.916, 13.113
426.257, 18.412
427.598, 6.705
428.939, 10.617
430.279, 6.269
431.619, 9.539
432.959, 23.802
434.299, 26.059
435.639, 56.309
436.978, 45.554
438.318, 5.794
439.657, 25.025
440.996, 45.250
442.334, 18.470
443.673, 42.683
445.011, 47.891
446.349, 1.096
447.687, 58.290
449.024, 4.478
450.361, 32.658
451.699, 39.831
453.036, 54.997
454.372, 42.163
455.709, 48.323
457.045, 54.476
458.381, 29.625
459.717, 35.766
461.053, 35.901
462.388, 36.030
463.724, 16.157
465.059, 44.287
466.394, 69.411
467.728, 56.528
469.063, 24.647
470.397, 55.760
471.731, 77.866
473.065, 48.966
474.398, 73.060
475.732, 74.149
477.065, 97.232
478.398, 94.890
479.731, 52.386
481.063, 88.454
482.396, 64.526
483.728, 55.591
485.060, 71.659
486.391, 96.721
487.723, 94.777
489.054, 89.830
490.385, 75.877
491.716, 76.918
493.047, 75.787
494.377, 83.397
495.708, 89.013
497.038, 105.033
498.368, 108.131
499.697, 131.981
501.027, 116.090
502.356, 129.106
503.685, 125.123
505.014, 120.134
506.342, 161.141
507.671, 121.141
508.999, 114.914
510.327, 118.906
511.655, 156.893
512.982, 98.876
514.310, 131.811
515.637, 93.534
516.964, 132.483
518.291, 96.435
519.617, 146.390
520.944, 156.298
522.270, 137.225
523.596, 137.082
524.921, 167.961
526.247, 152.515
527.572, 144.991
528.897, 120.257
530.222, 145.746
531.547, 138.470
532.871, 135.451
534.196, 179.332
535.520, 178.695
536.844, 119.510
538.167, 164.241
539.491, 128.954
540.814, 125.061
542.137, 129.456
543.460, 132.882
544.783, 157.634
546.105, 127.508
547.427, 168.211
548.749, 135.051
550.071, 120.250
551.393, 121.040
552.714, 145.293
554.035, 129.065
555.356, 151.726
556.677, 127.566
557.998, 179.327
559.318, 193.028
560.638, 143.721
561.958, 166.543
563.278, 154.199
564.597, 141.614
565.917, 120.866
567.236, 127.486
568.555, 160.210
569.874, 124.467
571.192, 177.182
572.511, 122.976
573.829, 136.915
575.147, 133.994
576.464, 142.281
577.782, 133.729
579.099, 113.298
580.416, 133.727
581.733, 116.265
583.050, 82.830
584.366, 125.395
585.683, 80.009
586.999, 79.455
588.315, 140.972
589.630, 121.398
590.946, 88.889
592.261, 131.524
593.576, 123.165
594.891, 112.894
596.206, 85.609
597.520, 101.999
598.834, 61.621
600.148, 115.616
601.462, 71.200
602.776, 67.903
604.089, 60.207
605.402, 67.400
606.715, 60.100
608.028, 70.428
609.341, 112.055
610.653, 85.709
611.965, 70.359
613.277, 100.156
614.589, 57.838
615.901, 92.534
617.212, 50.131
618.523, 67.751
619.834, 58.368
621.145, 72.021
622.456, 51.840
623.766, 71.483
625.076, 106.142
626.386, 49.462
627.696, 44.012
629.006, 75.662
630.315, 52.308
631.624, 69.950
632.933, 64.590
634.242, 74.329
635.551, 74.532
636.859, 46.162
638.167, 59.789
639.475, 72.523
640.783, 44.143
642.090, 78.560
643.398, 54.174
644.705, 89.785
646.012, 27.039
647.318, 75.643
648.625, 100.244
649.931, 45.088
651.237, 52.761
652.543, 44.353
653.849, 59.941
655.155, 51.526
656.460, 30.162
657.765, 47.072
659.070, 61.732
660.375, 100.707
661.679, 80.275
662.984, 97.012
664.288, 51.574
665.592, 51.134
666.895, 78.396
668.199, 69.949
669.502, 77.729
670.805, 113.381
672.108, 75.924
673.411, 70.465
674.713, 98.002
676.016, 88.537
677.318, 97.068
678.620, 89.318
679.921, 92.843
681.223, 124.365
682.524, 53.133
683.825, 88.341
685.126, 89.863
686.427, 135.384
687.727, 133.902
689.028, 116.419
690.328, 112.936
691.628, 121.463
692.927, 93.989
694.227, 130.513
695.526, 107.089
696.825, 181.611
698.124, 136.340
699.423, 184.866
700.721, 123.392
702.020, 194.915
703.318, 195.435
704.616, 234.952
705.913, 229.467
707.211, 320.981
708.508, 369.497
709.805, 402.017
711.102, 484.867
712.399, 545.654
713.695, 653.166
714.992, 852.675
716.288, 972.187
717.584, 1166.696
718.879, 1304.202
720.175, 1585.706
721.470, 1580.218
722.765, 1744.733
724.060, 1653.246
725.355, 1474.757
726.649, 1344.268
727.944, 1129.776
729.238, 934.286
730.532, 819.797
731.825, 586.312
733.119, 515.827
734.412, 423.342
735.705, 347.858
736.998, 263.374
738.291, 242.887
739.584, 189.399
740.876, 121.910
742.168, 138.418
743.460, 117.925
744.752, 99.431
746.043, 112.936
747.334, 52.462
748.626, 48.963
749.916, 67.462
751.207, 61.959
752.498, 18.542
753.788, 27.035
755.078, 3.527
756.368, 14.014
757.658, 13.499
758.947, 2.019
760.237, 17.456
761.526, 37.930
762.815, 14.403
764.104, 36.875
765.392, 21.345
766.680, 8.187
767.969, 6.369
769.257, 27.164
770.544, 11.616
771.832, 24.617
773.119, 17.514
774.406, 18.960
775.693, 9.596
776.980, 30.162
778.267, 46.250
779.553, 12.660
780.839, 19.931
782.125, 38.461
783.411, 13.852
784.697, 55.241
785.982, 13.628
787.267, 20.014
788.552, 5.397
789.837, 3.222
791.122, 14.152
792.406, 21.524
793.690, 28.105
794.974, 25.246
796.258, 23.405
797.542, 10.927
798.825, 16.258
800.108, 5.413
801.391, 34.935
802.674, 24.256
803.957, 0.575
805.239, 3.890
806.522, 19.203
807.804, 18.515
809.085, 32.825
810.367, 44.866
811.649, 17.552
812.930, 2.717
814.211, 19.016
815.492, 32.237
816.772, 0.490
818.053, 6.739
819.333, 4.988
820.613, 8.764
821.893, 19.476
823.173, 1.284
824.452, 0.952
825.732, 8.186
827.011, 23.420
828.290, 30.653
829.568, 32.885
830.847, 33.117
832.125, 10.652
833.403, 6.572
834.681, 34.795
835.959, 2.982
837.236, 42.762
838.514, 2.435
839.791, 29.631
841.068, 15.827
842.345, 18.022
843.621, 11.217
844.898, 14.412
846.174, 16.606
847.450, 9.694
848.726, 0.005
850.001, 5.188
851.277, 3.619
852.552, 6.572
853.827, 9.763
855.102, 32.954
856.376, 12.144
857.651, 43.335
858.925, 24.526
860.199, 22.086
861.473, 12.909
862.746, 10.100
864.020, 7.707
865.293, 6.518
866.566, 1.814
867.839, 14.856
869.112, 35.044
870.384, 60.232
871.656, 90.421
872.928, 125.610
874.200, 124.800
875.472, 117.615
876.744, 104.182
878.015, 63.374
879.286, 60.567
880.557, 22.760
881.828, 32.954
883.098, 17.149
884.369, 36.345
885.639, 24.542
886.909, 0.740
888.178, 23.939
889.448, 9.138
890.717, 4.339
891.987, 25.541
893.256, 22.743
894.524, 40.947
895.793, 8.153
897.061, 19.359
898.330, 30.567
899.598, 1.224
900.865, 37.986
902.133, 20.198
903.401, 4.411
904.668, 4.374
905.935, 10.842
907.202, 19.059
908.468, 9.144
909.735, 33.192
911.001, 3.398
912.267, 5.023
913.533, 22.249
914.799, 39.477
916.064, 34.891
917.330, 20.932
918.595, 29.166
919.860, 5.560
921.124, 13.461
922.389, 51.775
923.653, 22.999
924.918, 41.240
926.182, 64.483
927.445, 34.729
928.709, 41.940
929.972, 7.867
931.236, 47.120
932.499, 69.376
933.761, 52.972
935.024, 45.234
936.286, 52.351
937.549, 49.767
938.811, 53.038
940.073, 30.312
941.334, 29.486
942.596, 58.198
943.857, 33.481
945.118, 10.768
946.379, 21.949
947.640, 53.243
948.900, 42.741
950.161, 38.042
951.421, 29.346
952.681, 2.991
953.940, 49.323
955.200, 14.641
956.459, 59.718
957.719, 63.966
958.978, 25.296
960.236, 45.630
961.495, 85.968
962.753, 3.744
964.012, 62.271
965.270, 36.538
966.527, 33.490
967.785, 54.849
969.043, 1.049
970.300, 12.425
971.557, 28.803
972.814, 47.482
974.071, 57.872
975.327, 65.035
976.583, 101.328
977.840, 65.732
979.095, 28.141
980.351, 61.555
981.607, 48.974
982.862, 42.397
984.117, 100.103
985.372, 52.537
986.627, 116.976
987.882, 83.171
989.136, 81.929
990.390, 114.382
991.644, 97.842
992.898, 109.307
994.152, 97.779
995.405, 82.256
996.659, 106.740
997.912, 86.229
999.165, 91.724
1000.417, 90.174
1001.670, 111.681
1002.922, 138.992
1004.174, 126.510
1005.426, 145.036
1006.678, 146.572
1007.930, 142.624
1009.181, 161.684
1010.432, 132.259
1011.683, 167.839
1012.934, 155.431
1014.185, 139.028
1015.435, 200.302
1016.685, 138.644
1017.935, 183.264
1019.185, 201.889
1020.435, 172.520
1021.684, 221.158
1022.934, 199.802
1024.183, 220.451
1025.432, 269.107
1026.680, 196.770
1027.929, 314.439
1029.177, 341.114
1030.425, 293.795
1031.673, 310.483
1032.921, 347.176
1034.169, 323.910
1035.416, 384.621
1036.663, 333.342
1037.911, 389.068
1039.157, 437.804
1040.404, 469.549
1041.650, 440.300
1042.897, 482.072
1044.143, 493.850
1045.389, 587.634
1046.634, 531.425
1047.880, 618.222
1049.125, 609.037
1050.371, 620.836
1051.615, 659.663
1052.860, 584.500
1054.105, 618.372
1055.349, 648.135
1056.593, 694.996
1057.837, 709.863
1059.081, 764.736
1060.325, 730.621
1061.568, 831.511
1062.812, 838.410
1064.055, 929.315
1065.298, 1054.226
1066.540, 1057.144
1067.783, 1269.069
1069.025, 1363.000
1070.267, 1524.844
1071.509, 1758.451
1072.751, 1731.404
1073.993, 1934.364
1075.234, 1995.330
1076.475, 2102.302
1077.716, 2438.279
1078.957, 2652.269
1080.198, 3036.280
1081.438, 3821.297
1082.679, 4373.320
1083.919, 5792.363
1085.159, 7450.413
1086.398, 9918.469
1087.638, 15307.534
1088.877, 21956.602
1090.116, 34305.684
1091.355, 48754.754
1092.594, 58043.848
1093.833, 62432.945
1095.071, 52852.047
1096.309, 39261.156
1097.547, 28640.277
1098.785, 17759.412
1100.023, 11698.553
1101.260, 7967.699
1102.498, 5243.390
1103.735, 3956.554
1104.972, 2940.725
1106.208, 2319.904
1107.445, 1953.091
1108.681, 1527.282
1109.918, 1344.478
1111.154, 1143.679
1112.389, 955.866
1113.625, 838.162
1114.860, 745.397
1116.096, 646.644
1117.331, 615.453
1118.566, 545.710
1119.800, 533.973
1121.035, 491.241
1122.269, 507.517
1123.503, 483.179
1124.737, 452.494
1125.971, 468.378
1127.205, 379.674
1128.438, 378.975
1129.671, 326.293
1130.904, 308.603
1132.137, 245.933
1133.370, 247.254
1134.602, 211.580
1135.834, 200.977
1137.066, 209.312
1138.298, 108.670
1139.530, 184.071
1140.762, 188.498
1141.993, 111.884
1143.224, 186.439
1144.455, 103.900
1145.686, 179.273
1146.917, 113.841
1148.147, 98.240
1149.377, 169.691
1150.607, 105.159
1151.837, 72.550
1153.067, 92.526
1154.296, 77.760
1155.526, 88.381
1156.755, 81.133
1157.984, 68.085
1159.213, 49.597
1160.441, 58.740
1161.670, 80.811
1162.898, 68.859
1164.126, 57.609
1165.354, 50.031
1166.581, 17.511
1167.809, 32.990
1169.036, 53.565
1170.263, 85.134
1171.490, 18.608
1172.717, 27.106
1173.943, 46.819
1175.170, 32.307
1176.396, 56.887
1177.622, 27.327
1178.848, 67.921
1180.073, 33.440
1181.299, 3.935
1182.524, 19.610
1183.749, 39.993
1184.974, 6.439
1186.199, 12.918
1187.423, 34.857
1188.648, 17.389
1189.872, 51.442
1191.096, 24.930
1192.320, 33.379
1193.543, 6.179
1194.767, 29.666
1195.990, 16.956
1197.213, 61.519
1198.436, 14.047
1199.659, 21.405
1200.881, 2.683
1202.104, 60.856
1203.326, 12.170
1204.548, 34.641
1205.770, 49.089
1206.991, 38.738
1208.213, 15.198
1209.434, 22.660
1210.655, 7.361
1211.876, 43.749
1213.096, 3.349
1214.317, 26.198
1215.537, 46.771
1216.757, 50.305
1217.977, 38.802
1219.197, 45.242
1220.417, 35.727
1221.636, 31.165
1222.855, 30.923
1224.074, 22.358
1225.293, 35.087
1226.512, 39.032
1227.731, 61.462
1228.949, 48.990
1230.167, 7.166
1231.385, 42.771
1232.603, 60.601
1233.820, 26.237
1235.038, 42.785
1236.255, 37.422
1237.472, 67.890
1238.689, 59.201
1239.906, 37.861
1241.122, 45.311
1242.338, 36.745
1243.555, 13.181
1244.771, 55.743
1245.986, 27.284
1247.202, 46.768
1248.417, 14.089
1249.633, 36.040
1250.848, 71.517
1252.063, 13.574
1253.277, 41.017
1254.492, 61.424
1255.706, 21.831
1256.920, 54.237
1258.134, 39.642
1259.348, 0.953
1260.562, 59.479
1261.775, 42.881
1262.988, 26.720
1264.201, 40.670
1265.414, 48.059
1266.627, 54.665
1267.839, 45.042
1269.052, 61.399
1270.264, 68.745
1271.476, 15.080
1272.688, 39.408
1273.899, 29.734
1275.111, 14.056
1276.322, 55.375
1277.533, 14.690
1278.744, 23.001
1279.955, 30.309
1281.165, 4.614
1282.376, 34.902
1283.586, 20.037
1284.796, 11.452
1286.006, 6.698
1287.215, 17.937
1288.425, 0.153
1289.634, 4.364
1290.843, 45.560
1292.052, 0.746
1293.261, 21.926
1294.469, 11.094
1295.678, 8.256
1296.886, 46.412
1298.094, 4.441
1299.302, 8.303
1300.509, 30.173
1301.717, 16.059
1302.924, 19.030
1304.131, 9.117
1305.338, 14.828
1306.545, 12.210
1307.752, 3.760
1308.958, 1.258
1310.164, 40.268
1311.370, 21.271
1312.576, 22.266
1313.782, 8.252
1314.987, 9.220
1316.193, 26.166
1317.398, 21.108
1318.603, 4.041
1319.807, 24.964
1321.012, 10.879
1322.216, 44.784
1323.421, 10.678
1324.625, 20.562
1325.829, 9.437
1327.032, 8.731
1328.236, 5.991
1329.439, 42.958
1330.642, 7.214
1331.845, 1.601
1333.048, 21.403
1334.251, 47.803
1335.453, 32.966
1336.656, 53.726
1337.858, 5.478
1339.060, 34.219
1340.261, 35.049
1341.463, 19.661
1342.664, 25.363
1343.866, 3.945
1345.067, 3.736
1346.267, 23.377
1347.468, 2.962
1348.669, 39.687
1349.869, 63.328
1351.069, 8.039
1352.269, 42.581
1353.469, 42.194
1354.668, 31.799
1355.868, 19.397
1357.067, 17.988
1358.266, 6.571
1359.465, 21.768
1360.664, 26.439
1361.862, 35.064
1363.061, 57.501
1364.259, 38.052
1365.457, 61.598
1366.655, 15.177
1367.852, 27.714
1369.050, 12.247
1370.247, 11.267
1371.444, 51.200
1372.641, 27.792
1373.838, 14.769
1375.035, 19.648
1376.231, 9.028
1377.427, 17.374
1378.623, 24.693
1379.819, 17.885
1381.015, 40.071
1382.211, 30.250
1383.406, 45.423
1384.601, 46.768
1385.796, 50.155
1386.991, 50.288
1388.185, 27.408
1389.380, 30.521
1390.574, 40.627
1391.768, 4.655
1392.962, 4.015
1394.156, 40.082
1395.350, 6.139
1396.543, 49.189
1397.736, 59.230
1398.929, 60.250
1400.122, 77.258
1401.315, 84.279
1402.507, 83.074
1403.700, 54.151
1404.892, 88.034
1406.084, 70.676
1407.276, 90.417
1408.467, 72.278
1409.659, 28.139
1410.850, 121.264
1412.041, 79.534
1413.232, 117.231
1414.423, 146.219
1415.614, 89.736
1416.804, 104.458
1417.994, 148.973
1419.184, 139.501
1420.374, 147.789
1421.564, 152.273
1422.753, 176.046
1423.943, 202.168
1425.132, 228.875
1426.321, 264.016
1427.510, 281.807
1428.698, 304.065
1429.887, 273.867
1431.075, 362.870
1432.263, 355.056
1433.451, 423.305
1434.639, 404.172
1435.827, 437.545
1437.014, 555.886
1438.201, 568.117
1439.388, 632.952
1440.575, 703.332
1441.762, 673.370
1442.949, 701.579
1444.135, 615.435
1445.321, 585.966
1446.507, 583.313
1447.693, 487.900
1448.879, 419.845
1450.064, 477.224
1451.250, 382.707
1452.435, 391.410
1453.620, 381.249
1454.805, 331.795
1455.989, 350.221
1457.174, 279.794
1458.358, 240.863
1459.542, 243.398
1460.726, 222.956
1461.910, 175.451
1463.093, 250.814
1464.277, 162.190
1465.460, 181.941
1466.643, 190.261
1467.826, 154.635
1469.009, 151.995
1470.191, 204.294
1471.373, 108.539
1472.556, 148.719
1473.738, 158.924
1474.919, 107.169
1476.101, 135.492
1477.283, 80.851
1478.464, 134.225
1479.645, 140.600
1480.826, 109.946
1482.007, 77.255
1483.187, 86.525
1484.368, 38.898
1485.548, 106.333
1486.728, 73.760
1487.908, 47.161
1489.088, 146.611
1490.268, 104.170
1491.447, 48.729
1492.626, 73.298
1493.805, 20.910
1494.984, 66.542
1496.163, 86.203
1497.341, 41.907
1498.520, 59.654
1499.698, 55.440
1500.876, 7.729
1502.054, 79.163
1503.232, 48.118
1504.409, 7.143
1505.586, 96.245
1506.763, 80.427
1507.940, 9.701
1509.117, 77.082
1510.294, 39.584
1511.470, 22.315
1512.647, 37.698
1513.823, 0.543
1514.999, 53.424
1516.174, 57.995
1517.350, 2.819
1518.526, 67.222
1519.701, 0.000
##END=



