##NAMES=Ankerite
##RRUFFID=R050197
##IDEAL CHEMISTRY=CaFe^2+^(CO_3_)_2_
##LOCALITY=Brownley Hill mine, Nenthead, Cumbria, England
##OWNER=RRUFF
##SOURCE=Marcus Origlieri
##DESCRIPTION=Curved saddle-shaped rhombohedral crystals
##STATUS=The identification of this mineral has been confirmed by X-ray diffraction and chemical analysis
##URL=rruff.info/R050197
##MEASURED CHEMISTRY=Ca_1.00_(Fe^2+^_0.52_Mg_0.35_Ca_0.08_Mn^2+^_0.05_)_Î£=1_(CO_3_)_2_ ; where C was not measured but estimated by difference and stoichiometry
##PIN_ID=M00092
##ORIENTATION=Laser parallel to a* (1 0 0). Fiducial mark perpendicular to laser is parallel to c [0 0 1]
114.4400, 0.0000000E+00
115.6710, 169.9644
116.9030, 171.1748
118.1340, 210.6011
119.3650, 152.8760
120.5960, 28.95752
121.8270, 64.87012
123.0580, 37.00342
124.2880, 17.07227
125.5190, 83.32178
126.7490, 7.944824
127.9790, 90.61475
129.2090, 57.19629
130.4390, 249.5859
131.6680, 158.6729
132.8980, 302.3716
134.1270, 371.6118
135.3560, 390.3364
136.5850, 550.4937
137.8140, 588.0405
139.0430, 562.9399
140.2710, 621.1802
141.5000, 761.7603
142.7280, 661.6064
143.9560, 655.8662
145.1840, 836.3384
146.4120, 759.0078
147.6390, 688.8516
148.8670, 673.8599
150.0940, 782.0327
151.3210, 771.3652
152.5490, 879.8467
153.7750, 768.4683
155.0020, 905.2188
156.2290, 895.0879
157.4550, 1057.066
158.6810, 1240.146
159.9080, 1375.325
161.1340, 1465.599
162.3590, 1562.966
163.5850, 1767.422
164.8110, 1844.961
166.0360, 2031.206
167.2610, 2102.451
168.4860, 2179.188
169.7110, 2010.991
170.9360, 1963.004
172.1610, 1823.834
173.3850, 1758.733
174.6100, 1362.691
175.8340, 1370.143
177.0580, 1154.201
178.2820, 817.3096
179.5050, 738.4644
180.7290, 687.6934
181.9520, 433.9639
183.1760, 432.3071
184.3990, 353.8237
185.6220, 263.4097
186.8450, 240.0571
188.0670, 230.7627
189.2900, 305.4512
190.5120, 264.2461
191.7340, 317.0322
192.9560, 260.8135
194.1780, 221.6470
195.4000, 186.4756
196.6220, 234.3027
197.8430, 195.1318
199.0640, 240.9678
200.2860, 120.8091
201.5070, 265.6626
202.7270, 215.5522
203.9480, 127.4932
205.1690, 55.47949
206.3890, 59.50293
207.6090, 25.56396
208.8290, 67.69092
210.0490, 89.82178
211.2690, 82.05566
212.4890, 11.17188
213.7080, 86.35107
214.9280, 11.53271
216.1470, 0.2719730
217.3660, 15.07568
218.5850, 84.13818
219.8030, 14.63525
221.0220, 78.59375
222.2400, 6.825684
223.4590, 51.05664
224.6770, 120.2852
225.8950, 5.484375
227.1120, 5.747070
228.3300, 57.02051
229.5480, 52.23047
230.7650, 25.49463
231.9820, 95.79883
233.1990, 127.1421
234.4160, 107.4790
235.6330, 77.80957
236.8490, 12.86621
238.0660, 122.4580
239.2820, 230.7744
240.4980, 235.0811
241.7140, 159.3779
242.9300, 232.7036
244.1460, 134.9814
245.3610, 264.5322
246.5770, 193.0581
247.7920, 333.2788
249.0070, 364.4883
250.2220, 293.6890
251.4370, 426.9150
252.6510, 464.1797
253.8660, 501.7417
255.0800, 660.6372
256.2940, 735.7563
257.5080, 785.7227
258.7220, 996.8735
259.9360, 1155.924
261.1490, 1293.082
262.3630, 1187.961
263.5760, 1269.068
264.7890, 1362.538
266.0020, 1560.365
267.2150, 1707.279
268.4270, 1913.253
269.6400, 2103.353
270.8520, 2328.379
272.0640, 2534.908
273.2760, 2711.578
274.4880, 2878.272
275.7000, 3098.954
276.9120, 3261.774
278.1230, 3539.629
279.3340, 3582.413
280.5450, 3763.429
281.7560, 3843.403
282.9670, 3898.497
284.1780, 3838.379
285.3880, 3852.589
286.5980, 3909.816
287.8090, 3707.050
289.0190, 3597.794
290.2290, 3367.197
291.4380, 3377.248
292.6480, 3166.444
293.8570, 2620.442
295.0670, 2549.450
296.2760, 2348.662
297.4850, 2022.357
298.6930, 1895.446
299.9020, 1684.078
301.1110, 1489.603
302.3190, 1375.695
303.5270, 1276.010
304.7350, 1150.240
305.9430, 1060.706
307.1510, 846.6245
308.3580, 830.0762
309.5660, 786.1445
310.7730, 589.2139
311.9800, 448.2812
313.1870, 474.6230
314.3940, 472.8442
315.6010, 435.9424
316.8070, 553.0049
318.0130, 277.2231
319.2200, 351.3823
320.4260, 389.6914
321.6310, 286.2505
322.8370, 313.2837
324.0430, 299.4053
325.2480, 247.4321
326.4540, 300.1099
327.6590, 207.1289
328.8640, 291.5283
330.0680, 297.5381
331.2730, 232.5435
332.4780, 206.6685
333.6820, 202.6606
334.8860, 171.2334
336.0900, 298.2310
337.2940, 172.4287
338.4980, 207.5547
339.7010, 260.5107
340.9050, 197.1655
342.1080, 250.3838
343.3110, 87.33838
344.5140, 55.37744
345.7170, 190.3027
346.9200, 157.2842
348.1220, 212.6909
349.3240, 96.58496
350.5270, 28.80664
351.7290, 53.42188
352.9310, 85.56299
354.1320, 86.42480
355.3340, 125.4336
356.5350, 190.2681
357.7370, 118.4038
358.9380, 213.6426
360.1390, 105.8335
361.3400, 144.6167
362.5400, 100.5244
363.7410, 106.2939
364.9410, 102.8467
366.1410, 115.5957
367.3410, 238.4038
368.5410, 107.1299
369.7410, 39.84473
370.9400, 157.4917
372.1400, 197.2036
373.3390, 23.46826
374.5380, 4.861328
375.7370, 9.790039
376.9360, 67.43066
378.1350, 93.09180
379.3330, 110.7080
380.5310, 132.3115
381.7300, 120.3105
382.9280, 124.3877
384.1260, 77.23047
385.3230, 8.786133
386.5210, 38.34766
387.7180, 46.92188
388.9160, 127.6494
390.1130, 33.88574
391.3100, 24.55078
392.5060, 65.09180
393.7030, 4.558594
394.9000, 169.9541
396.0960, 171.3906
397.2920, 191.7227
398.4880, 75.02930
399.6840, 62.68066
400.8800, 75.57617
402.0750, 146.8203
403.2710, 61.03027
404.4660, 4.771484
405.6610, 130.5703
406.8560, 66.71094
408.0510, 96.12500
409.2450, 12.96680
410.4400, 29.15625
411.6340, 95.22363
412.8280, 13.28027
414.0220, 91.32129
415.2160, 41.59668
416.4100, 76.39746
417.6030, 82.37500
418.7970, 118.3408
419.9900, 145.1846
421.1830, 49.68359
422.3760, 159.6133
423.5690, 50.58496
424.7610, 67.48926
425.9540, 45.37988
427.1460, 152.2578
428.3380, 34.12109
429.5300, 34.96973
430.7220, 36.80469
431.9140, 4.377930
433.1050, 27.66016
434.2970, 90.01465
435.4880, 74.22852
436.6790, 145.5693
437.8700, 131.2461
439.0610, 64.00684
440.2510, 49.29102
441.4420, 103.0273
442.6320, 25.60645
443.8220, 44.83203
445.0120, 107.6748
446.2020, 56.16797
447.3910, 77.90039
448.5810, 12.63867
449.7700, 19.78516
450.9600, 39.22363
452.1490, 133.6084
453.3370, 131.1455
454.5260, 166.7373
455.7150, 56.25586
456.9030, 85.65430
458.0910, 13.33105
459.2800, 226.8047
460.4670, 83.07324
461.6550, 97.32422
462.8430, 61.55957
464.0300, 12.79004
465.2180, 226.6162
466.4050, 105.9287
467.5920, 149.0781
468.7790, 27.30957
469.9650, 135.4492
471.1520, 45.59668
472.3380, 190.0312
473.5250, 139.3818
474.7110, 101.4736
475.8970, 154.5078
477.0820, 97.02832
478.2680, 40.52930
479.4540, 79.51367
480.6390, 95.48242
481.8240, 146.5176
483.0090, 26.71289
484.1940, 69.62793
485.3780, 20.44141
486.5630, 109.4219
487.7470, 135.3027
488.9320, 120.1357
490.1160, 107.8789
491.3000, 236.8838
492.4830, 57.60059
493.6670, 243.2979
494.8500, 134.9795
496.0340, 137.6660
497.2170, 100.3379
498.4000, 167.9971
499.5820, 65.74219
500.7650, 47.37012
501.9480, 51.98242
503.1300, 221.5859
504.3120, 60.18164
505.4940, 168.7461
506.6760, 171.2959
507.8580, 147.1094
509.0390, 125.6309
510.2210, 171.1465
511.4020, 212.7549
512.5830, 147.4658
513.7640, 138.9668
514.9450, 111.6670
516.1250, 154.0469
517.3060, 281.4668
518.4860, 151.6729
519.6660, 136.1289
520.8460, 230.7627
522.0260, 145.1895
523.2060, 223.6006
524.3850, 123.9961
525.5650, 79.56445
526.7440, 362.9297
527.9230, 67.83301
529.1020, 254.8730
530.2810, 226.2793
531.4590, 186.5928
532.6380, 198.7490
533.8160, 109.8350
534.9940, 124.6025
536.1720, 145.5322
537.3500, 120.7637
538.5270, 138.9951
539.7050, 156.2148
540.8820, 150.3799
542.0590, 144.7656
543.2360, 180.9326
544.4130, 151.0977
545.5900, 220.1787
546.7660, 94.84277
547.9430, 30.02148
549.1190, 184.9922
550.2950, 197.7393
551.4710, 101.1875
552.6470, 141.0117
553.8220, 136.0977
554.9980, 264.4961
556.1730, 116.5518
557.3480, 123.6094
558.5230, 206.5654
559.6980, 162.5361
560.8730, 24.54590
562.0470, 164.5381
563.2220, 173.3164
564.3960, 113.2822
565.5700, 212.0293
566.7440, 126.8311
567.9170, 126.5215
569.0910, 263.4336
570.2640, 157.0205
571.4380, 126.5957
572.6110, 156.1670
573.7840, 66.22949
574.9570, 9.633789
576.1290, 217.3838
577.3020, 94.98828
578.4740, 180.8154
579.6460, 97.63574
580.8180, 108.2451
581.9900, 37.63379
583.1620, 228.0723
584.3330, 163.2295
585.5040, 121.4854
586.6760, 188.1641
587.8470, 52.61426
589.0180, 164.1377
590.1880, 258.3447
591.3590, 103.2295
592.5290, 200.4990
593.7000, 72.14062
594.8700, 55.76855
596.0400, 69.38184
597.2090, 94.70117
598.3790, 24.12891
599.5490, 66.66406
600.7180, 231.2178
601.8870, 196.5830
603.0560, 153.9932
604.2250, 10.23828
605.3940, 56.21484
606.5620, 75.70020
607.7300, 192.0811
608.8990, 87.57324
610.0670, 104.3652
611.2350, 99.07129
612.4020, 26.10547
613.5700, 42.80469
614.7370, 101.1943
615.9050, 121.4443
617.0720, 123.8086
618.2390, 148.5703
619.4060, 249.2539
620.5720, 144.6191
621.7390, 90.92871
622.9050, 49.30762
624.0710, 150.1904
625.2370, 103.5889
626.4030, 173.1904
627.5690, 101.4463
628.7340, 136.9902
629.9000, 69.59082
631.0650, 94.30371
632.2300, 116.9072
633.3950, 109.7627
634.5600, 153.9434
635.7240, 134.8008
636.8890, 172.3330
638.0530, 124.3262
639.2170, 82.62598
640.3810, 149.1270
641.5450, 127.2969
642.7080, 104.2090
643.8720, 102.8047
645.0350, 204.2715
646.1980, 118.7119
647.3610, 41.02148
648.5240, 109.1816
649.6870, 209.3955
650.8490, 82.72461
652.0120, 46.98828
653.1740, 246.3496
654.3360, 67.32324
655.4980, 117.5947
656.6600, 271.5498
657.8210, 243.4668
658.9830, 212.6357
660.1440, 73.75684
661.3050, 204.6631
662.4660, 185.5820
663.6270, 148.5996
664.7870, 74.40430
665.9480, 134.5635
667.1080, 205.6445
668.2680, 105.3643
669.4280, 220.3271
670.5880, 117.1875
671.7480, 130.0352
672.9070, 223.5449
674.0670, 195.6865
675.2260, 168.7080
676.3850, 203.0303
677.5440, 150.8301
678.7030, 200.1035
679.8610, 113.3613
681.0200, 79.49316
682.1780, 185.4766
683.3360, 147.2451
684.4940, 267.2305
685.6520, 124.3350
686.8090, 158.2344
687.9670, 223.0811
689.1240, 311.7939
690.2810, 218.5723
691.4380, 284.2021
692.5950, 205.2852
693.7520, 300.9746
694.9080, 213.6523
696.0650, 244.2686
697.2210, 302.2461
698.3770, 276.3096
699.5330, 332.4248
700.6880, 318.6426
701.8440, 390.7559
702.9990, 335.3516
704.1550, 289.8877
705.3100, 456.0947
706.4650, 525.6543
707.6190, 539.2012
708.7740, 673.7314
709.9290, 641.5986
711.0830, 902.1006
712.2370, 1008.070
713.3910, 993.5586
714.5450, 1283.522
715.6980, 1328.366
716.8520, 1529.823
718.0050, 1606.646
719.1580, 1769.995
720.3110, 1839.755
721.4640, 1746.468
722.6170, 1851.041
723.7700, 1720.448
724.9220, 1576.123
726.0740, 1296.972
727.2260, 1225.265
728.3780, 1044.632
729.5300, 946.1445
730.6810, 829.4980
731.8330, 650.9951
732.9840, 562.4463
734.1350, 514.5156
735.2860, 305.6250
736.4370, 305.8252
737.5880, 257.7158
738.7380, 276.7744
739.8880, 237.0068
741.0390, 296.2256
742.1890, 195.5137
743.3380, 253.3770
744.4880, 283.3320
745.6380, 338.3535
746.7870, 138.6094
747.9360, 226.6484
749.0850, 81.79980
750.2340, 200.8574
751.3830, 76.59473
752.5310, 175.3838
753.6800, 149.4004
754.8280, 242.4434
755.9760, 197.4697
757.1240, 61.48145
758.2720, 84.47656
759.4190, 110.6494
760.5670, 129.5254
761.7140, 76.55957
762.8610, 53.48828
764.0080, 7.628906
765.1550, 120.4541
766.3020, 74.85938
767.4480, 43.13281
768.5950, 212.1885
769.7410, 54.21094
770.8870, 215.1191
772.0330, 261.9502
773.1780, 60.23535
774.3240, 59.00977
775.4690, 1.220703
776.6140, 110.8125
777.7590, 9.574219
778.9040, 34.33984
780.0490, 101.9971
781.1940, 28.62988
782.3380, 7.235352
783.4820, 60.28516
784.6260, 88.86719
785.7700, 121.3789
786.9140, 20.21484
788.0580, 76.49316
789.2010, 88.96484
790.3450, 101.5332
791.4880, 15.45410
792.6310, 6.297852
793.7730, 176.0352
794.9160, 30.63379
796.0590, 96.64160
797.2010, 96.99121
798.3430, 174.0391
799.4850, 170.8057
800.6270, 130.3789
801.7690, 164.8516
802.9100, 28.83496
804.0520, 105.3379
805.1930, 111.6289
806.3340, 131.7949
807.4750, 256.2002
808.6160, 157.3711
809.7560, 17.44043
810.8970, 55.48828
812.0370, 95.51660
813.1770, 34.52637
814.3170, 45.48438
815.4570, 39.45312
816.5960, 41.37012
817.7360, 72.60254
818.8750, 109.3301
820.0140, 157.1895
821.1530, 29.73926
822.2920, 74.05859
823.4310, 81.82617
824.5690, 137.7402
825.7070, 261.4941
826.8460, 90.76660
827.9840, 20.96387
829.1220, 38.39746
830.2590, 202.1924
831.3970, 211.7666
832.5340, 192.7217
833.6710, 82.26270
834.8080, 1.216797
835.9450, 43.27539
837.0820, 147.7471
838.2190, 36.49902
839.3550, 174.9336
840.4910, 154.3525
841.6270, 18.75488
842.7630, 284.9111
843.8990, 191.2744
845.0350, 352.6221
846.1700, 72.95215
847.3060, 189.2627
848.4410, 42.19434
849.5760, 95.79199
850.7100, 140.2344
851.8450, 65.47656
852.9800, 91.16895
854.1140, 2.3437999E-02
855.2480, 161.0928
856.3820, 63.19336
857.5160, 162.2744
858.6500, 117.3506
859.7830, 234.4082
860.9170, 90.45020
862.0500, 44.47461
863.1830, 112.4766
864.3160, 285.4629
865.4480, 115.4336
866.5810, 103.3838
867.7130, 386.3916
868.8460, 79.30859
869.9780, 151.2080
871.1100, 260.0918
872.2410, 286.9619
873.3730, 241.8701
874.5050, 209.7090
875.6360, 262.5332
876.7670, 183.3408
877.8980, 127.1318
879.0290, 121.9082
880.1590, 168.6680
881.2900, 150.4150
882.4200, 121.1680
883.5500, 160.8770
884.6800, 132.6025
885.8100, 173.0420
886.9400, 244.7363
888.0690, 222.1221
889.1990, 212.7900
890.3280, 152.4424
891.4570, 295.1006
892.5860, 149.7432
893.7140, 157.0098
894.8430, 95.35547
895.9710, 221.7939
897.1000, 58.30176
898.2280, 198.5732
899.3560, 160.7305
900.4830, 94.91211
901.6110, 11.31836
902.7380, 40.19238
903.8660, 47.55762
904.9930, 92.02637
906.1200, 122.0820
907.2460, 153.5195
908.3730, 182.9463
909.5000, 15.65332
910.6260, 124.6670
911.7520, 55.03711
912.8780, 91.23535
914.0040, 108.8955
915.1290, 175.7432
916.2550, 207.8613
917.3800, 151.6592
918.5050, 21.22852
919.6300, 218.1357
920.7550, 74.15039
921.8800, 0.7138670
923.0040, 78.27637
924.1290, 104.1973
925.2530, 56.15625
926.3770, 18.01172
927.5010, 220.1553
928.6250, 198.8848
929.7480, 111.0391
930.8720, 243.2197
931.9950, 89.12402
933.1180, 149.0156
934.2410, 84.85938
935.3640, 63.20410
936.4860, 42.14258
937.6090, 203.1777
938.7310, 25.64648
939.8530, 71.44043
940.9750, 82.24805
942.0970, 35.13965
943.2180, 84.12305
944.3400, 198.0938
945.4610, 155.3926
946.5820, 187.3086
947.7030, 257.6016
948.8240, 107.0186
949.9450, 133.8613
951.0650, 12.72266
952.1860, 35.31836
953.3060, 91.17773
954.4260, 249.8184
955.5460, 33.33398
956.6650, 169.2627
957.7850, 150.7139
958.9040, 58.18945
960.0230, 157.8887
961.1420, 231.6689
962.2610, 71.38770
963.3800, 140.5117
964.4990, 91.51270
965.6170, 119.2627
966.7350, 1.995117
967.8530, 111.7334
968.9710, 102.1377
970.0890, 82.43848
971.2070, 160.6631
972.3240, 9.317383
973.4410, 103.4971
974.5580, 185.1699
975.6750, 174.8271
976.7920, 34.15723
977.9090, 168.4766
979.0250, 141.1006
980.1410, 288.7168
981.2580, 145.9775
982.3740, 11.41992
983.4890, 0.6914060
984.6050, 23.86035
985.7200, 189.5098
986.8360, 42.68164
987.9510, 117.1367
989.0660, 79.31250
990.1810, 152.8379
991.2950, 135.4473
992.4100, 79.49414
993.5240, 119.8477
994.6390, 129.3535
995.7530, 146.5859
996.8660, 176.7305
997.9800, 89.93750
999.0940, 177.4141
1000.207, 157.7324
1001.320, 45.01367
1002.433, 223.5000
1003.546, 292.6797
1004.659, 338.1523
1005.772, 162.6172
1006.884, 47.07422
1007.996, 185.5312
1009.108, 270.0078
1010.220, 329.4824
1011.332, 171.9512
1012.444, 120.3262
1013.555, 89.72070
1014.666, 147.1719
1015.777, 139.7148
1016.888, 235.1699
1017.999, 73.60352
1019.110, 275.1094
1020.220, 347.5332
1021.331, 234.9512
1022.441, 196.3652
1023.551, 332.9121
1024.661, 338.0820
1025.770, 378.4766
1026.880, 312.8672
1027.989, 301.2520
1029.098, 278.5098
1030.207, 297.1758
1031.316, 179.4434
1032.425, 140.8105
1033.533, 393.1738
1034.642, 339.3516
1035.750, 558.1680
1036.858, 361.1094
1037.966, 437.0820
1039.073, 511.2793
1040.181, 289.5566
1041.288, 502.5156
1042.396, 291.8477
1043.503, 474.7871
1044.610, 446.4219
1045.716, 431.4492
1046.823, 504.6230
1047.929, 620.8711
1049.036, 537.3125
1050.142, 438.9805
1051.248, 495.0781
1052.353, 605.1191
1053.459, 680.9453
1054.564, 609.0410
1055.670, 745.8418
1056.775, 544.1094
1057.880, 695.3398
1058.985, 722.3652
1060.089, 882.0723
1061.194, 800.4160
1062.298, 815.0527
1063.402, 863.0586
1064.506, 977.4082
1065.610, 1048.664
1066.713, 1224.713
1067.817, 1348.338
1068.920, 1447.506
1070.023, 1588.551
1071.126, 1614.877
1072.229, 1633.047
1073.332, 1893.213
1074.435, 2065.111
1075.537, 2371.184
1076.639, 2651.398
1077.741, 2926.879
1078.843, 3360.182
1079.945, 4136.871
1081.046, 5377.195
1082.148, 6740.525
1083.249, 8744.836
1084.350, 11727.48
1085.451, 15743.40
1086.551, 20508.11
1087.652, 26041.11
1088.752, 31638.18
1089.853, 37223.48
1090.953, 40993.79
1092.053, 43133.94
1093.152, 42244.36
1094.252, 38530.66
1095.351, 32802.69
1096.451, 25995.52
1097.550, 19821.86
1098.649, 14792.49
1099.748, 10563.41
1100.846, 7980.742
1101.945, 6022.104
1103.043, 4286.430
1104.141, 3369.762
1105.239, 2409.793
1106.337, 2049.121
1107.434, 1718.457
1108.532, 1389.795
1109.629, 1153.729
1110.726, 958.5469
1111.823, 817.1758
1112.920, 724.0781
1114.017, 687.4199
1115.113, 687.1250
1116.210, 709.4863
1117.306, 649.6426
1118.402, 669.9766
1119.498, 669.8789
1120.593, 644.2910
1121.689, 670.0918
1122.784, 605.5020
1123.879, 558.5078
1124.974, 506.9492
1126.069, 486.4102
1127.164, 403.8066
1128.259, 435.2012
1129.353, 318.5957
1130.447, 189.9863
1131.541, 328.3750
1132.635, 263.2969
1133.729, 412.3398
1134.822, 113.7188
1135.916, 191.0996
1137.009, 94.47266
1138.102, 254.8457
1139.195, 216.2812
1140.288, 184.7969
1141.380, 352.6191
1142.473, 161.9746
1143.565, 157.3242
1144.657, 67.67188
1145.749, 84.01562
1146.841, 81.41602
1147.932, 16.12305
1149.024, 291.1797
1150.115, 48.47461
1151.206, 192.7656
1152.297, 110.0527
1153.388, 145.3359
1154.479, 47.61523
1155.569, 75.11328
1156.659, 114.1152
1157.750, 131.3359
1158.839, 220.5566
1159.929, 65.76758
1161.019, 18.02539
1162.108, 25.16602
1163.198, 311.3496
1164.287, 245.5273
1165.376, 179.7012
1166.465, 80.87109
1167.553, 93.03906
1168.642, 136.2031
1169.730, 75.36133
1170.818, 209.9023
1171.906, 3.949219
1172.994, 122.1895
1174.082, 67.32227
1175.170, 10.58594
1176.257, 195.7070
1177.344, 146.8223
1178.431, 176.9336
1179.518, 63.04102
1180.605, 8.140625
1181.691, 24.64062
1182.778, 50.42773
1183.864, 0.5078130
1184.950, 183.5449
1186.036, 33.40625
1187.122, 56.61914
1188.207, 139.6387
1189.292, 95.65039
1190.378, 79.66016
1191.463, 94.98438
1192.548, 22.98828
1193.632, 22.01758
1194.717, 236.9570
1195.801, 135.9258
1196.886, 38.11328
1197.970, 187.8184
1199.054, 86.76758
1200.137, 229.7109
1201.221, 239.6504
1202.305, 49.01758
1203.388, 121.9434
1204.471, 37.13477
1205.554, 81.91992
1206.637, 136.8340
1207.719, 54.77734
1208.802, 116.6465
1209.884, 5.511719
1210.966, 91.36328
1212.048, 90.21289
1213.130, 110.3125
1214.212, 19.15039
1215.293, 109.9844
1216.374, 3.080078
1217.456, 52.09375
1218.536, 128.6934
1219.617, 103.4824
1220.698, 111.5938
1221.778, 181.3730
1222.859, 72.14453
1223.939, 203.9062
1225.019, 20.92969
1226.099, 2.134766
1227.178, 243.1816
1228.258, 33.19531
1229.337, 161.2793
1230.417, 264.3242
1231.496, 96.41211
1232.574, 198.3730
1233.653, 124.5781
1234.732, 128.4004
1235.810, 107.3320
1236.888, 119.6992
1237.966, 144.7363
1239.044, 20.38867
1240.122, 142.0371
1241.199, 81.74219
1242.277, 51.50000
1243.354, 225.4844
1244.431, 250.7461
1245.508, 34.35352
1246.585, 115.9609
1247.661, 132.5586
1248.738, 172.5586
1249.814, 194.2305
1250.890, 119.9316
1251.966, 243.4961
1253.042, 21.04883
1254.117, 195.5859
1255.193, 74.37109
1256.268, 315.8926
1257.343, 224.4141
1258.418, 152.9961
1259.493, 148.7246
1260.567, 282.6836
1261.642, 52.66797
1262.716, 7.876953
1263.790, 242.6562
1264.864, 424.3457
1265.938, 176.9453
1267.011, 255.3398
1268.085, 105.7227
1269.158, 93.90430
1270.231, 24.78125
1271.304, 267.0723
1272.377, 163.8672
1273.450, 359.2363
1274.522, 218.4531
1275.594, 82.12695
1276.666, 177.2656
1277.738, 298.3809
1278.810, 232.5996
1279.882, 168.6777
1280.953, 166.2012
1282.025, 345.3906
1283.096, 369.0098
1284.167, 404.0410
1285.238, 357.7891
1286.308, 291.9414
