##NAMES=Ankerite
##RRUFFID=R050181
##IDEAL CHEMISTRY=CaFe^2+^(CO_3_)_2_
##LOCALITY=Cerro Sapo, Cochabamba Department, Bolivia
##OWNER=RRUFF
##SOURCE=Marcus Origlieri
##DESCRIPTION=White coarsely crystalline massive
##STATUS=The identification of this mineral has been confirmed by X-ray diffraction and chemical analysis
##URL=rruff.info/R050181
##MEASURED CHEMISTRY=Ca_1.00_(Fe^2+^_0.60_Mg_0.35_Mn^2+^_0.05_)_Î£=1_(CO_3_)_2_ ; C not measured but estimated by difference and stoichiometry
##PIN_ID=M00493
##ORIENTATION=Laser parallel to -a* (-1 0 0). Fiducial mark perpendicular to laser is parallel to c [0 0 1]
92.678, 0.000
94.071, 26.554
95.465, 86.474
96.858, 120.311
98.251, 171.275
99.644, 131.000
101.036, 111.155
102.428, 154.744
103.820, 44.601
105.212, 54.541
106.604, 6.426
107.995, 51.897
109.387, 68.638
110.777, 158.502
112.168, 207.074
113.559, 246.607
114.949, 300.951
116.339, 277.855
117.729, 266.347
119.119, 214.758
120.508, 192.845
121.897, 168.040
123.286, 110.517
124.675, 105.474
126.063, 73.625
127.452, 23.630
128.840, 4.541
130.228, 23.945
131.615, 16.341
133.003, 18.260
134.390, 79.841
135.777, 41.123
137.164, 97.142
138.550, 57.925
139.937, 37.804
141.323, 85.364
142.709, 122.861
144.094, 89.597
145.480, 105.472
146.865, 80.869
148.250, 85.900
149.635, 110.090
151.019, 130.251
152.403, 175.214
153.788, 178.268
155.171, 260.240
156.555, 303.548
157.939, 364.326
159.322, 474.529
160.705, 618.838
162.088, 810.328
163.470, 959.733
164.853, 1204.277
166.235, 1437.247
167.617, 1644.362
168.998, 1784.674
170.380, 1828.870
171.761, 1796.734
173.142, 1617.527
174.523, 1349.322
175.904, 1168.131
177.284, 941.048
178.664, 789.048
180.044, 626.109
181.424, 452.216
182.803, 390.339
184.183, 327.468
185.562, 254.611
186.940, 200.759
188.319, 160.911
189.698, 126.880
191.076, 111.177
192.454, 85.282
193.831, 91.340
195.209, 69.314
196.586, 74.246
197.963, 26.143
199.340, 0.003
200.717, 22.831
202.093, 39.628
203.470, 52.390
204.846, 5.120
206.221, 44.821
207.597, 32.493
208.972, 3.135
210.347, 43.747
211.722, 12.329
213.097, 15.879
214.472, 11.435
215.846, 22.052
217.220, 36.528
218.594, 14.050
219.967, 65.340
221.341, 8.301
222.714, 2.025
224.087, 28.313
225.460, 7.442
226.832, 63.759
228.204, 55.912
229.577, 54.155
230.948, 46.883
232.320, 57.818
233.692, 38.822
235.063, 0.169
236.434, 53.627
237.805, 91.980
239.175, 89.922
240.545, 55.014
241.916, 124.171
243.286, 111.093
244.655, 141.415
246.025, 182.261
247.394, 190.324
248.763, 204.868
250.132, 281.924
251.501, 257.542
252.869, 330.159
254.237, 380.240
255.605, 478.568
256.973, 541.881
258.340, 621.107
259.708, 723.215
261.075, 792.249
262.442, 919.206
263.808, 1046.043
265.175, 1189.956
266.541, 1344.789
267.907, 1525.314
269.273, 1729.574
270.639, 2042.502
272.004, 2315.048
273.369, 2637.618
274.734, 2986.307
276.099, 3239.063
277.463, 3671.505
278.828, 3983.846
280.192, 4234.080
281.556, 4456.198
282.919, 4617.636
284.283, 4735.256
285.646, 4780.142
287.009, 4719.933
288.372, 4623.305
289.734, 4468.642
291.097, 4164.760
292.459, 3899.270
293.821, 3644.707
295.183, 3283.936
296.544, 2979.088
297.905, 2656.356
299.266, 2334.215
300.627, 2080.606
301.988, 1820.411
303.348, 1595.826
304.709, 1415.194
306.069, 1183.900
307.428, 1050.648
308.788, 914.233
310.147, 802.745
311.507, 681.109
312.865, 596.432
314.224, 522.950
315.583, 482.436
316.941, 444.112
318.299, 359.612
319.657, 371.134
321.015, 325.654
322.372, 322.995
323.729, 317.350
325.086, 285.363
326.443, 267.131
327.800, 248.492
329.156, 209.775
330.512, 207.968
331.868, 270.142
333.224, 252.358
334.579, 167.529
335.935, 244.727
337.290, 251.882
338.645, 191.851
339.999, 233.877
341.354, 256.905
342.708, 287.805
344.062, 338.794
345.416, 381.818
346.769, 443.819
348.123, 442.657
349.476, 469.446
350.829, 481.193
352.182, 470.688
353.534, 472.030
354.887, 436.309
356.239, 403.431
357.591, 375.514
358.942, 309.469
360.294, 228.537
361.645, 192.042
362.996, 165.018
364.347, 177.433
365.698, 138.145
367.048, 93.823
368.398, 96.900
369.748, 76.611
371.098, 100.057
372.448, 42.040
373.797, 50.555
375.146, 72.678
376.495, 61.842
377.844, 84.943
379.192, 5.147
380.540, 45.493
381.889, 48.384
383.236, 24.068
384.584, 33.147
385.932, 10.954
387.279, 43.880
388.626, 28.334
389.973, 21.755
391.319, 16.091
392.666, 5.608
394.012, 23.776
395.358, 22.139
396.704, 6.306
398.049, 25.851
399.394, 4.881
400.740, 14.490
402.084, 42.187
403.429, 35.900
404.774, 8.721
406.118, 16.424
407.462, 16.967
408.806, 29.504
410.150, 3.951
411.493, 5.393
412.836, 3.777
414.179, 25.761
415.522, 0.275
416.865, 14.854
418.207, 3.316
419.549, 47.752
420.891, 23.149
422.233, 1.606
423.575, 40.924
424.916, 19.231
426.257, 24.475
427.598, 10.685
428.939, 34.926
430.279, 1.080
431.619, 34.188
432.959, 22.382
434.299, 41.550
435.639, 13.609
436.978, 17.603
438.318, 34.567
439.657, 31.502
440.996, 35.588
442.334, 40.697
443.673, 45.817
445.011, 30.850
446.349, 46.889
447.687, 29.771
449.024, 59.515
450.361, 51.301
451.699, 48.003
453.036, 53.744
454.372, 76.473
455.709, 66.160
457.045, 78.836
458.381, 50.509
459.717, 58.150
461.053, 79.755
462.388, 73.366
463.724, 93.046
465.059, 49.748
466.394, 56.441
467.728, 72.258
469.063, 65.870
470.397, 85.519
471.731, 76.031
473.065, 79.426
474.398, 41.804
475.732, 54.141
477.065, 40.603
478.398, 65.969
479.731, 88.401
481.063, 76.257
482.396, 104.649
483.728, 89.101
485.060, 47.416
486.391, 87.752
487.723, 64.830
489.054, 76.594
490.385, 91.102
491.716, 88.243
493.047, 71.448
494.377, 76.624
495.708, 64.547
497.038, 69.800
498.368, 108.736
499.697, 89.782
501.027, 83.813
502.356, 108.867
503.685, 81.799
505.014, 67.874
506.342, 67.814
507.671, 100.772
508.999, 106.729
510.327, 91.907
511.655, 106.830
512.982, 103.762
514.310, 97.627
515.637, 103.409
516.964, 113.172
518.291, 107.199
519.617, 84.807
520.944, 108.517
522.270, 111.254
523.596, 123.853
524.921, 80.520
526.247, 119.009
527.572, 118.357
528.897, 75.632
530.222, 112.812
531.547, 141.079
532.871, 104.184
534.196, 113.226
535.520, 119.390
536.844, 114.466
538.167, 107.638
539.491, 122.326
540.814, 115.050
542.137, 109.353
543.460, 116.540
544.783, 94.100
546.105, 99.918
547.427, 111.801
548.749, 141.669
550.071, 101.493
551.393, 100.241
552.714, 52.548
554.035, 73.341
555.356, 76.111
556.677, 112.735
557.998, 69.525
559.318, 135.816
560.638, 105.492
561.958, 110.425
563.278, 121.244
564.597, 90.264
565.917, 113.794
567.236, 112.447
568.555, 119.195
569.874, 80.483
571.192, 67.675
572.511, 88.957
573.829, 113.634
575.147, 54.064
576.464, 86.630
577.782, 87.084
579.099, 85.823
580.416, 50.433
581.733, 80.843
583.050, 66.527
584.366, 88.082
585.683, 83.675
586.999, 55.144
588.315, 67.766
589.630, 74.130
590.946, 41.731
592.261, 41.266
593.576, 59.878
594.891, 71.324
596.206, 78.800
597.520, 67.363
598.834, 22.910
600.148, 10.464
601.462, 0.733
602.776, 14.610
604.089, 6.117
605.402, 36.680
606.715, 73.164
608.028, 46.764
609.341, 60.322
610.653, 44.858
611.965, 42.410
613.277, 48.050
614.589, 47.638
615.901, 43.275
617.212, 45.872
618.523, 48.320
619.834, 41.938
621.145, 19.521
622.456, 9.180
623.766, 5.649
625.076, 3.538
626.386, 13.681
627.696, 0.191
629.006, 26.774
630.315, 49.310
631.624, 47.854
632.933, 53.165
634.242, 16.659
635.551, 34.040
636.859, 12.501
638.167, 8.264
639.475, 13.972
640.783, 0.432
642.090, 22.199
643.398, 11.541
644.705, 29.117
646.012, 24.091
647.318, 3.118
648.625, 41.743
649.931, 21.252
651.237, 22.614
652.543, 61.991
653.849, 23.313
655.155, 34.957
656.460, 29.452
657.765, 31.863
659.070, 21.246
660.375, 49.726
661.679, 6.205
662.984, 33.502
664.288, 23.794
665.592, 19.218
666.895, 19.338
668.199, 18.590
669.502, 12.008
670.805, 23.409
672.108, 38.778
673.411, 39.168
674.713, 17.594
676.016, 21.991
677.318, 41.307
678.620, 30.197
679.921, 48.597
681.223, 31.991
682.524, 32.769
683.825, 19.151
685.126, 38.527
686.427, 39.789
687.727, 76.156
689.028, 14.519
690.328, 52.869
691.628, 26.712
692.927, 43.062
694.227, 55.408
695.526, 26.749
696.825, 30.089
698.124, 28.534
699.423, 16.106
700.721, 6.799
702.020, 10.927
703.318, 34.250
704.616, 47.613
705.913, 25.942
707.211, 53.269
708.508, 22.593
709.805, 49.750
711.102, 42.993
712.399, 115.248
713.695, 74.564
714.992, 163.792
716.288, 212.104
717.584, 237.415
718.879, 358.735
720.175, 321.052
721.470, 440.370
722.765, 435.691
724.060, 484.010
725.355, 452.326
726.649, 448.642
727.944, 446.911
729.238, 338.227
730.532, 307.540
731.825, 337.758
733.119, 286.069
734.412, 296.777
735.705, 248.084
736.998, 229.290
738.291, 237.766
739.584, 178.041
740.876, 155.721
742.168, 196.019
743.460, 136.378
744.752, 103.661
746.043, 115.022
747.334, 128.199
748.626, 133.375
749.916, 88.703
751.207, 93.900
752.498, 89.741
753.788, 110.162
755.078, 72.266
756.368, 42.914
757.658, 31.925
758.947, 75.994
760.237, 59.029
761.526, 76.193
762.815, 64.466
764.104, 43.673
765.392, 81.937
766.680, 30.137
767.969, 50.328
769.257, 19.542
770.544, 68.374
771.832, 94.570
773.119, 29.777
774.406, 38.995
775.693, 24.186
776.980, 42.430
778.267, 48.485
779.553, 28.527
780.839, 23.423
782.125, 23.500
783.411, 31.517
784.697, 35.651
785.982, 36.879
787.267, 50.102
788.552, 62.346
789.837, 8.441
791.122, 14.611
792.406, 6.308
793.690, 7.676
794.974, 33.493
796.258, 4.482
797.542, 22.587
798.825, 9.350
800.108, 6.616
801.391, 6.030
802.674, 3.213
803.957, 3.950
805.239, 11.027
806.522, 25.113
807.804, 30.308
809.085, 1.600
810.367, 36.539
811.649, 34.657
812.930, 6.787
814.211, 34.874
815.492, 2.064
816.772, 23.090
818.053, 22.233
819.333, 53.338
820.613, 15.425
821.893, 7.728
823.173, 11.354
824.452, 8.410
825.732, 32.516
827.011, 31.728
828.290, 20.865
829.568, 31.953
830.847, 4.062
832.125, 6.754
833.403, 27.388
834.681, 50.567
835.959, 7.279
837.236, 19.874
838.514, 18.972
839.791, 3.148
841.068, 50.325
842.345, 32.502
843.621, 10.592
844.898, 7.230
846.174, 24.909
847.450, 31.083
848.726, 19.259
850.001, 15.406
851.277, 19.429
852.552, 37.718
853.827, 56.816
855.102, 6.658
856.376, 24.418
857.651, 1.585
858.925, 58.753
860.199, 66.901
861.473, 28.070
862.746, 10.211
864.020, 57.383
865.293, 63.557
866.566, 82.732
867.839, 69.908
869.112, 122.086
870.384, 215.265
871.656, 307.446
872.928, 435.628
874.200, 500.811
875.472, 478.996
876.744, 388.182
878.015, 201.370
879.286, 102.559
880.557, 81.750
881.828, 51.943
883.098, 20.137
884.369, 18.333
885.639, 29.531
886.909, 8.269
888.178, 3.929
889.448, 14.128
890.717, 23.669
891.987, 27.525
893.256, 8.278
894.524, 17.916
895.793, 2.887
897.061, 6.311
898.330, 1.490
899.598, 16.711
900.865, 26.915
902.133, 1.879
903.401, 19.671
904.668, 12.712
905.935, 24.339
907.202, 1.921
908.468, 13.884
909.735, 12.309
911.001, 33.505
912.267, 29.705
913.533, 18.908
914.799, 19.115
916.064, 21.324
917.330, 37.536
918.595, 38.751
919.860, 6.969
921.124, 43.192
922.389, 15.581
923.653, 4.643
924.918, 23.870
926.182, 14.101
927.445, 24.334
928.709, 5.429
929.972, 20.810
931.236, 41.053
932.499, 51.300
933.761, 13.551
935.024, 62.807
936.286, 32.066
937.549, 72.330
938.811, 39.596
940.073, 7.867
941.334, 36.140
942.596, 31.397
943.857, 19.679
945.118, 33.277
946.379, 5.184
947.640, 52.111
948.900, 4.302
950.161, 50.605
951.421, 14.926
952.681, 12.745
953.940, 79.503
955.200, 14.430
956.459, 28.696
957.719, 50.036
958.978, 5.381
960.236, 47.730
961.495, 58.777
962.753, 66.135
964.012, 25.497
965.270, 13.859
966.527, 22.230
967.785, 14.487
969.043, 36.866
970.300, 39.250
971.557, 34.639
972.814, 46.033
974.071, 39.665
975.327, 48.278
976.583, 33.691
977.840, 56.108
979.095, 52.531
980.351, 81.957
981.607, 85.389
982.862, 102.807
984.117, 98.752
985.372, 113.197
986.627, 63.647
987.882, 68.588
989.136, 79.047
990.390, 60.511
991.644, 74.955
992.898, 54.429
994.152, 65.907
995.405, 78.395
996.659, 67.399
997.912, 90.896
999.165, 87.404
1000.417, 63.915
1001.670, 92.432
1002.922, 47.845
1004.174, 78.373
1005.426, 105.915
1006.678, 64.042
1007.930, 48.598
1009.181, 98.133
1010.432, 67.703
1011.683, 119.279
1012.934, 118.859
1014.185, 94.445
1015.435, 129.036
1016.685, 141.633
1017.935, 149.241
1019.185, 166.858
1020.435, 149.479
1021.684, 129.112
1022.934, 196.765
1024.183, 220.423
1025.432, 171.086
1026.680, 184.754
1027.929, 171.428
1029.177, 215.110
1030.425, 222.797
1031.673, 270.489
1032.921, 226.187
1034.169, 235.889
1035.416, 264.604
1036.663, 213.323
1037.911, 272.648
1039.157, 356.381
1040.404, 274.285
1041.650, 336.857
1042.897, 379.606
1044.143, 382.981
1045.389, 419.740
1046.634, 463.386
1047.880, 536.165
1049.125, 526.889
1050.371, 517.685
1051.615, 535.486
1052.860, 509.222
1054.105, 447.133
1055.349, 503.404
1056.593, 468.099
1057.837, 536.936
1059.081, 562.191
1060.325, 545.052
1061.568, 599.918
1062.812, 577.792
1064.055, 712.669
1065.298, 736.553
1066.540, 806.441
1067.783, 862.335
1069.025, 949.237
1070.267, 1092.681
1071.509, 1236.594
1072.751, 1252.897
1073.993, 1346.821
1075.234, 1423.751
1076.475, 1506.686
1077.716, 1689.626
1078.957, 1854.425
1080.198, 2146.377
1081.438, 2507.333
1082.679, 2983.295
1083.919, 3795.262
1085.159, 4883.234
1086.398, 6510.213
1087.638, 9453.196
1088.877, 13832.183
1090.116, 21201.182
1091.355, 31410.184
1092.594, 40849.191
1093.833, 47358.199
1095.071, 43997.211
1096.309, 36076.152
1097.547, 26865.180
1098.785, 18534.217
1100.023, 12193.262
1101.260, 8181.873
1102.498, 5664.931
1103.735, 4009.997
1104.972, 2979.071
1106.208, 2234.149
1107.445, 1881.232
1108.681, 1466.319
1109.918, 1292.432
1111.154, 1112.530
1112.389, 949.633
1113.625, 880.741
1114.860, 729.854
1116.096, 640.971
1117.331, 594.093
1118.566, 516.220
1119.800, 483.058
1121.035, 481.487
1122.269, 444.627
1123.503, 402.775
1124.737, 423.926
1125.971, 462.082
1127.205, 348.242
1128.438, 312.407
1129.671, 318.575
1130.904, 254.748
1132.137, 213.925
1133.370, 238.122
1134.602, 180.309
1135.834, 235.500
1137.066, 195.697
1138.298, 181.897
1139.530, 174.102
1140.762, 194.327
1141.993, 109.540
1143.224, 169.857
1144.455, 107.077
1145.686, 100.302
1146.917, 191.561
1148.147, 75.793
1149.377, 117.028
1150.607, 134.448
1151.837, 102.694
1153.067, 117.098
1154.296, 69.350
1155.526, 78.729
1156.755, 92.015
1157.984, 115.278
1159.213, 110.570
1160.441, 65.838
1161.670, 65.294
1162.898, 61.567
1164.126, 72.843
1165.354, 70.472
1166.581, 75.674
1167.809, 73.015
1169.036, 67.854
1170.263, 74.519
1171.490, 63.765
1172.717, 36.221
1173.943, 57.514
1175.170, 48.922
1176.396, 70.863
1177.622, 36.217
1178.848, 22.565
1180.073, 46.867
1181.299, 96.171
1182.524, 92.971
1183.749, 56.278
1184.974, 109.664
1186.199, 29.743
1187.423, 9.945
1188.648, 44.437
1189.872, 46.848
1191.096, 33.167
1192.320, 3.525
1193.543, 37.120
1194.767, 78.467
1195.990, 42.146
1197.213, 40.485
1198.436, 28.872
1199.659, 12.837
1200.881, 29.568
1202.104, 30.950
1203.326, 41.400
1204.548, 92.798
1205.770, 7.344
1206.991, 27.653
1208.213, 81.001
1209.434, 50.605
1210.655, 85.953
1211.876, 96.610
1213.096, 54.653
1214.317, 88.003
1215.537, 63.077
1216.757, 15.573
1217.977, 23.798
1219.197, 0.142
1220.417, 47.809
1221.636, 29.159
1222.855, 51.509
1224.074, 96.858
1225.293, 53.207
1226.512, 4.798
1227.731, 69.146
1228.949, 75.598
1230.167, 38.028
1231.385, 67.416
1232.603, 7.950
1233.820, 45.295
1235.038, 42.639
1236.255, 22.711
1237.472, 23.052
1238.689, 33.392
1239.906, 75.732
1241.122, 38.074
1242.338, 54.417
1243.555, 85.761
1244.771, 9.107
1245.986, 58.454
1247.202, 52.801
1248.417, 4.152
1249.633, 22.503
1250.848, 25.855
1252.063, 26.208
1253.277, 35.561
1254.492, 8.916
1255.706, 0.270
1256.920, 77.625
1258.134, 41.981
1259.348, 31.337
1260.562, 82.694
1261.775, 20.052
1262.988, 93.409
1264.201, 39.761
1265.414, 13.113
1266.627, 69.460
1267.839, 42.805
1269.052, 62.140
1270.264, 70.473
1271.476, 61.800
1272.688, 22.127
1273.899, 14.452
1275.111, 44.767
1276.322, 44.078
1277.533, 84.359
1278.744, 11.639
1279.955, 17.917
1281.165, 17.190
1282.376, 30.462
1283.586, 33.723
1284.796, 47.982
1286.006, 14.234
1287.215, 63.484
1288.425, 13.267
1289.634, 19.960
1290.843, 24.176
1292.052, 11.615
1293.261, 36.577
1294.469, 37.767
1295.678, 2.931
1296.886, 43.090
1298.094, 28.754
1299.302, 59.390
1300.509, 6.526
1301.717, 10.342
1302.924, 28.780
1304.131, 18.898
1305.338, 35.011
1306.545, 5.121
1307.752, 41.225
1308.958, 45.324
1310.164, 21.587
1311.370, 0.510
1312.576, 14.562
1313.782, 17.371
1314.987, 46.314
1316.193, 31.724
1317.398, 10.757
1318.603, 37.785
1319.807, 11.809
1321.012, 2.174
1322.216, 17.836
1323.421, 19.840
1324.625, 41.839
1325.829, 42.831
1327.032, 15.182
1328.236, 45.793
1329.439, 16.763
1330.642, 3.274
1331.845, 51.681
1333.048, 18.465
1334.251, 16.409
1335.453, 92.347
1336.656, 26.280
1337.858, 26.792
1339.060, 30.121
1340.261, 11.970
1341.463, 32.929
1342.664, 21.823
1343.866, 0.286
1345.067, 12.403
1346.267, 25.471
1347.468, 17.340
1348.669, 24.205
1349.869, 24.840
1351.069, 4.993
1352.269, 44.140
1353.469, 9.976
1354.668, 55.807
1355.868, 65.985
1357.067, 43.832
1358.266, 74.654
1359.465, 0.526
1360.664, 43.287
1361.862, 33.562
1363.061, 52.371
1364.259, 8.877
1365.457, 60.682
1366.655, 51.510
1367.852, 76.297
1369.050, 98.081
1370.247, 12.845
1371.444, 52.605
1372.641, 22.360
1373.838, 25.063
1375.035, 32.854
1376.231, 16.525
1377.427, 48.179
1378.623, 68.815
1379.819, 0.415
1381.015, 69.986
1382.211, 51.541
1383.406, 93.766
1384.601, 101.988
1385.796, 73.207
1386.991, 109.422
1388.185, 87.634
1389.380, 76.842
1390.574, 60.046
1391.768, 99.224
1392.962, 52.420
1394.156, 73.612
1395.350, 60.799
1396.543, 111.982
1397.736, 162.160
1398.929, 86.334
1400.122, 108.503
1401.315, 100.669
1402.507, 70.814
1403.700, 114.972
1404.892, 135.126
1406.084, 86.257
1407.276, 152.066
1408.467, 111.196
1409.659, 136.048
1410.850, 160.931
1412.041, 165.312
1413.232, 205.231
1414.423, 210.180
1415.614, 239.994
1416.804, 234.800
1417.994, 259.450
1419.184, 272.740
1420.374, 339.010
1421.564, 310.766
1422.753, 347.526
1423.943, 406.449
1425.132, 335.276
1426.321, 446.001
1427.510, 473.748
1428.698, 512.464
1429.887, 515.060
1431.075, 530.838
1432.263, 561.128
1433.451, 585.858
1434.639, 624.416
1435.827, 669.814
1437.014, 707.227
1438.201, 764.685
1439.388, 745.848
1440.575, 759.421
1441.762, 730.982
1442.949, 720.271
1444.135, 700.757
1445.321, 567.698
1446.507, 561.189
1447.693, 459.220
1448.879, 389.486
1450.064, 394.697
1451.250, 309.764
1452.435, 343.740
1453.620, 273.125
1454.805, 250.484
1455.989, 237.810
1457.174, 241.102
1458.358, 158.359
1459.542, 207.578
1460.726, 142.758
1461.910, 157.896
1463.093, 139.992
1464.277, 140.042
1465.460, 149.044
1466.643, 147.025
1467.826, 96.986
1469.009, 112.960
1470.191, 109.916
1471.373, 64.853
1472.556, 103.864
1473.738, 113.914
1474.919, 50.949
1476.101, 127.995
1477.283, 97.034
1478.464, 74.079
1479.645, 70.203
1480.826, 48.379
1482.007, 55.685
1483.187, 78.978
1484.368, 34.293
1485.548, 90.612
1486.728, 62.934
1487.908, 28.262
1489.088, 85.638
1490.268, 52.011
1491.447, 5.386
1492.626, 86.769
1493.805, 1.833
1494.984, 35.588
1496.163, 52.044
1497.341, 2.462
1498.520, 17.077
1499.698, 40.659
1500.876, 38.290
1502.054, 66.976
1503.232, 24.709
1504.409, 48.485
1505.586, 6.692
1506.763, 43.187
1507.940, 18.294
1509.117, 62.431
1510.294, 33.201
1511.470, 50.204
1512.647, 43.922
1513.823, 62.397
1514.999, 29.288
1516.174, 0.116
1517.350, 30.452
1518.526, 65.535
1519.701, 50.322
1520.876, 63.157
1522.051, 66.138
1523.226, 0.000
##END=



