##NAMES=Annite
##RRUFFID=R060204
##IDEAL CHEMISTRY=KFe^2+^_3_AlSi_3_O_10_(OH)_2_
##LOCALITY=Mont Saint-Hilaire, Rouville County, Quebec, Canada
##OWNER=RRUFF
##SOURCE=Royal Ontario Museum
##DESCRIPTION=Black mica with pseudohexagonal outines
##STATUS=The identification of this mineral has been confirmed by X-ray diffraction and chemical analysis
##URL=rruff.info/R060204
##MEASURED CHEMISTRY=(K_0.96_Na_0.04_)_Σ=1_(Fe^2+^_2.04_Mg_0.81_Mn_0.09_Ti_0.03_[box]_0.03_)_Σ=3_(Si_3.00_Al_1.00_)O_10_((OH)_1.54_F_0.46_)_Σ=2_
##PIN_ID=M00140
##ORIENTATION=Laser parallel to c* (0 0 1). Fiducial mark perpendicular to laser is parallel to -a [-1 0 0]
307.1510, 0.0000000E+00
308.3580, 332.5820
309.5660, 448.3047
310.7730, 839.9180
311.9800, 2.191406
313.1870, 212.7305
314.3940, 226.3047
315.6010, 312.3125
316.8070, 134.4336
318.0130, 171.2227
319.2200, 19.79688
320.4260, 157.3984
321.6310, 51.86719
322.8370, 195.4492
324.0430, 397.0195
325.2480, 135.6406
326.4540, 315.3633
327.6590, 140.0625
328.8640, 65.58203
330.0680, 226.8008
331.2730, 332.6133
332.4780, 671.9570
333.6820, 54.75781
334.8860, 684.9805
336.0900, 262.5859
337.2940, 534.5352
338.4980, 250.8203
339.7010, 594.4297
340.9050, 167.3555
342.1080, 804.9531
343.3110, 669.8945
344.5140, 585.2773
345.7170, 731.8750
346.9200, 422.7578
348.1220, 914.6094
349.3240, 731.4375
350.5270, 614.2578
351.7290, 502.0781
352.9310, 651.9141
354.1320, 889.7734
355.3340, 708.6641
356.5350, 580.5938
357.7370, 735.0117
358.9380, 902.4688
360.1390, 994.7227
361.3400, 1015.820
362.5400, 752.3906
363.7410, 856.5312
364.9410, 813.4648
366.1410, 764.4609
367.3410, 920.5586
368.5410, 698.9570
369.7410, 852.2227
370.9400, 855.8281
372.1400, 927.9883
373.3390, 852.0586
374.5380, 823.8242
375.7370, 963.5586
376.9360, 1032.836
378.1350, 948.2578
379.3330, 1044.371
380.5310, 817.2266
381.7300, 861.3359
382.9280, 1016.840
384.1260, 935.0508
385.3230, 1021.113
386.5210, 1037.168
387.7180, 767.8477
388.9160, 994.8203
390.1130, 1007.285
391.3100, 799.5273
392.5060, 1009.762
393.7030, 832.5703
394.9000, 793.8203
396.0960, 859.2539
397.2920, 816.2656
398.4880, 944.4883
399.6840, 907.9883
400.8800, 856.8633
402.0750, 855.2734
403.2710, 1170.203
404.4660, 712.2383
405.6610, 961.3789
406.8560, 905.6250
408.0510, 943.9844
409.2450, 1024.891
410.4400, 1136.012
411.6340, 1046.688
412.8280, 591.4648
414.0220, 473.3555
415.2160, 545.3438
416.4100, 787.4219
417.6030, 681.6016
418.7970, 722.8867
419.9900, 623.2617
421.1830, 769.7344
422.3760, 319.3047
423.5690, 326.9805
424.7610, 413.7500
425.9540, 442.6289
427.1460, 517.6094
428.3380, 304.6914
429.5300, 232.8750
430.7220, 483.1641
431.9140, 6.554688
433.1050, 194.0547
434.2970, 100.6641
435.4880, 266.3789
436.6790, 195.3438
437.8700, 174.7227
439.0610, 53.23047
440.2510, 62.41797
441.4420, 24.27734
442.6320, 129.8438
443.8220, 151.1914
445.0120, 89.68359
446.2020, 318.8477
447.3910, 57.98438
448.5810, 126.1641
449.7700, 221.2695
450.9600, 51.67578
452.1490, 25.03516
453.3370, 35.35156
454.5260, 82.51562
455.7150, 26.51953
456.9030, 34.07812
458.0910, 25.37500
459.2800, 86.12500
460.4670, 69.98828
461.6550, 339.1016
462.8430, 115.4219
464.0300, 408.8984
465.2180, 4.351563
466.4050, 512.9258
467.5920, 312.6328
468.7790, 306.4570
469.9650, 404.3984
471.1520, 796.4453
472.3380, 531.5977
473.5250, 707.8555
474.7110, 839.2188
475.8970, 765.6797
477.0820, 800.2383
478.2680, 658.8906
479.4540, 785.3203
480.6390, 1101.484
481.8240, 1016.418
483.0090, 1120.445
484.1940, 1263.562
485.3780, 1230.750
486.5630, 1369.039
487.7470, 1296.387
488.9320, 1517.812
490.1160, 1590.312
491.3000, 1648.887
492.4830, 1351.535
493.6670, 1390.254
494.8500, 1539.051
496.0340, 1972.926
497.2170, 2027.590
498.4000, 2057.535
499.5820, 2359.988
500.7650, 1874.160
501.9480, 1903.410
503.1300, 1711.734
504.3120, 1766.133
505.4940, 1863.609
506.6760, 1813.770
507.8580, 1790.805
509.0390, 1964.488
510.2210, 1791.262
511.4020, 2022.113
512.5830, 1949.223
513.7640, 2206.023
514.9450, 1881.094
516.1250, 2064.234
517.3060, 2014.445
518.4860, 2129.633
519.6660, 2205.656
520.8460, 2107.895
522.0260, 2315.578
523.2060, 2309.918
524.3850, 2270.531
525.5650, 2422.871
526.7440, 2238.273
527.9230, 2433.719
529.1020, 2618.246
530.2810, 2202.844
531.4590, 2326.523
532.6380, 2606.281
533.8160, 2733.125
534.9940, 2469.043
536.1720, 2936.039
537.3500, 2668.137
538.5270, 2808.312
539.7050, 2845.566
540.8820, 2770.934
542.0590, 2811.383
543.2360, 2821.918
544.4130, 2789.582
545.5900, 2785.023
546.7660, 2784.977
547.9430, 2712.832
549.1190, 2756.754
550.2950, 2710.805
551.4710, 2928.938
552.6470, 2929.141
553.8220, 2804.422
554.9980, 2830.777
556.1730, 2578.320
557.3480, 2483.992
558.5230, 2469.785
559.6980, 2310.766
560.8730, 2382.812
562.0470, 2245.047
563.2220, 1921.445
564.3960, 2090.973
565.5700, 1761.586
566.7440, 1660.359
567.9170, 1633.293
569.0910, 1353.309
570.2640, 1501.504
571.4380, 1551.789
572.6110, 1547.145
573.7840, 1020.500
574.9570, 805.0273
576.1290, 830.6211
577.3020, 521.3086
578.4740, 384.0664
579.6460, 342.9609
580.8180, 423.9336
581.9900, 531.0156
583.1620, 745.3750
584.3330, 584.7773
585.5040, 163.6875
586.6760, 306.0352
587.8470, 294.3086
589.0180, 194.4688
590.1880, 136.4453
591.3590, 69.69922
592.5290, 83.58984
593.7000, 76.75781
594.8700, 7.136719
596.0400, 136.3438
597.2090, 148.4023
598.3790, 56.54688
599.5490, 101.6562
600.7180, 218.9531
601.8870, 0.4023440
603.0560, 146.9102
604.2250, 218.2344
605.3940, 9.089844
606.5620, 167.3555
607.7300, 178.4961
608.8990, 183.7305
610.0670, 394.0117
611.2350, 99.85938
612.4020, 287.8242
613.5700, 271.2305
614.7370, 529.9570
615.9050, 96.12891
617.0720, 404.3711
618.2390, 207.6797
619.4060, 391.0586
620.5720, 443.5039
621.7390, 517.0234
622.9050, 702.6016
624.0710, 401.2539
625.2370, 205.9688
626.4030, 533.7500
627.5690, 916.6016
628.7340, 543.5195
629.9000, 620.5039
631.0650, 566.5508
632.2300, 768.6680
633.3950, 1050.844
634.5600, 1104.090
635.7240, 875.3945
636.8890, 733.7656
638.0530, 999.1992
639.2170, 1024.699
640.3810, 997.2617
641.5450, 1089.887
642.7080, 1100.062
643.8720, 1169.320
645.0350, 1130.133
646.1980, 1270.004
647.3610, 1178.938
648.5240, 1317.938
649.6870, 1685.988
650.8490, 1687.109
652.0120, 1978.281
653.1740, 1761.516
654.3360, 1922.812
655.4980, 2078.930
656.6600, 2293.578
657.8210, 2482.055
658.9830, 2912.582
660.1440, 3254.172
661.3050, 3071.820
662.4660, 3609.527
663.6270, 3860.430
664.7870, 4132.117
665.9480, 4497.000
667.1080, 4968.938
668.2680, 4953.934
669.4280, 5487.992
670.5880, 5340.102
671.7480, 6053.273
672.9070, 6002.492
674.0670, 5903.773
675.2260, 6143.113
676.3850, 5861.004
677.5440, 6035.445
678.7030, 5613.945
679.8610, 6145.309
681.0200, 5253.918
682.1780, 5158.605
683.3360, 5117.316
684.4940, 4598.887
685.6520, 4670.945
686.8090, 4090.121
687.9670, 4219.039
689.1240, 4139.688
690.2810, 4480.188
691.4380, 4278.477
692.5950, 4850.594
693.7520, 4643.754
694.9080, 5071.434
696.0650, 5187.969
697.2210, 5715.305
698.3770, 5736.324
699.5330, 5914.586
700.6880, 6291.559
701.8440, 7338.562
702.9990, 7749.359
704.1550, 7988.402
705.3100, 7725.074
706.4650, 8119.793
707.6190, 8557.469
708.7740, 8634.621
709.9290, 8909.926
711.0830, 9266.820
712.2370, 9679.469
713.3910, 9665.160
714.5450, 9904.070
715.6980, 9791.070
716.8520, 10121.96
718.0050, 10041.32
719.1580, 10261.41
720.3110, 10007.80
721.4640, 10036.59
722.6170, 9698.617
723.7700, 9624.383
724.9220, 9137.738
726.0740, 9159.906
727.2260, 8686.148
728.3780, 8426.414
729.5300, 8031.719
730.6810, 7771.660
731.8330, 7382.734
732.9840, 7243.781
734.1350, 6967.207
735.2860, 6593.684
736.4370, 6293.176
737.5880, 6176.828
738.7380, 5705.844
739.8880, 6064.422
741.0390, 5669.973
742.1890, 5363.578
743.3380, 5551.223
744.4880, 5421.883
745.6380, 4997.562
746.7870, 4898.266
747.9360, 5191.980
749.0850, 5154.711
750.2340, 5229.461
751.3830, 5197.230
752.5310, 5207.016
753.6800, 5333.816
754.8280, 5559.629
755.9760, 5371.461
757.1240, 5661.305
758.2720, 5915.164
759.4190, 5773.035
760.5670, 6075.922
761.7140, 5984.824
762.8610, 6288.738
764.0080, 6206.664
765.1550, 6279.605
766.3020, 6057.559
767.4480, 6415.527
768.5950, 6259.504
769.7410, 6270.492
770.8870, 5811.496
772.0330, 5761.793
773.1780, 5512.094
774.3240, 5455.555
775.4690, 5124.602
776.6140, 5054.652
777.7590, 5022.715
778.9040, 4706.789
780.0490, 4726.863
781.1940, 4262.953
782.3380, 3990.051
783.4820, 3791.160
784.6260, 3948.273
785.7700, 3253.391
786.9140, 3438.520
788.0580, 2840.660
789.2010, 2671.801
790.3450, 2524.949
791.4880, 2641.113
792.6310, 2230.273
793.7730, 2059.445
794.9160, 1906.621
796.0590, 1788.801
797.2010, 1631.477
798.3430, 1536.184
799.4850, 1348.379
800.6270, 1245.582
801.7690, 1095.789
802.9100, 1069.000
804.0520, 825.2188
805.1930, 609.4375
806.3340, 626.2266
807.4750, 547.2695
808.6160, 528.1211
809.7560, 613.3555
810.8970, 414.5977
812.0370, 424.8398
813.1770, 39.91406
814.3170, 138.2852
815.4570, 430.4805
816.5960, 77.31641
817.7360, 403.8125
818.8750, 24.94922
820.0140, 215.0586
821.1530, 176.1758
822.2920, 111.2891
823.4310, 21.40625
824.5690, 143.4961
825.7070, 104.4102
826.8460, 44.59766
827.9840, 104.5938
829.1220, 495.5820
830.2590, 150.5742
831.3970, 388.4336
832.5340, 145.6719
833.6710, 90.01953
834.8080, 288.4492
835.9450, 155.0625
837.0820, 268.7852
838.2190, 285.6797
839.3550, 127.7500
840.4910, 11.92188
841.6270, 278.1406
842.7630, 278.5312
843.8990, 65.90234
845.0350, 387.6797
846.1700, 2.511719
847.3060, 118.6641
848.4410, 37.18750
849.5760, 69.91016
850.7100, 126.9961
851.8450, 8.843750
852.9800, 251.1211
854.1140, 219.8359
855.2480, 27.06250
856.3820, 84.07031
857.5160, 244.2695
858.6500, 160.3711
859.7830, 36.01172
860.9170, 20.63672
862.0500, 160.2344
863.1830, 178.8281
864.3160, 193.1680
865.4480, 194.0234
866.5810, 217.6250
867.7130, 236.2227
868.8460, 278.8320
869.9780, 272.4297
871.1100, 313.0664
872.2410, 186.6758
873.3730, 280.2930
874.5050, 71.91406
875.6360, 172.5234
876.7670, 412.1602
877.8980, 338.8008
879.0290, 490.4414
880.1590, 508.1719
881.2900, 500.7188
882.4200, 547.3633
883.5500, 499.9961
884.6800, 563.6406
885.8100, 633.1680
886.9400, 759.9180
888.0690, 688.5586
889.1990, 774.1992
890.3280, 516.8398
891.4570, 860.4844
892.5860, 834.1289
893.7140, 891.7695
894.8430, 1204.414
895.9710, 1317.059
897.1000, 861.7070
898.2280, 795.3555
899.3560, 921.0078
900.4830, 933.6562
901.6110, 1225.312
902.7380, 1027.965
903.8660, 1317.625
904.9930, 1210.281
906.1200, 1469.941
907.2460, 1437.605
908.3730, 871.2695
909.5000, 1313.938
910.6260, 1118.609
911.7520, 1271.281
912.8780, 1276.957
914.0040, 1419.637
915.1290, 1380.816
916.2550, 1678.000
917.3800, 1389.688
918.5050, 1385.379
919.6300, 1595.078
920.7550, 1418.777
921.8800, 1652.484
923.0040, 1389.207
924.1290, 1369.941
925.2530, 1399.676
926.3770, 1672.410
927.5010, 1692.156
928.6250, 1633.918
929.7480, 1609.684
930.8720, 1571.797
931.9950, 1723.266
933.1180, 1505.074
934.2410, 1629.922
935.3640, 1676.766
936.4860, 1625.621
937.6090, 1867.477
938.7310, 1989.344
939.8530, 1644.211
940.9750, 1943.109
942.0970, 1650.027
943.2180, 1849.957
944.3400, 1897.988
945.4610, 1644.027
946.5820, 2046.098
947.7030, 1810.520
948.8240, 1832.816
949.9450, 1642.945
951.0650, 1670.078
952.1860, 1634.414
953.3060, 1657.562
954.4260, 1667.691
955.5460, 1486.859
956.6650, 1693.035
957.7850, 1507.203
958.9040, 1623.141
960.0230, 1666.406
961.1420, 1505.000
962.2610, 1459.797
963.3800, 1288.875
964.4990, 1369.184
965.6170, 1334.500
966.7350, 1316.359
967.8530, 1409.680
968.9710, 1283.793
970.0890, 1455.512
971.2070, 1464.047
972.3240, 1204.934
973.4410, 1256.871
974.5580, 1346.109
975.6750, 1026.160
976.7920, 1091.645
977.9090, 1273.133
979.0250, 1345.746
980.1410, 1337.930
981.2580, 1415.957
982.3740, 1509.305
983.4890, 1438.496
984.6050, 1570.402
985.7200, 1571.168
986.8360, 1274.891
987.9510, 1262.773
989.0660, 1209.246
990.1810, 1134.062
991.2950, 1010.605
992.4100, 1418.828
993.5240, 1310.863
994.6390, 1165.242
995.7530, 1532.105
996.8660, 1416.230
997.9800, 1445.391
999.0940, 1617.586
1000.207, 1267.809
1001.320, 1078.062
1002.433, 1336.359
1003.546, 1178.691
1004.659, 1300.055
1005.772, 1311.453
1006.884, 1641.879
1007.996, 1323.340
1009.108, 1461.359
1010.220, 1132.883
1011.332, 1648.445
1012.444, 1341.043
1013.555, 1478.672
1014.666, 1456.336
1015.777, 1397.031
1016.888, 1732.770
1017.999, 1716.469
1019.110, 1837.348
1020.220, 1925.188
1021.331, 1829.062
1022.441, 1834.969
1023.551, 1774.914
1024.661, 1809.898
1025.770, 1761.922
1026.880, 1486.977
1027.989, 1726.070
1029.098, 1817.203
1030.207, 2094.371
1031.316, 1948.570
1032.425, 2056.672
1033.533, 1914.090
1034.642, 2058.398
1035.750, 1902.742
1036.858, 1928.125
1037.966, 2018.543
1039.073, 1655.992
1040.181, 2016.480
1041.288, 1867.004
1042.396, 1982.566
1043.503, 1906.164
1044.610, 2104.793
1045.716, 1715.465
1046.823, 1824.176
1047.929, 2147.922
1049.036, 1804.707
1050.142, 1761.531
1051.248, 2247.395
1052.353, 1970.723
1053.459, 2228.777
1054.564, 2054.742
1055.670, 2071.633
1056.775, 2233.141
1057.880, 2319.414
1058.985, 2334.496
1060.089, 2065.625
1061.194, 2166.090
1062.298, 2116.926
1063.402, 2061.738
1064.506, 2218.598
1065.610, 1990.730
1066.713, 2142.410
1067.817, 2139.633
1068.920, 2205.332
1070.023, 2122.898
1071.126, 1837.746
1072.229, 2502.305
1073.332, 1972.949
1074.435, 2417.535
1075.537, 2007.199
1076.639, 2094.262
1077.741, 2109.996
1078.843, 2673.230
1079.945, 2781.469
1081.046, 2291.438
1082.148, 2254.352
1083.249, 2015.277
1084.350, 2050.234
1085.451, 2037.266
1086.551, 2092.328
1087.652, 1948.438
1088.752, 2102.578
1089.853, 1992.852
1090.953, 2317.602
1092.053, 1954.867
1093.152, 1793.160
1094.252, 1973.535
1095.351, 1490.957
1096.451, 1538.410
1097.550, 1524.891
1098.649, 1551.410
1099.748, 1315.809
1100.846, 1628.555
1101.945, 1125.406
1103.043, 1512.383
1104.141, 1288.453
1105.239, 1421.980
1106.337, 964.1680
1107.434, 1168.555
1108.532, 1175.996
1109.629, 1177.551
1110.726, 1412.605
1111.823, 1112.320
1112.920, 1226.332
1114.017, 1479.855
1115.113, 1262.793
1116.210, 1221.305
1117.306, 1213.363
1118.402, 1213.449
1119.498, 1486.598
1120.593, 1246.895
1121.689, 1372.445
1122.784, 1422.801
1123.879, 1402.055
1124.974, 1096.840
1126.069, 1159.121
1127.164, 1074.422
1128.259, 983.4688
1129.353, 1097.617
1130.447, 833.9883
1131.541, 944.9258
1132.635, 906.3906
1133.729, 937.9922
1134.822, 819.7930
1135.916, 747.3555
1137.009, 539.4258
1138.102, 407.3281
1139.195, 530.2539
1140.288, 699.2930
1141.380, 421.2695
1142.473, 409.2734
1143.565, 573.3047
1144.657, 434.3555
1145.749, 576.4297
1146.841, 297.5273
1147.932, 495.3477
1149.024, 467.4961
1150.115, 441.6602
1151.206, 325.8477
1152.297, 250.0586
1153.388, 244.8672
1154.479, 141.5547
1155.569, 226.4062
1156.659, 327.0352
1157.750, 310.5664
1158.839, 76.91016
1159.929, 388.6484
1161.019, 270.7500
1162.108, 710.5820
1163.198, 393.0039
1164.287, 199.4414
1165.376, 394.9219
1166.465, 247.4023
1167.553, 110.8984
1168.642, 269.4141
1169.730, 34.94922
1170.818, 259.5039
1171.906, 131.3711
1172.994, 19.96094
1174.082, 257.5703
1175.170, 291.1953
1176.257, 355.6562
1177.344, 176.7617
1178.431, 117.6641
1179.518, 351.3555
1180.605, 31.15625
1181.691, 283.8789
1182.778, 25.38281
1183.864, 7.636719
1184.950, 83.12109
1186.036, 95.51953
1187.122, 339.9844
1188.207, 105.7578
1189.292, 283.5469
1190.378, 28.51562
1191.463, 77.49219
1192.548, 298.3047
1193.632, 15.10938
1194.717, 153.6406
1195.801, 153.1250
1196.886, 117.0898
1197.970, 28.65234
1199.054, 21.41406
1200.137, 319.1875
1201.221, 243.2305
1202.305, 350.0586
1203.388, 94.14062
1204.471, 91.36719
1205.554, 15.38281
1206.637, 390.8594
1207.719, 18.84375
1208.802, 129.5742
1209.884, 110.9609
1210.966, 33.28516
1212.048, 3.945313
1213.130, 18.44141
1214.212, 45.58984
1215.293, 83.10156
1216.374, 60.12109
1217.456, 59.64844
1218.536, 80.18359
1219.617, 143.2812
1220.698, 88.53125
1221.778, 284.9062
1222.859, 46.35156
1223.939, 73.46875
1225.019, 167.9258
1226.099, 31.78125
1227.178, 156.8438
1228.258, 87.30859
1229.337, 80.21875
1230.417, 240.2109
1231.496, 108.2812
1232.574, 85.60156
1233.653, 163.3477
1234.732, 117.2148
1235.810, 108.7773
1236.888, 65.94922
1237.966, 165.3945
1239.044, 193.8438
1240.122, 62.46484
1241.199, 48.59375
1242.277, 12.39062
1243.354, 29.86328
1244.431, 132.8789
1245.508, 73.98438
1246.585, 85.51953
1247.661, 95.43750
1248.738, 175.8828
1249.814, 106.0430
1250.890, 81.95312
1251.966, 206.0859
1253.042, 262.9492
1254.117, 176.0156
1255.193, 258.6641
1256.268, 38.31250
1257.343, 83.82031
1258.418, 244.0312
1259.493, 164.5117
1260.567, 249.8047
1261.642, 272.3242
1262.716, 9.515625
1263.790, 242.8672
1264.864, 261.6289
1265.938, 65.35938
1267.011, 281.6758
1268.085, 110.4414
1269.158, 77.52734
1270.231, 148.6953
1271.304, 111.3398
1272.377, 245.4570
1273.450, 214.3281
1274.522, 168.4766
1275.594, 186.8750
1276.666, 23.14844
1277.738, 197.2578
1278.810, 140.5586
1279.882, 198.5703
1280.953, 283.2617
1282.025, 168.1602
1283.096, 263.8125
1284.167, 32.99219
1285.238, 75.27734
1286.308, 88.08984
1287.379, 275.7109
1288.449, 46.03125
1289.519, 80.66406
1290.589, 227.8125
1291.659, 217.4766
1292.729, 272.9766
1293.798, 133.5391
1294.868, 177.2109
1295.937, 170.3984
1297.006, 337.9688
1298.075, 367.8281
1299.143, 231.6328
1300.212, 96.12891
1301.280, 276.4062
1302.348, 157.3438
1303.416, 199.6289
1304.484, 75.23047
1305.552, 94.71484
1306.620, 111.9258
1307.687, 202.8398
1308.754, 70.06641
1309.821, 227.4062
1310.888, 217.0352
1311.955, 255.6172
1313.021, 288.9805
1314.088, 97.41797
1315.154, 87.25781
1316.220, 344.0859
1317.286, 198.3242
1318.352, 133.8008
1319.417, 126.4336
1320.483, 389.7734
1321.548, 402.1562
1322.613, 111.6680
1323.678, 358.4062
1324.743, 277.2891
1325.807, 290.6719
1326.872, 272.7148
1327.936, 265.4766
1329.000, 121.5547
1330.064, 157.7305
1331.128, 340.3516
1332.191, 269.2227
1333.255, 367.8203
1334.318, 161.1797
1335.381, 115.6719
1336.444, 198.0781
1337.507, 231.5469
1338.569, 219.0273
1339.632, 281.8086
1340.694, 336.6484
1341.756, 399.4805
1342.818, 111.3047
1343.880, 335.1133
1344.941, 151.9102
1346.003, 172.6914
1347.064, 468.4609
1348.125, 14.29297
1349.186, 237.2188
1350.247, 205.8828
1351.308, 25.44922
1352.368, 163.9961
1353.428, 162.8281
1354.489, 293.3516
1355.549, 297.8555
1356.608, 191.3477
1357.668, 141.0547
1358.727, 58.51953
1359.787, 20.21875
1360.846, 93.22656
1361.905, 162.5742
1362.964, 283.5664
1364.022, 410.9922
1365.081, 610.2891
1366.139, 93.57031
1367.197, 116.8359
1368.255, 887.6992
1369.313, 424.1641
1370.371, 721.9922
1371.428, 403.5703
1372.486, 91.24219
1373.543, 106.5547
1374.600, 314.6953
1375.657, 3.804688
1376.713, 401.8828
1377.770, 361.9492
1378.826, 176.9961
1379.882, 197.9688
1380.938, 181.9883
1381.994, 328.9297
1383.050, 289.8594
1384.106, 151.5234
1385.161, 315.4180
1386.216, 153.3008
1387.271, 265.2148
1388.326, 174.0703
1389.381, 363.9062
1390.435, 129.0391
1391.490, 342.8516
1392.544, 46.35156
1393.598, 201.2539
1394.652, 235.0000
1395.705, 357.7344
1396.759, 136.3555
1397.812, 323.0586
1398.866, 80.74609
1399.919, 551.4219
1400.972, 872.0781
1402.024, 397.7305
1403.077, 440.3633
1404.129, 188.2891
1405.181, 438.4961
1406.233, 495.1016
1407.285, 57.46875
1408.337, 424.0547
1409.389, 461.6250
1410.440, 92.13281
1411.491, 434.3359
1412.542, 462.5430
1413.593, 515.8633
1414.644, 602.1641
1415.695, 423.7031
1416.745, 481.3281
1417.795, 432.7266
1418.845, 457.2188
1419.895, 680.0352
1420.945, 392.4961
1421.995, 291.9688
1423.044, 727.4258
1424.093, 207.8867
1425.142, 277.3438
1426.191, 338.7930
1427.240, 115.9258
1428.289, 278.3359
1429.337, 444.5352
1430.385, 463.8633
1431.433, 637.1133
1432.481, 150.6875
1433.529, 461.4141
1434.577, 517.2344
1435.624, 511.9102
1436.672, 768.1445
1437.719, 658.7852
1438.766, 915.3555
1439.812, 391.9609
1440.859, 311.8047
1441.905, 242.4336
1442.952, 651.8203
1443.998, 545.9805
1445.044, 478.9414
1446.090, 349.6758
1447.135, 362.4844
1448.181, 343.4375
1449.226, 453.3477
1450.271, 413.0234
1451.316, 462.3945
1452.361, 531.9766
1453.405, 452.6094
