##NAMES=Annite
##RRUFFID=R060211
##IDEAL CHEMISTRY=KFe^2+^_3_AlSi_3_O_10_(OH)_2_
##LOCALITY=Mont Saint-Hilaire, Rouville County, Quebec, Canada
##OWNER=RRUFF
##SOURCE=Royal Ontario Museum
##DESCRIPTION=Black mica
##STATUS=The identification of this mineral has been confirmed by X-ray diffraction and chemical analysis
##URL=rruff.info/R060211
##MEASURED CHEMISTRY=(K_0.94_[box]_0.03_Na_0.02_)_Σ=1_(Fe^2+^_2.07_Mg_0.57_Mn_0.33_Ti_0.03_)_Σ=3_(Si_2.98_Al_1.02_)O_10_((OH)_1.72_F_0.28_)_Σ=2_
##PIN_ID=M00144
##ORIENTATION=Laser parallel to (-1 0 -1). Fiducial mark perpendicular to laser is parallel to -b [0 -1 0]
307.1510, 0.0000000E+00
308.3580, 0.1699220
309.5660, 15.92969
310.7730, 134.2441
311.9800, 23.05664
313.1870, 15.59180
314.3940, 112.6055
315.6010, 110.0020
316.8070, 163.4258
318.0130, 120.7168
319.2200, 154.5039
320.4260, 50.42969
321.6310, 60.17383
322.8370, 147.5176
324.0430, 271.7832
325.2480, 297.5176
326.4540, 310.5137
327.6590, 359.3184
328.8640, 380.5918
330.0680, 448.0977
331.2730, 410.6758
332.4780, 535.2168
333.6820, 560.6387
334.8860, 598.2500
336.0900, 557.9414
337.2940, 674.7676
338.4980, 623.6641
339.7010, 633.3340
340.9050, 651.7773
342.1080, 758.4980
343.3110, 1002.779
344.5140, 839.4902
345.7170, 1087.135
346.9200, 1045.711
348.1220, 1069.316
349.3240, 917.0527
350.5270, 1049.002
351.7290, 882.2344
352.9310, 901.1738
354.1320, 930.3789
355.3340, 914.2422
356.5350, 910.1855
357.7370, 992.6699
358.9380, 844.7324
360.1390, 838.4043
361.3400, 893.0547
362.5400, 856.1328
363.7410, 1085.342
364.9410, 889.7031
366.1410, 1136.789
367.3410, 1119.617
368.5410, 1047.914
369.7410, 1151.553
370.9400, 834.0273
372.1400, 944.2363
373.3390, 1074.100
374.5380, 1077.824
375.7370, 1448.949
376.9360, 1434.955
378.1350, 1479.836
379.3330, 1527.279
380.5310, 1523.764
381.7300, 1463.984
382.9280, 1619.689
384.1260, 1570.514
385.3230, 1648.451
386.5210, 1688.498
387.7180, 1666.807
388.9160, 1702.645
390.1130, 1661.270
391.3100, 1698.721
392.5060, 1713.262
393.7030, 1704.889
394.9000, 1533.598
396.0960, 1583.387
397.2920, 1637.246
398.4880, 1484.174
399.6840, 1503.162
400.8800, 1255.211
402.0750, 1050.316
403.2710, 1460.475
404.4660, 1231.682
405.6610, 1288.938
406.8560, 1103.236
408.0510, 989.5820
409.2450, 898.8691
410.4400, 1017.779
411.6340, 1061.500
412.8280, 1034.004
414.0220, 721.9492
415.2160, 777.3613
416.4100, 685.5195
417.6030, 587.6836
418.7970, 694.8418
419.9900, 424.2480
421.1830, 528.2051
422.3760, 482.6641
423.5690, 505.5645
424.7610, 380.3535
425.9540, 300.8770
427.1460, 369.6797
428.3380, 356.4395
429.5300, 55.13867
430.7220, 39.82812
431.9140, 81.54492
433.1050, 121.7051
434.2970, 99.91797
435.4880, 211.0938
436.6790, 88.23633
437.8700, 190.2070
439.0610, 100.3965
440.2510, 267.4199
441.4420, 202.4336
442.6320, 145.5586
443.8220, 17.87891
445.0120, 30.95898
446.2020, 209.0938
447.3910, 1.957031
448.5810, 86.59180
449.7700, 13.73828
450.9600, 24.67188
452.1490, 19.02930
453.3370, 84.05469
454.5260, 12.75391
455.7150, 221.9648
456.9030, 380.6719
458.0910, 469.0723
459.2800, 273.0117
460.4670, 444.3516
461.6550, 468.5176
462.8430, 486.6641
464.0300, 709.7988
465.2180, 555.1992
466.4050, 775.1133
467.5920, 845.5137
468.7790, 984.3457
469.9650, 974.9453
471.1520, 1011.365
472.3380, 924.5430
473.5250, 950.0195
474.7110, 1168.484
475.8970, 1193.938
477.0820, 1260.379
478.2680, 1335.811
479.4540, 1452.230
480.6390, 1492.641
481.8240, 1602.043
483.0090, 1683.424
484.1940, 1864.766
485.3780, 1833.061
486.5630, 2246.307
487.7470, 2383.500
488.9320, 2383.781
490.1160, 2560.203
491.3000, 2390.842
492.4830, 2556.889
493.6670, 2614.910
494.8500, 2441.906
496.0340, 2722.881
497.2170, 3061.840
498.4000, 2923.779
499.5820, 3073.707
500.7650, 3047.623
501.9480, 2949.531
503.1300, 3054.430
504.3120, 3219.324
505.4940, 3303.213
506.6760, 3427.100
507.8580, 3485.982
509.0390, 3553.871
510.2210, 3576.758
511.4020, 3655.625
512.5830, 3852.465
513.7640, 3690.102
514.9450, 3959.494
516.1250, 4033.668
517.3060, 3740.531
518.4860, 4314.271
519.6660, 4332.854
520.8460, 4235.371
522.0260, 4505.846
523.2060, 4334.316
524.3850, 4476.787
525.5650, 4740.289
526.7440, 4872.828
527.9230, 4747.398
529.1020, 5021.004
530.2810, 4878.639
531.4590, 4991.307
532.6380, 4939.006
533.8160, 4859.736
534.9940, 4951.510
536.1720, 4911.982
537.3500, 5005.188
538.5270, 4912.109
539.7050, 4867.096
540.8820, 4777.137
542.0590, 4760.234
543.2360, 4592.400
544.4130, 4489.609
545.5900, 4232.885
546.7660, 3922.244
547.9430, 3928.648
549.1190, 4018.127
550.2950, 3711.695
551.4710, 3630.320
552.6470, 3359.049
553.8220, 3147.852
554.9980, 3113.734
556.1730, 2736.711
557.3480, 2444.775
558.5230, 2524.904
559.6980, 2308.070
560.8730, 1906.299
562.0470, 2043.576
563.2220, 1691.930
564.3960, 1693.354
565.5700, 1403.830
566.7440, 1309.393
567.9170, 1237.027
569.0910, 1064.375
570.2640, 1026.523
571.4380, 945.7852
572.6110, 793.6035
573.7840, 759.4688
574.9570, 731.2441
576.1290, 608.1426
577.3020, 625.2051
578.4740, 572.1211
579.6460, 267.7773
580.8180, 408.2090
581.9900, 238.5527
583.1620, 538.5938
584.3330, 58.59961
585.5040, 149.7656
586.6760, 24.73828
587.8470, 20.73438
589.0180, 265.5684
590.1880, 66.66016
591.3590, 61.29102
592.5290, 117.3516
593.7000, 110.6797
594.8700, 32.35156
596.0400, 24.92383
597.2090, 14.85156
598.3790, 209.8496
599.5490, 27.07812
600.7180, 218.8379
601.8870, 83.38672
603.0560, 378.8730
604.2250, 253.8398
605.3940, 306.1133
606.5620, 133.4434
607.7300, 320.0020
608.8990, 399.5820
610.0670, 436.1797
611.2350, 511.7949
612.4020, 500.4258
613.5700, 560.0762
614.7370, 577.1133
615.9050, 615.7422
617.0720, 626.1367
618.2390, 644.8613
619.4060, 697.6016
620.5720, 587.3594
621.7390, 765.1367
622.9050, 869.9297
624.0710, 701.7441
625.2370, 746.5762
626.4030, 924.4258
627.5690, 898.2949
628.7340, 944.0312
629.9000, 1008.088
631.0650, 948.0137
632.2300, 1234.957
633.3950, 1278.922
634.5600, 1513.904
635.7240, 1397.906
636.8890, 1628.930
638.0530, 1374.973
639.2170, 1647.035
640.3810, 1850.113
641.5450, 2295.215
642.7080, 2066.336
643.8720, 2527.475
645.0350, 2963.635
646.1980, 2690.812
647.3610, 2905.010
648.5240, 3052.229
649.6870, 3339.463
650.8490, 3686.721
652.0120, 3619.996
653.1740, 4273.291
654.3360, 4455.605
655.4980, 4966.941
656.6600, 5525.301
657.8210, 5724.684
658.9830, 6326.090
660.1440, 6678.523
661.3050, 7403.977
662.4660, 7496.457
663.6270, 7906.963
664.7870, 8125.492
665.9480, 8300.051
667.1080, 8137.631
668.2680, 8173.236
669.4280, 8640.863
670.5880, 8023.516
671.7480, 7509.193
672.9070, 7364.893
674.0670, 6521.381
675.2260, 6420.434
676.3850, 6100.566
677.5440, 5809.170
678.7030, 5523.949
679.8610, 5337.213
681.0200, 5232.912
682.1780, 5183.248
683.3360, 5122.680
684.4940, 5250.387
685.6520, 5262.547
686.8090, 5341.375
687.9670, 5422.000
689.1240, 5534.062
690.2810, 5622.666
691.4380, 5719.844
692.5950, 5857.410
693.7520, 6013.812
694.9080, 6215.787
696.0650, 6396.828
697.2210, 6669.393
698.3770, 6879.809
699.5330, 7104.969
700.6880, 7404.143
701.8440, 7683.211
702.9990, 7885.580
704.1550, 8226.855
705.3100, 8372.406
706.4650, 8480.891
707.6190, 8663.824
708.7740, 8883.002
709.9290, 8895.270
711.0830, 8921.438
712.2370, 9154.072
713.3910, 9231.469
714.5450, 8920.654
715.6980, 8968.883
716.8520, 8916.496
718.0050, 8930.211
719.1580, 8459.734
720.3110, 7941.180
721.4640, 7951.709
722.6170, 7779.305
723.7700, 7691.953
724.9220, 7547.615
726.0740, 7197.004
727.2260, 7237.750
728.3780, 6955.656
729.5300, 6859.490
730.6810, 6574.240
731.8330, 6645.061
732.9840, 6327.773
734.1350, 6163.604
735.2860, 6040.451
736.4370, 6504.291
737.5880, 6032.125
738.7380, 6234.957
739.8880, 5982.783
741.0390, 6195.607
742.1890, 6241.426
743.3380, 6352.234
744.4880, 6602.043
745.6380, 6618.846
746.7870, 6707.641
747.9360, 6744.432
749.0850, 6837.217
750.2340, 7226.996
751.3830, 7075.768
752.5310, 7424.533
753.6800, 7549.293
754.8280, 7535.045
755.9760, 7611.791
757.1240, 7673.533
758.2720, 8039.266
759.4190, 7933.994
760.5670, 7962.713
761.7140, 7833.426
762.8610, 7869.135
764.0080, 7888.834
765.1550, 7849.527
766.3020, 7555.211
767.4480, 7478.889
768.5950, 7314.561
769.7410, 7161.072
770.8870, 7119.881
772.0330, 6969.529
773.1780, 6742.172
774.3240, 6754.805
775.4690, 6180.426
776.6140, 6068.041
777.7590, 5904.654
778.9040, 5575.258
780.0490, 5535.848
781.1940, 5122.434
782.3380, 5094.008
783.4820, 4642.574
784.6260, 4383.133
785.7700, 3973.682
786.9140, 3714.221
788.0580, 3376.752
789.2010, 3179.273
790.3450, 2998.783
791.4880, 2520.285
792.6310, 2457.775
793.7730, 2240.256
794.9160, 1958.729
796.0590, 2002.189
797.2010, 1625.637
798.3430, 1351.074
799.4850, 1182.502
800.6270, 940.0977
801.7690, 913.3242
802.9100, 685.7188
804.0520, 511.1035
805.1930, 545.4766
806.3340, 481.8320
807.4750, 317.1816
808.6160, 405.5156
809.7560, 218.8379
810.8970, 6.150391
812.0370, 33.57422
813.1770, 56.64453
814.3170, 88.15234
815.4570, 74.03320
816.5960, 48.99219
817.7360, 55.01758
818.8750, 96.11328
820.0140, 1.300781
821.1530, 84.52930
822.2920, 158.8418
823.4310, 7.281250
824.5690, 122.7637
825.7070, 103.3555
826.8460, 207.0430
827.9840, 151.8828
829.1220, 125.8457
830.2590, 145.9160
831.3970, 188.1055
832.5340, 180.4395
833.6710, 76.91211
834.8080, 23.53320
835.9450, 85.05469
837.0820, 23.73047
838.2190, 116.4629
839.3550, 121.2891
840.4910, 24.24219
841.6270, 172.2402
842.7630, 123.3750
843.8990, 194.6172
845.0350, 28.99805
846.1700, 216.4160
847.3060, 8.011719
848.4410, 31.59766
849.5760, 3.734375
850.7100, 181.0273
851.8450, 194.3047
852.9800, 85.57031
854.1140, 70.81641
855.2480, 130.0410
856.3820, 311.2539
857.5160, 220.4492
858.6500, 357.4297
859.7830, 411.7930
860.9170, 476.9414
862.0500, 527.0742
863.1830, 535.1914
864.3160, 689.2949
865.4480, 589.4180
866.5810, 703.5332
867.7130, 568.6309
868.8460, 674.7148
869.9780, 795.7891
871.1100, 962.8477
872.2410, 681.8906
873.3730, 1000.920
874.5050, 862.9277
875.6360, 1282.922
876.7670, 1102.900
877.8980, 1126.863
879.0290, 1045.809
880.1590, 1169.736
881.2900, 1367.650
882.4200, 1090.547
883.5500, 1366.428
884.6800, 1252.293
885.8100, 1410.150
886.9400, 1356.992
888.0690, 1587.852
889.1990, 1440.697
890.3280, 1211.561
891.4570, 1563.410
892.5860, 1549.289
893.7140, 1428.152
894.8430, 1567.002
895.9710, 1794.846
897.1000, 1526.678
898.2280, 1710.547
899.3560, 1745.156
900.4830, 1752.576
901.6110, 1864.246
902.7380, 1819.160
903.8660, 1803.064
904.9930, 1625.953
906.1200, 1688.209
907.2460, 1692.486
908.3730, 1705.596
909.5000, 1815.469
910.6260, 1773.352
911.7520, 1823.219
912.8780, 1803.107
914.0040, 1948.986
915.1290, 1902.850
916.2550, 1984.699
917.3800, 1983.533
918.5050, 1807.750
919.6300, 1991.057
920.7550, 2099.080
921.8800, 2135.854
923.0040, 1888.029
924.1290, 2007.686
925.2530, 1980.061
926.3770, 1946.373
927.5010, 2117.701
928.6250, 1911.217
929.7480, 2079.248
930.8720, 2097.799
931.9950, 2184.744
933.1180, 2123.498
934.2410, 2108.027
935.3640, 2240.754
936.4860, 2291.391
937.6090, 2213.057
938.7310, 2304.273
939.8530, 2092.496
940.9750, 2146.590
942.0970, 2315.379
943.2180, 2244.404
944.3400, 2338.279
945.4610, 2112.877
946.5820, 2000.682
947.7030, 1822.941
948.8240, 1937.121
949.9450, 1880.848
951.0650, 1771.410
952.1860, 1664.498
953.3060, 1839.180
954.4260, 1594.250
955.5460, 1789.236
956.6650, 1840.957
957.7850, 1490.996
958.9040, 1655.521
960.0230, 1473.770
961.1420, 1428.203
962.2610, 1620.105
963.3800, 1177.449
964.4990, 1141.410
965.6170, 1129.096
966.7350, 1280.125
967.8530, 860.0254
968.9710, 1044.375
970.0890, 1159.613
971.2070, 1196.959
972.3240, 953.5508
973.4410, 1071.811
974.5580, 1042.518
975.6750, 1013.299
976.7920, 1179.842
977.9090, 971.6699
979.0250, 1133.586
980.1410, 1159.756
981.2580, 1239.293
982.3740, 1184.758
983.4890, 1173.508
984.6050, 1312.764
985.7200, 1372.207
986.8360, 1302.709
987.9510, 1402.467
989.0660, 1199.188
990.1810, 1262.039
991.2950, 1439.723
992.4100, 1377.695
993.5240, 1480.504
994.6390, 1388.160
995.7530, 1408.879
996.8660, 1426.912
997.9800, 1422.373
999.0940, 1451.133
1000.207, 1476.969
1001.320, 1536.674
1002.433, 1416.418
1003.546, 1597.641
1004.659, 1703.639
1005.772, 1738.424
1006.884, 1488.580
1007.996, 1606.246
1009.108, 1576.621
1010.220, 1540.992
1011.332, 1710.395
1012.444, 1502.012
1013.555, 1668.164
1014.666, 1684.875
1015.777, 1769.967
1016.888, 1706.893
1017.999, 1689.604
1019.110, 1821.756
1020.220, 1870.627
1021.331, 1797.873
1022.441, 1887.783
1023.551, 1682.166
1024.661, 1734.553
1025.770, 1911.633
1026.880, 1839.270
1027.989, 1931.498
1029.098, 1963.094
1030.207, 1707.582
1031.316, 1959.639
1032.425, 1998.734
1033.533, 1804.408
1034.642, 2029.475
1035.750, 1862.811
1036.858, 1701.109
1037.966, 1936.174
1039.073, 1905.242
1040.181, 1767.104
1041.288, 1843.539
1042.396, 2082.801
1043.503, 1776.754
1044.610, 1813.852
1045.716, 2016.189
1046.823, 1867.535
1047.929, 1749.852
1049.036, 1956.965
1050.142, 1869.266
1051.248, 1940.680
1052.353, 1905.801
1053.459, 1999.928
1054.564, 2015.057
1055.670, 2004.480
1056.775, 2007.688
1057.880, 1959.564
1058.985, 2043.709
1060.089, 1967.918
1061.194, 1986.721
1062.298, 1962.227
1063.402, 1928.207
1064.506, 2011.369
1065.610, 1870.535
1066.713, 1993.508
1067.817, 1883.678
1068.920, 2000.215
1070.023, 1616.592
1071.126, 1748.984
1072.229, 1894.547
1073.332, 1769.734
1074.435, 1961.924
1075.537, 1807.277
1076.639, 1842.562
1077.741, 1760.766
1078.843, 1434.027
1079.945, 1744.543
1081.046, 1549.850
1082.148, 1353.094
1083.249, 1503.586
1084.350, 1251.904
1085.451, 1305.082
1086.551, 1238.693
1087.652, 1155.600
1088.752, 965.0332
1089.853, 1009.744
1090.953, 985.3965
1092.053, 709.9570
1093.152, 947.6152
1094.252, 887.2520
1095.351, 766.4453
1096.451, 928.6992
1097.550, 1015.768
1098.649, 1031.363
1099.748, 762.4668
1100.846, 861.1484
1101.945, 814.3027
1103.043, 759.6816
1104.141, 910.5000
1105.239, 683.3691
1106.337, 833.9434
1107.434, 833.8965
1108.532, 901.3906
1109.629, 819.7324
1110.726, 787.5762
1111.823, 899.9297
1112.920, 930.2793
1114.017, 831.5586
1115.113, 902.4180
1116.210, 672.7559
1117.306, 709.5059
1118.402, 857.9922
1119.498, 767.0312
1120.593, 841.4590
1121.689, 853.3438
1122.784, 578.8457
1123.879, 800.5391
1124.974, 807.6348
1126.069, 458.2207
1127.164, 271.7012
1128.259, 260.2559
1129.353, 462.1094
1130.447, 414.9961
1131.541, 276.4629
1132.635, 155.9258
1133.729, 208.3867
1134.822, 421.8398
1135.916, 9.455078
1137.009, 8.158203
1138.102, 165.5977
1139.195, 17.14844
1140.288, 132.8887
1141.380, 216.3145
1142.473, 154.2715
1143.565, 318.2266
1144.657, 152.6309
1145.749, 30.03125
1146.841, 77.42578
1147.932, 126.3438
1149.024, 98.73633
1150.115, 30.72461
1151.206, 50.97656
1152.297, 129.6777
1153.388, 6.556641
1154.479, 136.2969
1155.569, 104.8848
1156.659, 167.9375
1157.750, 4.142578
1158.839, 140.2129
1159.929, 40.72656
1161.019, 0.3046880
1162.108, 191.6758
1163.198, 216.7676
1164.287, 15.22461
1165.376, 29.98438
1166.465, 153.8066
1167.553, 20.91016
1168.642, 120.3535
1169.730, 148.5508
1170.818, 107.5000
1171.906, 3.515625
1172.994, 32.76172
1174.082, 74.95898
1175.170, 87.67969
1176.257, 127.5039
1177.344, 31.87109
1178.431, 41.63281
1179.518, 119.8027
1180.605, 49.79492
1181.691, 25.53320
1182.778, 149.4746
1183.864, 191.3496
1184.950, 104.5664
1186.036, 187.0195
1187.122, 33.53125
1188.207, 11.75391
1189.292, 171.7324
1190.378, 91.98242
1191.463, 177.0488
1192.548, 199.3301
1193.632, 63.72461
1194.717, 169.3633
1195.801, 187.8379
1196.886, 14.01562
1197.970, 202.0078
1199.054, 30.48047
1200.137, 2.732422
1201.221, 68.13672
1202.305, 30.47070
1203.388, 163.8809
1204.471, 132.4727
1205.554, 86.32422
1206.637, 104.4316
1207.719, 59.59766
1208.802, 114.1875
1209.884, 57.16016
1210.966, 114.8457
1212.048, 198.5176
1213.130, 83.06641
1214.212, 178.3887
1215.293, 53.18359
1216.374, 11.30078
1217.456, 1.111328
1218.536, 188.3066
1219.617, 41.79297
1220.698, 7.623047
1221.778, 139.0527
1222.859, 128.2383
1223.939, 183.2402
1225.019, 43.31445
1226.099, 86.48047
1227.178, 79.14844
1228.258, 246.2031
1229.337, 275.5547
1230.417, 138.8457
1231.496, 2.812500
1232.574, 182.3301
1233.653, 62.71484
1234.732, 104.4629
1235.810, 20.47852
1236.888, 1.570313
1237.966, 15.01367
1239.044, 105.3320
1240.122, 28.03711
1241.199, 128.6641
1242.277, 117.6660
1243.354, 156.0449
1244.431, 188.9121
1245.508, 3.269531
1246.585, 11.02539
1247.661, 245.1367
1248.738, 98.72852
1249.814, 33.53516
1250.890, 26.07617
1251.966, 291.1738
1253.042, 168.0703
1254.117, 203.9355
1255.193, 41.77930
1256.268, 237.5957
1257.343, 153.3926
1258.418, 21.16406
1259.493, 73.90234
1260.567, 196.6348
1261.642, 321.3477
1262.716, 175.0371
1263.790, 387.7051
1264.864, 137.3516
1265.938, 115.9355
1267.011, 430.4805
1268.085, 151.0586
1269.158, 104.5840
1270.231, 20.88672
1271.304, 65.58789
1272.377, 22.31055
1273.450, 197.2812
1274.522, 296.9551
1275.594, 325.3320
1276.666, 69.16211
1277.738, 180.4336
1278.810, 144.4238
1279.882, 101.1211
1280.953, 264.0430
1282.025, 41.80273
1283.096, 200.9961
1284.167, 203.2188
1285.238, 281.7031
1286.308, 202.0312
1287.379, 177.8184
1288.449, 302.0586
1289.519, 342.0605
1290.589, 254.8750
1291.659, 325.9043
1292.729, 92.26172
1293.798, 137.5664
1294.868, 296.2949
1295.937, 207.2598
1297.006, 292.3301
1298.075, 314.8398
1299.143, 52.01758
1300.212, 278.5723
1301.280, 296.9551
1302.348, 93.16992
1303.416, 304.5742
1304.484, 133.2930
1305.552, 92.08398
1306.620, 162.9492
1307.687, 125.3027
1308.754, 258.9355
1309.821, 227.5430
1310.888, 181.2949
1311.955, 199.5840
1313.021, 35.74219
1314.088, 209.7402
1315.154, 313.7578
1316.220, 204.6484
1317.286, 255.8457
1318.352, 456.4062
1319.417, 299.8906
1320.483, 301.4160
1321.548, 347.9199
1322.613, 286.5918
1323.678, 211.0664
1324.743, 208.6719
1325.807, 127.3164
1326.872, 214.6152
1327.936, 247.8008
1329.000, 376.8340
1330.064, 310.0078
1331.128, 319.0020
1332.191, 326.5215
1333.255, 418.8652
1334.318, 338.1465
1335.381, 237.3730
1336.444, 325.6680
1337.507, 340.8965
1338.569, 148.8730
1339.632, 261.0664
1340.694, 240.7109
1341.756, 247.7148
1342.818, 324.5488
1343.880, 330.9219
1344.941, 359.2285
1346.003, 391.9668
1347.064, 332.0957
1348.125, 372.3613
1349.186, 215.3789
1350.247, 246.9648
1351.308, 418.1953
1352.368, 514.1875
1353.428, 538.5215
1354.489, 278.4414
1355.549, 385.7832
1356.608, 346.1309
1357.668, 300.4414
1358.727, 459.8418
1359.787, 239.6504
1360.846, 396.2188
1361.905, 403.5234
1362.964, 478.3535
1364.022, 402.5078
1365.081, 372.8418
1366.139, 492.3008
1367.197, 530.7070
1368.255, 436.4492
1369.313, 515.7168
1370.371, 295.8379
1371.428, 338.0137
1372.486, 494.8086
1373.543, 409.5020
1374.600, 489.8926
1375.657, 508.9785
1376.713, 242.4531
1377.770, 471.5586
1378.826, 485.8320
1379.882, 280.8340
1380.938, 493.7344
1381.994, 319.1035
1383.050, 282.0781
1384.106, 349.8555
1385.161, 309.0254
1386.216, 437.9805
1387.271, 407.5781
1388.326, 358.3496
1389.381, 373.3711
1390.435, 206.2031
1391.490, 376.9102
1392.544, 316.6270
1393.598, 370.9785
1394.652, 451.5781
1395.705, 332.9551
1396.759, 424.8770
1397.812, 186.2168
1398.866, 224.5137
1399.919, 232.3496
1400.972, 417.7891
1402.024, 184.6992
1403.077, 218.2109
1404.129, 361.4219
1405.181, 301.9434
1406.233, 474.3047
1407.285, 213.4844
1408.337, 235.0059
1409.389, 234.6465
1410.440, 304.5137
1411.491, 297.9941
1412.542, 491.6758
1413.593, 215.1816
1414.644, 288.6777
1415.695, 207.1836
1416.745, 345.6641
1417.795, 85.05859
1418.845, 218.4941
1419.895, 273.7617
1420.945, 51.20898
1421.995, 171.8203
1423.044, 427.3047
1424.093, 256.7793
1425.142, 389.2051
1426.191, 438.0840
1427.240, 594.3672
1428.289, 675.3574
1429.337, 684.9375
1430.385, 410.0703
1431.433, 502.6504
1432.481, 447.8770
1433.529, 387.1406
1434.577, 531.4043
1435.624, 297.8398
1436.672, 438.7871
1437.719, 430.2148
1438.766, 490.3594
1439.812, 401.6484
1440.859, 359.0312
1441.905, 464.6270
1442.952, 488.1445
1443.998, 382.6387
1445.044, 446.6914
1446.090, 207.7559
1447.135, 234.6973
1448.181, 377.2637
1449.226, 180.8184
1450.271, 53.72852
1451.316, 223.6270
1452.361, 167.5137
1453.405, 262.3340
1454.450, 23.85547
1455.494, 249.9883
