##NAMES=Annite
##RRUFFID=R060211
##IDEAL CHEMISTRY=KFe^2+^_3_AlSi_3_O_10_(OH)_2_
##LOCALITY=Mont Saint-Hilaire, Rouville County, Quebec, Canada
##OWNER=RRUFF
##SOURCE=Royal Ontario Museum
##DESCRIPTION=Black mica
##STATUS=The identification of this mineral has been confirmed by X-ray diffraction and chemical analysis
##URL=rruff.info/R060211
##MEASURED CHEMISTRY=(K_0.94_[box]_0.03_Na_0.02_)_Σ=1_(Fe^2+^_2.07_Mg_0.57_Mn_0.33_Ti_0.03_)_Σ=3_(Si_2.98_Al_1.02_)O_10_((OH)_1.72_F_0.28_)_Σ=2_
##PIN_ID=L01073
##ORIENTATION=Laser parallel to c* (0 0 1). Fiducial mark perpendicular to laser is parallel to a [1 0 0]
230.8490, 0.0000000E+00
232.0700, 1.468750
233.2910, 233.7852
234.5120, 337.0781
235.7320, 439.9375
236.9530, 295.6719
238.1730, 434.8438
239.3930, 600.9141
240.6130, 3.917969
241.8320, 289.9688
243.0520, 474.8711
244.2710, 138.6172
245.4900, 415.5977
246.7090, 1236.445
247.9280, 704.9648
249.1470, 936.3750
250.3650, 16.36719
251.5840, 993.3516
252.8020, 975.0039
254.0200, 244.6875
255.2370, 532.6523
256.4550, 743.5195
257.6720, 881.0977
258.8900, 731.6562
260.1070, 956.1367
261.3240, 1024.762
262.5400, 1087.188
263.7570, 1346.305
264.9730, 1226.121
266.1900, 1496.160
267.4060, 1642.105
268.6220, 1875.547
269.8370, 1942.637
271.0530, 2447.395
272.2680, 1663.141
273.4830, 1453.574
274.6980, 1828.512
275.9130, 1798.254
277.1280, 2137.332
278.3420, 1957.629
279.5570, 1368.520
280.7710, 1973.258
281.9850, 1798.297
283.1990, 1409.605
284.4120, 1612.258
285.6260, 1488.914
286.8390, 1211.621
288.0520, 302.6680
289.2650, 952.9062
290.4780, 510.6875
291.6910, 724.9883
292.9030, 572.8320
294.1160, 521.2422
295.3280, 1325.641
296.5400, 688.0039
297.7510, 1498.023
298.9630, 740.7734
300.1740, 317.1836
301.3860, 235.7383
302.5970, 86.96484
303.8080, 49.03125
305.0180, 26.66406
306.2290, 25.15625
307.4390, 37.39453
308.6500, 22.20703
309.8600, 148.0664
311.0700, 338.9531
312.2790, 90.86328
313.4890, 154.2305
314.6980, 105.6602
315.9080, 283.5352
317.1170, 248.3789
318.3250, 189.1836
319.5340, 124.9375
320.7430, 296.3633
321.9510, 113.2695
323.1590, 79.02734
324.3670, 405.4375
325.5750, 167.3164
326.7830, 133.8438
327.9900, 477.7344
329.1980, 238.9062
330.4050, 95.94922
331.6120, 62.55078
332.8190, 167.8242
334.0250, 142.9219
335.2320, 328.4844
336.4380, 526.0352
337.6440, 665.8242
338.8500, 611.0273
340.0560, 579.6602
341.2620, 879.1211
342.4670, 843.5547
343.6730, 972.6875
344.8780, 1134.098
346.0830, 1109.480
347.2870, 1128.562
348.4920, 1223.766
349.6970, 1064.805
350.9010, 1264.656
352.1050, 1195.438
353.3090, 972.1484
354.5130, 1165.152
355.7160, 938.1484
356.9200, 1221.566
358.1230, 944.9414
359.3260, 723.2812
360.5290, 942.5781
361.7320, 560.8398
362.9340, 461.0586
364.1370, 604.2422
365.3390, 1090.391
366.5410, 962.5000
367.7430, 896.5859
368.9450, 787.6289
370.1460, 834.6250
371.3480, 652.5898
372.5490, 646.6641
373.7500, 706.4375
374.9510, 608.9805
376.1520, 587.8203
377.3520, 695.1641
378.5520, 714.5195
379.7530, 428.7539
380.9530, 856.8359
382.1530, 704.7539
383.3520, 667.4961
384.5520, 988.0664
385.7510, 1098.375
386.9500, 1046.520
388.1490, 930.4766
389.3480, 709.2344
390.5470, 1003.801
391.7450, 1014.168
392.9440, 1142.348
394.1420, 949.3359
395.3400, 1241.102
396.5380, 1033.648
397.7350, 1454.977
398.9330, 1092.066
400.1300, 921.9297
401.3270, 1244.590
402.5240, 913.0391
403.7210, 1355.293
404.9180, 1194.328
406.1140, 1049.176
407.3110, 965.8398
408.5070, 965.3516
409.7030, 929.7227
410.8990, 897.8867
412.0940, 812.7344
413.2900, 977.1758
414.4850, 634.2969
415.6800, 897.2500
416.8750, 1059.785
418.0700, 567.1602
419.2650, 1075.406
420.4590, 696.1719
421.6530, 592.6680
422.8470, 519.0742
424.0410, 463.3828
425.2350, 640.5742
426.4290, 429.5625
427.6220, 384.4492
428.8160, 490.2773
430.0090, 248.0469
431.2020, 339.7617
432.3940, 294.3750
433.5870, 428.9805
434.7790, 90.31250
435.9720, 26.85547
437.1640, 147.0625
438.3560, 93.59375
439.5470, 203.4180
440.7390, 147.4688
441.9300, 208.5352
443.1220, 93.72266
444.3130, 9.859375
445.5040, 17.50000
446.6940, 27.31641
447.8850, 93.80859
449.0750, 10.65234
450.2660, 354.0117
451.4560, 49.47266
452.6460, 96.67969
453.8350, 58.90234
455.0250, 174.6523
456.2140, 116.9961
457.4040, 31.01953
458.5930, 174.3594
459.7820, 184.9688
460.9700, 439.5469
462.1590, 366.4961
463.3470, 526.5039
464.5350, 345.6875
465.7240, 301.4844
466.9110, 465.1211
468.0990, 684.6406
469.2870, 1137.305
470.4740, 717.4922
471.6610, 1132.258
472.8480, 1065.652
474.0350, 1385.176
475.2220, 1082.074
476.4090, 1431.723
477.5950, 1388.738
478.7810, 1692.199
479.9670, 1920.227
481.1530, 1988.539
482.3390, 1937.512
483.5240, 2105.277
484.7100, 2354.664
485.8950, 2304.941
487.0800, 2592.164
488.2650, 3033.293
489.4490, 2853.336
490.6340, 2917.379
491.8180, 2873.426
493.0030, 3276.477
494.1870, 3214.531
495.3700, 3471.590
496.5540, 3682.656
497.7380, 3637.227
498.9210, 3721.828
500.1040, 3724.922
501.2870, 3762.039
502.4700, 3833.141
503.6530, 3909.086
504.8350, 3953.410
506.0180, 4151.348
507.2000, 4201.926
508.3820, 4552.094
509.5640, 4591.266
510.7450, 4901.461
511.9270, 4755.656
513.1080, 5100.871
514.2890, 5191.871
515.4700, 5052.879
516.6510, 5067.129
517.8320, 4951.055
519.0130, 5057.855
520.1930, 5516.047
521.3730, 5360.203
522.5530, 5805.234
523.7330, 5518.324
524.9130, 5772.375
526.0920, 6270.305
527.2710, 6130.293
528.4510, 6254.254
529.6300, 5999.180
530.8080, 5873.078
531.9870, 6268.949
533.1660, 5984.801
534.3440, 6199.617
535.5220, 6147.086
536.7000, 6453.266
537.8780, 6150.141
539.0560, 5761.035
540.2330, 6021.008
541.4110, 5576.094
542.5880, 5839.211
543.7650, 5457.367
544.9420, 5176.590
546.1180, 5271.875
547.2950, 4854.199
548.4710, 4655.590
549.6470, 4574.977
550.8230, 4570.414
551.9990, 4282.953
553.1750, 4306.547
554.3500, 3707.145
555.5260, 3775.773
556.7010, 4086.305
557.8760, 3468.984
559.0510, 3017.680
560.2250, 2760.039
561.4000, 2788.730
562.5740, 2818.445
563.7480, 2668.980
564.9220, 3245.227
566.0960, 2660.750
567.2700, 2812.176
568.4430, 1931.219
569.6170, 1789.090
570.7900, 1728.426
571.9630, 1626.812
573.1360, 1615.613
574.3080, 1267.250
575.4810, 1144.473
576.6530, 1174.824
577.8250, 1406.254
578.9980, 1057.242
580.1690, 1053.684
581.3410, 497.3359
582.5130, 478.6055
583.6840, 656.1484
584.8550, 319.0078
586.0260, 194.2422
587.1970, 372.1328
588.3680, 260.5586
589.5380, 283.9219
590.7080, 209.1328
591.8790, 177.2305
593.0490, 86.15234
594.2190, 130.6797
595.3880, 108.8672
596.5580, 256.8672
597.7270, 251.9414
598.8960, 387.8789
600.0650, 43.14062
601.2340, 31.15625
602.4030, 83.21875
603.5710, 83.17578
604.7400, 25.69531
605.9080, 335.6758
607.0760, 342.9258
608.2440, 372.7305
609.4120, 139.5664
610.5790, 526.4375
611.7460, 374.3359
612.9140, 310.2578
614.0810, 499.2070
615.2480, 727.1953
616.4140, 855.2500
617.5810, 804.3359
618.7470, 552.4570
619.9130, 541.6055
621.0790, 721.7812
622.2450, 1088.977
623.4110, 687.2031
624.5770, 987.4492
625.7420, 843.7227
626.9070, 828.0234
628.0720, 1129.344
629.2370, 1133.691
630.4020, 1327.066
631.5660, 1059.465
632.7310, 862.8867
633.8950, 1165.332
635.0590, 1336.809
636.2230, 1331.305
637.3870, 1587.832
638.5500, 1574.379
639.7140, 1912.953
640.8770, 1750.551
642.0400, 1932.176
643.2030, 2097.820
644.3660, 2280.496
645.5280, 2723.199
646.6910, 2371.930
647.8530, 2613.688
649.0150, 2852.469
650.1770, 3259.273
651.3390, 3663.105
652.5000, 3900.961
653.6620, 4010.840
654.8230, 4294.746
655.9840, 4768.676
657.1450, 5357.633
658.3060, 5680.609
659.4660, 6194.613
660.6270, 6708.641
661.7870, 7174.695
662.9470, 7266.777
664.1070, 7830.883
665.2670, 7893.016
666.4260, 7805.168
667.5860, 8537.352
668.7450, 8398.555
669.9040, 8275.785
671.0630, 7703.035
672.2220, 7555.316
673.3800, 7447.617
674.5390, 6751.738
675.6970, 6604.066
676.8550, 6516.742
678.0130, 5747.953
679.1710, 5559.457
680.3290, 5225.121
681.4860, 5018.766
682.6430, 4801.980
683.8000, 4670.879
684.9570, 4452.336
686.1140, 4370.547
687.2710, 4277.512
688.4270, 4174.398
689.5840, 4142.895
690.7400, 4145.215
691.8960, 4199.785
693.0520, 4108.977
694.2070, 4312.070
695.3630, 4574.523
696.5180, 4361.445
697.6730, 4587.594
698.8280, 4234.270
699.9830, 4427.168
701.1380, 4762.406
702.2920, 4459.578
703.4470, 4826.289
704.6010, 4722.941
705.7550, 5131.824
706.9090, 5026.562
708.0620, 5006.312
709.2160, 5166.066
710.3690, 5006.227
711.5220, 5483.133
712.6750, 5322.035
713.8280, 5401.836
714.9810, 5177.641
716.1340, 5578.645
717.2860, 5480.551
718.4380, 5265.523
719.5900, 5489.555
720.7420, 5235.668
721.8940, 5296.855
723.0450, 5086.125
724.1970, 4600.453
725.3480, 4969.809
726.4990, 4739.191
727.6500, 4548.621
728.8010, 4647.059
729.9510, 4435.516
731.1020, 4538.090
732.2520, 4232.711
733.4020, 4341.164
734.5520, 4402.867
735.7020, 4344.578
736.8510, 4268.168
738.0010, 4338.961
739.1500, 4618.379
740.2990, 4555.246
741.4480, 4645.312
742.5970, 5025.988
743.7450, 4646.621
744.8940, 4934.500
746.0420, 4924.379
747.1900, 5127.266
748.3380, 5310.148
749.4860, 5292.035
750.6330, 5262.918
751.7810, 5542.797
752.9280, 5477.688
754.0750, 5439.570
755.2220, 6195.457
756.3690, 6670.340
757.5160, 5982.227
758.6620, 6175.105
759.8090, 6126.988
760.9550, 6395.867
762.1010, 6442.406
763.2470, 6270.625
764.3920, 6569.500
765.5380, 6881.379
766.6830, 6826.246
767.8280, 6628.117
768.9730, 6622.980
770.1180, 6109.844
771.2630, 6372.707
772.4070, 6346.566
773.5520, 5949.426
774.6960, 6348.277
775.8400, 6066.129
776.9840, 5821.973
778.1280, 5956.816
779.2710, 5628.883
780.4140, 5808.484
781.5580, 5101.316
782.7010, 5206.141
783.8440, 4631.961
784.9860, 4385.781
786.1290, 3779.590
787.2710, 3889.398
788.4140, 3641.199
789.5560, 3001.996
790.6980, 2995.789
791.8390, 2453.574
792.9810, 2500.359
794.1220, 2705.133
795.2640, 2480.906
796.4050, 1844.668
797.5460, 1563.426
798.6860, 1186.176
799.8270, 1171.922
800.9680, 825.6602
802.1080, 986.3906
803.2480, 658.1172
804.3880, 451.8359
805.5280, 615.5469
806.6670, 422.2461
807.8070, 149.9453
808.9460, 161.6328
810.0850, 139.3125
811.2240, 69.01562
812.3630, 23.23438
813.5020, 202.8633
814.6400, 114.4570
815.7790, 309.1484
816.9170, 454.0430
818.0550, 118.2188
819.1930, 169.4961
820.3300, 252.8984
821.4680, 224.4727
822.6050, 172.2109
823.7430, 231.3438
824.8800, 58.88672
826.0170, 207.1602
827.1530, 363.3555
828.2900, 207.7812
829.4260, 48.63672
830.5620, 104.1797
831.6990, 18.09766
832.8340, 117.3789
833.9700, 41.20703
835.1060, 150.9062
836.2410, 65.00391
837.3760, 5.097656
838.5120, 9.847656
839.6470, 289.1562
840.7810, 192.8438
841.9160, 132.9922
843.0500, 245.7578
844.1850, 429.4961
845.3190, 181.2305
846.4530, 138.0469
847.5870, 76.56641
848.7200, 79.16797
849.8540, 305.7656
850.9870, 415.3516
852.1200, 69.92969
853.2530, 387.5000
854.3860, 398.0586
855.5190, 638.6133
856.6510, 935.1523
857.7840, 940.6875
858.9160, 701.2148
860.0480, 858.7383
861.1800, 666.2461
862.3110, 704.7422
863.4430, 970.2305
864.5740, 740.7109
865.7060, 1164.180
866.8370, 1124.641
867.9680, 1103.090
869.0980, 1297.531
870.2290, 1250.543
871.3590, 1741.422
872.4900, 1304.855
873.6200, 1649.332
874.7500, 1665.793
875.8790, 1644.305
877.0090, 1846.801
878.1380, 1762.320
879.2680, 1542.828
880.3970, 1451.328
881.5260, 1365.086
882.6550, 1337.363
883.7830, 1350.797
884.9120, 1407.277
886.0400, 1666.758
887.1680, 1764.234
888.2960, 1792.562
889.4240, 1409.199
890.5520, 1680.668
891.6790, 1440.121
892.8070, 1094.570
893.9340, 1160.004
895.0610, 1211.434
896.1880, 1558.852
897.3140, 1305.262
898.4410, 1355.660
899.5670, 1541.055
900.6940, 1615.441
901.8200, 1516.820
902.9450, 1120.188
904.0710, 1632.543
905.1970, 1343.891
906.3220, 1414.238
907.4470, 2039.586
908.5730, 1745.922
909.6980, 1366.254
910.8220, 1619.570
911.9470, 1624.887
913.0710, 1607.188
914.1960, 1584.488
915.3200, 1623.504
916.4440, 1725.055
917.5680, 1615.324
918.6910, 1676.586
919.8150, 1499.840
920.9380, 1713.102
922.0610, 1726.355
923.1840, 1554.602
924.3070, 1918.840
925.4300, 1980.074
926.5520, 1823.297
927.6750, 1788.512
928.7970, 1830.738
929.9190, 1682.961
931.0410, 1812.734
932.1630, 2276.398
933.2840, 1817.617
934.4060, 2191.840
935.5270, 1816.051
936.6480, 2043.258
937.7690, 2047.453
938.8900, 2310.648
940.0100, 2052.832
941.1310, 2117.016
942.2510, 1869.184
943.3710, 1849.348
944.4910, 1942.508
945.6110, 1630.664
946.7310, 1851.031
947.8500, 1764.203
948.9690, 1565.039
950.0890, 1930.383
951.2080, 1813.457
952.3260, 1341.395
953.4450, 1360.371
954.5640, 1197.121
955.6820, 1276.598
956.8000, 1029.836
957.9180, 918.3359
959.0360, 1107.109
960.1540, 815.9922
961.2710, 895.3008
962.3890, 969.8398
963.5060, 675.1523
964.6230, 663.8672
965.7400, 853.7148
966.8570, 534.2617
967.9730, 510.4141
969.0900, 826.3672
970.2060, 688.8086
971.3220, 572.0508
972.4380, 543.9766
973.5540, 572.0391
974.6700, 556.5977
975.7850, 595.2305
976.9010, 485.6836
978.0160, 831.3047
979.1310, 909.9492
980.2460, 662.6055
981.3600, 951.8828
982.4750, 901.4570
983.5890, 926.0703
984.7030, 725.8086
985.8170, 542.6094
986.9310, 592.2891
988.0450, 571.1211
989.1590, 670.9805
990.2720, 784.8555
991.3850, 1035.754
992.4980, 1015.660
993.6110, 849.5859
994.7240, 1272.523
995.8370, 1020.488
996.9490, 1109.469
998.0620, 1026.473
999.1740, 1039.496
1000.286, 1398.531
1001.398, 1207.586
1002.509, 1416.656
1003.621, 1555.738
1004.732, 1284.988
1005.843, 1563.102
1006.954, 1206.641
1008.065, 1678.785
1009.176, 2077.699
1010.286, 2074.879
1011.397, 2140.852
1012.507, 2103.062
1013.617, 2116.320
1014.727, 1972.531
1015.837, 2108.715
1016.946, 2147.793
1018.056, 2154.078
1019.165, 2318.973
1020.274, 2261.281
1021.383, 2304.555
1022.492, 2061.891
1023.601, 2242.242
1024.709, 1883.605
1025.817, 1959.980
1026.926, 2109.371
1028.034, 1930.773
1029.141, 1936.191
1030.249, 1722.621
1031.357, 1795.066
1032.464, 1787.645
1033.571, 1772.113
1034.678, 1922.602
1035.785, 1540.098
1036.892, 1778.609
1037.999, 1614.133
1039.105, 1891.891
1040.211, 1848.441
1041.317, 1992.008
1042.423, 2009.902
1043.529, 1816.766
1044.635, 1963.395
1045.740, 1859.250
1046.845, 1778.887
1047.951, 1744.586
1049.056, 1669.242
1050.160, 1503.918
1051.265, 1927.598
1052.370, 1592.301
1053.474, 1737.855
1054.578, 1742.578
1055.682, 1586.328
1056.786, 1614.082
1057.890, 1950.844
1058.993, 1525.621
1060.097, 1774.410
1061.200, 1765.094
1062.303, 1600.242
1063.406, 1803.723
1064.509, 1574.570
1065.612, 1443.031
1066.714, 1579.434
1067.816, 1639.383
1068.919, 1628.223
1070.021, 1333.035
1071.122, 1404.895
1072.224, 1329.582
1073.326, 1248.293
1074.427, 1371.602
1075.528, 1117.832
1076.629, 1237.914
1077.730, 1209.965
1078.831, 1249.148
1079.931, 1140.699
1081.032, 1077.777
1082.132, 1165.699
1083.232, 1170.629
1084.332, 1046.035
1085.432, 1090.125
1086.531, 835.2578
1087.631, 842.3672
1088.730, 964.1367
1089.829, 846.6484
1090.928, 893.7812
1092.027, 881.0000
1093.126, 585.9609
1094.224, 788.1992
1095.323, 769.2695
1096.421, 531.6719
1097.519, 711.6055
1098.617, 514.3906
1099.715, 456.4805
1100.812, 490.1953
1101.910, 415.5898
1103.007, 511.8086
1104.104, 443.5039
1105.201, 374.0898
1106.298, 355.3906
1107.394, 154.8203
1108.491, 299.5234
1109.587, 206.0391
1110.683, 549.2617
1111.779, 179.8789
1112.875, 240.5078
1113.971, 38.83594
1115.066, 74.58984
1116.162, 186.2812
1117.257, 151.9023
1118.352, 139.8008
1119.447, 91.50391
1120.542, 123.5781
1121.636, 315.4102
1122.731, 180.4727
1123.825, 436.9648
1124.919, 154.8711
1126.013, 165.3047
1127.107, 164.9258
1128.200, 19.81641
1129.294, 222.2148
1130.387, 242.9414
1131.480, 553.6602
1132.573, 27.56641
1133.666, 17.28906
1134.759, 146.0117
1135.851, 84.26172
1136.944, 77.43359
1138.036, 103.8711
1139.128, 167.7812
1140.220, 219.2500
1141.312, 95.77734
1142.403, 138.0664
1143.495, 35.80859
1144.586, 134.8203
1145.677, 162.4492
1146.768, 93.98828
1147.859, 16.32812
1148.950, 20.35156
1150.040, 63.06641
1151.130, 98.83203
1152.221, 116.3711
1153.311, 42.23047
1154.401, 51.58203
1155.490, 129.2305
1156.580, 58.97656
1157.669, 34.40234
1158.759, 157.7891
1159.848, 199.2227
1160.937, 111.9258
1162.025, 193.8867
1163.114, 26.58203
1164.202, 18.32031
1165.291, 177.7266
1166.379, 97.81641
1167.467, 182.4570
1168.555, 204.4141
1169.642, 58.42578
1170.730, 173.9922
1171.817, 192.2031
1172.905, 9.523438
1173.992, 205.8906
1175.078, 34.45703
1176.165, 1.097656
1177.252, 71.65625
1178.338, 33.86328
1179.425, 166.8516
1180.511, 135.3125
1181.597, 89.05469
1182.682, 106.9375
1183.768, 56.96094
1184.854, 116.3477
1185.939, 59.27734
1187.024, 116.7031
1188.109, 200.0781
1189.194, 84.70312
1190.279, 179.7305
1191.363, 51.54688
1192.448, 9.847656
1193.532, 2.421875
1194.616, 189.1914
1195.700, 40.58594
1196.784, 6.570313
1197.867, 139.7578
1198.951, 128.9062
1200.034, 183.7539
1201.117, 44.03125
1202.200, 87.06250
1203.283, 79.72656
1204.366, 246.4727
1205.448, 275.7695
1206.531, 139.3164
1207.613, 3.535156
1208.695, 182.7578
1209.777, 63.38672
1210.859, 105.0859
1211.940, 19.58984
1213.022, 0.6523440
1214.103, 15.96484
1215.184, 106.2070
1216.265, 26.85156
1217.346, 129.6719
1218.427, 118.7969
1219.507, 157.2070
1220.587, 190.1094
1221.668, 10.31641
1222.748, 49.73828
1223.828, 79.21875
1224.907, 139.2266
1225.987, 18.65625
1227.066, 12.05859
1228.146, 141.5703
1229.225, 160.3164
1230.304, 193.8164
1231.382, 171.9336
1232.461, 232.0312
1233.540, 244.1250
1234.618, 176.7656
1235.696, 134.2148
1236.774, 259.1758
1237.852, 85.87891
1238.930, 144.9805
1240.007, 47.82422
1241.085, 266.6406
1242.162, 209.4570
1243.239, 30.74219
1244.316, 33.99609
1245.393, 216.7070
1246.469, 129.5938
1247.546, 126.9883
1248.622, 220.5586
1249.698, 8.109375
1250.774, 46.61719
1251.850, 75.10547
1252.926, 351.5820
1254.001, 137.0391
1255.077, 110.4766
1256.152, 28.89062
1257.227, 399.2734
1258.302, 5.632813
1259.377, 197.9531
1260.451, 527.2539
1261.526, 148.5352
1262.600, 317.7969
1263.674, 276.0898
1264.748, 273.9883
1265.822, 300.3125
1266.896, 241.4961
1267.969, 445.2539
1269.043, 32.40234
1270.116, 67.77344
1271.189, 660.8711
1272.262, 228.1719
1273.335, 110.2344
1274.407, 596.2773
1275.480, 719.2969
1276.552, 538.0391
1277.624, 338.0273
1278.696, 493.5078
1279.768, 280.8555
1280.840, 298.7852
1281.911, 490.7461
1282.982, 721.6406
1284.054, 414.5352
1285.125, 445.4102
1286.196, 679.2695
1287.266, 301.1094
1288.337, 556.9336
1289.407, 447.7461
1290.478, 607.5391
1291.548, 558.3164
1292.618, 660.9531
1293.688, 380.6914
1294.757, 621.4141
1295.827, 466.1172
1296.896, 432.8008
1297.965, 562.5508
1299.034, 460.6953
1300.103, 685.6055
1301.172, 468.3047
1302.241, 751.3047
1303.309, 820.8750
1304.377, 389.3984
1305.445, 867.6836
1306.513, 762.1914
1307.581, 466.6211
1308.649, 633.6172
1309.716, 755.0625
1310.784, 423.4844
1311.851, 780.1211
1312.918, 298.6641
1313.985, 807.0273
1315.052, 595.3594
1316.118, 285.6875
1317.185, 746.9961
1318.251, 752.2852
1319.317, 547.5469
1320.383, 911.9141
1321.449, 538.7930
1322.514, 624.3320
1323.580, 493.5078
1324.645, 521.2656
1325.711, 587.0938
1326.776, 557.4297
1327.840, 565.5391
1328.905, 739.6328
1329.970, 570.5000
1331.034, 693.7734
1332.099, 580.7344
1333.163, 655.7656
1334.227, 776.7773
1335.290, 760.7773
1336.354, 858.5742
1337.418, 1104.539
1338.481, 643.6328
1339.544, 645.8008
1340.607, 615.8906
1341.670, 963.6484
1342.733, 607.7266
1343.795, 664.8320
1344.858, 429.9336
1345.920, 764.4375
1346.982, 590.3086
1348.044, 521.1328
1349.106, 761.9453
1350.168, 854.0742
1351.229, 811.7031
1352.291, 804.3906
1353.352, 809.2500
1354.413, 753.9766
1355.474, 685.1953
1356.534, 746.7656
1357.595, 510.1445
1358.656, 660.9609
1359.716, 867.1719
1360.776, 808.5391
1361.836, 694.1992
1362.896, 872.6758
1363.955, 598.2383
1365.015, 644.8945
1366.074, 748.2305
1367.134, 453.7891
1368.193, 617.8125
1369.252, 450.5898
1370.310, 766.1992
1371.369, 594.1602
1372.427, 575.6875
1373.486, 837.2773
1374.544, 614.9336
1375.602, 574.6484
1376.660, 727.2148
1377.717, 540.4102
1378.775, 529.1445
1379.832, 596.1328
1380.889, 707.9453
1381.946, 811.2891
1383.003, 782.5039
1384.060, 843.5469
1385.117, 666.0664
1386.173, 584.1836
1387.230, 605.7227
1388.286, 378.5039
1389.342, 735.1094
