##NAMES=Annite
##RRUFFID=R060204
##IDEAL CHEMISTRY=KFe^2+^_3_AlSi_3_O_10_(OH)_2_
##LOCALITY=Mont Saint-Hilaire, Rouville County, Quebec, Canada
##OWNER=RRUFF
##SOURCE=Royal Ontario Museum
##DESCRIPTION=Black mica with pseudohexagonal outines
##STATUS=The identification of this mineral has been confirmed by X-ray diffraction and chemical analysis
##URL=rruff.info/R060204
##MEASURED CHEMISTRY=(K_0.96_Na_0.04_)_Σ=1_(Fe^2+^_2.04_Mg_0.81_Mn_0.09_Ti_0.03_[box]_0.03_)_Σ=3_(Si_3.00_Al_1.00_)O_10_((OH)_1.54_F_0.46_)_Σ=2_
##PIN_ID=M00366
##ORIENTATION=Laser parallel to -b* (0 -1 0). Fiducial mark perpendicular to laser is parallel to c [0 0 1]
235.6330, 0.0000000E+00
236.8490, 83.80078
238.0660, 137.8262
239.2820, 242.4941
240.4980, 263.7559
241.7140, 2.947266
242.9300, 2.492188
244.1460, 324.6855
245.3610, 163.7441
246.5770, 313.3848
247.7920, 218.2012
249.0070, 268.5273
250.2220, 267.9434
251.4370, 215.2891
252.6510, 268.9199
253.8660, 178.5938
255.0800, 286.6055
256.2940, 333.1074
257.5080, 7.976563
258.7220, 178.9746
259.9360, 300.9805
261.1490, 360.7031
262.3630, 173.4453
263.5760, 304.3945
264.7890, 491.8906
266.0020, 176.8535
267.2150, 421.0742
268.4270, 388.0137
269.6400, 425.0859
270.8520, 402.7559
272.0640, 698.0410
273.2760, 563.1250
274.4880, 699.5664
275.7000, 687.9980
276.9120, 444.1016
278.1230, 391.1699
279.3340, 385.8301
280.5450, 449.6406
281.7560, 236.6484
282.9670, 200.8828
284.1780, 338.3301
285.3880, 540.6328
286.5980, 471.8027
287.8090, 457.3145
289.0190, 319.1738
290.2290, 536.2480
291.4380, 640.1387
292.6480, 495.7734
293.8570, 268.1758
295.0670, 190.3555
296.2760, 489.3242
297.4850, 283.1016
298.6930, 213.6992
299.9020, 440.1270
301.1110, 261.3984
302.3190, 442.5254
303.5270, 167.5137
304.7350, 170.3809
305.9430, 231.1328
307.1510, 352.7734
308.3580, 104.3574
309.5660, 96.97852
310.7730, 111.4043
311.9800, 173.1504
313.1870, 430.6758
314.3940, 230.1875
315.6010, 142.6855
316.8070, 265.1738
318.0130, 79.65039
319.2200, 260.0996
320.4260, 290.5215
321.6310, 59.93750
322.8370, 74.66016
324.0430, 66.73438
325.2480, 35.88086
326.4540, 25.46484
327.6590, 393.8652
328.8640, 24.22070
330.0680, 198.5684
331.2730, 363.9062
332.4780, 137.2285
333.6820, 36.06641
334.8860, 100.1250
336.0900, 230.4336
337.2940, 28.66992
338.4980, 178.5000
339.7010, 268.0977
340.9050, 291.6973
342.1080, 605.3711
343.3110, 542.4551
344.5140, 526.0000
345.7170, 355.1270
346.9200, 350.2324
348.1220, 528.3730
349.3240, 585.5449
350.5270, 737.7480
351.7290, 548.9512
352.9310, 579.1270
354.1320, 683.2734
355.3340, 903.4570
356.5350, 911.6758
357.7370, 650.8867
358.9380, 915.1270
360.1390, 736.3945
361.3400, 650.6875
362.5400, 1080.012
363.7410, 869.3633
364.9410, 1197.744
366.1410, 1347.154
367.3410, 1231.596
368.5410, 1747.070
369.7410, 1681.580
370.9400, 1847.125
372.1400, 1988.707
373.3390, 2143.320
374.5380, 2402.977
375.7370, 2525.492
376.9360, 2849.404
378.1350, 2930.180
379.3330, 2906.994
380.5310, 3272.402
381.7300, 3479.227
382.9280, 3526.455
384.1260, 4061.793
385.3230, 4061.094
386.5210, 4199.143
387.7180, 4389.320
388.9160, 4460.572
390.1130, 4569.584
391.3100, 4730.707
392.5060, 4438.807
393.7030, 4345.934
394.9000, 4657.061
396.0960, 4388.188
397.2920, 3966.318
398.4880, 3845.338
399.6840, 3565.465
400.8800, 3316.588
402.0750, 2812.674
403.2710, 2639.721
404.4660, 2776.787
405.6610, 2217.875
406.8560, 2083.848
408.0510, 2034.924
409.2450, 1592.994
410.4400, 1387.979
411.6340, 1204.047
412.8280, 987.1133
414.0220, 831.1816
415.2160, 655.2520
416.4100, 550.0996
417.6030, 656.2305
418.7970, 455.1562
419.9900, 460.0918
421.1830, 585.0410
422.3760, 272.0039
423.5690, 235.8809
424.7610, 142.7129
425.9540, 215.5156
427.1460, 102.2246
428.3380, 33.06641
429.5300, 117.1289
430.7220, 178.3516
431.9140, 86.60156
433.1050, 26.13867
434.2970, 87.89062
435.4880, 251.3438
436.6790, 3.373047
437.8700, 162.9004
439.0610, 142.2832
440.2510, 200.5918
441.4420, 370.9219
442.6320, 242.3223
443.8220, 215.7598
445.0120, 323.2207
446.2020, 121.7344
447.3910, 1.652344
448.5810, 90.91016
449.7700, 123.3984
450.9600, 79.88281
452.1490, 49.65039
453.3370, 135.5820
454.5260, 102.1230
455.7150, 499.7188
456.9030, 401.6250
458.0910, 825.0000
459.2800, 213.6504
460.4670, 732.3613
461.6550, 372.8418
462.8430, 526.6113
464.0300, 917.4121
465.2180, 810.9531
466.4050, 1053.869
467.5920, 1334.533
468.7790, 1606.113
469.9650, 1522.463
471.1520, 1840.453
472.3380, 2018.898
473.5250, 2465.951
474.7110, 2359.035
475.8970, 2548.156
477.0820, 2515.658
478.2680, 2652.676
479.4540, 2819.684
480.6390, 2677.990
481.8240, 2545.912
483.0090, 2680.674
484.1940, 2711.314
485.3780, 2665.420
486.5630, 2621.596
487.7470, 2590.242
488.9320, 2656.938
490.1160, 2543.680
491.3000, 2608.467
492.4830, 2585.299
493.6670, 2502.180
494.8500, 2671.107
496.0340, 2876.082
497.2170, 2928.693
498.4000, 3118.811
499.5820, 3173.283
500.7650, 3396.443
501.9480, 3470.654
503.1300, 3581.914
504.3120, 3566.219
505.4940, 3775.570
506.6760, 3594.973
507.8580, 3900.422
509.0390, 3815.918
510.2210, 3684.461
511.4020, 3680.051
512.5830, 3559.691
513.7640, 3335.379
514.9450, 3454.117
516.1250, 3395.898
517.3060, 3217.730
518.4860, 3263.613
519.6660, 2932.539
520.8460, 3170.516
522.0260, 2517.539
523.2060, 2533.590
524.3850, 2584.672
525.5650, 2444.789
526.7440, 2261.945
527.9230, 2521.141
529.1020, 2227.391
530.2810, 2243.688
531.4590, 2128.023
532.6380, 2105.398
533.8160, 1841.816
534.9940, 1917.277
536.1720, 1741.785
537.3500, 1711.371
538.5270, 1653.023
539.7050, 1836.746
540.8820, 1630.551
542.0590, 1623.395
543.2360, 1731.379
544.4130, 1531.762
545.5900, 1457.570
546.7660, 1269.773
547.9430, 1411.023
549.1190, 1233.316
550.2950, 1331.656
551.4710, 1263.117
552.6470, 1150.629
553.8220, 1367.242
554.9980, 1301.930
556.1730, 1152.688
557.3480, 1391.543
558.5230, 1176.504
559.6980, 925.5117
560.8730, 876.5703
562.0470, 911.6797
563.2220, 724.8320
564.3960, 861.0547
565.5700, 698.3242
566.7440, 799.6836
567.9170, 1164.180
569.0910, 649.7891
570.2640, 950.4453
571.4380, 868.2930
572.6110, 737.7227
573.7840, 683.3125
574.9570, 651.2266
576.1290, 616.1914
577.3020, 808.6836
578.4740, 457.5352
579.6460, 629.7500
580.8180, 492.2852
581.9900, 719.6602
583.1620, 897.6016
584.3330, 647.7773
585.5040, 340.7656
586.6760, 644.1992
587.8470, 291.5625
589.0180, 545.1133
590.1880, 696.1680
591.3590, 613.8438
592.5290, 847.6797
593.7000, 830.8789
594.8700, 834.8945
596.0400, 893.0352
597.2090, 952.2422
598.3790, 913.5000
599.5490, 979.8086
600.7180, 964.1797
601.8870, 864.6055
603.0560, 1133.074
604.2250, 1045.602
605.3940, 1363.188
606.5620, 1646.824
607.7300, 1823.551
608.8990, 1911.328
610.0670, 1907.211
611.2350, 2163.168
612.4020, 2424.168
613.5700, 2520.219
614.7370, 2412.320
615.9050, 2991.461
617.0720, 3233.645
618.2390, 3612.895
619.4060, 4277.195
620.5720, 4379.539
621.7390, 4499.941
622.9050, 4973.387
624.0710, 5351.906
625.2370, 5552.145
626.4030, 5807.102
627.5690, 6051.766
628.7340, 6384.469
629.9000, 6648.215
631.0650, 6818.008
632.2300, 6865.844
633.3950, 6793.719
634.5600, 6775.773
635.7240, 6597.602
636.8890, 6421.609
638.0530, 6132.656
639.2170, 5658.746
640.3810, 5207.875
641.5450, 5162.043
642.7080, 5006.250
643.8720, 4251.492
645.0350, 4245.773
646.1980, 4007.094
647.3610, 3722.445
648.5240, 3746.832
649.6870, 3343.258
650.8490, 3042.727
652.0120, 2856.238
653.1740, 2654.781
654.3360, 2677.359
655.4980, 2606.973
656.6600, 2399.617
657.8210, 2168.293
658.9830, 2104.000
660.1440, 2028.730
661.3050, 2409.492
662.4660, 1825.289
663.6270, 2066.152
664.7870, 1673.012
665.9480, 1795.375
667.1080, 1628.520
668.2680, 1684.660
669.4280, 1613.059
670.5880, 1803.055
671.7480, 1893.070
672.9070, 1800.199
674.0670, 1970.406
675.2260, 1948.008
676.3850, 2018.223
677.5440, 1746.426
678.7030, 1489.637
679.8610, 1478.430
681.0200, 1635.578
682.1780, 1521.465
683.3360, 1525.387
684.4940, 1453.461
685.6520, 1661.395
686.8090, 1968.891
687.9670, 2084.359
689.1240, 2186.648
690.2810, 1978.332
691.4380, 1790.027
692.5950, 1978.246
693.7520, 2022.082
694.9080, 2070.488
696.0650, 1717.398
697.2210, 1480.844
698.3770, 1695.492
699.5330, 1621.547
700.6880, 1535.301
701.8440, 1326.961
702.9990, 1223.074
704.1550, 1340.984
705.3100, 1366.332
706.4650, 1119.285
707.6190, 1200.996
708.7740, 975.7969
709.9290, 774.1211
711.0830, 1105.008
712.2370, 980.3789
713.3910, 853.1094
714.5450, 1155.645
715.6980, 1011.645
716.8520, 1099.047
718.0050, 875.2422
719.1580, 840.7617
720.3110, 742.1562
721.4640, 708.1172
722.6170, 632.1719
723.7700, 714.9023
724.9220, 787.2305
726.0740, 853.9258
727.2260, 957.7305
728.3780, 731.6172
729.5300, 829.9727
730.6810, 981.7383
731.8330, 776.5664
732.9840, 539.4883
734.1350, 757.1992
735.2860, 482.6094
736.4370, 707.0430
737.5880, 570.0508
738.7380, 918.2305
739.8880, 913.6406
741.0390, 1390.930
742.1890, 874.6484
743.3380, 921.8477
744.4880, 519.8438
745.6380, 851.8398
746.7870, 573.8789
747.9360, 604.8242
749.0850, 567.6055
750.2340, 636.6211
751.3830, 679.9688
752.5310, 876.1289
753.6800, 530.1992
754.8280, 944.2070
755.9760, 1319.262
757.1240, 962.7266
758.2720, 924.0156
759.4190, 901.3125
760.5670, 792.1367
761.7140, 929.2773
762.8610, 851.4453
764.0080, 927.6484
765.1550, 1025.648
766.3020, 1254.641
767.4480, 1043.551
768.5950, 1367.727
769.7410, 1285.715
770.8870, 1138.188
772.0330, 1165.992
773.1780, 915.0156
774.3240, 1120.246
775.4690, 974.3750
776.6140, 1043.488
777.7590, 841.3750
778.9040, 1099.820
780.0490, 1124.078
781.1940, 994.4219
782.3380, 1036.715
783.4820, 1128.930
784.6260, 846.1172
785.7700, 1000.652
786.9140, 494.8555
788.0580, 650.9883
789.2010, 718.0938
790.3450, 551.4727
791.4880, 760.8398
792.6310, 463.2539
793.7730, 577.9961
794.9160, 391.6797
796.0590, 498.3047
797.2010, 483.8711
798.3430, 552.3750
799.4850, 436.8164
800.6270, 289.4492
801.7690, 330.6484
802.9100, 192.9062
804.0520, 19.09766
805.1930, 270.5938
806.3340, 221.6484
807.4750, 384.6328
808.6160, 553.5508
809.7560, 81.40625
810.8970, 55.18359
812.0370, 20.88672
813.1770, 118.4922
814.3170, 52.02344
815.4570, 81.66406
816.5960, 104.4414
817.7360, 148.6367
818.8750, 324.3633
820.0140, 115.6328
821.1530, 195.9453
822.2920, 111.5547
823.4310, 109.7891
824.5690, 124.0508
825.7070, 176.2305
826.8460, 258.6680
827.9840, 92.51953
829.1220, 167.7109
830.2590, 80.13281
831.3970, 23.70703
832.5340, 157.4023
833.6710, 180.2930
834.8080, 140.6133
835.9450, 81.42969
837.0820, 123.1602
838.2190, 150.7969
839.3550, 23.64844
840.4910, 113.7734
841.6270, 104.1016
842.7630, 271.6289
843.8990, 186.7305
845.0350, 138.9453
846.1700, 114.4727
847.3060, 136.9297
848.4410, 262.2344
849.5760, 4.546875
850.7100, 84.54688
851.8450, 61.53906
852.9800, 102.4297
854.1140, 9.218750
855.2480, 74.26172
856.3820, 102.4922
857.5160, 126.1797
858.6500, 176.2969
859.7830, 263.6367
860.9170, 368.5586
862.0500, 119.3906
863.1830, 275.1211
864.3160, 254.7578
865.4480, 26.68750
866.5810, 0.2460940
867.7130, 67.10938
868.8460, 3.765625
869.9780, 24.15625
871.1100, 33.05859
872.2410, 170.1562
873.3730, 239.8516
874.5050, 67.56641
875.6360, 106.9570
876.7670, 351.2383
877.8980, 137.4258
879.0290, 68.26562
880.1590, 214.2305
881.2900, 77.98828
882.4200, 207.8047
883.5500, 54.00781
884.6800, 133.2383
885.8100, 203.9766
886.9400, 341.0977
888.0690, 381.2656
889.1990, 393.8164
890.3280, 401.3594
891.4570, 383.1914
892.5860, 277.0039
893.7140, 312.6875
894.8430, 154.1797
895.9710, 412.7773
897.1000, 3.843750
898.2280, 332.6328
899.3560, 167.2500
900.4830, 856.2891
901.6110, 586.2148
902.7380, 867.0508
903.8660, 521.7930
904.9930, 317.4453
906.1200, 430.4336
907.2460, 340.8867
908.3730, 278.4141
909.5000, 456.6680
910.6260, 469.8438
911.7520, 462.2031
912.8780, 507.0664
914.0040, 626.0234
915.1290, 396.3984
916.2550, 808.1328
917.3800, 643.7734
918.5050, 369.3320
919.6300, 724.7852
920.7550, 506.1523
921.8800, 333.4258
923.0040, 338.6836
924.1290, 181.1211
925.2530, 492.1641
926.3770, 482.0430
927.5010, 455.8281
928.6250, 886.5234
929.7480, 773.7812
930.8720, 898.6953
931.9950, 714.1484
933.1180, 698.5078
934.2410, 364.7891
935.3640, 542.9648
936.4860, 392.0195
937.6090, 612.0117
938.7310, 835.4336
939.8530, 511.0156
940.9750, 687.5391
942.0970, 848.7461
943.2180, 804.2969
944.3400, 726.7578
945.4610, 753.4023
946.5820, 703.1289
947.7030, 655.8867
948.8240, 658.3086
949.9450, 653.2539
951.0650, 627.7539
952.1860, 736.0000
953.3060, 718.8203
954.4260, 831.8516
955.5460, 732.3047
956.6650, 729.2539
957.7850, 573.3125
958.9040, 611.4766
960.0230, 602.6016
961.1420, 547.8516
962.2610, 434.6289
963.3800, 617.3281
964.4990, 565.4414
965.6170, 653.8594
966.7350, 691.6484
967.8530, 696.8672
968.9710, 739.4727
970.0890, 625.8125
971.2070, 685.6758
972.3240, 622.7695
973.4410, 801.8867
974.5580, 482.4883
975.6750, 261.2148
976.7920, 365.4258
977.9090, 551.9648
979.0250, 769.6758
980.1410, 818.2227
981.2580, 977.1758
982.3740, 964.5234
983.4890, 867.3516
984.6050, 969.7773
985.7200, 768.3242
986.8360, 436.3203
987.9510, 397.9141
989.0660, 171.6836
990.1810, 62.07812
991.2950, 388.8672
992.4100, 255.7812
993.5240, 263.6406
994.6390, 371.8008
995.7530, 372.3906
996.8660, 644.6211
997.9800, 533.6992
999.0940, 331.6211
1000.207, 76.01562
1001.320, 295.9453
1002.433, 142.2539
1003.546, 53.34375
1004.659, 215.0742
1005.772, 209.0234
1006.884, 38.86719
1007.996, 249.0547
1009.108, 375.0000
1010.220, 335.8945
1011.332, 488.4414
1012.444, 106.6836
1013.555, 369.3672
1014.666, 45.83203
1015.777, 22.87109
1016.888, 146.4453
1017.999, 83.65234
1019.110, 176.0078
1020.220, 58.63672
1021.331, 538.5625
1022.441, 592.6055
1023.551, 820.6562
1024.661, 377.6836
1025.770, 8.585938
1026.880, 339.9805
1027.989, 201.4766
1029.098, 53.12500
1030.207, 104.3516
1031.316, 46.99219
1032.425, 118.2266
1033.533, 227.3203
1034.642, 354.5352
1035.750, 232.6758
1036.858, 619.8047
1037.966, 353.5898
1039.073, 118.4727
1040.181, 356.7852
1041.288, 177.6797
1042.396, 311.2695
1043.503, 227.2070
1044.610, 154.3242
1045.716, 15.04688
1046.823, 206.5820
1047.929, 84.31250
1049.036, 416.1445
1050.142, 566.7969
1051.248, 749.4141
1052.353, 657.0078
1053.459, 336.5703
1054.564, 353.6797
1055.670, 178.0312
1056.775, 108.3711
1057.880, 174.6406
1058.985, 283.5469
1060.089, 476.3828
1061.194, 412.0859
1062.298, 370.7578
1063.402, 621.0039
1064.506, 660.2266
1065.610, 553.4102
1066.713, 395.5625
1067.817, 321.8359
1068.920, 310.6836
1070.023, 268.8711
1071.126, 418.9141
1072.229, 619.9297
1073.332, 730.5469
1074.435, 791.5156
1075.537, 918.4570
1076.639, 1168.371
1077.741, 1205.262
1078.843, 1398.137
1079.945, 1436.980
1081.046, 1746.812
1082.148, 2117.664
1083.249, 2343.516
1084.350, 2244.375
1085.451, 2169.254
1086.551, 2132.504
1087.652, 1424.379
1088.752, 1759.816
1089.853, 1249.754
1090.953, 789.7109
1092.053, 983.6562
1093.152, 903.5820
1094.252, 678.4961
1095.351, 619.1445
1096.451, 704.1094
1097.550, 888.1172
1098.649, 718.1445
1099.748, 790.1797
1100.846, 784.2578
1101.945, 709.3828
1103.043, 760.6953
1104.141, 638.6016
1105.239, 655.6992
1106.337, 597.7852
1107.434, 284.8828
1108.532, 382.1797
1109.629, 296.9883
1110.726, 166.1914
1111.823, 199.4688
1112.920, 506.7188
1114.017, 850.1094
1115.113, 791.3984
1116.210, 628.6719
1117.306, 400.9648
1118.402, 652.2500
1119.498, 555.5352
1120.593, 381.5117
1121.689, 360.7266
1122.784, 17.77734
1123.879, 177.8828
1124.974, 540.9258
1126.069, 371.0078
1127.164, 579.1914
1128.259, 516.0664
1129.353, 575.7891
1130.447, 599.1719
1131.541, 546.8594
1132.635, 456.8867
1133.729, 489.1992
1134.822, 266.1055
1135.916, 265.4609
1137.009, 203.5508
1138.102, 145.6484
1139.195, 213.0391
1140.288, 454.2812
1141.380, 407.6758
1142.473, 930.7734
1143.565, 457.4219
1144.657, 541.1523
1145.749, 552.6523
1146.841, 198.2500
1147.932, 243.6875
1149.024, 23.35547
1150.115, 1.597656
1151.206, 26.55469
1152.297, 309.2227
1153.388, 467.7500
1154.479, 459.2812
1155.569, 401.8086
1156.659, 404.3320
1157.750, 332.8281
1158.839, 288.3555
1159.929, 93.68359
1161.019, 116.3242
1162.108, 69.93750
1163.198, 92.25781
1164.287, 132.3320
1165.376, 148.8867
1166.465, 205.3398
1167.553, 288.6602
1168.642, 339.6367
1169.730, 343.2188
1170.818, 459.3633
1171.906, 182.9570
1172.994, 118.3828
1174.082, 72.01562
1175.170, 55.44141
1176.257, 69.15625
1177.344, 24.51562
1178.431, 89.00391
1179.518, 91.98828
1180.605, 192.7852
1181.691, 179.0586
1182.778, 339.6016
1183.864, 326.1406
1184.950, 394.6875
1186.036, 299.2422
1187.122, 133.7227
1188.207, 236.9258
1189.292, 17.56641
1190.378, 396.0156
1191.463, 48.60547
1192.548, 123.8008
1193.632, 380.7461
1194.717, 377.2969
1195.801, 88.85156
1196.886, 294.4141
1197.970, 13.98438
1199.054, 447.5586
1200.137, 266.1406
1201.221, 155.7344
1202.305, 209.3398
1203.388, 86.95312
1204.471, 170.5781
1205.554, 439.2500
1206.637, 243.9258
1207.719, 391.6094
1208.802, 526.3008
1209.884, 511.0039
1210.966, 589.9961
1212.048, 439.4336
1213.130, 554.1680
1214.212, 226.9023
1215.293, 51.65625
1216.374, 50.58203
1217.456, 114.1680
1218.536, 32.06641
1219.617, 302.6953
1220.698, 448.4648
1221.778, 228.2500
1222.859, 591.0469
1223.939, 558.8477
1225.019, 488.6641
1226.099, 637.4844
1227.178, 59.32812
1228.258, 337.1758
1229.337, 487.0391
1230.417, 107.9102
1231.496, 273.8242
1232.574, 381.7461
1233.653, 432.6836
1234.732, 669.6289
1235.810, 798.5898
1236.888, 626.5508
1237.966, 727.5195
1239.044, 603.4883
1240.122, 294.4570
1241.199, 29.43750
1242.277, 57.05078
1243.354, 10.41797
1244.431, 111.4219
1245.508, 289.3984
1246.585, 339.3672
1247.661, 431.3008
1248.738, 530.1680
1249.814, 147.9766
1250.890, 40.14453
1251.966, 275.6914
1253.042, 196.7656
1254.117, 145.0430
1255.193, 136.8477
1256.268, 277.4102
1257.343, 8.742188
1258.418, 53.07031
1259.493, 202.6016
1260.567, 307.2734
1261.642, 380.6875
1262.716, 605.6484
1263.790, 570.3477
1264.864, 659.1055
1265.938, 754.8672
1267.011, 335.6406
1268.085, 302.4219
1269.158, 46.78516
1270.231, 258.9922
1271.304, 190.7461
1272.377, 51.50781
1273.450, 124.2344
1274.522, 805.9922
1275.594, 442.7578
1276.666, 244.5430
1277.738, 649.3477
1278.810, 736.5469
1279.882, 217.6836
1280.953, 636.2461
1282.025, 374.1016
1283.096, 61.96094
1284.167, 856.8281
1285.238, 439.7031
1286.308, 721.5938
1287.379, 955.4922
1288.449, 896.4062
1289.519, 878.3281
1290.589, 998.2734
1291.659, 1178.242
1292.729, 931.2578
1293.798, 731.2852
1294.868, 1206.320
1295.937, 797.3672
1297.006, 658.4219
1298.075, 1087.488
1299.143, 700.5625
1300.212, 736.6484
1301.280, 1211.742
1302.348, 1213.844
1303.416, 1569.316
1304.484, 1361.637
1305.552, 1381.281
1306.620, 874.2812
1307.687, 1186.438
1308.754, 687.6133
1309.821, 767.8008
1310.888, 1118.004
1311.955, 818.2227
1313.021, 1200.453
1314.088, 1479.711
1315.154, 1484.977
1316.220, 1770.266
1317.286, 1620.465
1318.352, 1578.906
1319.417, 1229.781
1320.483, 1312.137
1321.548, 968.1328
1322.613, 855.5391
1323.678, 1395.969
1324.743, 1061.418
1325.807, 1095.043
1326.872, 1329.398
1327.936, 1413.918
1329.000, 1495.465
1330.064, 1402.996
1331.128, 1541.926
1332.191, 1392.848
1333.255, 1179.617
1334.318, 1209.297
1335.381, 1140.012
1336.444, 1311.750
1337.507, 1101.523
1338.569, 1117.328
1339.632, 1192.172
1340.694, 1025.051
1341.756, 1332.969
1342.818, 1498.520
1343.880, 1758.012
1344.941, 1506.703
1346.003, 1402.777
1347.064, 1635.598
1348.125, 1112.762
1349.186, 1019.953
1350.247, 1436.180
1351.308, 1514.184
1352.368, 1160.227
1353.428, 1839.309
1354.489, 1399.309
1355.549, 1518.207
1356.608, 2022.578
1357.668, 1573.688
1358.727, 1168.141
1359.787, 1376.527
1360.846, 1394.875
1361.905, 1534.027
1362.964, 1175.219
1364.022, 1106.223
1365.081, 1217.766
1366.139, 1457.664
1367.197, 1467.980
1368.255, 1616.898
1369.313, 1633.875
1370.371, 1698.902
1371.428, 1462.953
1372.486, 1234.996
1373.543, 1127.145
1374.600, 1008.766
1375.657, 894.8008
1376.713, 761.5664
1377.770, 807.3867
1378.826, 1171.223
1379.882, 1129.078
1380.938, 963.9531
1381.994, 1399.617
1383.050, 1286.918
1384.106, 1357.180
1385.161, 1165.930
1386.216, 1027.703
1387.271, 864.5195
1388.326, 714.3594
1389.381, 875.2227
1390.435, 814.1016
1391.490, 855.8906
