##NAMES=Annite
##RRUFFID=R060211
##IDEAL CHEMISTRY=KFe^2+^_3_AlSi_3_O_10_(OH)_2_
##LOCALITY=Mont Saint-Hilaire, Rouville County, Quebec, Canada
##OWNER=RRUFF
##SOURCE=Royal Ontario Museum
##DESCRIPTION=Black mica
##STATUS=The identification of this mineral has been confirmed by X-ray diffraction and chemical analysis
##URL=rruff.info/R060211
##MEASURED CHEMISTRY=(K_0.94_[box]_0.03_Na_0.02_)_Σ=1_(Fe^2+^_2.07_Mg_0.57_Mn_0.33_Ti_0.03_)_Σ=3_(Si_2.98_Al_1.02_)O_10_((OH)_1.72_F_0.28_)_Σ=2_
##PIN_ID=L00722
##ORIENTATION=Laser parallel to a* (1 0 0). Fiducial mark perpendicular to laser is parallel to b [0 1 0]
230.7650, 0.0000000E+00
231.9820, 38.96191
233.1990, 53.48242
234.4160, 4.596680
235.6330, 183.2920
236.8490, 119.1436
238.0660, 18.08105
239.2820, 190.8154
240.4980, 108.1533
241.7140, 239.4727
242.9300, 213.8184
244.1460, 219.8242
245.3610, 50.06641
246.5770, 161.4102
247.7920, 62.96484
249.0070, 38.71094
250.2220, 155.4072
251.4370, 11.83105
252.6510, 100.3779
253.8660, 77.61328
255.0800, 119.6270
256.2940, 43.79785
257.5080, 123.9062
258.7220, 230.6416
259.9360, 400.0254
261.1490, 357.0801
262.3630, 570.1055
263.5760, 303.5410
264.7890, 354.1143
266.0020, 348.1230
267.2150, 389.2979
268.4270, 415.0225
269.6400, 380.8223
270.8520, 582.1924
272.0640, 496.2461
273.2760, 516.5488
274.4880, 430.6729
275.7000, 382.6738
276.9120, 253.0635
278.1230, 429.9551
279.3340, 319.4297
280.5450, 439.1182
281.7560, 50.75195
282.9670, 257.0967
284.1780, 194.5146
285.3880, 225.9014
286.5980, 160.7188
287.8090, 133.4434
289.0190, 147.3330
290.2290, 100.5449
291.4380, 138.9619
292.6480, 179.2041
293.8570, 134.2832
295.0670, 277.2051
296.2760, 178.9785
297.4850, 119.6133
298.6930, 8.113281
299.9020, 100.4873
301.1110, 192.7383
302.3190, 62.87402
303.5270, 40.91895
304.7350, 76.94629
305.9430, 63.95312
307.1510, 172.9414
308.3580, 132.9141
309.5660, 146.8691
310.7730, 24.80664
311.9800, 7.724609
313.1870, 77.62305
314.3940, 64.50391
315.6010, 100.3477
316.8070, 3.175781
318.0130, 31.02148
319.2200, 77.24414
320.4260, 128.5078
321.6310, 41.23242
322.8370, 166.9297
324.0430, 48.59570
325.2480, 27.23047
326.4540, 214.8379
327.6590, 45.85547
328.8640, 47.04297
330.0680, 175.0527
331.2730, 106.9473
332.4780, 201.8398
333.6820, 106.9844
334.8860, 181.8320
336.0900, 167.2695
337.2940, 352.5977
338.4980, 147.9102
339.7010, 292.7070
340.9050, 268.6289
342.1080, 307.7480
343.3110, 364.3555
344.5140, 361.5918
345.7170, 371.6211
346.9200, 362.9688
348.1220, 309.8457
349.3240, 344.4004
350.5270, 215.8398
351.7290, 242.2539
352.9310, 244.6348
354.1320, 253.0117
355.3340, 250.3789
356.5350, 287.7383
357.7370, 267.0879
358.9380, 467.4258
360.1390, 329.7539
361.3400, 468.0684
362.5400, 584.3750
363.7410, 283.6699
364.9410, 583.9570
366.1410, 563.2324
367.3410, 720.5020
368.5410, 632.7598
369.7410, 830.0137
370.9400, 760.2598
372.1400, 995.4980
373.3390, 925.7305
374.5380, 996.9570
375.7370, 987.6426
376.9360, 1190.410
378.1350, 1369.215
379.3330, 1544.033
380.5310, 1499.854
381.7300, 1623.666
382.9280, 1620.465
384.1260, 1766.248
385.3230, 1806.012
386.5210, 1858.742
387.7180, 1912.447
388.9160, 2094.125
390.1130, 2004.773
391.3100, 2029.057
392.5060, 2011.629
393.7030, 1867.549
394.9000, 1897.078
396.0960, 1705.381
397.2920, 1633.842
398.4880, 1590.264
399.6840, 1418.645
400.8800, 1334.979
402.0750, 1187.277
403.2710, 1078.541
404.4660, 1083.771
405.6610, 944.9688
406.8560, 802.1348
408.0510, 703.2734
409.2450, 483.3535
410.4400, 714.4062
411.6340, 664.4258
412.8280, 557.4121
414.0220, 536.3770
415.2160, 443.8691
416.4100, 312.1934
417.6030, 297.9746
418.7970, 224.6621
419.9900, 173.2441
421.1830, 207.8105
422.3760, 54.35742
423.5690, 205.8301
424.7610, 177.2949
425.9540, 109.4805
427.1460, 1.912109
428.3380, 28.67578
429.5300, 94.65234
430.7220, 70.02148
431.9140, 120.6719
433.1050, 38.42188
434.2970, 98.73242
435.4880, 76.06836
436.6790, 20.08789
437.8700, 65.77344
439.0610, 122.6719
440.2510, 45.62109
441.4420, 16.60547
442.6320, 69.13672
443.8220, 96.26367
445.0120, 91.95898
446.2020, 45.29297
447.3910, 80.29688
448.5810, 12.65234
449.7700, 53.91992
450.9600, 52.27148
452.1490, 19.51172
453.3370, 101.2852
454.5260, 53.27539
455.7150, 157.5781
456.9030, 61.13281
458.0910, 72.94922
459.2800, 165.5801
460.4670, 57.65234
461.6550, 41.58789
462.8430, 6.371094
464.0300, 40.67188
465.2180, 64.39453
466.4050, 96.26172
467.5920, 183.5723
468.7790, 181.6191
469.9650, 184.2598
471.1520, 232.3125
472.3380, 183.5957
473.5250, 288.1816
474.7110, 246.5449
475.8970, 144.0312
477.0820, 208.2129
478.2680, 237.5781
479.4540, 216.8066
480.6390, 303.0469
481.8240, 167.9688
483.0090, 167.0918
484.1940, 256.2012
485.3780, 386.2891
486.5630, 303.3750
487.7470, 456.4629
488.9320, 619.5527
490.1160, 515.6426
491.3000, 730.7188
492.4830, 672.7754
493.6670, 795.8398
494.8500, 884.9082
496.0340, 1150.984
497.2170, 963.0664
498.4000, 1198.154
499.5820, 1209.246
500.7650, 1220.346
501.9480, 1387.451
503.1300, 1301.566
504.3120, 1455.689
505.4940, 1624.818
506.6760, 1648.951
507.8580, 1578.092
509.0390, 1640.240
510.2210, 1492.395
511.4020, 1656.557
512.5830, 1469.725
513.7640, 1549.904
514.9450, 1318.090
516.1250, 1277.287
517.3060, 1310.490
518.4860, 1211.707
519.6660, 1090.924
520.8460, 1095.150
522.0260, 957.3789
523.2060, 1068.605
524.3850, 1044.848
525.5650, 996.0898
526.7440, 859.3457
527.9230, 840.5938
529.1020, 798.8398
530.2810, 966.0820
531.4590, 711.3242
532.6380, 815.5625
533.8160, 677.7988
534.9940, 733.0664
536.1720, 661.3418
537.3500, 773.6543
538.5270, 561.9883
539.7050, 439.3594
540.8820, 616.7305
542.0590, 402.1016
543.2360, 611.4746
544.4130, 529.8477
545.5900, 486.2246
546.7660, 577.6074
547.9430, 371.9922
549.1190, 491.3770
550.2950, 441.7773
551.4710, 301.1816
552.6470, 337.5840
553.8220, 159.0059
554.9980, 147.4238
556.1730, 178.8477
557.3480, 336.2715
558.5230, 184.6973
559.6980, 239.1367
560.8730, 310.6055
562.0470, 232.0938
563.2220, 206.5938
564.3960, 230.4922
565.5700, 262.1094
566.7440, 219.6211
567.9170, 222.1855
569.0910, 205.1875
570.2640, 167.7754
571.4380, 156.6719
572.6110, 165.6562
573.7840, 116.1465
574.9570, 207.6875
576.1290, 251.9668
577.3020, 308.2539
578.4740, 286.3906
579.6460, 274.1328
580.8180, 194.8340
581.9900, 151.2832
583.1620, 116.5977
584.3330, 114.1191
585.5040, 110.1523
586.6760, 172.9355
587.8470, 152.2441
589.0180, 243.8984
590.1880, 260.8770
591.3590, 244.2988
592.5290, 407.8906
593.7000, 319.2168
594.8700, 301.0156
596.0400, 598.3887
597.2090, 244.2969
598.3790, 605.8496
599.5490, 814.5098
600.7180, 764.4531
601.8870, 725.0801
603.0560, 837.6758
604.2250, 841.1660
605.3940, 889.3730
606.5620, 1040.350
607.7300, 1045.271
608.8990, 1285.312
610.0670, 1495.361
611.2350, 1423.418
612.4020, 1673.498
613.5700, 1690.586
614.7370, 2104.678
615.9050, 2410.852
617.0720, 2352.994
618.2390, 2626.164
619.4060, 2686.338
620.5720, 2803.516
621.7390, 3102.697
622.9050, 3348.293
624.0710, 3310.482
625.2370, 3342.678
626.4030, 3887.877
627.5690, 4186.082
628.7340, 4299.295
629.9000, 4061.629
631.0650, 4118.949
632.2300, 4249.363
633.3950, 4318.586
634.5600, 4088.809
635.7240, 4101.266
636.8890, 3999.770
638.0530, 3911.998
639.2170, 3871.227
640.3810, 3737.455
641.5450, 3642.227
642.7080, 3684.217
643.8720, 3542.668
645.0350, 3387.951
646.1980, 3411.189
647.3610, 3281.670
648.5240, 2936.266
649.6870, 3278.805
650.8490, 3181.506
652.0120, 3561.039
653.1740, 3395.980
654.3360, 3286.617
655.4980, 3638.574
656.6600, 3505.789
657.8210, 3848.242
658.9830, 3941.328
660.1440, 3664.318
661.3050, 4136.607
662.4660, 4263.793
663.6270, 4240.590
664.7870, 4290.848
665.9480, 4351.965
667.1080, 4334.350
668.2680, 4512.520
669.4280, 4426.070
670.5880, 4462.986
671.7480, 4361.639
672.9070, 4251.609
674.0670, 4122.230
675.2260, 4064.590
676.3850, 3919.121
677.5440, 3995.898
678.7030, 3809.293
679.8610, 3868.268
681.0200, 3727.477
682.1780, 3586.592
683.3360, 3691.660
684.4940, 3589.818
685.6520, 3335.070
686.8090, 3224.447
687.9670, 3217.691
689.1240, 2769.273
690.2810, 2734.650
691.4380, 2769.904
692.5950, 2719.658
693.7520, 2372.254
694.9080, 2369.252
696.0650, 2435.938
697.2210, 2544.039
698.3770, 2198.791
699.5330, 2397.785
700.6880, 2180.066
701.8440, 1829.191
702.9990, 1937.537
704.1550, 1758.264
705.3100, 1723.949
706.4650, 1652.160
707.6190, 1699.672
708.7740, 1588.635
709.9290, 1627.391
711.0830, 1605.963
712.2370, 1561.912
713.3910, 1239.609
714.5450, 1149.498
715.6980, 1235.314
716.8520, 1078.137
718.0050, 1060.928
719.1580, 1002.672
720.3110, 962.6934
721.4640, 934.4023
722.6170, 892.6719
723.7700, 871.7109
724.9220, 738.3809
726.0740, 698.0723
727.2260, 840.3809
728.3780, 864.8398
729.5300, 441.8320
730.6810, 537.9727
731.8330, 564.8359
732.9840, 708.3828
734.1350, 491.0879
735.2860, 595.9180
736.4370, 377.7676
737.5880, 538.0098
738.7380, 677.3438
739.8880, 513.6621
741.0390, 374.3848
742.1890, 418.1758
743.3380, 320.8086
744.4880, 368.4082
745.6380, 340.6465
746.7870, 418.1641
747.9360, 274.4414
749.0850, 484.0859
750.2340, 318.7168
751.3830, 243.6582
752.5310, 475.9941
753.6800, 198.7871
754.8280, 313.1445
755.9760, 262.4316
757.1240, 364.0938
758.2720, 288.9668
759.4190, 223.4375
760.5670, 125.7188
761.7140, 471.3906
762.8610, 314.3242
764.0080, 261.2969
765.1550, 361.1348
766.3020, 247.9004
767.4480, 207.1426
768.5950, 212.4453
769.7410, 191.5410
770.8870, 253.3789
772.0330, 298.6504
773.1780, 189.4590
774.3240, 180.4941
775.4690, 348.1367
776.6140, 481.2051
777.7590, 410.8203
778.9040, 124.3535
780.0490, 74.84766
781.1940, 204.5820
782.3380, 246.9941
783.4820, 259.4668
784.6260, 203.3203
785.7700, 178.0000
786.9140, 193.3945
788.0580, 155.4375
789.2010, 197.9961
790.3450, 101.1367
791.4880, 175.2305
792.6310, 100.2832
793.7730, 281.4785
794.9160, 52.51562
796.0590, 72.37695
797.2010, 43.77930
798.3430, 25.99414
799.4850, 51.71680
800.6270, 54.61133
801.7690, 34.98438
802.9100, 42.47070
804.0520, 244.9980
805.1930, 405.4258
806.3340, 205.8105
807.4750, 119.1543
808.6160, 181.4473
809.7560, 106.6973
810.8970, 94.10156
812.0370, 31.00781
813.1770, 117.9883
814.3170, 63.08789
815.4570, 120.2812
816.5960, 103.4043
817.7360, 46.03711
818.8750, 67.61914
820.0140, 77.15039
821.1530, 54.63086
822.2920, 3.939453
823.4310, 20.42383
824.5690, 35.73438
825.7070, 24.01367
826.8460, 20.16797
827.9840, 262.2910
829.1220, 41.62695
830.2590, 178.3652
831.3970, 79.31055
832.5340, 153.2012
833.6710, 51.04297
834.8080, 8.167969
835.9450, 75.44727
837.0820, 63.83008
838.2190, 44.69336
839.3550, 23.16602
840.4910, 127.6016
841.6270, 134.0000
842.7630, 45.65430
843.8990, 170.5977
845.0350, 61.80469
846.1700, 111.9551
847.3060, 160.7969
848.4410, 68.18945
849.5760, 134.2266
850.7100, 90.21289
851.8450, 67.85938
852.9800, 162.9902
854.1140, 110.7344
855.2480, 124.4121
856.3820, 56.96680
857.5160, 167.5527
858.6500, 22.97656
859.7830, 12.40430
860.9170, 14.28125
862.0500, 30.04102
863.1830, 39.88086
864.3160, 57.81250
865.4480, 72.15430
866.5810, 51.06445
867.7130, 48.08398
868.8460, 27.66992
869.9780, 419.3594
871.1100, 90.00195
872.2410, 319.5879
873.3730, 220.1211
874.5050, 192.6035
875.6360, 190.3535
876.7670, 88.41016
877.8980, 70.73242
879.0290, 99.00586
880.1590, 104.2227
881.2900, 188.3848
882.4200, 115.4922
883.5500, 166.5410
884.6800, 74.58789
885.8100, 73.40625
886.9400, 227.5059
888.0690, 126.3965
889.1990, 97.76758
890.3280, 107.9004
891.4570, 42.45117
892.5860, 260.1191
893.7140, 202.6328
894.8430, 291.1172
895.9710, 329.5488
897.1000, 227.5215
898.2280, 157.8496
899.3560, 140.8184
900.4830, 165.5215
901.6110, 174.9121
902.7380, 292.5938
903.8660, 269.5273
904.9930, 311.4355
906.1200, 365.2012
907.2460, 253.1211
908.3730, 355.9863
909.5000, 292.6113
910.6260, 419.0586
911.7520, 267.7773
912.8780, 368.4395
914.0040, 455.0625
915.1290, 422.0918
916.2550, 311.8555
917.3800, 388.1230
918.5050, 356.5137
919.6300, 256.9004
920.7550, 289.0117
921.8800, 347.9609
923.0040, 330.9141
924.1290, 486.6484
925.2530, 575.5000
926.3770, 496.8926
927.5010, 410.5352
928.6250, 335.8066
929.7480, 371.6191
930.8720, 445.4434
931.9950, 533.4297
933.1180, 425.4648
934.2410, 625.1465
935.3640, 606.8809
936.4860, 855.9609
937.6090, 717.5254
938.7310, 552.1777
939.8530, 541.5117
940.9750, 476.0020
942.0970, 456.3359
943.2180, 369.6953
944.3400, 553.5410
945.4610, 505.0176
946.5820, 711.7832
947.7030, 659.4219
948.8240, 872.5137
949.9450, 735.9668
951.0650, 748.7441
952.1860, 885.8926
953.3060, 598.7480
954.4260, 791.6387
955.5460, 387.5215
956.6650, 625.2578
957.7850, 814.8477
958.9040, 518.2578
960.0230, 727.7422
961.1420, 695.8301
962.2610, 785.0742
963.3800, 864.2812
964.4990, 881.0312
965.6170, 727.8867
966.7350, 882.2773
967.8530, 698.3965
968.9710, 517.8398
970.0890, 827.2090
971.2070, 805.3340
972.3240, 873.2109
973.4410, 979.1660
974.5580, 1022.678
975.6750, 990.9805
976.7920, 1219.172
977.9090, 1231.039
979.0250, 1407.967
980.1410, 1622.006
981.2580, 1864.492
982.3740, 1944.342
983.4890, 1797.000
984.6050, 1806.885
985.7200, 1791.523
986.8360, 1781.230
987.9510, 1760.777
989.0660, 1367.104
990.1810, 1657.492
991.2950, 1627.984
992.4100, 1436.430
993.5240, 1665.076
994.6390, 1630.301
995.7530, 1701.342
996.8660, 1724.857
997.9800, 1885.475
999.0940, 1836.539
1000.207, 2227.367
1001.320, 2307.980
1002.433, 2447.672
1003.546, 2505.373
1004.659, 2626.654
1005.772, 2733.240
1006.884, 2787.422
1007.996, 2862.457
1009.108, 2828.396
1010.220, 2695.145
1011.332, 2723.768
1012.444, 2773.330
1013.555, 3085.488
1014.666, 2943.932
1015.777, 2778.219
1016.888, 3178.275
1017.999, 2622.359
1019.110, 2990.539
1020.220, 3176.031
1021.331, 3192.443
1022.441, 2512.203
1023.551, 2717.531
1024.661, 2410.109
1025.770, 2294.680
1026.880, 2375.688
1027.989, 2361.906
1029.098, 2316.338
1030.207, 2322.918
1031.316, 1949.896
1032.425, 2044.348
1033.533, 2053.883
1034.642, 1602.486
1035.750, 1607.248
1036.858, 1448.557
1037.966, 1433.430
1039.073, 1573.137
1040.181, 1416.543
1041.288, 1382.416
1042.396, 1260.170
1043.503, 1340.203
1044.610, 1282.908
1045.716, 1214.299
1046.823, 1225.922
1047.929, 1131.895
1049.036, 1018.771
1050.142, 904.9414
1051.248, 1134.480
1052.353, 1405.578
1053.459, 1089.922
1054.564, 923.7969
1055.670, 1237.125
1056.775, 1029.348
1057.880, 1201.744
1058.985, 1100.115
1060.089, 748.4531
1061.194, 773.8652
1062.298, 896.7539
1063.402, 705.4648
1064.506, 669.2871
1065.610, 977.8535
1066.713, 772.2539
1067.817, 751.1321
1068.920, 821.9378
1070.023, 851.5408
1071.126, 842.1501
1072.229, 676.9855
1073.332, 712.9706
1074.435, 668.3441
1075.537, 620.4352
1076.639, 684.7519
1077.741, 542.2675
1078.843, 604.8044
1079.945, 585.5022
1081.046, 603.6749
1082.148, 540.7202
1083.249, 502.8356
1084.350, 546.0891
1085.451, 544.4146
1086.551, 472.1641
1087.652, 492.7205
1088.752, 347.4442
1089.853, 347.6832
1090.953, 410.7389
1092.053, 342.5666
1093.152, 364.6472
1094.252, 352.3418
1095.351, 183.8805
1096.451, 287.0026
1097.550, 272.6870
1098.649, 137.7646
1099.748, 231.6036
1100.846, 199.7285
1101.945, 47.32227
1103.043, 33.90039
1104.141, 10.94922
1105.239, 15.51758
1106.337, 64.94141
1107.434, 42.32617
1108.532, 345.0996
1109.629, 197.8008
1110.726, 98.32422
1111.823, 189.7012
1112.920, 151.9453
1114.017, 72.29883
1115.113, 252.5156
1116.210, 13.61523
1117.306, 271.8867
1118.402, 160.9609
1119.498, 45.89453
1120.593, 49.87891
1121.689, 65.91992
1122.784, 151.9355
1123.879, 72.95508
1124.974, 115.9473
1126.069, 234.9355
1127.164, 7.089844
1128.259, 36.13281
1129.353, 46.79688
1130.447, 6.277344
1131.541, 50.56055
1132.635, 50.53906
1133.729, 88.41211
1134.822, 146.2891
1135.916, 74.15039
1137.009, 204.9844
1138.102, 143.6914
1139.195, 78.59375
1140.288, 65.36523
1141.380, 98.11328
1142.473, 16.83984
1143.565, 38.45898
1144.657, 119.2031
1145.749, 46.84570
1146.841, 158.4648
1147.932, 131.0664
1149.024, 197.3496
1150.115, 164.1074
1151.206, 63.54883
1152.297, 61.02930
1153.388, 201.3359
1154.479, 102.6855
1155.569, 33.05273
1156.659, 77.60156
1157.750, 202.7070
1158.839, 84.00391
1159.929, 114.2188
1161.019, 107.4219
1162.108, 141.6035
1163.198, 188.7656
1164.287, 141.9102
1165.376, 142.0391
1166.465, 104.1504
1167.553, 83.24414
1168.642, 49.68359
1169.730, 0.3417970
1170.818, 14.65625
1171.906, 113.3086
1172.994, 360.2578
1174.082, 97.18750
1175.170, 14.09570
1176.257, 208.9805
1177.344, 25.15234
1178.431, 164.6797
1179.518, 179.4883
1180.605, 76.71875
1181.691, 6.013672
1182.778, 79.72461
1183.864, 85.58203
1184.950, 49.05469
1186.036, 297.6738
1187.122, 255.2793
1188.207, 349.9531
1189.292, 301.4531
1190.378, 299.0117
1191.463, 205.5547
1192.548, 39.08008
1193.632, 109.5859
1194.717, 89.07422
1195.801, 143.5449
1196.886, 179.0020
1197.970, 186.4473
1199.054, 49.11914
1200.137, 253.2754
1201.221, 399.6582
1202.305, 179.0273
1203.388, 549.3828
1204.471, 265.7246
1205.554, 158.0527
1206.637, 242.3652
1207.719, 161.6680
1208.802, 247.9590
1209.884, 221.9512
1210.966, 16.53320
1212.048, 244.8398
1213.130, 166.1973
1214.212, 273.5430
1215.293, 234.9375
1216.374, 478.3359
1217.456, 261.7246
1218.536, 316.1152
1219.617, 336.5020
1220.698, 184.8965
1221.778, 486.2812
1222.859, 178.6895
1223.939, 127.0898
1225.019, 223.4824
1226.099, 272.9629
1227.178, 271.5742
1228.258, 190.7363
1229.337, 336.1406
1230.417, 287.0625
1231.496, 372.1836
1232.574, 546.6562
1233.653, 114.0625
1234.732, 378.3555
1235.810, 288.6641
1236.888, 190.7969
1237.966, 235.3711
1239.044, 149.7344
1240.122, 192.8320
1241.199, 460.5312
1242.277, 671.6172
1243.354, 502.4102
1244.431, 653.9805
1245.508, 513.3047
1246.585, 515.6172
1247.661, 649.9336
1248.738, 670.1875
1249.814, 36.66797
1250.890, 519.0977
1251.966, 303.5820
1253.042, 263.4297
1254.117, 531.9336
1255.193, 395.6406
1256.268, 520.8438
1257.343, 511.5586
1258.418, 529.7422
1259.493, 667.1328
1260.567, 651.8789
1261.642, 518.2695
1262.716, 473.6445
1263.790, 452.2109
1264.864, 307.9297
1265.938, 436.3945
1267.011, 466.8945
1268.085, 488.4023
1269.158, 695.5859
1270.231, 593.9688
1271.304, 808.4766
1272.377, 619.6289
1273.450, 424.6953
1274.522, 610.2461
1275.594, 466.4766
1276.666, 429.1641
1277.738, 468.7148
1278.810, 454.8086
1279.882, 835.4727
1280.953, 712.6953
1282.025, 838.3438
1283.096, 729.1055
1284.167, 613.4375
1285.238, 923.4531
1286.308, 795.0469
1287.379, 815.7344
1288.449, 660.9141
1289.519, 677.1914
1290.589, 877.4219
1291.659, 527.7695
1292.729, 750.2891
1293.798, 850.5977
1294.868, 732.8789
1295.937, 764.9766
1297.006, 929.4961
1298.075, 832.6328
1299.143, 917.5391
1300.212, 832.5391
1301.280, 667.5430
1302.348, 706.0273
1303.416, 860.9062
1304.484, 790.4023
1305.552, 767.6875
1306.620, 907.0977
1307.687, 873.1328
1308.754, 1153.293
1309.821, 1029.137
1310.888, 1129.340
1311.955, 1109.852
1313.021, 897.1523
1314.088, 784.8203
1315.154, 942.7930
1316.220, 1147.461
1317.286, 890.4727
1318.352, 611.4453
1319.417, 966.4453
1320.483, 777.8477
1321.548, 1150.742
1322.613, 836.1289
1323.678, 1125.668
1324.743, 763.6523
1325.807, 798.1914
1326.872, 1013.555
1327.936, 933.5898
1329.000, 1078.668
1330.064, 1320.418
1331.128, 1202.188
1332.191, 959.9453
1333.255, 1132.789
1334.318, 1063.141
1335.381, 1056.090
1336.444, 1186.926
1337.507, 1320.805
1338.569, 993.3867
1339.632, 1105.789
1340.694, 1085.715
1341.756, 1129.453
1342.818, 934.5508
1343.880, 962.0625
1344.941, 1062.652
1346.003, 920.1797
1347.064, 1077.785
1348.125, 1096.547
1349.186, 1253.008
1350.247, 1383.605
1351.308, 1391.766
1352.368, 1464.520
1353.428, 1439.777
1354.489, 1236.449
1355.549, 1295.121
1356.608, 1271.293
1357.668, 1062.059
1358.727, 1367.105
1359.787, 1166.539
1360.846, 1132.434
1361.905, 1174.723
1362.964, 1441.484
1364.022, 1502.098
1365.081, 1494.137
1366.139, 1034.316
1367.197, 1236.207
1368.255, 903.5977
1369.313, 1284.152
1370.371, 1280.656
1371.428, 1331.574
1372.486, 1439.949
1373.543, 1256.430
1374.600, 1120.777
1375.657, 1108.344
1376.713, 1196.988
1377.770, 1386.871
1378.826, 1374.336
1379.882, 1446.164
1380.938, 1463.594
1381.994, 1399.320
1383.050, 1337.203
1384.106, 1124.125
1385.161, 1129.848
1386.216, 881.0391
1387.271, 1070.020
1388.326, 973.5938
1389.381, 976.9258
