##NAMES=Annite
##RRUFFID=R060204
##IDEAL CHEMISTRY=KFe^2+^_3_AlSi_3_O_10_(OH)_2_
##LOCALITY=Mont Saint-Hilaire, Rouville County, Quebec, Canada
##OWNER=RRUFF
##SOURCE=Royal Ontario Museum
##DESCRIPTION=Black mica with pseudohexagonal outines
##STATUS=The identification of this mineral has been confirmed by X-ray diffraction and chemical analysis
##URL=rruff.info/R060204
##MEASURED CHEMISTRY=(K_0.96_Na_0.04_)_Σ=1_(Fe^2+^_2.04_Mg_0.81_Mn_0.09_Ti_0.03_[box]_0.03_)_Σ=3_(Si_3.00_Al_1.00_)O_10_((OH)_1.54_F_0.46_)_Σ=2_
##PIN_ID=L01689
##ORIENTATION=Laser parallel to (1 0 1). Fiducial mark perpendicular to laser is parallel to b [0 1 0]
230.8490, 0.0000000E+00
232.0700, 23.05469
233.2910, 148.9893
234.5120, 123.1758
235.7320, 214.6475
236.9530, 136.9414
238.1730, 204.7480
239.3930, 6.005859
240.6130, 203.1787
241.8320, 26.17285
243.0520, 30.48438
244.2710, 126.7959
245.4900, 7.656250
246.7090, 240.0850
247.9280, 291.0469
249.1470, 322.4922
250.3650, 403.8057
251.5840, 519.6689
252.8020, 348.2754
254.0200, 404.1650
255.2370, 71.62402
256.4550, 256.2207
257.6720, 378.5264
258.8900, 442.0771
260.1070, 269.8926
261.3240, 402.9492
262.5400, 414.0830
263.7570, 420.4893
264.9730, 597.1523
266.1900, 460.5742
267.4060, 621.6650
268.6220, 525.4336
269.8370, 687.8408
271.0530, 617.2969
272.2680, 837.7314
273.4830, 604.7568
274.6980, 780.8213
275.9130, 848.9229
277.1280, 1114.055
278.3420, 850.2109
279.5570, 642.3906
280.7710, 546.5859
281.9850, 403.7988
283.1990, 416.0430
284.4120, 321.8076
285.6260, 438.3330
286.8390, 352.8799
288.0520, 506.4336
289.2650, 301.0234
290.4780, 140.4199
291.6910, 371.6348
292.9030, 221.6797
294.1160, 110.5664
295.3280, 68.30273
296.5400, 177.8975
297.7510, 153.3584
298.9630, 116.6914
300.1740, 234.9043
301.3860, 116.0029
302.5970, 70.99219
303.8080, 193.9004
305.0180, 142.7852
306.2290, 80.62402
307.4390, 5.398438
308.6500, 59.08398
309.8600, 95.67773
311.0700, 116.1934
312.2790, 189.6602
313.4890, 64.08594
314.6980, 181.2568
315.9080, 82.86230
317.1170, 299.1553
318.3250, 76.45020
319.5340, 77.71777
320.7430, 372.9590
321.9510, 351.1777
323.1590, 264.3721
324.3670, 361.5430
325.5750, 417.6943
326.7830, 580.8271
327.9900, 480.9414
329.1980, 521.0391
330.4050, 726.1211
331.6120, 895.1865
332.8190, 654.2354
334.0250, 524.2705
335.2320, 468.3398
336.4380, 698.9404
337.6440, 751.6396
338.8500, 663.9844
340.0560, 708.8965
341.2620, 838.5811
342.4670, 845.7520
343.6730, 676.2451
344.8780, 814.2900
346.0830, 777.2500
347.2870, 805.1436
348.4920, 891.5371
349.6970, 914.9414
350.9010, 1039.353
352.1050, 1040.774
353.3090, 1098.205
354.5130, 958.6455
355.7160, 981.7549
356.9200, 1061.551
358.1230, 936.0117
359.3260, 953.4727
360.5290, 988.9326
361.7320, 941.3877
362.9340, 973.8389
364.1370, 998.2871
365.3390, 1043.731
366.5410, 930.1758
367.7430, 938.6172
368.9450, 891.8906
370.1460, 923.5020
371.3480, 860.9443
372.5490, 740.3877
373.7500, 849.8301
374.9510, 810.2764
376.1520, 723.3262
377.3520, 764.0381
378.5520, 996.4541
379.7530, 874.5361
380.9530, 988.2891
382.1530, 1106.404
383.3520, 895.7334
384.5520, 954.4385
385.7510, 909.8574
386.9500, 1072.507
388.1490, 970.9180
389.3480, 919.3965
390.5470, 1161.192
391.7450, 1015.777
392.9440, 1337.388
394.1420, 1476.021
395.3400, 1289.675
396.5380, 1333.350
397.7350, 1162.043
398.9330, 1216.752
400.1300, 1270.423
401.3270, 1172.163
402.5240, 1266.919
403.7210, 1275.687
404.9180, 1286.465
406.1140, 1219.252
407.3110, 1173.097
408.5070, 1165.061
409.7030, 1065.660
410.8990, 1071.475
412.0940, 986.4863
413.2900, 985.1221
414.4850, 854.9512
415.6800, 752.7842
416.8750, 722.8232
418.0700, 850.4678
419.2650, 810.3174
420.4590, 796.1719
421.6530, 724.9922
422.8470, 686.8975
424.0410, 502.7686
425.2350, 498.6455
426.4290, 441.5293
427.6220, 491.4199
428.8160, 239.3135
430.0090, 198.2100
431.2020, 310.1025
432.3940, 365.9873
433.5870, 211.8643
434.7790, 205.7344
435.9720, 303.5986
437.1640, 13.45703
438.3560, 51.30762
439.5470, 55.84668
440.7390, 67.02637
441.9300, 0.2333980
443.1220, 81.45020
444.3130, 0.6992190
445.5040, 211.9561
446.6940, 118.2773
447.8850, 14.16797
449.0750, 119.4355
450.2660, 173.3955
451.4560, 131.0059
452.6460, 155.3408
453.8350, 161.6875
455.0250, 125.0166
456.2140, 120.1250
457.4040, 81.15039
458.5930, 45.14453
459.7820, 39.30859
460.9700, 135.5322
462.1590, 199.8340
463.3470, 165.1396
464.5350, 240.4473
465.7240, 143.7598
466.9110, 166.0762
468.0990, 215.6357
469.2870, 255.7178
470.4740, 377.0459
471.6610, 498.3770
472.8480, 695.7139
474.0350, 688.0537
475.2220, 783.3994
476.4090, 963.7490
477.5950, 841.1045
478.7810, 840.2969
479.9670, 1021.328
481.1530, 1139.854
482.3390, 1199.200
483.5240, 1022.358
484.7100, 1150.310
485.8950, 1155.938
487.0800, 1156.438
488.2650, 1326.967
489.4490, 1184.018
490.6340, 1351.870
491.8180, 1395.655
493.0030, 1496.254
494.1870, 1502.217
495.3700, 1487.980
496.5540, 1545.757
497.7380, 1624.547
498.9210, 1716.350
500.1040, 1704.165
501.2870, 1686.993
502.4700, 1804.835
503.6530, 1777.689
504.8350, 1752.557
506.0180, 1818.437
507.2000, 1629.330
508.3820, 1766.236
509.5640, 1678.156
510.7450, 1917.090
511.9270, 1862.037
513.1080, 1963.996
514.2890, 2138.971
515.4700, 2062.958
516.6510, 2294.959
517.8320, 2016.974
519.0130, 1963.990
520.1930, 2099.013
521.3730, 2169.041
522.5530, 2049.075
523.7330, 2310.119
524.9130, 2139.173
526.0920, 2355.238
527.2710, 2538.319
528.4510, 2472.412
529.6300, 2579.517
530.8080, 2523.646
531.9870, 2448.783
533.1660, 2683.936
534.3440, 2550.096
535.5220, 2595.265
536.7000, 2730.444
537.8780, 2657.635
539.0560, 2750.852
540.2330, 2838.078
541.4110, 2730.314
542.5880, 2916.561
543.7650, 2768.814
544.9420, 2641.082
546.1180, 2517.359
547.2950, 2419.047
548.4710, 2372.968
549.6470, 2301.338
550.8230, 2182.772
551.9990, 2146.309
553.1750, 2154.812
554.3500, 2030.391
555.5260, 1983.052
556.7010, 1925.785
557.8760, 1762.550
559.0510, 1503.390
560.2250, 1628.269
561.4000, 1296.182
562.5740, 1444.154
563.7480, 1189.221
564.9220, 1205.366
566.0960, 1228.618
567.2700, 1184.952
568.4430, 1210.303
569.6170, 849.7314
570.7900, 759.1924
571.9630, 735.6836
573.1360, 723.2100
574.3080, 477.7432
575.4810, 667.3242
576.6530, 490.8711
577.8250, 487.8711
578.9980, 289.4297
580.1690, 435.0400
581.3410, 280.6836
582.5130, 202.6582
583.6840, 129.8555
584.8550, 90.16895
586.0260, 103.1914
587.1970, 47.16895
588.3680, 29.94824
589.5380, 97.83398
590.7080, 114.2051
591.8790, 110.1504
593.0490, 8.606445
594.2190, 13.43262
595.3880, 58.10742
596.5580, 12.11816
597.7270, 37.52539
598.8960, 43.27441
600.0650, 47.06445
601.2340, 49.42285
602.4030, 78.27539
603.5710, 136.9873
604.7400, 170.7109
605.9080, 207.4453
607.0760, 86.19336
608.2440, 311.9531
609.4120, 125.7236
610.5790, 136.5068
611.7460, 170.3027
612.9140, 169.1074
614.0810, 243.2158
615.2480, 338.7549
616.4140, 372.5947
617.5810, 467.4473
618.7470, 494.3105
619.9130, 519.6846
621.0790, 556.9004
622.2450, 578.9678
623.4110, 527.8779
624.5770, 628.7979
625.7420, 493.7324
626.9070, 496.6797
628.0720, 777.6387
629.2370, 646.6133
630.4020, 703.6006
631.5660, 769.6016
632.7310, 931.6152
633.8950, 1095.643
635.0590, 1023.683
636.2230, 1126.736
637.3870, 1241.803
638.5500, 1228.881
639.7140, 1336.354
640.8770, 1269.076
642.0400, 1497.193
643.2030, 1534.320
644.3660, 1686.462
645.5280, 1736.614
646.6910, 2097.778
647.8530, 1890.954
649.0150, 2097.143
650.1770, 2078.341
651.3390, 2366.552
652.5000, 2509.773
653.6620, 2826.007
654.8230, 2703.251
655.9840, 3151.506
657.1450, 3328.771
658.3060, 3523.048
659.4660, 3891.334
660.6270, 4304.631
661.7870, 4571.940
662.9470, 4907.046
664.1070, 5087.184
665.2670, 5389.922
666.4260, 5506.270
667.5860, 5541.627
668.7450, 6015.993
669.9040, 6344.368
671.0630, 6606.756
672.2220, 6554.151
673.3800, 6669.555
674.5390, 6497.967
675.6970, 6402.389
676.8550, 6414.164
678.0130, 6121.806
679.1710, 5853.359
680.3290, 5751.816
681.4860, 5597.279
682.6430, 5324.858
683.8000, 5498.627
684.9570, 5430.301
686.1140, 5743.905
687.2710, 5518.123
688.4270, 5787.814
689.5840, 5944.665
690.7400, 6067.360
691.8960, 6130.014
693.0520, 6455.259
694.2070, 6536.593
695.3630, 6991.652
696.5180, 7489.845
697.6730, 7980.385
698.8280, 8383.251
699.9830, 8751.293
701.1380, 9236.455
702.2920, 9458.378
703.4470, 9977.987
704.6010, 10460.26
705.7550, 10434.90
706.9090, 10998.70
708.0620, 11240.76
709.2160, 11466.43
710.3690, 11803.32
711.5220, 12129.36
712.6750, 12234.83
713.8280, 12574.59
714.9810, 12600.04
716.1340, 12651.36
717.2860, 12419.83
718.4380, 12353.31
719.5900, 12245.80
720.7420, 11722.49
721.8940, 11535.55
723.0450, 11236.00
724.1970, 10909.46
725.3480, 10773.92
726.4990, 10439.43
727.6500, 10074.16
728.8010, 9689.934
729.9510, 9194.050
731.1020, 8815.659
732.2520, 8442.130
733.4020, 8116.808
734.5520, 7817.324
735.7020, 7482.273
736.8510, 7369.399
738.0010, 7125.196
739.1500, 7110.115
740.2990, 6926.965
741.4480, 6776.729
742.5970, 6764.480
743.7450, 6636.223
744.8940, 6469.951
746.0420, 6344.668
747.1900, 6156.373
748.3380, 6538.064
749.4860, 6907.746
750.6330, 6731.415
751.7810, 6571.070
752.9280, 6815.715
754.0750, 6864.344
755.2220, 7169.963
756.3690, 7249.566
757.5160, 7128.160
758.6620, 7171.739
759.8090, 7194.306
760.9550, 7104.857
762.1010, 7223.398
763.2470, 7244.926
764.3920, 7581.441
765.5380, 7304.941
766.6830, 7348.428
767.8280, 7181.899
768.9730, 7012.359
770.1180, 6770.805
771.2630, 6569.885
772.4070, 6201.653
773.5520, 6058.057
774.6960, 5818.447
775.8400, 5461.821
776.9840, 5276.185
778.1280, 4789.531
779.2710, 4744.863
780.4140, 4703.184
781.5580, 4211.486
782.7010, 4106.775
783.8440, 3666.053
784.9860, 3494.312
786.1290, 3008.561
787.2710, 2981.792
788.4140, 2997.010
789.5560, 2556.242
790.6980, 2444.051
791.8390, 2026.574
792.9810, 1913.732
794.1220, 1922.876
795.2640, 1759.004
796.4050, 1676.119
797.5460, 1379.218
798.6860, 1191.302
799.8270, 1175.372
800.9680, 1062.426
802.1080, 894.4639
803.2480, 863.4873
804.3880, 771.4971
805.5280, 630.4912
806.6670, 497.4688
807.8070, 788.4326
808.9460, 559.7412
810.0850, 878.6553
811.2240, 397.2344
812.3630, 153.1367
813.5020, 58.09570
814.6400, 7.106445
815.7790, 77.71387
816.9170, 138.5176
818.0550, 119.3066
819.1930, 78.08008
820.3300, 61.83594
821.4680, 68.57227
822.6050, 10.29199
823.7430, 42.97168
824.8800, 134.3730
826.0170, 152.8320
827.1530, 150.4150
828.2900, 86.12109
829.4260, 47.91699
830.5620, 224.7803
831.6990, 188.8057
832.8340, 31.97266
833.9700, 197.2002
835.1060, 68.57324
836.2410, 38.02539
837.3760, 144.5391
838.5120, 269.1689
839.6470, 216.9844
840.7810, 323.9521
841.9160, 235.1299
843.0500, 17.52734
844.1850, 211.8447
845.3190, 47.36621
846.4530, 36.06152
847.5870, 55.44141
848.7200, 124.7012
849.8540, 101.0186
850.9870, 187.1729
852.1200, 48.64648
853.2530, 64.47266
854.3860, 57.58008
855.5190, 49.67383
856.6510, 11.24512
857.7840, 2.201172
858.9160, 219.8115
860.0480, 295.8125
861.1800, 203.8008
862.3110, 205.7783
863.4430, 210.7451
864.5740, 161.7031
865.7060, 238.6709
866.8370, 288.6465
867.9680, 358.6309
869.0980, 516.6045
870.2290, 412.5664
871.3590, 392.5176
872.4900, 609.4570
873.6200, 385.3887
874.7500, 672.3096
875.8790, 625.2236
877.0090, 583.1328
878.1380, 485.0303
879.2680, 509.9170
880.3970, 548.7939
881.5260, 472.6602
882.6550, 859.5166
883.7830, 636.3623
884.9120, 768.1992
886.0400, 807.0273
887.1680, 741.8447
888.2960, 795.6543
889.4240, 831.4541
890.5520, 957.2451
891.6790, 836.0283
892.8070, 862.8047
893.9340, 914.5713
895.0610, 1040.330
896.1880, 958.4404
897.3140, 1119.266
898.4410, 1217.652
899.5670, 1256.912
900.6940, 1060.088
901.8200, 1168.114
902.9450, 1153.923
904.0710, 1134.745
905.1970, 1285.653
906.3220, 1123.096
907.4470, 1271.282
908.5730, 1295.432
909.6980, 1376.340
910.8220, 1334.283
911.9470, 1330.250
913.0710, 1449.170
914.1960, 1500.044
915.3200, 1443.883
916.4440, 1448.449
917.5680, 1404.283
918.6910, 1436.252
919.8150, 1372.959
920.9380, 1547.661
922.0610, 1483.361
923.1840, 1571.065
924.3070, 1610.778
925.4300, 1495.490
926.5520, 1511.200
927.6750, 1633.910
928.7970, 1854.619
929.9190, 1403.329
931.0410, 1612.039
932.1630, 1592.748
933.2840, 1496.465
934.4060, 1469.183
935.5270, 1527.900
936.6480, 1586.618
937.7690, 1620.016
938.8900, 1598.078
940.0100, 1744.822
941.1310, 1665.574
942.2510, 1731.369
943.3710, 1616.164
944.4910, 1662.973
945.6110, 1492.783
946.7310, 1574.594
947.8500, 1623.424
948.9690, 1651.910
950.0890, 1696.542
951.2080, 1566.272
952.3260, 1567.126
953.4450, 1535.686
954.5640, 1826.742
955.6820, 1515.322
956.8000, 1521.005
957.9180, 1596.771
959.0360, 1303.936
960.1540, 1294.639
961.2710, 1410.193
962.3890, 1337.916
963.5060, 1332.726
964.6230, 1205.956
965.7400, 1352.110
966.8570, 1232.579
967.9730, 1273.943
969.0900, 1169.979
970.2060, 1185.128
971.3220, 1204.238
972.4380, 1519.709
973.5540, 1550.407
974.6700, 1415.445
975.7850, 1179.832
976.9010, 1287.861
978.0160, 1241.752
979.1310, 1244.749
980.2460, 1106.432
981.3600, 1344.288
982.4750, 1251.012
983.5890, 1292.333
984.7030, 1122.388
985.8170, 1163.967
986.9310, 1134.106
988.0450, 1184.662
989.1590, 1154.053
990.2720, 1177.443
991.3850, 1230.679
992.4980, 1272.576
993.6110, 1406.117
994.7240, 1361.685
995.8370, 1278.300
996.9490, 1143.965
998.0620, 1365.654
999.1740, 1154.370
1000.286, 1202.113
1001.398, 1658.881
1002.509, 1482.694
1003.621, 1541.213
1004.732, 1528.354
1005.843, 1365.234
1006.954, 1327.142
1008.065, 1251.078
1009.176, 1333.058
1010.286, 1361.066
1011.397, 1470.120
1012.507, 1284.201
1013.617, 1445.308
1014.727, 1380.448
1015.837, 1404.617
1016.946, 1696.814
1018.056, 1517.041
1019.165, 1321.297
1020.274, 1584.580
1021.383, 1558.891
1022.492, 1630.229
1023.601, 1545.635
1024.709, 1593.068
1025.817, 1487.529
1026.926, 1565.020
1028.034, 1464.537
1029.141, 1495.085
1030.249, 1722.658
1031.357, 1538.541
1032.464, 1554.896
1033.571, 1404.560
1034.678, 1642.252
1035.785, 1721.974
1036.892, 1563.724
1037.999, 1560.515
1039.105, 1480.334
1040.211, 1514.192
1041.317, 1557.079
1042.423, 1534.477
1043.529, 1549.428
1044.635, 1625.924
1045.740, 1710.417
1046.845, 1630.508
1047.951, 1978.574
1049.056, 1507.739
1050.160, 1617.893
1051.265, 1660.079
1052.370, 1900.319
1053.474, 1566.592
1054.578, 1675.903
1055.682, 1699.243
1056.786, 1660.240
1057.890, 1762.662
1058.993, 1735.092
1060.097, 1972.753
1061.200, 1982.243
1062.303, 2009.434
1063.406, 1897.980
1064.509, 1968.558
1065.612, 1811.118
1066.714, 1748.789
1067.816, 1645.490
1068.919, 1767.220
1070.021, 1806.977
1071.122, 1848.150
1072.224, 2000.975
1073.326, 1770.121
1074.427, 1979.707
1075.528, 2203.605
1076.629, 2513.650
1077.730, 1827.607
1078.831, 1954.592
1079.931, 1847.886
1081.032, 1826.933
1082.132, 1609.013
1083.232, 1547.267
1084.332, 1747.935
1085.432, 2134.615
1086.531, 1913.227
1087.631, 1906.062
1088.730, 1686.327
1089.829, 1464.619
1090.928, 1362.976
1092.027, 1494.365
1093.126, 1424.832
1094.224, 1264.380
1095.323, 1126.734
1096.421, 1243.424
1097.519, 1179.166
1098.617, 1089.874
1099.715, 1221.648
1100.812, 1059.399
1101.910, 953.4648
1103.007, 904.5859
1104.104, 917.7549
1105.201, 796.9990
1106.298, 716.0664
1107.394, 870.5107
1108.491, 663.0762
1109.587, 838.7471
1110.683, 821.4492
1111.779, 681.2412
1112.875, 820.2842
1113.971, 785.2373
1115.066, 989.5996
1116.162, 943.7031
1117.257, 1160.580
1118.352, 864.6143
1119.447, 741.9443
1120.542, 595.0439
1121.636, 703.1641
1122.731, 705.3037
1123.825, 682.4766
1124.919, 667.8955
1126.013, 648.2354
1127.107, 690.6221
1128.200, 594.2256
1129.294, 517.5020
1130.387, 447.7959
1131.480, 560.2051
1132.573, 424.5391
1133.666, 457.8906
1134.759, 245.8604
1135.851, 410.2461
1136.944, 430.6553
1138.036, 354.0811
1139.128, 526.0928
1140.220, 231.9160
1141.312, 496.3896
1142.403, 378.1172
1143.495, 302.6201
1144.586, 272.1367
1145.677, 257.1191
1146.768, 353.6729
1147.859, 246.2393
1148.950, 178.7900
1150.040, 192.3818
1151.130, 45.98828
1152.221, 293.6055
1153.311, 304.3838
1154.401, 321.5820
1155.490, 335.8154
1156.580, 349.3779
1157.669, 256.0527
1158.759, 227.7373
1159.848, 299.4336
1160.937, 175.1396
1162.025, 158.8643
1163.114, 60.43066
1164.202, 216.1650
1165.291, 109.9072
1166.379, 158.6592
1167.467, 125.4189
1168.555, 98.89648
1169.642, 259.6729
1170.730, 82.57422
1171.817, 88.36523
1172.905, 30.33301
1173.992, 45.46484
1175.078, 204.7285
1176.165, 63.87598
1177.252, 123.1484
1178.338, 74.54688
1179.425, 4.149414
1180.511, 146.3604
1181.597, 56.46289
1182.682, 180.3838
1183.768, 165.4678
1184.854, 81.06738
1185.939, 42.12012
1187.024, 81.40527
1188.109, 2.013672
1189.194, 206.7080
1190.279, 11.39453
1191.363, 148.4131
1192.448, 28.84180
1193.532, 61.84863
1194.616, 127.5723
1195.700, 56.75098
1196.784, 116.9229
1197.867, 364.9248
1198.951, 130.9443
1200.034, 565.6162
1201.117, 113.7129
1202.200, 3.908203
1203.283, 37.47461
1204.366, 178.8721
1205.448, 61.89355
1206.531, 52.21777
1207.613, 55.46680
1208.695, 124.0244
1209.777, 69.95410
1210.859, 247.0752
1211.940, 160.7139
1213.022, 0.5224610
1214.103, 52.08887
1215.184, 10.68457
1216.265, 30.71094
1217.346, 46.09863
1218.427, 44.77246
1219.507, 19.14844
1220.587, 133.7432
1221.668, 53.62402
1222.748, 25.85254
1223.828, 90.91309
1224.907, 121.7441
1225.987, 96.71875
1227.066, 34.97656
1228.146, 88.77441
1229.225, 55.45117
1230.304, 4.308594
1231.382, 47.24609
1232.461, 95.39355
1233.540, 242.4941
1234.618, 69.72070
1235.696, 15.20312
1236.774, 133.8428
1237.852, 63.87500
1238.930, 130.6055
1240.007, 178.6094
1241.085, 81.19922
1242.162, 64.42578
1243.239, 29.48633
1244.316, 50.13086
1245.393, 152.7080
1246.469, 50.75391
1247.546, 186.8184
1248.622, 24.60742
1249.698, 113.3750
1250.774, 228.1260
1251.850, 120.8594
1252.926, 75.57324
1254.001, 32.38086
1255.077, 78.94629
1256.152, 53.39746
1257.227, 53.80664
1258.302, 95.71875
1259.377, 89.22363
1260.451, 63.66992
1261.526, 178.2646
1262.600, 125.2314
1263.674, 11.41895
1264.748, 130.8096
1265.822, 116.8857
1266.896, 179.2354
1267.969, 39.66699
1269.043, 29.02832
1270.116, 199.2197
1271.189, 25.55078
1272.262, 144.6191
1273.335, 298.7949
1274.407, 23.92285
1275.480, 275.9502
1276.552, 286.0264
1277.624, 39.07910
1278.696, 300.1016
1279.768, 290.1016
1280.840, 267.0781
1281.911, 94.03418
1282.982, 94.03320
1284.054, 153.7979
1285.125, 212.6074
1286.196, 183.3936
1287.266, 338.1572
1288.337, 624.8984
1289.407, 301.6172
1290.478, 141.3125
1291.548, 55.98438
1292.618, 313.6250
1293.688, 158.2432
1294.757, 250.8389
1295.827, 177.4082
1296.896, 14.95605
1297.965, 194.4570
1299.034, 27.93262
1300.103, 181.3662
1301.172, 43.77539
1302.241, 310.6719
1303.309, 179.0205
1304.377, 126.8301
1305.445, 254.6465
1306.513, 252.8711
1307.581, 66.12500
1308.649, 55.71680
1309.716, 81.42676
1310.784, 45.45703
1311.851, 85.58398
1312.918, 8.597656
1313.985, 139.5625
1315.052, 177.5068
1316.118, 62.79785
1317.185, 285.6680
1318.251, 113.5459
1319.317, 49.19727
1320.383, 152.0166
1321.449, 181.1406
1322.514, 156.9121
1323.580, 89.37891
1324.645, 192.3486
1325.711, 95.96973
1326.776, 94.56641
1327.840, 192.1367
1328.905, 201.6768
1329.970, 211.0146
1331.034, 211.2705
1332.099, 195.4131
1333.163, 96.11816
1334.227, 30.51758
1335.290, 108.7412
1336.354, 139.0488
1337.418, 65.33594
1338.481, 21.31348
1339.544, 32.54004
1340.607, 28.73730
1341.670, 253.7812
1342.733, 292.4131
1343.795, 177.0361
1344.858, 252.1230
1345.920, 88.18750
1346.982, 200.2236
1348.044, 57.76367
1349.106, 65.19727
1350.168, 60.45215
1351.229, 242.0410
1352.291, 158.9268
1353.352, 104.0615
1354.413, 163.8994
1355.474, 156.7080
1356.534, 113.6240
1357.595, 162.5283
1358.656, 58.47754
1359.716, 134.1807
1360.776, 261.8604
1361.836, 110.5176
1362.896, 251.1387
1363.955, 410.0225
1365.015, 207.5977
1366.074, 4.153320
1367.134, 157.6768
1368.193, 295.1787
1369.252, 150.6592
1370.310, 224.9141
1371.369, 48.28027
1372.427, 219.2656
1373.486, 81.65625
1374.544, 73.01074
1375.602, 570.3584
1376.660, 145.4336
1377.717, 458.7275
1378.775, 377.4932
1379.832, 620.2861
1380.889, 270.5293
1381.946, 154.5342
1383.003, 176.7393
1384.060, 163.6572
1385.117, 136.4756
1386.173, 202.6211
1387.230, 6.749023
