##NAMES=Annite
##RRUFFID=R060211
##IDEAL CHEMISTRY=KFe^2+^_3_AlSi_3_O_10_(OH)_2_
##LOCALITY=Mont Saint-Hilaire, Rouville County, Quebec, Canada
##OWNER=RRUFF
##SOURCE=Royal Ontario Museum
##DESCRIPTION=Black mica
##STATUS=The identification of this mineral has been confirmed by X-ray diffraction and chemical analysis
##URL=rruff.info/R060211
##MEASURED CHEMISTRY=(K_0.94_[box]_0.03_Na_0.02_)_Σ=1_(Fe^2+^_2.07_Mg_0.57_Mn_0.33_Ti_0.03_)_Σ=3_(Si_2.98_Al_1.02_)O_10_((OH)_1.72_F_0.28_)_Σ=2_
##PIN_ID=L00722
##ORIENTATION=Laser parallel to a* (1 0 0). Fiducial mark perpendicular to laser is parallel to b [0 1 0]
230.7650, 0.0000000E+00
231.9820, 1.349609
233.1990, 78.07031
234.4160, 51.48926
235.6330, 74.72266
236.8490, 152.0439
238.0660, 119.7734
239.2820, 170.5059
240.4980, 103.3203
241.7140, 94.35449
242.9300, 108.5029
244.1460, 69.04004
245.3610, 161.4727
246.5770, 245.9551
247.7920, 137.3867
249.0070, 241.3438
250.2220, 300.7832
251.4370, 211.4082
252.6510, 209.2490
253.8660, 305.8447
255.0800, 190.2627
256.2940, 204.8848
257.5080, 91.76172
258.7220, 252.9189
259.9360, 693.3486
261.1490, 1162.585
262.3630, 637.6777
263.5760, 544.1738
264.7890, 575.1270
266.0020, 523.4131
267.2150, 511.6543
268.4270, 678.5488
269.6400, 558.9004
270.8520, 644.3750
272.0640, 522.7832
273.2760, 549.1611
274.4880, 583.0654
275.7000, 536.4775
276.9120, 646.4980
278.1230, 577.4609
279.3340, 504.2441
280.5450, 508.7734
281.7560, 367.4033
282.9670, 251.1279
284.1780, 148.0811
285.3880, 294.9014
286.5980, 370.7412
287.8090, 278.7559
289.0190, 147.4639
290.2290, 197.4453
291.4380, 105.6943
292.6480, 159.0010
293.8570, 25.29883
295.0670, 21.59082
296.2760, 109.8799
297.4850, 110.8340
298.6930, 47.45410
299.9020, 152.7451
301.1110, 81.04199
302.3190, 248.3457
303.5270, 69.66992
304.7350, 33.04785
305.9430, 127.4785
307.1510, 77.96191
308.3580, 8.504883
309.5660, 76.92480
310.7730, 42.29883
311.9800, 41.36621
313.1870, 41.93066
314.3940, 25.80566
315.6010, 49.57324
316.8070, 58.36816
318.0130, 95.18945
319.2200, 37.03516
320.4260, 77.89941
321.6310, 46.62891
322.8370, 84.67480
324.0430, 3.577148
325.2480, 23.51172
326.4540, 39.59375
327.6590, 33.33105
328.8640, 157.2627
330.0680, 184.2012
331.2730, 156.1484
332.4780, 128.7744
333.6820, 155.6973
334.8860, 55.64453
336.0900, 96.71875
337.2940, 17.30078
338.4980, 102.4629
339.7010, 215.2432
340.9050, 121.0322
342.1080, 239.8223
343.3110, 249.5146
344.5140, 195.1768
345.7170, 388.8291
346.9200, 268.5078
348.1220, 269.7861
349.3240, 271.5039
350.5270, 309.8936
351.7290, 241.4121
352.9310, 368.5244
354.1320, 342.0840
355.3340, 536.6758
356.5350, 485.2861
357.7370, 492.9131
358.9380, 615.5713
360.1390, 576.2607
361.3400, 445.9805
362.5400, 617.7324
363.7410, 546.5137
364.9410, 752.3252
366.1410, 861.1670
367.3410, 889.0391
368.5410, 1105.941
369.7410, 1293.874
370.9400, 2226.839
372.1400, 1851.875
373.3390, 2405.861
374.5380, 1595.921
375.7370, 1661.410
376.9360, 1778.713
378.1350, 2124.197
379.3330, 2126.710
380.5310, 2357.238
381.7300, 2670.771
382.9280, 2876.302
384.1260, 2821.826
385.3230, 2934.339
386.5210, 3069.835
387.7180, 3120.312
388.9160, 3165.770
390.1130, 3306.207
391.3100, 3274.626
392.5060, 3265.016
393.7030, 3278.375
394.9000, 3080.706
396.0960, 2984.000
397.2920, 2793.260
398.4880, 2731.490
399.6840, 2544.695
400.8800, 2297.875
402.0750, 2192.033
403.2710, 1778.174
404.4660, 1796.301
405.6610, 1593.413
406.8560, 1425.483
408.0510, 1378.514
409.2450, 1271.354
410.4400, 1226.197
411.6340, 1097.046
412.8280, 880.8887
414.0220, 770.6943
415.2160, 644.3350
416.4100, 531.9180
417.6030, 601.5088
418.7970, 467.1211
419.9900, 491.7510
421.1830, 448.4023
422.3760, 410.0195
423.5690, 423.6104
424.7610, 275.2256
425.9540, 166.8623
427.1460, 129.3232
428.3380, 153.1709
429.5300, 62.84961
430.7220, 43.55176
431.9140, 140.2764
433.1050, 77.97656
434.2970, 16.77930
435.4880, 143.3350
436.6790, 130.1357
437.8700, 152.1836
439.0610, 22.19727
440.2510, 20.95020
441.4420, 64.82910
442.6320, 53.68359
443.8220, 134.2256
445.0120, 112.0771
446.2020, 194.0322
447.3910, 236.8838
448.5810, 243.0020
449.7700, 232.0254
450.9600, 263.0596
452.1490, 221.4033
453.3370, 135.5410
454.5260, 224.9404
455.7150, 163.0127
456.9030, 189.3691
458.0910, 154.9072
459.2800, 140.0771
460.4670, 169.3066
461.6550, 4.558594
462.8430, 207.7227
464.0300, 65.97852
465.2180, 73.33105
466.4050, 95.33496
467.5920, 103.1465
468.7790, 84.58594
469.9650, 110.1025
471.1520, 15.59766
472.3380, 22.20996
473.5250, 107.1973
474.7110, 172.6279
475.8970, 50.06152
477.0820, 192.5205
478.2680, 227.0020
479.4540, 350.5010
480.6390, 279.7295
481.8240, 364.2510
483.0090, 341.7969
484.1940, 489.3672
485.3780, 600.9648
486.5630, 563.5859
487.7470, 750.2334
488.9320, 928.9062
490.1160, 894.6064
491.3000, 1003.320
492.4830, 1001.041
493.6670, 1193.755
494.8500, 1235.472
496.0340, 1326.213
497.2170, 1476.321
498.4000, 1484.776
499.5820, 1778.599
500.7650, 1901.447
501.9480, 2135.323
503.1300, 2222.226
504.3120, 2402.155
505.4940, 2347.111
506.6760, 2387.094
507.8580, 2415.104
509.0390, 2341.158
510.2210, 2334.711
511.4020, 2225.290
512.5830, 2217.406
513.7640, 2177.546
514.9450, 2093.715
516.1250, 2052.578
517.3060, 1970.129
518.4860, 1903.369
519.6660, 1845.911
520.8460, 1744.913
522.0260, 1727.216
523.2060, 1655.538
524.3850, 1530.881
525.5650, 1420.243
526.7440, 1483.628
527.9230, 1447.033
529.1020, 1364.461
530.2810, 1348.911
531.4590, 1252.386
532.6380, 1135.892
533.8160, 1021.423
534.9940, 1074.975
536.1720, 1085.548
537.3500, 936.1436
538.5270, 819.7969
539.7050, 818.4932
540.8820, 744.2314
542.0590, 742.9932
543.2360, 707.7930
544.4130, 722.6582
545.5900, 669.5459
546.7660, 548.4902
547.9430, 564.4609
549.1190, 458.4570
550.2950, 508.5049
551.4710, 479.5869
552.6470, 433.7109
553.8220, 386.8613
554.9980, 266.0586
556.1730, 376.3242
557.3480, 257.5879
558.5230, 278.7012
559.6980, 175.4590
560.8730, 197.9131
562.0470, 234.4082
563.2220, 14.92969
564.3960, 78.07910
565.5700, 134.3223
566.7440, 11.68359
567.9170, 253.3779
569.0910, 201.1250
570.2640, 28.90137
571.4380, 152.7314
572.6110, 171.6240
573.7840, 148.5459
574.9570, 20.18945
576.1290, 84.83398
577.3020, 22.14941
578.4740, 87.83984
579.6460, 7.201172
580.8180, 97.28711
581.9900, 136.5771
583.1620, 1.235352
584.3330, 21.46387
585.5040, 49.74512
586.6760, 149.0518
587.8470, 31.38574
589.0180, 212.7617
590.1880, 218.1631
591.3590, 52.58984
592.5290, 307.0400
593.7000, 175.5332
594.8700, 357.0850
596.0400, 443.6816
597.2090, 535.3018
598.3790, 616.9648
599.5490, 614.6543
600.7180, 709.5215
601.8870, 772.9199
603.0560, 847.8799
604.2250, 951.6719
605.3940, 1052.385
606.5620, 1185.222
607.7300, 1352.770
608.8990, 1681.010
610.0670, 1715.139
611.2350, 2031.253
612.4020, 2055.906
613.5700, 2210.419
614.7370, 2533.443
615.9050, 2809.488
617.0720, 2902.557
618.2390, 3275.646
619.4060, 3412.755
620.5720, 3506.885
621.7390, 4308.043
622.9050, 4414.226
624.0710, 4721.426
625.2370, 4747.646
626.4030, 5046.885
627.5690, 5040.145
628.7340, 5387.424
629.9000, 5393.721
631.0650, 5470.035
632.2300, 5394.372
633.3950, 5528.725
634.5600, 5569.098
635.7240, 5502.487
636.8890, 5112.896
638.0530, 5040.322
639.2170, 4679.768
640.3810, 4486.230
641.5450, 4083.710
642.7080, 4020.206
643.8720, 3692.719
645.0350, 3710.250
646.1980, 3524.797
647.3610, 3331.359
648.5240, 3241.939
649.6870, 3014.535
650.8490, 2903.146
652.0120, 2894.772
653.1740, 2859.416
654.3360, 2800.072
655.4980, 2477.953
656.6600, 2471.639
657.8210, 2568.340
658.9830, 2811.057
660.1440, 2690.787
661.3050, 2954.531
662.4660, 2677.289
663.6270, 2808.060
664.7870, 2771.965
665.9480, 2799.931
667.1080, 2752.909
668.2680, 2576.094
669.4280, 2477.312
670.5880, 2536.867
671.7480, 2592.016
672.9070, 2309.565
674.0670, 2441.448
675.2260, 2243.381
676.3850, 2214.480
677.5440, 2125.345
678.7030, 2015.265
679.8610, 1926.627
681.0200, 1890.850
682.1780, 1635.295
683.3360, 1697.842
684.4940, 1571.262
685.6520, 1539.462
686.8090, 1611.382
687.9670, 1604.759
689.1240, 1409.402
690.2810, 1404.429
691.4380, 1304.369
692.5950, 1241.961
693.7520, 1172.658
694.9080, 1196.291
696.0650, 1073.379
697.2210, 1093.292
698.3770, 1092.023
699.5330, 1045.512
700.6880, 1147.842
701.8440, 1063.281
702.9990, 1071.771
704.1550, 1002.581
705.3100, 1034.250
706.4650, 1047.701
707.6190, 888.7559
708.7740, 1046.748
709.9290, 960.7510
711.0830, 899.9531
712.2370, 934.1826
713.3910, 765.2100
714.5450, 764.2354
715.6980, 765.5771
716.8520, 690.2109
718.0050, 729.5898
719.1580, 672.5781
720.3110, 711.0859
721.4640, 481.8125
722.6170, 466.7090
723.7700, 425.0918
724.9220, 391.2969
726.0740, 339.2354
727.2260, 493.8223
728.3780, 390.8477
729.5300, 481.8340
730.6810, 602.2930
731.8330, 305.8213
732.9840, 241.9033
734.1350, 354.2129
735.2860, 170.1553
736.4370, 223.5186
737.5880, 331.4395
738.7380, 282.2305
739.8880, 251.4541
741.0390, 259.2090
742.1890, 263.4961
743.3380, 410.2891
744.4880, 307.1533
745.6380, 404.0059
746.7870, 400.8594
747.9360, 220.3301
749.0850, 262.3184
750.2340, 313.3662
751.3830, 388.2168
752.5310, 431.2725
753.6800, 461.0977
754.8280, 492.1289
755.9760, 506.1982
757.1240, 501.9834
758.2720, 557.7539
759.4190, 529.5098
760.5670, 617.2529
761.7140, 567.1758
762.8610, 451.9922
764.0080, 503.6875
765.1550, 511.3691
766.3020, 511.0342
767.4480, 553.6826
768.5950, 529.5342
769.7410, 547.6621
770.8870, 504.6016
772.0330, 573.1836
773.1780, 573.7500
774.3240, 621.2979
775.4690, 682.8281
776.6140, 454.3408
777.7590, 428.8369
778.9040, 499.3135
780.0490, 411.7725
781.1940, 534.2129
782.3380, 523.6348
783.4820, 525.0381
784.6260, 470.4219
785.7700, 350.7891
786.9140, 400.1348
788.0580, 299.4619
789.2010, 288.7686
790.3450, 172.0566
791.4880, 284.3232
792.6310, 60.57031
793.7730, 213.7959
794.9160, 178.0010
796.0590, 283.1855
797.2010, 244.3486
798.3430, 142.4902
799.4850, 144.6113
800.6270, 127.7119
801.7690, 99.64941
802.9100, 90.39355
804.0520, 92.87598
805.1930, 48.88281
806.3340, 45.86621
807.4750, 17.82227
808.6160, 11.25000
809.7560, 21.63379
810.8970, 184.4873
812.0370, 139.3184
813.1770, 104.1270
814.3170, 98.08887
815.4570, 50.39844
816.5960, 40.77441
817.7360, 92.78613
818.8750, 24.67871
820.0140, 121.1992
821.1530, 57.17188
822.2920, 82.48242
823.4310, 25.77539
824.5690, 77.99805
825.7070, 71.80469
826.8460, 2.309570
827.9840, 27.61914
829.1220, 51.39160
830.2590, 38.62793
831.3970, 132.7139
832.5340, 43.91504
833.6710, 168.1738
834.8080, 11.43262
835.9450, 76.99805
837.0820, 14.46582
838.2190, 92.01465
839.3550, 81.46680
840.4910, 11.89062
841.6270, 2.728516
842.7630, 142.3984
843.8990, 56.19141
845.0350, 39.94824
846.1700, 70.94434
847.3060, 89.90527
848.4410, 31.03516
849.5760, 264.9395
850.7100, 40.81641
851.8450, 157.6611
852.9800, 68.48438
854.1140, 11.72363
855.2480, 5.977539
856.3820, 1.713867
857.5160, 60.35645
858.6500, 100.0342
859.7830, 119.4717
860.9170, 160.9482
862.0500, 47.39648
863.1830, 15.19043
864.3160, 200.1631
865.4480, 234.4893
866.5810, 93.79102
867.7130, 23.06055
868.8460, 39.29004
869.9780, 124.4805
871.1100, 345.6436
872.2410, 107.7783
873.3730, 214.8828
874.5050, 52.96094
875.6360, 135.0049
876.7670, 15.02051
877.8980, 253.9912
879.0290, 132.9365
880.1590, 313.8516
881.2900, 221.7393
882.4200, 246.6025
883.5500, 78.43750
884.6800, 184.2500
885.8100, 171.0342
886.9400, 290.8105
888.0690, 164.5820
889.1990, 233.3496
890.3280, 100.0898
891.4570, 330.7998
892.5860, 258.4824
893.7140, 230.1387
894.8430, 258.7686
895.9710, 269.3701
897.1000, 156.9463
898.2280, 207.4951
899.3560, 243.0156
900.4830, 228.5107
901.6110, 324.9805
902.7380, 327.4238
903.8660, 299.8418
904.9930, 202.2324
906.1200, 231.7871
907.2460, 241.9365
908.3730, 258.2500
909.5000, 260.5391
910.6260, 326.8008
911.7520, 371.0381
912.8780, 287.2490
914.0040, 425.4326
915.1290, 523.5928
916.2550, 358.7461
917.3800, 439.8711
918.5050, 532.9893
919.6300, 353.0801
920.7550, 406.1445
921.8800, 380.1846
923.0040, 434.1963
924.1290, 577.1846
925.2530, 520.1465
926.3770, 457.0820
927.5010, 588.9932
928.6250, 452.6787
929.7480, 605.5459
930.8720, 581.3887
931.9950, 697.2051
933.1180, 633.9971
934.2410, 601.7637
935.3640, 670.5049
936.4860, 570.2217
937.6090, 424.7930
938.7310, 541.2930
939.8530, 585.7676
940.9750, 488.0352
942.0970, 651.2754
943.2180, 615.2285
944.3400, 807.5781
945.4610, 731.5371
946.5820, 658.1494
947.7030, 594.7109
948.8240, 593.2041
949.9450, 649.6982
951.0650, 596.2334
952.1860, 656.3135
953.3060, 650.5186
954.4260, 662.4785
955.5460, 626.3418
956.6650, 616.9695
957.7850, 745.1089
958.9040, 822.9644
960.0230, 853.2488
961.1420, 693.4818
962.2610, 779.1260
963.3800, 766.4210
964.4990, 749.6830
965.6170, 869.8564
966.7350, 737.7195
967.8530, 855.7222
968.9710, 873.8734
970.0890, 937.7237
971.2070, 902.6166
972.3240, 898.0627
973.4410, 992.4979
974.5580, 1032.122
975.6750, 985.6118
976.7920, 1052.355
977.9090, 916.7502
979.0250, 958.6973
980.1410, 1077.255
981.2580, 1035.720
982.3740, 1104.261
983.4890, 1130.863
984.6050, 966.9329
985.7200, 1134.365
986.8360, 1158.501
987.9510, 1035.479
989.0660, 1191.556
990.1810, 1088.820
991.2950, 1078.452
992.4100, 1137.619
993.5240, 1124.299
994.6390, 1225.256
995.7530, 1216.122
996.8660, 1197.141
997.9800, 1221.091
999.0940, 1123.418
1000.207, 1251.371
1001.320, 1225.194
1002.433, 1275.631
1003.546, 1343.435
1004.659, 1278.269
1005.772, 1158.802
1006.884, 1317.141
1007.996, 1245.949
1009.108, 1232.814
1010.220, 1268.380
1011.332, 1379.238
1012.444, 1347.951
1013.555, 1340.318
1014.666, 1426.013
1015.777, 1433.923
1016.888, 1419.597
1017.999, 1412.292
1019.110, 1322.015
1020.220, 1432.204
1021.331, 1345.799
1022.441, 1376.964
1023.551, 1458.579
1024.661, 1401.698
1025.770, 1257.307
1026.880, 1260.893
1027.989, 1178.469
1029.098, 1041.036
1030.207, 1025.869
1031.316, 913.2080
1032.425, 843.7012
1033.533, 1059.392
1034.642, 985.2734
1035.750, 992.8262
1036.858, 920.6211
1037.966, 991.2178
1039.073, 932.9766
1040.181, 789.4531
1041.288, 801.2656
1042.396, 703.9297
1043.503, 667.6602
1044.610, 582.1045
1045.716, 609.9717
1046.823, 855.1689
1047.929, 656.8311
1049.036, 805.8135
1050.142, 775.2188
1051.248, 586.0996
1052.353, 707.6748
1053.459, 690.0557
1054.564, 684.4277
1055.670, 627.7920
1056.775, 616.5811
1057.880, 532.6006
1058.985, 559.9531
1060.089, 541.6357
1061.194, 509.1016
1062.298, 630.7842
1063.402, 533.2139
1064.506, 631.5205
1065.610, 643.9688
1066.713, 601.9122
1067.817, 697.7372
1068.920, 743.3066
1070.023, 741.3071
1071.126, 549.2540
1072.229, 602.6130
1073.332, 557.6219
1074.435, 508.5980
1075.537, 596.5166
1076.639, 432.1229
1077.741, 517.8701
1078.843, 503.7643
1079.945, 535.3599
1081.046, 468.0128
1082.148, 431.2158
1083.249, 493.4227
1084.350, 500.8206
1085.451, 422.0819
1086.551, 456.6161
1087.652, 288.7845
1088.752, 298.5338
1089.853, 384.8749
1090.953, 311.1308
1092.053, 347.4742
1093.152, 341.9070
1094.252, 145.7804
1095.351, 281.0434
1096.451, 272.9796
1097.550, 117.7887
1098.649, 241.6975
1099.748, 106.7924
1100.846, 64.28686
1101.945, 91.28496
1103.043, 45.82516
1104.141, 114.6301
1105.239, 318.7354
1106.337, 320.3730
1107.434, 127.8418
1108.532, 126.3418
1109.629, 128.8223
1110.726, 40.65527
1111.823, 11.13281
1112.920, 61.61816
1114.017, 100.0596
1115.113, 81.59766
1116.210, 220.1348
1117.306, 369.6377
1118.402, 307.1689
1119.498, 323.6963
1120.593, 317.2217
1121.689, 176.7578
1122.784, 220.3018
1123.879, 215.8525
1124.974, 130.4023
1126.069, 119.9854
1127.164, 214.5645
1128.259, 175.1406
1129.353, 263.7178
1130.447, 360.3047
1131.541, 189.8867
1132.635, 243.4658
1133.729, 260.0410
1134.822, 298.6201
1135.916, 224.2002
1137.009, 245.7764
1138.102, 96.34863
1139.195, 84.91699
1140.288, 158.4824
1141.380, 61.04590
1142.473, 192.6074
1143.565, 141.1719
1144.657, 354.7324
1145.749, 258.2910
1146.841, 44.84473
1147.932, 208.3926
1149.024, 24.06348
1150.115, 52.46191
1151.206, 73.01465
1152.297, 76.53711
1153.388, 89.10742
1154.479, 144.2705
1155.569, 229.6436
1156.659, 97.01367
1157.750, 360.3809
1158.839, 176.7441
1159.929, 195.1045
1161.019, 34.45996
1162.108, 89.80957
1163.198, 124.1641
1164.287, 62.52148
1165.376, 14.87598
1166.465, 91.22363
1167.553, 31.56641
1168.642, 76.90234
1169.730, 19.23535
1170.818, 161.5625
1171.906, 19.88574
1172.994, 53.20117
1174.082, 35.51270
1175.170, 238.8164
1176.257, 54.11719
1177.344, 112.4141
1178.431, 44.70703
1179.518, 68.00488
1180.605, 216.2393
1181.691, 50.52051
1182.778, 58.68457
1183.864, 180.8838
1184.950, 161.0811
1186.036, 146.2725
1187.122, 79.46191
1188.207, 143.6465
1189.292, 101.8281
1190.378, 21.00684
1191.463, 11.80176
1192.548, 18.38672
1193.632, 77.56836
1194.717, 156.7490
1195.801, 69.92676
1196.886, 210.0996
1197.970, 110.3086
1199.054, 184.5137
1200.137, 16.71582
1201.221, 26.91211
1202.305, 109.1016
1203.388, 25.71094
1204.471, 64.54492
1205.554, 225.4170
1206.637, 83.59863
1207.719, 83.38867
1208.802, 145.5811
1209.884, 32.45215
1210.966, 204.4883
1212.048, 206.4258
1213.130, 243.3604
1214.212, 119.2910
1215.293, 132.2188
1216.374, 175.1426
1217.456, 101.0625
1218.536, 41.97949
1219.617, 124.8906
1220.698, 105.1982
1221.778, 132.6484
1222.859, 15.49219
1223.939, 174.3281
1225.019, 199.1611
1226.099, 124.9902
1227.178, 103.8145
1228.258, 220.6357
1229.337, 261.4521
1230.417, 133.3320
1231.496, 49.14062
1232.574, 119.9443
1233.653, 92.74414
1234.732, 273.3789
1235.810, 67.18555
1236.888, 169.9883
1237.966, 99.78613
1239.044, 113.5781
1240.122, 126.3662
1241.199, 166.8311
1242.277, 185.8887
1243.354, 61.02148
1244.431, 232.7969
1245.508, 192.5244
1246.585, 59.70605
1247.661, 107.0293
1248.738, 162.7617
1249.814, 218.4902
1250.890, 280.2139
1251.966, 287.9336
1253.042, 143.6484
1254.117, 367.3604
1255.193, 143.0674
1256.268, 261.7705
1257.343, 126.4678
1258.418, 172.1611
1259.493, 239.8506
1260.567, 239.5352
1261.642, 272.2236
1262.716, 304.9189
1263.790, 337.6084
1264.864, 384.2959
1265.938, 386.9785
1267.011, 187.6572
1268.085, 283.3242
1269.158, 157.9395
1270.231, 197.6016
1271.304, 255.1045
1272.377, 284.7549
1273.450, 162.4014
1274.522, 246.0566
1275.594, 419.7100
1276.666, 288.1328
1277.738, 400.7764
1278.810, 417.7734
1279.882, 343.3887
1280.953, 268.3975
1282.025, 290.7061
1283.096, 291.9863
1284.167, 309.5957
1285.238, 311.3418
1286.308, 245.7871
1287.379, 305.3848
1288.449, 231.9775
1289.519, 217.5645
1290.589, 411.8701
1291.659, 242.0000
1292.729, 415.1826
1293.798, 445.9453
1294.868, 403.1445
1295.937, 313.6562
1297.006, 381.9102
1298.075, 225.3496
1299.143, 248.5391
1300.212, 233.8262
1301.280, 242.2441
1302.348, 275.5547
1303.416, 408.7832
1304.484, 554.3066
1305.552, 382.5957
1306.620, 454.8887
1307.687, 321.5449
1308.754, 367.4414
1309.821, 355.9023
1310.888, 353.8750
1311.955, 381.1328
1313.021, 270.5723
1314.088, 386.0039
1315.154, 551.4297
1316.220, 184.7441
1317.286, 482.1562
1318.352, 470.7500
1319.417, 406.5547
1320.483, 485.3164
1321.548, 478.3398
1322.613, 371.2539
1323.678, 486.9746
1324.743, 365.1934
1325.807, 402.7090
1326.872, 502.0684
1327.936, 282.5703
1329.000, 264.5508
1330.064, 321.5723
1331.128, 318.1426
1332.191, 476.8203
1333.255, 520.8984
1334.318, 399.9805
1335.381, 275.6914
1336.444, 320.5234
1337.507, 324.1113
1338.569, 193.9590
1339.632, 330.2988
1340.694, 335.6387
1341.756, 456.9766
1342.818, 412.3145
1343.880, 392.6523
1344.941, 323.9902
1346.003, 399.4609
1347.064, 402.7988
1348.125, 268.7617
1349.186, 408.4551
1350.247, 354.8633
1351.308, 288.8125
1352.368, 338.1465
1353.428, 209.4824
1354.489, 283.8887
1355.549, 315.1465
1356.608, 404.4844
1357.668, 396.9277
1358.727, 496.3086
1359.787, 419.4941
1360.846, 294.2598
1361.905, 429.0566
1362.964, 282.5898
1364.022, 331.9844
1365.081, 250.3320
1366.139, 292.6523
1367.197, 299.9980
1368.255, 208.3477
1369.313, 341.7051
1370.371, 218.0684
1371.428, 502.5684
1372.486, 423.2656
1373.543, 381.2324
1374.600, 452.7930
1375.657, 412.4180
1376.713, 270.0508
1377.770, 194.5078
1378.826, 227.8633
1379.882, 302.5117
1380.938, 219.8711
1381.994, 151.2305
1383.050, 106.5918
1384.106, 144.8027
1385.161, 398.3848
1386.216, 285.0430
1387.271, 238.3750
1388.326, 320.6699
1389.381, 233.5488
