##NAMES=Annite
##RRUFFID=R060204
##IDEAL CHEMISTRY=KFe^2+^_3_AlSi_3_O_10_(OH)_2_
##LOCALITY=Mont Saint-Hilaire, Rouville County, Quebec, Canada
##OWNER=RRUFF
##SOURCE=Royal Ontario Museum
##DESCRIPTION=Black mica with pseudohexagonal outines
##STATUS=The identification of this mineral has been confirmed by X-ray diffraction and chemical analysis
##URL=rruff.info/R060204
##MEASURED CHEMISTRY=(K_0.96_Na_0.04_)_Σ=1_(Fe^2+^_2.04_Mg_0.81_Mn_0.09_Ti_0.03_[box]_0.03_)_Σ=3_(Si_3.00_Al_1.00_)O_10_((OH)_1.54_F_0.46_)_Σ=2_
##PIN_ID=M00078
##ORIENTATION=Laser parallel to a* (1 0 0). Fiducial mark perpendicular to laser is parallel to -b [0 -1 0]
307.1510, 0.0000000E+00
308.3580, 164.7734
309.5660, 1.044922
310.7730, 68.89844
311.9800, 136.3027
313.1870, 211.2793
314.3940, 130.5332
315.6010, 66.90039
316.8070, 262.1875
318.0130, 10.61914
319.2200, 230.3945
320.4260, 138.0176
321.6310, 164.2402
322.8370, 119.7930
324.0430, 171.6523
325.2480, 283.9023
326.4540, 233.7402
327.6590, 101.2695
328.8640, 195.3164
330.0680, 376.6797
331.2730, 300.2207
332.4780, 104.8359
333.6820, 316.4570
334.8860, 260.0312
336.0900, 126.5254
337.2940, 188.9648
338.4980, 197.4824
339.7010, 179.5566
340.9050, 166.4648
342.1080, 245.0879
343.3110, 262.2227
344.5140, 361.2695
345.7170, 232.5879
346.9200, 518.2812
348.1220, 625.6582
349.3240, 440.4062
350.5270, 201.5762
351.7290, 358.2051
352.9310, 537.3477
354.1320, 387.0449
355.3340, 290.3340
356.5350, 462.2461
357.7370, 281.8164
358.9380, 384.0684
360.1390, 569.0273
361.3400, 445.7129
362.5400, 371.1484
363.7410, 353.3477
364.9410, 404.3320
366.1410, 403.4062
367.3410, 432.3203
368.5410, 477.7969
369.7410, 448.7559
370.9400, 435.8164
372.1400, 342.4121
373.3390, 447.6719
374.5380, 430.5762
375.7370, 404.3652
376.9360, 550.8125
378.1350, 430.4180
379.3330, 548.0156
380.5310, 544.3828
381.7300, 513.1172
382.9280, 597.6895
384.1260, 628.0742
385.3230, 752.7109
386.5210, 738.4160
387.7180, 833.1309
388.9160, 756.1836
390.1130, 898.3516
391.3100, 757.2676
392.5060, 864.1777
393.7030, 881.0879
394.9000, 618.0508
396.0960, 816.0684
397.2920, 705.1348
398.4880, 921.2500
399.6840, 845.4082
400.8800, 727.6113
402.0750, 959.8516
403.2710, 736.1309
404.4660, 842.4414
405.6610, 650.7891
406.8560, 668.1680
408.0510, 500.5762
409.2450, 455.0156
410.4400, 573.4824
411.6340, 573.9785
412.8280, 599.4980
414.0220, 521.0430
415.2160, 604.6055
416.4100, 320.1836
417.6030, 395.7695
418.7970, 393.3633
419.9900, 332.9590
421.1830, 439.5605
422.3760, 188.1660
423.5690, 345.7812
424.7610, 86.40430
425.9540, 230.0371
427.1460, 95.67578
428.3380, 59.33008
429.5300, 22.99609
430.7220, 118.6758
431.9140, 126.3711
433.1050, 186.0859
434.2970, 147.8184
435.4880, 144.5723
436.6790, 21.34961
437.8700, 19.85352
439.0610, 203.9668
440.2510, 53.79688
441.4420, 64.64453
442.6320, 84.48047
443.8220, 50.58594
445.0120, 65.69141
446.2020, 63.76953
447.3910, 56.09961
448.5810, 45.90430
449.7700, 180.2773
450.9600, 103.8672
452.1490, 215.2812
453.3370, 123.7812
454.5260, 81.31641
455.7150, 117.6406
456.9030, 7.042969
458.0910, 67.41992
459.2800, 59.07031
460.4670, 124.7188
461.6550, 163.3301
462.8430, 303.6934
464.0300, 140.1270
465.2180, 47.41016
466.4050, 94.95508
467.5920, 23.49609
468.7790, 89.05078
469.9650, 59.59570
471.1520, 38.14258
472.3380, 169.6816
473.5250, 156.2188
474.7110, 76.74805
475.8970, 83.94336
477.0820, 277.7207
478.2680, 396.2617
479.4540, 443.5586
480.6390, 206.2402
481.8240, 336.3965
483.0090, 319.2773
484.1940, 296.1133
485.3780, 477.9277
486.5630, 281.9707
487.7470, 460.5039
488.9320, 489.5332
490.1160, 586.9336
491.3000, 381.3379
492.4830, 647.6777
493.6670, 593.9941
494.8500, 454.2969
496.0340, 527.5781
497.2170, 591.8477
498.4000, 687.1016
499.5820, 854.3457
500.7650, 766.5781
501.9480, 722.8047
503.1300, 865.0234
504.3120, 786.2383
505.4940, 894.4453
506.6760, 976.6504
507.8580, 1109.854
509.0390, 1015.051
510.2210, 1147.242
511.4020, 1155.416
512.5830, 1055.586
513.7640, 1064.760
514.9450, 1135.922
516.1250, 1113.062
517.3060, 1086.199
518.4860, 1125.523
519.6660, 1198.180
520.8460, 1164.131
522.0260, 1086.986
523.2060, 1119.660
524.3850, 1027.232
525.5650, 1003.367
526.7440, 1019.318
527.9230, 1021.652
529.1020, 1027.934
530.2810, 1254.221
531.4590, 1126.527
532.6380, 1212.854
533.8160, 1066.205
534.9940, 1034.279
536.1720, 1192.369
537.3500, 1275.201
538.5270, 1286.838
539.7050, 1013.932
540.8820, 1108.531
542.0590, 1055.885
543.2360, 997.2305
544.4130, 1143.611
545.5900, 912.2227
546.7660, 1055.428
547.9430, 1049.186
549.1190, 1111.436
550.2950, 1025.537
551.4710, 985.4355
552.6470, 1093.576
553.8220, 1119.693
554.9980, 1016.881
556.1730, 1083.682
557.3480, 847.5625
558.5230, 877.3906
559.6980, 1021.986
560.8730, 926.9121
562.0470, 996.7305
563.2220, 1003.789
564.3960, 725.5762
565.5700, 943.5723
566.7440, 946.6367
567.9170, 729.8223
569.0910, 930.6035
570.2640, 743.7090
571.4380, 585.7988
572.6110, 814.2051
573.7840, 567.6758
574.9570, 670.3613
576.1290, 529.0840
577.3020, 551.8242
578.4740, 450.9395
579.6460, 451.7695
580.8180, 405.1699
581.9900, 368.2930
583.1620, 317.9570
584.3330, 297.2148
585.5040, 247.7188
586.6760, 408.3926
587.8470, 278.3281
589.0180, 363.2188
590.1880, 395.1211
591.3590, 239.1758
592.5290, 43.44141
593.7000, 291.4375
594.8700, 92.24805
596.0400, 315.7891
597.2090, 9.109375
598.3790, 359.4062
599.5490, 145.0117
600.7180, 293.2324
601.8870, 209.6855
603.0560, 276.4551
604.2250, 292.1738
605.3940, 329.4863
606.5620, 343.0723
607.7300, 485.5410
608.8990, 513.3633
610.0670, 576.8398
611.2350, 521.2051
612.4020, 592.4941
613.5700, 578.0449
614.7370, 454.6035
615.9050, 765.0977
617.0720, 666.6348
618.2390, 593.2168
619.4060, 909.8047
620.5720, 1018.402
621.7390, 1137.006
622.9050, 1279.441
624.0710, 1075.238
625.2370, 1381.867
626.4030, 1325.500
627.5690, 1237.145
628.7340, 1474.793
629.9000, 1544.449
631.0650, 1579.111
632.2300, 1591.781
633.3950, 1648.789
634.5600, 1691.754
635.7240, 1677.836
636.8890, 1735.535
638.0530, 1642.242
639.2170, 1505.953
640.3810, 1769.672
641.5450, 1640.400
642.7080, 1781.131
643.8720, 1934.869
645.0350, 1843.615
646.1980, 1693.365
647.3610, 1842.123
648.5240, 1957.889
649.6870, 1953.656
650.8490, 2170.432
652.0120, 2204.213
653.1740, 2319.000
654.3360, 2343.791
655.4980, 2510.588
656.6600, 2677.389
657.8210, 2723.197
658.9830, 3074.012
660.1440, 3112.830
661.3050, 3350.654
662.4660, 3605.484
663.6270, 3774.320
664.7870, 4083.164
665.9480, 4232.455
667.1080, 5149.570
668.2680, 6624.436
669.4280, 5222.311
670.5880, 5469.270
671.7480, 6582.785
672.9070, 5948.406
674.0670, 6021.861
675.2260, 6330.422
676.3850, 6476.336
677.5440, 6580.445
678.7030, 6496.920
679.8610, 6584.527
681.0200, 6211.527
682.1780, 6120.260
683.3360, 6100.494
684.4940, 5699.635
685.6520, 5780.025
686.8090, 5495.754
687.9670, 5317.965
689.1240, 4940.775
690.2810, 4689.939
691.4380, 4471.871
692.5950, 4349.621
693.7520, 4049.113
694.9080, 3921.861
696.0650, 3725.855
697.2210, 3552.619
698.3770, 3247.977
699.5330, 3278.234
700.6880, 3163.340
701.8440, 2928.635
702.9990, 2939.484
704.1550, 2886.627
705.3100, 2823.416
706.4650, 2770.262
707.6190, 2742.830
708.7740, 2510.703
709.9290, 2515.441
711.0830, 2722.381
712.2370, 2430.662
713.3910, 2497.225
714.5450, 2534.018
715.6980, 2293.246
716.8520, 2481.588
718.0050, 2107.863
719.1580, 2440.787
720.3110, 2216.820
721.4640, 2261.785
722.6170, 2314.314
723.7700, 2137.727
724.9220, 2212.574
726.0740, 1943.244
727.2260, 2041.002
728.3780, 1952.812
729.5300, 2029.703
730.6810, 2029.709
731.8330, 2237.016
732.9840, 1645.049
734.1350, 1849.273
735.2860, 1613.648
736.4370, 1768.336
737.5880, 1654.250
738.7380, 1539.496
739.8880, 1727.506
741.0390, 1463.955
742.1890, 1641.457
743.3380, 1527.334
744.4880, 1402.883
745.6380, 1453.004
746.7870, 1451.850
747.9360, 1431.682
749.0850, 1298.490
750.2340, 1507.275
751.3830, 1646.037
752.5310, 1533.773
753.6800, 1621.486
754.8280, 1487.174
755.9760, 1633.836
757.1240, 1498.473
758.2720, 1563.082
759.4190, 1635.668
760.5670, 1635.225
761.7140, 1705.758
762.8610, 1613.264
764.0080, 1691.742
765.1550, 1623.193
766.3020, 1667.619
767.4480, 1504.018
768.5950, 1569.387
769.7410, 1498.730
770.8870, 1570.045
772.0330, 1656.332
773.1780, 1657.590
774.3240, 1592.822
775.4690, 1398.023
776.6140, 1536.197
777.7590, 1440.342
778.9040, 1358.459
780.0490, 1388.545
781.1940, 1279.602
782.3380, 1208.631
783.4820, 1311.629
784.6260, 1199.598
785.7700, 1010.533
786.9140, 1182.441
788.0580, 942.3184
789.2010, 1016.168
790.3450, 1303.984
791.4880, 574.7695
792.6310, 735.5254
793.7730, 604.2500
794.9160, 649.9434
796.0590, 475.6055
797.2010, 483.2363
798.3430, 845.8340
799.4850, 464.4004
800.6270, 487.9375
801.7690, 553.4414
802.9100, 152.9141
804.0520, 198.3516
805.1930, 346.7539
806.3340, 419.1270
807.4750, 245.4668
808.6160, 114.7734
809.7560, 93.04297
810.8970, 136.2715
812.0370, 113.4668
813.1770, 42.62305
814.3170, 22.73828
815.4570, 72.19141
816.5960, 112.7871
817.7360, 39.72852
818.8750, 87.62695
820.0140, 208.4844
821.1530, 29.30859
822.2920, 50.91211
823.4310, 167.2168
824.5690, 110.6660
825.7070, 79.76758
826.8460, 29.26562
827.9840, 35.88672
829.1220, 50.23633
830.2590, 49.04492
831.3970, 4.937500
832.5340, 151.8945
833.6710, 131.9863
834.8080, 125.2109
835.9450, 91.56055
837.0820, 89.01562
838.2190, 29.41797
839.3550, 58.19336
840.4910, 81.10156
841.6270, 67.64258
842.7630, 68.48242
843.8990, 18.58008
845.0350, 66.58984
846.1700, 9.443359
847.3060, 63.54297
848.4410, 29.26367
849.5760, 79.97656
850.7100, 211.3223
851.8450, 200.1602
852.9800, 236.3965
854.1140, 26.86328
855.2480, 9.074219
856.3820, 56.86133
857.5160, 249.2930
858.6500, 17.68164
859.7830, 15.72266
860.9170, 6.837891
862.0500, 83.67188
863.1830, 117.1055
864.3160, 54.69922
865.4480, 136.1914
866.5810, 90.01758
867.7130, 161.4492
868.8460, 234.6758
869.9780, 24.86719
871.1100, 156.0117
872.2410, 37.88477
873.3730, 264.1367
874.5050, 184.1250
875.6360, 234.0723
876.7670, 121.9863
877.8980, 114.8574
879.0290, 314.6895
880.1590, 119.4844
881.2900, 215.2402
882.4200, 343.9590
883.5500, 411.6426
884.6800, 346.2930
885.8100, 348.9062
886.9400, 358.4844
888.0690, 358.0273
889.1990, 366.5391
890.3280, 492.0156
891.4570, 431.4570
892.5860, 537.8652
893.7140, 512.5195
894.8430, 618.5801
895.9710, 460.8848
897.1000, 525.1582
898.2280, 486.3984
899.3560, 405.6035
900.4830, 610.7773
901.6110, 564.9160
902.7380, 655.0234
903.8660, 936.0977
904.9930, 813.1406
906.1200, 548.1484
907.2460, 759.1270
908.3730, 613.0703
909.5000, 695.9844
910.6260, 769.8652
911.7520, 689.7148
912.8780, 781.5332
914.0040, 940.3281
915.1290, 641.0879
916.2550, 822.8203
917.3800, 809.5234
918.5050, 785.1973
919.6300, 637.8379
920.7550, 787.4551
921.8800, 908.0430
923.0040, 841.8340
924.1290, 898.7715
925.2530, 857.6328
926.3770, 890.1035
927.5010, 957.5449
928.6250, 1070.994
929.7480, 1079.412
930.8720, 1103.812
931.9950, 1153.918
933.1180, 1141.822
934.2410, 1202.861
935.3640, 1118.160
936.4860, 1125.484
937.6090, 1071.830
938.7310, 1096.510
939.8530, 1105.793
940.9750, 1130.119
942.0970, 1153.582
943.2180, 1332.699
944.3400, 1269.365
945.4610, 1267.912
946.5820, 1463.648
947.7030, 1384.258
948.8240, 1415.518
949.9450, 1454.092
951.0650, 1325.275
952.1860, 1456.809
953.3060, 1301.934
954.4260, 1296.309
955.5460, 1407.156
956.6650, 1355.082
957.7850, 1398.734
958.9040, 1391.031
960.0230, 1239.820
961.1420, 1515.992
962.2610, 1482.789
963.3800, 1384.592
964.4990, 1572.979
965.6170, 1437.389
966.7350, 1203.523
967.8530, 1302.393
968.9710, 1300.469
970.0890, 1245.244
971.2070, 1274.867
972.3240, 1309.146
973.4410, 1233.605
974.5580, 1382.154
975.6750, 1364.076
976.7920, 1505.004
977.9090, 1495.855
979.0250, 1333.963
980.1410, 1555.748
981.2580, 1397.244
982.3740, 1537.328
983.4890, 1783.664
984.6050, 1671.703
985.7200, 1928.484
986.8360, 1645.812
987.9510, 1781.002
989.0660, 1921.240
990.1810, 1682.824
991.2950, 2015.277
992.4100, 2076.779
993.5240, 1970.457
994.6390, 2107.738
995.7530, 1878.342
996.8660, 2000.129
997.9800, 2077.826
999.0940, 2065.451
1000.207, 2281.977
1001.320, 2109.412
1002.433, 2249.533
1003.546, 2324.963
1004.659, 2345.998
1005.772, 2601.324
1006.884, 2571.133
1007.996, 2563.697
1009.108, 2799.930
1010.220, 2915.379
1011.332, 3017.363
1012.444, 2987.322
1013.555, 3150.965
1014.666, 3207.955
1015.777, 3230.350
1016.888, 3507.994
1017.999, 3469.641
1019.110, 3400.289
1020.220, 3557.941
1021.331, 3780.594
1022.441, 3657.250
1023.551, 3796.906
1024.661, 3365.566
1025.770, 3653.229
1026.880, 3374.895
1027.989, 3479.561
1029.098, 3467.232
1030.207, 3136.906
1031.316, 3130.584
1032.425, 3049.266
1033.533, 3008.949
1034.642, 3162.639
1035.750, 2980.330
1036.858, 2762.027
1037.966, 2902.729
1039.073, 2890.434
1040.181, 2786.574
1041.288, 2664.859
1042.396, 2616.576
1043.503, 2562.303
1044.610, 2422.031
1045.716, 2456.768
1046.823, 2350.873
1047.929, 2276.619
1049.036, 2376.371
1050.142, 2205.566
1051.248, 2293.332
1052.353, 2132.109
1053.459, 2194.004
1054.564, 2176.379
1055.670, 2129.182
1056.775, 2194.859
1057.880, 2100.664
1058.985, 2141.502
1060.089, 2141.322
1061.194, 2358.412
1062.298, 2219.283
1063.402, 2029.422
1064.506, 1866.391
1065.610, 2088.250
1066.713, 2044.494
1067.817, 2267.367
1068.920, 2026.176
1070.023, 1956.848
1071.126, 2002.742
1072.229, 1997.504
1073.332, 2064.637
1074.435, 1971.160
1075.537, 1885.812
1076.639, 1962.742
1077.741, 1876.785
1078.843, 1905.953
1079.945, 2037.912
1081.046, 2092.426
1082.148, 2080.609
1083.249, 2116.977
1084.350, 1957.463
1085.451, 2099.197
1086.551, 1919.240
1087.652, 1934.445
1088.752, 1964.004
1089.853, 1531.703
1090.953, 1859.834
1092.053, 1735.998
1093.152, 1357.246
1094.252, 1439.592
1095.351, 1218.314
1096.451, 1477.855
1097.550, 964.1523
1098.649, 1113.480
1099.748, 963.8301
1100.846, 1008.238
1101.945, 1040.703
1103.043, 1098.275
1104.141, 815.8398
1105.239, 928.4453
1106.337, 845.2012
1107.434, 855.2793
1108.532, 972.8105
1109.629, 812.5195
1110.726, 786.1953
1111.823, 797.0332
1112.920, 582.9570
1114.017, 719.9004
1115.113, 679.7461
1116.210, 446.6465
1117.306, 773.5566
1118.402, 561.5254
1119.498, 641.5059
1120.593, 699.5703
1121.689, 598.6504
1122.784, 661.7461
1123.879, 599.3848
1124.974, 534.5273
1126.069, 526.6953
1127.164, 494.8867
1128.259, 455.3809
1129.353, 446.6387
1130.447, 347.9590
1131.541, 365.4102
1132.635, 393.9160
1133.729, 264.3613
1134.822, 408.9512
1135.916, 291.4141
1137.009, 534.8906
1138.102, 308.3750
1139.195, 661.8906
1140.288, 112.6191
1141.380, 296.1562
1142.473, 216.7852
1143.565, 270.3672
1144.657, 191.1250
1145.749, 158.6934
1146.841, 171.0020
1147.932, 209.5078
1149.024, 225.4531
1150.115, 101.8203
1151.206, 267.1367
1152.297, 357.4199
1153.388, 376.2383
1154.479, 110.4961
1155.569, 212.2090
1156.659, 166.6680
1157.750, 115.1055
1158.839, 268.5586
1159.929, 44.21680
1161.019, 194.4414
1162.108, 195.1426
1163.198, 264.2871
1164.287, 185.2500
1165.376, 151.9844
1166.465, 266.9492
1167.553, 299.8379
1168.642, 203.7715
1169.730, 277.2773
1170.818, 47.79492
1171.906, 84.20508
1172.994, 235.3281
1174.082, 146.7168
1175.170, 222.9629
1176.257, 236.4141
1177.344, 35.43164
1178.431, 188.9023
1179.518, 198.6484
1180.605, 11.91797
1181.691, 195.4082
1182.778, 15.22070
1183.864, 26.63477
1184.950, 35.59570
1186.036, 10.68164
1187.122, 114.1309
1188.207, 74.10938
1189.292, 19.38477
1190.378, 28.93164
1191.463, 143.6348
1192.548, 21.58203
1193.632, 43.99023
1194.717, 5.183594
1195.801, 80.35938
1196.886, 43.56445
1197.970, 43.26953
1199.054, 196.7285
1200.137, 193.7402
1201.221, 48.84766
1202.305, 193.5488
1203.388, 37.02539
1204.471, 124.5215
1205.554, 78.08008
1206.637, 152.3242
1207.719, 24.73047
1208.802, 163.8555
1209.884, 193.4727
1210.966, 73.19727
1212.048, 110.9023
1213.130, 68.34570
1214.212, 65.59570
1215.293, 3.152344
1216.374, 82.09375
1217.456, 23.34180
1218.536, 100.5918
1219.617, 31.87891
1220.698, 56.47656
1221.778, 238.4609
1222.859, 57.75391
1223.939, 38.06250
1225.019, 0.6328130
1226.099, 135.6641
1227.178, 128.4512
1228.258, 79.29297
1229.337, 220.6250
1230.417, 115.9551
1231.496, 109.2852
1232.574, 63.63281
1233.653, 129.9766
1234.732, 284.3223
1235.810, 48.84180
1236.888, 25.98047
1237.966, 32.64453
1239.044, 354.6621
1240.122, 164.9082
1241.199, 330.2695
1242.277, 52.56836
1243.354, 54.86133
1244.431, 47.84961
1245.508, 80.39648
1246.585, 89.63867
1247.661, 109.8770
1248.738, 99.11133
1249.814, 155.1406
1250.890, 107.4727
1251.966, 126.8418
1253.042, 16.99219
1254.117, 165.1914
1255.193, 104.3867
1256.268, 206.5762
1257.343, 38.75977
1258.418, 121.9336
1259.493, 105.4883
1260.567, 83.48633
1261.642, 85.40430
1262.716, 152.5430
1263.790, 80.67383
1264.864, 206.7910
1265.938, 160.6094
1267.011, 146.4473
1268.085, 173.2148
1269.158, 70.29297
1270.231, 164.4707
1271.304, 100.5234
1272.377, 115.5664
1273.450, 76.59766
1274.522, 220.6133
1275.594, 158.6172
1276.666, 198.6113
1277.738, 272.5918
1278.810, 236.1602
1279.882, 241.5137
1280.953, 75.09766
1282.025, 256.8906
1283.096, 363.4668
1284.167, 399.1016
1285.238, 149.7441
1286.308, 267.8086
1287.379, 238.6211
1288.449, 203.3457
1289.519, 373.3281
1290.589, 165.2520
1291.659, 331.7109
1292.729, 348.6348
1293.798, 433.9492
1294.868, 371.0957
1295.937, 353.9668
1297.006, 485.0430
1298.075, 534.4297
1299.143, 454.3906
1300.212, 543.9512
1301.280, 330.4727
1302.348, 382.9688
1303.416, 550.2910
1304.484, 477.9258
1305.552, 570.6699
1306.620, 599.1914
1307.687, 343.9297
1308.754, 584.6289
1309.821, 610.7891
1310.888, 417.0645
1311.955, 641.5078
1313.021, 476.6504
1314.088, 450.9785
1315.154, 529.1016
1316.220, 498.5469
1317.286, 642.3750
1318.352, 618.2090
1319.417, 579.8105
1320.483, 596.9961
1321.548, 439.8770
1322.613, 626.5391
1323.678, 576.8750
1324.743, 641.8926
1325.807, 730.8477
1326.872, 632.2324
1327.936, 723.3711
1329.000, 487.1211
1330.064, 540.0547
1331.128, 551.4551
1332.191, 444.7012
1333.255, 524.7480
1334.318, 528.4941
1335.381, 416.1836
1336.444, 438.9473
1337.507, 347.0215
1338.569, 389.8301
1339.632, 559.3301
1340.694, 783.6426
1341.756, 386.9062
1342.818, 551.2031
1343.880, 385.8066
1344.941, 508.0273
1346.003, 625.1875
1347.064, 452.1270
1348.125, 250.7266
1349.186, 792.8398
1350.247, 769.3145
1351.308, 151.6484
1352.368, 500.1504
1353.428, 735.7480
1354.489, 721.0469
1355.549, 552.4551
1356.608, 536.0801
1357.668, 477.1875
1358.727, 609.1484
1359.787, 564.2480
1360.846, 633.7637
1361.905, 559.6035
1362.964, 432.0508
1364.022, 307.9805
1365.081, 481.1016
1366.139, 519.4688
1367.197, 400.6211
1368.255, 249.4531
1369.313, 646.5117
1370.371, 370.4961
1371.428, 640.1445
1372.486, 406.9258
1373.543, 513.6562
1374.600, 556.4062
1375.657, 447.6328
1376.713, 445.6406
1377.770, 647.3672
1378.826, 346.0781
1379.882, 264.7617
1380.938, 406.9141
1381.994, 347.0703
1383.050, 420.6758
1384.106, 361.2578
1385.161, 199.8203
1386.216, 525.3125
1387.271, 201.8320
1388.326, 537.2852
1389.381, 261.5000
1390.435, 358.8008
1391.490, 254.8984
1392.544, 225.4883
1393.598, 342.2852
1394.652, 165.4062
1395.705, 334.9258
1396.759, 170.7031
1397.812, 317.7070
1398.866, 353.5391
1399.919, 229.4102
1400.972, 449.0508
1402.024, 342.7656
1403.077, 350.7578
1404.129, 209.4961
1405.181, 345.1328
1406.233, 459.6328
1407.285, 448.3203
1408.337, 343.5820
1409.389, 175.9180
1410.440, 103.2148
1411.491, 253.4727
1412.542, 222.6797
1413.593, 398.8477
1414.644, 221.9727
1415.695, 144.0430
1416.745, 276.0586
1417.795, 344.0312
1418.845, 341.9844
1419.895, 432.8594
1420.945, 266.6875
1421.995, 282.4648
1423.044, 387.3125
1424.093, 105.0312
1425.142, 299.6641
1426.191, 260.2461
1427.240, 276.9297
1428.289, 174.4180
1429.337, 141.8633
1430.385, 126.6484
1431.433, 62.63281
1432.481, 72.99609
1433.529, 45.65625
1434.577, 69.60547
1435.624, 22.81641
1436.672, 19.99219
1437.719, 9.730469
1438.766, 44.80078
1439.812, 82.30078
1440.859, 50.35156
1441.905, 175.3906
1442.952, 25.57812
1443.998, 130.4414
1445.044, 39.55469
1446.090, 111.8125
1447.135, 304.7344
1448.181, 101.8789
1449.226, 85.45703
1450.271, 117.7461
1451.316, 55.12891
1452.361, 127.4570
1453.405, 49.02734
