##NAMES=Annite
##RRUFFID=R060204
##IDEAL CHEMISTRY=KFe^2+^_3_AlSi_3_O_10_(OH)_2_
##LOCALITY=Mont Saint-Hilaire, Rouville County, Quebec, Canada
##OWNER=RRUFF
##SOURCE=Royal Ontario Museum
##DESCRIPTION=Black mica with pseudohexagonal outines
##STATUS=The identification of this mineral has been confirmed by X-ray diffraction and chemical analysis
##URL=rruff.info/R060204
##MEASURED CHEMISTRY=(K_0.96_Na_0.04_)_Σ=1_(Fe^2+^_2.04_Mg_0.81_Mn_0.09_Ti_0.03_[box]_0.03_)_Σ=3_(Si_3.00_Al_1.00_)O_10_((OH)_1.54_F_0.46_)_Σ=2_
##PIN_ID=M00078
##ORIENTATION=Laser parallel to a* (1 0 0). Fiducial mark perpendicular to laser is parallel to -b [0 -1 0]
307.1510, 0.0000000E+00
308.3580, 140.3926
309.5660, 353.1035
310.7730, 3.996094
311.9800, 453.0957
313.1870, 694.2070
314.3940, 121.7227
315.6010, 260.0762
316.8070, 374.8906
318.0130, 13.88281
319.2200, 134.6348
320.4260, 177.2266
321.6310, 186.6875
322.8370, 185.2656
324.0430, 192.9238
325.2480, 296.2207
326.4540, 351.4062
327.6590, 338.5605
328.8640, 259.4941
330.0680, 362.9668
331.2730, 130.8086
332.4780, 189.8887
333.6820, 347.1250
334.8860, 350.4492
336.0900, 211.8086
337.2940, 387.1777
338.4980, 25.52539
339.7010, 309.8359
340.9050, 323.2188
342.1080, 193.9043
343.3110, 290.0078
344.5140, 225.4609
345.7170, 340.3516
346.9200, 355.7578
348.1220, 409.9062
349.3240, 546.3828
350.5270, 617.8672
351.7290, 368.8418
352.9310, 599.3496
354.1320, 516.1543
355.3340, 480.1406
356.5350, 610.5000
357.7370, 404.5410
358.9380, 599.2988
360.1390, 698.7969
361.3400, 923.0547
362.5400, 1230.096
363.7410, 867.9375
364.9410, 892.4668
366.1410, 564.0879
367.3410, 577.4219
368.5410, 605.6152
369.7410, 785.6797
370.9400, 752.6270
372.1400, 725.4668
373.3390, 961.2129
374.5380, 767.7988
375.7370, 920.5078
376.9360, 915.2480
378.1350, 1074.793
379.3330, 1163.934
380.5310, 1095.186
381.7300, 1197.193
382.9280, 1334.783
384.1260, 1268.795
385.3230, 1435.436
386.5210, 1381.541
387.7180, 1675.967
388.9160, 1526.809
390.1130, 1326.010
391.3100, 1629.986
392.5060, 1653.051
393.7030, 1460.203
394.9000, 1995.443
396.0960, 1810.904
397.2920, 1768.168
398.4880, 1923.650
399.6840, 1638.211
400.8800, 1850.846
402.0750, 1279.553
403.2710, 1647.328
404.4660, 1495.172
405.6610, 1400.082
406.8560, 1348.055
408.0510, 1300.096
409.2450, 1124.201
410.4400, 1203.369
411.6340, 1178.598
412.8280, 1227.887
414.0220, 958.2363
415.2160, 1042.639
416.4100, 748.0879
417.6030, 933.5820
418.7970, 980.1152
419.9900, 791.6836
421.1830, 602.2910
422.3760, 679.9375
423.5690, 495.6230
424.7610, 662.3496
425.9540, 579.1172
427.1460, 472.9336
428.3380, 557.7949
429.5300, 439.7051
430.7220, 291.6680
431.9140, 294.6855
433.1050, 216.7617
434.2970, 186.8965
435.4880, 56.12305
436.6790, 194.3633
437.8700, 257.3926
439.0610, 249.2578
440.2510, 43.38086
441.4420, 31.50977
442.6320, 40.77539
443.8220, 119.0312
445.0120, 7.808594
446.2020, 243.1055
447.3910, 117.2910
448.5810, 53.49805
449.7700, 190.7617
450.9600, 52.50391
452.1490, 4.037109
453.3370, 91.38086
454.5260, 241.2715
455.7150, 269.6309
456.9030, 119.1152
458.0910, 24.75391
459.2800, 267.0996
460.4670, 109.4355
461.6550, 114.0723
462.8430, 54.32422
464.0300, 44.53320
465.2180, 10.69531
466.4050, 252.8125
467.5920, 154.0605
468.7790, 84.98047
469.9650, 328.9375
471.1520, 52.06641
472.3380, 183.9531
473.5250, 285.0039
474.7110, 259.0820
475.8970, 563.1934
477.0820, 248.3281
478.2680, 498.4922
479.4540, 573.6855
480.6390, 824.9043
481.8240, 557.1055
483.0090, 737.3789
484.1940, 585.6836
485.3780, 614.9082
486.5630, 871.3496
487.7470, 703.7012
488.9320, 1044.057
490.1160, 1147.412
491.3000, 1213.770
492.4830, 1122.129
493.6670, 1416.494
494.8500, 1293.865
496.0340, 1398.250
497.2170, 1425.648
498.4000, 1469.059
499.5820, 1663.486
500.7650, 1664.932
501.9480, 1650.396
503.1300, 1777.881
504.3120, 1734.387
505.4940, 1928.916
506.6760, 1986.471
507.8580, 2245.049
509.0390, 2302.654
510.2210, 2233.285
511.4020, 2337.943
512.5830, 2489.629
513.7640, 2624.346
514.9450, 2508.090
516.1250, 2600.867
517.3060, 2643.645
518.4860, 2503.363
519.6660, 2450.982
520.8460, 2615.557
522.0260, 2658.051
523.2060, 2470.537
524.3850, 2510.824
525.5650, 2836.098
526.7440, 2541.254
527.9230, 2801.395
529.1020, 2533.561
530.2810, 2521.670
531.4590, 2462.830
532.6380, 2891.023
533.8160, 2575.266
534.9940, 2760.559
536.1720, 2620.896
537.3500, 2843.287
538.5270, 2756.729
539.7050, 2786.217
540.8820, 2723.754
542.0590, 2845.342
543.2360, 2832.043
544.4130, 2797.791
545.5900, 2792.650
546.7660, 2654.566
547.9430, 2873.631
549.1190, 2731.770
550.2950, 2548.957
551.4710, 2821.211
552.6470, 2624.582
553.8220, 2694.006
554.9980, 2604.543
556.1730, 2494.785
557.3480, 2479.094
558.5230, 2366.945
559.6980, 2322.973
560.8730, 2275.504
562.0470, 2317.379
563.2220, 2145.676
564.3960, 2117.027
565.5700, 1973.398
566.7440, 1945.527
567.9170, 1779.422
569.0910, 1831.066
570.2640, 1790.812
571.4380, 1583.609
572.6110, 1571.527
573.7840, 1269.512
574.9570, 1216.602
576.1290, 1428.742
577.3020, 1640.969
578.4740, 1142.266
579.6460, 1228.617
580.8180, 1049.043
581.9900, 840.7148
583.1620, 1006.258
584.3330, 587.4062
585.5040, 681.3398
586.6760, 560.8281
587.8470, 531.3359
589.0180, 541.9023
590.1880, 680.0547
591.3590, 550.4023
592.5290, 441.8047
593.7000, 306.3320
594.8700, 527.9883
596.0400, 694.7148
597.2090, 621.7852
598.3790, 449.2969
599.5490, 441.3867
600.7180, 476.0078
601.8870, 454.3359
603.0560, 467.1016
604.2250, 518.8359
605.3940, 539.3555
606.5620, 587.3672
607.7300, 743.7070
608.8990, 710.2578
610.0670, 418.8398
611.2350, 749.4609
612.4020, 599.2188
613.5700, 840.9062
614.7370, 622.6328
615.9050, 680.3945
617.0720, 650.1875
618.2390, 703.0039
619.4060, 753.0352
620.5720, 970.7656
621.7390, 903.6953
622.9050, 1117.648
624.0710, 1264.641
625.2370, 1268.664
626.4030, 1451.715
627.5690, 1382.801
628.7340, 1611.918
629.9000, 1586.066
631.0650, 1650.242
632.2300, 1754.215
633.3950, 1753.699
634.5600, 1961.965
635.7240, 1805.270
636.8890, 2040.602
638.0530, 1901.961
639.2170, 1680.359
640.3810, 1938.781
641.5450, 1738.234
642.7080, 1678.711
643.8720, 1916.223
645.0350, 1861.762
646.1980, 1742.332
647.3610, 1825.926
648.5240, 1978.547
649.6870, 1585.199
650.8490, 1851.883
652.0120, 1785.590
653.1740, 1701.320
654.3360, 1995.082
655.4980, 1992.871
656.6600, 2002.684
657.8210, 2078.520
658.9830, 1975.387
660.1440, 1886.277
661.3050, 1951.195
662.4660, 2190.141
663.6270, 2431.109
664.7870, 2317.109
665.9480, 2583.133
667.1080, 2388.188
668.2680, 2485.270
669.4280, 3024.375
670.5880, 2907.516
671.7480, 3263.672
672.9070, 3074.863
674.0670, 3475.078
675.2260, 3465.316
676.3850, 3735.129
677.5440, 3804.949
678.7030, 3826.266
679.8610, 3975.062
681.0200, 3945.883
682.1780, 4098.266
683.3360, 4146.117
684.4940, 3908.816
685.6520, 3716.098
686.8090, 3760.488
687.9670, 3862.508
689.1240, 3519.297
690.2810, 3770.551
691.4380, 3568.258
692.5950, 3513.520
693.7520, 3665.242
694.9080, 3444.586
696.0650, 3620.680
697.2210, 3651.066
698.3770, 3842.309
699.5330, 3589.656
700.6880, 3705.312
701.8440, 3492.367
702.9990, 3777.973
704.1550, 3833.285
705.3100, 3934.664
706.4650, 4084.520
707.6190, 4569.875
708.7740, 4650.285
709.9290, 4712.352
711.0830, 5070.242
712.2370, 4344.090
713.3910, 4499.727
714.5450, 4319.355
715.6980, 4464.738
716.8520, 4290.699
718.0050, 4630.480
719.1580, 4463.801
720.3110, 4630.297
721.4640, 4433.445
722.6170, 4239.461
723.7700, 4336.082
724.9220, 4227.992
726.0740, 4212.684
727.2260, 4068.363
728.3780, 3998.449
729.5300, 3869.953
730.6810, 3838.992
731.8330, 3669.234
732.9840, 3627.711
734.1350, 3472.547
735.2860, 3401.414
736.4370, 3577.105
737.5880, 3389.539
738.7380, 3398.316
739.8880, 3194.559
741.0390, 3227.195
742.1890, 3316.070
743.3380, 3247.387
744.4880, 3036.195
745.6380, 3252.770
746.7870, 3393.781
747.9360, 3584.379
749.0850, 3699.051
750.2340, 3742.578
751.3830, 3501.617
752.5310, 3627.859
753.6800, 3606.844
754.8280, 3579.727
755.9760, 3757.762
757.1240, 3557.828
758.2720, 3732.414
759.4190, 3757.438
760.5670, 3850.891
761.7140, 3796.117
762.8610, 3787.078
764.0080, 3926.230
765.1550, 3983.301
766.3020, 3748.500
767.4480, 3756.902
768.5950, 3713.535
769.7410, 3725.621
770.8870, 3618.941
772.0330, 3683.230
773.1780, 3594.492
774.3240, 3321.719
775.4690, 3101.918
776.6140, 3518.090
777.7590, 3070.227
778.9040, 3325.336
780.0490, 3116.410
781.1940, 2987.453
782.3380, 2819.465
783.4820, 2885.449
784.6260, 2614.395
785.7700, 2402.309
786.9140, 2261.188
788.0580, 2366.035
789.2010, 2210.852
790.3450, 1796.633
791.4880, 1916.379
792.6310, 1539.086
793.7730, 1501.762
794.9160, 1606.398
796.0590, 1305.004
797.2010, 1299.570
798.3430, 1127.105
799.4850, 1001.602
800.6270, 1120.059
801.7690, 927.4805
802.9100, 915.8633
804.0520, 604.2109
805.1930, 522.5234
806.3340, 411.7930
807.4750, 552.0273
808.6160, 573.2266
809.7560, 430.3789
810.8970, 440.5000
812.0370, 340.5781
813.1770, 183.6172
814.3170, 190.6094
815.4570, 402.5547
816.5960, 215.4609
817.7360, 218.3242
818.8750, 191.8555
820.0140, 228.7891
821.1530, 177.6094
822.2920, 30.82422
823.4310, 328.8086
824.5690, 34.68750
825.7070, 73.33594
826.8460, 3.695313
827.9840, 200.8047
829.1220, 49.89453
830.2590, 198.4609
831.3970, 223.0000
832.5340, 265.7461
833.6710, 317.2773
834.8080, 90.92188
835.9450, 219.2695
837.0820, 127.8164
838.2190, 82.48828
839.3550, 50.73047
840.4910, 217.9062
841.6270, 64.89062
842.7630, 95.90625
843.8990, 166.9766
845.0350, 119.2266
846.1700, 38.37500
847.3060, 206.0977
848.4410, 29.76172
849.5760, 153.5352
850.7100, 58.52344
851.8450, 69.48047
852.9800, 62.61328
854.1140, 125.1328
855.2480, 68.17578
856.3820, 178.3867
857.5160, 49.10547
858.6500, 142.7148
859.7830, 149.5117
860.9170, 111.6797
862.0500, 136.7891
863.1830, 149.8398
864.3160, 308.8359
865.4480, 184.7773
866.5810, 13.33203
867.7130, 267.4609
868.8460, 208.1953
869.9780, 130.8789
871.1100, 366.5000
872.2410, 67.07031
873.3730, 243.5781
874.5050, 439.0312
875.6360, 1.433594
876.7670, 205.7383
877.8980, 149.9922
879.0290, 0.1875000
880.1590, 402.2891
881.2900, 212.3438
882.4200, 500.3438
883.5500, 244.2891
884.6800, 569.1797
885.8100, 367.0234
886.9400, 343.8125
888.0690, 626.5508
889.1990, 708.2422
890.3280, 515.8867
891.4570, 359.4766
892.5860, 560.0117
893.7140, 704.5000
894.8430, 676.9414
895.9710, 748.3398
897.1000, 642.6836
898.2280, 782.9883
899.3560, 766.2422
900.4830, 847.8008
901.6110, 803.6055
902.7380, 719.7148
903.8660, 695.5273
904.9930, 736.1211
906.1200, 845.7578
907.2460, 804.6758
908.3730, 954.5430
909.5000, 863.3867
910.6260, 757.2031
911.7520, 971.9727
912.8780, 918.6953
914.0040, 1458.375
915.1290, 990.0039
916.2550, 1180.641
917.3800, 922.2383
918.5050, 1103.785
919.6300, 1082.285
920.7550, 1128.742
921.8800, 975.1484
923.0040, 1246.508
924.1290, 1045.816
925.2530, 828.0859
926.3770, 1377.312
927.5010, 1422.484
928.6250, 1487.672
929.7480, 1038.848
930.8720, 1383.012
931.9950, 1210.129
933.1180, 1269.203
934.2410, 1199.301
935.3640, 1386.359
936.4860, 1359.371
937.6090, 1364.344
938.7310, 1868.266
939.8530, 1546.250
940.9750, 1645.562
942.0970, 1359.902
943.2180, 1396.703
944.3400, 1641.500
945.4610, 1403.285
946.5820, 1335.023
947.7030, 1419.723
948.8240, 1287.828
949.9450, 1450.898
951.0650, 1120.469
952.1860, 1395.539
953.3060, 1185.562
954.4260, 1294.012
955.5460, 1652.973
956.6650, 1127.070
957.7850, 1179.562
958.9040, 1126.934
960.0230, 1019.652
961.1420, 1057.582
962.2610, 668.0234
963.3800, 1249.992
964.4990, 1104.391
965.6170, 1713.297
966.7350, 946.5664
967.8530, 1135.062
968.9710, 985.2461
970.0890, 1085.562
971.2070, 1001.750
972.3240, 1157.609
973.4410, 973.0469
974.5580, 1155.910
975.6750, 979.0430
976.7920, 1100.090
977.9090, 1109.168
979.0250, 1039.008
980.1410, 1139.629
981.2580, 1022.883
982.3740, 996.3047
983.4890, 1056.742
984.6050, 800.3750
985.7200, 1053.992
986.8360, 1120.824
987.9510, 960.0625
989.0660, 879.4531
990.1810, 910.2734
991.2950, 988.8945
992.4100, 899.8594
993.5240, 851.9219
994.6390, 839.3672
995.7530, 854.5312
996.8660, 1114.887
997.9800, 1070.293
999.0940, 998.3438
1000.207, 813.8594
1001.320, 817.9141
1002.433, 810.7539
1003.546, 803.3281
1004.659, 714.5391
1005.772, 803.7539
1006.884, 638.1758
1007.996, 730.8555
1009.108, 725.2812
1010.220, 719.0586
1011.332, 836.5469
1012.444, 713.7969
1013.555, 896.5859
1014.666, 609.8516
1015.777, 838.3359
1016.888, 501.6094
1017.999, 688.5742
1019.110, 800.8828
1020.220, 841.7969
1021.331, 598.0742
1022.441, 721.9922
1023.551, 698.6406
1024.661, 669.2461
1025.770, 844.6719
1026.880, 642.4805
1027.989, 814.8008
1029.098, 837.6445
1030.207, 928.8711
1031.316, 874.3164
1032.425, 863.1211
1033.533, 1000.094
1034.642, 1055.035
1035.750, 980.9688
1036.858, 1076.559
1037.966, 869.0742
1039.073, 682.7266
1040.181, 1073.867
1041.288, 972.0000
1042.396, 1030.535
1043.503, 785.4180
1044.610, 880.5469
1045.716, 923.9453
1046.823, 1023.117
1047.929, 1080.258
1049.036, 992.2305
1050.142, 1031.910
1051.248, 1068.023
1052.353, 1018.137
1053.459, 1090.246
1054.564, 1113.352
1055.670, 1230.469
1056.775, 1194.844
1057.880, 1246.680
1058.985, 1175.785
1060.089, 1117.891
1061.194, 1184.066
1062.298, 1176.871
1063.402, 1230.719
1064.506, 1258.422
1065.610, 1282.426
1066.713, 1317.734
1067.817, 1205.832
1068.920, 1164.508
1070.023, 897.1016
1071.126, 1055.578
1072.229, 1141.227
1073.332, 1162.309
1074.435, 889.6562
1075.537, 984.2695
1076.639, 939.4453
1077.741, 887.8633
1078.843, 1034.191
1079.945, 802.8594
1081.046, 945.9297
1082.148, 939.5117
1083.249, 1001.500
1084.350, 915.5625
1085.451, 875.1602
1086.551, 984.4531
1087.652, 1010.262
1088.752, 907.2031
1089.853, 974.0000
1090.953, 737.5820
1092.053, 767.0742
1093.152, 911.2812
1094.252, 815.7891
1095.351, 885.1523
1096.451, 891.8203
1097.550, 613.3477
1098.649, 830.9648
1099.748, 834.1211
1100.846, 616.9805
1101.945, 819.8086
1103.043, 633.4883
1104.141, 585.3008
1105.239, 641.2539
1106.337, 588.7070
1107.434, 707.2578
1108.532, 661.0000
1109.629, 600.0195
1110.726, 603.7109
1111.823, 426.6602
1112.920, 585.8672
1114.017, 514.3047
1115.113, 557.5352
1116.210, 626.8086
1117.306, 497.2578
1118.402, 578.2891
1119.498, 332.7852
1120.593, 360.5195
1121.689, 358.8359
1122.784, 532.0039
1123.879, 287.8945
1124.974, 308.1406
1126.069, 440.9961
1127.164, 416.3867
1128.259, 457.6406
1129.353, 303.9727
1130.447, 333.4375
1131.541, 596.6406
1132.635, 527.4961
1133.729, 218.3750
1134.822, 490.2734
1135.916, 357.1758
1137.009, 460.0977
1138.102, 360.0195
1139.195, 210.9570
1140.288, 327.9102
1141.380, 200.8633
1142.473, 162.8477
1143.565, 272.8398
1144.657, 375.0312
1145.749, 314.0625
1146.841, 247.1055
1147.932, 254.1562
1149.024, 237.4688
1150.115, 89.28125
1151.206, 218.3555
1152.297, 48.50781
1153.388, 208.3867
1154.479, 292.9922
1155.569, 306.3516
1156.659, 35.14844
1157.750, 131.4492
1158.839, 80.44922
1159.929, 23.42969
1161.019, 171.4453
1162.108, 58.33984
1163.198, 86.40625
1164.287, 81.64844
1165.376, 145.3047
1166.465, 60.81250
1167.553, 22.07031
1168.642, 131.5703
1169.730, 158.9961
1170.818, 57.45312
1171.906, 125.4883
1172.994, 109.4453
1174.082, 78.55859
1175.170, 67.02734
1176.257, 27.13281
1177.344, 43.54297
1178.431, 51.44141
1179.518, 225.9531
1180.605, 7.265625
1181.691, 217.8164
1182.778, 77.85156
1183.864, 95.88672
1184.950, 115.9375
1186.036, 63.46484
1187.122, 286.0664
1188.207, 108.1484
1189.292, 76.23438
1190.378, 226.3242
1191.463, 238.5508
1192.548, 120.5391
1193.632, 142.5742
1194.717, 46.32031
1195.801, 375.2461
1196.886, 285.7930
1197.970, 365.0508
1199.054, 1.082031
1200.137, 113.7969
1201.221, 26.67969
1202.305, 45.42578
1203.388, 157.5039
1204.471, 42.34766
1205.554, 138.2109
1206.637, 131.8555
1207.719, 119.9648
1208.802, 163.8867
1209.884, 63.78906
1210.966, 190.7070
1212.048, 193.0898
1213.130, 149.6094
1214.212, 42.57812
1215.293, 239.5586
1216.374, 16.45703
1217.456, 134.5195
1218.536, 79.50781
1219.617, 34.49609
1220.698, 88.48438
1221.778, 151.4883
1222.859, 274.5117
1223.939, 235.5469
1225.019, 191.5781
1226.099, 288.6250
1227.178, 73.67969
1228.258, 188.7383
1229.337, 109.7969
1230.417, 123.8594
1231.496, 20.07031
1232.574, 57.30078
1233.653, 197.0312
1234.732, 158.0820
1235.810, 204.1328
1236.888, 221.1797
1237.966, 411.2266
1239.044, 245.2734
1240.122, 47.31641
1241.199, 10.64844
1242.277, 467.3750
1243.354, 452.3867
1244.431, 177.4023
1245.508, 431.4062
1246.585, 90.40625
1247.661, 174.4023
1248.738, 78.39062
1249.814, 466.3750
1250.890, 223.3516
1251.966, 433.3281
1253.042, 394.2930
1254.117, 234.2539
1255.193, 606.2109
1256.268, 277.1602
1257.343, 255.1016
1258.418, 478.0312
1259.493, 161.9609
1260.567, 257.8828
1261.642, 275.8047
1262.716, 306.6289
1263.790, 401.0430
1264.864, 608.5234
1265.938, 488.4141
1267.011, 703.2930
1268.085, 590.1602
1269.158, 717.0156
1270.231, 431.8594
1271.304, 182.6914
1272.377, 597.5156
1273.450, 141.3242
1274.522, 351.1172
1275.594, 681.8945
1276.666, 554.6602
1277.738, 589.4141
1278.810, 311.1484
1279.882, 748.8672
1280.953, 494.5703
1282.025, 679.2617
1283.096, 356.9297
1284.167, 679.5820
1285.238, 406.2188
1286.308, 353.2930
1287.379, 534.4219
1288.449, 640.2539
1289.519, 674.8555
1290.589, 425.1094
1291.659, 540.4609
1292.729, 510.6562
1293.798, 474.7305
1294.868, 643.7969
1295.937, 435.2500
1297.006, 601.3594
1298.075, 617.5703
1299.143, 702.1562
1300.212, 638.5977
1301.280, 620.8438
1302.348, 746.3086
1303.416, 791.5664
1304.484, 711.1094
1305.552, 799.2188
1306.620, 585.6133
1307.687, 638.5469
1308.754, 792.1289
1309.821, 719.1172
1310.888, 810.4922
1311.955, 840.0234
1313.021, 583.2188
1314.088, 825.5391
1315.154, 850.6992
1316.220, 656.7266
1317.286, 879.1836
1318.352, 713.9023
1319.417, 695.2773
1320.483, 759.0898
1321.548, 721.7109
1322.613, 853.7266
1323.678, 834.6758
1324.743, 801.4766
1325.807, 815.5508
1326.872, 662.0664
1327.936, 844.1445
1329.000, 794.7734
1330.064, 859.6445
1331.128, 959.9766
1332.191, 706.7852
1333.255, 880.4570
1334.318, 993.3711
1335.381, 1017.418
1336.444, 756.1875
1337.507, 876.3008
1338.569, 841.3906
1339.632, 797.7305
1340.694, 967.6133
1341.756, 750.2891
1342.818, 908.0078
1343.880, 917.0117
1344.941, 992.0625
1346.003, 922.0820
1347.064, 895.6250
1348.125, 1017.859
1349.186, 1059.992
1350.247, 976.4023
1351.308, 1057.082
1352.368, 834.6680
1353.428, 881.7461
1354.489, 1040.664
1355.549, 959.1523
1356.608, 1042.430
1357.668, 1064.109
1358.727, 799.7344
1359.787, 1029.695
1360.846, 1046.812
1361.905, 843.1055
1362.964, 1058.141
1364.022, 884.8516
1365.081, 849.8047
1366.139, 918.6055
1367.197, 878.9023
1368.255, 1009.957
1369.313, 974.8203
1370.371, 926.6055
1371.428, 942.6133
1372.486, 776.5195
1373.543, 948.2383
1374.600, 888.9492
1375.657, 944.5859
1376.713, 1025.887
1377.770, 908.3867
1378.826, 1001.629
1379.882, 767.9609
1380.938, 807.8047
1381.994, 818.1523
1383.050, 1003.301
1384.106, 771.0781
1385.161, 803.1250
1386.216, 947.7578
1387.271, 935.2461
1388.326, 989.5508
1389.381, 847.7969
1390.435, 888.4531
1391.490, 880.1523
1392.544, 571.5312
1393.598, 611.6992
1394.652, 722.3398
1395.705, 533.3398
1396.759, 913.2891
1397.812, 591.6719
1398.866, 447.5000
1399.919, 538.4258
1400.972, 691.0195
1402.024, 670.8047
1403.077, 618.3203
1404.129, 636.9727
1405.181, 699.3672
1406.233, 436.6992
1407.285, 559.9766
1408.337, 371.2031
1409.389, 713.3750
1410.440, 386.4883
1411.491, 521.5391
1412.542, 320.8047
1413.593, 440.7773
1414.644, 363.2227
1415.695, 346.4102
1416.745, 297.5469
1417.795, 288.1680
1418.845, 353.6875
1419.895, 362.1055
1420.945, 555.8164
1421.995, 316.0977
1423.044, 263.4023
1424.093, 852.8359
1425.142, 465.8828
1426.191, 457.4414
1427.240, 344.3633
1428.289, 245.2227
1429.337, 190.0391
1430.385, 298.7930
1431.433, 234.5352
1432.481, 216.1484
1433.529, 81.70312
1434.577, 341.1797
1435.624, 130.6484
1436.672, 409.5273
1437.719, 139.1992
1438.766, 504.4609
1439.812, 1.765625
1440.859, 271.9180
1441.905, 52.03125
1442.952, 333.2188
1443.998, 378.1523
1445.044, 84.92578
1446.090, 187.7227
1447.135, 183.6484
1448.181, 249.1211
1449.226, 50.47266
1450.271, 57.03125
1451.316, 60.65234
1452.361, 17.33984
1453.405, 11.97266
