##NAMES=Annite
##RRUFFID=R060204
##IDEAL CHEMISTRY=KFe^2+^_3_AlSi_3_O_10_(OH)_2_
##LOCALITY=Mont Saint-Hilaire, Rouville County, Quebec, Canada
##OWNER=RRUFF
##SOURCE=Royal Ontario Museum
##DESCRIPTION=Black mica with pseudohexagonal outines
##STATUS=The identification of this mineral has been confirmed by X-ray diffraction and chemical analysis
##URL=rruff.info/R060204
##MEASURED CHEMISTRY=(K_0.96_Na_0.04_)_Σ=1_(Fe^2+^_2.04_Mg_0.81_Mn_0.09_Ti_0.03_[box]_0.03_)_Σ=3_(Si_3.00_Al_1.00_)O_10_((OH)_1.54_F_0.46_)_Σ=2_
##PIN_ID=L01689
##ORIENTATION=Laser parallel to (1 0 1). Fiducial mark perpendicular to laser is parallel to b [0 1 0]
230.8490, 0.0000000E+00
232.0700, 119.8613
233.2910, 143.8701
234.5120, 127.5234
235.7320, 219.3896
236.9530, 224.2793
238.1730, 248.8701
239.3930, 30.68359
240.6130, 231.7871
241.8320, 87.06738
243.0520, 23.06250
244.2710, 109.0352
245.4900, 50.17090
246.7090, 189.5322
247.9280, 57.61816
249.1470, 188.0488
250.3650, 48.32324
251.5840, 342.5508
252.8020, 374.1445
254.0200, 229.8662
255.2370, 468.7734
256.4550, 624.0840
257.6720, 700.2510
258.8900, 462.0225
260.1070, 629.1113
261.3240, 636.6650
262.5400, 634.0791
263.7570, 867.6670
264.9730, 676.5557
266.1900, 913.1914
267.4060, 863.8408
268.6220, 689.5469
269.8370, 764.3242
271.0530, 606.7246
272.2680, 630.0596
273.4830, 539.1357
274.6980, 696.5342
275.9130, 939.3662
277.1280, 724.2471
278.3420, 779.1709
279.5570, 717.1338
280.7710, 312.1318
281.9850, 442.0312
283.1990, 333.2012
284.4120, 445.3076
285.6260, 319.9922
286.8390, 370.5654
288.0520, 286.5430
289.2650, 323.7314
290.4780, 277.9629
291.6910, 36.10352
292.9030, 206.5605
294.1160, 293.8213
295.3280, 302.3926
296.5400, 3.188477
297.7510, 96.72266
298.9630, 34.01074
300.1740, 35.40820
301.3860, 121.3682
302.5970, 138.8545
303.8080, 128.6416
305.0180, 57.98828
306.2290, 174.3848
307.4390, 165.6348
308.6500, 209.8545
309.8600, 267.4756
311.0700, 279.8125
312.2790, 255.1484
313.4890, 128.4834
314.6980, 111.8145
315.9080, 64.14160
317.1170, 8.534180
318.3250, 73.78613
319.5340, 265.1016
320.7430, 181.4111
321.9510, 248.7129
323.1590, 250.0000
324.3670, 142.2734
325.5750, 414.5352
326.7830, 227.7861
327.9900, 176.0244
329.1980, 398.2568
330.4050, 282.4785
331.6120, 359.6943
332.8190, 424.9033
334.0250, 488.1016
335.2320, 453.2930
336.4380, 630.4639
337.6440, 527.6123
338.8500, 349.0430
340.0560, 581.7568
341.2620, 745.8799
342.4670, 826.7949
343.6730, 579.5645
344.8780, 739.7979
346.0830, 733.5898
347.2870, 725.6045
348.4920, 935.8408
349.6970, 727.4434
350.9010, 965.2871
352.1050, 938.6074
353.3090, 690.3662
354.5130, 909.4336
355.7160, 726.5205
356.9200, 755.6240
358.1230, 681.7451
359.3260, 871.8799
360.5290, 640.0244
361.7320, 793.1807
362.9340, 831.3467
364.1370, 740.5225
365.3390, 663.7100
366.5410, 630.9102
367.7430, 600.0312
368.9450, 601.3438
370.1460, 606.5801
371.3480, 606.8291
372.5490, 642.0918
373.7500, 775.3672
374.9510, 832.6582
376.1520, 732.6787
377.3520, 708.7344
378.5520, 682.7734
379.7530, 717.7529
380.9530, 694.7070
382.1530, 578.0723
383.3520, 800.3350
384.5520, 939.5371
385.7510, 1000.129
386.9500, 746.6416
388.1490, 896.9541
389.3480, 886.5010
390.5470, 869.3643
391.7450, 1078.484
392.9440, 870.6553
394.1420, 1034.719
395.3400, 1018.466
396.5380, 1078.191
397.7350, 1116.898
398.9330, 1142.590
400.1300, 1057.269
401.3270, 1222.936
402.5240, 1114.596
403.7210, 1081.249
404.9180, 1231.896
406.1140, 1186.523
407.3110, 1143.148
408.5070, 912.7256
409.7030, 850.2891
410.8990, 947.7773
412.0940, 1039.090
413.2900, 977.3203
414.4850, 875.5635
415.6800, 955.8203
416.8750, 855.2910
418.0700, 605.7920
419.2650, 763.5830
420.4590, 838.3291
421.6530, 834.4893
422.8470, 516.5820
424.0410, 604.2510
425.2350, 529.4023
426.4290, 621.5000
427.6220, 515.8613
428.8160, 397.2373
430.0090, 434.6260
431.2020, 391.0215
432.3940, 309.9951
433.5870, 285.9023
434.7790, 178.2471
435.9720, 157.9941
437.1640, 131.4209
438.3560, 65.85645
439.5470, 135.2998
440.7390, 381.4502
441.9300, 253.9111
443.1220, 118.7148
444.3130, 156.0859
445.5040, 51.64355
446.6940, 65.94141
447.8850, 42.51855
449.0750, 186.7109
450.2660, 108.3311
451.4560, 192.9727
452.6460, 54.65527
453.8350, 53.34473
455.0250, 21.52930
456.2140, 103.8008
457.4040, 56.74902
458.5930, 89.05078
459.7820, 54.67578
460.9700, 20.04102
462.1590, 119.6426
463.3470, 8.348633
464.5350, 5.951172
465.7240, 302.2607
466.9110, 307.5820
468.0990, 314.7129
469.2870, 311.0586
470.4740, 486.4160
471.6610, 466.7852
472.8480, 424.1689
474.0350, 394.5635
475.2220, 577.9707
476.4090, 610.3906
477.5950, 772.8242
478.7810, 874.2695
479.9670, 844.7285
481.1530, 962.2012
482.3390, 995.5986
483.5240, 1069.964
484.7100, 968.2363
485.8950, 944.4336
487.0800, 1002.617
488.2650, 1098.781
489.4490, 1140.939
490.6340, 1188.954
491.8180, 1215.187
493.0030, 1230.378
494.1870, 1253.560
495.3700, 1213.758
496.5540, 1274.976
497.7380, 1221.212
498.9210, 1248.397
500.1040, 1204.523
501.2870, 1240.715
502.4700, 1112.346
503.6530, 1350.677
504.8350, 1350.024
506.0180, 1474.393
507.2000, 1384.778
508.3820, 1389.185
509.5640, 1396.618
510.7450, 1301.501
511.9270, 1448.512
513.1080, 1104.042
514.2890, 1315.800
515.4700, 1444.497
516.6510, 1494.602
517.8320, 1230.646
519.0130, 1372.272
520.1930, 1351.350
521.3730, 1323.777
522.5530, 1421.428
523.7330, 1518.039
524.9130, 1580.663
526.0920, 1564.300
527.2710, 1712.949
528.4510, 1627.611
529.6300, 1538.285
530.8080, 1759.979
531.9870, 1647.687
533.1660, 1789.406
534.3440, 1761.140
535.5220, 1792.902
536.7000, 1847.685
537.8780, 1935.491
539.0560, 1874.346
540.2330, 1823.228
541.4110, 1737.171
542.5880, 1693.153
543.7650, 1571.185
544.9420, 1754.228
546.1180, 1694.309
547.2950, 1652.413
548.4710, 1520.532
549.6470, 1595.731
550.8230, 1530.956
551.9990, 1333.220
553.1750, 1216.535
554.3500, 1310.932
555.5260, 1090.373
556.7010, 1141.865
557.8760, 975.4180
559.0510, 1076.018
560.2250, 935.6992
561.4000, 1052.477
562.5740, 995.3027
563.7480, 734.1650
564.9220, 874.0918
566.0960, 557.0674
567.2700, 637.0576
568.4430, 488.1143
569.6170, 582.1924
570.7900, 430.3320
571.9630, 501.5215
573.1360, 241.7939
574.3080, 411.0059
575.4810, 497.1562
576.6530, 504.7764
577.8250, 198.3447
578.9980, 297.4619
580.1690, 234.1006
581.3410, 164.0752
582.5130, 320.3525
583.6840, 59.69336
584.8550, 212.4209
586.0260, 189.5518
587.1970, 248.7949
588.3680, 143.9863
589.5380, 91.22461
590.7080, 193.2109
591.8790, 209.5547
593.0490, 78.32422
594.2190, 142.9756
595.3880, 136.6885
596.5580, 26.73535
597.7270, 134.8516
598.8960, 13.79492
600.0650, 42.45508
601.2340, 73.64258
602.4030, 57.04004
603.5710, 63.92676
604.7400, 91.59961
605.9080, 164.9932
607.0760, 33.73047
608.2440, 79.51758
609.4120, 168.2314
610.5790, 217.9922
611.7460, 121.7666
612.9140, 151.5547
614.0810, 273.3564
615.2480, 179.1709
616.4140, 418.9980
617.5810, 462.8369
618.7470, 457.5596
619.9130, 441.5537
621.0790, 439.4316
622.2450, 365.3203
623.4110, 300.2227
624.5770, 462.1367
625.7420, 437.0635
626.9070, 595.0039
628.0720, 522.9561
629.2370, 714.9229
630.4020, 691.9023
631.5660, 680.8945
632.7310, 718.8994
633.8950, 766.9170
635.0590, 777.9775
636.2230, 930.9902
637.3870, 847.0449
638.5500, 996.1113
639.7140, 1070.190
640.8770, 1276.279
642.0400, 1233.382
643.2030, 1335.494
644.3660, 1415.619
645.5280, 1531.754
646.6910, 1645.900
647.8530, 1838.057
649.0150, 1771.225
650.1770, 1865.400
651.3390, 2140.589
652.5000, 2200.456
653.6620, 2558.992
654.8230, 2550.209
655.9840, 2962.434
657.1450, 3151.669
658.3060, 3368.913
659.4660, 3491.165
660.6270, 3689.426
661.7870, 4030.695
662.9470, 4443.975
664.1070, 4618.260
665.2670, 4984.555
666.4260, 5202.856
667.5860, 5329.168
668.7450, 5561.484
669.9040, 5447.811
671.0630, 5813.318
672.2220, 5527.658
673.3800, 5477.043
674.5390, 5405.862
675.6970, 5219.510
676.8550, 5016.943
678.0130, 4924.927
679.1710, 4902.645
680.3290, 4748.488
681.4860, 4620.656
682.6430, 4675.418
683.8000, 4629.810
684.9570, 4565.617
686.1140, 4457.754
687.2710, 4424.150
688.4270, 4440.161
689.5840, 4652.562
690.7400, 4554.672
691.8960, 4990.084
693.0520, 5106.695
694.2070, 5364.822
695.3630, 5481.691
696.5180, 5715.631
697.6730, 5957.926
698.8280, 6311.820
699.9830, 6397.670
701.1380, 6697.418
702.2920, 6744.420
703.4470, 7202.152
704.6010, 8361.825
705.7550, 8815.333
706.9090, 9313.381
708.0620, 8951.928
709.2160, 8380.216
710.3690, 8592.021
711.5220, 8581.212
712.6750, 8762.161
713.8280, 8652.316
714.9810, 8467.287
716.1340, 8668.960
717.2860, 8421.547
718.4380, 8415.916
719.5900, 8367.289
720.7420, 8154.465
721.8940, 7886.662
723.0450, 7659.012
724.1970, 7405.172
725.3480, 7163.367
726.4990, 6967.697
727.6500, 6671.619
728.8010, 6438.824
729.9510, 6167.225
731.1020, 5864.438
732.2520, 5921.689
733.4020, 5599.938
734.5520, 5317.681
735.7020, 5297.502
736.8510, 5035.496
738.0010, 5120.733
739.1500, 4792.957
740.2990, 4602.504
741.4480, 4578.709
742.5970, 4459.452
743.7450, 4470.025
744.8940, 4498.341
746.0420, 4546.519
747.1900, 4664.883
748.3380, 4726.025
749.4860, 4722.152
750.6330, 4787.258
751.7810, 4767.348
752.9280, 4747.418
754.0750, 4887.470
755.2220, 4881.502
756.3690, 4749.518
757.5160, 5021.514
758.6620, 5016.490
759.8090, 5262.446
760.9550, 5099.386
762.1010, 5098.307
763.2470, 5107.207
764.3920, 4987.088
765.5380, 5048.949
766.6830, 4849.793
767.8280, 4754.612
768.9730, 4586.416
770.1180, 4415.770
771.2630, 4084.961
772.4070, 4043.703
773.5520, 3853.424
774.6960, 3608.127
775.8400, 3575.808
776.9840, 3407.469
778.1280, 3111.109
779.2710, 2946.729
780.4140, 2759.568
781.5580, 2666.905
782.7010, 2359.463
783.8440, 2291.998
784.9860, 1959.514
786.1290, 1905.987
787.2710, 2350.480
788.4140, 1707.932
789.5560, 1845.360
790.6980, 1638.770
791.8390, 1391.156
792.9810, 1157.522
794.1220, 954.8662
795.2640, 876.1885
796.4050, 999.4893
797.5460, 815.7676
798.6860, 701.0244
799.8270, 728.2588
800.9680, 627.4736
802.1080, 480.6650
803.2480, 533.8330
804.3880, 415.9795
805.5280, 316.1045
806.6670, 410.2070
807.8070, 106.2881
808.9460, 341.3447
810.0850, 139.3789
811.2240, 8.609375
812.3630, 32.34570
813.5020, 14.26465
814.6400, 38.49121
815.7790, 74.66895
816.9170, 88.34570
818.0550, 45.73145
819.1930, 71.19434
820.3300, 313.2559
821.4680, 40.31641
822.6050, 19.96875
823.7430, 172.3535
824.8800, 203.3545
826.0170, 13.78125
827.1530, 46.12793
828.2900, 83.11035
829.4260, 198.1875
830.5620, 63.41797
831.6990, 75.73145
832.8340, 125.1338
833.9700, 67.65137
835.1060, 205.2549
836.2410, 253.0137
837.3760, 76.95312
838.5120, 33.98047
839.6470, 142.0742
840.7810, 78.28711
841.9160, 93.41211
843.0500, 149.9121
844.1850, 18.64160
845.3190, 139.8398
846.4530, 85.43945
847.5870, 2.873047
848.7200, 90.02441
849.8540, 46.67188
850.9870, 140.5537
852.1200, 38.44922
853.2530, 42.42871
854.3860, 72.38574
855.5190, 64.32129
856.6510, 187.2383
857.7840, 95.13672
858.9160, 53.01660
860.0480, 92.87598
861.1800, 205.7178
862.3110, 46.54199
863.4430, 164.3477
864.5740, 286.1357
865.7060, 270.9072
866.8370, 287.6611
867.9680, 403.3984
869.0980, 396.1182
870.2290, 545.8213
871.3590, 404.5283
872.4900, 429.2217
873.6200, 543.9189
874.7500, 439.5986
875.8790, 522.2637
877.0090, 579.9189
878.1380, 478.5605
879.2680, 464.1855
880.3970, 558.7949
881.5260, 666.3887
882.6550, 629.9688
883.7830, 669.5410
884.9120, 622.0977
886.0400, 810.6416
887.1680, 743.1699
888.2960, 840.6836
889.4240, 672.1846
890.5520, 801.6719
891.6790, 896.1445
892.8070, 816.6045
893.9340, 1022.053
895.0610, 1042.486
896.1880, 1125.907
897.3140, 1085.316
898.4410, 1032.712
899.5670, 944.0957
900.6940, 969.4697
901.8200, 1018.831
902.9450, 1000.182
904.0710, 1163.526
905.1970, 1072.861
906.3220, 1403.191
907.4470, 1168.513
908.5730, 1369.824
909.6980, 1360.126
910.8220, 1378.417
911.9470, 1218.700
913.0710, 1272.974
914.1960, 1334.238
915.3200, 1338.495
916.4440, 1410.743
917.5680, 1475.983
918.6910, 1544.217
919.8150, 1573.462
920.9380, 1420.659
922.0610, 1590.877
923.1840, 1587.086
924.3070, 1530.287
925.4300, 1674.483
926.5520, 1826.673
927.6750, 1443.856
928.7970, 1601.040
929.9190, 1594.217
931.0410, 1507.391
932.1630, 1627.560
933.2840, 1602.064
934.4060, 1581.891
935.5270, 1630.053
936.6480, 1700.209
937.7690, 1639.364
938.8900, 1735.515
940.0100, 1673.660
941.1310, 1731.803
942.2510, 1709.333
943.3710, 1660.208
944.4910, 1645.063
945.6110, 1693.220
946.7310, 1636.948
947.8500, 1946.851
948.9690, 1755.973
950.0890, 1850.850
951.2080, 1775.458
952.3260, 1773.219
953.4450, 1735.219
954.5640, 1684.180
955.6820, 1623.828
956.8000, 1607.693
957.9180, 1576.239
959.0360, 1558.526
960.1540, 1553.207
961.2710, 1513.502
962.3890, 1512.675
963.5060, 1703.090
964.6230, 1803.231
965.7400, 1833.263
966.8570, 1548.475
967.9730, 1666.192
969.0900, 1625.048
970.2060, 1568.631
971.3220, 1735.545
972.4380, 1496.604
973.5540, 1673.795
974.6700, 1679.248
975.7850, 1764.289
976.9010, 1692.972
978.0160, 1660.618
979.1310, 1802.372
980.2460, 1843.811
981.3600, 1746.405
982.4750, 1841.825
983.5890, 1597.083
984.7030, 1648.601
985.8170, 1820.947
986.9310, 1739.005
988.0450, 1839.125
989.1590, 1870.170
990.2720, 1586.332
991.3850, 1850.307
992.4980, 1877.441
993.6110, 1661.290
994.7240, 1906.559
995.8370, 1724.181
996.9490, 1694.268
998.0620, 1779.485
999.1740, 1744.943
1000.286, 1899.258
1001.398, 1871.710
1002.509, 1827.916
1003.621, 1855.103
1004.732, 1681.303
1005.843, 1880.405
1006.954, 1824.824
1008.065, 1895.884
1009.176, 1995.659
1010.286, 1875.707
1011.397, 1800.795
1012.507, 1893.177
1013.617, 1805.583
1014.727, 1984.013
1015.837, 2250.473
1016.946, 2070.956
1018.056, 2164.466
1019.165, 2138.006
1020.274, 2100.571
1021.383, 2066.188
1022.492, 2003.831
1023.601, 1792.500
1024.709, 1998.193
1025.817, 1919.911
1026.926, 2090.658
1028.034, 2033.430
1029.141, 2117.229
1030.249, 1883.056
1031.357, 1874.906
1032.464, 1922.817
1033.571, 1730.754
1034.678, 1868.717
1035.785, 1779.708
1036.892, 1707.712
1037.999, 1828.219
1039.105, 1709.264
1040.211, 1860.699
1041.317, 1883.832
1042.423, 1850.994
1043.529, 1759.184
1044.635, 1865.399
1045.740, 1773.554
1046.845, 1757.135
1047.951, 1779.432
1049.056, 1690.761
1050.160, 1865.315
1051.265, 1707.591
1052.370, 1922.184
1053.474, 1886.654
1054.578, 2150.373
1055.682, 2029.016
1056.786, 1991.472
1057.890, 1894.065
1058.993, 1731.699
1060.097, 1821.364
1061.200, 1758.163
1062.303, 1976.885
1063.406, 2017.932
1064.509, 2050.499
1065.612, 1948.666
1066.714, 2113.667
1067.816, 2045.533
1068.919, 2039.429
1070.021, 1945.411
1071.122, 1842.380
1072.224, 1904.379
1073.326, 1885.408
1074.427, 1828.464
1075.528, 1771.887
1076.629, 1779.916
1077.730, 1744.923
1078.831, 1668.108
1079.931, 1691.344
1081.032, 1870.613
1082.132, 1710.137
1083.232, 1847.495
1084.332, 1649.113
1085.432, 1761.289
1086.531, 1608.824
1087.631, 1569.561
1088.730, 1414.184
1089.829, 1281.859
1090.928, 1283.569
1092.027, 1301.306
1093.126, 1362.137
1094.224, 1257.916
1095.323, 1282.363
1096.421, 1242.811
1097.519, 1211.745
1098.617, 1120.870
1099.715, 1045.588
1100.812, 1018.844
1101.910, 1003.154
1103.007, 963.2500
1104.104, 889.7656
1105.201, 937.3301
1106.298, 852.1260
1107.394, 741.8086
1108.491, 841.5479
1109.587, 776.3115
1110.683, 840.1406
1111.779, 832.0088
1112.875, 919.8428
1113.971, 632.8486
1115.066, 808.4482
1116.162, 905.1465
1117.257, 927.5898
1118.352, 627.5869
1119.447, 739.4580
1120.542, 682.5303
1121.636, 618.9727
1122.731, 781.8584
1123.825, 527.6523
1124.919, 691.1807
1126.013, 685.3818
1127.107, 755.1709
1128.200, 661.4102
1129.294, 618.1689
1130.387, 738.5352
1131.480, 768.4795
1132.573, 661.8252
1133.666, 736.4854
1134.759, 478.4180
1135.851, 512.1709
1136.944, 672.5293
1138.036, 568.3359
1139.128, 646.0869
1140.220, 654.5635
1141.312, 348.1670
1142.403, 590.3506
1143.495, 594.7734
1144.586, 356.0723
1145.677, 578.6064
1146.768, 374.4492
1147.859, 321.9707
1148.950, 384.4365
1150.040, 328.2852
1151.130, 459.8086
1152.221, 415.6289
1153.311, 349.0186
1154.401, 353.3516
1155.490, 156.7178
1156.580, 333.0195
1157.669, 255.0459
1158.759, 190.7490
1159.848, 45.56250
1160.937, 287.4297
1162.025, 31.26660
1163.114, 305.8008
1164.202, 156.0078
1165.291, 172.5557
1166.379, 74.50195
1167.467, 51.60938
1168.555, 30.42188
1169.642, 50.13965
1170.730, 23.86914
1171.817, 14.91602
1172.905, 89.56445
1173.992, 92.47656
1175.078, 71.39746
1176.165, 209.3252
1177.252, 15.73828
1178.338, 117.2139
1179.425, 91.80273
1180.511, 13.69141
1181.597, 38.20605
1182.682, 3.171875
1183.768, 88.28809
1184.854, 49.15527
1185.939, 129.8154
1187.024, 29.24121
1188.109, 95.30859
1189.194, 138.1523
1190.279, 60.83984
1191.363, 42.10742
1192.448, 24.18262
1193.532, 14.82812
1194.616, 111.2900
1195.700, 7.428711
1196.784, 40.43555
1197.867, 89.73730
1198.951, 25.83594
1200.034, 0.4423830
1201.117, 167.7773
1202.200, 295.2822
1203.283, 163.9219
1204.366, 153.1953
1205.448, 11.88086
1206.531, 86.69629
1207.613, 180.1953
1208.695, 15.90332
1209.777, 129.5488
1210.859, 163.2305
1211.940, 117.1680
1213.022, 7.936523
1214.103, 29.21777
1215.184, 73.31836
1216.265, 108.8027
1217.346, 125.9326
1218.427, 52.54004
1219.507, 66.56641
1220.587, 155.5420
1221.668, 32.34180
1222.748, 49.21777
1223.828, 35.32910
1224.907, 34.30859
1225.987, 47.94141
1227.066, 31.43164
1228.146, 37.16992
1229.225, 56.23340
1230.304, 16.32129
1231.382, 134.8711
1232.461, 23.58789
1233.540, 11.92773
1234.618, 42.43359
1235.696, 12.06934
1236.774, 26.94043
1237.852, 23.29688
1238.930, 75.35156
1240.007, 21.20312
1241.085, 68.21191
1242.162, 81.38574
1243.239, 77.19531
1244.316, 243.2334
1245.393, 50.50000
1246.469, 118.2832
1247.546, 90.84766
1248.622, 82.03223
1249.698, 90.01660
1250.774, 69.04395
1251.850, 23.24805
1252.926, 122.0840
1254.001, 46.92285
1255.077, 85.01758
1256.152, 40.94434
1257.227, 111.8545
1258.302, 63.75293
1259.377, 163.6357
1260.451, 33.50391
1261.526, 65.64551
1262.600, 80.13965
1263.674, 2.838867
1264.748, 127.6475
1265.822, 100.3701
1266.896, 95.07812
1267.969, 236.7695
1269.043, 186.4463
1270.116, 104.1074
1271.189, 22.22168
1272.262, 202.8203
1273.335, 300.3223
1274.407, 319.2100
1275.480, 23.98926
1276.552, 134.3135
1277.624, 82.08984
1278.696, 23.19141
1279.768, 190.5312
1280.840, 59.09375
1281.911, 104.5811
1282.982, 103.2266
1284.054, 177.3770
1285.125, 87.97754
1286.196, 49.07324
1287.266, 173.7354
1288.337, 207.7988
1289.407, 99.51660
1290.478, 178.3545
1291.548, 77.19629
1292.618, 282.9482
1293.688, 109.0850
1294.757, 101.2031
1295.827, 225.3047
1296.896, 171.4014
1297.965, 134.0029
1299.034, 104.0781
1300.103, 18.76953
1301.172, 49.03223
1302.241, 202.7510
1303.309, 188.7109
1304.377, 189.2627
1305.445, 188.5781
1306.513, 127.2637
1307.581, 57.49121
1308.649, 62.01465
1309.716, 60.34277
1310.784, 146.4189
1311.851, 101.1533
1312.918, 31.87793
1313.985, 184.3545
1315.052, 35.02637
1316.118, 118.6670
1317.185, 6.286133
1318.251, 60.86523
1319.317, 128.4170
1320.383, 83.51074
1321.449, 168.3457
1322.514, 113.5322
1323.580, 86.99512
1324.645, 146.2803
1325.711, 44.51270
1326.776, 119.8779
1327.840, 9.223633
1328.905, 44.47070
1329.970, 56.73242
1331.034, 123.9678
1332.099, 102.5117
1333.163, 108.3750
1334.227, 2.208008
1335.290, 249.4395
1336.354, 53.70215
1337.418, 32.14160
1338.481, 225.6865
1339.544, 336.1309
1340.607, 361.7275
1341.670, 79.44434
1342.733, 201.4990
1343.795, 158.5127
1344.858, 112.5381
1345.920, 285.6729
1346.982, 48.96875
1348.044, 225.6230
1349.106, 237.2373
1350.168, 324.3555
1351.229, 247.9150
1352.291, 220.0605
1353.352, 357.6836
1354.413, 404.7178
1355.474, 307.5098
1356.534, 399.3174
1357.595, 153.1738
1358.656, 203.9883
1359.716, 381.3838
1360.776, 292.4883
1361.836, 387.1787
1362.896, 412.5830
1363.955, 121.8916
1365.015, 379.9912
1366.074, 401.2334
1367.134, 179.3076
1368.193, 416.5850
1369.252, 228.1475
1370.310, 186.4482
1371.369, 259.8359
1372.427, 219.1191
1373.486, 363.0908
1374.544, 320.8154
1375.602, 270.7207
1376.660, 285.2607
1377.717, 105.0654
1378.775, 297.7344
1379.832, 235.5371
1380.889, 300.0781
1381.946, 388.9668
1383.003, 262.4385
1384.060, 368.4893
1385.117, 113.8037
1386.173, 160.9648
1387.230, 175.6133
