##NAMES=Annite
##RRUFFID=R060204
##IDEAL CHEMISTRY=KFe^2+^_3_AlSi_3_O_10_(OH)_2_
##LOCALITY=Mont Saint-Hilaire, Rouville County, Quebec, Canada
##OWNER=RRUFF
##SOURCE=Royal Ontario Museum
##DESCRIPTION=Black mica with pseudohexagonal outines
##STATUS=The identification of this mineral has been confirmed by X-ray diffraction and chemical analysis
##URL=rruff.info/R060204
##MEASURED CHEMISTRY=(K_0.96_Na_0.04_)_Σ=1_(Fe^2+^_2.04_Mg_0.81_Mn_0.09_Ti_0.03_[box]_0.03_)_Σ=3_(Si_3.00_Al_1.00_)O_10_((OH)_1.54_F_0.46_)_Σ=2_
##PIN_ID=L01689
##ORIENTATION=Laser parallel to (1 0 1). Fiducial mark perpendicular to laser is parallel to b [0 1 0]
230.8490, 0.0000000E+00
232.0700, 0.6777340
233.2910, 184.4844
234.5120, 197.4199
235.7320, 67.50195
236.9530, 133.1113
238.1730, 144.9082
239.3930, 127.9141
240.6130, 114.9453
241.8320, 564.6230
243.0520, 0.8613280
244.2710, 113.0605
245.4900, 3.810547
246.7090, 445.4453
247.9280, 175.9062
249.1470, 134.2305
250.3650, 105.1641
251.5840, 91.17773
252.8020, 130.9355
254.0200, 204.0918
255.2370, 409.3359
256.4550, 540.4609
257.6720, 601.4004
258.8900, 383.2871
260.1070, 525.0410
261.3240, 522.4727
262.5400, 513.9082
263.7570, 707.5137
264.9730, 530.1641
266.1900, 711.1777
267.4060, 932.9453
268.6220, 709.9160
269.8370, 971.6602
271.0530, 869.7324
272.2680, 1180.859
273.4830, 900.4316
274.6980, 987.5098
275.9130, 1321.832
277.1280, 1114.117
278.3420, 1113.156
279.5570, 801.8906
280.7710, 710.9531
281.9850, 856.0273
283.1990, 764.1172
284.4120, 617.2148
285.6260, 661.4141
286.8390, 456.4219
288.0520, 382.5879
289.2650, 351.4180
290.4780, 290.1758
291.6910, 327.7891
292.9030, 158.2559
294.1160, 299.5879
295.3280, 64.79297
296.5400, 23.87695
297.7510, 40.84766
298.9630, 223.7109
300.1740, 69.47266
301.3860, 54.13867
302.5970, 68.28711
303.8080, 4.224609
305.0180, 22.30664
306.2290, 111.1348
307.4390, 51.44922
308.6500, 33.68945
309.8600, 34.30273
311.0700, 43.64062
312.2790, 145.9551
313.4890, 81.25391
314.6980, 75.75000
315.9080, 79.46875
317.1170, 35.02539
318.3250, 16.75586
319.5340, 89.44531
320.7430, 62.37305
321.9510, 45.78906
323.1590, 97.93164
324.3670, 108.0527
325.5750, 80.15430
326.7830, 11.23242
327.9900, 295.2871
329.1980, 519.3242
330.4050, 648.3438
331.6120, 236.3438
332.8190, 220.3262
334.0250, 375.2949
335.2320, 400.2461
336.4380, 462.1836
337.6440, 439.1387
338.8500, 446.1602
340.0560, 494.4199
341.2620, 584.5977
342.4670, 569.9492
343.6730, 630.8984
344.8780, 724.3262
346.0830, 929.2285
347.2870, 728.4062
348.4920, 865.9219
349.6970, 962.0273
350.9010, 730.5293
352.1050, 900.0410
353.3090, 950.5605
354.5130, 1129.092
355.7160, 935.6309
356.9200, 1129.182
358.1230, 1152.742
359.3260, 994.3086
360.5290, 1105.883
361.7320, 1005.455
362.9340, 955.0293
364.1370, 1173.604
365.3390, 1010.178
366.5410, 1156.754
367.7430, 829.3340
368.9450, 868.9141
370.1460, 897.5000
371.3480, 931.0898
372.5490, 945.6836
373.7500, 775.2832
374.9510, 939.8887
376.1520, 984.0586
377.3520, 804.1680
378.5520, 809.3340
379.7530, 932.5156
380.9530, 990.6484
382.1530, 1006.977
383.3520, 1093.846
384.5520, 1108.178
385.7510, 1178.412
386.9500, 1165.619
388.1490, 1154.586
389.3480, 1190.797
390.5470, 1137.744
391.7450, 1290.953
392.9440, 1078.162
394.1420, 1195.361
395.3400, 1365.551
396.5380, 1345.723
397.7350, 1285.885
398.9330, 1486.031
400.1300, 1659.166
401.3270, 1578.289
402.5240, 1663.803
403.7210, 1631.809
404.9180, 1555.605
406.1140, 1580.697
407.3110, 1421.783
408.5070, 1486.854
409.7030, 1526.918
410.8990, 1188.977
412.0940, 1427.930
413.2900, 1384.842
414.4850, 1332.688
415.6800, 1168.531
416.8750, 973.3809
418.0700, 1082.232
419.2650, 964.0586
420.4590, 976.9883
421.6530, 960.2324
422.8470, 988.3828
424.0410, 881.1719
425.2350, 822.9668
426.4290, 744.7715
427.6220, 696.2852
428.8160, 650.3398
430.0090, 628.2441
431.2020, 596.0820
432.3940, 580.9219
433.5870, 600.2207
434.7790, 493.0840
435.9720, 606.4297
437.1640, 345.2637
438.3560, 358.0977
439.5470, 406.8691
440.7390, 83.46094
441.9300, 531.1387
443.1220, 537.2930
444.3130, 199.0781
445.5040, 106.8262
446.6940, 59.47266
447.8850, 65.22852
449.0750, 40.19727
450.2660, 110.3730
451.4560, 68.66992
452.6460, 230.0762
453.8350, 124.5391
455.0250, 153.1289
456.2140, 172.1328
457.4040, 130.7871
458.5930, 58.59766
459.7820, 116.1582
460.9700, 18.33398
462.1590, 11.68750
463.3470, 64.78320
464.5350, 123.5781
465.7240, 17.97852
466.9110, 161.4668
468.0990, 117.9629
469.2870, 178.4668
470.4740, 221.7461
471.6610, 202.2656
472.8480, 268.7910
474.0350, 435.3242
475.2220, 420.8652
476.4090, 563.4160
477.5950, 619.9707
478.7810, 675.5371
479.9670, 746.1113
481.1530, 672.6934
482.3390, 676.2852
483.5240, 883.8496
484.7100, 901.3457
485.8950, 1066.727
487.0800, 992.0059
488.2650, 1061.168
489.4490, 990.2676
490.6340, 1143.346
491.8180, 1082.438
493.0030, 1179.545
494.1870, 1110.664
495.3700, 1151.801
496.5540, 1044.951
497.7380, 1257.119
498.9210, 1172.301
500.1040, 1218.498
501.2870, 1342.711
502.4700, 1033.939
503.6530, 1237.182
504.8350, 1207.402
506.0180, 1294.715
507.2000, 1302.006
508.3820, 1204.309
509.5640, 1224.629
510.7450, 1261.967
511.9270, 1475.318
513.1080, 1224.688
514.2890, 1349.070
515.4700, 1503.471
516.6510, 1449.885
517.8320, 1345.316
519.0130, 1524.752
520.1930, 1497.201
521.3730, 1387.660
522.5530, 1674.127
523.7330, 1482.605
524.9130, 1800.092
526.0920, 1529.588
527.2710, 1809.094
528.4510, 1523.605
529.6300, 1925.131
530.8080, 1898.566
531.9870, 1964.268
533.1660, 1879.764
534.3440, 2154.326
535.5220, 1812.898
536.7000, 1876.480
537.8780, 1843.072
539.0560, 2106.674
540.2330, 2089.287
541.4110, 1991.916
542.5880, 1967.553
543.7650, 2195.201
544.9420, 2162.867
546.1180, 2110.551
547.2950, 1926.266
548.4710, 2032.002
549.6470, 1717.791
550.8230, 1983.621
551.9990, 1666.498
553.1750, 1783.430
554.3500, 1695.404
555.5260, 1577.090
556.7010, 1665.529
557.8760, 1423.664
559.0510, 1356.889
560.2250, 1292.207
561.4000, 1012.691
562.5740, 1129.225
563.7480, 1172.084
564.9220, 1145.244
566.0960, 839.6641
567.2700, 894.1523
568.4430, 804.4531
569.6170, 708.8301
570.7900, 814.1777
571.9630, 549.4531
573.1360, 421.3242
574.3080, 334.3516
575.4810, 404.3984
576.6530, 249.4629
577.8250, 320.5430
578.9980, 328.6504
580.1690, 180.8301
581.3410, 415.0449
582.5130, 472.2891
583.6840, 130.4570
584.8550, 73.24609
586.0260, 54.94727
587.1970, 44.16016
588.3680, 16.12695
589.5380, 111.8691
590.7080, 38.93359
591.8790, 44.36523
593.0490, 17.11133
594.2190, 31.69141
595.3880, 37.52930
596.5580, 20.55273
597.7270, 54.75195
598.8960, 53.38672
600.0650, 46.51172
601.2340, 30.25977
602.4030, 7.148438
603.5710, 50.07422
604.7400, 37.41406
605.9080, 250.7891
607.0760, 337.6738
608.2440, 297.0742
609.4120, 162.4844
610.5790, 191.9062
611.7460, 243.3418
612.9140, 452.7891
614.0810, 348.2500
615.2480, 497.5703
616.4140, 469.2031
617.5810, 572.3164
618.7470, 762.4414
619.9130, 878.8359
621.0790, 925.4531
622.2450, 693.2910
623.4110, 821.1387
624.5770, 804.7285
625.7420, 782.3984
626.9070, 960.9297
628.0720, 982.6309
629.2370, 848.2383
630.4020, 1014.855
631.5660, 1070.484
632.7310, 1190.127
633.8950, 1267.422
635.0590, 1325.316
636.2230, 1400.125
637.3870, 1466.816
638.5500, 1531.518
639.7140, 1667.230
640.8770, 1521.955
642.0400, 1697.688
643.2030, 2089.434
644.3660, 1976.188
645.5280, 2231.953
646.6910, 2338.730
647.8530, 2535.355
649.0150, 2723.510
650.1770, 3019.117
651.3390, 3142.934
652.5000, 3308.758
653.6620, 3635.594
654.8230, 3814.436
655.9840, 4059.289
657.1450, 4263.148
658.3060, 4755.018
659.4660, 5113.455
660.6270, 5567.752
661.7870, 6052.676
662.9470, 6546.580
664.1070, 7012.488
665.2670, 7470.406
666.4260, 8235.332
667.5860, 8778.266
668.7450, 9343.203
669.9040, 10056.15
671.0630, 10052.11
672.2220, 10786.06
673.3800, 10904.03
674.5390, 10775.01
675.6970, 10604.98
676.8550, 10578.97
678.0130, 10434.96
679.1710, 10112.89
680.3290, 9780.086
681.4860, 8991.094
682.6430, 8740.496
683.8000, 8526.785
684.9570, 8094.914
686.1140, 7999.229
687.2710, 7705.434
688.4270, 7722.635
689.5840, 7580.676
690.7400, 7833.275
691.8960, 7665.496
693.0520, 7931.094
694.2070, 8000.879
695.3630, 8175.338
696.5180, 8495.180
697.6730, 8743.500
698.8280, 9146.209
699.9830, 9629.980
701.1380, 9920.398
702.2920, 10148.61
703.4470, 10684.65
704.6010, 10973.14
705.7550, 11695.85
706.9090, 11835.61
708.0620, 12214.98
709.2160, 12827.37
710.3690, 12956.12
711.5220, 13156.43
712.6750, 13563.38
713.8280, 13666.21
714.9810, 13818.65
716.1340, 13588.30
717.2860, 13858.66
718.4380, 13710.70
719.5900, 13990.71
720.7420, 13469.11
721.8940, 13304.10
723.0450, 12923.46
724.1970, 12581.39
725.3480, 12249.67
726.4990, 12031.28
727.6500, 12134.56
728.8010, 11116.30
729.9510, 10421.04
731.1020, 10661.81
732.2520, 9558.646
733.4020, 9633.477
734.5520, 9410.461
735.7020, 8631.973
736.8510, 8050.629
738.0010, 7829.426
739.1500, 7722.461
740.2990, 7411.957
741.4480, 7289.922
742.5970, 7257.889
743.7450, 7057.842
744.8940, 6936.773
746.0420, 6943.691
747.1900, 6814.590
748.3380, 6479.469
749.4860, 6916.332
750.6330, 6638.174
751.7810, 6781.996
752.9280, 7021.801
754.0750, 7146.586
755.2220, 7145.352
756.3690, 7221.098
757.5160, 7350.824
758.6620, 7407.531
759.8090, 7415.215
760.9550, 7465.883
762.1010, 7673.531
763.2470, 7547.156
764.3920, 7595.121
765.5380, 7511.348
766.6830, 7357.914
767.8280, 7543.828
768.9730, 7122.982
770.1180, 7193.484
771.2630, 6931.969
772.4070, 6678.428
773.5520, 6590.867
774.6960, 6256.324
775.8400, 5994.682
776.9840, 5700.059
778.1280, 5424.732
779.2710, 5158.035
780.4140, 4977.057
781.5580, 4468.344
782.7010, 4213.609
783.8440, 3901.857
784.9860, 3732.080
786.1290, 3486.281
787.2710, 3184.459
788.4140, 3005.613
789.5560, 2925.748
790.6980, 2713.861
791.8390, 2532.947
792.9810, 2323.014
794.1220, 2050.057
795.2640, 1841.078
796.4050, 1695.076
797.5460, 1621.051
798.6860, 1421.004
799.8270, 1508.934
800.9680, 1231.840
802.1080, 990.7227
803.2480, 1135.584
804.3880, 931.4238
805.5280, 793.2383
806.6670, 591.0312
807.8070, 554.8027
808.9460, 593.5508
810.0850, 519.2773
811.2240, 457.9805
812.3630, 368.6621
813.5020, 480.3203
814.6400, 239.9551
815.7790, 51.56836
816.9170, 140.1484
818.0550, 215.7031
819.1930, 94.23633
820.3300, 38.74219
821.4680, 44.36133
822.6050, 33.81641
823.7430, 42.00586
824.8800, 111.6699
826.0170, 45.45703
827.1530, 86.32422
828.2900, 112.2910
829.4260, 54.70312
830.5620, 153.5371
831.6990, 44.06445
832.8340, 96.21094
833.9700, 246.6914
835.1060, 249.3555
836.2410, 266.8535
837.3760, 166.2461
838.5120, 211.4277
839.6470, 177.7734
840.7810, 121.2656
841.9160, 174.8711
843.0500, 48.62109
844.1850, 43.44531
845.3190, 140.3418
846.4530, 115.3613
847.5870, 93.49023
848.7200, 29.28516
849.8540, 31.93945
850.9870, 12.31836
852.1200, 35.41016
853.2530, 20.94727
854.3860, 176.3594
855.5190, 65.91016
856.6510, 9.539063
857.7840, 108.7871
858.9160, 19.09375
860.0480, 114.3965
861.1800, 2.695313
862.3110, 13.95508
863.4430, 271.1836
864.5740, 206.4082
865.7060, 226.9473
866.8370, 374.8203
867.9680, 115.0039
869.0980, 286.1680
870.2290, 208.3164
871.3590, 275.4492
872.4900, 437.5684
873.6200, 331.6758
874.7500, 291.7715
875.8790, 265.8535
877.0090, 357.9219
878.1380, 318.7832
879.2680, 490.0078
880.3970, 399.0234
881.5260, 421.0215
882.6550, 602.0039
883.7830, 482.9707
884.9120, 620.9199
886.0400, 605.8516
887.1680, 553.7695
888.2960, 717.6699
889.4240, 682.5547
890.5520, 639.4238
891.6790, 721.2773
892.8070, 851.1172
893.9340, 780.9414
895.0610, 968.7500
896.1880, 1000.545
897.3140, 929.3262
898.4410, 1173.094
899.5670, 963.8457
900.6940, 1028.586
901.8200, 1241.312
902.9450, 1365.025
904.0710, 1080.725
905.1970, 1195.414
906.3220, 1382.086
907.4470, 1285.750
908.5730, 1430.398
909.6980, 1235.037
910.8220, 1384.664
911.9470, 1399.279
913.0710, 1358.885
914.1960, 1630.480
915.3200, 1382.064
916.4440, 1724.639
917.5680, 1547.201
918.6910, 1887.762
919.8150, 2318.311
920.9380, 1513.852
922.0610, 1697.381
923.1840, 1718.904
924.3070, 1866.418
925.4300, 1855.924
926.5520, 1676.422
927.6750, 1671.914
928.7970, 1716.412
929.9190, 1960.906
931.0410, 1988.070
932.1630, 1903.873
933.2840, 2407.348
934.4060, 2180.949
935.5270, 2197.668
936.6480, 2055.812
937.7690, 1990.371
938.8900, 1933.926
940.0100, 1901.535
941.1310, 2081.180
942.2510, 2006.320
943.3710, 2053.441
944.4910, 2033.922
945.6110, 2032.514
946.7310, 2078.105
947.8500, 1996.746
948.9690, 2120.381
950.0890, 2276.014
951.2080, 2062.723
952.3260, 1951.156
953.4450, 2203.801
954.5640, 2142.057
955.6820, 2269.436
956.8000, 1922.973
957.9180, 2078.334
959.0360, 1956.662
960.1540, 2126.318
961.2710, 1981.980
962.3890, 1818.125
963.5060, 2178.654
964.6230, 1999.811
965.7400, 1787.803
966.8570, 1760.689
967.9730, 1736.326
969.0900, 1811.545
970.2060, 1745.629
971.3220, 1644.654
972.4380, 1689.039
973.5540, 1691.637
974.6700, 1697.420
975.7850, 1763.809
976.9010, 1749.471
978.0160, 1758.570
979.1310, 1765.537
980.2460, 1823.031
981.3600, 1811.168
982.4750, 2028.754
983.5890, 1965.699
984.7030, 2007.771
985.8170, 1847.229
986.9310, 2000.494
988.0450, 2061.055
989.1590, 2004.947
990.2720, 2108.520
991.3850, 2026.420
992.4980, 2123.379
993.6110, 2162.664
994.7240, 2011.711
995.8370, 2248.402
996.9490, 2127.773
998.0620, 2151.021
999.1740, 2243.303
1000.286, 2099.607
1001.398, 2272.936
1002.509, 2225.266
1003.621, 2396.703
1004.732, 2355.182
1005.843, 2343.684
1006.954, 2437.209
1008.065, 2598.758
1009.176, 2740.330
1010.286, 2825.477
1011.397, 2941.541
1012.507, 3010.205
1013.617, 2988.893
1014.727, 3078.602
1015.837, 3125.479
1016.946, 3180.965
1018.056, 3315.908
1019.165, 3324.729
1020.274, 3537.572
1021.383, 3619.439
1022.492, 3660.332
1023.601, 3670.250
1024.709, 3592.934
1025.817, 3452.160
1026.926, 3394.148
1028.034, 3447.164
1029.141, 3439.205
1030.249, 3305.270
1031.357, 3332.359
1032.464, 3141.477
1033.571, 3038.621
1034.678, 2810.793
1035.785, 2744.992
1036.892, 2745.219
1037.999, 2710.475
1039.105, 2589.752
1040.211, 2632.746
1041.317, 2693.387
1042.423, 2634.750
1043.529, 2529.141
1044.635, 2484.676
1045.740, 2531.189
1046.845, 2258.666
1047.951, 2495.172
1049.056, 2644.703
1050.160, 2515.262
1051.265, 2510.783
1052.370, 2581.578
1053.474, 2327.219
1054.578, 2397.883
1055.682, 2606.680
1056.786, 2477.402
1057.890, 2549.242
1058.993, 2469.236
1060.097, 2349.051
1061.200, 2489.256
1062.303, 2570.441
1063.406, 2422.342
1064.509, 2486.844
1065.612, 2493.986
1066.714, 2297.992
1067.816, 2295.676
1068.919, 2305.033
1070.021, 2127.602
1071.122, 2327.691
1072.224, 2269.215
1073.326, 2113.352
1074.427, 2234.512
1075.528, 2200.697
1076.629, 2189.908
1077.730, 2064.283
1078.831, 2141.090
1079.931, 2067.771
1081.032, 1903.076
1082.132, 2410.486
1083.232, 2079.830
1084.332, 2032.287
1085.432, 1873.197
1086.531, 1716.625
1087.631, 1715.777
1088.730, 1761.271
1089.829, 1746.795
1090.928, 1595.061
1092.027, 1520.691
1093.126, 1600.455
1094.224, 1324.107
1095.323, 1351.904
1096.421, 1155.766
1097.519, 1203.871
1098.617, 1306.924
1099.715, 1239.043
1100.812, 1104.182
1101.910, 1076.438
1103.007, 1027.797
1104.104, 1036.406
1105.201, 983.2539
1106.298, 877.5273
1107.394, 811.3555
1108.491, 819.1387
1109.587, 843.4414
1110.683, 747.4160
1111.779, 858.3691
1112.875, 777.3926
1113.971, 798.4785
1115.066, 820.6172
1116.162, 803.7832
1117.257, 679.4121
1118.352, 832.5117
1119.447, 910.5352
1120.542, 918.6738
1121.636, 649.3027
1122.731, 738.8594
1123.825, 683.9609
1124.919, 623.3086
1126.013, 763.9609
1127.107, 534.2285
1128.200, 672.4375
1129.294, 662.9395
1130.387, 722.7246
1131.480, 635.3438
1132.573, 592.9004
1133.666, 704.0801
1134.759, 732.3340
1135.851, 632.2988
1136.944, 694.2891
1138.036, 459.5859
1139.128, 485.2676
1140.220, 623.2793
1141.312, 526.4434
1142.403, 591.1172
1143.495, 598.8887
1144.586, 323.1992
1145.677, 532.9961
1146.768, 534.6465
1147.859, 318.3867
1148.950, 511.5547
1150.040, 325.5098
1151.130, 274.5879
1152.221, 325.6250
1153.311, 270.3672
1154.401, 382.7305
1155.490, 333.6406
1156.580, 270.1289
1157.669, 269.5938
1158.759, 90.62891
1159.848, 242.6934
1160.937, 168.6504
1162.025, 207.0352
1163.114, 167.7207
1164.202, 139.8789
1165.291, 15.22070
1166.379, 232.3281
1167.467, 58.10938
1168.555, 143.0312
1169.642, 92.95508
1170.730, 211.8848
1171.817, 88.81836
1172.905, 52.97656
1173.992, 96.17969
1175.078, 8.726563
1176.165, 3.568359
1177.252, 168.3809
1178.338, 128.7246
1179.425, 43.67969
1180.511, 71.92969
1181.597, 47.84961
1182.682, 6.097656
1183.768, 122.3301
1184.854, 112.2812
1185.939, 5.736328
1187.024, 120.2148
1188.109, 3.943359
1189.194, 11.47461
1190.279, 125.4727
1191.363, 89.07422
1192.448, 15.15820
1193.532, 35.75391
1194.616, 23.77344
1195.700, 8.574219
1196.784, 2.693359
1197.867, 119.4121
1198.951, 112.2754
1200.034, 241.3730
1201.117, 32.25781
1202.200, 253.0742
1203.283, 19.46484
1204.366, 153.0215
1205.448, 53.55273
1206.531, 105.0801
1207.613, 29.33008
1208.695, 36.70312
1209.777, 196.2031
1210.859, 44.17578
1211.940, 69.69141
1213.022, 6.939453
1214.103, 37.71289
1215.184, 76.93750
1216.265, 18.46289
1217.346, 31.52930
1218.427, 107.8223
1219.507, 83.61719
1220.587, 59.99023
1221.668, 24.34961
1222.748, 11.55664
1223.828, 155.9258
1224.907, 93.17188
1225.987, 58.56055
1227.066, 77.12109
1228.146, 33.00000
1229.225, 41.54102
1230.304, 90.84961
1231.382, 179.9629
1232.461, 97.11914
1233.540, 31.08203
1234.618, 15.02539
1235.696, 40.67969
1236.774, 46.82812
1237.852, 60.31055
1238.930, 18.51172
1240.007, 65.24609
1241.085, 394.9883
1242.162, 284.9531
1243.239, 250.4219
1244.316, 222.1113
1245.393, 158.8223
1246.469, 116.4746
1247.546, 2.105469
1248.622, 33.14258
1249.698, 68.71875
1250.774, 10.12500
1251.850, 53.52148
1252.926, 132.3418
1254.001, 78.82031
1255.077, 31.65820
1256.152, 48.21484
1257.227, 18.50977
1258.302, 119.3301
1259.377, 2.679688
1260.451, 79.23438
1261.526, 59.62695
1262.600, 97.11523
1263.674, 54.53516
1264.748, 22.45117
1265.822, 124.5723
1266.896, 102.5703
1267.969, 126.5469
1269.043, 234.4980
1270.116, 223.4824
1271.189, 190.7930
1272.262, 24.32617
1273.335, 55.49023
1274.407, 342.2773
1275.480, 20.03906
1276.552, 158.8652
1277.624, 274.5586
1278.696, 73.23633
1279.768, 156.8867
1280.840, 196.5898
1281.911, 187.2012
1282.982, 199.7871
1284.054, 212.3398
1285.125, 171.8867
1286.196, 215.4004
1287.266, 221.8887
1288.337, 199.3496
1289.407, 258.7852
1290.478, 191.1543
1291.548, 103.5762
1292.618, 122.9316
1293.688, 93.26172
1294.757, 140.5605
1295.827, 70.82812
1296.896, 407.0645
1297.965, 262.3828
1299.034, 261.4570
1300.103, 224.6152
1301.172, 62.74609
1302.241, 136.8379
1303.309, 164.8984
1304.377, 37.81055
1305.445, 207.7363
1306.513, 114.6934
1307.581, 305.6230
1308.649, 136.5254
1309.716, 145.3945
1310.784, 210.1230
1311.851, 141.9336
1312.918, 268.7148
1313.985, 204.5039
1315.052, 640.1348
1316.118, 28.07422
1317.185, 110.6445
1318.251, 337.0586
1319.317, 64.64844
1320.383, 219.3613
1321.449, 263.5645
1322.514, 159.0527
1323.580, 241.9316
1324.645, 83.57227
1325.711, 274.9492
1326.776, 144.7656
1327.840, 194.1172
1328.905, 202.9277
1329.970, 219.2188
1331.034, 263.0762
1332.099, 184.3184
1333.163, 198.5352
1334.227, 240.7129
1335.290, 175.8477
1336.354, 162.8164
1337.418, 187.3398
1338.481, 359.0020
1339.544, 148.9941
1340.607, 267.9414
1341.670, 112.5039
1342.733, 237.4004
1343.795, 157.9805
1344.858, 60.82617
1345.920, 13.14648
1346.982, 183.9297
1348.044, 13.30664
1349.106, 149.7324
1350.168, 285.4062
1351.229, 103.9902
1352.291, 302.7090
1353.352, 101.3125
1354.413, 27.89258
1355.474, 29.24219
1356.534, 51.04492
1357.595, 96.07031
1358.656, 28.51758
1359.716, 126.8535
1360.776, 238.1992
1361.836, 280.2793
1362.896, 369.3750
1363.955, 354.0117
1365.015, 204.1504
1366.074, 257.4082
1367.134, 201.1465
1368.193, 234.2637
1369.252, 262.4238
1370.310, 287.4199
1371.369, 296.5840
1372.427, 155.7656
1373.486, 265.8320
1374.544, 175.8809
1375.602, 68.34570
1376.660, 209.0586
1377.717, 33.89453
1378.775, 117.5098
1379.832, 216.2109
1380.889, 280.1172
1381.946, 74.86328
1383.003, 86.14844
1384.060, 20.69922
1385.117, 234.2637
1386.173, 189.0352
1387.230, 102.5645
