##NAMES=Annite
##RRUFFID=R060204
##IDEAL CHEMISTRY=KFe^2+^_3_AlSi_3_O_10_(OH)_2_
##LOCALITY=Mont Saint-Hilaire, Rouville County, Quebec, Canada
##OWNER=RRUFF
##SOURCE=Royal Ontario Museum
##DESCRIPTION=Black mica with pseudohexagonal outines
##STATUS=The identification of this mineral has been confirmed by X-ray diffraction and chemical analysis
##URL=rruff.info/R060204
##MEASURED CHEMISTRY=(K_0.96_Na_0.04_)_Σ=1_(Fe^2+^_2.04_Mg_0.81_Mn_0.09_Ti_0.03_[box]_0.03_)_Σ=3_(Si_3.00_Al_1.00_)O_10_((OH)_1.54_F_0.46_)_Σ=2_
##PIN_ID=M00140
##ORIENTATION=Laser parallel to c* (0 0 1). Fiducial mark perpendicular to laser is parallel to -a [-1 0 0]
307.1510, 0.0000000E+00
308.3580, 116.3105
309.5660, 219.0762
310.7730, 218.1738
311.9800, 69.31055
313.1870, 95.95703
314.3940, 13.46289
315.6010, 74.44727
316.8070, 52.97266
318.0130, 82.73047
319.2200, 29.58984
320.4260, 108.3887
321.6310, 6.970703
322.8370, 9.798828
324.0430, 94.96875
325.2480, 181.2949
326.4540, 229.3535
327.6590, 245.1758
328.8640, 281.5918
330.0680, 373.4609
331.2730, 297.6660
332.4780, 376.1367
333.6820, 454.8066
334.8860, 471.6309
336.0900, 586.5703
337.2940, 623.6191
338.4980, 715.7324
339.7010, 622.9023
340.9050, 534.1738
342.1080, 689.1172
343.3110, 747.9531
344.5140, 643.1523
345.7170, 997.3359
346.9200, 815.8027
348.1220, 942.0488
349.3240, 959.0039
350.5270, 942.6973
351.7290, 985.1523
352.9310, 1045.396
354.1320, 935.4492
355.3340, 1032.328
356.5350, 971.0508
357.7370, 999.6309
358.9380, 1114.086
360.1390, 1116.426
361.3400, 1219.660
362.5400, 1058.801
363.7410, 1074.854
364.9410, 1097.826
366.1410, 1030.730
367.3410, 1083.568
368.5410, 1180.350
369.7410, 1158.996
370.9400, 1075.756
372.1400, 1140.391
373.3390, 1118.887
374.5380, 956.4375
375.7370, 928.0898
376.9360, 943.6738
378.1350, 850.7246
379.3330, 975.9395
380.5310, 1216.348
381.7300, 1110.660
382.9280, 1237.740
384.1260, 1227.955
385.3230, 1219.418
386.5210, 1238.170
387.7180, 1289.191
388.9160, 1309.148
390.1130, 1414.092
391.3100, 1422.062
392.5060, 1446.082
393.7030, 1542.145
394.9000, 1446.256
396.0960, 1682.410
397.2920, 1611.609
398.4880, 1698.854
399.6840, 1688.143
400.8800, 1796.473
402.0750, 1835.842
403.2710, 1787.613
404.4660, 1689.703
405.6610, 1723.195
406.8560, 1680.723
408.0510, 1742.291
409.2450, 1406.895
410.4400, 1553.539
411.6340, 1326.219
412.8280, 1406.938
414.0220, 1379.689
415.2160, 1237.094
416.4100, 1244.340
417.6030, 977.1270
418.7970, 1123.990
419.9900, 921.8770
421.1830, 879.7852
422.3760, 675.7188
423.5690, 651.6777
424.7610, 706.6621
425.9540, 825.6719
427.1460, 474.7090
428.3380, 587.7734
429.5300, 441.8652
430.7220, 331.9863
431.9140, 374.1387
433.1050, 304.3242
434.2970, 368.5469
435.4880, 237.8027
436.6790, 215.0957
437.8700, 9.427734
439.0610, 106.7969
440.2510, 180.2090
441.4420, 272.6621
442.6320, 6.162109
443.8220, 8.292969
445.0120, 18.70703
446.2020, 190.0742
447.3910, 46.59570
448.5810, 35.27344
449.7700, 44.55469
450.9600, 72.75781
452.1490, 136.7402
453.3370, 57.69141
454.5260, 176.1895
455.7150, 16.89648
456.9030, 147.2695
458.0910, 31.05078
459.2800, 143.6465
460.4670, 14.58398
461.6550, 114.0527
462.8430, 145.7988
464.0300, 134.8828
465.2180, 46.49414
466.4050, 183.4297
467.5920, 266.4609
468.7790, 234.5352
469.9650, 333.6484
471.1520, 224.7969
472.3380, 351.9785
473.5250, 457.0215
474.7110, 819.4355
475.8970, 703.7070
477.0820, 910.0039
478.2680, 923.3301
479.4540, 895.6836
480.6390, 1447.061
481.8240, 1347.465
483.0090, 1351.893
484.1940, 1305.348
485.3780, 1237.824
486.5630, 1346.320
487.7470, 1248.824
488.9320, 1344.340
490.1160, 1745.861
491.3000, 1807.389
492.4830, 1461.926
493.6670, 1790.473
494.8500, 1714.027
496.0340, 1912.600
497.2170, 1871.184
498.4000, 1896.781
499.5820, 1863.395
500.7650, 2202.023
501.9480, 1875.666
503.1300, 1938.328
504.3120, 2071.008
505.4940, 1860.705
506.6760, 2091.422
507.8580, 2202.156
509.0390, 2165.910
510.2210, 2208.686
511.4020, 2313.150
512.5830, 2406.293
513.7640, 2478.131
514.9450, 2499.986
516.1250, 2489.859
517.3060, 2467.754
518.4860, 2602.648
519.6660, 2651.447
520.8460, 2591.248
522.0260, 2922.004
523.2060, 3003.678
524.3850, 2803.270
525.5650, 2880.785
526.7440, 3033.316
527.9230, 3210.816
529.1020, 3219.316
530.2810, 3248.848
531.4590, 3382.410
532.6380, 3715.004
533.8160, 3384.625
534.9940, 3549.277
536.1720, 3805.961
537.3500, 3698.674
538.5270, 3884.418
539.7050, 3832.188
540.8820, 4014.988
542.0590, 4293.820
543.2360, 4241.678
544.4130, 4084.566
545.5900, 4352.492
546.7660, 4049.443
547.9430, 4193.426
549.1190, 4310.467
550.2950, 3857.543
551.4710, 4011.668
552.6470, 3774.869
553.8220, 3987.141
554.9980, 3759.447
556.1730, 3701.811
557.3480, 3378.203
558.5230, 3430.643
559.6980, 3252.162
560.8730, 3161.770
562.0470, 2796.447
563.2220, 2651.182
564.3960, 2561.953
565.5700, 2324.754
566.7440, 2170.592
567.9170, 2332.461
569.0910, 2220.428
570.2640, 1989.490
571.4380, 1689.646
572.6110, 1576.889
573.7840, 1278.156
574.9570, 1290.492
576.1290, 1105.855
577.3020, 930.7344
578.4740, 766.8027
579.6460, 569.9727
580.8180, 579.6660
581.9900, 362.4102
583.1620, 165.1777
584.3330, 201.6133
585.5040, 106.3926
586.6760, 82.26758
587.8470, 12.09375
589.0180, 19.89648
590.1880, 58.38672
591.3590, 39.56445
592.5290, 34.97656
593.7000, 67.30469
594.8700, 127.0332
596.0400, 203.9609
597.2090, 7.095703
598.3790, 56.28906
599.5490, 24.06445
600.7180, 64.67383
601.8870, 33.51758
603.0560, 73.20703
604.2250, 10.65234
605.3940, 33.48828
606.5620, 102.7676
607.7300, 131.4082
608.8990, 174.6113
610.0670, 190.7500
611.2350, 226.0957
612.4020, 202.3750
613.5700, 199.6797
614.7370, 152.0059
615.9050, 156.6895
617.0720, 265.7363
618.2390, 210.1387
619.4060, 337.5645
620.5720, 507.0156
621.7390, 118.4883
622.9050, 439.9863
624.0710, 419.5078
625.2370, 515.0547
626.4030, 589.6230
627.5690, 682.2129
628.7340, 617.8281
629.9000, 479.4668
631.0650, 661.1270
632.2300, 668.8125
633.3950, 671.5195
634.5600, 963.2500
635.7240, 978.0059
636.8890, 1049.781
638.0530, 1130.582
639.2170, 1240.402
640.3810, 1350.248
641.5450, 1184.115
642.7080, 1459.006
643.8720, 1406.918
645.0350, 1590.982
646.1980, 1732.811
647.3610, 1816.420
648.5240, 2186.041
649.6870, 2480.426
650.8490, 2703.412
652.0120, 2642.029
653.1740, 2947.959
654.3360, 3106.648
655.4980, 3259.322
656.6600, 3617.033
657.8210, 3596.811
658.9830, 3951.314
660.1440, 4156.164
661.3050, 4429.467
662.4660, 4554.604
663.6270, 4725.539
664.7870, 5164.094
665.9480, 5561.422
667.1080, 5955.053
668.2680, 6313.400
669.4280, 6819.547
670.5880, 6989.969
671.7480, 7338.410
672.9070, 7698.877
674.0670, 7690.365
675.2260, 7932.875
676.3850, 8161.406
677.5440, 8058.961
678.7030, 7782.539
679.8610, 7495.137
681.0200, 7551.756
682.1780, 7197.396
683.3360, 7049.059
684.4940, 6996.545
685.6520, 6738.250
686.8090, 6816.977
687.9670, 7020.219
689.1240, 6887.469
690.2810, 7172.039
691.4380, 7295.836
692.5950, 7499.771
693.7520, 7894.385
694.9080, 8140.836
696.0650, 8727.764
697.2210, 9231.119
698.3770, 9454.721
699.5330, 10194.29
700.6880, 10610.86
701.8440, 11328.59
702.9990, 12114.96
704.1550, 12749.94
705.3100, 13285.96
706.4650, 13743.96
707.6190, 14561.75
708.7740, 15173.31
709.9290, 15396.61
711.0830, 16153.06
712.2370, 16308.11
713.3910, 16922.39
714.5450, 17396.52
715.6980, 17683.27
716.8520, 17869.50
718.0050, 17925.24
719.1580, 18039.12
720.3110, 17792.49
721.4640, 17884.42
722.6170, 17186.42
723.7700, 17186.18
724.9220, 16919.59
726.0740, 16145.60
727.2260, 16102.78
728.3780, 15463.33
729.5300, 14654.43
730.6810, 14036.64
731.8330, 13569.87
732.9840, 12871.00
734.1350, 12379.18
735.2860, 11810.66
736.4370, 11135.00
737.5880, 10878.91
738.7380, 10419.31
739.8880, 10122.72
741.0390, 9714.418
742.1890, 9510.947
743.3380, 9504.129
744.4880, 9191.910
745.6380, 8877.238
746.7870, 8789.703
747.9360, 8917.166
749.0850, 8557.637
750.2340, 8814.098
751.3830, 8650.566
752.5310, 8976.035
753.6800, 9005.500
754.8280, 9050.967
755.9760, 9023.430
757.1240, 8931.898
758.2720, 9292.363
759.4190, 9673.828
760.5670, 9390.291
761.7140, 9446.754
762.8610, 9285.215
764.0080, 9452.676
765.1550, 9703.137
766.3020, 9699.594
767.4480, 9612.049
768.5950, 9646.506
769.7410, 9382.959
770.8870, 9177.410
772.0330, 8965.859
773.1780, 8479.311
774.3240, 8553.754
775.4690, 8003.199
776.6140, 7718.641
777.7590, 7538.084
778.9040, 7317.520
780.0490, 7018.363
781.1940, 6562.387
782.3380, 6430.348
783.4820, 6042.246
784.6260, 5741.592
785.7700, 5145.094
786.9140, 4847.516
788.0580, 4471.934
789.2010, 4046.348
790.3450, 3764.760
791.4880, 3411.170
792.6310, 3128.574
793.7730, 3065.979
794.9160, 2863.379
796.0590, 2590.775
797.2010, 2366.170
798.3430, 2225.490
799.4850, 2022.949
800.6270, 1957.756
801.7690, 1836.717
802.9100, 1685.094
804.0520, 1483.471
805.1930, 1332.846
806.3340, 1133.217
807.4750, 1056.582
808.6160, 1192.943
809.7560, 1221.307
810.8970, 580.6641
812.0370, 562.0176
813.1770, 763.3672
814.3170, 276.7168
815.4570, 717.0586
816.5960, 979.3984
817.7360, 438.7324
818.8750, 226.0664
820.0140, 198.3965
821.1530, 25.72266
822.2920, 98.03125
823.4310, 154.3398
824.5690, 71.35938
825.7070, 36.87891
826.8460, 43.89453
827.9840, 126.7188
829.1220, 128.6348
830.2590, 27.35352
831.3970, 56.67383
832.5340, 61.24023
833.6710, 22.84961
834.8080, 153.9824
835.9450, 185.2227
837.0820, 121.5859
838.2190, 53.04297
839.3550, 3.447266
840.4910, 140.9102
841.6270, 3.9062999E-02
842.7630, 163.8027
843.8990, 236.7695
845.0350, 201.4922
846.1700, 213.3477
847.3060, 184.3398
848.4410, 144.5449
849.5760, 102.5762
850.7100, 54.22461
851.8450, 142.9785
852.9800, 119.2812
854.1140, 159.6699
855.2480, 274.1680
856.3820, 40.83203
857.5160, 189.4590
858.6500, 230.2520
859.7830, 15.89258
860.9170, 94.97656
862.0500, 48.96484
863.1830, 61.05859
864.3160, 121.1484
865.4480, 210.1816
866.5810, 184.2207
867.7130, 239.2598
868.8460, 283.2910
869.9780, 216.3340
871.1100, 182.3965
872.2410, 315.4980
873.3730, 248.5957
874.5050, 289.6992
875.6360, 495.8008
876.7670, 439.6113
877.8980, 401.0020
879.0290, 430.0977
880.1590, 667.1953
881.2900, 537.2930
882.4200, 558.4043
883.5500, 670.5117
884.6800, 601.6211
885.8100, 723.3984
886.9400, 740.4902
888.0690, 811.9316
889.1990, 840.0332
890.3280, 699.1328
891.4570, 783.2324
892.5860, 916.3301
893.7140, 1174.426
894.8430, 1174.521
895.9710, 1119.615
897.1000, 1155.709
898.2280, 1029.803
899.3560, 1230.895
900.4830, 1161.990
901.6110, 1294.080
902.7380, 1322.174
903.8660, 1338.264
904.9930, 1536.363
906.1200, 1626.463
907.2460, 1684.564
908.3730, 1586.672
909.5000, 1507.779
910.6260, 1570.889
911.7520, 1712.998
912.8780, 1768.127
914.0040, 1798.936
915.1290, 1887.398
916.2550, 1807.541
917.3800, 1794.711
918.5050, 1768.881
919.6300, 1758.053
920.7550, 1867.242
921.8800, 1842.438
923.0040, 1830.643
924.1290, 1655.852
925.2530, 1946.066
926.3770, 2261.279
927.5010, 1964.512
928.6250, 1900.779
929.7480, 1954.076
930.8720, 1896.377
931.9950, 1793.678
933.1180, 1648.988
934.2410, 1877.305
935.3640, 1742.637
936.4860, 1761.025
937.6090, 1740.420
938.7310, 1737.684
939.8530, 1855.324
940.9750, 1831.789
942.0970, 1726.256
943.2180, 1829.730
944.3400, 1687.211
945.4610, 1803.730
946.5820, 1889.258
947.7030, 1748.789
948.8240, 1747.324
949.9450, 1660.863
951.0650, 1707.410
952.1860, 1601.959
953.3060, 1673.518
954.4260, 1686.098
955.5460, 1661.707
956.6650, 1538.523
957.7850, 1514.959
958.9040, 1683.867
960.0230, 1455.049
961.1420, 1444.256
962.2610, 1612.162
963.3800, 1323.875
964.4990, 1359.473
965.6170, 1342.420
966.7350, 1400.557
967.8530, 1367.242
968.9710, 1386.783
970.0890, 1388.709
971.2070, 1344.734
972.3240, 1355.877
973.4410, 1270.363
974.5580, 1201.334
975.6750, 1378.174
976.7920, 1212.002
977.9090, 1406.869
979.0250, 1096.973
980.1410, 1384.328
981.2580, 1304.980
982.3740, 1383.559
983.4890, 1284.568
984.6050, 1332.396
985.7200, 1358.395
986.8360, 1378.793
987.9510, 1310.734
989.0660, 1300.123
990.1810, 1390.551
991.2950, 1201.617
992.4100, 1211.801
993.5240, 1147.125
994.6390, 1355.701
995.7530, 1392.668
996.8660, 1308.604
997.9800, 1393.904
999.0940, 1350.234
1000.207, 1306.086
1001.320, 1357.961
1002.433, 1216.367
1003.546, 1286.797
1004.659, 1288.250
1005.772, 1386.730
1006.884, 1195.232
1007.996, 1223.762
1009.108, 1505.314
1010.220, 1375.893
1011.332, 1475.496
1012.444, 1306.123
1013.555, 1348.775
1014.666, 1629.453
1015.777, 1673.156
1016.888, 1606.896
1017.999, 1717.811
1019.110, 1719.449
1020.220, 1704.266
1021.331, 1675.105
1022.441, 1637.973
1023.551, 1562.863
1024.661, 1595.779
1025.770, 1748.719
1026.880, 1890.684
1027.989, 1745.672
1029.098, 1627.689
1030.207, 1760.729
1031.316, 1817.795
1032.425, 1770.887
1033.533, 1714.004
1034.642, 1766.145
1035.750, 1751.312
1036.858, 1729.535
1037.966, 1673.895
1039.073, 1713.141
1040.181, 1799.543
1041.288, 1847.055
1042.396, 1926.373
1043.503, 1826.717
1044.610, 1786.082
1045.716, 1719.990
1046.823, 1721.408
1047.929, 1977.338
1049.036, 2069.809
1050.142, 1799.123
1051.248, 2083.641
1052.353, 1924.182
1053.459, 1956.793
1054.564, 2085.383
1055.670, 1927.869
1056.775, 1951.525
1057.880, 1935.188
1058.985, 1952.875
1060.089, 1892.467
1061.194, 2179.398
1062.298, 2042.498
1063.402, 2132.238
1064.506, 1962.043
1065.610, 2077.686
1066.713, 2105.535
1067.817, 1984.875
1068.920, 2119.398
1070.023, 2024.439
1071.126, 1877.590
1072.229, 2068.730
1073.332, 2228.711
1074.435, 1990.719
1075.537, 1799.746
1076.639, 2101.797
1077.741, 2108.232
1078.843, 2014.537
1079.945, 2045.646
1081.046, 1948.775
1082.148, 1974.826
1083.249, 1742.484
1084.350, 1884.303
1085.451, 1950.859
1086.551, 1950.334
1087.652, 1666.613
1088.752, 1745.824
1089.853, 1685.959
1090.953, 1611.916
1092.053, 1742.033
1093.152, 1494.422
1094.252, 1621.359
1095.351, 1598.867
1096.451, 1644.836
1097.550, 1542.719
1098.649, 1486.404
1099.748, 1578.346
1100.846, 1588.277
1101.945, 1471.465
1103.043, 1522.127
1104.141, 1269.865
1105.239, 1283.562
1106.337, 1414.211
1107.434, 1302.998
1108.532, 1356.602
1109.629, 1347.504
1110.726, 1053.105
1111.823, 1254.984
1112.920, 1242.357
1114.017, 1023.764
1115.113, 1208.908
1116.210, 1010.016
1117.306, 946.0684
1118.402, 986.2461
1119.498, 917.9883
1120.593, 1020.902
1121.689, 959.0762
1122.784, 883.4023
1123.879, 871.2207
1124.974, 676.9453
1126.069, 820.6152
1127.164, 733.5098
1128.259, 761.1758
1129.353, 814.9062
1130.447, 669.5508
1131.541, 734.9863
1132.635, 473.5645
1133.729, 485.8242
1134.822, 468.8125
1135.916, 626.5801
1137.009, 366.8203
1138.102, 371.3945
1139.195, 488.5176
1140.288, 448.1699
1141.380, 634.9141
1142.473, 349.1660
1143.565, 368.4297
1144.657, 208.7012
1145.749, 214.9844
1146.841, 169.2754
1147.932, 138.4883
1149.024, 287.9844
1150.115, 242.3613
1151.206, 137.6855
1152.297, 325.0195
1153.388, 236.9180
1154.479, 226.5879
1155.569, 208.0605
1156.659, 173.4219
1157.750, 83.79102
1158.839, 110.1680
1159.929, 99.54883
1161.019, 212.9609
1162.108, 64.35547
1163.198, 96.75391
1164.287, 36.15820
1165.376, 121.5684
1166.465, 110.9844
1167.553, 73.40430
1168.642, 44.16797
1169.730, 123.2500
1170.818, 7.328125
1171.906, 42.90625
1172.994, 35.50781
1174.082, 17.92578
1175.170, 135.3477
1176.257, 83.22852
1177.344, 62.16602
1178.431, 63.41406
1179.518, 106.9629
1180.605, 99.66016
1181.691, 144.6738
1182.778, 10.00977
1183.864, 83.65430
1184.950, 123.6504
1186.036, 45.04688
1187.122, 3.236328
1188.207, 42.52148
1189.292, 74.80664
1190.378, 73.90820
1191.463, 109.6582
1192.548, 110.1699
1193.632, 164.9688
1194.717, 93.10742
1195.801, 16.75586
1196.886, 59.37109
1197.970, 59.50195
1199.054, 188.4102
1200.137, 2.156250
1201.221, 163.7148
1202.305, 50.71289
1203.388, 33.15039
1204.471, 164.6758
1205.554, 10.76367
1206.637, 229.6211
1207.719, 128.5273
1208.802, 4.261719
1209.884, 401.0566
1210.966, 58.82422
1212.048, 78.58789
1213.130, 81.34766
1214.212, 111.1035
1215.293, 84.85547
1216.374, 52.91211
1217.456, 74.20508
1218.536, 0.4843750
1219.617, 129.8477
1220.698, 1.943359
1221.778, 131.7793
1222.859, 116.0273
1223.939, 220.5527
1225.019, 191.5547
1226.099, 212.2773
1227.178, 198.8496
1228.258, 203.0664
1229.337, 105.5547
1230.417, 76.86914
1231.496, 7.160156
1232.574, 199.2812
1233.653, 72.69727
1234.732, 313.5625
1235.810, 3.064453
1236.888, 114.3164
1237.966, 96.68945
1239.044, 170.5176
1240.122, 104.8691
1241.199, 202.2090
1242.277, 183.5371
1243.354, 189.1465
1244.431, 121.6973
1245.508, 13.45703
1246.585, 141.1230
1247.661, 242.5020
1248.738, 102.9199
1249.814, 153.0664
1250.890, 87.13281
1251.966, 48.18359
1253.042, 108.5137
1254.117, 183.2266
1255.193, 163.2754
1256.268, 169.2578
1257.343, 107.2129
1258.418, 181.1602
1259.493, 321.0898
1260.567, 229.3887
1261.642, 196.9043
1262.716, 89.77930
1263.790, 79.57031
1264.864, 82.47852
1265.938, 120.2949
1267.011, 139.0938
1268.085, 314.8750
1269.158, 290.6367
1270.231, 314.4727
1271.304, 187.1094
1272.377, 255.8164
1273.450, 322.1367
1274.522, 247.3340
1275.594, 211.6113
1276.666, 17.47852
1277.738, 104.0723
1278.810, 123.6465
1279.882, 147.3672
1280.953, 318.9844
1282.025, 415.2871
1283.096, 440.3535
1284.167, 180.8223
1285.238, 288.7402
1286.308, 249.3789
1287.379, 203.9609
1288.449, 363.5410
1289.519, 145.3145
1290.589, 301.6035
1291.659, 308.3672
1292.729, 383.5391
1293.798, 310.5117
1294.868, 283.2383
1295.937, 404.1621
1297.006, 442.9980
1298.075, 351.6699
1299.143, 431.0742
1300.212, 207.3359
1301.280, 248.3789
1302.348, 405.3262
1303.416, 322.5254
1304.484, 404.5430
1305.552, 420.2520
1306.620, 154.1426
1307.687, 381.7090
1308.754, 397.1719
1309.821, 187.4551
1310.888, 400.4531
1311.955, 225.9004
1313.021, 185.6035
1314.088, 253.4336
1315.154, 210.8672
1316.220, 341.2227
1317.286, 306.7539
1318.352, 257.5371
1319.417, 268.7070
1320.483, 95.41406
1321.548, 259.8633
1322.613, 199.8066
1323.678, 254.4570
1324.743, 334.2793
1325.807, 215.7891
1326.872, 304.6055
1327.936, 58.36133
1329.000, 97.11133
1330.064, 96.30859
1331.128, 277.3438
1332.191, 44.26172
1333.255, 75.46484
1334.318, 219.2031
1335.381, 205.4336
1336.444, 249.1250
1337.507, 106.0117
1338.569, 146.1992
1339.632, 135.9160
1340.694, 299.9805
1341.756, 326.3516
1342.818, 186.6367
1343.880, 47.60938
1344.941, 220.0488
1346.003, 91.96289
1347.064, 129.7949
1348.125, 7.271484
1349.186, 7.685547
1350.247, 21.22852
1351.308, 108.5176
1352.368, 27.87891
1353.428, 125.8262
1354.489, 111.8281
1355.549, 147.2031
1356.608, 177.0840
1357.668, 18.10156
1358.727, 28.82422
1359.787, 222.1699
1360.846, 72.80273
1361.905, 4.667969
1362.964, 5.732422
1364.022, 254.2480
1365.081, 263.0371
1366.139, 31.05078
1367.197, 219.0547
1368.255, 134.3340
1369.313, 149.0918
1370.371, 195.9121
1371.428, 9.583984
1372.486, 57.82812
1373.543, 55.77734
1374.600, 53.00781
1375.657, 22.24219
1376.713, 61.39453
1377.770, 224.0137
1378.826, 204.5703
1379.882, 190.3555
1380.938, 214.9355
1381.994, 61.50391
1383.050, 139.0391
1384.106, 3.402344
1385.161, 163.1113
1386.216, 144.6211
1387.271, 71.11719
1388.326, 132.6016
1389.381, 135.0723
1390.435, 153.5469
1391.490, 101.5039
1392.544, 242.6562
1393.598, 247.0684
1394.652, 325.4473
1395.705, 266.8730
1396.759, 314.2578
1397.812, 253.6328
1398.866, 114.0000
1399.919, 161.3594
1400.972, 149.5664
1402.024, 167.9102
1403.077, 207.2559
1404.129, 289.6602
1405.181, 244.7969
1406.233, 272.0488
1407.285, 218.3594
1408.337, 218.6641
1409.389, 272.9629
1410.440, 305.2559
1411.491, 233.5449
1412.542, 358.8535
1413.593, 427.1328
1414.644, 376.4102
1415.695, 264.6836
1416.745, 333.9336
1417.795, 158.2031
1418.845, 307.4707
1419.895, 307.7383
1420.945, 294.0059
1421.995, 343.2754
1423.044, 375.3672
1424.093, 448.8223
1425.142, 485.0840
1426.191, 407.3496
1427.240, 443.6211
1428.289, 316.9043
1429.337, 330.2441
1430.385, 509.5410
1431.433, 363.8477
1432.481, 585.1797
1433.529, 529.4980
1434.577, 245.8633
1435.624, 423.2422
1436.672, 571.6641
1437.719, 631.1055
1438.766, 513.5645
1439.812, 370.0723
1440.859, 428.6074
1441.905, 445.1895
1442.952, 424.8145
1443.998, 513.4922
1445.044, 218.4922
1446.090, 388.6465
1447.135, 482.2070
1448.181, 505.4863
1449.226, 244.1602
1450.271, 350.3105
1451.316, 308.5430
1452.361, 261.4473
1453.405, 418.5449
