##NAMES=Annite
##RRUFFID=R060211
##IDEAL CHEMISTRY=KFe^2+^_3_AlSi_3_O_10_(OH)_2_
##LOCALITY=Mont Saint-Hilaire, Rouville County, Quebec, Canada
##OWNER=RRUFF
##SOURCE=Royal Ontario Museum
##DESCRIPTION=Black mica
##STATUS=The identification of this mineral has been confirmed by X-ray diffraction and chemical analysis
##URL=rruff.info/R060211
##MEASURED CHEMISTRY=(K_0.94_[box]_0.03_Na_0.02_)_Σ=1_(Fe^2+^_2.07_Mg_0.57_Mn_0.33_Ti_0.03_)_Σ=3_(Si_2.98_Al_1.02_)O_10_((OH)_1.72_F_0.28_)_Σ=2_
##PIN_ID=L01834
##ORIENTATION=Laser parallel to b* (0 1 0). Fiducial mark perpendicular to laser is parallel to c [0 0 1]
230.8490, 0.0000000E+00
232.0700, 0.6152340
233.2910, 123.0742
234.5120, 5.521484
235.7320, 134.5645
236.9530, 102.0605
238.1730, 138.0977
239.3930, 148.4121
240.6130, 97.14258
241.8320, 140.9824
243.0520, 101.7070
244.2710, 46.78906
245.4900, 82.05273
246.7090, 87.84961
247.9280, 168.4355
249.1470, 211.9121
250.3650, 226.7324
251.5840, 38.70703
252.8020, 271.4629
254.0200, 451.8906
255.2370, 511.8926
256.4550, 88.34180
257.6720, 291.5254
258.8900, 250.4805
260.1070, 191.1211
261.3240, 484.0879
262.5400, 130.2578
263.7570, 414.9297
264.9730, 452.2734
266.1900, 594.5645
267.4060, 484.9043
268.6220, 454.9297
269.8370, 204.3809
271.0530, 345.9844
272.2680, 325.4414
273.4830, 157.6348
274.6980, 417.8691
275.9130, 493.5527
277.1280, 582.2734
278.3420, 591.0293
279.5570, 594.3184
280.7710, 553.2637
281.9850, 562.7324
283.1990, 471.0645
284.4120, 469.9336
285.6260, 412.7168
286.8390, 85.53906
288.0520, 372.7656
289.2650, 530.2617
290.4780, 566.3340
291.6910, 117.3105
292.9030, 293.7305
294.1160, 219.5098
295.3280, 135.0020
296.5400, 399.4531
297.7510, 20.88867
298.9630, 279.8027
300.1740, 284.2500
301.3860, 405.1719
302.5970, 273.8965
303.8080, 220.5605
305.0180, 231.7227
306.2290, 115.3906
307.4390, 348.0820
308.6500, 368.8320
309.8600, 122.6230
311.0700, 245.4355
312.2790, 137.2773
313.4890, 137.1523
314.6980, 114.9941
315.9080, 210.8691
317.1170, 109.7637
318.3250, 180.6836
319.5340, 117.6172
320.7430, 181.5703
321.9510, 113.5391
323.1590, 90.47852
324.3670, 10.48438
325.5750, 65.51758
326.7830, 159.5312
327.9900, 11.44922
329.1980, 19.57422
330.4050, 31.59570
331.6120, 194.3945
332.8190, 61.60742
334.0250, 5.599609
335.2320, 103.4121
336.4380, 201.5625
337.6440, 120.5117
338.8500, 26.50586
340.0560, 237.4805
341.2620, 202.2168
342.4670, 48.22461
343.6730, 28.80273
344.8780, 184.2520
346.0830, 173.6367
347.2870, 141.3438
348.4920, 126.5547
349.6970, 240.7207
350.9010, 199.8398
352.1050, 311.9590
353.3090, 224.0488
354.5130, 296.9922
355.7160, 409.8789
356.9200, 268.7305
358.1230, 419.5547
359.3260, 205.3828
360.5290, 309.2070
361.7320, 291.0352
362.9340, 459.8672
364.1370, 511.7051
365.3390, 510.5527
366.5410, 273.4062
367.7430, 381.2715
368.9450, 353.1406
370.1460, 291.0195
371.3480, 420.9062
372.5490, 401.8008
373.7500, 285.7070
374.9510, 291.6191
376.1520, 233.9746
377.3520, 194.7617
378.5520, 367.7520
379.7530, 149.9316
380.9530, 381.5117
382.1530, 503.7617
383.3520, 515.8828
384.5520, 500.9062
385.7510, 415.6328
386.9500, 672.0605
388.1490, 1454.303
389.3480, 1085.596
390.5470, 1203.824
391.7450, 812.0918
392.9440, 876.4551
394.1420, 765.9102
395.3400, 835.3301
396.5380, 864.3359
397.7350, 812.6953
398.9330, 888.0293
400.1300, 1133.332
401.3270, 958.1035
402.5240, 1028.332
403.7210, 1076.494
404.9180, 871.5234
406.1140, 963.6074
407.3110, 826.2891
408.5070, 645.3047
409.7030, 924.2578
410.8990, 881.1953
412.0940, 930.1152
413.2900, 661.0117
414.4850, 654.7988
415.6800, 693.6680
416.8750, 705.5684
418.0700, 711.5957
419.2650, 863.8867
420.4590, 690.6934
421.6530, 577.3867
422.8470, 481.0312
424.0410, 561.6367
425.2350, 700.2168
426.4290, 563.6289
427.6220, 475.9277
428.8160, 666.2383
430.0090, 515.5234
431.2020, 994.4375
432.3940, 374.7266
433.5870, 632.0195
434.7790, 374.3262
435.9720, 247.7617
437.1640, 422.0898
438.3560, 482.1582
439.5470, 473.8457
440.7390, 468.2090
441.9300, 362.0352
443.1220, 198.4219
444.3130, 305.4062
445.5040, 452.8164
446.6940, 191.2383
447.8850, 196.4961
449.0750, 26.10547
450.2660, 75.29297
451.4560, 258.2305
452.6460, 183.6777
453.8350, 144.0898
455.0250, 113.4980
456.2140, 53.11523
457.4040, 69.15625
458.5930, 86.79102
459.7820, 126.1816
460.9700, 91.10742
462.1590, 11.83789
463.3470, 137.8262
464.5350, 127.1914
465.7240, 162.1191
466.9110, 205.8262
468.0990, 229.3633
469.2870, 197.3496
470.4740, 202.6191
471.6610, 200.2793
472.8480, 430.5098
474.0350, 110.0020
475.2220, 354.3594
476.4090, 257.2188
477.5950, 344.2168
478.7810, 429.4629
479.9670, 482.0312
481.1530, 433.2891
482.3390, 604.5332
483.5240, 615.1289
484.7100, 672.6953
485.8950, 559.5547
487.0800, 652.0957
488.2650, 838.5781
489.4490, 643.9727
490.6340, 664.2461
491.8180, 821.4688
493.0030, 651.0117
494.1870, 751.2324
495.3700, 1053.117
496.5540, 777.6816
497.7380, 992.2520
498.9210, 1004.836
500.1040, 1125.424
501.2870, 1218.023
502.4700, 1187.629
503.6530, 1185.246
504.8350, 976.8711
506.0180, 1179.506
507.2000, 1212.148
508.3820, 1165.801
509.5640, 1459.461
510.7450, 1330.129
511.9270, 1468.807
513.1080, 1661.490
514.2890, 1678.189
515.4700, 1718.113
516.6510, 1382.605
517.8320, 1617.328
519.0130, 1536.037
520.1930, 1378.746
521.3730, 1413.449
522.5530, 1588.129
523.7330, 1839.828
524.9130, 1708.525
526.0920, 1948.223
527.2710, 1897.922
528.4510, 2006.619
529.6300, 1954.318
530.8080, 2200.021
531.9870, 2083.730
533.1660, 2238.441
534.3440, 2264.158
535.5220, 2444.877
536.7000, 2383.629
537.8780, 2522.387
539.0560, 2319.170
540.2330, 2397.982
541.4110, 2440.818
542.5880, 2287.656
543.7650, 2314.504
544.9420, 2271.617
546.1180, 2296.334
547.2950, 2255.309
548.4710, 2201.334
549.6470, 2169.367
550.8230, 2111.518
551.9990, 2069.611
553.1750, 2039.764
554.3500, 2024.971
555.5260, 2072.207
556.7010, 1870.490
557.8760, 1643.814
559.0510, 1762.164
560.2250, 1617.572
561.4000, 1625.986
562.5740, 1470.410
563.7480, 1416.844
564.9220, 1306.279
566.0960, 1438.740
567.2700, 1228.320
568.4430, 1218.174
569.6170, 1020.244
570.7900, 995.7891
571.9630, 912.7891
573.1360, 854.0215
574.3080, 757.6934
575.4810, 695.4004
576.6530, 572.1152
577.8250, 519.7070
578.9980, 312.5859
580.1690, 400.3320
581.3410, 313.0840
582.5130, 262.8438
583.6840, 73.61914
584.8550, 52.60352
586.0260, 22.15234
587.1970, 107.9141
588.3680, 23.67969
589.5380, 91.55078
590.7080, 78.75781
591.8790, 77.97461
593.0490, 139.7266
594.2190, 147.5723
595.3880, 122.9375
596.5580, 15.75000
597.7270, 45.34766
598.8960, 26.89844
600.0650, 139.1250
601.2340, 88.36133
602.4030, 184.1816
603.5710, 124.8242
604.7400, 50.23438
605.9080, 125.6484
607.0760, 6.933594
608.2440, 20.51758
609.4120, 84.01367
610.5790, 149.4199
611.7460, 130.8555
612.9140, 208.3086
614.0810, 164.7695
615.2480, 82.23633
616.4140, 20.76758
617.5810, 218.3027
618.7470, 201.8457
619.9130, 365.4277
621.0790, 407.7227
622.2450, 541.5996
623.4110, 465.2051
624.5770, 493.8105
625.7420, 451.4180
626.9070, 493.0312
628.0720, 657.6504
629.2370, 651.2676
630.4020, 441.8887
631.5660, 623.5137
632.7310, 779.1387
633.8950, 520.7676
635.0590, 905.3945
636.2230, 850.0254
637.3870, 535.6582
638.5500, 942.2891
639.7140, 790.9219
640.8770, 949.5547
642.0400, 978.1895
643.2030, 1004.822
644.3660, 902.4590
645.5280, 1184.092
646.6910, 1223.729
647.8530, 1179.361
649.0150, 1051.996
650.1770, 1249.631
651.3390, 1533.266
652.5000, 1698.898
653.6620, 1850.424
654.8230, 2016.164
655.9840, 2050.797
657.1450, 2259.428
658.3060, 2283.057
659.4660, 2561.688
660.6270, 2720.314
661.7870, 2924.941
662.9470, 3319.564
664.1070, 3620.191
665.2670, 3835.814
666.4260, 4425.436
667.5860, 5165.057
668.7450, 6005.676
669.9040, 5931.293
671.0630, 6005.908
672.2220, 5895.523
673.3800, 6549.135
674.5390, 7174.779
675.6970, 7035.096
676.8550, 6178.955
678.0130, 5655.713
679.1710, 5290.699
680.3290, 4934.654
681.4860, 4994.270
682.6430, 4839.059
683.8000, 4743.424
684.9570, 4799.992
686.1140, 4467.062
687.2710, 4500.562
688.4270, 4395.471
689.5840, 4377.512
690.7400, 4122.832
691.8960, 3829.910
693.0520, 3978.961
694.2070, 3817.365
695.3630, 3959.416
696.5180, 3794.844
697.6730, 3933.998
698.8280, 4086.969
699.9830, 3880.723
701.1380, 3861.020
702.2920, 4038.141
703.4470, 4072.578
704.6010, 4103.816
705.7550, 4226.951
706.9090, 4149.791
708.0620, 4307.182
709.2160, 4323.109
710.3690, 4390.258
711.5220, 4463.549
712.6750, 4547.117
713.8280, 4721.865
714.9810, 4500.170
716.1340, 4569.221
717.2860, 4396.695
718.4380, 4574.006
719.5900, 4479.367
720.7420, 4578.771
721.8940, 4337.977
723.0450, 4178.168
724.1970, 4159.754
725.3480, 4198.914
726.4990, 3684.055
727.6500, 4033.180
728.8010, 3744.215
729.9510, 3501.318
731.1020, 3561.664
732.2520, 3644.424
733.4020, 3312.008
734.5520, 3136.111
735.7020, 2865.566
736.8510, 2998.594
738.0010, 3004.520
739.1500, 2868.932
740.2990, 2791.973
741.4480, 2829.510
742.5970, 2753.523
743.7450, 2847.525
744.8940, 2816.549
746.0420, 2830.221
747.1900, 2756.178
748.3380, 2947.881
749.4860, 2821.809
750.6330, 2770.725
751.7810, 2804.627
752.9280, 3007.514
754.0750, 3233.385
755.2220, 3283.252
756.3690, 3207.086
757.5160, 3451.914
758.6620, 3234.729
759.8090, 3245.525
760.9550, 3460.312
762.1010, 3837.078
763.2470, 3663.834
764.3920, 3500.572
765.5380, 3752.295
766.6830, 3582.004
767.8280, 4150.699
768.9730, 3626.377
770.1180, 3807.039
771.2630, 3581.691
772.4070, 3723.324
773.5520, 3630.941
774.6960, 3408.547
775.8400, 3431.135
776.9840, 3266.709
778.1280, 3339.270
779.2710, 3239.812
780.4140, 3024.342
781.5580, 3050.859
782.7010, 2810.357
783.8440, 2714.842
784.9860, 2704.312
786.1290, 2756.768
787.2710, 2425.207
788.4140, 2101.637
789.5560, 2230.047
790.6980, 1910.441
791.8390, 1816.975
792.9810, 1708.914
794.1220, 1619.547
795.2640, 1322.887
796.4050, 1373.211
797.5460, 999.5215
798.6860, 967.8184
799.8270, 995.1016
800.9680, 786.3711
802.1080, 667.6270
803.2480, 697.8691
804.3880, 470.0977
805.5280, 402.9023
806.6670, 411.5156
807.8070, 234.7070
808.9460, 223.8809
810.0850, 326.0449
811.2240, 111.1953
812.3630, 70.66797
813.5020, 17.39453
814.6400, 80.43359
815.7790, 66.54492
816.9170, 34.59180
818.0550, 110.3047
819.1930, 67.19141
820.3300, 169.9375
821.4680, 46.18750
822.6050, 118.4961
823.7430, 141.9043
824.8800, 37.41797
826.0170, 103.9863
827.1530, 93.15820
828.2900, 26.37305
829.4260, 154.1543
830.5620, 65.04883
831.6990, 124.0059
832.8340, 99.06055
833.9700, 47.83984
835.1060, 173.3887
836.2410, 31.30078
837.3760, 10.97461
838.5120, 13.62891
839.6470, 157.2598
840.7810, 32.11719
841.9160, 1.462891
843.0500, 114.9824
844.1850, 84.48828
845.3190, 39.05273
846.4530, 59.63867
847.5870, 270.2734
848.7200, 5.078125
849.8540, 88.90430
850.9870, 80.20117
852.1200, 16.70312
853.2530, 16.36523
854.3860, 49.42383
855.5190, 31.31445
856.6510, 14.51172
857.7840, 149.5410
858.9160, 144.5625
860.0480, 374.5781
861.1800, 246.5996
862.3110, 323.6113
863.4430, 289.6191
864.5740, 504.6172
865.7060, 273.6348
866.8370, 296.6465
867.9680, 315.6699
869.0980, 221.6855
870.2290, 441.7344
871.3590, 435.8086
872.4900, 417.8809
873.6200, 526.9590
874.7500, 604.0352
875.8790, 477.1445
877.0090, 724.2461
878.1380, 392.3906
879.2680, 452.5312
880.3970, 565.6680
881.5260, 508.7988
882.6550, 395.9316
883.7830, 483.4883
884.9120, 877.2207
886.0400, 486.3730
887.1680, 781.5195
888.2960, 689.6641
889.4240, 695.8047
890.5520, 655.9414
891.6790, 617.7969
892.8070, 744.2109
893.9340, 620.3398
895.0610, 735.4688
896.1880, 874.5938
897.3140, 746.7188
898.4410, 810.8398
899.5670, 655.9668
900.6940, 1019.096
901.8200, 723.2227
902.9450, 1085.355
904.0710, 978.4863
905.1970, 902.6172
906.3220, 1000.756
907.4470, 1004.895
908.5730, 1119.033
909.6980, 1124.781
910.8220, 1063.311
911.9470, 1131.453
913.0710, 1172.615
914.1960, 1126.777
915.3200, 1213.939
916.4440, 1183.104
917.5680, 1264.268
918.6910, 1326.434
919.8150, 1303.602
920.9380, 1237.771
922.0610, 1288.945
923.1840, 1417.121
924.3070, 1089.297
925.4300, 1268.475
926.5520, 1361.658
927.6750, 1251.047
928.7970, 1544.117
929.9190, 1476.352
931.0410, 1867.635
932.1630, 1647.418
933.2840, 2054.348
934.4060, 1362.734
935.5270, 1563.178
936.6480, 1657.625
937.7690, 1633.076
938.8900, 1632.531
940.0100, 1539.992
941.1310, 1625.469
942.2510, 1708.953
943.3710, 1686.441
944.4910, 1566.971
945.6110, 1543.521
946.7310, 1573.045
947.8500, 1617.582
948.9690, 1652.678
950.0890, 1818.775
951.2080, 1802.041
952.3260, 1841.344
953.4450, 1981.988
954.5640, 1948.465
955.6820, 1713.365
956.8000, 1736.080
957.9180, 1852.324
959.0360, 1708.135
960.1540, 1779.551
961.2710, 1943.836
962.3890, 1467.846
963.5060, 1693.098
964.6230, 1400.387
965.7400, 1573.322
966.8570, 1441.617
967.9730, 1395.537
969.0900, 1540.738
970.2060, 1466.125
971.3220, 1497.734
972.4380, 1529.803
973.5540, 1506.059
974.6700, 1596.998
975.7850, 1560.607
976.9010, 1706.402
978.0160, 1533.963
979.1310, 1486.979
980.2460, 1626.457
981.3600, 1885.723
982.4750, 1820.848
983.5890, 1757.705
984.7030, 1657.387
985.8170, 1915.514
986.9310, 1812.902
988.0450, 1860.871
989.1590, 1928.012
990.2720, 1788.102
991.3850, 1961.152
992.4980, 2065.410
993.6110, 1888.688
994.7240, 2416.984
995.8370, 2353.305
996.9490, 2122.646
998.0620, 2105.012
999.1740, 2327.395
1000.286, 2238.828
1001.398, 2522.287
1002.509, 2509.766
1003.621, 2534.266
1004.732, 2788.787
1005.843, 2735.357
1006.954, 3116.967
1008.065, 3108.605
1009.176, 3275.262
1010.286, 3496.941
1011.397, 3408.645
1012.507, 3530.369
1013.617, 3559.117
1014.727, 3753.887
1015.837, 3802.668
1016.946, 3958.984
1018.056, 4005.816
1019.165, 4279.672
1020.274, 4117.549
1021.383, 4163.445
1022.492, 4512.367
1023.601, 3888.309
1024.709, 4025.273
1025.817, 3792.258
1026.926, 3804.266
1028.034, 3461.293
1029.141, 3401.344
1030.249, 3406.414
1031.357, 3312.508
1032.464, 3212.129
1033.571, 3032.602
1034.678, 2911.760
1035.785, 2926.805
1036.892, 2699.008
1037.999, 2464.229
1039.105, 2722.205
1040.211, 2693.469
1041.317, 2493.756
1042.423, 2760.146
1043.529, 2597.486
1044.635, 2447.414
1045.740, 2546.434
1046.845, 2508.832
1047.951, 2545.246
1049.056, 2205.684
1050.160, 2548.139
1051.265, 2431.617
1052.370, 2142.180
1053.474, 2386.766
1054.578, 2266.307
1055.682, 2146.869
1056.786, 2323.453
1057.890, 2361.057
1058.993, 1984.684
1060.097, 2269.436
1061.200, 2136.102
1062.303, 1926.787
1063.406, 2168.420
1064.509, 2248.266
1065.612, 2288.689
1066.714, 2174.619
1067.816, 2295.461
1068.919, 2176.260
1070.021, 2229.193
1071.122, 2176.738
1072.224, 2130.785
1073.326, 2211.506
1074.427, 1794.602
1075.528, 2089.510
1076.629, 1771.840
1077.730, 1891.420
1078.831, 1843.377
1079.931, 1776.646
1081.032, 2058.486
1082.132, 1809.318
1083.232, 1434.107
1084.332, 1518.207
1085.432, 1634.344
1086.531, 1663.666
1087.631, 1669.830
1088.730, 1390.469
1089.829, 1627.678
1090.928, 1287.029
1092.027, 1284.441
1093.126, 1229.885
1094.224, 1305.383
1095.323, 1185.197
1096.421, 1147.984
1097.519, 958.1445
1098.617, 991.8223
1099.715, 821.5547
1100.812, 746.3340
1101.910, 968.1523
1103.007, 818.0332
1104.104, 906.9297
1105.201, 702.4238
1106.298, 432.4551
1107.394, 743.3984
1108.491, 565.7441
1109.587, 620.7383
1110.683, 650.7812
1111.779, 628.8535
1112.875, 490.9336
1113.971, 558.0469
1115.066, 674.3945
1116.162, 504.8203
1117.257, 635.0801
1118.352, 609.3477
1119.447, 537.6367
1120.542, 527.9355
1121.636, 592.2461
1122.731, 477.5742
1123.825, 460.0723
1124.919, 531.4258
1126.013, 653.7910
1127.107, 341.1621
1128.200, 502.5430
1129.294, 282.0586
1130.387, 302.4590
1131.480, 555.5977
1132.573, 442.0117
1133.666, 328.4336
1134.759, 359.0371
1135.851, 151.4727
1136.944, 463.7441
1138.036, 343.9414
1139.128, 346.1562
1140.220, 304.6113
1141.312, 327.0742
1142.403, 412.3926
1143.495, 204.0625
1144.586, 15.54102
1145.677, 20.16602
1146.768, 44.41797
1147.859, 57.71094
1148.950, 45.59375
1150.040, 36.07617
1151.130, 146.0215
1152.221, 301.5137
1153.311, 44.00586
1154.401, 77.50000
1155.490, 151.4453
1156.580, 306.9453
1157.669, 119.4473
1158.759, 146.9492
1159.848, 168.5898
1160.937, 49.93750
1162.025, 63.92578
1163.114, 35.49609
1164.202, 31.98047
1165.291, 38.52734
1166.379, 30.79297
1167.467, 291.7031
1168.555, 201.1953
1169.642, 46.30859
1170.730, 170.1680
1171.817, 43.64258
1172.905, 2.103516
1173.992, 13.16406
1175.078, 18.11133
1176.165, 72.33984
1177.252, 102.1289
1178.338, 117.6172
1179.425, 16.10547
1180.511, 308.5898
1181.597, 149.0840
1182.682, 1.572266
1183.768, 2.210938
1184.854, 143.7207
1185.939, 105.2305
1187.024, 344.7344
1188.109, 691.2324
1189.194, 43.86133
1190.279, 160.6484
1191.363, 79.77930
1192.448, 78.17188
1193.532, 170.4395
1194.616, 236.1523
1195.700, 4.000000
1196.784, 75.63672
1197.867, 184.5488
1198.951, 182.6191
1200.034, 38.69531
1201.117, 58.55469
1202.200, 87.01367
1203.283, 33.02930
1204.366, 12.89258
1205.448, 167.8027
1206.531, 118.9414
1207.613, 42.11914
1208.695, 181.6602
1209.777, 98.56641
1210.859, 10.86914
1211.940, 73.19531
1213.022, 8.417969
1214.103, 140.0137
1215.184, 118.6055
1216.265, 32.18945
1217.346, 111.7617
1218.427, 14.67578
1219.507, 68.01172
1220.587, 149.4551
1221.668, 218.0410
1222.748, 204.4883
1223.828, 176.9238
1224.907, 146.7031
1225.987, 150.1152
1227.066, 137.5156
1228.146, 164.9023
1229.225, 163.2754
1230.304, 157.6523
1231.382, 132.9902
1232.461, 117.3223
1233.540, 109.6426
1234.618, 33.94922
1235.696, 84.23242
1236.774, 155.5020
1237.852, 17.79688
1238.930, 118.0234
1240.007, 282.2344
1241.085, 112.4297
1242.162, 571.6074
1243.239, 131.7695
1244.316, 86.91211
1245.393, 74.04297
1246.469, 291.1523
1247.546, 133.2441
1248.622, 295.8086
1249.698, 146.8633
1250.774, 191.1680
1251.850, 131.3887
1252.926, 94.39062
1254.001, 260.8203
1255.077, 167.7832
1256.152, 207.7266
1257.227, 245.3125
1258.302, 114.2949
1259.377, 229.6504
1260.451, 55.63477
1261.526, 254.2578
1262.600, 309.0234
1263.674, 108.7715
1264.748, 223.4941
1265.822, 38.80078
1266.896, 21.16797
1267.969, 59.69141
1269.043, 281.2363
1270.116, 494.7578
1271.189, 58.73047
1272.262, 113.3008
1273.335, 260.8984
1274.407, 128.3262
1275.480, 245.8203
1276.552, 196.5156
1277.624, 166.4922
1278.696, 221.4180
1279.768, 82.10352
1280.840, 300.7910
1281.911, 198.0645
1282.982, 324.4883
1284.054, 86.71875
1285.125, 255.1973
1286.196, 361.5234
1287.266, 471.6855
1288.337, 142.8711
1289.407, 134.9883
1290.478, 345.0820
1291.548, 133.7734
1292.618, 240.8438
1293.688, 321.0020
1294.757, 141.0039
1295.827, 212.1172
1296.896, 196.0723
1297.965, 305.0059
1299.034, 471.1855
1300.103, 191.5938
1301.172, 211.4609
1302.241, 86.44922
1303.309, 231.2617
1304.377, 131.4707
1305.445, 282.5918
1306.513, 321.9395
1307.581, 331.7129
1308.649, 297.6250
1309.716, 291.6719
1310.784, 335.5781
1311.851, 181.9805
1312.918, 374.5273
1313.985, 346.1133
1315.052, 212.6816
1316.118, 228.2246
1317.185, 181.0000
1318.251, 297.2578
1319.317, 197.6387
1320.383, 271.1035
1321.449, 418.5469
1322.514, 215.2832
1323.580, 402.5664
1324.645, 128.2676
1325.711, 528.4668
1326.776, 120.7422
1327.840, 243.0625
1328.905, 296.0508
1329.970, 34.33203
1331.034, 173.5918
1332.099, 435.0898
1333.163, 314.1113
1334.227, 90.32227
1335.290, 424.1035
1336.354, 296.6152
1337.418, 161.7461
1338.481, 261.5762
1339.544, 275.8457
1340.607, 151.1367
1341.670, 255.4727
1342.733, 276.7539
1343.795, 285.7832
1344.858, 402.6270
1345.920, 321.6250
1346.982, 43.79688
1348.044, 227.2344
1349.106, 109.1621
1350.168, 377.6328
1351.229, 310.5273
1352.291, 63.51562
1353.352, 229.3516
1354.413, 301.1699
1355.474, 149.9707
1356.534, 361.7578
1357.595, 140.5312
1358.656, 299.2852
1359.716, 216.0254
1360.776, 256.7480
1361.836, 148.5176
1362.896, 271.6309
1363.955, 211.1875
1365.015, 22.82617
1366.074, 285.0742
1367.134, 213.6777
1368.193, 455.2656
1369.252, 164.8203
1370.310, 190.3477
1371.369, 267.8613
1372.427, 307.2168
1373.486, 153.4941
1374.544, 250.9648
1375.602, 47.34375
1376.660, 292.7109
1377.717, 76.01367
1378.775, 92.30273
1379.832, 198.5488
1380.889, 22.44531
1381.946, 205.6973
1383.003, 159.8242
1384.060, 32.93359
1385.117, 117.0254
1386.173, 64.69336
1387.230, 170.0273
1388.286, 105.6445
1389.342, 150.0234
