##NAMES=Annite
##RRUFFID=R060211
##IDEAL CHEMISTRY=KFe^2+^_3_AlSi_3_O_10_(OH)_2_
##LOCALITY=Mont Saint-Hilaire, Rouville County, Quebec, Canada
##OWNER=RRUFF
##SOURCE=Royal Ontario Museum
##DESCRIPTION=Black mica
##STATUS=The identification of this mineral has been confirmed by X-ray diffraction and chemical analysis
##URL=rruff.info/R060211
##MEASURED CHEMISTRY=(K_0.94_[box]_0.03_Na_0.02_)_Σ=1_(Fe^2+^_2.07_Mg_0.57_Mn_0.33_Ti_0.03_)_Σ=3_(Si_2.98_Al_1.02_)O_10_((OH)_1.72_F_0.28_)_Σ=2_
##PIN_ID=L01834
##ORIENTATION=Laser parallel to b* (0 1 0). Fiducial mark perpendicular to laser is parallel to c [0 0 1]
230.8490, 0.0000000E+00
232.0700, 0.6943360
233.2910, 90.21973
234.5120, 45.53125
235.7320, 72.45996
236.9530, 177.9629
238.1730, 202.1680
239.3930, 257.2246
240.6130, 236.3877
241.8320, 207.7520
243.0520, 159.0801
244.2710, 149.7061
245.4900, 65.57129
246.7090, 77.96973
247.9280, 70.81250
249.1470, 33.69434
250.3650, 117.6416
251.5840, 29.14746
252.8020, 124.1357
254.0200, 115.4434
255.2370, 116.7549
256.4550, 164.0762
257.6720, 210.4141
258.8900, 528.8135
260.1070, 419.3438
261.3240, 736.9834
262.5400, 394.4062
263.7570, 346.9736
264.9730, 384.4043
266.1900, 418.2168
267.4060, 406.5088
268.6220, 396.0195
269.8370, 279.1416
271.0530, 395.7441
272.2680, 412.9316
273.4830, 278.9473
274.6980, 203.7832
275.9130, 420.4668
277.1280, 461.9795
278.3420, 455.3379
279.5570, 213.9883
280.7710, 341.3857
281.9850, 238.1396
283.1990, 343.2559
284.4120, 198.8799
285.6260, 172.2412
286.8390, 191.5703
288.0520, 182.7656
289.2650, 151.7412
290.4780, 38.11230
291.6910, 90.02637
292.9030, 9.775391
294.1160, 166.6445
295.3280, 70.81934
296.5400, 48.69824
297.7510, 182.4580
298.9630, 26.92578
300.1740, 187.8730
301.3860, 202.7061
302.5970, 168.6768
303.8080, 236.6572
305.0180, 281.4004
306.2290, 134.1553
307.4390, 325.4297
308.6500, 166.8643
309.8600, 52.40332
311.0700, 187.5518
312.2790, 220.6240
313.4890, 318.5469
314.6980, 181.3115
315.9080, 356.9707
317.1170, 190.9814
318.3250, 213.9473
319.5340, 202.7471
320.7430, 188.6846
321.9510, 218.9609
323.1590, 221.7676
324.3670, 193.6230
325.5750, 174.3926
326.7830, 161.0713
327.9900, 364.4141
329.1980, 198.8262
330.4050, 249.7900
331.6120, 258.6826
332.8190, 147.2852
334.0250, 272.4678
335.2320, 277.6279
336.4380, 139.7822
337.6440, 82.00098
338.8500, 92.25586
340.0560, 123.5234
341.2620, 116.8047
342.4670, 173.4512
343.6730, 140.8174
344.8780, 146.5127
346.0830, 127.8887
347.2870, 204.8516
348.4920, 311.1309
349.6970, 211.1504
350.9010, 128.1094
352.1050, 207.7715
353.3090, 196.9873
354.5130, 289.3271
355.7160, 252.0957
356.9200, 154.5752
358.1230, 224.7090
359.3260, 168.1846
360.5290, 231.7920
361.7320, 217.3721
362.9340, 305.9629
364.1370, 247.8662
365.3390, 150.7793
366.5410, 124.2520
367.7430, 129.9170
368.9450, 29.33887
370.1460, 42.79297
371.3480, 15.83496
372.5490, 8.823242
373.7500, 9.196289
374.9510, 30.96484
376.1520, 109.7080
377.3520, 11.61914
378.5520, 333.2939
379.7530, 62.68652
380.9530, 4.051758
382.1530, 185.3662
383.3520, 78.35547
384.5520, 34.13574
385.7510, 105.9688
386.9500, 126.0244
388.1490, 56.00000
389.3480, 26.04395
390.5470, 212.8779
391.7450, 74.77734
392.9440, 129.6523
394.1420, 101.4355
395.3400, 32.26074
396.5380, 57.97949
397.7350, 223.7471
398.9330, 30.48828
400.1300, 117.2002
401.3270, 244.8857
402.5240, 141.5430
403.7210, 14.17383
404.9180, 122.7734
406.1140, 98.41113
407.3110, 104.1992
408.5070, 77.67773
409.7030, 99.12109
410.8990, 101.5410
412.0940, 168.9316
413.2900, 35.29395
414.4850, 199.6230
415.6800, 167.0000
416.8750, 159.2578
418.0700, 2.851563
419.2650, 199.2783
420.4590, 38.55762
421.6530, 169.5605
422.8470, 54.34766
424.0410, 1.305664
425.2350, 167.0332
426.4290, 205.2344
427.6220, 130.3457
428.8160, 128.2637
430.0090, 26.85059
431.2020, 195.9941
432.3940, 116.8535
433.5870, 320.6943
434.7790, 317.1963
435.9720, 216.8857
437.1640, 564.2217
438.3560, 594.3643
439.5470, 626.8916
440.7390, 718.5479
441.9300, 695.4883
443.1220, 676.0850
444.3130, 590.1797
445.5040, 572.0186
446.6940, 347.7500
447.8850, 314.9746
449.0750, 247.5820
450.2660, 262.1426
451.4560, 170.7197
452.6460, 151.8730
453.8350, 185.3770
455.0250, 179.4668
456.2140, 48.53906
457.4040, 77.58594
458.5930, 0.3876950
459.7820, 8.390625
460.9700, 91.58105
462.1590, 14.52734
463.3470, 6.547852
464.5350, 74.34766
465.7240, 14.22656
466.9110, 8.917969
468.0990, 67.91211
469.2870, 8.719727
470.4740, 140.4219
471.6610, 74.12695
472.8480, 168.8184
474.0350, 125.4941
475.2220, 12.13770
476.4090, 114.6084
477.5950, 88.22070
478.7810, 113.8203
479.9670, 37.22656
481.1530, 9.350586
482.3390, 116.5293
483.5240, 148.8271
484.7100, 28.08496
485.8950, 200.5635
487.0800, 239.8945
488.2650, 436.2324
489.4490, 505.4443
490.6340, 212.8730
491.8180, 169.2773
493.0030, 277.6514
494.1870, 311.7559
495.3700, 101.0967
496.5540, 224.4248
497.7380, 72.73633
498.9210, 192.0332
500.1040, 192.1748
501.2870, 239.4414
502.4700, 121.6182
503.6530, 220.8604
504.8350, 206.0928
506.0180, 156.3164
507.2000, 209.5283
508.3820, 247.5908
509.5640, 173.5342
510.7450, 242.4932
511.9270, 255.7207
513.1080, 323.1348
514.2890, 302.3848
515.4700, 226.0869
516.6510, 308.7754
517.8320, 397.1064
519.0130, 269.9229
520.1930, 442.4609
521.3730, 468.5586
522.5530, 451.0889
523.7330, 469.5586
524.9130, 522.9512
526.0920, 723.8906
527.2710, 675.9326
528.4510, 806.4531
529.6300, 981.2031
530.8080, 939.5791
531.9870, 1081.104
533.1660, 1002.066
534.3440, 991.5557
535.5220, 803.2588
536.7000, 719.8271
537.8780, 629.9209
539.0560, 470.2783
540.2330, 515.2090
541.4110, 527.2744
542.5880, 270.9053
543.7650, 205.8125
544.9420, 346.5479
546.1180, 216.3447
547.2950, 99.98730
548.4710, 50.52539
549.6470, 206.0723
550.8230, 141.5117
551.9990, 323.0459
553.1750, 121.5791
554.3500, 210.4141
555.5260, 219.5312
556.7010, 92.41016
557.8760, 211.2275
559.0510, 25.01855
560.2250, 55.45215
561.4000, 215.3203
562.5740, 110.1465
563.7480, 108.9297
564.9220, 167.7871
566.0960, 21.96973
567.2700, 47.76367
568.4430, 62.62012
569.6170, 103.2373
570.7900, 151.8350
571.9630, 97.44238
573.1360, 87.29785
574.3080, 84.86426
575.4810, 104.7002
576.6530, 149.5283
577.8250, 144.9854
578.9980, 31.84180
580.1690, 112.9473
581.3410, 35.72754
582.5130, 94.50391
583.6840, 62.78906
584.8550, 41.11328
586.0260, 41.45312
587.1970, 29.17871
588.3680, 55.20020
589.5380, 36.38672
590.7080, 62.03906
591.8790, 17.49707
593.0490, 99.91797
594.2190, 236.2529
595.3880, 156.7246
596.5580, 106.1650
597.7270, 95.96680
598.8960, 89.96875
600.0650, 147.6064
601.2340, 164.7510
602.4030, 237.7920
603.5710, 312.1455
604.7400, 318.6494
605.9080, 355.6719
607.0760, 327.7412
608.2440, 374.9023
609.4120, 322.8105
610.5790, 339.0195
611.7460, 392.2217
612.9140, 511.1406
614.0810, 391.4521
615.2480, 524.5781
616.4140, 517.9355
617.5810, 596.0195
618.7470, 545.9893
619.9130, 548.0615
621.0790, 489.7305
622.2450, 693.0527
623.4110, 663.7471
624.5770, 871.3330
625.7420, 754.9258
626.9070, 663.2549
628.0720, 673.5781
629.2370, 604.8945
630.4020, 639.2061
631.5660, 843.5107
632.7310, 914.7764
633.8950, 809.0693
635.0590, 758.3564
636.2230, 957.3281
637.3870, 755.6035
638.5500, 1001.448
639.7140, 1043.711
640.8770, 1116.967
642.0400, 953.2168
643.2030, 1148.254
644.3660, 1283.492
645.5280, 1258.724
646.6910, 1476.896
647.8530, 1516.117
649.0150, 1628.332
650.1770, 1702.541
651.3390, 1921.746
652.5000, 1971.949
653.6620, 2252.148
654.8230, 2295.355
655.9840, 2695.567
657.1450, 2694.782
658.3060, 2856.010
659.4660, 3225.346
660.6270, 3496.572
661.7870, 3659.072
662.9470, 4046.984
664.1070, 4422.201
665.2670, 4580.501
666.4260, 4768.838
667.5860, 5158.083
668.7450, 5475.715
669.9040, 5598.010
671.0630, 5668.378
672.2220, 5963.977
673.3800, 5991.484
674.5390, 5943.750
675.6970, 5881.014
676.8550, 5724.480
678.0130, 5722.076
679.1710, 5466.273
680.3290, 5343.514
681.4860, 5135.291
682.6430, 4982.986
683.8000, 4822.658
684.9570, 4661.006
686.1140, 4463.561
687.2710, 4323.168
688.4270, 4088.500
689.5840, 4029.275
690.7400, 3929.194
691.8960, 3782.381
693.0520, 3496.445
694.2070, 3600.981
695.3630, 3319.496
696.5180, 3324.001
697.6730, 3264.884
698.8280, 3131.773
699.9830, 2931.681
701.1380, 2998.812
702.2920, 2761.811
703.4470, 2631.074
704.6010, 2573.334
705.7550, 2271.418
706.9090, 2172.480
708.0620, 1961.445
709.2160, 2044.724
710.3690, 1823.127
711.5220, 1813.125
712.6750, 1743.658
713.8280, 1643.861
714.9810, 1620.039
716.1340, 1311.112
717.2860, 1400.223
718.4380, 1133.831
719.5900, 1211.235
720.7420, 1120.201
721.8940, 1184.272
723.0450, 1066.975
724.1970, 991.8369
725.3480, 1040.169
726.4990, 930.4150
727.6500, 908.2588
728.8010, 824.9951
729.9510, 781.7266
731.1020, 746.3672
732.2520, 686.3086
733.4020, 695.2422
734.5520, 660.2334
735.7020, 618.1494
736.8510, 511.0596
738.0010, 695.9639
739.1500, 594.8672
740.2990, 490.8828
741.4480, 591.7803
742.5970, 411.8564
743.7450, 459.7607
744.8940, 421.6494
746.0420, 445.7568
747.1900, 605.6436
748.3380, 345.5215
749.4860, 491.4111
750.6330, 558.2803
751.7810, 387.1406
752.9280, 584.9932
754.0750, 512.7314
755.2220, 479.5723
756.3690, 429.4062
757.5160, 575.2344
758.6620, 454.0527
759.8090, 545.8672
760.9550, 426.6777
762.1010, 552.4814
763.2470, 521.9863
764.3920, 499.8164
765.5380, 553.8486
766.6830, 438.6230
767.8280, 508.3887
768.9730, 427.1475
770.1180, 342.8975
771.2630, 430.6396
772.4070, 466.3730
773.5520, 324.0986
774.6960, 476.8164
775.8400, 386.5264
776.9840, 223.2305
778.1280, 350.9268
779.2710, 177.6143
780.4140, 366.2939
781.5580, 252.9668
782.7010, 179.6309
783.8440, 311.2881
784.9860, 284.9375
786.1290, 130.5791
787.2710, 267.2119
788.4140, 205.8369
789.5560, 331.4541
790.6980, 301.5938
791.8390, 164.6660
792.9810, 268.2598
794.1220, 180.8457
795.2640, 184.4238
796.4050, 50.00391
797.5460, 181.5215
798.6860, 46.03906
799.8270, 4.547852
800.9680, 113.0400
802.1080, 91.52539
803.2480, 88.00195
804.3880, 122.4697
805.5280, 26.92969
806.6670, 32.62012
807.8070, 87.79395
808.9460, 34.19922
810.0850, 54.59375
811.2240, 197.9785
812.3630, 110.3564
813.5020, 131.2754
814.6400, 29.00684
815.7790, 0.2773440
816.9170, 122.5303
818.0550, 9.224609
819.1930, 24.00195
820.3300, 60.80957
821.4680, 29.66797
822.6050, 28.44043
823.7430, 24.46094
824.8800, 11.60645
826.0170, 42.33594
827.1530, 60.75879
828.2900, 161.6494
829.4260, 111.3906
830.5620, 19.49414
831.6990, 23.36816
832.8340, 88.76855
833.9700, 45.96777
835.1060, 77.79199
836.2410, 109.5449
837.3760, 139.2910
838.5120, 0.9697270
839.6470, 85.24707
840.7810, 74.41406
841.9160, 103.9326
843.0500, 64.65137
844.1850, 105.2285
845.3190, 60.79883
846.4530, 41.64062
847.5870, 99.11621
848.7200, 3.340820
849.8540, 58.78516
850.9870, 73.17188
852.1200, 191.6494
853.2530, 83.07031
854.3860, 146.4844
855.5190, 6.897461
856.6510, 49.30176
857.7840, 6.737305
858.9160, 97.10742
860.0480, 37.47656
861.1800, 17.91797
862.3110, 39.31250
863.4430, 188.6982
864.5740, 296.0898
865.7060, 130.4785
866.8370, 225.8730
867.9680, 410.2637
869.0980, 187.6475
870.2290, 68.02637
871.3590, 264.3975
872.4900, 177.7637
873.6200, 186.1230
874.7500, 337.4766
875.8790, 53.82324
877.0090, 109.1641
878.1380, 35.49902
879.2680, 75.82520
880.3970, 110.1465
881.5260, 23.46094
882.6550, 163.7686
883.7830, 166.0703
884.9120, 71.36621
886.0400, 127.6660
887.1680, 273.9629
888.2960, 137.2529
889.4240, 46.44043
890.5520, 174.8896
891.6790, 116.2158
892.8070, 131.5342
893.9340, 170.8477
895.0610, 134.8955
896.1880, 162.4893
897.3140, 201.8076
898.4410, 211.1611
899.5670, 427.5098
900.6940, 223.8535
901.8200, 127.1992
902.9450, 285.5410
904.0710, 327.8770
905.1970, 134.2090
906.3220, 298.5361
907.4470, 363.8584
908.5730, 150.1758
909.6980, 248.4873
910.8220, 200.7949
911.9470, 123.0986
913.0710, 296.3955
914.1960, 247.6914
915.3200, 177.0098
916.4440, 210.3242
917.5680, 309.6338
918.6910, 331.9570
919.8150, 336.2764
920.9380, 313.5908
922.0610, 401.9014
923.1840, 307.2061
924.3070, 282.5078
925.4300, 363.8174
926.5520, 417.1221
927.6750, 515.4238
928.7970, 448.7598
929.9190, 529.0898
931.0410, 464.4170
932.1630, 450.6553
933.2840, 578.0068
934.4060, 525.0762
935.5270, 598.7461
936.6480, 481.1084
937.7690, 571.3779
938.8900, 669.6270
940.0100, 460.9980
941.1310, 572.0068
942.2510, 625.3447
943.3710, 612.6025
944.4910, 681.4238
945.6110, 592.7490
946.7310, 723.1016
947.8500, 606.4473
948.9690, 580.5928
950.0890, 588.6035
951.2080, 688.0068
952.3260, 727.3555
953.4450, 799.1670
954.5640, 810.0508
955.6820, 844.3369
956.8000, 855.3799
957.9180, 857.1768
959.0360, 835.0605
960.1540, 771.0059
961.2710, 700.7793
962.3890, 730.4043
963.5060, 708.4727
964.6230, 990.2148
965.7400, 819.1953
966.8570, 818.1943
967.9730, 1038.107
969.0900, 882.7188
970.2060, 972.9502
971.3220, 850.2949
972.4380, 939.6387
973.5540, 940.1270
974.6700, 1032.341
975.7850, 1072.570
976.9010, 1102.490
978.0160, 1122.837
979.1310, 1143.184
980.2460, 1150.369
981.3600, 1079.423
982.4750, 1283.887
983.5890, 1345.766
984.7030, 1352.961
985.8170, 1321.220
986.9310, 1311.576
988.0450, 1606.886
989.1590, 1525.244
990.2720, 1648.244
991.3850, 1940.426
992.4980, 1601.435
993.6110, 1848.799
994.7240, 1797.362
995.8370, 1815.434
996.9490, 2082.600
998.0620, 2208.974
999.1740, 2343.349
1000.286, 2375.727
1001.398, 2440.104
1002.509, 2619.483
1003.621, 2701.203
1004.732, 2950.347
1005.843, 3027.731
1006.954, 3183.115
1008.065, 3459.503
1009.176, 3636.892
1010.286, 3847.171
1011.397, 3898.562
1012.507, 4071.772
1013.617, 3922.159
1014.727, 4235.555
1015.837, 4193.799
1016.946, 4363.342
1018.056, 4319.744
1019.165, 4329.514
1020.274, 4293.096
1021.383, 4345.559
1022.492, 4115.087
1023.601, 4304.500
1024.709, 4246.160
1025.817, 4124.568
1026.926, 3790.978
1028.034, 3759.293
1029.141, 3438.488
1030.249, 3698.897
1031.357, 3434.564
1032.464, 3354.271
1033.571, 3109.985
1034.678, 3139.762
1035.785, 2915.169
1036.892, 2782.796
1037.999, 2849.457
1039.105, 2574.003
1040.211, 2490.549
1041.317, 2325.954
1042.423, 2223.357
1043.529, 2176.199
1044.635, 2220.344
1045.740, 2134.745
1046.845, 2048.555
1047.951, 2096.531
1049.056, 2023.992
1050.160, 2078.618
1051.265, 1920.441
1052.370, 1945.836
1053.474, 1817.229
1054.578, 1804.818
1055.682, 1579.209
1056.786, 1622.841
1057.890, 1462.824
1058.993, 1587.500
1060.097, 1659.117
1061.200, 1552.438
1062.303, 1786.814
1063.406, 1494.193
1064.509, 1464.889
1065.612, 1439.975
1066.714, 1533.584
1067.816, 1401.617
1068.919, 1507.004
1070.021, 1522.389
1071.122, 1280.797
1072.224, 1317.076
1073.326, 1056.451
1074.427, 1125.850
1075.528, 1135.562
1076.629, 1084.021
1077.730, 1004.658
1078.831, 1113.416
1079.931, 892.1289
1081.032, 846.9336
1082.132, 1063.338
1083.232, 813.9609
1084.332, 858.3633
1085.432, 737.3535
1086.531, 757.7578
1087.631, 703.1816
1088.730, 773.6094
1089.829, 743.3125
1090.928, 716.7480
1092.027, 515.4863
1093.126, 491.1699
1094.224, 505.8359
1095.323, 527.3047
1096.421, 415.7656
1097.519, 359.2910
1098.617, 435.9688
1099.715, 142.4551
1100.812, 241.9668
1101.910, 296.6289
1103.007, 89.14648
1104.104, 207.6621
1105.201, 355.1738
1106.298, 79.83594
1107.394, 122.4043
1108.491, 199.9336
1109.587, 194.7266
1110.683, 66.27734
1111.779, 91.82422
1112.875, 162.3672
1113.971, 87.91992
1115.066, 187.5703
1116.162, 104.1445
1117.257, 60.71680
1118.352, 355.3047
1119.447, 283.8672
1120.542, 196.4238
1121.636, 402.9746
1122.731, 240.9531
1123.825, 389.0703
1124.919, 178.6113
1126.013, 182.1465
1127.107, 315.3379
1128.200, 222.8789
1129.294, 177.5547
1130.387, 269.0840
1131.480, 188.6074
1132.573, 89.12695
1133.666, 93.64258
1134.759, 233.1504
1135.851, 28.65430
1136.944, 164.2441
1138.036, 245.7344
1139.128, 162.2578
1140.220, 276.7363
1141.312, 304.2422
1142.403, 244.8594
1143.495, 262.3223
1144.586, 311.8789
1145.677, 186.3281
1146.768, 57.78320
1147.859, 41.22266
1148.950, 173.6562
1150.040, 31.91797
1151.130, 34.48242
1152.221, 63.87695
1153.311, 74.73828
1154.401, 198.4004
1155.490, 18.83008
1156.580, 152.0527
1157.669, 111.4023
1158.759, 22.38867
1159.848, 36.20117
1160.937, 123.9531
1162.025, 138.8984
1163.114, 11.16406
1164.202, 10.21680
1165.291, 12.73828
1166.379, 88.28516
1167.467, 31.30273
1168.555, 23.31055
1169.642, 51.31250
1170.730, 51.30469
1171.817, 85.29102
1172.905, 100.2754
1173.992, 122.0859
1175.078, 43.21094
1176.165, 129.1680
1177.252, 5.117188
1178.338, 93.94531
1179.425, 72.93164
1180.511, 33.79688
1181.597, 59.34570
1182.682, 123.4648
1183.768, 169.2695
1184.854, 42.06836
1185.939, 280.8555
1187.024, 31.63672
1188.109, 29.58984
1189.194, 21.15625
1190.279, 34.88867
1191.363, 130.3848
1192.448, 182.2578
1193.532, 156.8906
1194.616, 104.4531
1195.700, 1.105469
1196.784, 38.65039
1197.867, 61.81641
1198.951, 161.6680
1200.034, 192.1484
1201.117, 85.61914
1202.200, 65.91602
1203.283, 222.4980
1204.366, 86.90430
1205.448, 13.30469
1206.531, 73.69531
1207.613, 30.07617
1208.695, 7.460938
1209.777, 10.83008
1210.859, 26.80859
1211.940, 229.5254
1213.022, 39.85156
1214.103, 220.1680
1215.184, 2.478516
1216.265, 214.7715
1217.346, 89.06055
1218.427, 212.3418
1219.507, 40.38672
1220.587, 109.8496
1221.668, 21.08008
1222.748, 34.30078
1223.828, 40.52148
1224.907, 157.7383
1225.987, 198.9531
1227.066, 85.16406
1228.146, 47.36523
1229.225, 266.5664
1230.304, 179.7617
1231.382, 58.94727
1232.461, 231.1289
1233.540, 101.3008
1234.618, 116.4648
1235.696, 55.62109
1236.774, 83.77148
1237.852, 126.9121
1238.930, 35.04492
1240.007, 153.1680
1241.085, 173.2832
1242.162, 130.3926
1243.239, 207.5039
1244.316, 74.58789
1245.393, 230.7129
1246.469, 155.8301
1247.546, 86.93750
1248.622, 266.0391
1249.698, 218.9043
1250.774, 250.8223
1251.850, 326.3008
1252.926, 220.3730
1254.001, 279.4355
1255.077, 150.4922
1256.152, 0.4609380
1257.227, 117.5723
1258.302, 58.59766
1259.377, 243.6152
1260.451, 144.6270
1261.526, 251.6309
1262.600, 164.6426
1263.674, 382.6465
1264.748, 378.6465
1265.822, 69.47070
1266.896, 173.4531
1267.969, 82.86914
1269.043, 188.3945
1270.116, 84.35547
1271.189, 56.30664
1272.262, 109.2500
1273.335, 68.05469
1274.407, 104.0078
1275.480, 90.03906
1276.552, 155.8809
1277.624, 165.0449
1278.696, 189.5918
1279.768, 340.4395
1280.840, 124.1445
1281.911, 227.9648
1282.982, 176.7129
1284.054, 304.6777
1285.125, 157.2812
1286.196, 42.16992
1287.266, 131.1230
1288.337, 155.9434
1289.407, 179.0020
1290.478, 302.8262
1291.548, 291.3906
1292.618, 293.9043
1293.688, 170.4082
1294.757, 142.8418
1295.827, 250.6406
1296.896, 97.21289
1297.965, 184.7441
1299.034, 342.3848
1300.103, 113.0215
1301.172, 57.79492
1302.241, 188.5605
1303.309, 360.3789
1304.377, 232.9531
1305.445, 229.6992
1306.513, 184.0312
1307.581, 256.1914
1308.649, 162.8574
1309.716, 363.3555
1310.784, 308.6465
1311.851, 387.6504
1312.918, 397.6309
1313.985, 417.5762
1315.052, 396.2832
1316.118, 173.9531
1317.185, 229.1055
1318.251, 234.6641
1319.317, 277.2695
1320.383, 280.0176
1321.449, 68.68750
1322.514, 33.35938
1323.580, 194.7090
1324.645, 323.6797
1325.711, 124.1230
1326.776, 244.1406
1327.840, 230.8047
1328.905, 111.4648
1329.970, 263.0996
1331.034, 148.8574
1332.099, 132.5176
1333.163, 325.1543
1334.227, 35.48242
1335.290, 350.0645
1336.354, 318.4863
1337.418, 179.7656
1338.481, 281.0918
1339.544, 198.8066
1340.607, 181.4668
1341.670, 257.0410
1342.733, 360.7031
1343.795, 383.7754
1344.858, 420.4355
1345.920, 451.0840
1346.982, 303.7480
1348.044, 374.1445
1349.106, 474.8086
1350.168, 345.2500
1351.229, 184.6367
1352.291, 344.5117
1353.352, 496.9004
1354.413, 206.6777
1355.474, 304.6309
1356.534, 455.9141
1357.595, 280.0254
1358.656, 424.6973
1359.716, 258.5996
1360.776, 306.2773
1361.836, 424.9551
1362.896, 146.0020
1363.955, 176.5273
1365.015, 256.1738
1366.074, 423.8555
1367.134, 238.3008
1368.193, 282.9863
1369.252, 329.0742
1370.310, 240.7656
1371.369, 234.4551
1372.427, 191.1211
1373.486, 325.9297
1374.544, 363.6309
1375.602, 460.7715
1376.660, 461.8477
1377.717, 218.1895
1378.775, 387.9023
1379.832, 372.6172
1380.889, 237.4590
1381.946, 343.1816
1383.003, 268.9062
1384.060, 244.9883
1385.117, 430.7188
1386.173, 262.3164
1387.230, 311.8789
1388.286, 253.8242
