##NAMES=Annite
##RRUFFID=R060211
##IDEAL CHEMISTRY=KFe^2+^_3_AlSi_3_O_10_(OH)_2_
##LOCALITY=Mont Saint-Hilaire, Rouville County, Quebec, Canada
##OWNER=RRUFF
##SOURCE=Royal Ontario Museum
##DESCRIPTION=Black mica
##STATUS=The identification of this mineral has been confirmed by X-ray diffraction and chemical analysis
##URL=rruff.info/R060211
##MEASURED CHEMISTRY=(K_0.94_[box]_0.03_Na_0.02_)_Σ=1_(Fe^2+^_2.07_Mg_0.57_Mn_0.33_Ti_0.03_)_Σ=3_(Si_2.98_Al_1.02_)O_10_((OH)_1.72_F_0.28_)_Σ=2_
##PIN_ID=M00144
##ORIENTATION=Laser parallel to (-1 0 -1). Fiducial mark perpendicular to laser is parallel to -b [0 -1 0]
307.1510, 0.0000000E+00
308.3580, 85.16016
309.5660, 34.75195
310.7730, 48.44922
311.9800, 106.3242
313.1870, 174.8828
314.3940, 36.84180
315.6010, 117.8633
316.8070, 233.6602
318.0130, 47.91211
319.2200, 95.87500
320.4260, 348.7559
321.6310, 838.4961
322.8370, 151.9102
324.0430, 560.9766
325.2480, 522.0176
326.4540, 407.1035
327.6590, 357.9492
328.8640, 317.3184
330.0680, 585.0430
331.2730, 357.0020
332.4780, 356.1074
333.6820, 188.2969
334.8860, 475.5234
336.0900, 445.7520
337.2940, 552.9531
338.4980, 554.1172
339.7010, 587.8828
340.9050, 721.1699
342.1080, 660.4531
343.3110, 708.3711
344.5140, 716.7070
345.7170, 737.8984
346.9200, 958.6133
348.1220, 833.2520
349.3240, 884.4141
350.5270, 974.1484
351.7290, 767.4941
352.9310, 1001.480
354.1320, 909.1445
355.3340, 813.5117
356.5350, 909.6113
357.7370, 782.4609
358.9380, 673.0801
360.1390, 895.4883
361.3400, 928.7012
362.5400, 964.7305
363.7410, 691.5879
364.9410, 666.2871
366.1410, 656.8320
367.3410, 686.2422
368.5410, 817.5215
369.7410, 815.6777
370.9400, 799.9082
372.1400, 798.8105
373.3390, 783.7695
374.5380, 719.3789
375.7370, 748.5332
376.9360, 841.8164
378.1350, 767.0527
379.3330, 867.6250
380.5310, 908.7500
381.7300, 1050.707
382.9280, 1091.715
384.1260, 1100.801
385.3230, 1186.676
386.5210, 1279.459
387.7180, 1232.299
388.9160, 1243.221
390.1130, 1454.518
391.3100, 1590.584
392.5060, 1655.420
393.7030, 1435.785
394.9000, 1583.654
396.0960, 1584.266
397.2920, 1443.820
398.4880, 1408.086
399.6840, 1559.385
400.8800, 1466.717
402.0750, 1357.092
403.2710, 1496.479
404.4660, 1560.637
405.6610, 1553.588
406.8560, 1261.996
408.0510, 1337.900
409.2450, 1266.578
410.4400, 1189.230
411.6340, 1228.994
412.8280, 972.5859
414.0220, 889.1875
415.2160, 802.7949
416.4100, 953.4023
417.6030, 1158.012
418.7970, 781.6191
419.9900, 767.2324
421.1830, 513.8477
422.3760, 788.4668
423.5690, 539.0898
424.7610, 557.7207
425.9540, 422.3594
427.1460, 528.0156
428.3380, 451.6855
429.5300, 396.3672
430.7220, 417.0703
431.9140, 332.7910
433.1050, 164.5312
434.2970, 59.70312
435.4880, 18.91211
436.6790, 168.9004
437.8700, 30.74414
439.0610, 103.3867
440.2510, 30.48828
441.4420, 238.5625
442.6320, 81.63477
443.8220, 78.73828
445.0120, 20.85547
446.2020, 154.2754
447.3910, 182.6641
448.5810, 15.82812
449.7700, 156.0176
450.9600, 28.17188
452.1490, 7.730469
453.3370, 40.30078
454.5260, 59.91016
455.7150, 53.27734
456.9030, 96.60547
458.0910, 89.04688
459.2800, 150.0215
460.4670, 144.0469
461.6550, 110.6934
462.8430, 201.1387
464.0300, 284.6738
465.2180, 343.0977
466.4050, 513.2852
467.5920, 590.4922
468.7790, 613.7188
469.9650, 757.8145
471.1520, 822.1992
472.3380, 894.4492
473.5250, 882.7012
474.7110, 798.9570
475.8970, 784.2148
477.0820, 959.4727
478.2680, 1075.732
479.4540, 1129.713
480.6390, 1346.256
481.8240, 1312.518
483.0090, 1222.779
484.1940, 1348.031
485.3780, 1504.266
486.5630, 1459.455
487.7470, 1512.660
488.9320, 1597.816
490.1160, 1641.303
491.3000, 1661.520
492.4830, 1704.172
493.6670, 1677.256
494.8500, 1773.330
496.0340, 1791.389
497.2170, 1805.438
498.4000, 1911.475
499.5820, 1923.504
500.7650, 2084.527
501.9480, 1853.543
503.1300, 2027.555
504.3120, 1871.561
505.4940, 2012.752
506.6760, 1887.562
507.8580, 2295.562
509.0390, 2150.559
510.2210, 2230.555
511.4020, 2242.549
512.5830, 2252.703
513.7640, 2473.479
514.9450, 2373.385
516.1250, 2447.207
517.3060, 2548.842
518.4860, 2749.363
519.6660, 2661.762
520.8460, 2531.033
522.0260, 2675.514
523.2060, 2829.281
524.3850, 2862.391
525.5650, 2897.510
526.7440, 3123.645
527.9230, 2901.793
529.1020, 3181.959
530.2810, 3241.139
531.4590, 3138.334
532.6380, 3249.373
533.8160, 3061.770
534.9940, 3167.023
536.1720, 3155.314
537.3500, 3006.639
538.5270, 3146.000
539.7050, 2901.420
540.8820, 2850.879
542.0590, 2990.408
543.2360, 2874.014
544.4130, 3144.672
545.5900, 2847.391
546.7660, 2805.162
547.9430, 2375.979
549.1190, 2444.830
550.2950, 2306.734
551.4710, 2456.688
552.6470, 2115.691
553.8220, 1918.732
554.9980, 1983.838
556.1730, 2090.994
557.3480, 1826.588
558.5230, 1837.588
559.6980, 1429.859
560.8730, 1539.240
562.0470, 1387.672
563.2220, 1131.188
564.3960, 1398.723
565.5700, 1073.699
566.7440, 1526.934
567.9170, 740.6289
569.0910, 1052.617
570.2640, 962.0586
571.4380, 921.8242
572.6110, 631.5996
573.7840, 487.3887
574.9570, 432.1875
576.1290, 285.0957
577.3020, 372.6289
578.4740, 384.4590
579.6460, 203.6680
580.8180, 119.0898
581.9900, 290.1504
583.1620, 43.78711
584.3330, 25.17578
585.5040, 312.3926
586.6760, 90.30664
587.8470, 161.1641
589.0180, 63.61719
590.1880, 139.9707
591.3590, 16.33789
592.5290, 169.2812
593.7000, 42.24805
594.8700, 40.71094
596.0400, 134.8926
597.2090, 112.3652
598.3790, 32.85742
599.5490, 36.32617
600.7180, 287.9941
601.8870, 14.33594
603.0560, 291.2715
604.2250, 247.9590
605.3940, 203.6523
606.5620, 260.3457
607.7300, 440.0430
608.8990, 384.7402
610.0670, 359.4395
611.2350, 513.7402
612.4020, 466.8438
613.5700, 662.5469
614.7370, 435.2520
615.9050, 312.9590
617.0720, 496.6660
618.2390, 613.3711
619.4060, 548.0820
620.5720, 909.7910
621.7390, 682.5000
622.9050, 527.2090
624.0710, 541.9219
625.2370, 791.6289
626.4030, 703.3398
627.5690, 715.0527
628.7340, 723.7637
629.9000, 693.4727
631.0650, 855.1836
632.2300, 989.8945
633.3950, 1176.605
634.5600, 1166.316
635.7240, 1322.287
636.8890, 1340.879
638.0530, 1567.449
639.2170, 1362.158
640.3810, 1570.871
641.5450, 1565.582
642.7080, 1656.293
643.8720, 1977.002
645.0350, 2062.711
646.1980, 2401.418
647.3610, 2355.127
648.5240, 2678.832
649.6870, 2852.539
650.8490, 3363.242
652.0120, 3393.945
653.1740, 3942.646
654.3360, 4164.348
655.4980, 4458.047
656.6600, 4875.748
657.8210, 5187.445
658.9830, 5647.145
660.1440, 6128.844
661.3050, 6373.545
662.4660, 6510.246
663.6270, 6944.951
664.7870, 7371.658
665.9480, 7568.367
667.1080, 7441.078
668.2680, 7394.787
669.4280, 7351.500
670.5880, 7208.311
671.7480, 6956.588
672.9070, 6675.588
674.0670, 6378.758
675.2260, 6172.998
676.3850, 6637.484
677.5440, 6032.709
678.7030, 5767.904
679.8610, 5368.932
681.0200, 4905.199
682.1780, 4754.367
683.3360, 4778.859
684.4940, 4638.254
685.6520, 4575.748
686.8090, 4409.266
687.9670, 4406.070
689.1240, 4650.186
690.2810, 4837.908
691.4380, 4768.467
692.5950, 4352.748
693.7520, 4662.461
694.9080, 4755.471
696.0650, 4689.043
697.2210, 4932.609
698.3770, 4879.588
699.5330, 4899.781
700.6880, 5285.092
701.8440, 5655.777
702.9990, 5312.736
704.1550, 5526.348
705.3100, 5541.895
706.4650, 5318.141
707.6190, 5620.162
708.7740, 5818.889
709.9290, 5808.219
711.0830, 5677.191
712.2370, 5685.137
713.3910, 5526.082
714.5450, 5480.391
715.6980, 5632.219
716.8520, 5517.699
718.0050, 5752.816
719.1580, 5436.086
720.3110, 5138.369
721.4640, 4951.652
722.6170, 5006.262
723.7700, 4694.551
724.9220, 4775.143
726.0740, 4329.482
727.2260, 4530.623
728.3780, 4282.023
729.5300, 4297.930
730.6810, 4054.066
731.8330, 4085.561
732.9840, 4167.957
734.1350, 3943.367
735.2860, 3876.156
736.4370, 3938.525
737.5880, 3886.873
738.7380, 4148.203
739.8880, 3940.508
741.0390, 4171.551
742.1890, 4128.814
743.3380, 4324.055
744.4880, 4237.275
745.6380, 4065.471
746.7870, 4309.648
747.9360, 4472.801
749.0850, 4442.930
750.2340, 4571.041
751.3830, 4507.125
752.5310, 4530.191
753.6800, 4859.232
754.8280, 4795.229
755.9760, 4807.246
757.1240, 4924.219
758.2720, 4897.172
759.4190, 4942.100
760.5670, 4905.006
761.7140, 4762.268
762.8610, 4814.887
764.0080, 4792.213
765.1550, 4698.289
766.3020, 4319.764
767.4480, 4308.785
768.5950, 4150.418
769.7410, 3986.090
770.8870, 4026.760
772.0330, 3689.605
773.1780, 3727.086
774.3240, 3614.924
775.4690, 3571.260
776.6140, 3379.402
777.7590, 3233.291
778.9040, 3235.367
780.0490, 3155.357
781.1940, 2946.357
782.3380, 2907.000
783.4820, 2564.631
784.6260, 2488.119
785.7700, 2526.295
786.9140, 2324.725
788.0580, 2287.963
789.2010, 2188.498
790.3450, 1803.596
791.4880, 1727.695
792.6310, 1553.949
793.7730, 1286.178
794.9160, 1208.383
796.0590, 1066.568
797.2010, 1009.727
798.3430, 919.8438
799.4850, 824.4375
800.6270, 806.0684
801.7690, 615.1348
802.9100, 618.1797
804.0520, 433.1992
805.1930, 262.1973
806.3340, 310.1719
807.4750, 214.1250
808.6160, 102.0508
809.7560, 168.9492
810.8970, 11.82422
812.0370, 37.34961
813.1770, 9.599609
814.3170, 33.91211
815.4570, 104.2949
816.5960, 50.79102
817.7360, 150.3672
818.8750, 181.0762
820.0140, 106.9336
821.1530, 105.9043
822.2920, 107.9883
823.4310, 61.17773
824.5690, 34.45508
825.7070, 103.8047
826.8460, 82.25977
827.9840, 85.81250
829.1220, 55.46094
830.2590, 148.1914
831.3970, 90.05078
832.5340, 84.00586
833.6710, 276.0605
834.8080, 140.3066
835.9450, 15.32227
837.0820, 100.0898
838.2190, 234.6016
839.3550, 15.71680
840.4910, 2.994141
841.6270, 284.0605
842.7630, 73.50000
843.8990, 61.69531
845.0350, 125.6465
846.1700, 95.05664
847.3060, 51.66797
848.4410, 51.04883
849.5760, 44.38281
850.7100, 242.6621
851.8450, 63.16406
852.9800, 258.1914
854.1140, 303.6523
855.2480, 417.5117
856.3820, 383.1953
857.5160, 253.2012
858.6500, 158.8105
859.7830, 13.59180
860.9170, 106.9688
862.0500, 301.5059
863.1830, 435.0273
864.3160, 474.5703
865.4480, 940.0938
866.5810, 449.6289
867.7130, 464.1523
868.8460, 440.6914
869.9780, 871.2188
871.1100, 646.7285
872.2410, 683.2500
873.3730, 802.7539
874.5050, 882.2402
875.6360, 774.7129
876.7670, 774.1660
877.8980, 679.6094
879.0290, 989.0332
880.1590, 751.4453
881.2900, 1026.842
882.4200, 1036.221
883.5500, 1030.588
884.6800, 1102.941
885.8100, 955.2773
886.9400, 920.5996
888.0690, 918.9102
889.1990, 887.8789
890.3280, 943.0020
891.4570, 990.7656
892.5860, 1024.025
893.7140, 1214.275
894.8430, 1171.512
895.9710, 1261.736
897.1000, 1107.947
898.2280, 1333.148
899.3560, 1215.375
900.4830, 1469.588
901.6110, 1324.787
902.7380, 1555.979
903.8660, 1421.160
904.9930, 1500.330
906.1200, 1532.488
907.2460, 1481.635
908.3730, 1574.771
909.5000, 1503.900
910.6260, 1594.018
911.7520, 1555.125
912.8780, 1464.227
914.0040, 1765.320
915.1290, 1724.402
916.2550, 1843.480
917.3800, 1726.545
918.5050, 1755.609
919.6300, 2116.672
920.7550, 1841.729
921.8800, 2069.789
923.0040, 2068.023
924.1290, 1971.889
925.2530, 2047.928
926.3770, 2076.984
927.5010, 1996.039
928.6250, 2199.096
929.7480, 2085.148
930.8720, 1988.250
931.9950, 2247.346
933.1180, 2356.436
934.2410, 2228.521
935.3640, 2158.645
936.4860, 2283.828
937.6090, 2337.006
938.7310, 2310.020
939.8530, 2409.258
940.9750, 2393.545
942.0970, 2347.715
943.2180, 2367.902
944.3400, 2232.379
945.4610, 2267.252
946.5820, 2338.949
947.7030, 2183.576
948.8240, 2158.949
949.9450, 2241.807
951.0650, 2157.258
952.1860, 2077.084
953.3060, 2032.676
954.4260, 1974.361
955.5460, 2097.723
956.6650, 1744.637
957.7850, 1883.920
958.9040, 1950.949
960.0230, 1948.459
961.1420, 1657.078
962.2610, 1734.588
963.3800, 1664.641
964.4990, 1590.613
965.6170, 1715.855
966.7350, 1466.990
967.8530, 1593.111
968.9710, 1557.730
970.0890, 1636.406
971.2070, 1292.104
972.3240, 1533.680
973.4410, 1602.893
974.5580, 1532.824
975.6750, 1314.102
976.7920, 1511.439
977.9090, 1393.094
979.0250, 1570.967
980.1410, 1546.137
981.2580, 1591.969
982.3740, 1766.629
983.4890, 1689.586
984.6050, 1604.584
985.7200, 1598.393
986.8360, 1566.453
987.9510, 1700.225
989.0660, 1721.018
990.1810, 1916.850
991.2950, 1757.709
992.4100, 1936.586
993.5240, 2038.455
994.6390, 1692.441
995.7530, 1798.156
996.8660, 1915.137
997.9800, 2149.139
999.0940, 2282.160
1000.207, 2155.203
1001.320, 2364.270
1002.433, 2572.355
1003.546, 2472.793
1004.659, 2684.100
1005.772, 2559.742
1006.884, 2710.918
1007.996, 3071.111
1009.108, 2746.336
1010.220, 3024.578
1011.332, 3115.105
1012.444, 2971.398
1013.555, 3159.193
1014.666, 3271.732
1015.777, 3313.064
1016.888, 3069.840
1017.999, 3194.111
1019.110, 3171.143
1020.220, 3142.141
1021.331, 3036.758
1022.441, 2962.586
1023.551, 2741.139
1024.661, 2895.209
1025.770, 2587.812
1026.880, 2929.871
1027.989, 2546.537
1029.098, 2381.227
1030.207, 2425.936
1031.316, 2681.664
1032.425, 2526.859
1033.533, 2598.432
1034.642, 2391.104
1035.750, 2508.916
1036.858, 2339.752
1037.966, 2247.604
1039.073, 2217.480
1040.181, 2222.375
1041.288, 2127.293
1042.396, 2117.229
1043.503, 1949.188
1044.610, 2099.164
1045.716, 2216.682
1046.823, 1916.703
1047.929, 2021.742
1049.036, 2130.805
1050.142, 2179.887
1051.248, 2256.502
1052.353, 2021.992
1053.459, 2013.031
1054.564, 1969.578
1055.670, 1977.762
1056.775, 2002.055
1057.880, 2035.367
1058.985, 2177.750
1060.089, 2160.334
1061.194, 2068.424
1062.298, 1786.729
1063.402, 1887.041
1064.506, 2016.381
1065.610, 1858.932
1066.713, 1954.312
1067.817, 1990.764
1068.920, 1897.344
1070.023, 1925.777
1071.126, 1768.408
1072.229, 1680.889
1073.332, 1732.533
1074.435, 1689.992
1075.537, 1834.393
1076.639, 1710.930
1077.741, 1784.482
1078.843, 1677.059
1079.945, 1315.662
1081.046, 1266.311
1082.148, 1278.248
1083.249, 1193.775
1084.350, 1121.861
1085.451, 940.9668
1086.551, 1032.115
1087.652, 1087.107
1088.752, 787.4766
1089.853, 958.7148
1090.953, 1005.594
1092.053, 907.8320
1093.152, 983.8672
1094.252, 869.1484
1095.351, 975.7480
1096.451, 865.1836
1097.550, 824.1445
1098.649, 645.9004
1099.748, 646.8535
1100.846, 793.7305
1101.945, 620.8555
1103.043, 615.3262
1104.141, 443.6777
1105.239, 531.0703
1106.337, 945.0566
1107.434, 604.0625
1108.532, 695.0938
1109.629, 621.7695
1110.726, 489.9453
1111.823, 352.1348
1112.920, 428.5410
1114.017, 543.8848
1115.113, 542.6758
1116.210, 431.7363
1117.306, 553.6562
1118.402, 491.8965
1119.498, 333.1152
1120.593, 548.7246
1121.689, 479.0547
1122.784, 666.6445
1123.879, 353.2910
1124.974, 371.3945
1126.069, 398.9238
1127.164, 379.4551
1128.259, 203.0078
1129.353, 366.4316
1130.447, 494.3145
1131.541, 156.0996
1132.635, 297.3770
1133.729, 348.7676
1134.822, 287.1641
1135.916, 349.5645
1137.009, 251.2676
1138.102, 364.9199
1139.195, 290.7871
1140.288, 260.9531
1141.380, 119.4492
1142.473, 20.61914
1143.565, 55.24023
1144.657, 324.1191
1145.749, 379.7363
1146.841, 185.8496
1147.932, 33.11523
1149.024, 336.7988
1150.115, 239.3711
1151.206, 216.5938
1152.297, 126.3105
1153.388, 21.79102
1154.479, 207.6406
1155.569, 31.39062
1156.659, 86.75977
1157.750, 26.78516
1158.839, 210.6055
1159.929, 127.5273
1161.019, 84.90820
1162.108, 277.2891
1163.198, 177.3320
1164.287, 306.9688
1165.376, 326.2656
1166.465, 77.55859
1167.553, 169.0371
1168.642, 168.3203
1169.730, 156.5977
1170.818, 135.8984
1171.906, 77.16797
1172.994, 70.42773
1174.082, 29.38281
1175.170, 35.87109
1176.257, 20.82617
1177.344, 51.40234
1178.431, 65.62305
1179.518, 51.83594
1180.605, 98.22070
1181.691, 42.58398
1182.778, 11.11523
1183.864, 26.23438
1184.950, 57.08594
1186.036, 38.02930
1187.122, 10.13672
1188.207, 13.23438
1189.292, 97.67773
1190.378, 30.64844
1191.463, 39.56836
1192.548, 65.41016
1193.632, 217.6211
1194.717, 108.2246
1195.801, 8.058594
1196.886, 137.8770
1197.970, 165.9355
1199.054, 246.2266
1200.137, 100.3555
1201.221, 37.10547
1202.305, 66.18750
1203.388, 90.94531
1204.471, 143.4434
1205.554, 102.0059
1206.637, 146.4785
1207.719, 157.4863
1208.802, 140.3828
1209.884, 143.3145
1210.966, 149.2070
1212.048, 33.16797
1213.130, 1.445313
1214.212, 27.80664
1215.293, 35.93945
1216.374, 45.26562
1217.456, 137.6934
1218.536, 30.98438
1219.617, 78.25391
1220.698, 105.4941
1221.778, 108.6699
1222.859, 7.138672
1223.939, 42.74414
1225.019, 72.51367
1226.099, 169.5547
1227.178, 68.57422
1228.258, 25.57227
1229.337, 48.15625
1230.417, 9.361328
1231.496, 52.07812
1232.574, 3.966797
1233.653, 30.81641
1234.732, 8.644531
1235.810, 301.4355
1236.888, 161.4961
1237.966, 290.4512
1239.044, 20.50781
1240.122, 238.2148
1241.199, 181.9844
1242.277, 111.3574
1243.354, 9.730469
1244.431, 46.79883
1245.508, 98.70312
1246.585, 111.3066
1247.661, 64.01953
1248.738, 101.9863
1249.814, 103.2832
1250.890, 34.65039
1251.966, 31.34766
1253.042, 104.3066
1254.117, 12.76562
1255.193, 138.1035
1256.268, 37.94336
1257.343, 140.7441
1258.418, 174.5176
1259.493, 72.25977
1260.567, 92.97070
1261.642, 52.07031
1262.716, 212.9043
1263.790, 298.9805
1264.864, 313.2617
1265.938, 42.93164
1267.011, 140.0293
1268.085, 89.83008
1269.158, 33.67969
1270.231, 182.3906
1271.304, 46.72852
1272.377, 98.72852
1273.450, 94.53320
1274.522, 158.7441
1275.594, 74.74414
1276.666, 36.46875
1277.738, 146.3789
1278.810, 174.1875
1279.882, 72.99414
1280.953, 141.3340
1282.025, 6.603516
1283.096, 210.2500
1284.167, 93.16016
1285.238, 79.54297
1286.308, 17.62109
1287.379, 329.7988
1288.449, 99.53516
1289.519, 366.2363
1290.589, 391.5000
1291.659, 314.1426
1292.729, 477.6328
1293.798, 442.2188
1294.868, 310.9746
1295.937, 172.7500
1297.006, 229.2461
1298.075, 341.7148
1299.143, 214.2441
1300.212, 382.8496
1301.280, 476.1289
1302.348, 498.1582
1303.416, 235.5801
1304.484, 340.4395
1305.552, 297.4922
1306.620, 248.9941
1307.687, 405.4766
1308.754, 184.1406
1309.821, 337.3125
1310.888, 340.7422
1311.955, 412.4102
1313.021, 335.3242
1314.088, 302.5137
1315.154, 420.2578
1316.220, 455.8184
1317.286, 362.3789
1318.352, 433.4395
1319.417, 205.3008
1320.483, 242.5273
1321.548, 396.4238
1322.613, 297.3750
1323.678, 376.1309
1324.743, 391.8926
1325.807, 122.4902
1326.872, 287.4648
1327.936, 186.8535
1329.000, 337.4785
1330.064, 322.8945
1331.128, 325.4414
1332.191, 212.4102
1333.255, 171.9160
1334.318, 358.3887
1335.381, 226.8379
1336.444, 393.2578
1337.507, 77.62891
1338.569, 80.97266
1339.632, 24.28711
1340.694, 326.3066
1341.756, 59.75000
1342.818, 252.6699
1343.880, 211.5820
1344.941, 162.4961
1346.003, 326.8105
1347.064, 264.0391
1348.125, 425.3379
1349.186, 330.6699
1350.247, 107.3945
1351.308, 231.8789
1352.368, 28.11719
1353.428, 234.5898
1354.489, 435.4902
1355.549, 384.1738
1356.608, 225.5820
1357.668, 3.949219
1358.727, 438.9180
1359.787, 211.3184
1360.846, 284.4082
1361.905, 218.5723
1362.964, 183.7715
1364.022, 108.4414
1365.081, 126.5898
1366.139, 100.7109
1367.197, 160.7695
1368.255, 142.3457
1369.313, 152.5703
1370.371, 320.2246
1371.428, 270.6367
1372.486, 304.5898
1373.543, 371.2637
1374.600, 348.0742
1375.657, 270.7832
1376.713, 268.0410
1377.770, 266.6191
1378.826, 196.4805
1379.882, 303.5527
1380.938, 268.5547
1381.994, 301.0820
1383.050, 161.1758
1384.106, 201.6191
1385.161, 169.3203
1386.216, 214.4902
1387.271, 322.1875
1388.326, 361.9668
1389.381, 212.2441
1390.435, 14.38867
1391.490, 131.5137
1392.544, 170.6230
1393.598, 236.4121
1394.652, 155.2461
1395.705, 96.84766
1396.759, 209.1367
1397.812, 442.0820
1398.866, 33.58203
1399.919, 237.1406
1400.972, 712.8125
1402.024, 326.7148
1403.077, 238.9766
1404.129, 185.0703
1405.181, 325.7207
1406.233, 352.4668
1407.285, 334.3730
1408.337, 377.1270
1409.389, 305.6484
1410.440, 173.4805
1411.491, 161.7598
1412.542, 248.8438
1413.593, 86.91211
1414.644, 137.7266
1415.695, 296.0000
1416.745, 3.203125
1417.795, 233.6973
1418.845, 341.4707
1419.895, 179.2773
1420.945, 51.09766
1421.995, 38.88477
1423.044, 286.8906
1424.093, 159.6621
1425.142, 361.3730
1426.191, 149.0469
1427.240, 198.7422
1428.289, 246.4316
1429.337, 158.1094
1430.385, 182.7812
1431.433, 319.4336
1432.481, 132.0859
1433.529, 172.9844
1434.577, 604.4258
1435.624, 196.8496
1436.672, 18.55664
1437.719, 262.0352
1438.766, 92.62305
1439.812, 257.7871
1440.859, 190.3770
1441.905, 363.9668
1442.952, 304.7480
1443.998, 536.2617
1445.044, 187.8887
1446.090, 151.9785
1447.135, 42.48828
1448.181, 132.1211
1449.226, 219.7715
1450.271, 252.0371
1451.316, 300.8164
1452.361, 342.5938
1453.405, 277.2500
1454.450, 219.9512
1455.494, 297.0820
