##NAMES=Annite
##RRUFFID=R060204
##IDEAL CHEMISTRY=KFe^2+^_3_AlSi_3_O_10_(OH)_2_
##LOCALITY=Mont Saint-Hilaire, Rouville County, Quebec, Canada
##OWNER=RRUFF
##SOURCE=Royal Ontario Museum
##DESCRIPTION=Black mica with pseudohexagonal outines
##STATUS=The identification of this mineral has been confirmed by X-ray diffraction and chemical analysis
##URL=rruff.info/R060204
##MEASURED CHEMISTRY=(K_0.96_Na_0.04_)_Σ=1_(Fe^2+^_2.04_Mg_0.81_Mn_0.09_Ti_0.03_[box]_0.03_)_Σ=3_(Si_3.00_Al_1.00_)O_10_((OH)_1.54_F_0.46_)_Σ=2_
##PIN_ID=M00366
##ORIENTATION=Laser parallel to -b* (0 -1 0). Fiducial mark perpendicular to laser is parallel to c [0 0 1]
235.6330, 0.0000000E+00
236.8490, 1.9531000E-02
238.0660, 54.39258
239.2820, 34.90039
240.4980, 193.0391
241.7140, 140.0977
242.9300, 128.9316
244.1460, 16.40625
245.3610, 97.97070
246.5770, 178.2598
247.7920, 176.5723
249.0070, 32.64648
250.2220, 54.15625
251.4370, 224.8027
252.6510, 225.3594
253.8660, 343.7891
255.0800, 229.8379
256.2940, 425.3418
257.5080, 598.1914
258.7220, 791.8008
259.9360, 788.5078
261.1490, 830.3555
262.3630, 814.3789
263.5760, 716.8711
264.7890, 892.6426
266.0020, 798.6895
267.2150, 744.0352
268.4270, 848.7168
269.6400, 916.7539
270.8520, 799.1855
272.0640, 900.3633
273.2760, 949.5605
274.4880, 1209.076
275.7000, 1293.273
276.9120, 1118.771
278.1230, 1094.609
279.3340, 932.6367
280.5450, 775.2793
281.7560, 513.9688
282.9670, 647.3379
284.1780, 838.1797
285.3880, 556.5078
286.5980, 321.8379
287.8090, 661.1152
289.0190, 547.1172
290.2290, 562.8828
291.4380, 443.6562
292.6480, 623.7812
293.8570, 757.4082
295.0670, 939.6660
296.2760, 955.3145
297.4850, 1034.146
298.6930, 930.4004
299.9020, 774.3535
301.1110, 681.0215
302.3190, 633.4180
303.5270, 554.3672
304.7350, 362.4512
305.9430, 443.1133
307.1510, 278.5547
308.3580, 142.8418
309.5660, 97.11523
310.7730, 190.3691
311.9800, 1.406250
313.1870, 163.7539
314.3940, 279.8809
315.6010, 18.96680
316.8070, 199.0156
318.0130, 90.97070
319.2200, 19.99609
320.4260, 50.94141
321.6310, 189.8340
322.8370, 85.67969
324.0430, 0.5175780
325.2480, 128.2363
326.4540, 71.06055
327.6590, 21.10547
328.8640, 26.82031
330.0680, 54.59180
331.2730, 105.5078
332.4780, 42.81445
333.6820, 272.2383
334.8860, 145.6992
336.0900, 253.5117
337.2940, 236.0840
338.4980, 368.3359
339.7010, 245.1152
340.9050, 284.2148
342.1080, 175.8066
343.3110, 259.6426
344.5140, 501.5039
345.7170, 365.3203
346.9200, 544.0840
348.1220, 470.8184
349.3240, 548.4766
350.5270, 550.0195
351.7290, 616.5430
352.9310, 573.0156
354.1320, 643.7305
355.3340, 633.7285
356.5350, 749.0352
357.7370, 785.3145
358.9380, 838.5586
360.1390, 896.7734
361.3400, 912.9473
362.5400, 1002.662
363.7410, 960.1953
364.9410, 1141.295
366.1410, 1254.379
367.3410, 1281.453
368.5410, 1275.516
369.7410, 1755.568
370.9400, 1690.607
372.1400, 2040.643
373.3390, 1788.668
374.5380, 1989.688
375.7370, 2180.703
376.9360, 2259.715
378.1350, 2478.641
379.3330, 2858.725
380.5310, 2836.158
381.7300, 3204.771
382.9280, 3392.385
384.1260, 3636.707
385.3230, 3816.850
386.5210, 4014.953
387.7180, 4215.689
388.9160, 4249.910
390.1130, 4603.797
391.3100, 4676.688
392.5060, 4889.525
393.7030, 4891.473
394.9000, 4769.426
396.0960, 4753.098
397.2920, 4558.711
398.4880, 4389.270
399.6840, 3702.771
400.8800, 3587.209
402.0750, 3280.576
403.2710, 3102.873
404.4660, 2753.094
405.6610, 2349.240
406.8560, 2150.441
408.0510, 1895.330
409.2450, 1651.277
410.4400, 1530.158
411.6340, 1323.980
412.8280, 1160.750
414.0220, 807.4629
415.2160, 936.1289
416.4100, 681.7285
417.6030, 663.2598
418.7970, 277.6816
419.9900, 192.0195
421.1830, 182.1777
422.3760, 38.60938
423.5690, 148.5879
424.7610, 229.4316
425.9540, 209.5059
427.1460, 212.2793
428.3380, 115.3203
429.5300, 226.4082
430.7220, 346.1406
431.9140, 79.21289
433.1050, 174.1758
434.2970, 38.24805
435.4880, 132.3770
436.6790, 178.5840
437.8700, 90.88086
439.0610, 178.2363
440.2510, 1.322266
441.4420, 47.84570
442.6320, 144.6562
443.8220, 110.7734
445.0120, 31.18164
446.2020, 184.4336
447.3910, 110.1074
448.5810, 305.1504
449.7700, 321.4004
450.9600, 635.4941
452.1490, 639.6406
453.3370, 323.1523
454.5260, 614.8496
455.7150, 684.3145
456.9030, 712.8848
458.0910, 1072.932
459.2800, 1156.545
460.4670, 1660.240
461.6550, 1427.172
462.8430, 1861.586
464.0300, 2207.170
465.2180, 2563.805
466.4050, 2956.842
467.5920, 3483.578
468.7790, 4218.945
469.9650, 4811.314
471.1520, 5604.254
472.3380, 6345.408
473.5250, 7140.018
474.7110, 8210.137
475.8970, 9381.734
477.0820, 10165.80
478.2680, 11017.75
479.4540, 11425.34
480.6390, 11606.01
481.8240, 11575.26
483.0090, 11188.22
484.1940, 10481.46
485.3780, 9517.293
486.5630, 8790.152
487.7470, 8178.100
488.9320, 7400.547
490.1160, 6816.518
491.3000, 6050.463
492.4830, 5706.461
493.6670, 5035.477
494.8500, 4675.508
496.0340, 4496.549
497.2170, 4270.607
498.4000, 4142.180
499.5820, 4061.770
500.7650, 4004.875
501.9480, 3888.994
503.1300, 3861.812
504.3120, 3867.283
505.4940, 3935.453
506.6760, 4102.639
507.8580, 4045.842
509.0390, 4082.062
510.2210, 4001.297
511.4020, 4066.551
512.5830, 3817.824
513.7640, 3603.113
514.9450, 3631.420
516.1250, 3259.744
517.3060, 3262.086
518.4860, 3188.445
519.6660, 2927.393
520.8460, 2705.217
522.0260, 2523.633
523.2060, 2441.039
524.3850, 2231.445
525.5650, 2182.848
526.7440, 1968.254
527.9230, 1877.656
529.1020, 1862.064
530.2810, 1650.471
531.4590, 1603.889
532.6380, 1243.320
533.8160, 1182.787
534.9940, 1196.299
536.1720, 1064.188
537.3500, 1054.561
538.5270, 976.2695
539.7050, 989.0039
540.8820, 817.7656
542.0590, 968.5332
543.2360, 575.3301
544.4130, 801.1523
545.5900, 785.9980
546.7660, 622.8516
547.9430, 657.7207
549.1190, 646.7031
550.2950, 1061.475
551.4710, 789.3848
552.6470, 596.3301
553.8220, 816.2910
554.9980, 512.3379
556.1730, 610.3926
557.3480, 523.4551
558.5230, 375.5723
559.6980, 334.6973
560.8730, 354.5605
562.0470, 522.1035
563.2220, 278.6172
564.3960, 881.9805
565.5700, 723.4727
566.7440, 1074.385
567.9170, 574.2773
569.0910, 398.2246
570.2640, 521.3496
571.4380, 250.5801
572.6110, 280.3828
573.7840, 175.0234
574.9570, 195.7852
576.1290, 151.1660
577.3020, 231.7305
578.4740, 340.4844
579.6460, 263.8398
580.8180, 27.80664
581.9900, 122.1641
583.1620, 81.37305
584.3330, 33.21094
585.5040, 119.2168
586.6760, 109.8750
587.8470, 8.158203
589.0180, 202.2246
590.1880, 51.21484
591.3590, 273.2207
592.5290, 153.2500
593.7000, 211.2949
594.8700, 500.3809
596.0400, 362.4883
597.2090, 602.6309
598.3790, 643.7910
599.5490, 750.9668
600.7180, 1005.172
601.8870, 1018.443
603.0560, 918.7656
604.2250, 1165.121
605.3940, 1232.498
606.5620, 1487.896
607.7300, 1531.320
608.8990, 1726.787
610.0670, 1781.273
611.2350, 1862.805
612.4020, 2518.359
613.5700, 2494.951
614.7370, 2739.561
615.9050, 3305.188
617.0720, 3365.838
618.2390, 3674.504
619.4060, 3909.191
620.5720, 4459.896
621.7390, 4554.623
622.9050, 5079.367
624.0710, 5379.129
625.2370, 5947.914
626.4030, 6124.727
627.5690, 6429.562
628.7340, 6805.410
629.9000, 7284.273
631.0650, 7810.150
632.2300, 7951.037
633.3950, 8046.936
634.5600, 7859.842
635.7240, 8067.762
636.8890, 7730.686
638.0530, 7669.617
639.2170, 7648.557
640.3810, 7278.504
641.5450, 6704.457
642.7080, 6596.418
643.8720, 6307.383
645.0350, 6274.354
646.1980, 5894.330
647.3610, 5815.309
648.5240, 5649.291
649.6870, 5419.498
650.8490, 5391.488
652.0120, 5228.006
653.1740, 5459.002
654.3360, 5310.021
655.4980, 5552.020
656.6600, 5659.193
657.8210, 5666.227
658.9830, 5871.438
660.1440, 6043.771
661.3050, 6393.367
662.4660, 6573.102
663.6270, 6985.432
664.7870, 7399.420
665.9480, 7826.656
667.1080, 8155.723
668.2680, 8479.408
669.4280, 8937.719
670.5880, 9166.953
671.7480, 9590.059
672.9070, 9992.055
674.0670, 10307.50
675.2260, 10741.83
676.3850, 10998.13
677.5440, 11329.23
678.7030, 11297.34
679.8610, 11503.49
681.0200, 11768.42
682.1780, 11516.23
683.3360, 11303.13
684.4940, 11345.29
685.6520, 11277.50
686.8090, 11109.06
687.9670, 10538.48
689.1240, 10486.65
690.2810, 9844.561
691.4380, 9523.391
692.5950, 9410.844
693.7520, 8916.264
694.9080, 8223.281
696.0650, 7466.863
697.2210, 7084.619
698.3770, 6359.863
699.5330, 5696.166
700.6880, 5289.453
701.8440, 4717.318
702.9990, 4387.449
704.1550, 4058.830
705.3100, 3974.072
706.4650, 3591.838
707.6190, 3467.014
708.7740, 3214.977
709.9290, 3117.191
711.0830, 2955.264
712.2370, 2953.662
713.3910, 2736.945
714.5450, 2650.041
715.6980, 2649.588
716.8520, 2459.096
718.0050, 2167.344
719.1580, 2131.508
720.3110, 1924.643
721.4640, 2008.539
722.6170, 1916.904
723.7700, 1957.986
724.9220, 2045.062
726.0740, 1673.461
727.2260, 1719.525
728.3780, 1489.551
729.5300, 1449.625
730.6810, 1375.576
731.8330, 1179.814
732.9840, 1163.471
734.1350, 1122.709
735.2860, 851.8691
736.4370, 944.1055
737.5880, 967.7559
738.7380, 832.7930
739.8880, 1015.277
741.0390, 794.5469
742.1890, 856.4863
743.3380, 702.8906
744.4880, 821.2441
745.6380, 805.7637
746.7870, 722.7715
747.9360, 696.7422
749.0850, 580.0508
750.2340, 686.2383
751.3830, 597.9102
752.5310, 565.2754
753.6800, 620.3984
754.8280, 508.2227
755.9760, 564.1035
757.1240, 569.5059
758.2720, 814.8359
759.4190, 636.8594
760.5670, 736.5254
761.7140, 801.5508
762.8610, 682.0371
764.0080, 754.7090
765.1550, 787.0234
766.3020, 727.8867
767.4480, 812.9863
768.5950, 809.2656
769.7410, 616.1797
770.8870, 924.4375
772.0330, 680.3359
773.1780, 504.1191
774.3240, 857.0938
775.4690, 669.6719
776.6140, 630.1914
777.7590, 605.1895
778.9040, 603.6348
780.0490, 747.7148
781.1940, 773.9844
782.3380, 477.1914
783.4820, 649.3340
784.6260, 493.4141
785.7700, 514.7754
786.9140, 397.8125
788.0580, 459.7539
789.2010, 330.5723
790.3450, 509.3203
791.4880, 456.0039
792.6310, 555.6211
793.7730, 425.1719
794.9160, 462.6543
796.0590, 422.7715
797.2010, 379.4180
798.3430, 353.6934
799.4850, 304.8984
800.6270, 166.0293
801.7690, 250.0820
802.9100, 193.0566
804.0520, 236.0820
805.1930, 89.76953
806.3340, 181.5039
807.4750, 202.1582
808.6160, 14.26953
809.7560, 84.80273
810.8970, 133.9590
812.0370, 274.3281
813.1770, 193.4219
814.3170, 125.7188
815.4570, 45.18750
816.5960, 45.43555
817.7360, 57.48828
818.8750, 70.32812
820.0140, 16.28516
821.1530, 40.67773
822.2920, 22.44141
823.4310, 36.14258
824.5690, 51.75195
825.7070, 87.26758
826.8460, 32.30469
827.9840, 82.00781
829.1220, 24.13672
830.2590, 249.8164
831.3970, 46.98438
832.5340, 99.69141
833.6710, 126.6914
834.8080, 173.7461
835.9450, 134.9043
837.0820, 54.74023
838.2190, 253.2773
839.3550, 83.78711
840.4910, 135.0156
841.6270, 196.4297
842.7630, 141.0625
843.8990, 99.88867
845.0350, 15.88281
846.1700, 39.08398
847.3060, 44.77148
848.4410, 170.4492
849.5760, 183.0371
850.7100, 234.5293
851.8450, 125.9336
852.9800, 139.2461
854.1140, 49.46289
855.2480, 229.5820
856.3820, 28.39453
857.5160, 294.4902
858.6500, 223.7090
859.7830, 22.84766
860.9170, 22.29492
862.0500, 41.62891
863.1830, 12.14062
864.3160, 59.04102
865.4480, 227.9043
866.5810, 62.75781
867.7130, 408.5137
868.8460, 23.82422
869.9780, 148.7070
871.1100, 157.1406
872.2410, 128.4844
873.3730, 256.7266
874.5050, 153.8828
875.6360, 121.0625
876.7670, 314.8086
877.8980, 381.5938
879.0290, 259.2891
880.1590, 65.89453
881.2900, 51.39453
882.4200, 7.203125
883.5500, 314.0742
884.6800, 220.2617
885.8100, 236.3594
886.9400, 10.36719
888.0690, 168.2539
889.1990, 212.0508
890.3280, 269.7695
891.4570, 243.3945
892.5860, 362.9297
893.7140, 97.38281
894.8430, 167.7383
895.9710, 478.0078
897.1000, 139.1953
898.2280, 60.29297
899.3560, 194.3398
900.4830, 48.18750
901.6110, 519.2461
902.7380, 182.0859
903.8660, 229.8711
904.9930, 540.5742
906.1200, 444.2031
907.2460, 274.7695
908.3730, 527.2461
909.5000, 465.6875
910.6260, 707.0586
911.7520, 599.3516
912.8780, 413.5781
914.0040, 529.7188
915.1290, 362.7852
916.2550, 883.7734
917.3800, 809.6875
918.5050, 719.5234
919.6300, 669.2891
920.7550, 452.9844
921.8800, 514.6094
923.0040, 519.9844
924.1290, 547.2031
925.2530, 643.4570
926.3770, 669.8789
927.5010, 763.2109
928.6250, 682.5312
929.7480, 676.6016
930.8720, 714.7773
931.9950, 802.6992
933.1180, 867.3594
934.2410, 924.8008
935.3640, 869.0977
936.4860, 951.6602
937.6090, 1048.516
938.7310, 860.0430
939.8530, 747.6680
940.9750, 1004.602
942.0970, 838.8438
943.2180, 831.1250
944.3400, 607.7734
945.4610, 1042.855
946.5820, 714.7148
947.7030, 1123.637
948.8240, 1322.512
949.9450, 917.5117
951.0650, 900.4375
952.1860, 803.2344
953.3060, 1331.188
954.4260, 1120.176
955.5460, 1021.445
956.6650, 1050.070
957.7850, 929.2891
958.9040, 1042.660
960.0230, 867.0977
961.1420, 987.7500
962.2610, 1036.344
963.3800, 1011.711
964.4990, 951.3828
965.6170, 1014.008
966.7350, 988.9570
967.8530, 972.2656
968.9710, 1046.324
970.0890, 1146.816
971.2070, 1100.914
972.3240, 1005.465
973.4410, 1072.109
974.5580, 1216.410
975.6750, 1202.410
976.7920, 1393.480
977.9090, 1241.953
979.0250, 1527.934
980.1410, 1360.129
981.2580, 1345.035
982.3740, 1895.016
983.4890, 1823.836
984.6050, 2089.664
985.7200, 1854.652
986.8360, 1875.145
987.9510, 2045.637
989.0660, 1682.383
990.1810, 1813.160
991.2950, 1637.953
992.4100, 1718.914
993.5240, 1787.332
994.6390, 1781.012
995.7530, 1849.609
996.8660, 1956.824
997.9800, 2079.332
999.0940, 2053.852
1000.207, 2150.246
1001.320, 2371.680
1002.433, 2235.750
1003.546, 2385.324
1004.659, 2599.227
1005.772, 2694.133
1006.884, 2777.879
1007.996, 3056.129
1009.108, 3143.914
1010.220, 3135.172
1011.332, 3571.559
1012.444, 3374.199
1013.555, 3933.293
1014.666, 4060.359
1015.777, 4220.176
1016.888, 4211.426
1017.999, 4192.000
1019.110, 4515.906
1020.220, 4473.797
1021.331, 4510.266
1022.441, 4601.445
1023.551, 4601.250
1024.661, 4581.207
1025.770, 4609.348
1026.880, 4485.980
1027.989, 4334.070
1029.098, 4143.258
1030.207, 4243.453
1031.316, 4214.676
1032.425, 3965.848
1033.533, 4025.199
1034.642, 3647.039
1035.750, 3769.262
1036.858, 3640.562
1037.966, 3234.438
1039.073, 3210.879
1040.181, 3149.512
1041.288, 3000.332
1042.396, 3139.520
1043.503, 2998.984
1044.610, 2807.391
1045.716, 2988.875
1046.823, 2620.148
1047.929, 2943.219
1049.036, 2894.375
1050.142, 2758.613
1051.248, 2734.395
1052.353, 2780.453
1053.459, 2792.926
1054.564, 2894.586
1055.670, 2713.961
1056.775, 2658.902
1057.880, 2711.133
1058.985, 2449.445
1060.089, 2520.363
1061.194, 2653.676
1062.298, 2672.152
1063.402, 2698.023
1064.506, 2636.012
1065.610, 2489.375
1066.713, 2786.617
1067.817, 2624.492
1068.920, 2655.188
1070.023, 2423.727
1071.126, 2704.785
1072.229, 2445.297
1073.332, 2918.223
1074.435, 2746.223
1075.537, 2679.602
1076.639, 2501.832
1077.741, 2709.453
1078.843, 2823.430
1079.945, 2632.715
1081.046, 2854.633
1082.148, 2970.648
1083.249, 2986.168
1084.350, 2599.285
1085.451, 2731.289
1086.551, 2655.336
1087.652, 2571.305
1088.752, 2776.703
1089.853, 2448.277
1090.953, 2648.879
1092.053, 2638.172
1093.152, 2628.926
1094.252, 2537.266
1095.351, 2634.398
1096.451, 2266.750
1097.550, 2324.895
1098.649, 2393.105
1099.748, 2512.309
1100.846, 2349.648
1101.945, 2388.586
1103.043, 2486.094
1104.141, 2292.344
1105.239, 2289.613
1106.337, 2290.875
1107.434, 2263.980
1108.532, 1968.305
1109.629, 1944.680
1110.726, 1873.098
1111.823, 2185.551
1112.920, 1945.914
1114.017, 1936.371
1115.113, 1651.820
1116.210, 1901.617
1117.306, 1719.047
1118.402, 1764.473
1119.498, 2021.891
1120.593, 1754.766
1121.689, 1659.176
1122.784, 1630.578
1123.879, 1828.992
1124.974, 1351.398
1126.069, 1488.871
1127.164, 1348.348
1128.259, 1064.824
1129.353, 1127.664
1130.447, 1128.148
1131.541, 1196.660
1132.635, 1133.508
1133.729, 970.0117
1134.822, 750.5078
1135.916, 954.0195
1137.009, 915.5234
1138.102, 838.0234
1139.195, 888.5156
1140.288, 721.2148
1141.380, 650.4180
1142.473, 482.1836
1143.565, 415.5391
1144.657, 409.0430
1145.749, 327.8984
1146.841, 270.3984
1147.932, 249.0898
1149.024, 131.6328
1150.115, 192.1289
1151.206, 224.7852
1152.297, 184.2305
1153.388, 125.2109
1154.479, 11.30859
1155.569, 212.1523
1156.659, 136.6094
1157.750, 133.0586
1158.839, 254.4961
1159.929, 32.92188
1161.019, 97.33984
1162.108, 324.7422
1163.198, 184.8594
1164.287, 140.5664
1165.376, 36.35156
1166.465, 34.16406
1167.553, 112.0156
1168.642, 31.92578
1169.730, 58.12891
1170.818, 46.83203
1171.906, 19.16406
1172.994, 142.8555
1174.082, 1.964844
1175.170, 44.90234
1176.257, 18.75391
1177.344, 172.5859
1178.431, 94.40625
1179.518, 140.2109
1180.605, 56.00000
1181.691, 156.7773
1182.778, 87.53125
1183.864, 2.273438
1184.950, 87.99219
1186.036, 171.3047
1187.122, 79.28906
1188.207, 104.1367
1189.292, 73.63672
1190.378, 11.19141
1191.463, 121.7773
1192.548, 176.5547
1193.632, 115.1289
1194.717, 44.11719
1195.801, 187.3438
1196.886, 169.4414
1197.970, 55.66406
1199.054, 92.75000
1200.137, 63.17188
1201.221, 306.8516
1202.305, 123.8633
1203.388, 20.85938
1204.471, 5.847656
1205.554, 125.1719
1206.637, 41.27734
1207.719, 80.58203
1208.802, 286.4258
1209.884, 44.74219
1210.966, 198.0508
1212.048, 116.8320
1213.130, 104.6016
1214.212, 466.3633
1215.293, 342.1172
1216.374, 235.8555
1217.456, 136.5859
1218.536, 151.3594
1219.617, 338.0078
1220.698, 201.7305
1221.778, 245.4414
1222.859, 213.1406
1223.939, 189.5625
1225.019, 295.5664
1226.099, 194.2734
1227.178, 352.9688
1228.258, 379.6484
1229.337, 344.3203
1230.417, 207.9805
1231.496, 355.6289
1232.574, 721.2656
1233.653, 548.8867
1234.732, 507.5078
1235.810, 256.1367
1236.888, 48.81250
1237.966, 341.4805
1239.044, 429.1328
1240.122, 376.7734
1241.199, 499.3867
1242.277, 31.07422
1243.354, 431.7070
1244.431, 379.3398
1245.508, 165.9570
1246.585, 429.6055
1247.661, 493.2930
1248.738, 323.9727
1249.814, 141.6484
1250.890, 279.3281
1251.966, 511.9922
1253.042, 405.6406
1254.117, 434.3320
1255.193, 468.0078
1256.268, 681.6719
1257.343, 427.3281
1258.418, 171.9648
1259.493, 367.5820
1260.567, 310.1836
1261.642, 178.7812
1262.716, 740.3477
1263.790, 534.9102
1264.864, 512.4570
1265.938, 671.9883
1267.011, 426.5039
1268.085, 599.0078
1269.158, 234.4922
1270.231, 317.9609
1271.304, 257.4141
1272.377, 67.84766
1273.450, 471.2656
1274.522, 184.6641
1275.594, 284.0430
1276.666, 237.4062
1277.738, 124.2539
1278.810, 302.6523
1279.882, 93.21094
1280.953, 44.92188
1282.025, 158.8867
1283.096, 486.5742
1284.167, 700.3086
1285.238, 655.3125
1286.308, 663.9727
1287.379, 634.5898
1288.449, 642.5586
1289.519, 848.7070
1290.589, 931.0977
1291.659, 890.9922
1292.729, 953.3633
1293.798, 928.0664
1294.868, 971.2734
1295.937, 960.5508
1297.006, 961.2891
1298.075, 1096.598
1299.143, 987.5859
1300.212, 812.0391
1301.280, 720.8086
1302.348, 1029.867
1303.416, 1120.309
1304.484, 901.6094
1305.552, 1128.250
1306.620, 769.5039
1307.687, 1107.395
1308.754, 1176.445
1309.821, 1238.113
1310.888, 882.1641
1311.955, 937.8945
1313.021, 1005.145
1314.088, 1002.801
1315.154, 1025.953
1316.220, 1155.504
1317.286, 1218.285
1318.352, 1271.668
1319.417, 1274.125
1320.483, 1216.969
1321.548, 1237.816
1322.613, 1099.262
1323.678, 1022.770
1324.743, 1100.570
1325.807, 1240.117
1326.872, 1186.957
1327.936, 1044.031
1329.000, 1352.207
1330.064, 1587.652
1331.128, 1717.055
1332.191, 1744.945
1333.255, 1373.734
1334.318, 1511.285
1335.381, 1445.891
1336.444, 1374.020
1337.507, 1592.434
1338.569, 1274.375
1339.632, 1401.594
1340.694, 1408.906
1341.756, 1355.875
1342.818, 1331.246
1343.880, 1150.723
1344.941, 1458.324
1346.003, 1447.836
1347.064, 1301.059
1348.125, 1469.910
1349.186, 1428.734
1350.247, 1236.875
1351.308, 1348.668
1352.368, 1383.844
1353.428, 1288.883
1354.489, 1356.953
1355.549, 1607.312
1356.608, 1407.922
1357.668, 1426.988
1358.727, 1557.023
1359.787, 1252.734
1360.846, 1789.809
1361.905, 885.7656
1362.964, 1315.555
1364.022, 1564.547
1365.081, 1285.320
1366.139, 1312.789
1367.197, 1345.680
1368.255, 1282.141
1369.313, 1401.359
1370.371, 1253.082
1371.428, 1304.488
1372.486, 1265.738
1373.543, 1333.176
1374.600, 1484.090
1375.657, 1348.414
1376.713, 1439.527
1377.770, 1226.125
1378.826, 1143.191
1379.882, 1232.379
1380.938, 963.5898
1381.994, 1399.625
1383.050, 1187.094
1384.106, 1377.883
1385.161, 793.4688
1386.216, 1153.539
1387.271, 1360.941
1388.326, 813.3672
1389.381, 922.9023
1390.435, 1001.043
1391.490, 727.9219
