##NAMES=Annite
##RRUFFID=R060211
##IDEAL CHEMISTRY=KFe^2+^_3_AlSi_3_O_10_(OH)_2_
##LOCALITY=Mont Saint-Hilaire, Rouville County, Quebec, Canada
##OWNER=RRUFF
##SOURCE=Royal Ontario Museum
##DESCRIPTION=Black mica
##STATUS=The identification of this mineral has been confirmed by X-ray diffraction and chemical analysis
##URL=rruff.info/R060211
##MEASURED CHEMISTRY=(K_0.94_[box]_0.03_Na_0.02_)_Σ=1_(Fe^2+^_2.07_Mg_0.57_Mn_0.33_Ti_0.03_)_Σ=3_(Si_2.98_Al_1.02_)O_10_((OH)_1.72_F_0.28_)_Σ=2_
##PIN_ID=M00144
##ORIENTATION=Laser parallel to (-1 0 -1). Fiducial mark perpendicular to laser is parallel to -b [0 -1 0]
307.1510, 0.0000000E+00
308.3580, 187.9717
309.5660, 82.17285
310.7730, 83.58203
311.9800, 6.680664
313.1870, 20.33887
314.3940, 33.22461
315.6010, 247.6270
316.8070, 16.35547
318.0130, 198.2559
319.2200, 121.1475
320.4260, 84.86914
321.6310, 91.28223
322.8370, 239.2793
324.0430, 32.77930
325.2480, 214.4990
326.4540, 321.5869
327.6590, 357.9326
328.8640, 110.1055
330.0680, 230.0449
331.2730, 202.9951
332.4780, 170.1221
333.6820, 342.4424
334.8860, 137.1279
336.0900, 306.4824
337.2940, 326.4570
338.4980, 415.0117
339.7010, 356.3086
340.9050, 344.1816
342.1080, 480.9756
343.3110, 536.2012
344.5140, 462.2783
345.7170, 557.8682
346.9200, 350.3467
348.1220, 408.5615
349.3240, 581.4004
350.5270, 514.4346
351.7290, 612.2178
352.9310, 647.1592
354.1320, 396.7412
355.3340, 642.4609
356.5350, 673.5527
357.7370, 484.3066
358.9380, 712.9297
360.1390, 553.9961
361.3400, 533.3809
362.5400, 616.8457
363.7410, 591.7998
364.9410, 737.8311
366.1410, 719.0479
367.3410, 495.3984
368.5410, 573.7510
369.7410, 542.4971
370.9400, 606.5205
372.1400, 612.0352
373.3390, 739.5625
374.5380, 585.0166
375.7370, 602.6650
376.9360, 888.3438
378.1350, 766.3262
379.3330, 655.8066
380.5310, 769.3262
381.7300, 803.8623
382.9280, 847.1211
384.1260, 754.6885
385.3230, 702.2969
386.5210, 878.9482
387.7180, 929.6436
388.9160, 807.3877
390.1130, 742.1768
391.3100, 734.0127
392.5060, 1122.896
393.7030, 876.8262
394.9000, 1032.805
396.0960, 874.8301
397.2920, 1057.902
398.4880, 916.0215
399.6840, 798.1855
400.8800, 807.3945
402.0750, 714.6484
403.2710, 831.9453
404.4660, 973.2861
405.6610, 826.6699
406.8560, 647.2070
408.0510, 775.0264
409.2450, 827.6562
410.4400, 809.0605
411.6340, 505.9648
412.8280, 570.3662
414.0220, 487.5518
415.2160, 398.7207
416.4100, 514.9531
417.6030, 253.4502
418.7970, 366.5020
419.9900, 330.1104
421.1830, 362.1865
422.3760, 246.1260
423.5690, 91.11426
424.7610, 116.2061
425.9540, 175.1621
427.1460, 127.2549
428.3380, 73.39551
429.5300, 62.58203
430.7220, 4.567383
431.9140, 10.76562
433.1050, 89.55371
434.2970, 38.15918
435.4880, 87.71191
436.6790, 81.20898
437.8700, 61.65234
439.0610, 124.9580
440.2510, 147.3789
441.4420, 127.3311
442.6320, 3.963867
443.8220, 50.56445
445.0120, 99.89648
446.2020, 104.7549
447.3910, 93.90918
448.5810, 58.97852
449.7700, 132.5117
450.9600, 38.11426
452.1490, 130.3750
453.3370, 80.31250
454.5260, 118.1211
455.7150, 46.89844
456.9030, 20.11914
458.0910, 20.08691
459.2800, 250.3887
460.4670, 150.7607
461.6550, 251.2002
462.8430, 168.7012
464.0300, 182.2598
465.2180, 192.8730
466.4050, 355.5391
467.5920, 327.2539
468.7790, 384.0127
469.9650, 303.8174
471.1520, 548.6611
472.3380, 546.5430
473.5250, 597.9258
474.7110, 737.4199
475.8970, 698.4102
477.0820, 736.4375
478.2680, 813.4961
479.4540, 786.5898
480.6390, 975.7148
481.8240, 819.8711
483.0090, 966.6270
484.1940, 1272.266
485.3780, 1010.492
486.5630, 1186.742
487.7470, 943.0078
488.9320, 1099.295
490.1160, 1266.604
491.3000, 1173.930
492.4830, 1241.279
493.6670, 1098.650
494.8500, 1320.043
496.0340, 1387.459
497.2170, 1469.896
498.4000, 1461.947
499.5820, 1334.840
500.7650, 1403.346
501.9480, 1297.875
503.1300, 1410.428
504.3120, 1431.004
505.4940, 1367.602
506.6760, 1228.225
507.8580, 1450.871
509.0390, 1496.539
510.2210, 1676.230
511.4020, 1686.945
512.5830, 1734.676
513.7640, 1743.873
514.9450, 1582.020
516.1250, 1646.668
517.3060, 1567.275
518.4860, 1450.887
519.6660, 1634.439
520.8460, 1491.980
522.0260, 1688.555
523.2060, 1663.170
524.3850, 1754.834
525.5650, 1819.521
526.7440, 1740.258
527.9230, 1704.029
529.1020, 1802.879
530.2810, 1766.760
531.4590, 1612.707
532.6380, 1606.721
533.8160, 1569.795
534.9940, 1697.945
536.1720, 1494.158
537.3500, 1566.436
538.5270, 1421.766
539.7050, 1618.158
540.8820, 1364.611
542.0590, 1331.137
543.2360, 1354.730
544.4130, 1187.418
545.5900, 1184.150
546.7660, 1175.914
547.9430, 1198.705
549.1190, 1024.582
550.2950, 975.5215
551.4710, 1061.531
552.6470, 803.6250
553.8220, 854.7637
554.9980, 931.0059
556.1730, 663.3105
557.3480, 798.6777
558.5230, 575.0898
559.6980, 627.5645
560.8730, 561.1152
562.0470, 591.7051
563.2220, 347.1797
564.3960, 488.9609
565.5700, 555.4902
566.7440, 550.8018
567.9170, 261.5840
569.0910, 339.8730
570.2640, 270.9473
571.4380, 195.9678
572.6110, 326.0156
573.7840, 77.78320
574.9570, 200.6113
576.1290, 176.4170
577.3020, 218.3574
578.4740, 140.1592
579.6460, 44.13184
580.8180, 130.0605
581.9900, 27.91309
583.1620, 60.95996
584.3330, 42.75879
585.5040, 8.450195
586.6760, 31.98438
587.8470, 25.78027
589.0180, 28.07227
590.1880, 82.11523
591.3590, 31.83691
592.5290, 3.195313
593.7000, 39.78516
594.8700, 0.2177730
596.0400, 36.54395
597.2090, 234.8281
598.3790, 157.9736
599.5490, 224.0361
600.7180, 416.1143
601.8870, 352.2051
603.0560, 619.3086
604.2250, 369.4248
605.3940, 531.5527
606.5620, 856.6914
607.7300, 835.8438
608.8990, 562.0059
610.0670, 638.1777
611.2350, 707.3594
612.4020, 638.5518
613.5700, 702.2930
614.7370, 785.9648
615.9050, 754.1846
617.0720, 747.4131
618.2390, 841.6494
619.4060, 942.8945
620.5720, 805.1465
621.7390, 659.4053
622.9050, 961.6719
624.0710, 969.9453
625.2370, 839.2246
626.4030, 1020.510
627.5690, 1028.801
628.7340, 1104.098
629.9000, 1035.722
631.0650, 1346.539
632.2300, 1582.083
633.3950, 1746.410
634.5600, 1626.163
635.7240, 1873.269
636.8890, 1973.229
638.0530, 2067.045
639.2170, 2365.881
640.3810, 2286.922
641.5450, 2582.515
642.7080, 2728.492
643.8720, 2977.591
645.0350, 3253.610
646.1980, 3531.932
647.3610, 3769.426
648.5240, 4202.780
649.6870, 4514.137
650.8490, 4928.494
652.0120, 5371.320
653.1740, 5750.208
654.3360, 6235.564
655.4980, 6567.924
656.6600, 6883.283
657.8210, 7293.641
658.9830, 7599.997
660.1440, 7771.442
661.3050, 7985.251
662.4660, 8263.413
663.6270, 8253.898
664.7870, 8231.407
665.9480, 8413.813
667.1080, 7751.730
668.2680, 7320.842
669.4280, 7467.273
670.5880, 6755.756
671.7480, 6434.246
672.9070, 6143.181
674.0670, 6070.083
675.2260, 5712.312
676.3850, 5343.562
677.5440, 5122.027
678.7030, 4775.621
679.8610, 4569.988
681.0200, 4278.538
682.1780, 4194.427
683.3360, 4146.440
684.4940, 4009.997
685.6520, 3631.608
686.8090, 3584.913
687.9670, 3426.750
689.1240, 3539.812
690.2810, 3315.332
691.4380, 2976.400
692.5950, 3072.906
693.7520, 3108.155
694.9080, 3062.783
696.0650, 2732.682
697.2210, 2765.749
698.3770, 2656.479
699.5330, 2543.234
700.6880, 2627.856
701.8440, 2330.658
702.9990, 2418.285
704.1550, 2468.998
705.3100, 2577.051
706.4650, 2339.701
707.6190, 2279.528
708.7740, 2455.576
709.9290, 2018.034
711.0830, 2156.922
712.2370, 2136.319
713.3910, 2109.262
714.5450, 1926.314
715.6980, 2083.363
716.8520, 1958.963
718.0050, 1851.622
719.1580, 1827.378
720.3110, 1764.913
721.4640, 1582.803
722.6170, 1648.532
723.7700, 1428.007
724.9220, 1473.295
726.0740, 1514.024
727.2260, 1509.946
728.3780, 1546.822
729.5300, 1465.856
730.6810, 1519.211
731.8330, 1389.466
732.9840, 1429.756
734.1350, 1461.155
735.2860, 1457.201
736.4370, 1535.395
737.5880, 1685.560
738.7380, 1659.691
739.8880, 1489.790
741.0390, 1755.854
742.1890, 1719.887
743.3380, 1340.294
744.4880, 1555.748
745.6380, 1695.888
746.7870, 1764.733
747.9360, 1548.964
749.0850, 1700.631
750.2340, 1705.002
751.3830, 1703.290
752.5310, 1906.530
753.6800, 1731.978
754.8280, 1931.907
755.9760, 1982.283
757.1240, 2101.043
758.2720, 1914.708
759.4190, 1923.216
760.5670, 1917.688
761.7140, 1897.296
762.8610, 1904.346
764.0080, 1900.889
765.1550, 1866.217
766.3020, 1869.508
767.4480, 1775.764
768.5950, 1625.981
769.7410, 1672.161
770.8870, 1594.306
772.0330, 1609.413
773.1780, 1546.482
774.3240, 1495.515
775.4690, 1380.510
776.6140, 1370.467
777.7590, 1307.736
778.9040, 1065.762
780.0490, 1177.097
781.1940, 1213.123
782.3380, 1177.924
783.4820, 858.1250
784.6260, 905.7510
785.7700, 806.0791
786.9140, 700.3262
788.0580, 799.5576
789.2010, 521.0098
790.3450, 616.9160
791.4880, 563.3223
792.6310, 578.1318
793.7730, 444.7598
794.9160, 329.6621
796.0590, 340.9766
797.2010, 286.2510
798.3430, 149.4863
799.4850, 11.67871
800.6270, 2.795898
801.7690, 91.83594
802.9100, 12.17383
804.0520, 67.73145
805.1930, 119.4170
806.3340, 97.29297
807.4750, 78.04590
808.6160, 78.50586
809.7560, 54.08398
810.8970, 117.7705
812.0370, 75.59766
813.1770, 60.54199
814.3170, 48.59668
815.4570, 58.75488
816.5960, 63.90137
817.7360, 124.3984
818.8750, 89.91895
820.0140, 188.3213
821.1530, 22.58105
822.2920, 67.79297
823.4310, 86.89355
824.5690, 178.6318
825.7070, 76.84570
826.8460, 122.4443
827.9840, 174.2207
829.1220, 21.14258
830.2590, 245.9375
831.3970, 96.39258
832.5340, 96.47949
833.6710, 28.24805
834.8080, 108.2920
835.9450, 142.6807
837.0820, 29.00195
838.2190, 73.04297
839.3550, 66.44238
840.4910, 89.79590
841.6270, 226.1064
842.7630, 86.37988
843.8990, 101.3887
845.0350, 39.72656
846.1700, 93.79395
847.3060, 220.8213
848.4410, 89.81348
849.5760, 189.7646
850.7100, 19.32031
851.8450, 151.5254
852.9800, 269.3359
854.1140, 126.1113
855.2480, 202.8740
856.3820, 439.6025
857.5160, 336.2998
858.6500, 549.9668
859.7830, 246.6123
860.9170, 400.2246
862.0500, 443.8086
863.1830, 410.5771
864.3160, 669.8955
865.4480, 444.3984
866.5810, 670.8828
867.7130, 540.3379
868.8460, 750.7637
869.9780, 725.1611
871.1100, 747.5303
872.2410, 731.8711
873.3730, 794.1846
874.5050, 695.4678
875.6360, 786.7256
876.7670, 766.9541
877.8980, 613.1562
879.0290, 842.3320
880.1590, 760.4805
881.2900, 1074.602
882.4200, 906.6973
883.5500, 1007.768
884.6800, 800.4902
885.8100, 1000.198
886.9400, 1124.602
888.0690, 1177.720
889.1990, 946.2725
890.3280, 1082.242
891.4570, 1070.916
892.5860, 1053.533
893.7140, 1241.118
894.8430, 1050.919
895.9710, 1235.206
897.1000, 1269.989
898.2280, 1373.151
899.3560, 1328.121
900.4830, 1328.799
901.6110, 1477.703
902.7380, 1544.488
903.8660, 1474.942
904.9930, 1498.576
906.1200, 1551.179
907.2460, 1344.819
908.3730, 1570.411
909.5000, 1587.984
910.6260, 1338.208
911.7520, 1548.570
912.8780, 1683.646
914.0040, 1747.477
915.1290, 1526.666
916.2550, 1673.360
917.3800, 1672.732
918.5050, 1666.050
919.6300, 1864.370
920.7550, 1684.889
921.8800, 1879.931
923.0040, 1925.428
924.1290, 2039.380
925.2530, 2005.096
926.3770, 2016.565
927.5010, 2176.251
928.6250, 2253.838
929.7480, 2202.393
930.8720, 2227.230
931.9950, 2301.525
933.1180, 2341.719
934.2410, 2446.338
935.3640, 2472.039
936.4860, 2527.199
937.6090, 2509.326
938.7310, 2500.539
939.8530, 2408.238
940.9750, 2424.729
942.0970, 2310.910
943.2180, 2521.021
944.3400, 2568.115
945.4610, 2513.004
946.5820, 2516.787
947.7030, 2455.727
948.8240, 2298.012
949.9450, 2316.068
951.0650, 2137.514
952.1860, 2133.660
953.3060, 2209.051
954.4260, 2139.637
955.5460, 2252.086
956.6650, 2162.979
957.7850, 1936.803
958.9040, 2168.920
960.0230, 1947.150
961.1420, 1955.822
962.2610, 1918.684
963.3800, 1910.352
964.4990, 1899.688
965.6170, 1890.994
966.7350, 1944.758
967.8530, 2007.586
968.9710, 2030.775
970.0890, 1894.021
971.2070, 2078.221
972.3240, 1933.641
973.4410, 1914.166
974.5580, 2147.346
975.6750, 2305.479
976.7920, 2393.039
977.9090, 2195.410
979.0250, 2357.000
980.1410, 2379.105
981.2580, 2395.816
982.3740, 2618.049
983.4890, 2461.893
984.6050, 2680.785
985.7200, 2747.012
986.8360, 2884.717
987.9510, 2874.656
989.0660, 2909.857
990.1810, 3093.652
991.2950, 3195.535
992.4100, 3265.396
993.5240, 3340.223
994.6390, 3497.094
995.7530, 3544.062
996.8660, 3680.104
997.9800, 3913.188
999.0940, 3961.293
1000.207, 4166.447
1001.320, 4267.639
1002.433, 4496.854
1003.546, 4684.396
1004.659, 4443.857
1005.772, 4579.838
1006.884, 4640.600
1007.996, 4630.148
1009.108, 4335.145
1010.220, 4407.637
1011.332, 4332.883
1012.444, 4252.105
1013.555, 4376.406
1014.666, 4122.914
1015.777, 4244.010
1016.888, 4215.600
1017.999, 4255.643
1019.110, 4147.537
1020.220, 4085.242
1021.331, 4171.158
1022.441, 4175.057
1023.551, 3775.836
1024.661, 3917.471
1025.770, 3544.389
1026.880, 3485.066
1027.989, 3395.766
1029.098, 3445.486
1030.207, 3106.229
1031.316, 3175.996
1032.425, 2954.781
1033.533, 2922.592
1034.642, 2803.426
1035.750, 2862.385
1036.858, 2780.264
1037.966, 2582.449
1039.073, 2532.338
1040.181, 2685.283
1041.288, 2457.268
1042.396, 2527.484
1043.503, 2417.498
1044.610, 2490.068
1045.716, 2358.283
1046.823, 2364.326
1047.929, 2527.471
1049.036, 2363.600
1050.142, 2308.811
1051.248, 2380.986
1052.353, 2030.207
1053.459, 2228.812
1054.564, 2125.059
1055.670, 2073.172
1056.775, 2184.461
1057.880, 2036.775
1058.985, 2038.111
1060.089, 1989.471
1061.194, 2282.852
1062.298, 2123.719
1063.402, 2004.627
1064.506, 1974.137
1065.610, 1731.613
1066.713, 1594.922
1067.817, 1849.518
1068.920, 1849.938
1070.023, 1682.633
1071.126, 1448.270
1072.229, 1369.096
1073.332, 1489.568
1074.435, 1539.207
1075.537, 1513.410
1076.639, 1203.174
1077.741, 1261.127
1078.843, 1171.164
1079.945, 1075.578
1081.046, 1184.869
1082.148, 916.1797
1083.249, 1022.330
1084.350, 978.8359
1085.451, 1006.045
1086.551, 882.9824
1087.652, 805.6953
1088.752, 876.8867
1089.853, 866.1035
1090.953, 726.2031
1092.053, 755.9199
1093.152, 482.7910
1094.252, 475.5898
1095.351, 583.1660
1096.451, 451.1875
1097.550, 441.6562
1098.649, 685.0918
1099.748, 441.3027
1100.846, 619.2090
1101.945, 678.7207
1103.043, 510.7148
1104.141, 604.5449
1105.239, 505.0801
1106.337, 513.4512
1107.434, 517.3613
1108.532, 397.0527
1109.629, 383.1016
1110.726, 542.4258
1111.823, 631.2324
1112.920, 644.1504
1114.017, 372.6074
1115.113, 468.4609
1116.210, 417.3809
1117.306, 360.1953
1118.402, 507.8535
1119.498, 280.3672
1120.593, 426.1914
1121.689, 424.1543
1122.784, 495.2598
1123.879, 413.1816
1124.974, 389.1816
1126.069, 505.4570
1127.164, 550.8047
1128.259, 462.3301
1129.353, 534.9492
1130.447, 301.8340
1131.541, 338.1270
1132.635, 488.9258
1133.729, 394.9961
1134.822, 465.6074
1135.916, 473.4297
1137.009, 195.9609
1138.102, 415.2344
1139.195, 420.4395
1140.288, 204.5898
1141.380, 406.6250
1142.473, 221.2344
1143.565, 173.7949
1144.657, 230.4727
1145.749, 178.6250
1146.841, 297.9688
1147.932, 252.4180
1149.024, 192.1406
1150.115, 196.1426
1151.206, 18.12500
1152.297, 123.4531
1153.388, 167.8594
1154.479, 222.0176
1155.569, 92.45312
1156.659, 64.03320
1157.750, 223.1270
1158.839, 116.2949
1159.929, 40.46680
1161.019, 157.6426
1162.108, 76.04297
1163.198, 131.0039
1164.287, 15.19141
1165.376, 139.3809
1166.465, 8.427734
1167.553, 12.76562
1168.642, 20.03906
1169.730, 112.8438
1170.818, 18.31445
1171.906, 2.474609
1172.994, 15.36133
1174.082, 38.79883
1175.170, 57.03906
1176.257, 90.25977
1177.344, 79.55664
1178.431, 174.1152
1179.518, 197.7402
1180.605, 63.52148
1181.691, 42.67969
1182.778, 1.607422
1183.864, 45.50586
1184.950, 112.3984
1186.036, 107.5098
1187.122, 47.11328
1188.207, 52.21875
1189.292, 125.7480
1190.378, 51.10742
1191.463, 22.22266
1192.548, 141.5586
1193.632, 178.8281
1194.717, 87.12695
1195.801, 165.0020
1196.886, 60.09766
1197.970, 111.1211
1199.054, 40.15039
1200.137, 12.79688
1201.221, 45.74414
1202.305, 48.31055
1203.388, 45.60938
1204.471, 75.47852
1205.554, 29.41211
1206.637, 11.65039
1207.719, 10.31055
1208.802, 31.10938
1209.884, 0.0000000E+00
1210.966, 16.88672
1212.048, 80.76367
1213.130, 20.83203
1214.212, 86.42773
1215.293, 27.66602
1216.374, 109.1504
1217.456, 150.9570
1218.536, 58.75195
1219.617, 34.53711
1220.698, 109.3066
1221.778, 93.06445
1222.859, 91.82617
1223.939, 86.64258
1225.019, 115.3047
1226.099, 71.02344
1227.178, 33.27148
1228.258, 41.38281
1229.337, 119.0234
1230.417, 18.64453
1231.496, 72.24609
1232.574, 92.17383
1233.653, 35.32617
1234.732, 118.8066
1235.810, 22.27344
1236.888, 46.70703
1237.966, 107.1230
1239.044, 38.51758
1240.122, 301.8887
1241.199, 35.75781
1242.277, 143.5332
1243.354, 125.8047
1244.431, 334.2656
1245.508, 77.49609
1246.585, 102.7070
1247.661, 221.8926
1248.738, 5.056641
1249.814, 31.17773
1250.890, 1.351563
1251.966, 72.19922
1253.042, 9.248047
1254.117, 185.8516
1255.193, 58.09766
1256.268, 234.4277
1257.343, 155.9355
1258.418, 19.57812
1259.493, 28.71289
1260.567, 30.03516
1261.642, 25.85547
1262.716, 111.2520
1263.790, 306.3340
1264.864, 392.6016
1265.938, 245.6367
1267.011, 83.64453
1268.085, 63.62305
1269.158, 122.5664
1270.231, 136.4824
1271.304, 110.3711
1272.377, 326.2324
1273.450, 273.0664
1274.522, 229.8730
1275.594, 189.6582
1276.666, 347.4121
1277.738, 404.1426
1278.810, 268.0957
1279.882, 194.7695
1280.953, 264.5977
1282.025, 159.0879
1283.096, 270.8398
1284.167, 157.4980
1285.238, 141.0332
1286.308, 291.2773
1287.379, 306.9668
1288.449, 248.7051
1289.519, 375.7949
1290.589, 352.5176
1291.659, 447.0352
1292.729, 383.4551
1293.798, 266.7617
1294.868, 349.0391
1295.937, 264.1836
1297.006, 444.4062
1298.075, 423.5508
1299.143, 416.7480
1300.212, 308.8809
1301.280, 308.2539
1302.348, 238.4258
1303.416, 373.4707
1304.484, 399.9551
1305.552, 339.9531
1306.620, 342.9102
1307.687, 167.3926
1308.754, 411.3770
1309.821, 425.2949
1310.888, 245.3457
1311.955, 340.3984
1313.021, 276.8047
1314.088, 272.4062
1315.154, 276.2930
1316.220, 291.0938
1317.286, 337.7578
1318.352, 496.5762
1319.417, 397.1855
1320.483, 298.9395
1321.548, 487.0781
1322.613, 293.6074
1323.678, 460.2559
1324.743, 575.2617
1325.807, 463.0195
1326.872, 539.6777
1327.936, 514.1816
1329.000, 436.7930
1330.064, 532.4609
1331.128, 361.5742
1332.191, 588.0176
1333.255, 364.2109
1334.318, 489.5684
1335.381, 609.4727
1336.444, 455.7520
1337.507, 291.8008
1338.569, 322.1797
1339.632, 371.0918
1340.694, 529.3184
1341.756, 449.3789
1342.818, 519.4590
1343.880, 471.4570
1344.941, 392.5586
1346.003, 485.8281
1347.064, 478.7559
1348.125, 493.6406
1349.186, 533.8789
1350.247, 527.6758
1351.308, 548.6035
1352.368, 521.5488
1353.428, 461.2930
1354.489, 517.0293
1355.549, 445.2207
1356.608, 469.7461
1357.668, 609.3926
1358.727, 401.6699
1359.787, 400.3867
1360.846, 487.4766
1361.905, 439.4434
1362.964, 446.9395
1364.022, 503.6055
1365.081, 339.7207
1366.139, 374.0547
1367.197, 363.0195
1368.255, 430.4219
1369.313, 401.1133
1370.371, 473.5254
1371.428, 210.7637
1372.486, 572.0762
1373.543, 412.2930
1374.600, 371.3340
1375.657, 558.5723
1376.713, 489.1387
1377.770, 435.9551
1378.826, 273.1016
1379.882, 362.5391
1380.938, 333.9766
1381.994, 373.3398
1383.050, 301.3594
1384.106, 381.2285
1385.161, 479.9238
1386.216, 257.1328
1387.271, 295.0000
1388.326, 358.3359
1389.381, 448.8535
1390.435, 297.3359
1391.490, 133.0371
1392.544, 246.6602
1393.598, 209.2344
1394.652, 245.2402
1395.705, 225.7207
1396.759, 243.9668
1397.812, 276.5586
1398.866, 278.2656
1399.919, 305.6523
1400.972, 310.0117
1402.024, 236.3477
1403.077, 287.5762
1404.129, 296.8516
1405.181, 117.0918
1406.233, 272.3086
1407.285, 29.41211
1408.337, 178.5684
1409.389, 167.4492
1410.440, 151.5527
1411.491, 215.3555
1412.542, 286.0547
1413.593, 121.0762
1414.644, 101.0645
1415.695, 269.0215
1416.745, 306.9473
1417.795, 132.8438
1418.845, 147.7090
1419.895, 297.5449
1420.945, 168.1719
1421.995, 165.1504
1423.044, 178.9180
1424.093, 106.6621
1425.142, 280.3867
1426.191, 314.1055
1427.240, 93.80469
1428.289, 84.48047
1429.337, 213.1426
1430.385, 259.7812
1431.433, 118.4141
1432.481, 245.0566
1433.529, 47.67578
1434.577, 134.9766
1435.624, 129.5723
1436.672, 104.1699
1437.719, 123.7617
1438.766, 315.3535
1439.812, 362.9512
1440.859, 51.44141
1441.905, 125.1738
1442.952, 179.8125
1443.998, 105.4805
1445.044, 185.1895
1446.090, 107.7480
1447.135, 14.18555
1448.181, 179.2559
1449.226, 111.6348
1450.271, 45.99219
1451.316, 117.3770
1452.361, 81.70703
1453.405, 152.0000
1454.450, 4.205078
