##NAMES=Annite
##RRUFFID=R060211
##IDEAL CHEMISTRY=KFe^2+^_3_AlSi_3_O_10_(OH)_2_
##LOCALITY=Mont Saint-Hilaire, Rouville County, Quebec, Canada
##OWNER=RRUFF
##SOURCE=Royal Ontario Museum
##DESCRIPTION=Black mica
##STATUS=The identification of this mineral has been confirmed by X-ray diffraction and chemical analysis
##URL=rruff.info/R060211
##MEASURED CHEMISTRY=(K_0.94_[box]_0.03_Na_0.02_)_Σ=1_(Fe^2+^_2.07_Mg_0.57_Mn_0.33_Ti_0.03_)_Σ=3_(Si_2.98_Al_1.02_)O_10_((OH)_1.72_F_0.28_)_Σ=2_
##PIN_ID=L01073
##ORIENTATION=Laser parallel to c* (0 0 1). Fiducial mark perpendicular to laser is parallel to a [1 0 0]
230.8490, 0.0000000E+00
232.0700, 7.832031
233.2910, 143.4805
234.5120, 56.72656
235.7320, 4.695313
236.9530, 121.8828
238.1730, 93.92969
239.3930, 265.5977
240.6130, 138.3984
241.8320, 154.5039
243.0520, 25.12891
244.2710, 126.8594
245.4900, 231.0703
246.7090, 276.5039
247.9280, 286.7188
249.1470, 191.7500
250.3650, 1.046875
251.5840, 250.6680
252.8020, 432.8320
254.0200, 737.7383
255.2370, 884.7930
256.4550, 1120.742
257.6720, 1407.906
258.8900, 1618.172
260.1070, 1755.488
261.3240, 1617.117
262.5400, 1832.027
263.7570, 1919.008
264.9730, 2007.602
266.1900, 2284.152
267.4060, 2144.395
268.6220, 2243.184
269.8370, 2421.488
271.0530, 2062.246
272.2680, 1975.043
273.4830, 1727.938
274.6980, 2091.070
275.9130, 1929.207
277.1280, 2249.004
278.3420, 2171.980
279.5570, 1981.562
280.7710, 1614.289
281.9850, 1872.895
283.1990, 2198.672
284.4120, 1756.840
285.6260, 1548.305
286.8390, 1556.582
288.0520, 1017.688
289.2650, 1173.590
290.4780, 692.0469
291.6910, 861.0508
292.9030, 892.5820
294.1160, 736.6758
295.3280, 769.8047
296.5400, 222.9922
297.7510, 565.4688
298.9630, 128.2500
300.1740, 296.3359
301.3860, 390.7500
302.5970, 415.7812
303.8080, 163.5039
305.0180, 270.5391
306.2290, 233.7695
307.4390, 190.7188
308.6500, 347.2852
309.8600, 135.3711
311.0700, 288.4688
312.2790, 20.14844
313.4890, 273.8438
314.6980, 194.8438
315.9080, 47.84375
317.1170, 69.17578
318.3250, 237.2227
319.5340, 62.69922
320.7430, 161.5664
321.9510, 40.62891
323.1590, 218.8945
324.3670, 93.24609
325.5750, 211.3125
326.7830, 57.44141
327.9900, 442.9805
329.1980, 456.3242
330.4050, 187.8203
331.6120, 239.6406
332.8190, 488.9844
334.0250, 349.7344
335.2320, 499.8906
336.4380, 417.8555
337.6440, 473.1602
338.8500, 640.3281
340.0560, 739.0977
341.2620, 1171.898
342.4670, 1150.230
343.6730, 1039.059
344.8780, 1312.996
346.0830, 1245.590
347.2870, 1360.520
348.4920, 1280.469
349.6970, 1054.383
350.9010, 935.9766
352.1050, 1246.445
353.3090, 986.8516
354.5130, 1041.195
355.7160, 1180.484
356.9200, 948.7148
358.1230, 1199.887
359.3260, 971.0234
360.5290, 865.1250
361.7320, 856.1953
362.9340, 652.2305
364.1370, 794.2266
365.3390, 805.1953
366.5410, 796.1328
367.7430, 893.3633
368.9450, 929.9102
370.1460, 918.7500
371.3480, 954.5586
372.5490, 775.3438
373.7500, 823.6914
374.9510, 769.8594
376.1520, 771.4688
377.3520, 754.8438
378.5520, 651.9375
379.7530, 653.7969
380.9530, 820.1953
382.1530, 715.5664
383.3520, 844.4336
384.5520, 744.5039
385.7510, 923.0469
386.9500, 1111.371
388.1490, 991.0391
389.3480, 1050.816
390.5470, 1280.434
391.7450, 1176.820
392.9440, 1385.977
394.1420, 1511.777
395.3400, 1503.996
396.5380, 1460.285
397.7350, 1326.582
398.9330, 1221.488
400.1300, 1218.113
401.3270, 1206.477
402.5240, 1456.598
403.7210, 1190.488
404.9180, 1158.164
406.1140, 1251.621
407.3110, 1074.875
408.5070, 771.8672
409.7030, 1030.562
410.8990, 969.0078
412.0940, 971.1992
413.2900, 1065.141
414.4850, 896.8516
415.6800, 1006.645
416.8750, 1106.469
418.0700, 1016.348
419.2650, 997.5859
420.4590, 823.5938
421.6530, 462.0664
422.8470, 637.2305
424.0410, 449.2500
425.2350, 683.1680
426.4290, 875.9961
427.6220, 206.7539
428.8160, 549.4180
430.0090, 385.0156
431.2020, 506.5547
432.3940, 454.0391
433.5870, 636.4688
434.7790, 360.9961
435.9720, 112.1836
437.1640, 176.4531
438.3560, 242.9805
439.5470, 203.3945
440.7390, 49.20703
441.9300, 151.2422
443.1220, 210.6641
444.3130, 57.27734
445.5040, 349.0742
446.6940, 278.4375
447.8850, 119.3320
449.0750, 218.8750
450.2660, 233.6250
451.4560, 84.86719
452.6460, 356.3906
453.8350, 421.7891
455.0250, 146.8086
456.2140, 46.27344
457.4040, 44.43750
458.5930, 68.99219
459.7820, 265.4844
460.9700, 250.7305
462.1590, 514.6797
463.3470, 361.8984
464.5350, 541.9336
465.7240, 760.7383
466.9110, 813.3945
468.0990, 631.9922
469.2870, 712.8438
470.4740, 950.2500
471.6610, 1218.117
472.8480, 1125.035
474.0350, 1345.602
475.2220, 1384.824
476.4090, 1697.809
477.5950, 1761.980
478.7810, 1675.719
479.9670, 2125.809
481.1530, 2211.828
482.3390, 2211.160
483.5240, 2061.664
484.7100, 2210.781
485.8950, 2472.871
487.0800, 2655.945
488.2650, 2906.957
489.4490, 2880.953
490.6340, 3072.945
491.8180, 3514.941
493.0030, 3427.941
494.1870, 3637.281
495.3700, 3656.957
496.5540, 3749.984
497.7380, 3800.020
498.9210, 3807.066
500.1040, 4077.121
501.2870, 4379.188
502.4700, 4388.266
503.6530, 4521.637
504.8350, 4478.297
506.0180, 4545.504
507.2000, 4513.344
508.3820, 4513.270
509.5640, 4824.199
510.7450, 4739.359
511.9270, 5100.531
513.1080, 5209.719
514.2890, 5215.918
515.4700, 5589.969
516.6510, 5442.195
517.8320, 5566.305
519.0130, 5618.379
520.1930, 5857.340
521.3730, 6208.832
522.5530, 5895.289
523.7330, 6189.320
524.9130, 6470.961
526.0920, 6202.918
527.2710, 6697.613
528.4510, 6194.500
529.6300, 6735.352
530.8080, 6600.172
531.9870, 6884.965
533.1660, 6760.734
534.3440, 6677.473
535.5220, 6373.188
536.7000, 6680.906
537.8780, 6751.617
539.0560, 6554.355
540.2330, 6251.086
541.4110, 6419.898
542.5880, 5833.684
543.7650, 5884.562
544.9420, 5837.492
546.1180, 5364.508
547.2950, 5251.664
548.4710, 5200.848
549.6470, 4895.051
550.8230, 4951.305
551.9990, 4793.617
553.1750, 4476.953
554.3500, 4128.293
555.5260, 3951.645
556.7010, 3870.078
557.8760, 3789.523
559.0510, 4096.984
560.2250, 4198.441
561.4000, 3571.898
562.5740, 2666.359
563.7480, 2535.703
564.9220, 2511.801
566.0960, 2134.184
567.2700, 2309.621
568.4430, 2327.199
569.6170, 1713.355
570.7900, 2330.340
571.9630, 1823.211
573.1360, 1668.312
574.3080, 1424.246
575.4810, 1352.734
576.6530, 1376.129
577.8250, 1670.742
578.9980, 1380.480
580.1690, 1405.789
581.3410, 911.0898
582.5130, 790.8320
583.6840, 483.6641
584.8550, 325.9336
586.0260, 270.9648
587.1970, 92.81641
588.3680, 29.23438
589.5380, 149.7031
590.7080, 42.16797
591.8790, 111.8555
593.0490, 12.78125
594.2190, 64.35156
595.3880, 160.1719
596.5580, 5.042969
597.7270, 6.828125
598.8960, 62.52344
600.0650, 286.6992
601.2340, 50.37891
602.4030, 11.54688
603.5710, 65.96484
604.7400, 384.9805
605.9080, 320.5469
607.0760, 312.1914
608.2440, 323.9609
609.4120, 518.8203
610.5790, 562.7109
611.7460, 420.6562
612.9140, 291.6289
614.0810, 693.6289
615.2480, 468.6680
616.4140, 759.7422
617.5810, 589.8398
618.7470, 625.9766
619.9130, 644.1367
621.0790, 817.3281
622.2450, 808.5508
623.4110, 511.8047
624.5770, 1018.086
625.7420, 693.3984
626.9070, 978.7344
628.0720, 929.1016
629.2370, 915.4961
630.4020, 970.9180
631.5660, 1182.363
632.7310, 1204.844
633.8950, 889.3477
635.0590, 1147.879
636.2230, 1129.441
637.3870, 1405.031
638.5500, 1444.648
639.7140, 1678.297
640.8770, 1732.965
642.0400, 1908.664
643.2030, 1932.391
644.3660, 2207.145
645.5280, 2257.930
646.6910, 2670.746
647.8530, 2579.590
649.0150, 2926.461
650.1770, 2878.367
651.3390, 3481.293
652.5000, 3653.250
653.6620, 4087.227
654.8230, 4697.234
655.9840, 5004.273
657.1450, 5321.344
658.3060, 5957.430
659.4660, 6364.547
660.6270, 6785.691
661.7870, 7064.871
662.9470, 7404.078
664.1070, 8036.312
665.2670, 8346.578
666.4260, 8404.879
667.5860, 8679.195
668.7450, 8414.547
669.9040, 8732.930
671.0630, 7965.336
672.2220, 8050.828
673.3800, 8361.293
674.5390, 7451.793
675.6970, 6812.578
676.8550, 6314.527
678.0130, 6143.027
679.1710, 5585.777
680.3290, 5398.406
681.4860, 4902.066
682.6430, 4887.109
683.8000, 4573.977
684.9570, 4749.562
686.1140, 4570.199
687.2710, 4092.410
688.4270, 4610.434
689.5840, 4024.559
690.7400, 4005.324
691.8960, 4222.891
693.0520, 4227.668
694.2070, 4166.031
695.3630, 4248.691
696.5180, 4244.270
697.6730, 4434.191
698.8280, 4338.152
699.9830, 4456.125
701.1380, 4615.957
702.2920, 4511.965
703.4470, 4626.555
704.6010, 4857.250
705.7550, 4746.160
706.9090, 4612.238
708.0620, 4851.812
709.2160, 5094.195
710.3690, 5073.324
711.5220, 5223.312
712.6750, 5285.047
713.8280, 5300.695
714.9810, 5438.938
716.1340, 5395.152
717.2860, 5421.215
718.4380, 5554.605
719.5900, 5210.977
720.7420, 5226.445
721.8940, 4910.945
723.0450, 4809.523
724.1970, 4967.203
725.3480, 5046.934
726.4990, 4891.316
727.6500, 4810.773
728.8010, 4639.773
729.9510, 4523.863
731.1020, 4451.062
732.2520, 4361.125
733.4020, 4276.355
734.5520, 4409.418
735.7020, 4285.598
736.8510, 4246.805
738.0010, 4404.141
739.1500, 4833.660
740.2990, 4653.031
741.4480, 4690.402
742.5970, 4761.938
743.7450, 4630.344
744.8940, 4871.750
746.0420, 4767.168
747.1900, 5144.594
748.3380, 5225.031
749.4860, 5346.473
750.6330, 5517.914
751.7810, 5507.367
752.9280, 5978.828
754.0750, 5761.301
755.2220, 6053.770
756.3690, 5903.250
757.5160, 5926.734
758.6620, 6182.227
759.8090, 6331.727
760.9550, 6389.230
762.1010, 6532.734
763.2470, 6559.254
764.3920, 6681.773
765.5380, 6759.301
766.6830, 6709.832
767.8280, 6910.363
768.9730, 6470.906
770.1180, 6377.453
771.2630, 6663.004
772.4070, 7036.562
773.5520, 6458.121
774.6960, 6070.688
775.8400, 6529.258
776.9840, 6071.832
778.1280, 6137.414
779.2710, 5660.996
780.4140, 5587.586
781.5580, 5286.180
782.7010, 5051.773
783.8440, 4805.375
784.9860, 4798.980
786.1290, 4344.594
787.2710, 3833.203
788.4140, 3786.824
789.5560, 3660.445
790.6980, 3250.070
791.8390, 2724.695
792.9810, 2845.328
794.1220, 2356.961
795.2640, 2215.598
796.4050, 1879.238
797.5460, 1805.883
798.6860, 1550.531
799.8270, 992.1797
800.9680, 1305.832
802.1080, 705.4883
803.2480, 984.1406
804.3880, 696.0000
805.5280, 436.9219
806.6670, 306.1250
807.8070, 66.78906
808.9460, 12.45703
810.0850, 95.11328
811.2240, 145.7656
812.3630, 108.5742
813.5020, 8.003906
814.6400, 149.4336
815.7790, 22.96484
816.9170, 340.5352
818.0550, 313.7031
819.1930, 377.0625
820.3300, 214.0469
821.4680, 352.1602
822.6050, 559.4805
823.7430, 122.1211
824.8800, 86.84766
826.0170, 199.6406
827.1530, 209.5586
828.2900, 94.60938
829.4260, 2.265625
830.5620, 59.30469
831.6990, 255.0742
832.8340, 79.42188
833.9700, 1.164063
835.1060, 168.7305
836.2410, 200.6562
837.3760, 21.86328
838.5120, 183.4219
839.6470, 28.98047
840.7810, 144.4727
841.9160, 132.0156
843.0500, 129.3477
844.1850, 63.28516
845.3190, 10.03516
846.4530, 65.33203
847.5870, 70.36328
848.7200, 24.88281
849.8540, 474.1250
850.9870, 66.63281
852.1200, 263.5547
853.2530, 42.25000
854.3860, 88.90625
855.5190, 490.0625
856.6510, 616.2227
857.7840, 428.3789
858.9160, 551.5391
860.0480, 827.7109
861.1800, 749.8711
862.3110, 981.0391
863.4430, 1016.203
864.5740, 1194.371
865.7060, 1207.535
866.8370, 1270.703
867.9680, 1292.867
869.0980, 1204.031
870.2290, 1333.719
871.3590, 1402.973
872.4900, 1559.562
873.6200, 1636.746
874.7500, 1852.930
875.8790, 1907.145
877.0090, 1512.359
878.1380, 1797.578
879.2680, 1298.797
880.3970, 1608.020
881.5260, 1812.238
882.6550, 1588.461
883.7830, 1505.676
884.9120, 1452.906
886.0400, 1399.172
887.1680, 1407.242
888.2960, 1421.762
889.4240, 1407.004
890.5520, 1596.289
891.6790, 1500.570
892.8070, 1753.852
893.9340, 1457.137
895.0610, 1224.418
896.1880, 1669.715
897.3140, 1355.016
898.4410, 1416.340
899.5670, 1529.672
900.6940, 1839.012
901.8200, 1700.562
902.9450, 1618.684
904.0710, 1501.020
905.1970, 1408.363
906.3220, 1224.750
907.4470, 1560.156
908.5730, 1488.574
909.6980, 1685.996
910.8220, 1506.453
911.9470, 1588.930
913.0710, 1626.484
914.1960, 1688.895
915.3200, 1788.434
916.4440, 1628.980
917.5680, 1884.539
918.6910, 1735.098
919.8150, 2009.652
920.9380, 1943.270
922.0610, 1965.367
923.1840, 1966.348
924.3070, 1993.910
925.4300, 2205.484
926.5520, 2275.449
927.6750, 2229.828
928.7970, 2243.258
929.9190, 2152.863
931.0410, 2030.473
932.1630, 2119.078
933.2840, 2083.691
934.4060, 2308.316
935.5270, 2118.945
936.6480, 1883.590
937.7690, 1926.262
938.8900, 2187.945
940.0100, 2459.629
941.1310, 2039.316
942.2510, 2163.020
943.3710, 2006.730
944.4910, 2230.383
945.6110, 2318.102
946.7310, 1913.820
947.8500, 2087.293
948.9690, 1347.680
950.0890, 1785.559
951.2080, 1804.266
952.3260, 1405.129
953.4450, 1687.027
954.5640, 1384.574
955.6820, 1376.336
956.8000, 1582.418
957.9180, 1509.484
959.0360, 1187.008
960.1540, 1314.754
961.2710, 1310.434
962.3890, 860.5078
963.5060, 1005.820
964.6230, 866.9531
965.7400, 753.0625
966.8570, 995.9102
967.9730, 691.3594
969.0900, 820.6211
970.2060, 963.8203
971.3220, 958.0391
972.4380, 723.4805
973.5540, 1284.785
974.6700, 726.5469
975.7850, 856.2383
976.9010, 899.7578
978.0160, 798.1797
979.1310, 1116.148
980.2460, 672.3555
981.3600, 748.8750
982.4750, 1159.586
983.5890, 828.5859
984.7030, 925.1836
985.8170, 1052.309
986.9310, 1060.953
988.0450, 931.6836
989.1590, 672.3789
990.2720, 1211.094
991.3850, 1082.844
992.4980, 1184.609
993.6110, 819.4062
994.7240, 1360.219
995.8370, 1229.059
996.9490, 1486.918
998.0620, 1441.809
999.1740, 1616.727
1000.286, 1606.668
1001.398, 1690.633
1002.509, 1920.621
1003.621, 1616.637
1004.732, 1875.672
1005.843, 1925.730
1006.954, 1822.809
1008.065, 1971.914
1009.176, 2279.043
1010.286, 2047.191
1011.397, 2430.363
1012.507, 2218.555
1013.617, 2638.777
1014.727, 2501.016
1015.837, 2788.281
1016.946, 2569.562
1018.056, 2548.621
1019.165, 2722.230
1020.274, 2517.582
1021.383, 2553.008
1022.492, 2834.402
1023.601, 2313.816
1024.709, 2359.254
1025.817, 2484.719
1026.926, 2229.195
1028.034, 2376.703
1029.141, 2268.086
1030.249, 2232.773
1031.357, 2345.750
1032.464, 2135.277
1033.571, 2223.883
1034.678, 2388.512
1035.785, 2116.156
1036.892, 2091.824
1037.999, 2065.812
1039.105, 2009.602
1040.211, 1998.965
1041.317, 2117.352
1042.423, 2126.121
1043.529, 2358.078
1044.635, 2156.648
1045.740, 2217.477
1046.845, 2367.316
1047.951, 2088.559
1049.056, 2191.438
1050.160, 1962.008
1051.265, 2114.922
1052.370, 2375.852
1053.474, 1914.797
1054.578, 2317.762
1055.682, 2012.738
1056.786, 1895.754
1057.890, 2044.766
1058.993, 1946.914
1060.097, 2251.121
1061.200, 2310.184
1062.303, 2190.270
1063.406, 1902.887
1064.509, 2136.535
1065.612, 2296.848
1066.714, 2388.895
1067.816, 2202.488
1068.919, 2378.348
1070.021, 2411.297
1071.122, 2434.332
1072.224, 2121.840
1073.326, 1911.277
1074.427, 2053.441
1075.528, 2103.707
1076.629, 1864.988
1077.730, 1733.293
1078.831, 1721.898
1079.931, 1590.691
1081.032, 1326.953
1082.132, 1444.547
1083.232, 1550.129
1084.332, 1330.629
1085.432, 1522.758
1086.531, 1289.387
1087.631, 1425.137
1088.730, 1240.195
1089.829, 1390.332
1090.928, 1242.777
1092.027, 1122.953
1093.126, 1014.164
1094.224, 1048.453
1095.323, 964.7031
1096.421, 917.0664
1097.519, 899.2695
1098.617, 866.0352
1099.715, 788.5352
1100.812, 864.1367
1101.910, 399.8789
1103.007, 703.5078
1104.104, 795.8945
1105.201, 400.8828
1106.298, 612.9688
1107.394, 495.6641
1108.491, 588.4141
1109.587, 565.9922
1110.683, 668.2305
1111.779, 754.4531
1112.875, 515.2031
1113.971, 591.0625
1115.066, 605.9570
1116.162, 624.7227
1117.257, 473.7148
1118.352, 690.6562
1119.447, 555.2969
1120.542, 624.2695
1121.636, 449.2617
1122.731, 806.4492
1123.825, 672.4648
1124.919, 759.6094
1126.013, 461.6250
1127.107, 396.6445
1128.200, 263.6680
1129.294, 255.8281
1130.387, 237.3711
1131.480, 376.3750
1132.573, 205.8086
1133.666, 245.0625
1134.759, 80.08594
1135.851, 115.1523
1136.944, 19.13672
1138.036, 150.1641
1139.128, 67.47266
1140.220, 110.6055
1141.312, 36.23828
1142.403, 177.2617
1143.495, 284.2773
1144.586, 344.2930
1145.677, 296.9922
1146.768, 214.3281
1147.859, 104.3398
1148.950, 53.65234
1150.040, 158.6641
1151.130, 324.2461
1152.221, 72.84766
1153.311, 134.0273
1154.401, 17.89453
1155.490, 14.76172
1156.580, 50.62500
1157.669, 65.48047
1158.759, 104.3320
1159.848, 25.80859
1160.937, 47.97656
1162.025, 67.17188
1163.114, 58.41406
1164.202, 163.3242
1165.291, 19.04688
1166.379, 107.7656
1167.467, 102.4766
1168.555, 52.17969
1169.642, 170.1211
1170.730, 60.52344
1171.817, 43.96484
1172.905, 142.5625
1173.992, 113.9258
1175.078, 58.48047
1176.165, 362.9180
1177.252, 62.30859
1178.338, 224.3086
1179.425, 206.9414
1180.511, 19.81641
1181.597, 118.3984
1182.682, 248.6016
1183.768, 332.7969
1184.854, 130.9844
1185.939, 155.1602
1187.024, 72.33203
1188.109, 88.48438
1189.194, 54.80859
1190.279, 66.05859
1191.363, 186.0156
1192.448, 241.1680
1193.532, 138.2227
1194.616, 163.2695
1195.700, 137.7656
1196.784, 3.316406
1197.867, 104.3125
1198.951, 41.70703
1200.034, 50.77344
1201.117, 15.10547
1202.200, 58.95703
1203.283, 68.60547
1204.366, 17.37891
1205.448, 132.4023
1206.531, 155.1758
1207.613, 241.0000
1208.695, 59.74609
1209.777, 5.531250
1210.859, 106.8438
1211.940, 31.25000
1213.022, 124.6445
1214.103, 187.7969
1215.184, 81.58594
1216.265, 217.7578
1217.346, 212.1250
1218.427, 95.67578
1219.507, 27.00781
1220.587, 75.30859
1221.668, 288.5898
1222.748, 186.8516
1223.828, 225.0938
1224.907, 249.3242
1225.987, 264.5391
1227.066, 58.27344
1228.146, 99.84375
1229.225, 126.0664
1230.304, 145.9062
1231.382, 446.8555
1232.461, 298.7891
1233.540, 120.3047
1234.618, 102.7578
1235.696, 87.53125
1236.774, 470.7461
1237.852, 412.4727
1238.930, 83.50000
1240.007, 98.10547
1241.085, 105.6914
1242.162, 67.75000
1243.239, 320.7227
1244.316, 387.4375
1245.393, 14.86328
1246.469, 185.2500
1247.546, 275.6055
1248.622, 83.93750
1249.698, 273.7031
1250.774, 241.1602
1251.850, 67.20312
1252.926, 232.4727
1254.001, 190.6250
1255.077, 342.1055
1256.152, 225.2656
1257.227, 225.3984
1258.302, 74.50781
1259.377, 111.5820
1260.451, 86.62891
1261.526, 133.6367
1262.600, 179.9375
1263.674, 269.5703
1264.748, 304.4961
1265.822, 406.3984
1266.896, 476.2734
1267.969, 563.1328
1269.043, 489.7969
1270.116, 376.7773
1271.189, 329.5625
1272.262, 394.3242
1273.335, 395.0625
1274.407, 460.7734
1275.480, 412.7656
1276.552, 425.2539
1277.624, 351.7422
1278.696, 362.5938
1279.768, 418.8945
1280.840, 327.4453
1281.911, 346.1016
1282.982, 283.5977
1284.054, 388.0742
1285.125, 500.5156
1286.196, 479.9375
1287.266, 496.3242
1288.337, 246.6953
1289.407, 659.1719
1290.478, 252.3398
1291.548, 427.2148
1292.618, 470.5312
1293.688, 345.7656
1294.757, 305.9688
1295.827, 521.1445
1296.896, 489.2969
1297.965, 580.4219
1299.034, 409.1133
1300.103, 347.5820
1301.172, 343.9883
1302.241, 523.0117
1303.309, 488.8320
1304.377, 450.0352
1305.445, 327.9805
1306.513, 238.4062
1307.581, 597.9219
1308.649, 510.7891
1309.716, 430.9570
1310.784, 624.7812
1311.851, 367.5781
1312.918, 646.3477
1313.985, 343.0977
1315.052, 337.8203
1316.118, 724.5078
1317.185, 179.1836
1318.251, 298.7266
1319.317, 472.1992
1320.383, 197.8086
1321.449, 561.3828
1322.514, 369.9414
1323.580, 380.4727
1324.645, 373.9883
1325.711, 445.2930
1326.776, 228.7617
1327.840, 1040.766
1328.905, 639.9219
1329.970, 726.4414
1331.034, 330.9102
1332.099, 538.0703
1333.163, 320.5000
1334.227, 282.8203
1335.290, 197.1211
1336.354, 440.4023
1337.418, 250.3750
1338.481, 244.1562
1339.544, 282.5039
1340.607, 34.51562
1341.670, 290.5938
1342.733, 147.7539
1343.795, 408.5078
1344.858, 285.5508
1345.920, 146.9844
1346.982, 462.8203
1348.044, 298.8945
1349.106, 380.3711
1350.168, 401.3516
1351.229, 279.2969
1352.291, 540.8125
1353.352, 219.1836
1354.413, 198.0820
1355.474, 306.3633
1356.534, 235.9336
1357.595, 282.8906
1358.656, 294.6055
1359.716, 559.6875
1360.776, 319.6992
1361.836, 110.2344
1362.896, 303.6680
1363.955, 64.00781
1365.015, 300.0430
1366.074, 95.74219
1367.134, 234.8477
1368.193, 528.9531
1369.252, 523.2227
1370.310, 750.7188
1371.369, 98.54688
1372.427, 255.5078
1373.486, 204.3477
1374.544, 313.8516
1375.602, 204.4258
1376.660, 48.29688
1377.717, 64.59375
1378.775, 26.62500
1379.832, 179.4297
1380.889, 142.9023
1381.946, 115.2383
1383.003, 297.6914
1384.060, 198.4727
1385.117, 308.8984
1386.173, 198.1914
1387.230, 298.0352
1388.286, 222.5039
1389.342, 326.4805
