##NAMES=Annite
##RRUFFID=R060204
##IDEAL CHEMISTRY=KFe^2+^_3_AlSi_3_O_10_(OH)_2_
##LOCALITY=Mont Saint-Hilaire, Rouville County, Quebec, Canada
##OWNER=RRUFF
##SOURCE=Royal Ontario Museum
##DESCRIPTION=Black mica with pseudohexagonal outines
##STATUS=The identification of this mineral has been confirmed by X-ray diffraction and chemical analysis
##URL=rruff.info/R060204
##MEASURED CHEMISTRY=(K_0.96_Na_0.04_)_Σ=1_(Fe^2+^_2.04_Mg_0.81_Mn_0.09_Ti_0.03_[box]_0.03_)_Σ=3_(Si_3.00_Al_1.00_)O_10_((OH)_1.54_F_0.46_)_Σ=2_
##PIN_ID=M00140
##ORIENTATION=Laser parallel to c* (0 0 1). Fiducial mark perpendicular to laser is parallel to -a [-1 0 0]
307.1510, 0.0000000E+00
308.3580, 28.42578
309.5660, 16.20312
310.7730, 189.5000
311.9800, 268.5703
313.1870, 372.0586
314.3940, 307.7734
315.6010, 350.1523
316.8070, 271.3984
318.0130, 320.5391
319.2200, 94.83203
320.4260, 154.7461
321.6310, 50.12891
322.8370, 122.4453
324.0430, 220.5273
325.2480, 248.0781
326.4540, 8.214844
327.6590, 103.5938
328.8640, 68.76562
330.0680, 28.42188
331.2730, 193.6641
332.4780, 18.38672
333.6820, 144.5312
334.8860, 158.3828
336.0900, 241.0703
337.2940, 175.9688
338.4980, 157.0000
339.7010, 286.5898
340.9050, 334.4688
342.1080, 253.6719
343.3110, 342.7773
344.5140, 157.3516
345.7170, 504.8047
346.9200, 278.7227
348.1220, 458.8867
349.3240, 620.2891
350.5270, 479.9180
351.7290, 624.7617
352.9310, 584.8047
354.1320, 651.0469
355.3340, 588.4766
356.5350, 616.5156
357.7370, 610.9219
358.9380, 586.8320
360.1390, 616.9609
361.3400, 493.2578
362.5400, 532.7148
363.7410, 654.3359
364.9410, 661.1094
366.1410, 541.0352
367.3410, 685.1172
368.5410, 661.3516
369.7410, 399.7344
370.9400, 607.2617
372.1400, 819.9297
373.3390, 506.7422
374.5380, 510.6992
375.7370, 824.7969
376.9360, 585.4141
378.1350, 549.6914
379.3330, 476.4688
380.5310, 703.3555
381.7300, 656.4609
382.9280, 720.4492
384.1260, 661.5625
385.3230, 532.8203
386.5210, 532.0820
387.7180, 413.3555
388.9160, 530.7227
390.1130, 889.1250
391.3100, 692.0195
392.5060, 744.0820
393.7030, 753.6445
394.9000, 582.2656
396.0960, 712.9414
397.2920, 707.7383
398.4880, 815.5234
399.6840, 856.4102
400.8800, 847.3672
402.0750, 945.3984
403.2710, 977.5000
404.4660, 925.8945
405.6610, 969.1172
406.8560, 886.2500
408.0510, 880.6562
409.2450, 1034.133
410.4400, 849.6953
411.6340, 1312.336
412.8280, 1145.051
414.0220, 1189.848
415.2160, 1207.723
416.4100, 1158.676
417.6030, 1114.711
418.7970, 1230.824
419.9900, 1149.016
421.1830, 1105.289
422.3760, 1097.637
423.5690, 1237.070
424.7610, 996.5781
425.9540, 1065.172
427.1460, 1015.836
428.3380, 794.5898
429.5300, 961.4219
430.7220, 745.3359
431.9140, 702.3242
433.1050, 719.3945
434.2970, 563.5547
435.4880, 230.7852
436.6790, 476.1055
437.8700, 233.5039
439.0610, 380.9922
440.2510, 381.5664
441.4420, 267.2266
442.6320, 448.9766
443.8220, 149.8242
445.0120, 160.7656
446.2020, 85.80469
447.3910, 164.2773
448.5810, 39.37500
449.7700, 75.97656
450.9600, 118.5859
452.1490, 35.92578
453.3370, 171.5312
454.5260, 22.03516
455.7150, 127.9219
456.9030, 223.0977
458.0910, 249.9219
459.2800, 670.6562
460.4670, 529.2500
461.6550, 519.9219
462.8430, 342.7773
464.0300, 231.8789
465.2180, 251.4062
466.4050, 276.7461
467.5920, 292.2031
468.7790, 450.0352
469.9650, 621.3320
471.1520, 847.1016
472.3380, 846.9805
473.5250, 899.9531
474.7110, 996.0977
475.8970, 784.5430
477.0820, 995.0625
478.2680, 1045.410
479.4540, 817.8516
480.6390, 1202.379
481.8240, 1834.992
483.0090, 1401.688
484.1940, 1503.469
485.3780, 1684.336
486.5630, 1548.281
487.7470, 1621.758
488.9320, 2316.410
490.1160, 1669.586
491.3000, 1877.840
492.4830, 2157.168
493.6670, 1896.570
494.8500, 2198.039
496.0340, 2224.590
497.2170, 2053.203
498.4000, 2544.891
499.5820, 2329.652
500.7650, 2257.480
501.9480, 2087.379
503.1300, 2184.340
504.3120, 2098.375
505.4940, 2322.473
506.6760, 2229.641
507.8580, 2249.871
509.0390, 2363.172
510.2210, 2378.531
511.4020, 2641.961
512.5830, 2656.910
513.7640, 2577.008
514.9450, 2779.629
516.1250, 2461.305
517.3060, 2435.051
518.4860, 2657.855
519.6660, 2316.723
520.8460, 2351.648
522.0260, 2736.633
523.2060, 2246.668
524.3850, 2532.738
525.5650, 2289.863
526.7440, 2555.051
527.9230, 2666.293
529.1020, 2416.598
530.2810, 2177.957
531.4590, 2173.371
532.6380, 2410.848
533.8160, 2399.379
534.9940, 2522.969
536.1720, 2536.746
537.3500, 2468.086
538.5270, 2580.082
539.7050, 2565.777
540.8820, 2513.777
542.0590, 2599.711
543.2360, 2635.699
544.4130, 2588.746
545.5900, 2912.848
546.7660, 2711.008
547.9430, 2391.219
549.1190, 2478.492
550.2950, 2749.812
551.4710, 2567.695
552.6470, 2942.660
553.8220, 2106.168
554.9980, 3084.734
556.1730, 2002.352
557.3480, 2094.023
558.5230, 1954.797
559.6980, 1795.621
560.8730, 1721.504
562.0470, 1693.480
563.2220, 1644.516
564.3960, 1298.645
565.5700, 1491.883
566.7440, 1336.219
567.9170, 1542.664
569.0910, 1318.180
570.2640, 1051.793
571.4380, 893.5078
572.6110, 987.3320
573.7840, 900.3086
574.9570, 815.2344
576.1290, 734.6836
577.3020, 676.9453
578.4740, 466.3867
579.6460, 478.9609
580.8180, 379.6328
581.9900, 319.4141
583.1620, 86.23828
584.3330, 187.8711
585.5040, 260.9609
586.6760, 351.0039
587.8470, 931.0391
589.0180, 221.0508
590.1880, 19.86719
591.3590, 216.2578
592.5290, 116.5703
593.7000, 60.84766
594.8700, 57.58203
596.0400, 190.7344
597.2090, 105.0547
598.3790, 303.6836
599.5490, 15.70312
600.7180, 45.85547
601.8870, 198.3672
603.0560, 21.12500
604.2250, 198.6719
605.3940, 74.72656
606.5620, 34.92969
607.7300, 8.640625
608.8990, 139.5898
610.0670, 220.1953
611.2350, 161.0391
612.4020, 358.9336
613.5700, 19.88281
614.7370, 272.8867
615.9050, 202.9375
617.0720, 10.95312
618.2390, 223.2031
619.4060, 173.4062
620.5720, 383.6602
621.7390, 432.9648
622.9050, 417.3164
624.0710, 546.7188
625.2370, 512.1680
626.4030, 269.6719
627.5690, 266.2227
628.7340, 454.8164
629.9000, 314.4609
631.0650, 427.1445
632.2300, 622.8789
633.3950, 540.6602
634.5600, 711.4883
635.7240, 366.3594
636.8890, 729.2812
638.0530, 742.2461
639.2170, 944.2539
640.3810, 557.3047
641.5450, 561.4023
642.7080, 694.5391
643.8720, 762.7188
645.0350, 828.9453
646.1980, 924.2148
647.3610, 990.5234
648.5240, 1317.875
649.6870, 1259.273
650.8490, 1343.711
652.0120, 1375.188
653.1740, 1776.703
654.3360, 1683.262
655.4980, 1935.859
656.6600, 1896.496
657.8210, 2211.172
658.9830, 2274.891
660.1440, 2668.648
661.3050, 2952.445
662.4660, 3079.277
663.6270, 3422.500
664.7870, 3483.059
665.9480, 3902.004
667.1080, 4192.992
668.2680, 4366.016
669.4280, 4986.074
670.5880, 5410.172
671.7480, 5368.309
672.9070, 5958.477
674.0670, 5429.680
675.2260, 5654.918
676.3850, 5111.195
677.5440, 5348.504
678.7030, 5258.871
679.8610, 5045.254
681.0200, 4674.668
682.1780, 4177.117
683.3360, 4323.598
684.4940, 3744.113
685.6520, 3768.660
686.8090, 4099.242
687.9670, 3060.855
689.1240, 3137.500
690.2810, 3528.457
691.4380, 3398.324
692.5950, 3343.066
693.7520, 3281.012
694.9080, 3314.809
696.0650, 3521.641
697.2210, 3382.570
698.3770, 3570.551
699.5330, 4011.555
700.6880, 4277.695
701.8440, 3995.047
702.9990, 4045.656
704.1550, 4941.246
705.3100, 4773.719
706.4650, 5079.445
707.6190, 4871.402
708.7740, 5337.242
709.9290, 5473.832
711.0830, 5612.410
712.2370, 5766.086
713.3910, 5767.188
714.5450, 6128.793
715.6980, 6046.969
716.8520, 5979.297
718.0050, 6349.688
719.1580, 6308.090
720.3110, 6053.066
721.4640, 6251.375
722.6170, 6153.035
723.7700, 5704.500
724.9220, 5323.953
726.0740, 5395.836
727.2260, 5349.199
728.3780, 5048.492
729.5300, 4761.465
730.6810, 4902.852
731.8330, 4748.773
732.9840, 4152.223
734.1350, 4227.250
735.2860, 3886.676
736.4370, 3913.117
737.5880, 3782.355
738.7380, 3623.816
739.8880, 3558.242
741.0390, 3961.152
742.1890, 3565.320
743.3380, 3831.117
744.4880, 3030.684
745.6380, 3680.188
746.7870, 3336.691
747.9360, 3212.938
749.0850, 3252.453
750.2340, 3420.980
751.3830, 3467.512
752.5310, 3365.051
753.6800, 3934.590
754.8280, 3572.133
755.9760, 3937.836
757.1240, 3895.980
758.2720, 4208.539
759.4190, 4344.102
760.5670, 4112.668
761.7140, 4264.648
762.8610, 4641.812
764.0080, 4296.383
765.1550, 4365.961
766.3020, 4633.547
767.4480, 4634.129
768.5950, 4477.715
769.7410, 4773.305
770.8870, 4398.895
772.0330, 4206.488
773.1780, 4385.078
774.3240, 4289.680
775.4690, 4244.270
776.6140, 3837.863
777.7590, 3629.461
778.9040, 3737.059
780.0490, 3824.656
781.1940, 3386.254
782.3380, 3281.855
783.4820, 3085.449
784.6260, 2899.051
785.7700, 2575.648
786.9140, 2534.246
788.0580, 2370.840
789.2010, 2058.434
790.3450, 2044.027
791.4880, 1944.621
792.6310, 1675.207
793.7730, 1663.797
794.9160, 1560.387
796.0590, 1164.969
797.2010, 1360.551
798.3430, 1056.133
799.4850, 900.7109
800.6270, 1006.285
801.7690, 887.8633
802.9100, 586.4297
804.0520, 507.0000
805.1930, 231.8906
806.3340, 389.0039
807.4750, 470.8359
808.6160, 481.4414
809.7560, 207.4766
810.8970, 300.9531
812.0370, 247.1914
813.1770, 187.3750
814.3170, 332.5742
815.4570, 99.97656
816.5960, 241.9297
817.7360, 234.3555
818.8750, 295.2148
820.0140, 207.8945
821.1530, 166.3359
822.2920, 273.0000
823.4310, 297.5859
824.5690, 193.1953
825.7070, 258.3867
826.8460, 20.58203
827.9840, 48.63672
829.1220, 191.3750
830.2590, 94.38672
831.3970, 162.2266
832.5340, 167.2852
833.6710, 112.9648
834.8080, 102.8672
835.9450, 104.1016
837.0820, 114.9844
838.2190, 83.73438
839.3550, 105.0820
840.4910, 155.6562
841.6270, 102.2500
842.7630, 157.4688
843.8990, 41.68750
845.0350, 90.80469
846.1700, 154.7266
847.3060, 154.4922
848.4410, 336.4922
849.5760, 180.8320
850.7100, 256.0859
851.8450, 216.7773
852.9800, 151.6211
854.1140, 285.6680
855.2480, 119.8711
856.3820, 181.4648
857.5160, 195.8125
858.6500, 10.08984
859.7830, 93.33984
860.9170, 143.3906
862.0500, 30.18359
863.1830, 206.9805
864.3160, 38.86719
865.4480, 146.2422
866.5810, 223.3555
867.7130, 40.54297
868.8460, 51.53125
869.9780, 105.6055
871.1100, 273.6836
872.2410, 198.7617
873.3730, 100.8359
874.5050, 405.9609
875.6360, 276.0781
876.7670, 414.2031
877.8980, 323.3594
879.0290, 291.5117
880.1590, 491.6641
881.2900, 367.8281
882.4200, 398.9883
883.5500, 410.1484
884.6800, 167.3281
885.8100, 640.5078
886.9400, 511.6914
888.0690, 418.8711
889.1990, 324.0508
890.3280, 564.2305
891.4570, 637.4102
892.5860, 725.5938
893.7140, 774.7812
894.8430, 925.9648
895.9710, 800.1562
897.1000, 685.3438
898.2280, 812.5352
899.3560, 729.7266
900.4830, 898.9180
901.6110, 853.1094
902.7380, 1086.309
903.8660, 993.5078
904.9930, 898.7070
906.1200, 1016.910
907.2460, 958.1172
908.3730, 1011.328
909.5000, 1001.898
910.6260, 1000.750
911.7520, 996.9648
912.8780, 971.1836
914.0040, 1046.410
915.1290, 978.6367
916.2550, 1141.867
917.3800, 1063.098
918.5050, 1055.336
919.6300, 1343.574
920.7550, 1443.824
921.8800, 1238.078
923.0040, 1300.336
924.1290, 1315.324
925.2530, 1170.859
926.3770, 1377.125
927.5010, 1273.402
928.6250, 1252.680
929.7480, 1594.969
930.8720, 1182.266
931.9950, 1498.562
933.1180, 1784.867
934.2410, 1693.176
935.3640, 1526.496
936.4860, 1549.887
937.6090, 1580.285
938.7310, 1386.688
939.8530, 1560.102
940.9750, 1628.520
942.0970, 1748.949
943.2180, 1668.379
944.3400, 1594.820
945.4610, 1489.281
946.5820, 1692.750
947.7030, 1546.230
948.8240, 2121.754
949.9450, 1615.289
951.0650, 1857.852
952.1860, 1827.445
953.3060, 1628.066
954.4260, 1893.695
955.5460, 1526.332
956.6650, 1552.977
957.7850, 1635.637
958.9040, 1621.336
960.0230, 1583.051
961.1420, 1404.770
962.2610, 1551.230
963.3800, 1381.824
964.4990, 1398.586
965.6170, 1344.195
966.7350, 1386.020
967.8530, 1187.867
968.9710, 1492.676
970.0890, 1341.496
971.2070, 1476.348
972.3240, 1344.133
973.4410, 1505.750
974.5580, 1540.148
975.6750, 1340.621
976.7920, 1529.258
977.9090, 1447.695
979.0250, 1375.848
980.1410, 1660.512
981.2580, 1243.316
982.3740, 1168.176
983.4890, 1150.203
984.6050, 1332.191
985.7200, 1588.434
986.8360, 1698.891
987.9510, 1768.246
989.0660, 1207.625
990.1810, 1633.027
991.2950, 1407.902
992.4100, 1654.477
993.5240, 1407.773
994.6390, 1492.344
995.7530, 1870.824
996.8660, 1083.055
997.9800, 1406.836
999.0940, 1615.738
1000.207, 1493.602
1001.320, 1345.492
1002.433, 1121.590
1003.546, 1200.000
1004.659, 1557.027
1005.772, 1336.059
1006.884, 1520.168
1007.996, 1577.309
1009.108, 1573.477
1010.220, 1551.676
1011.332, 1493.906
1012.444, 1454.172
1013.555, 1841.465
1014.666, 1570.789
1015.777, 1664.145
1016.888, 1816.531
1017.999, 1726.949
1019.110, 1868.395
1020.220, 2017.879
1021.331, 1577.391
1022.441, 1988.934
1023.551, 1940.207
1024.661, 1676.117
1025.770, 2214.758
1026.880, 1746.426
1027.989, 1910.129
1029.098, 1787.863
1030.207, 1476.633
1031.316, 1808.430
1032.425, 1891.258
1033.533, 1890.125
1034.642, 1880.020
1035.750, 1805.949
1036.858, 1823.910
1037.966, 1876.902
1039.073, 1870.926
1040.181, 2026.984
1041.288, 1798.070
1042.396, 1715.195
1043.503, 1909.348
1044.610, 1886.535
1045.716, 1744.754
1046.823, 1928.008
1047.929, 2098.297
1049.036, 1966.617
1050.142, 2269.965
1051.248, 1956.348
1052.353, 2085.766
1053.459, 2376.211
1054.564, 2132.695
1055.670, 2171.207
1056.775, 1992.758
1057.880, 2179.336
1058.985, 2226.953
1060.089, 2389.602
1061.194, 2397.980
1062.298, 2435.992
1063.402, 2349.742
1064.506, 2276.520
1065.610, 2144.328
1066.713, 2185.195
1067.817, 2049.215
1068.920, 2203.910
1070.023, 2268.082
1071.126, 2261.055
1072.229, 1969.492
1073.332, 2045.422
1074.435, 1974.121
1075.537, 1896.848
1076.639, 2024.621
1077.741, 1776.617
1078.843, 1901.879
1079.945, 1876.992
1081.046, 1928.859
1082.148, 1824.281
1083.249, 1775.562
1084.350, 1865.062
1085.451, 1875.844
1086.551, 1754.379
1087.652, 1802.492
1088.752, 1547.691
1089.853, 1558.766
1090.953, 1692.570
1092.053, 1578.703
1093.152, 1629.746
1094.252, 1618.031
1095.351, 1321.043
1096.451, 1522.219
1097.550, 1506.898
1098.649, 1279.938
1099.748, 1531.402
1100.846, 1621.227
1101.945, 1478.117
1103.043, 1473.043
1104.141, 1424.000
1105.239, 1241.023
1106.337, 1341.086
1107.434, 1264.039
1108.532, 1265.285
1109.629, 1176.211
1110.726, 1293.234
1111.823, 1313.645
1112.920, 1277.449
1114.017, 1114.844
1115.113, 1275.184
1116.210, 1352.109
1117.306, 1357.727
1118.402, 1078.875
1119.498, 1171.047
1120.593, 1121.559
1121.689, 1057.152
1122.784, 1198.004
1123.879, 960.9844
1124.974, 1107.230
1126.069, 1095.309
1127.164, 1151.832
1128.259, 1067.008
1129.353, 1021.250
1130.447, 1126.141
1131.541, 1146.598
1132.635, 1038.230
1133.729, 1102.984
1134.822, 861.1523
1135.916, 885.2188
1137.009, 1024.082
1138.102, 933.8477
1139.195, 997.7891
1140.288, 998.9766
1141.380, 714.8828
1142.473, 926.9766
1143.565, 924.5195
1144.657, 701.7500
1145.749, 896.9062
1146.841, 704.5430
1147.932, 650.5391
1149.024, 700.6367
1150.115, 642.2383
1151.206, 754.9531
1152.297, 702.8594
1153.388, 636.0469
1154.479, 633.5195
1155.569, 448.9141
1156.659, 602.1758
1157.750, 524.6562
1158.839, 561.8984
1159.929, 625.1406
1161.019, 489.2930
1162.108, 564.2539
1163.198, 312.3555
1164.287, 333.9727
1165.376, 326.1602
1166.465, 493.1914
1167.553, 242.9531
1168.642, 257.0391
1169.730, 383.6836
1170.818, 352.8750
1171.906, 387.9102
1172.994, 228.0469
1174.082, 251.3125
1175.170, 224.1055
1176.257, 371.3320
1177.344, 380.8906
1178.431, 224.4102
1179.518, 68.64062
1180.605, 228.4570
1181.691, 89.19141
1182.778, 370.8594
1183.864, 192.2188
1184.950, 348.5859
1186.036, 269.9648
1187.122, 148.3555
1188.207, 124.7539
1189.292, 133.1602
1190.378, 329.5703
1191.463, 216.9961
1192.548, 20.42969
1193.632, 289.8672
1194.717, 223.3164
1195.801, 318.7734
1196.886, 3.234375
1197.970, 119.7031
1199.054, 277.8203
1200.137, 39.53125
1201.221, 120.8828
1202.305, 158.2422
1203.388, 239.5938
1204.471, 141.9883
1205.554, 185.3672
1206.637, 47.75391
1207.719, 47.85938
1208.802, 23.65625
1209.884, 170.8828
1210.966, 151.7383
1212.048, 136.5664
1213.130, 177.1250
1214.212, 71.10156
1215.293, 62.67578
1216.374, 287.5234
1217.456, 180.7266
1218.536, 191.9336
1219.617, 290.5430
1220.698, 135.6445
1221.778, 303.4961
1222.859, 60.64062
1223.939, 4.789063
1225.019, 210.9375
1226.099, 28.91797
1227.178, 93.21875
1228.258, 138.6484
1229.337, 6.593750
1230.417, 76.54688
1231.496, 75.54297
1232.574, 167.4102
1233.653, 122.6328
1234.732, 78.25391
1235.810, 118.1445
1236.888, 50.97266
1237.966, 13.12500
1239.044, 18.29297
1240.122, 286.4883
1241.199, 124.1641
1242.277, 72.19141
1243.354, 30.40234
1244.431, 120.0078
1245.508, 22.50781
1246.585, 72.01172
1247.661, 185.5156
1248.738, 35.98047
1249.814, 124.5117
1250.890, 87.87109
1251.966, 31.25000
1253.042, 269.6211
1254.117, 117.0156
1255.193, 55.26562
1256.268, 54.53516
1257.343, 84.19531
1258.418, 69.37891
1259.493, 11.66016
1260.567, 151.3516
1261.642, 42.50391
1262.716, 31.35547
1263.790, 155.7422
1264.864, 283.8320
1265.938, 54.91797
1267.011, 141.0078
1268.085, 120.0938
1269.158, 293.1953
1270.231, 391.0039
1271.304, 417.5820
1272.377, 159.5664
1273.450, 269.0273
1274.522, 231.1953
1275.594, 187.3242
1276.666, 348.4648
1277.738, 131.7969
1278.810, 289.6719
1279.882, 298.0195
1280.953, 374.7852
1282.025, 303.3633
1283.096, 277.6992
1284.167, 400.2422
1285.238, 440.7109
1286.308, 352.1875
1287.379, 433.2461
1288.449, 211.2969
1289.519, 255.2305
1290.589, 413.8516
1291.659, 332.7461
1292.729, 416.4570
1293.798, 437.3750
1294.868, 172.9922
1295.937, 404.7695
1297.006, 421.9414
1298.075, 218.7891
1299.143, 433.5195
1300.212, 260.7305
1301.280, 226.2305
1302.348, 295.8398
1303.416, 256.9062
1304.484, 389.0625
1305.552, 356.3828
1306.620, 308.9531
1307.687, 325.7930
1308.754, 160.5000
1309.821, 333.0664
1310.888, 274.8281
1311.955, 331.2930
1313.021, 413.7539
1314.088, 297.1172
1315.154, 391.2461
1316.220, 158.4883
1317.286, 199.2266
1318.352, 210.5195
1319.417, 396.6055
1320.483, 165.4062
1321.548, 198.5078
1322.613, 344.1289
1323.678, 332.2617
1324.743, 386.2305
1325.807, 245.2500
1326.872, 287.3672
1327.936, 263.7305
1329.000, 429.7656
1330.064, 458.0977
1331.128, 320.3633
1332.191, 183.3203
1333.255, 361.8438
1334.318, 241.2422
1335.381, 281.9961
1336.444, 154.0938
1337.507, 171.3828
1338.569, 187.0547
1339.632, 268.1914
1340.694, 133.9180
1341.756, 279.7422
1342.818, 267.8945
1343.880, 302.1172
1344.941, 334.1445
1346.003, 141.1406
1347.064, 132.5977
1348.125, 387.9922
1349.186, 232.8711
1350.247, 166.9492
1351.308, 158.7852
1352.368, 423.1602
1353.428, 434.1875
1354.489, 140.3906
1355.549, 392.7578
1356.608, 301.6445
1357.668, 317.8438
1358.727, 293.5820
1359.787, 280.0547
1360.846, 134.8438
1361.905, 161.7383
1362.964, 343.0898
1364.022, 274.7461
1365.081, 372.2344
1366.139, 162.6758
1367.197, 136.3008
1368.255, 141.9883
1369.313, 184.1016
1370.371, 78.91797
1371.428, 262.9141
1372.486, 249.5000
1373.543, 80.51953
1374.600, 89.41797
1375.657, 70.76172
1376.713, 353.8555
1377.770, 209.1094
1378.826, 43.43750
1379.882, 212.3906
1380.938, 274.1953
1381.994, 182.2266
1383.050, 176.0391
1384.106, 23.60547
1385.161, 88.67188
1386.216, 83.38281
1387.271, 202.7695
1388.326, 50.91406
1389.381, 213.9531
1390.435, 65.78125
1391.490, 241.7070
1392.544, 90.67969
1393.598, 230.8477
1394.652, 12.77344
1395.705, 56.97266
1396.759, 122.3672
1397.812, 250.9414
1398.866, 131.8555
1399.919, 275.7227
1400.972, 188.8398
1402.024, 252.1445
1403.077, 232.1797
1404.129, 107.9688
1405.181, 277.7695
1406.233, 179.4414
1407.285, 262.1602
1408.337, 51.63672
1409.389, 197.6172
1410.440, 266.8594
1411.491, 320.2930
1412.542, 307.1953
1413.593, 265.3086
1414.644, 269.0859
1415.695, 195.2812
1416.745, 8.148438
1417.795, 56.16406
1418.845, 175.3281
1419.895, 259.2422
1420.945, 104.4219
1421.995, 206.5430
1423.044, 192.9688
1424.093, 288.8594
1425.142, 174.9570
1426.191, 310.8438
1427.240, 110.8750
1428.289, 272.1680
1429.337, 335.4414
1430.385, 29.76953
1431.433, 330.0430
1432.481, 83.21094
1433.529, 158.9180
1434.577, 214.2812
1435.624, 111.5469
1436.672, 316.4336
1437.719, 30.04297
1438.766, 90.32812
1439.812, 279.3594
1440.859, 158.0820
1441.905, 341.3633
1442.952, 219.7812
1443.998, 32.87500
1445.044, 296.7188
1446.090, 96.28906
1447.135, 199.5859
1448.181, 50.11328
1449.226, 330.8008
1450.271, 192.3398
1451.316, 73.39062
1452.361, 187.0664
1453.405, 291.1289
