##NAMES=Annite
##RRUFFID=R060211
##IDEAL CHEMISTRY=KFe^2+^_3_AlSi_3_O_10_(OH)_2_
##LOCALITY=Mont Saint-Hilaire, Rouville County, Quebec, Canada
##OWNER=RRUFF
##SOURCE=Royal Ontario Museum
##DESCRIPTION=Black mica
##STATUS=The identification of this mineral has been confirmed by X-ray diffraction and chemical analysis
##URL=rruff.info/R060211
##MEASURED CHEMISTRY=(K_0.94_[box]_0.03_Na_0.02_)_Σ=1_(Fe^2+^_2.07_Mg_0.57_Mn_0.33_Ti_0.03_)_Σ=3_(Si_2.98_Al_1.02_)O_10_((OH)_1.72_F_0.28_)_Σ=2_
##PIN_ID=L00722
##ORIENTATION=Laser parallel to a* (1 0 0). Fiducial mark perpendicular to laser is parallel to b [0 1 0]
230.7650, 0.0000000E+00
231.9820, 0.4462890
233.1990, 65.87988
234.4160, 95.82324
235.6330, 229.7754
236.8490, 171.1377
238.0660, 154.9209
239.2820, 94.80859
240.4980, 18.90723
241.7140, 2.762695
242.9300, 172.5020
244.1460, 34.91406
245.3610, 4.9805000E-02
246.5770, 179.3223
247.7920, 392.2861
249.0070, 250.9766
250.2220, 343.1465
251.4370, 552.8242
252.6510, 308.8662
253.8660, 394.9160
255.0800, 494.2480
256.2940, 428.6465
257.5080, 643.5879
258.7220, 840.0928
259.9360, 1568.273
261.1490, 2128.283
262.3630, 1487.253
263.5760, 1156.054
264.7890, 1128.141
266.0020, 1148.928
267.2150, 1208.469
268.4270, 1444.441
269.6400, 1248.435
270.8520, 1704.854
272.0640, 1803.898
273.2760, 1656.131
274.4880, 1683.253
275.7000, 1473.996
276.9120, 1728.772
278.1230, 1601.342
279.3340, 1041.971
280.5450, 1181.406
281.7560, 1011.085
282.9670, 1031.819
284.1780, 847.8369
285.3880, 833.9385
286.5980, 830.7930
287.8090, 756.7510
289.0190, 599.7666
290.2290, 515.6943
291.4380, 371.6318
292.6480, 396.5488
293.8570, 360.4463
295.0670, 316.3271
296.2760, 212.1934
297.4850, 112.0488
298.6930, 198.8955
299.9020, 155.7363
301.1110, 196.5732
302.3190, 318.4082
303.5270, 138.2734
304.7350, 146.2510
305.9430, 34.66992
307.1510, 5.499023
308.3580, 83.25195
309.5660, 120.9395
310.7730, 2.568359
311.9800, 97.14160
313.1870, 123.3408
314.3940, 121.8711
315.6010, 269.4453
316.8070, 118.0566
318.0130, 24.30078
319.2200, 54.62793
320.4260, 44.07031
321.6310, 53.79004
322.8370, 66.52441
324.0430, 94.66309
325.2480, 51.00000
326.4540, 170.7334
327.6590, 137.4600
328.8640, 327.1836
330.0680, 298.1289
331.2730, 271.1387
332.4780, 99.53613
333.6820, 132.9502
334.8860, 89.00293
336.0900, 82.84082
337.2940, 133.1719
338.4980, 218.8672
339.7010, 251.3223
340.9050, 270.8594
342.1080, 381.2920
343.3110, 255.5225
344.5140, 209.6279
345.7170, 302.7402
346.9200, 172.8389
348.1220, 257.8389
349.3240, 338.9316
350.5270, 264.6719
351.7290, 262.6641
352.9310, 488.6797
354.1320, 501.7168
355.3340, 351.7686
356.5350, 612.8311
357.7370, 378.9150
358.9380, 412.0244
360.1390, 349.1582
361.3400, 452.3174
362.5400, 380.5029
363.7410, 241.7129
364.9410, 483.9502
366.1410, 463.2129
367.3410, 595.5029
368.5410, 747.8193
369.7410, 750.1641
370.9400, 989.5361
372.1400, 831.9365
373.3390, 840.3652
374.5380, 770.8223
375.7370, 831.5537
376.9360, 1041.770
378.1350, 1080.609
379.3330, 1236.342
380.5310, 1499.963
381.7300, 1552.467
382.9280, 1729.838
384.1260, 1699.161
385.3230, 1760.268
386.5210, 1892.980
387.7180, 1844.141
388.9160, 1932.060
390.1130, 1930.396
391.3100, 2060.382
392.5060, 2047.414
393.7030, 2337.193
394.9000, 2121.009
396.0960, 1872.742
397.2920, 2027.396
398.4880, 1812.970
399.6840, 1672.473
400.8800, 1550.911
402.0750, 1364.293
403.2710, 1339.625
404.4660, 1219.912
405.6610, 1148.159
406.8560, 1099.371
408.0510, 919.5449
409.2450, 785.6572
410.4400, 740.6680
411.6340, 602.0547
412.8280, 622.6621
414.0220, 468.3232
415.2160, 381.7275
416.4100, 418.9766
417.6030, 364.2266
418.7970, 385.0742
419.9900, 310.1924
421.1830, 285.8936
422.3760, 186.5684
423.5690, 172.6289
424.7610, 194.7119
425.9540, 72.80469
427.1460, 112.9053
428.3380, 169.9883
429.5300, 130.9043
430.7220, 30.83398
431.9140, 88.25000
433.1050, 213.3525
434.2970, 117.4072
435.4880, 24.55078
436.6790, 10.24609
437.8700, 28.69434
439.0610, 40.21387
440.2510, 38.31543
441.4420, 15.55664
442.6320, 28.73535
443.8220, 13.77930
445.0120, 169.9424
446.2020, 308.2510
447.3910, 321.4199
448.5810, 498.2793
449.7700, 408.6748
450.9600, 303.6318
452.1490, 372.1387
453.3370, 483.3887
454.5260, 443.1719
455.7150, 368.1250
456.9030, 447.9551
458.0910, 662.8223
459.2800, 648.3643
460.4670, 777.3008
461.6550, 453.3379
462.8430, 506.5723
464.0300, 358.3369
465.2180, 85.47656
466.4050, 28.00000
467.5920, 19.97559
468.7790, 23.33496
469.9650, 6.885742
471.1520, 45.33398
472.3380, 99.69922
473.5250, 275.8242
474.7110, 266.5166
475.8970, 317.6152
477.0820, 486.0127
478.2680, 449.0840
479.4540, 657.0498
480.6390, 537.4912
481.8240, 530.2812
483.0090, 474.0957
484.1940, 526.9326
485.3780, 845.7949
486.5630, 931.6816
487.7470, 998.5938
488.9320, 1170.531
490.1160, 1165.493
491.3000, 1263.453
492.4830, 1223.465
493.6670, 1276.498
494.8500, 1353.557
496.0340, 1391.645
497.2170, 1541.757
498.4000, 1847.896
499.5820, 2041.063
500.7650, 2244.256
501.9480, 2372.745
503.1300, 2461.433
504.3120, 2500.995
505.4940, 2509.294
506.6760, 2471.620
507.8580, 2376.973
509.0390, 2498.352
510.2210, 2391.757
511.4020, 2813.189
512.5830, 2520.646
513.7640, 2808.130
514.9450, 2958.641
516.1250, 2701.176
517.3060, 2781.739
518.4860, 2480.313
519.6660, 2636.897
520.8460, 2704.494
522.0260, 2547.105
523.2060, 2433.727
524.3850, 2652.363
525.5650, 2555.014
526.7440, 2741.680
527.9230, 2840.360
529.1020, 2611.058
530.2810, 2666.771
531.4590, 2454.503
532.6380, 2574.256
533.8160, 2421.042
534.9940, 2284.847
536.1720, 2156.672
537.3500, 2053.530
538.5270, 2084.422
539.7050, 1994.377
540.8820, 2018.414
542.0590, 1938.521
543.2360, 2030.696
544.4130, 1678.949
545.5900, 1576.223
546.7660, 1655.525
547.9430, 1430.849
549.1190, 1325.194
550.2950, 1336.610
551.4710, 1215.056
552.6470, 1209.547
553.8220, 1243.086
554.9980, 1196.717
556.1730, 1125.374
557.3480, 1077.018
558.5230, 915.7734
559.6980, 867.5156
560.8730, 656.2871
562.0470, 454.0840
563.2220, 616.9199
564.3960, 459.8047
565.5700, 438.7500
566.7440, 491.7363
567.9170, 417.7549
569.0910, 406.8271
570.2640, 423.1055
571.4380, 383.9668
572.6110, 275.7520
573.7840, 182.9775
574.9570, 48.77051
576.1290, 18.50000
577.3020, 32.19727
578.4740, 17.14355
579.6460, 72.42285
580.8180, 107.2246
581.9900, 143.2256
583.1620, 200.2090
584.3330, 55.73633
585.5040, 213.6094
586.6760, 59.00586
587.8470, 221.3525
589.0180, 144.7520
590.1880, 165.1592
591.3590, 25.44141
592.5290, 19.08789
593.7000, 189.8018
594.8700, 197.5938
596.0400, 199.4316
597.2090, 264.9990
598.3790, 174.2725
599.5490, 259.2324
600.7180, 290.2148
601.8870, 206.2236
603.0560, 410.2764
604.2250, 491.3838
605.3940, 739.5215
606.5620, 745.6885
607.7300, 1072.978
608.8990, 1131.570
610.0670, 1283.819
611.2350, 1305.093
612.4020, 1528.389
613.5700, 1440.705
614.7370, 1671.043
615.9050, 1838.400
617.0720, 1725.785
618.2390, 2156.189
619.4060, 2312.519
620.5720, 2590.070
621.7390, 2863.547
622.9050, 2928.043
624.0710, 3087.559
625.2370, 3371.096
626.4030, 3334.652
627.5690, 3510.228
628.7340, 3499.823
629.9000, 3626.438
631.0650, 3625.072
632.2300, 3874.727
633.3950, 4066.398
634.5600, 4068.086
635.7240, 4017.795
636.8890, 3892.521
638.0530, 3602.268
639.2170, 3612.031
640.3810, 3337.811
641.5450, 3316.607
642.7080, 3132.422
643.8720, 3055.254
645.0350, 2921.002
646.1980, 2832.887
647.3610, 2742.848
648.5240, 2677.744
649.6870, 2824.658
650.8490, 2754.586
652.0120, 2571.531
653.1740, 2519.490
654.3360, 2276.465
655.4980, 2310.455
656.6600, 2418.457
657.8210, 2635.477
658.9830, 2674.510
660.1440, 2851.557
661.3050, 3163.617
662.4660, 3069.693
663.6270, 3118.781
664.7870, 3182.883
665.9480, 3009.998
667.1080, 2930.127
668.2680, 2885.322
669.4280, 3062.477
670.5880, 3089.328
671.7480, 2938.510
672.9070, 2762.645
674.0670, 2863.148
675.2260, 2760.090
676.3850, 2600.744
677.5440, 2472.264
678.7030, 2185.117
679.8610, 2101.543
681.0200, 1942.152
682.1780, 2194.449
683.3360, 1857.326
684.4940, 1924.883
685.6520, 1770.084
686.8090, 1745.539
687.9670, 1999.291
689.1240, 1924.625
690.2810, 1887.123
691.4380, 1855.980
692.5950, 1860.619
693.7520, 1734.332
694.9080, 1651.320
696.0650, 1758.340
697.2210, 1920.625
698.3770, 1781.268
699.5330, 2012.350
700.6880, 1874.141
701.8440, 1894.914
702.9990, 2003.805
704.1550, 2171.131
705.3100, 2116.680
706.4650, 2031.547
707.6190, 2008.162
708.7740, 1942.324
709.9290, 1954.219
711.0830, 1922.230
712.2370, 1968.422
713.3910, 1973.465
714.5450, 1949.443
715.6980, 1938.094
716.8520, 1998.559
718.0050, 1922.143
719.1580, 1791.754
720.3110, 1873.098
721.4640, 1652.787
722.6170, 1479.514
723.7700, 1479.016
724.9220, 1624.084
726.0740, 1851.953
727.2260, 1724.619
728.3780, 1582.410
729.5300, 1754.967
730.6810, 1573.576
731.8330, 1403.400
732.9840, 1399.531
734.1350, 1233.250
735.2860, 1338.922
736.4370, 1365.166
737.5880, 1308.715
738.7380, 1278.938
739.8880, 1432.146
741.0390, 1622.346
742.1890, 1675.529
743.3380, 1618.701
744.4880, 1538.859
745.6380, 1705.275
746.7870, 1343.984
747.9360, 1534.109
749.0850, 1452.707
750.2340, 1592.805
751.3830, 1623.889
752.5310, 1762.957
753.6800, 1879.014
754.8280, 1859.053
755.9760, 2077.076
757.1240, 1925.086
758.2720, 2217.080
759.4190, 1909.217
760.5670, 1963.180
761.7140, 1964.123
762.8610, 1829.053
764.0080, 2072.967
765.1550, 2124.859
766.3020, 2092.248
767.4480, 2011.598
768.5950, 2047.441
769.7410, 2240.266
770.8870, 2192.074
772.0330, 2111.863
773.1780, 2125.637
774.3240, 1919.387
775.4690, 1874.121
776.6140, 1837.836
777.7590, 1905.531
778.9040, 1951.207
780.0490, 1959.863
781.1940, 1893.500
782.3380, 1838.119
783.4820, 1563.719
784.6260, 1641.295
785.7700, 1336.854
786.9140, 1159.391
788.0580, 1073.908
789.2010, 1077.404
790.3450, 1045.883
791.4880, 1085.336
792.6310, 1020.770
793.7730, 772.1816
794.9160, 871.5742
796.0590, 716.9414
797.2010, 546.2910
798.3430, 719.6172
799.4850, 237.9199
800.6270, 329.2031
801.7690, 283.4609
802.9100, 207.4492
804.0520, 307.9121
805.1930, 193.1035
806.3340, 267.2695
807.4750, 47.41406
808.6160, 211.5293
809.7560, 23.38086
810.8970, 144.6484
812.0370, 49.65234
813.1770, 13.37500
814.3170, 10.45898
815.4570, 126.5996
816.5960, 182.8555
817.7360, 153.2598
818.8750, 131.7969
820.0140, 172.4512
821.1530, 168.7500
822.2920, 15.92188
823.4310, 198.0508
824.5690, 130.1523
825.7070, 145.7754
826.8460, 39.16797
827.9840, 41.92578
829.1220, 54.09570
830.2590, 214.3496
831.3970, 86.23242
832.5340, 79.78320
833.6710, 18.30078
834.8080, 172.7773
835.9450, 72.22070
837.0820, 138.6328
838.2190, 9.013672
839.3550, 40.65625
840.4910, 79.40234
841.6270, 3.246094
842.7630, 31.85352
843.8990, 52.06836
845.0350, 66.97070
846.1700, 90.02148
847.3060, 57.88477
848.4410, 41.75195
849.5760, 101.5820
850.7100, 132.3809
851.8450, 37.14844
852.9800, 150.1211
854.1140, 38.52344
855.2480, 82.99219
856.3820, 126.5605
857.5160, 41.75586
858.6500, 40.03125
859.7830, 227.2676
860.9170, 280.4746
862.0500, 135.6836
863.1830, 412.8633
864.3160, 102.0469
865.4480, 192.2148
866.5810, 190.3770
867.7130, 137.5078
868.8460, 72.60352
869.9780, 157.6641
871.1100, 167.6953
872.2410, 325.6953
873.3730, 191.6660
874.5050, 357.6094
875.6360, 307.5215
876.7670, 362.4043
877.8980, 407.2617
879.0290, 325.0918
880.1590, 305.8926
881.2900, 203.6641
882.4200, 132.4082
883.5500, 321.1504
884.6800, 152.9219
885.8100, 404.6641
886.9400, 344.3750
888.0690, 551.0664
889.1990, 558.7305
890.3280, 640.3633
891.4570, 365.9727
892.5860, 320.5527
893.7140, 502.1055
894.8430, 232.6289
895.9710, 341.1230
897.1000, 367.5918
898.2280, 354.0352
899.3560, 466.4629
900.4830, 714.8652
901.6110, 640.2402
902.7380, 486.5898
903.8660, 759.9121
904.9930, 394.2070
906.1200, 461.4727
907.2460, 356.7090
908.3730, 313.9199
909.5000, 354.0996
910.6260, 451.2578
911.7520, 534.4043
912.8780, 617.5508
914.0040, 635.6953
915.1290, 616.8477
916.2550, 626.9551
917.3800, 658.0723
918.5050, 524.1445
919.6300, 450.1895
920.7550, 287.2051
921.8800, 456.1934
923.0040, 465.1543
924.1290, 429.0898
925.2530, 722.0215
926.3770, 725.9355
927.5010, 600.8242
928.6250, 785.7285
929.7480, 808.6074
930.8720, 632.4766
931.9950, 643.3184
933.1180, 641.1328
934.2410, 691.9199
935.3640, 663.6797
936.4860, 558.4141
937.6090, 553.1191
938.7310, 866.7988
939.8530, 731.4551
940.9750, 915.0410
942.0970, 936.6562
943.2180, 816.6230
944.3400, 921.2480
945.4610, 731.9062
946.5820, 586.1816
947.7030, 699.0020
948.8240, 517.0957
949.9450, 574.3105
951.0650, 509.1719
952.1860, 519.4453
953.3060, 450.9839
954.4260, 610.7185
955.5460, 702.0149
956.6650, 728.5475
957.7850, 496.3572
958.9040, 598.2549
960.0230, 566.2641
961.1420, 528.7831
962.2610, 677.7025
963.3800, 483.1404
964.4990, 629.1039
965.6170, 639.1327
966.7350, 711.3739
967.8530, 648.9000
968.9710, 628.0352
970.0890, 741.9289
971.2070, 781.2057
972.3240, 703.2208
973.4410, 779.4136
974.5580, 580.1395
975.6750, 622.5915
976.7920, 769.3374
977.9090, 698.1259
979.0250, 776.7789
980.1410, 798.3538
981.2580, 560.5372
982.3740, 773.8311
983.4890, 792.0300
984.6050, 609.9152
985.7200, 807.7488
986.8360, 653.2502
987.9510, 624.5105
989.0660, 690.4150
990.1810, 657.6566
991.2950, 780.4487
992.4100, 753.3877
993.5240, 712.9348
994.6390, 730.9149
995.7530, 583.3191
996.8660, 742.8915
997.9800, 692.6427
999.0940, 746.6931
1000.207, 824.3808
1001.320, 721.0526
1002.433, 809.3624
1003.546, 600.4866
1004.659, 640.2769
1005.772, 653.2902
1006.884, 825.2428
1007.996, 617.8125
1009.108, 650.6909
1010.220, 785.8891
1011.332, 777.9182
1012.444, 829.8069
1013.555, 618.8320
1014.666, 570.6543
1015.777, 589.5352
1016.888, 570.7754
1017.999, 690.1211
1019.110, 711.7070
1020.220, 742.5137
1021.331, 809.1094
1022.441, 969.7012
1023.551, 752.1445
1024.661, 808.0430
1025.770, 639.4570
1026.880, 626.8594
1027.989, 462.2480
1029.098, 557.8613
1030.207, 464.3965
1031.316, 512.6738
1032.425, 512.4199
1033.533, 709.3379
1034.642, 660.3125
1035.750, 867.2344
1036.858, 866.7070
1037.966, 690.9805
1039.073, 634.2422
1040.181, 407.4902
1041.288, 544.7656
1042.396, 439.0684
1043.503, 362.0352
1044.610, 482.1797
1045.716, 382.5098
1046.823, 464.0547
1047.929, 496.5801
1049.036, 590.7285
1050.142, 720.9102
1051.248, 810.5723
1052.353, 740.6777
1053.459, 544.7715
1054.564, 299.8535
1055.670, 392.9219
1056.775, 611.0430
1057.880, 314.0723
1058.985, 507.2305
1060.089, 677.6641
1061.194, 708.6582
1062.298, 779.8730
1063.402, 724.2461
1064.506, 742.2070
1065.610, 659.1523
1066.713, 559.0879
1067.817, 511.2910
1068.920, 625.2344
1070.023, 309.3973
1071.126, 459.8520
1072.229, 541.8686
1073.332, 559.1245
1074.435, 317.6544
1075.537, 410.2810
1076.639, 369.0185
1077.741, 322.2666
1078.843, 461.9144
1079.945, 258.0813
1081.046, 394.7783
1082.148, 395.5392
1083.249, 458.5171
1084.350, 386.7803
1085.451, 356.6522
1086.551, 461.2885
1087.652, 491.3026
1088.752, 404.0631
1089.853, 470.9957
1090.953, 262.4670
1092.053, 295.6645
1093.152, 433.1611
1094.252, 352.6951
1095.351, 422.1017
1096.451, 434.4246
1097.550, 187.3588
1098.649, 391.4063
1099.748, 400.3620
1100.846, 209.0070
1101.945, 397.5974
1103.043, 233.8576
1104.141, 376.8320
1105.239, 382.8574
1106.337, 347.8809
1107.434, 457.9160
1108.532, 337.9766
1109.629, 75.96094
1110.726, 159.9473
1111.823, 45.99414
1112.920, 56.92383
1114.017, 250.0820
1115.113, 185.0254
1116.210, 112.9609
1117.306, 510.0137
1118.402, 127.9336
1119.498, 212.8438
1120.593, 35.20508
1121.689, 95.73633
1122.784, 4.298828
1123.879, 27.69336
1124.974, 175.6719
1126.069, 251.6465
1127.164, 361.6094
1128.259, 328.6270
1129.353, 291.5684
1130.447, 469.5000
1131.541, 379.1523
1132.635, 391.3359
1133.729, 273.2383
1134.822, 288.1309
1135.916, 92.01562
1137.009, 124.8867
1138.102, 395.7441
1139.195, 178.5957
1140.288, 193.4316
1141.380, 388.2578
1142.473, 91.07227
1143.565, 542.8711
1144.657, 252.6602
1145.749, 122.4375
1146.841, 197.2012
1147.932, 117.0430
1149.024, 195.3672
1150.115, 52.18945
1151.206, 112.7324
1152.297, 5.740234
1153.388, 157.7637
1154.479, 319.2539
1155.569, 79.73438
1156.659, 349.2012
1157.750, 240.6523
1158.839, 233.0918
1159.929, 98.52344
1161.019, 152.9414
1162.108, 0.3457030
1163.198, 27.26562
1164.287, 53.08984
1165.376, 36.98828
1166.465, 46.74805
1167.553, 151.0547
1168.642, 228.3438
1169.730, 243.6250
1170.818, 252.4434
1171.906, 188.1523
1172.994, 179.4004
1174.082, 17.63477
1175.170, 50.14844
1176.257, 84.97852
1177.344, 77.87500
1178.431, 130.8340
1179.518, 267.1172
1180.605, 189.0586
1181.691, 70.98828
1182.778, 404.8984
1183.864, 350.8008
1184.950, 405.6895
1186.036, 671.5645
1187.122, 186.4297
1188.207, 81.71680
1189.292, 20.20117
1190.378, 102.8438
1191.463, 145.3984
1192.548, 87.26172
1193.632, 52.09180
1194.717, 288.5039
1195.801, 309.0898
1196.886, 312.6621
1197.970, 136.2227
1199.054, 194.7695
1200.137, 337.3047
1201.221, 43.83008
1202.305, 107.3496
1203.388, 28.08398
1204.471, 174.4883
1205.554, 229.9316
1206.637, 115.5117
1207.719, 88.94141
1208.802, 158.3594
1209.884, 362.7617
1210.966, 317.1523
1212.048, 268.5352
1213.130, 244.9082
1214.212, 236.2734
1215.293, 15.63477
1216.374, 41.01758
1217.456, 15.31836
1218.536, 146.6387
1219.617, 128.9531
1220.698, 375.2539
1221.778, 365.5469
1222.859, 651.8262
1223.939, 506.0938
1225.019, 514.3477
1226.099, 286.5898
1227.178, 132.8223
1228.258, 154.5371
1229.337, 98.74219
1230.417, 40.64062
1231.496, 25.15625
1232.574, 197.0410
1233.653, 274.2266
1234.732, 550.4043
1235.810, 455.5664
1236.888, 523.7168
1237.966, 466.8535
1239.044, 402.9785
1240.122, 312.1914
1241.199, 277.1074
1242.277, 261.4609
1243.354, 149.2520
1244.431, 219.3281
1245.508, 311.3965
1246.585, 169.1934
1247.661, 480.2402
1248.738, 506.0762
1249.814, 263.1035
1250.890, 417.6836
1251.966, 474.3438
1253.042, 352.4199
1254.117, 387.7656
1255.193, 336.7148
1256.268, 237.6719
1257.343, 184.6191
1258.418, 307.5566
1259.493, 262.4805
1260.567, 343.3965
1261.642, 503.2988
1262.716, 691.1875
1263.790, 681.0664
1264.864, 905.9297
1265.938, 766.3965
1267.011, 554.0840
1268.085, 552.8086
1269.158, 488.8086
1270.231, 208.3848
1271.304, 464.1680
1272.377, 391.5371
1273.450, 283.2949
1274.522, 557.0410
1275.594, 573.8438
1276.666, 774.7520
1277.738, 666.1719
1278.810, 794.0234
1279.882, 533.2383
1280.953, 502.5762
1282.025, 344.0977
1283.096, 206.5938
1284.167, 477.2129
1285.238, 464.3516
1286.308, 493.9648
1287.379, 931.5625
1288.449, 750.1484
1289.519, 642.8613
1290.589, 833.2461
1291.659, 732.0098
1292.729, 737.4219
1293.798, 617.3398
1294.868, 431.1738
1295.937, 604.0312
1297.006, 453.3105
1298.075, 389.7637
1299.143, 632.2051
1300.212, 749.1309
1301.280, 819.5020
1302.348, 772.8555
1303.416, 1022.682
1304.484, 868.1680
1305.552, 758.3730
1306.620, 829.9980
1307.687, 573.2793
1308.754, 597.5781
1309.821, 553.8125
1310.888, 602.5371
1311.955, 429.7910
1313.021, 557.0273
1314.088, 870.2578
1315.154, 729.5605
1316.220, 901.2559
1317.286, 879.1543
1318.352, 875.5078
1319.417, 898.5918
1320.483, 788.2324
1321.548, 514.0254
1322.613, 562.9629
1323.678, 362.0332
1324.743, 197.0996
1325.807, 552.1621
1326.872, 708.9395
1327.936, 850.9727
1329.000, 819.3984
1330.064, 949.9902
1331.128, 695.8535
1332.191, 726.7031
1333.255, 726.2852
1334.318, 449.4727
1335.381, 596.5430
1336.444, 352.0742
1337.507, 395.8887
1338.569, 624.8965
1339.632, 563.5996
1340.694, 665.5996
1341.756, 935.9336
1342.818, 920.3320
1343.880, 869.7969
1344.941, 936.6523
1346.003, 942.1797
1347.064, 736.3691
1348.125, 489.7070
1349.186, 630.3926
1350.247, 415.3496
1351.308, 432.3027
1352.368, 638.2500
1353.428, 877.1934
1354.489, 695.3457
1355.549, 872.3477
1356.608, 912.0430
1357.668, 929.7773
1358.727, 946.7617
1359.787, 820.8789
1360.846, 612.4004
1361.905, 643.3652
1362.964, 373.2969
1364.022, 526.1934
1365.081, 471.0820
1366.139, 568.2305
1367.197, 474.1133
1368.255, 817.0156
1369.313, 899.2988
1370.371, 939.8340
1371.428, 720.4902
1372.486, 905.0781
1373.543, 688.7559
1374.600, 577.5449
1375.657, 469.1660
1376.713, 434.0723
1377.770, 466.9727
1378.826, 383.8848
1379.882, 475.7949
1380.938, 488.2383
1381.994, 517.4355
1383.050, 533.6680
1384.106, 723.8086
1385.161, 636.1113
1386.216, 603.3008
1387.271, 614.8301
1388.326, 407.7656
