##NAMES=Anorthite
##RRUFFID=R040059
##IDEAL CHEMISTRY=CaAl_2_Si_2_O_8_
##LOCALITY=Miyakejima, Japan
##OWNER=RRUFF
##SOURCE=University of Arizona Mineral Museum
##DESCRIPTION=Colorless fragments of crystals
##STATUS=The identification of this mineral has been confirmed by X-ray diffraction and chemical analysis
##URL=rruff.info/R040059
##MEASURED CHEMISTRY=(Ca_0.94_Na_0.04_Fe_0.02_)(Al_0.98_Si_0.02_)_2_Si_2.00_O_8_
##PIN_ID=M00124
##ORIENTATION=Laser parallel to a* (1 0 0). Fiducial mark perpendicular to laser is parallel to b [0 1 0]
127.300, 0.000
128.690, 141.759
130.080, 10.374
131.469, 323.451
132.858, 363.568
134.248, 660.979
135.636, 892.811
137.025, 1409.683
138.413, 1897.622
139.801, 2289.328
141.189, 2983.444
142.577, 3361.088
143.964, 3920.574
145.352, 4110.899
146.739, 4331.458
148.125, 4081.885
149.512, 3231.964
150.898, 2804.396
152.284, 1920.366
153.670, 1476.648
155.056, 1024.867
156.441, 718.883
157.827, 478.128
159.212, 369.963
160.596, 413.688
161.981, 312.552
163.365, 503.764
164.749, 350.512
166.133, 520.962
167.517, 547.249
168.900, 558.484
170.283, 597.778
171.666, 594.232
173.049, 659.386
174.431, 764.724
175.813, 1137.469
177.195, 1540.809
178.577, 1965.626
179.959, 2663.536
181.340, 3236.142
182.721, 3960.808
184.102, 4525.490
185.483, 5230.191
186.863, 5784.910
188.244, 6109.653
189.624, 6654.418
191.003, 6619.207
192.383, 7174.020
193.762, 7078.839
195.141, 6733.635
196.520, 6578.403
197.899, 5863.149
199.277, 5587.875
200.656, 4762.658
202.034, 4297.643
203.411, 3932.608
204.789, 3407.560
206.166, 2992.499
207.543, 2449.433
208.920, 2023.362
210.297, 1647.322
211.673, 1268.390
213.049, 968.577
214.425, 512.898
215.801, 396.354
217.176, 115.349
218.552, 69.355
219.927, 28.358
221.302, 125.497
222.676, 105.051
224.051, 187.708
225.425, 157.755
226.799, 274.689
228.173, 162.515
229.546, 126.804
230.919, 149.368
232.292, 198.111
233.665, 150.059
235.038, 473.560
236.410, 684.093
237.782, 1132.650
239.154, 1307.233
240.526, 1663.841
241.898, 2186.474
243.269, 2235.133
244.640, 2684.816
246.011, 2839.526
247.381, 2995.262
248.752, 3111.023
250.122, 3126.811
251.492, 3402.624
252.861, 3358.463
254.231, 3624.330
255.600, 3700.190
256.969, 3985.933
258.338, 4281.376
259.707, 4036.449
261.075, 4271.191
262.443, 4115.735
263.811, 4350.308
265.179, 4354.925
266.546, 4329.590
267.914, 4574.300
269.281, 4439.055
270.647, 4643.854
272.014, 4348.696
273.380, 4389.944
274.747, 4252.062
276.113, 4026.905
277.478, 4121.792
278.844, 3976.723
280.209, 4171.696
281.574, 3966.711
282.939, 4081.769
284.304, 4246.868
285.668, 4042.007
287.032, 4297.186
288.396, 3912.405
289.760, 4007.663
291.123, 3682.961
292.487, 3342.305
293.850, 3161.326
295.212, 2650.025
296.575, 2420.646
297.937, 1882.446
299.300, 1454.374
300.662, 991.388
302.023, 678.561
303.385, 409.770
304.746, 180.799
306.107, 99.968
307.468, 22.892
308.829, 23.239
310.189, 93.677
311.549, 221.633
312.909, 92.684
314.269, 169.798
315.629, 55.966
316.988, 21.763
318.347, 51.408
319.706, 374.967
321.065, 419.443
322.423, 661.876
323.781, 593.225
325.139, 693.506
326.497, 619.714
327.855, 368.856
329.212, 323.942
330.569, 46.973
331.926, 108.952
333.283, 57.883
334.639, 42.770
335.995, 135.629
337.351, 36.391
338.707, 285.830
340.063, 271.780
341.418, 400.156
342.773, 486.123
344.128, 394.884
345.483, 624.645
346.837, 598.425
348.192, 823.221
349.546, 782.035
350.899, 843.866
352.253, 909.716
353.606, 1951.583
354.960, 2537.467
356.313, 2906.369
357.665, 886.289
359.018, 715.226
360.370, 425.182
361.722, 438.156
363.074, 451.148
364.426, 562.158
365.777, 593.186
367.128, 850.230
368.479, 944.293
369.830, 984.373
371.181, 1218.469
372.531, 1264.584
373.881, 1433.716
375.231, 1560.865
376.581, 1728.031
377.930, 2063.214
379.280, 2105.412
380.629, 2459.144
381.977, 2487.083
383.326, 2360.855
384.674, 2322.329
386.023, 1743.003
387.370, 1888.635
388.718, 1403.295
390.066, 1388.761
391.413, 1347.410
392.760, 1329.432
394.107, 1581.164
395.454, 1616.257
396.800, 1984.953
398.146, 2332.939
399.492, 2333.945
400.838, 2556.968
402.184, 2394.009
403.529, 2142.067
404.874, 1821.144
406.219, 1546.237
407.564, 1256.349
408.908, 809.477
410.252, 596.622
411.596, 275.784
412.940, 222.962
414.284, 52.157
415.627, 153.631
416.970, 45.570
418.313, 166.213
419.656, 3.991
420.999, 189.212
422.341, 347.452
423.683, 695.714
425.025, 801.997
426.367, 1253.301
427.708, 1261.627
429.049, 1466.974
430.390, 1572.342
431.731, 1319.730
433.072, 1291.140
434.412, 1031.568
435.752, 1169.987
437.092, 896.392
438.432, 738.815
439.772, 910.260
441.111, 586.724
442.450, 494.207
443.789, 342.709
445.127, 244.230
446.466, 225.770
447.804, 169.327
449.142, 176.903
450.480, 235.497
451.817, 339.437
453.155, 532.737
454.492, 687.369
455.829, 1048.003
457.166, 1314.642
458.502, 1719.631
459.838, 1674.400
461.175, 1862.083
462.510, 1957.696
463.846, 1813.326
465.181, 1845.073
466.517, 1989.970
467.852, 2380.305
469.186, 2924.544
470.521, 3091.010
471.855, 3829.642
473.190, 4204.922
474.523, 5118.000
475.857, 5896.046
477.191, 6683.097
478.524, 8151.910
479.857, 8968.510
481.190, 11052.251
482.523, 12662.741
483.855, 14131.138
485.187, 16751.152
486.519, 16898.711
487.851, 17196.508
489.183, 16604.611
490.514, 15632.164
491.845, 15479.127
493.176, 15226.225
494.507, 16433.012
495.837, 18012.537
497.168, 21399.742
498.498, 25207.135
499.828, 29284.758
501.157, 35322.727
502.487, 38651.547
503.816, 42169.289
505.145, 42817.230
506.474, 39855.008
507.802, 37232.828
509.131, 31840.682
510.459, 28238.564
511.787, 24966.494
513.115, 21884.438
514.442, 19932.467
515.770, 17070.512
517.097, 15438.603
518.424, 13606.701
519.750, 12274.805
521.077, 12302.961
522.403, 11251.125
523.729, 11629.299
525.055, 11457.494
526.381, 11115.702
527.706, 10533.916
529.031, 9392.151
530.356, 8800.389
531.681, 7288.661
533.006, 6286.936
534.330, 5405.231
535.654, 4783.529
536.978, 4151.835
538.302, 3700.173
539.625, 3418.514
540.949, 3126.876
542.272, 2805.257
543.595, 3043.659
544.917, 2792.137
546.240, 3060.675
547.562, 3329.293
548.884, 3447.984
550.206, 4216.778
551.527, 4335.640
552.849, 5364.565
554.170, 5903.555
555.491, 6522.548
556.812, 6781.547
558.132, 7010.546
559.453, 7219.544
560.773, 6868.542
562.093, 6597.538
563.412, 6146.532
564.732, 5295.524
566.051, 5074.513
567.370, 4143.500
568.689, 3672.486
570.008, 3141.469
571.326, 2600.449
572.644, 2389.426
573.963, 1852.397
575.280, 1641.697
576.598, 1387.662
577.915, 1267.212
579.233, 1152.062
580.550, 900.017
581.866, 898.966
583.183, 919.911
584.499, 737.851
585.815, 946.787
587.131, 763.717
588.447, 1088.641
589.763, 1059.560
591.078, 1159.473
592.393, 1553.379
593.708, 1585.279
595.022, 1946.173
596.337, 1903.060
597.651, 1916.939
598.965, 2315.812
600.279, 2214.676
601.593, 2393.533
602.906, 1978.383
604.219, 1695.224
605.532, 1512.058
606.845, 1047.881
608.158, 913.697
609.470, 624.504
610.782, 451.301
612.094, 422.088
613.406, 170.866
614.718, 256.634
616.029, 34.392
617.340, 88.136
618.651, 109.869
619.962, 108.409
621.272, 231.238
622.582, 93.125
623.892, 10.444
625.202, 63.997
626.512, 145.461
627.821, 134.000
629.131, 125.545
630.440, 40.144
631.749, 34.718
633.057, 190.299
634.366, 59.949
635.674, 185.629
636.982, 145.425
638.290, 85.317
639.597, 192.277
640.905, 3.636
642.212, 24.474
643.519, 169.377
644.825, 90.796
646.132, 18.620
647.438, 306.836
648.744, 76.652
650.050, 134.730
651.356, 185.350
652.662, 23.664
653.967, 243.058
655.272, 16.273
656.577, 184.374
657.882, 114.077
659.186, 15.460
660.490, 261.518
661.794, 153.439
663.098, 264.432
664.402, 412.397
665.705, 442.798
667.009, 737.176
668.312, 706.036
669.614, 1027.867
670.917, 1285.286
672.219, 1345.267
673.522, 2054.072
674.824, 2070.062
676.125, 2652.158
677.427, 3130.767
678.728, 3348.649
680.030, 3837.337
681.331, 3739.484
682.631, 3947.399
683.932, 3836.922
685.232, 3387.020
686.532, 3204.493
687.832, 2799.257
689.132, 2636.700
690.432, 2337.666
691.731, 2001.261
693.030, 1986.504
694.329, 1567.605
695.628, 1503.683
696.926, 1437.317
698.224, 1159.343
699.522, 1363.320
700.820, 983.784
702.118, 1153.936
703.415, 1029.991
704.713, 927.048
706.010, 1006.821
707.307, 756.706
708.603, 850.417
709.900, 1024.097
711.196, 868.745
712.492, 944.361
713.788, 825.025
715.083, 962.578
716.379, 841.098
717.674, 858.586
718.969, 937.043
720.264, 781.467
721.558, 854.859
722.853, 978.219
724.147, 869.546
725.441, 1017.840
726.735, 860.103
728.028, 1138.333
729.322, 1105.530
730.615, 1106.694
731.908, 1309.854
733.201, 1523.979
734.493, 1598.103
735.785, 1788.195
737.078, 2101.254
738.370, 2527.280
739.661, 2543.274
740.953, 2949.234
742.244, 3215.163
743.535, 2841.058
744.826, 3106.921
746.117, 2802.752
747.407, 2598.549
748.698, 2564.312
749.988, 2090.045
751.278, 2345.743
752.567, 2061.410
753.857, 2277.045
755.146, 2352.646
756.435, 2368.214
757.724, 2633.750
759.013, 2639.253
760.301, 2924.724
761.590, 3250.161
762.878, 3115.567
764.165, 3260.941
765.453, 3356.281
766.741, 3261.589
768.028, 3196.864
769.315, 2932.106
770.602, 2907.318
771.888, 2582.146
773.175, 2507.160
774.461, 2292.227
775.747, 2010.330
777.033, 1895.379
778.319, 1674.278
779.604, 1428.775
780.889, 1429.460
782.174, 1132.836
783.459, 1087.729
784.744, 946.202
786.028, 666.959
787.312, 872.982
788.596, 488.164
789.880, 566.454
791.164, 440.785
792.447, 367.569
793.730, 523.062
795.013, 278.777
796.296, 477.552
797.579, 333.682
798.861, 88.231
800.143, 429.513
801.425, 127.462
802.707, 218.924
803.989, 153.053
805.270, 92.609
806.551, 167.694
807.832, 64.891
809.113, 6.297
810.394, 118.701
811.674, 162.191
812.954, 52.488
814.234, 153.713
815.514, 28.091
816.794, 114.672
818.073, 170.591
819.352, 34.996
820.631, 51.470
821.910, 76.020
823.189, 44.661
824.467, 214.375
825.745, 17.250
827.023, 111.184
828.301, 58.777
829.578, 37.710
830.856, 143.390
832.133, 62.390
833.410, 13.142
834.687, 44.146
835.963, 35.499
837.240, 4.884
838.516, 15.313
839.792, 113.206
841.068, 92.299
842.343, 104.107
843.618, 34.511
844.894, 50.812
846.169, 6.109
847.443, 88.628
848.718, 148.551
849.992, 36.292
851.266, 3.810
852.540, 145.878
853.814, 22.074
855.088, 85.929
856.361, 99.908
857.634, 89.868
858.907, 224.805
860.180, 111.724
861.453, 204.623
862.725, 201.504
863.997, 191.368
865.269, 256.213
866.541, 115.041
867.812, 314.851
869.084, 310.655
870.355, 202.443
871.626, 327.214
872.897, 318.971
874.167, 363.710
875.438, 548.433
876.708, 359.141
877.978, 565.833
879.248, 605.521
880.517, 447.192
881.787, 662.851
883.056, 505.493
884.325, 679.123
885.594, 606.737
886.862, 595.339
888.130, 728.927
889.399, 577.539
890.667, 745.140
891.934, 704.727
893.202, 646.315
894.469, 944.893
895.737, 778.465
897.004, 878.026
898.270, 981.577
899.537, 884.134
900.803, 1149.682
902.070, 1331.222
903.336, 1182.775
904.601, 1184.316
905.867, 1042.851
907.132, 1287.375
908.398, 1358.890
909.663, 1280.408
910.928, 1541.916
912.192, 1443.418
913.457, 1584.922
914.721, 1626.417
915.985, 1377.905
917.249, 1629.387
918.512, 1500.861
919.776, 1562.328
921.039, 1813.789
922.302, 1445.241
923.565, 1986.703
924.827, 1758.160
926.090, 2099.612
927.352, 2431.059
928.614, 2572.530
929.876, 3004.031
931.138, 3185.556
932.399, 3427.079
933.660, 4128.599
934.922, 4030.158
936.182, 4731.713
937.443, 4893.301
938.704, 5204.900
939.964, 5636.512
941.224, 5208.176
942.484, 5279.857
943.744, 5351.597
945.003, 5003.379
946.262, 5225.184
947.521, 4917.043
948.780, 5078.906
950.039, 5150.788
951.298, 4882.086
952.556, 5283.967
953.814, 5255.438
955.072, 5017.293
956.330, 5688.875
957.587, 5201.904
958.845, 5333.557
960.102, 5318.454
961.359, 5017.846
962.615, 5279.339
963.872, 5018.218
965.128, 5059.401
966.384, 5428.888
967.640, 5329.498
968.896, 5861.021
970.152, 6349.560
971.407, 6396.648
972.662, 7392.747
973.917, 7097.360
975.172, 7743.990
976.427, 7880.016
977.681, 7498.471
978.935, 8041.084
980.189, 7342.501
981.443, 7363.799
982.697, 6994.568
983.950, 6486.053
985.203, 6236.719
986.456, 5733.912
987.709, 5425.325
988.962, 5235.116
990.214, 4584.340
991.467, 4646.176
992.719, 4440.707
993.971, 4032.566
995.222, 4130.891
996.474, 3922.571
997.725, 3853.598
998.976, 4018.754
1000.227, 3800.923
1001.478, 4029.536
1002.728, 3910.746
1003.978, 3683.001
1005.229, 3802.755
1006.479, 3294.810
1007.728, 3406.973
1008.978, 3139.120
1010.227, 2781.537
1011.476, 2923.841
1012.725, 2646.304
1013.974, 2668.803
1015.223, 2701.320
1016.471, 2163.851
1017.719, 2536.324
1018.967, 2361.342
1020.215, 2083.929
1021.462, 2226.532
1022.710, 2009.219
1023.957, 2211.870
1025.204, 2154.538
1026.451, 1647.223
1027.697, 2029.931
1028.944, 1684.680
1030.190, 1587.422
1031.436, 1780.183
1032.682, 1522.959
1033.928, 1715.757
1035.173, 1618.574
1036.418, 1451.407
1037.663, 1624.297
1038.908, 1406.010
1040.153, 1668.931
1041.398, 1561.889
1042.642, 1357.895
1043.886, 1670.886
1045.130, 1305.731
1046.374, 1358.798
1047.617, 1591.885
1048.860, 1279.223
1050.104, 1592.350
1051.347, 1496.188
1052.589, 1194.490
1053.832, 1457.693
1055.074, 1191.052
1056.316, 1284.300
1057.558, 1167.564
1058.800, 1103.375
1060.042, 1296.675
1061.283, 1170.211
1062.524, 1105.922
1063.765, 1359.273
1065.006, 1032.920
1066.247, 1106.344
1067.487, 1199.784
1068.728, 1053.412
1069.968, 1356.894
1071.208, 1080.391
1072.447, 1097.040
1073.687, 1140.567
1074.926, 1124.110
1076.165, 1247.668
1077.404, 1131.240
1078.643, 1022.812
1079.881, 1286.449
1081.120, 1040.102
1082.358, 984.024
1083.596, 1027.710
1084.834, 771.476
1086.071, 945.188
1087.309, 818.916
1088.546, 613.040
1089.783, 886.810
1091.020, 620.593
1092.256, 825.339
1093.493, 709.146
1094.729, 492.967
1095.965, 676.798
1097.201, 490.643
1098.436, 456.290
1099.672, 560.156
1100.907, 414.037
1102.142, 497.933
1103.377, 561.842
1104.612, 396.049
1105.846, 650.101
1107.081, 354.094
1108.315, 439.356
1109.549, 413.402
1110.782, 267.474
1112.016, 552.136
1113.249, 286.285
1114.483, 390.449
1115.716, 544.681
1116.948, 268.929
1118.181, 503.418
1119.413, 637.744
1120.646, 392.104
1121.878, 819.371
1123.110, 583.808
1124.341, 678.278
1125.573, 793.134
1126.804, 607.707
1128.035, 692.330
1129.266, 796.966
1130.497, 361.612
1131.727, 716.711
1132.957, 511.426
1134.188, 506.156
1135.418, 621.521
1136.647, 306.292
1137.877, 455.423
1139.106, 620.540
1140.335, 205.360
1141.564, 365.321
1142.793, 370.188
1144.022, 205.146
1145.250, 491.360
1146.479, 86.269
1147.707, 211.964
1148.934, 160.494
1150.162, 195.465
1151.390, 312.604
1152.617, 107.737
1153.844, 113.005
1155.071, 404.054
1156.298, 79.061
1157.524, 214.361
1158.751, 82.532
1159.977, 197.545
1161.203, 207.362
1162.428, 112.646
1163.654, 57.714
1164.879, 323.851
1166.105, 91.135
1167.330, 234.187
1168.555, 149.706
1169.779, 5.307
1171.004, 233.035
1172.228, 168.289
1173.452, 113.270
1174.676, 249.950
1175.900, 75.074
1177.123, 219.881
1178.346, 25.459
1179.570, 10.405
1180.793, 196.583
1182.015, 11.966
1183.238, 66.902
1184.460, 221.156
1185.683, 183.917
1186.905, 260.926
1188.126, 120.105
1189.348, 84.849
1190.569, 90.116
1191.791, 54.601
1193.012, 90.167
1194.233, 165.670
1195.453, 97.671
1196.674, 97.036
1197.894, 21.038
1199.114, 106.356
1200.334, 128.271
1201.554, 5.748
1202.774, 100.355
1203.993, 75.261
1205.212, 59.163
1206.431, 305.391
1207.650, 1.124
1208.869, 54.048
1210.087, 150.450
1211.305, 5.172
1212.524, 119.646
1213.741, 264.188
1214.959, 31.279
1216.177, 235.717
1217.394, 100.175
1218.611, 55.298
1219.828, 219.073
1221.045, 84.002
1222.261, 98.349
1223.478, 222.682
1224.694, 124.146
1225.910, 160.091
1227.126, 184.422
1228.342, 40.067
1229.557, 364.261
1230.772, 88.801
1231.987, 163.073
1233.202, 257.229
1234.417, 25.362
1235.631, 269.487
1236.846, 323.596
1238.060, 2.041
1239.274, 342.047
1240.488, 126.217
1241.701, 190.285
1242.915, 364.350
1244.128, 11.352
1245.341, 292.688
1246.554, 248.575
1247.767, 511.938
1248.979, 385.947
1250.191, 69.949
1251.403, 116.354
1252.615, 380.322
1253.827, 4.284
1255.039, 258.233
1256.250, 322.168
1257.461, 26.174
1258.672, 370.122
1259.883, 254.020
1261.094, 228.648
1262.304, 202.473
1263.514, 106.284
1264.724, 320.076
1265.934, 243.833
1267.144, 12.438
1268.354, 371.263
1269.563, 244.915
1270.772, 98.532
1271.981, 452.106
1273.190, 545.662
1274.398, 779.496
1275.607, 483.008
1276.815, 86.481
1278.023, 320.199
1279.231, 283.622
1280.439, 57.169
1281.646, 390.541
1282.853, 26.108
1284.060, 117.427
1285.267, 320.631
1286.474, 36.188
1287.681, 287.052
1288.887, 180.082
1290.093, 33.041
1291.299, 385.973
1292.505, 58.860
1293.711, 8.286
1294.916, 264.519
1296.121, 17.299
1297.327, 169.972
1298.531, 142.598
1299.736, 44.804
1300.941, 387.742
1302.145, 140.258
1303.349, 2.679
1304.553, 275.056
1305.757, 22.606
1306.961, 149.681
1308.164, 201.904
1309.367, 54.100
1310.570, 286.257
1311.773, 135.936
1312.976, 98.029
1314.178, 340.092
1315.381, 2.044
1316.583, 153.991
1317.785, 265.905
1318.987, 37.785
1320.188, 249.620
1321.390, 309.389
1322.591, 91.145
1323.792, 262.863
1324.993, 54.546
1326.193, 116.186
1327.394, 407.788
1328.594, 90.649
1329.794, 240.833
1330.994, 253.469
1332.194, 15.126
1333.394, 166.219
1334.593, 174.493
1335.792, 114.237
1336.991, 385.158
1338.190, 76.312
1339.389, 27.430
1340.587, 344.275
1341.786, 64.683
1342.984, 265.630
1344.182, 371.463
1345.379, 2.378
1346.577, 393.124
1347.774, 134.044
1348.972, 54.853
1350.169, 413.102
1351.365, 43.848
1352.562, 134.342
1353.759, 402.650
1354.955, 116.694
1356.151, 413.654
1357.347, 184.215
1358.543, 4.752
1359.738, 465.092
1360.934, 195.573
1362.129, 176.032
1363.324, 433.334
1364.519, 83.753
1365.713, 344.155
1366.908, 404.542
1368.102, 95.083
1369.296, 197.296
1370.490, 167.617
1371.684, 27.935
1372.877, 327.995
1374.071, 109.259
1375.264, 169.523
1376.457, 429.872
1377.650, 19.944
1378.843, 359.766
1380.035, 279.790
1381.227, 131.352
1382.419, 383.828
1383.611, 176.269
1384.803, 226.817
1385.995, 429.163
1387.186, 141.165
1388.377, 283.292
1389.568, 414.146
1390.759, 45.671
1391.950, 427.776
1393.140, 419.834
1394.331, 11.595
1395.521, 510.347
1396.711, 232.251
1397.900, 203.763
1399.090, 605.580
1400.279, 186.896
1401.469, 198.625
1402.658, 419.591
1403.847, 75.646
1405.035, 510.994
1406.224, 262.343
1407.412, 222.105
1408.600, 238.021
1409.788, 236.531
1410.976, 267.170
1412.164, 510.487
1413.351, 196.983
1414.538, 251.556
1415.725, 561.930
1416.912, 111.178
1418.099, 490.738
1419.285, 356.788
1420.472, 117.009
1421.658, 435.155
1422.844, 144.773
1424.030, 183.454
1425.215, 433.213
1426.401, 99.739
1427.586, 243.485
1428.771, 363.081
1429.956, 107.069
1431.141, 412.863
1432.325, 241.325
1433.510, 261.086
1434.694, 466.196
1435.878, 223.723
1437.062, 201.365
1438.245, 440.446
1439.429, 222.411
1440.612, 376.934
1441.795, 606.030
1442.978, 124.957
1444.161, 513.021
1445.343, 475.664
1446.526, 194.326
1447.708, 650.389
1448.890, 298.190
1450.072, 318.922
1451.253, 717.345
1452.435, 285.122
1453.616, 483.111
1454.797, 670.625
1455.978, 268.497
1457.159, 603.587
1458.340, 525.711
1459.520, 233.004
1460.700, 550.103
1461.880, 516.742
1463.060, 271.680
1464.240, 668.414
1465.420, 235.039
1466.599, 341.587
1467.778, 588.156
1468.957, 94.729
1470.136, 440.320
1471.315, 455.897
1472.493, 201.650
1473.671, 637.651
1474.849, 353.024
1476.027, 158.798
1477.205, 605.367
1478.383, 131.975
1479.560, 288.558
1480.737, 505.258
1481.914, 42.207
1483.091, 379.032
1484.268, 326.254
1485.444, 83.472
1486.621, 490.877
1487.797, 378.226
1488.973, 4.466
1490.149, 613.009
1491.324, 150.593
1492.500, 178.269
1493.675, 476.051
1494.850, 153.926
1496.025, 231.928
1497.200, 300.146
1498.374, 88.593
1499.548, 327.297
1500.723, 206.217
1501.897, 25.374
1503.071, 394.779
1504.244, 234.444
1505.418, 123.709
1506.591, 433.963
1507.764, 34.604
1508.937, 235.695
1510.110, 477.300
1511.282, 19.478
1512.455, 372.313
1513.627, 306.000
1514.799, 9.249
1515.971, 336.766
1517.143, 194.413
1518.314, 49.046
1519.486, 321.688
1520.657, 0.000
##END=



