##NAMES=Anorthite
##RRUFFID=R040059
##IDEAL CHEMISTRY=CaAl_2_Si_2_O_8_
##LOCALITY=Miyakejima, Japan
##OWNER=RRUFF
##SOURCE=University of Arizona Mineral Museum
##DESCRIPTION=Colorless fragments of crystals
##STATUS=The identification of this mineral has been confirmed by X-ray diffraction and chemical analysis
##URL=rruff.info/R040059
##MEASURED CHEMISTRY=(Ca_0.94_Na_0.04_Fe_0.02_)(Al_0.98_Si_0.02_)_2_Si_2.00_O_8_
##PIN_ID=M00124
##ORIENTATION=Laser parallel to a* (1 0 0). Fiducial mark perpendicular to laser is parallel to b [0 1 0]
128.690, 0.000
130.080, 6.948
131.469, 320.433
132.858, 323.434
134.248, 623.558
135.636, 825.437
137.025, 1256.521
138.413, 1724.135
139.801, 2096.129
141.189, 2692.193
142.577, 3083.629
143.964, 3558.628
145.352, 3845.565
146.739, 3793.418
148.125, 3601.533
149.512, 2849.492
150.898, 2457.284
152.284, 1638.295
153.670, 1368.489
155.056, 975.330
156.441, 770.401
157.827, 322.666
159.212, 60.428
160.596, 185.928
161.981, 92.371
163.365, 210.932
164.749, 35.760
166.133, 139.997
167.517, 271.766
168.900, 292.175
170.283, 413.324
171.666, 352.322
173.049, 400.387
174.431, 462.037
175.813, 655.451
177.195, 945.766
178.577, 1267.256
179.959, 1601.355
181.340, 1950.959
182.721, 2425.932
184.102, 2831.886
185.483, 3327.396
186.863, 3822.469
188.244, 4107.211
189.624, 4751.514
191.003, 4795.326
192.383, 5468.678
193.762, 5501.595
195.141, 5464.080
196.520, 5416.133
197.899, 4827.771
199.277, 4709.016
200.656, 4079.889
202.034, 3880.457
203.411, 3410.718
204.789, 2970.659
206.166, 2640.296
207.543, 2069.645
208.920, 1868.719
210.297, 1517.531
211.673, 1036.159
213.049, 833.796
214.425, 521.465
215.801, 389.313
217.176, 104.362
218.552, 66.047
219.927, 8.812
221.302, 50.754
222.676, 86.273
224.051, 116.400
225.425, 37.555
226.799, 273.375
228.173, 36.842
229.546, 73.222
230.919, 63.082
232.292, 93.351
233.665, 70.913
235.038, 255.946
236.410, 519.565
237.782, 756.393
239.154, 885.815
240.526, 1054.119
241.898, 1586.688
243.269, 1492.906
244.640, 2071.072
246.011, 2080.149
247.381, 2227.496
248.752, 2342.896
250.122, 2396.901
251.492, 2490.637
252.861, 2434.361
254.231, 2718.076
255.600, 2621.766
256.969, 2875.370
258.338, 3078.770
259.707, 2851.878
261.075, 3034.570
262.443, 2786.961
263.811, 2959.182
265.179, 2931.329
266.546, 2923.456
267.914, 3055.564
269.281, 2967.656
270.647, 2989.730
272.014, 2841.782
273.380, 2925.391
274.747, 2869.305
276.113, 2841.854
277.478, 2813.798
278.844, 2735.726
280.209, 2897.639
281.574, 2859.534
282.939, 2811.415
284.304, 3063.281
285.668, 2815.134
287.032, 2936.972
288.396, 2578.796
289.760, 2570.607
291.123, 2472.406
292.487, 2004.192
293.850, 2014.068
295.212, 1643.248
296.575, 1513.369
297.937, 1053.706
299.300, 844.172
300.662, 500.711
302.023, 321.273
303.385, 220.827
304.746, 108.651
306.107, 22.229
307.468, 214.904
308.829, 173.748
310.189, 180.759
311.549, 376.943
312.909, 312.355
314.269, 288.979
315.629, 246.777
316.988, 60.786
318.347, 125.991
319.706, 226.560
321.065, 164.919
322.423, 323.112
323.781, 280.139
325.139, 336.010
326.497, 344.733
327.855, 149.316
329.212, 289.766
330.569, 22.087
331.926, 94.302
333.283, 148.417
334.639, 174.417
335.995, 210.369
337.351, 170.186
338.707, 223.843
340.063, 119.152
341.418, 102.996
342.773, 96.268
344.128, 18.098
345.483, 196.743
346.837, 161.308
348.192, 308.804
349.546, 287.250
350.899, 301.631
352.253, 403.951
353.606, 287.212
354.960, 488.416
356.313, 244.567
357.665, 167.664
359.018, 241.706
360.370, 76.697
361.722, 240.634
363.074, 134.522
364.426, 393.362
365.777, 353.161
367.128, 445.919
368.479, 546.639
369.830, 492.323
371.181, 753.973
372.531, 631.590
373.881, 667.176
375.231, 880.730
376.581, 834.255
377.930, 1147.750
379.280, 1040.971
380.629, 1272.439
381.977, 1502.933
383.326, 1141.114
384.674, 1072.888
386.023, 839.767
387.370, 824.652
388.718, 665.046
390.066, 724.280
391.413, 674.465
392.760, 812.456
394.107, 971.139
395.454, 997.981
396.800, 1314.196
398.146, 1563.637
399.492, 1674.585
400.838, 1816.123
402.184, 1747.633
403.529, 1699.119
404.874, 1460.585
406.219, 1332.034
407.564, 1173.455
408.908, 854.845
410.252, 826.211
411.596, 497.562
412.940, 427.903
414.284, 320.237
415.627, 98.560
416.970, 252.871
418.313, 81.170
419.656, 248.456
420.999, 358.734
422.341, 398.004
423.683, 799.271
425.025, 750.535
426.367, 1281.796
427.708, 1283.056
429.049, 1544.312
430.390, 1615.566
431.731, 1606.818
433.072, 1598.069
434.412, 1509.317
435.752, 1780.558
437.092, 1681.787
438.432, 1503.012
439.772, 1804.235
441.111, 1465.458
442.450, 1496.678
443.789, 1397.896
445.127, 1169.111
446.466, 1310.327
447.804, 1101.540
449.142, 1072.751
450.480, 1033.960
451.817, 1045.167
453.155, 1236.371
454.492, 1157.573
455.829, 1628.742
457.166, 1699.879
458.502, 2080.979
459.838, 2192.041
461.175, 2273.064
462.510, 2453.862
463.846, 2393.861
465.181, 2623.395
466.517, 2813.046
467.852, 3068.068
469.186, 3750.944
470.521, 3956.351
471.855, 4751.269
473.190, 4863.824
474.523, 5720.393
475.857, 6264.725
477.191, 7195.332
478.524, 8348.210
479.857, 9076.869
481.190, 11005.941
482.523, 12627.848
483.855, 13887.376
485.187, 16647.199
486.519, 16636.930
487.851, 16826.357
489.183, 16245.776
490.514, 14724.928
491.845, 14027.120
493.176, 13429.673
494.507, 13707.938
495.837, 14700.262
497.168, 16879.496
498.498, 19804.514
499.828, 22456.180
501.157, 27327.287
502.487, 29932.012
503.816, 32664.756
505.145, 33140.602
506.474, 31025.213
507.802, 29044.336
509.131, 25126.324
510.459, 22385.562
511.787, 19674.936
513.115, 17274.727
514.442, 15944.081
515.770, 13424.274
517.097, 12293.446
518.424, 10652.250
519.750, 9701.457
521.077, 9739.535
522.403, 9048.779
523.729, 9137.389
525.055, 8987.318
526.381, 8647.074
527.706, 8277.232
529.031, 7177.811
530.356, 6918.184
531.681, 5608.816
533.006, 4999.435
534.330, 4180.066
535.654, 3610.688
536.978, 3371.295
538.302, 3001.906
539.625, 2772.505
540.949, 2603.101
542.272, 2533.713
543.595, 2784.334
544.917, 2694.994
546.240, 3055.667
547.562, 3486.406
548.884, 3727.170
550.206, 4438.039
551.527, 4758.949
552.849, 5739.911
554.170, 6400.921
555.491, 6981.943
556.812, 7602.982
558.132, 7694.021
559.453, 7815.056
560.773, 7366.082
562.093, 7007.100
563.412, 6608.108
564.732, 5569.108
566.051, 5260.101
567.370, 4351.085
568.689, 3972.059
570.008, 3273.024
571.326, 2593.982
572.644, 2464.931
573.963, 1975.635
575.280, 1715.412
576.598, 1425.835
577.915, 1225.540
579.233, 1045.946
580.550, 876.813
581.866, 877.697
583.183, 798.571
584.499, 719.436
585.815, 1010.290
587.131, 771.134
588.447, 1071.967
589.763, 1182.791
591.078, 1223.604
592.393, 1704.404
593.708, 1605.196
595.022, 1985.977
596.337, 1906.746
597.651, 1777.503
598.965, 2098.250
600.279, 1918.985
601.593, 1789.708
602.906, 1640.421
604.219, 1381.120
605.532, 1271.808
606.845, 822.484
608.158, 783.146
609.470, 523.798
610.782, 404.435
612.094, 485.061
613.406, 395.673
614.718, 546.272
616.029, 496.859
617.340, 577.433
618.651, 937.992
619.962, 748.541
621.272, 1149.076
622.582, 1029.603
623.892, 1020.123
625.202, 1050.679
626.512, 711.250
627.821, 851.885
629.131, 532.574
630.440, 433.319
631.749, 424.171
633.057, 124.885
634.366, 226.084
635.674, 7.126
636.982, 28.187
638.290, 249.284
639.597, 69.627
640.905, 131.427
642.212, 12.470
643.519, 83.498
644.825, 216.070
646.132, 12.922
647.438, 258.763
648.744, 100.254
650.050, 88.859
651.356, 169.161
652.662, 229.686
653.967, 70.267
655.272, 268.278
656.577, 46.959
657.882, 48.492
659.186, 267.725
660.490, 67.097
661.794, 130.585
663.098, 79.768
664.402, 72.546
665.705, 19.934
667.009, 401.004
668.312, 399.669
669.614, 480.182
670.917, 743.605
672.219, 625.338
673.522, 1326.353
674.824, 1188.524
676.125, 1790.874
677.427, 2056.581
678.728, 2213.772
680.030, 2546.796
681.331, 2536.952
682.631, 2767.485
683.932, 2651.826
685.232, 2209.536
686.532, 2359.603
687.832, 1968.450
689.132, 1898.487
690.432, 1614.008
691.731, 1402.613
693.030, 1414.377
694.329, 1077.494
695.628, 1007.450
696.926, 997.598
698.224, 640.834
699.522, 960.531
700.820, 460.419
702.118, 769.927
703.415, 729.404
704.713, 498.853
706.010, 678.271
707.307, 407.662
708.603, 687.022
709.900, 686.352
711.196, 495.649
712.492, 614.918
713.788, 514.155
715.083, 683.362
716.379, 552.539
717.674, 621.685
718.969, 710.799
720.264, 629.883
721.558, 578.935
722.853, 656.646
724.147, 596.945
725.441, 765.904
726.735, 744.833
728.028, 803.729
729.322, 892.595
730.615, 901.430
731.908, 1090.238
733.201, 1279.020
734.493, 1387.773
735.785, 1556.500
737.078, 1795.193
738.370, 2213.857
739.661, 2162.488
740.953, 2571.090
742.244, 2829.660
743.535, 2558.198
744.826, 2906.705
746.117, 2375.184
747.407, 2333.631
748.698, 2382.048
749.988, 2000.434
751.278, 2388.788
752.567, 2127.111
753.857, 2175.405
755.146, 2453.668
756.435, 2551.899
757.724, 3010.103
759.013, 3208.274
760.301, 3326.415
761.590, 3934.526
762.878, 3782.606
764.165, 4080.655
765.453, 4188.676
766.741, 3866.663
768.028, 4064.623
769.315, 3662.551
770.602, 3610.449
771.888, 3138.318
773.175, 2936.155
774.461, 2743.965
775.747, 2251.743
777.033, 1969.492
778.319, 1837.211
779.604, 1424.900
780.889, 1412.560
782.174, 1060.189
783.459, 1177.789
784.744, 1085.358
786.028, 662.896
787.312, 950.403
788.596, 581.544
789.880, 638.989
791.164, 675.773
792.447, 612.623
793.730, 629.971
795.013, 383.950
796.296, 491.125
797.579, 447.767
798.861, 84.670
800.143, 541.846
801.425, 137.884
802.707, 344.991
803.989, 186.618
805.270, 31.127
806.551, 225.810
807.832, 71.153
809.113, 105.186
810.394, 85.347
811.674, 60.795
812.954, 192.722
814.234, 267.560
815.514, 46.040
816.794, 81.235
818.073, 148.365
819.352, 72.852
820.631, 129.487
821.910, 253.548
823.189, 102.205
824.467, 172.071
825.745, 13.512
827.023, 29.051
828.301, 155.445
829.578, 0.073
830.856, 54.749
832.133, 79.504
833.410, 14.346
834.687, 129.244
835.963, 35.743
837.240, 39.298
838.516, 94.405
839.792, 120.394
841.068, 274.831
842.343, 109.756
843.618, 65.680
844.894, 38.809
846.169, 63.271
847.443, 32.291
848.718, 82.091
849.992, 26.450
851.266, 39.216
852.540, 115.063
853.814, 59.320
855.088, 163.555
856.361, 147.771
857.634, 144.869
858.907, 172.518
860.180, 160.309
861.453, 164.451
862.725, 238.577
863.997, 232.686
865.269, 386.777
866.541, 270.853
867.812, 534.912
869.084, 448.969
870.355, 403.010
871.626, 377.034
872.897, 491.044
874.167, 495.040
875.438, 699.021
876.708, 522.986
877.978, 816.938
879.248, 970.889
880.517, 794.823
881.787, 1058.746
883.056, 782.665
884.325, 1326.571
885.594, 1190.468
886.862, 1284.354
888.130, 1618.227
889.399, 1622.126
890.667, 1936.015
891.934, 2179.892
893.202, 1913.767
894.469, 2327.632
895.737, 2241.525
897.004, 2225.409
898.270, 2369.283
899.537, 2223.190
900.803, 2487.088
902.070, 2270.977
903.336, 2524.863
904.601, 2558.741
905.867, 2082.612
907.132, 2306.475
908.398, 2410.330
909.663, 2174.178
910.928, 2558.021
912.192, 2151.855
913.457, 2375.685
914.721, 2419.508
915.985, 2123.326
917.249, 2207.139
918.512, 2050.949
919.776, 2034.781
921.039, 2178.610
922.302, 1732.435
923.565, 2276.257
924.827, 2070.076
926.090, 1983.891
927.352, 2387.703
928.614, 2281.514
929.876, 2775.369
931.138, 2749.221
932.399, 2933.073
933.660, 3516.923
934.922, 3250.771
936.182, 3934.619
937.443, 4108.465
938.704, 4032.311
939.964, 4556.156
941.224, 4170.035
942.484, 4363.911
943.744, 4487.793
945.003, 4071.681
946.262, 4735.566
947.521, 4349.474
948.780, 4493.381
950.039, 4637.303
951.298, 4549.672
952.556, 4883.598
953.814, 5006.838
955.072, 4810.779
956.330, 5504.283
957.587, 4751.143
958.845, 4854.867
960.102, 5109.731
961.359, 4363.087
962.615, 4656.504
963.872, 4482.761
965.128, 4436.701
966.384, 5050.705
967.640, 4838.809
968.896, 5012.568
970.152, 5584.809
971.407, 5701.838
972.662, 6495.432
973.917, 6071.297
975.172, 6695.311
976.427, 7036.410
977.681, 6539.199
978.935, 7012.701
980.189, 6325.041
981.443, 6337.209
982.697, 6196.014
983.950, 5703.360
985.203, 5614.874
986.456, 5189.253
987.709, 4753.254
988.962, 4723.446
990.214, 4250.290
991.467, 4394.774
992.719, 4260.473
993.971, 3924.997
995.222, 4244.032
996.474, 3908.326
997.725, 3732.807
998.976, 4164.279
1000.227, 3818.906
1001.478, 4333.360
1002.728, 4134.721
1003.978, 3679.620
1005.229, 4204.322
1006.479, 3559.404
1007.728, 3724.568
1008.978, 3699.757
1010.227, 3184.971
1011.476, 3600.235
1012.725, 3175.524
1013.974, 3180.883
1015.223, 3336.270
1016.471, 2881.681
1017.719, 3177.117
1018.967, 3095.270
1020.215, 2610.756
1021.462, 3106.267
1022.710, 2681.804
1023.957, 2667.368
1025.204, 2602.957
1026.451, 2058.572
1027.697, 2584.231
1028.944, 2142.152
1030.190, 2027.860
1031.436, 2313.598
1032.682, 1841.387
1033.928, 2177.182
1035.173, 2063.482
1036.418, 1639.330
1037.663, 2245.226
1038.908, 1719.648
1040.153, 2045.592
1041.398, 2111.600
1042.642, 1809.303
1043.886, 2125.359
1045.130, 1990.115
1046.374, 1926.240
1047.617, 2452.399
1048.860, 1797.927
1050.104, 2364.164
1051.347, 2310.441
1052.589, 1877.715
1053.832, 2234.038
1055.074, 1960.387
1056.316, 2076.759
1057.558, 1833.157
1058.800, 1679.581
1060.042, 2046.028
1061.283, 1862.514
1062.524, 1649.064
1063.765, 1725.597
1065.006, 1532.371
1066.247, 1549.014
1067.487, 1615.680
1068.728, 1398.811
1069.968, 1524.815
1071.208, 1622.267
1072.447, 1569.360
1073.687, 1656.174
1074.926, 1593.014
1076.165, 1759.874
1077.404, 1626.758
1078.643, 1514.701
1079.881, 1831.654
1081.120, 1328.627
1082.358, 1455.706
1083.596, 1482.704
1084.834, 1259.784
1086.071, 1416.862
1087.309, 1373.962
1088.546, 961.515
1089.783, 1178.673
1091.020, 1095.851
1092.256, 1083.617
1093.493, 1000.843
1094.729, 588.092
1095.965, 985.562
1097.201, 642.853
1098.436, 521.765
1099.672, 919.099
1100.907, 426.460
1102.142, 634.113
1103.377, 631.530
1104.612, 528.968
1105.846, 866.436
1107.081, 423.956
1108.315, 441.984
1109.549, 599.589
1110.782, 187.216
1112.016, 585.500
1113.249, 413.204
1114.483, 240.928
1115.716, 678.787
1116.948, 366.666
1118.181, 644.887
1119.413, 702.855
1120.646, 450.875
1121.878, 929.598
1123.110, 797.781
1124.341, 685.982
1125.573, 1104.920
1126.804, 803.219
1128.035, 851.785
1129.266, 1030.178
1130.497, 508.598
1131.727, 1011.406
1132.957, 739.914
1134.188, 678.449
1135.418, 887.471
1136.647, 596.086
1137.877, 690.869
1139.106, 769.977
1140.335, 158.688
1141.564, 532.506
1142.793, 491.340
1144.022, 170.195
1145.250, 840.496
1146.479, 29.375
1147.707, 238.439
1148.934, 472.693
1150.162, 171.619
1151.390, 471.570
1152.617, 150.703
1153.844, 139.830
1155.071, 613.121
1156.298, 112.109
1157.524, 411.496
1158.751, 226.844
1159.977, 205.848
1161.203, 505.564
1162.428, 165.594
1163.654, 44.607
1164.879, 504.135
1166.105, 106.846
1167.330, 192.252
1168.555, 131.963
1169.779, 100.963
1171.004, 170.688
1172.228, 109.938
1173.452, 78.939
1174.676, 452.896
1175.900, 87.979
1177.123, 300.998
1178.346, 220.760
1179.570, 80.266
1180.793, 420.744
1182.015, 29.352
1183.238, 39.588
1184.460, 353.285
1185.683, 197.768
1186.905, 391.084
1188.126, 149.182
1189.348, 61.748
1190.569, 117.072
1191.791, 189.330
1193.012, 9.400
1194.233, 220.289
1195.453, 193.527
1196.674, 285.098
1197.894, 137.256
1199.114, 34.135
1200.334, 234.455
1201.554, 43.867
1202.774, 152.438
1203.993, 311.730
1205.212, 60.836
1206.431, 289.395
1207.650, 81.564
1208.869, 30.396
1210.087, 348.920
1211.305, 22.361
1212.524, 250.857
1213.741, 409.348
1214.959, 120.840
1216.177, 447.562
1217.394, 316.258
1218.611, 11.092
1219.828, 489.449
1221.045, 98.797
1222.261, 287.127
1223.478, 485.439
1224.694, 180.594
1225.910, 427.590
1227.126, 385.916
1228.342, 96.467
1229.557, 364.604
1230.772, 313.184
1231.987, 263.033
1233.202, 501.104
1234.417, 32.781
1235.631, 400.844
1236.846, 458.900
1238.060, 8.584
1239.274, 406.621
1240.488, 235.023
1241.701, 103.053
1242.915, 451.072
1244.128, 10.498
1245.341, 297.941
1246.554, 505.934
1247.767, 106.764
1248.979, 734.740
1250.191, 202.709
1251.403, 192.910
1252.615, 720.857
1253.827, 68.797
1255.039, 337.439
1256.250, 455.334
1257.461, 43.496
1258.672, 431.355
1259.883, 339.180
1261.094, 197.930
1262.304, 375.641
1263.514, 133.336
1264.724, 351.221
1265.934, 408.852
1267.144, 66.389
1268.354, 564.807
1269.563, 552.266
1270.772, 69.641
1271.981, 687.027
1273.190, 174.354
1274.398, 292.684
1275.607, 719.961
1276.815, 22.816
1278.023, 474.580
1279.231, 441.734
1280.439, 149.846
1281.646, 446.900
1282.853, 46.066
1284.060, 161.055
1285.267, 607.914
1286.474, 25.268
1287.681, 261.945
1288.887, 408.613
1290.093, 124.750
1291.299, 552.082
1292.505, 238.602
1293.711, 24.934
1294.916, 441.365
1296.121, 77.635
1297.327, 243.857
1298.531, 249.996
1299.736, 163.910
1300.941, 513.549
1302.145, 199.473
1303.349, 34.660
1304.553, 431.504
1305.757, 102.744
1306.961, 92.891
1308.164, 338.475
1309.367, 184.016
1310.570, 329.516
1311.773, 282.277
1312.976, 137.662
1314.178, 353.254
1315.381, 138.527
1316.583, 253.746
1317.785, 378.914
1318.987, 5.965
1320.188, 289.082
1321.390, 351.840
1322.591, 136.785
1323.792, 511.672
1324.993, 54.486
1326.193, 119.258
1327.394, 553.504
1328.594, 1.828
1329.794, 322.760
1330.994, 408.891
1332.194, 76.621
1333.394, 267.771
1334.593, 330.555
1335.792, 5.154
1336.991, 540.416
1338.190, 44.594
1339.389, 51.309
1340.587, 563.396
1341.786, 7.365
1342.984, 321.273
1344.182, 464.164
1345.379, 127.982
1346.577, 511.748
1347.774, 149.490
1348.972, 193.168
1350.169, 606.799
1351.365, 10.387
1352.562, 253.918
1353.759, 617.365
1354.955, 169.189
1356.151, 573.998
1357.347, 347.793
1358.543, 91.061
1359.738, 457.848
1360.934, 251.584
1362.129, 35.254
1363.324, 667.367
1364.519, 120.246
1365.713, 453.078
1366.908, 666.000
1368.102, 21.299
1369.296, 400.260
1370.490, 284.445
1371.684, 36.898
1372.877, 419.188
1374.071, 211.686
1375.264, 63.377
1376.457, 614.283
1377.650, 10.158
1378.843, 466.396
1380.035, 572.002
1381.227, 77.924
1382.419, 872.336
1383.611, 248.357
1384.803, 364.029
1385.995, 729.920
1387.186, 245.221
1388.377, 240.992
1389.568, 706.014
1390.759, 41.643
1391.950, 636.883
1393.140, 602.430
1394.331, 67.193
1395.521, 1021.859
1396.711, 486.947
1397.900, 192.262
1399.090, 952.354
1400.279, 297.004
1401.469, 354.656
1402.658, 709.123
1403.847, 157.805
1405.035, 868.295
1406.224, 372.688
1407.412, 290.404
1408.600, 723.309
1409.788, 338.758
1410.976, 142.311
1412.164, 727.852
1413.351, 325.883
1414.538, 308.824
1415.725, 702.273
1416.912, 114.826
1418.099, 706.930
1419.285, 563.254
1420.472, 266.371
1421.658, 738.473
1422.844, 117.219
1424.030, 413.186
1425.215, 746.205
1426.401, 254.639
1427.586, 320.004
1428.771, 629.389
1429.956, 170.199
1431.141, 687.088
1432.325, 488.258
1433.510, 219.504
1434.694, 820.943
1435.878, 376.492
1437.062, 282.590
1438.245, 804.291
1439.429, 273.576
1440.612, 762.885
1441.795, 942.424
1442.978, 23.732
1444.161, 784.230
1445.343, 670.451
1446.526, 150.572
1447.708, 1168.031
1448.890, 421.438
1450.072, 508.508
1451.253, 1027.943
1452.435, 317.928
1453.616, 745.822
1454.797, 878.965
1455.978, 158.092
1457.159, 781.775
1458.340, 758.600
1459.520, 276.236
1460.700, 1014.355
1461.880, 700.096
1463.060, 417.553
1464.240, 1085.621
1465.420, 261.303
1466.599, 589.445
1467.778, 1004.555
1468.957, 222.336
1470.136, 919.303
1471.315, 843.797
1472.493, 160.584
1473.671, 1078.129
1474.849, 624.223
1476.027, 150.801
1477.205, 1228.127
1478.383, 346.047
1479.560, 553.980
1480.737, 886.416
1481.914, 244.400
1483.091, 690.852
1484.268, 608.902
1485.444, 286.861
1486.621, 744.855
1487.797, 701.793
1488.973, 50.010
1490.149, 838.230
1491.324, 386.537
1492.500, 184.949
1493.675, 813.516
1494.850, 212.256
1496.025, 450.564
1497.200, 678.916
1498.374, 58.203
1499.548, 597.797
1500.723, 527.803
1501.897, 58.100
1503.071, 618.729
1504.244, 447.969
1505.418, 165.418
1506.591, 772.508
1507.764, 109.131
1508.937, 457.049
1510.110, 630.059
1511.282, 7.955
1512.455, 505.582
1513.627, 593.230
1514.799, 7.150
1515.971, 138.980
1517.143, 0.000
##END=



