##NAMES=Anorthite
##RRUFFID=R040059
##IDEAL CHEMISTRY=CaAl_2_Si_2_O_8_
##LOCALITY=Miyakejima, Japan
##OWNER=RRUFF
##SOURCE=University of Arizona Mineral Museum
##DESCRIPTION=Colorless fragments of crystals
##STATUS=The identification of this mineral has been confirmed by X-ray diffraction and chemical analysis
##URL=rruff.info/R040059
##MEASURED CHEMISTRY=(Ca_0.94_Na_0.04_Fe_0.02_)(Al_0.98_Si_0.02_)_2_Si_2.00_O_8_
##PIN_ID=L00179
##ORIENTATION=Laser parallel to (1 1 0). Fiducial mark perpendicular to laser is parallel to -c [0 0 -1]
117.519, 0.000
118.915, 92.809
120.311, 93.617
121.706, 35.725
123.102, 168.770
124.497, 90.729
125.892, 435.993
127.286, 771.834
128.681, 1146.264
130.075, 1727.723
131.469, 1665.000
132.862, 2507.261
134.256, 2594.002
135.649, 3104.719
137.042, 3548.896
138.435, 4176.045
139.827, 4965.729
141.219, 5307.580
142.611, 6091.316
144.003, 5916.725
145.394, 5723.679
146.786, 5042.389
148.177, 4213.155
149.567, 3575.891
150.958, 2660.238
152.348, 2215.899
153.738, 1392.620
155.128, 1170.180
156.517, 658.401
157.907, 537.134
159.296, 496.258
160.685, 295.680
162.073, 535.331
163.462, 435.161
164.850, 545.136
166.237, 515.410
167.625, 846.161
169.012, 1217.123
170.400, 1508.224
171.786, 1800.258
173.173, 1933.188
174.559, 2149.209
175.946, 2519.079
177.332, 2881.085
178.717, 3245.178
180.103, 3706.857
181.488, 4202.498
182.873, 4674.928
184.258, 5336.709
185.642, 5897.836
187.026, 6368.284
188.410, 6937.985
189.794, 7206.971
191.178, 7675.275
192.561, 7362.933
193.944, 7689.971
195.327, 7506.416
196.709, 6862.293
198.092, 6707.626
199.474, 5912.439
200.856, 6106.777
202.237, 5350.741
203.618, 4914.350
205.000, 4607.683
206.380, 4240.769
207.761, 3873.637
209.142, 3437.457
210.522, 2928.794
211.902, 2591.176
213.281, 2196.286
214.661, 1964.790
216.040, 1734.040
217.419, 1841.572
218.798, 1535.542
220.176, 1578.715
221.554, 1590.495
222.932, 1228.217
224.310, 1144.979
225.688, 727.330
227.065, 1042.199
228.442, 822.933
229.819, 839.086
231.196, 1003.997
232.572, 1057.099
233.948, 1427.500
235.324, 1343.997
236.700, 1896.645
238.075, 2127.958
239.450, 2557.505
240.825, 2684.236
242.200, 2982.461
243.574, 3586.662
244.948, 3419.583
246.322, 3973.513
247.696, 3700.229
249.070, 3937.497
250.443, 4203.545
251.816, 4259.094
253.189, 4395.152
254.561, 4219.787
255.933, 4581.725
257.306, 4373.207
258.677, 4224.631
260.049, 4295.981
261.420, 3987.249
262.791, 4078.430
264.162, 3809.522
265.533, 4000.529
266.903, 3831.449
268.274, 3822.283
269.643, 4173.030
271.013, 3933.693
272.383, 3874.275
273.752, 3954.772
275.121, 4045.189
276.490, 4015.523
277.858, 4055.779
279.226, 4345.959
280.595, 4066.057
281.962, 4376.081
283.330, 4099.581
284.697, 3943.449
286.064, 3937.436
287.431, 3270.305
288.798, 3415.310
290.164, 2810.682
291.530, 2536.359
292.896, 2342.287
294.262, 1848.426
295.627, 1684.741
296.993, 1281.204
298.358, 1187.792
299.722, 924.480
301.087, 931.252
302.451, 668.089
303.815, 454.976
305.179, 491.902
306.543, 288.856
307.906, 255.825
309.269, 162.800
310.632, 89.770
311.995, 116.723
313.357, 87.311
314.719, 110.540
316.081, 197.387
317.443, 224.195
318.804, 430.951
320.166, 287.656
321.527, 474.303
322.887, 470.894
324.248, 497.423
325.608, 273.892
326.968, 80.294
328.328, 266.617
329.688, 147.131
331.047, 158.989
332.406, 15.029
333.765, 30.976
335.124, 36.879
336.482, 47.314
337.840, 61.501
339.198, 265.828
340.556, 230.291
341.913, 424.876
343.271, 399.733
344.628, 284.816
345.984, 540.133
347.341, 55.752
348.697, 421.537
350.053, 197.587
351.409, 133.841
352.765, 320.278
354.120, 206.945
355.475, 273.811
356.830, 252.240
358.185, 148.173
359.539, 135.634
360.894, 16.737
362.248, 148.980
363.601, 231.119
364.955, 233.156
366.308, 485.098
367.661, 486.949
369.014, 538.711
370.367, 670.389
371.719, 441.984
373.071, 583.492
374.423, 294.920
375.775, 306.256
377.126, 337.494
378.478, 218.617
379.828, 479.615
381.179, 240.504
382.530, 441.295
383.880, 301.996
385.230, 232.609
386.580, 483.107
387.929, 243.410
389.279, 743.570
390.628, 643.588
391.977, 833.393
393.325, 1042.840
394.674, 1211.805
396.022, 1750.297
397.370, 1948.453
398.718, 2486.332
400.065, 2963.869
401.413, 2551.062
402.760, 2758.012
404.106, 2544.852
405.453, 2511.629
406.799, 2258.357
408.146, 1785.043
409.491, 1671.682
410.837, 1178.260
412.182, 1184.779
413.528, 951.240
414.873, 857.648
416.217, 993.998
417.562, 810.297
418.906, 1226.557
420.250, 1252.779
421.594, 1758.965
422.938, 1875.113
424.281, 2121.225
425.624, 2787.305
426.967, 2763.344
428.310, 3199.348
429.652, 3385.318
430.994, 3351.252
432.336, 3407.152
433.678, 3163.016
435.020, 3588.846
436.361, 3564.641
437.702, 3900.404
439.043, 3946.133
440.383, 3431.828
441.724, 3757.490
443.064, 3213.121
444.404, 3158.717
445.743, 2934.270
447.083, 2389.773
448.422, 2615.234
449.761, 2270.648
451.100, 2106.012
452.438, 2241.322
453.777, 2216.574
455.115, 2491.771
456.453, 2376.906
457.790, 2941.984
459.128, 2907.004
460.465, 3181.961
461.802, 3066.855
463.139, 3111.689
464.475, 3446.457
465.811, 3421.129
467.147, 3885.771
468.483, 4469.572
469.819, 5033.148
471.154, 5886.064
472.489, 6128.129
473.824, 7130.414
475.159, 7972.213
476.493, 9124.191
477.827, 10628.336
479.161, 12061.145
480.495, 14394.754
481.829, 16177.732
483.162, 19111.352
484.495, 20794.871
485.828, 20768.412
487.161, 21880.932
488.493, 19391.334
489.825, 17653.654
491.157, 16611.898
492.489, 15593.102
493.820, 16021.328
495.151, 17241.361
496.482, 19319.992
497.813, 22224.203
499.144, 25986.922
500.474, 29954.566
501.804, 31967.232
503.134, 34756.984
504.464, 33907.129
505.793, 31985.469
507.123, 29877.045
508.451, 25619.730
509.780, 23858.531
511.109, 20871.352
512.437, 18728.049
513.765, 17212.967
515.093, 14874.879
516.421, 13602.527
517.748, 11641.479
519.075, 10616.857
520.402, 10112.994
521.729, 9548.586
523.055, 10108.219
524.382, 8858.906
525.708, 8539.561
527.034, 8311.680
528.359, 7073.803
529.685, 6556.119
531.010, 5399.014
532.335, 5170.941
533.659, 4503.484
534.984, 4124.547
536.308, 3765.652
537.632, 3856.965
538.956, 3717.137
540.279, 3979.029
541.603, 3929.375
542.926, 4361.020
544.249, 4641.895
545.571, 5631.977
546.894, 6093.666
548.216, 6743.789
549.538, 8366.402
550.860, 9048.781
552.181, 10731.332
553.503, 11303.922
554.824, 12606.414
556.145, 13248.879
557.465, 12941.316
558.786, 12553.727
560.106, 12176.121
561.426, 11108.484
562.746, 10230.830
564.065, 8953.152
565.385, 7965.457
566.704, 6687.740
568.023, 5900.002
569.341, 5112.246
570.660, 4144.469
571.978, 3626.668
573.296, 2898.852
574.614, 2751.014
575.931, 2293.156
577.248, 1935.279
578.565, 1837.383
579.882, 1439.467
581.199, 1441.531
582.515, 1303.578
583.831, 1275.604
585.147, 1357.609
586.463, 1169.596
587.779, 1631.564
589.094, 1243.514
590.409, 1605.443
591.724, 1807.354
593.038, 1519.244
594.353, 1781.119
595.667, 1522.973
596.981, 1574.807
598.295, 1506.625
599.608, 1248.420
600.922, 1270.199
602.235, 1131.961
603.547, 743.701
604.860, 795.424
606.172, 377.129
607.485, 678.812
608.797, 460.480
610.108, 542.129
611.420, 483.762
612.731, 445.375
614.042, 886.971
615.353, 868.547
616.664, 1230.107
617.974, 1311.648
619.284, 1373.174
620.594, 2004.682
621.904, 1396.174
623.213, 2077.646
624.523, 1699.107
625.832, 1350.549
627.141, 1561.979
628.449, 823.396
629.758, 994.805
631.066, 746.209
632.374, 477.605
633.681, 549.000
634.989, 29.611
636.296, 471.752
637.603, 313.109
638.910, 164.451
640.217, 356.404
641.523, 267.725
642.829, 199.027
644.135, 330.322
645.441, 181.748
646.747, 353.545
648.052, 64.826
649.357, 257.383
650.662, 29.332
651.967, 218.709
653.271, 143.211
654.575, 515.004
655.879, 80.758
657.183, 310.293
658.486, 356.455
659.790, 56.814
661.093, 160.873
662.396, 67.914
663.698, 268.678
665.001, 19.965
666.303, 585.396
667.605, 318.506
668.907, 780.021
670.209, 961.391
671.510, 883.377
672.811, 1604.359
674.112, 1377.979
675.413, 2250.082
676.713, 2227.064
678.013, 2539.273
679.313, 3146.379
680.613, 2823.525
681.913, 3066.248
683.212, 2932.227
684.511, 2534.521
685.810, 2471.834
687.109, 1871.744
688.407, 1922.580
689.706, 1490.078
691.004, 1384.615
692.302, 1426.516
693.599, 818.617
694.897, 920.490
696.194, 703.688
697.491, 666.002
698.788, 867.826
700.084, 319.795
701.380, 751.582
702.677, 474.135
703.972, 516.221
705.268, 787.965
706.564, 309.883
707.859, 481.584
709.154, 323.258
710.449, 574.908
711.743, 896.539
713.037, 478.143
714.332, 529.725
715.626, 561.285
716.919, 712.824
718.213, 644.336
719.506, 585.828
720.799, 607.297
722.092, 728.744
723.384, 480.170
724.677, 1021.570
725.969, 712.951
727.261, 894.311
728.553, 925.646
729.844, 1206.961
731.136, 1318.252
732.427, 1409.521
733.718, 1510.770
735.008, 1796.486
736.299, 2023.199
737.589, 2474.379
738.879, 2625.541
740.169, 3086.682
741.458, 3017.799
742.748, 2918.895
744.037, 3249.971
745.326, 2571.025
746.614, 2702.059
747.903, 2483.074
749.191, 2244.066
750.479, 2555.035
751.767, 1955.988
753.055, 2636.918
754.342, 2847.832
755.629, 2638.721
756.916, 3489.592
758.203, 3570.441
759.490, 3931.273
760.776, 3942.082
762.062, 3792.875
763.348, 4513.646
764.634, 3934.398
765.919, 3965.131
767.204, 4215.842
768.489, 3676.539
769.774, 3497.215
771.059, 3227.871
772.343, 2698.508
773.627, 2619.129
774.911, 2179.729
776.195, 2010.311
777.479, 1720.877
778.762, 1381.420
780.045, 1461.947
781.328, 1062.455
782.611, 1052.945
783.893, 1013.418
785.175, 733.873
786.457, 1004.311
787.739, 344.730
789.021, 925.131
790.302, 534.059
791.583, 474.430
792.864, 644.781
794.145, 135.057
795.425, 515.367
796.706, 295.660
797.986, 295.939
799.266, 246.203
800.545, 155.955
801.825, 436.668
803.104, 76.439
804.383, 126.615
805.662, 126.201
806.940, 255.400
808.219, 134.377
809.497, 16.582
810.775, 67.150
812.053, 4.318
813.330, 317.193
814.608, 21.699
815.885, 248.393
817.162, 119.707
818.438, 319.512
819.715, 192.141
820.991, 313.078
822.267, 185.781
823.543, 125.371
824.818, 93.373
826.094, 117.902
827.369, 159.277
828.644, 119.227
829.919, 212.287
831.193, 116.051
832.468, 55.629
833.742, 57.375
835.016, 20.812
836.289, 41.027
837.563, 142.922
838.836, 64.926
840.109, 266.994
841.382, 123.928
842.654, 231.576
843.927, 24.066
845.199, 253.400
846.471, 70.854
847.743, 118.289
849.014, 4.287
850.286, 13.105
851.557, 150.477
852.828, 67.836
854.099, 355.076
855.369, 2.408
856.639, 19.717
857.909, 427.008
859.179, 44.289
860.449, 601.422
861.718, 318.680
862.988, 115.850
864.257, 643.088
865.525, 400.311
866.794, 457.525
868.062, 674.740
869.331, 631.945
870.599, 879.141
871.866, 696.330
873.134, 573.508
874.401, 1130.680
875.668, 537.846
876.935, 1485.002
878.202, 862.156
879.468, 769.303
880.735, 1786.443
882.001, 993.576
883.267, 1760.707
884.532, 1577.832
885.798, 1794.951
887.063, 2422.066
888.328, 2179.199
889.593, 2696.330
890.857, 2653.457
892.122, 2960.580
893.386, 3447.703
894.650, 2804.846
895.913, 3112.010
897.177, 3389.170
898.440, 2986.375
899.703, 3333.578
900.966, 3130.777
902.229, 3387.980
903.491, 3225.180
904.754, 3422.387
906.016, 3579.594
907.278, 3186.801
908.539, 3074.012
909.801, 3711.227
911.062, 3188.441
912.323, 3405.662
913.584, 3382.885
914.844, 3230.113
916.105, 3677.350
917.365, 2664.588
918.625, 2891.834
919.885, 2969.082
921.144, 2626.338
922.404, 3103.600
923.663, 2240.869
924.922, 3008.148
926.180, 3035.434
927.439, 2592.730
928.697, 3410.033
929.955, 3337.346
931.213, 3254.664
932.471, 3701.988
933.728, 3579.322
934.985, 4376.664
936.242, 3994.016
937.499, 4641.375
938.756, 4768.744
940.012, 4336.123
941.269, 4823.510
942.525, 4700.918
943.780, 4218.336
945.036, 4995.783
946.291, 4732.625
947.546, 5390.096
948.801, 5607.582
950.056, 5615.084
951.311, 5972.457
952.565, 6069.471
953.819, 6067.010
955.073, 6513.340
956.327, 5670.281
957.580, 6097.246
958.834, 5594.230
960.087, 5431.371
961.339, 5844.445
962.592, 5424.383
963.845, 5149.434
965.097, 5715.045
966.349, 5451.754
967.601, 6302.074
968.852, 6260.516
970.104, 6198.613
971.355, 7472.613
972.606, 6989.070
973.857, 7607.219
975.107, 7235.582
976.358, 7063.447
977.608, 7702.414
978.858, 6978.855
980.108, 7166.920
981.357, 6850.188
982.607, 6148.311
983.856, 6111.576
985.105, 6054.822
986.353, 5352.512
987.602, 5636.959
988.850, 4765.102
990.098, 4908.240
991.346, 4728.789
992.594, 4598.426
993.841, 4891.412
995.089, 4197.367
996.336, 4565.984
997.583, 4774.416
998.829, 4003.092
1000.076, 4470.465
1001.322, 4688.744
1002.568, 4517.535
1003.814, 4726.199
1005.060, 3835.064
1006.305, 4163.188
1007.550, 4061.799
1008.795, 3570.773
1010.040, 4359.590
1011.285, 3548.645
1012.529, 3627.738
1013.773, 3976.875
1015.017, 3256.047
1016.261, 4215.260
1017.505, 3025.840
1018.748, 3235.135
1019.991, 3694.473
1021.234, 2813.852
1022.477, 3473.273
1023.719, 2922.742
1024.962, 2652.250
1026.204, 3181.803
1027.446, 2251.967
1028.688, 2741.609
1029.929, 2701.299
1031.170, 2181.031
1032.411, 2860.812
1033.652, 2520.641
1034.893, 2250.514
1036.134, 2690.438
1037.374, 2055.697
1038.614, 2675.715
1039.854, 2585.785
1041.094, 2615.904
1042.333, 3006.076
1043.572, 2581.850
1044.811, 2666.902
1046.050, 2827.236
1047.289, 2597.734
1048.527, 3368.176
1049.766, 2848.676
1051.004, 2699.232
1052.241, 3499.850
1053.479, 2521.324
1054.717, 2972.059
1055.954, 2912.855
1057.191, 2644.166
1058.428, 2605.086
1059.664, 2456.068
1060.901, 2377.117
1062.137, 3048.230
1063.373, 2070.598
1064.609, 2651.846
1065.844, 2673.141
1067.080, 2064.508
1068.315, 2945.941
1069.550, 2387.449
1070.785, 2749.018
1072.019, 2800.660
1073.254, 2103.783
1074.488, 2665.578
1075.722, 2737.355
1076.955, 2299.207
1078.189, 2911.027
1079.422, 2172.826
1080.656, 2444.492
1081.889, 2296.219
1083.121, 1678.340
1084.354, 2270.172
1085.586, 1852.055
1086.818, 1873.996
1088.050, 2305.961
1089.282, 1367.980
1090.514, 1790.418
1091.745, 1462.543
1092.976, 1399.699
1094.207, 1531.859
1095.438, 994.062
1096.668, 1127.758
1097.899, 1640.066
1099.129, 652.434
1100.359, 1345.172
1101.588, 1327.648
1102.818, 660.359
1104.047, 1592.594
1105.276, 764.703
1106.505, 1300.211
1107.734, 1182.195
1108.962, 594.453
1110.191, 1157.219
1111.419, 824.215
1112.647, 864.758
1113.874, 1315.543
1115.102, 656.543
1116.329, 1297.816
1117.556, 1289.289
1118.783, 1210.914
1120.010, 1682.750
1121.236, 1384.797
1122.463, 1446.992
1123.689, 1699.316
1124.914, 1071.859
1126.140, 1424.723
1127.366, 1627.883
1128.591, 801.148
1129.816, 1704.504
1131.041, 697.965
1132.266, 971.516
1133.490, 1525.172
1134.714, 828.918
1135.938, 1162.758
1137.162, 1246.680
1138.386, 440.695
1139.609, 1504.789
1140.833, 768.973
1142.056, 433.254
1143.279, 1267.621
1144.501, 72.082
1145.724, 1306.633
1146.946, 681.285
1148.168, 16.000
1149.390, 1110.781
1150.612, 355.660
1151.833, 760.539
1153.054, 785.418
1154.275, 20.332
1155.496, 975.332
1156.717, 400.414
1157.937, 355.586
1159.158, 710.848
1160.378, 376.199
1161.598, 231.629
1162.817, 717.145
1164.037, 77.246
1165.256, 788.449
1166.475, 364.215
1167.694, 110.066
1168.913, 806.012
1170.131, 172.059
1171.349, 278.199
1172.567, 684.438
1173.785, 39.223
1175.003, 627.215
1176.220, 53.688
1177.438, 350.246
1178.655, 726.902
1179.872, 113.664
1181.088, 480.527
1182.305, 607.488
1183.521, 145.457
1184.737, 741.770
1185.953, 29.230
1187.169, 236.891
1188.384, 594.758
1189.599, 137.184
1190.814, 118.941
1192.029, 379.488
1193.244, 201.914
1194.459, 576.859
1195.673, 165.805
1196.887, 354.918
1198.101, 674.207
1199.314, 6.324
1200.528, 363.324
1201.741, 1033.152
1202.954, 43.168
1204.167, 663.371
1205.380, 533.773
1206.592, 194.383
1207.805, 895.215
1209.017, 6.266
1210.229, 297.543
1211.440, 854.836
1212.652, 466.484
1213.863, 748.379
1215.074, 470.539
1216.285, 710.938
1217.496, 1003.578
1218.707, 36.512
1219.917, 1129.750
1221.127, 801.883
1222.337, 445.020
1223.547, 1044.316
1224.756, 305.543
1225.966, 410.293
1227.175, 1230.602
1228.384, 206.773
1229.592, 726.734
1230.801, 1084.008
1232.009, 433.430
1233.217, 945.238
1234.425, 553.594
1235.633, 261.480
1236.841, 1388.668
1238.048, 35.855
1239.255, 529.203
1240.462, 1234.512
1241.669, 93.121
1242.876, 959.711
1244.082, 889.574
1245.288, 359.648
1246.494, 964.988
1247.700, 285.605
1248.906, 696.113
1250.111, 892.223
1251.316, 1.750
1252.521, 769.145
1253.726, 352.059
1254.931, 9.008
1256.135, 0.000
##END=



