##NAMES=Anorthite
##RRUFFID=R040059
##IDEAL CHEMISTRY=CaAl_2_Si_2_O_8_
##LOCALITY=Miyakejima, Japan
##OWNER=RRUFF
##SOURCE=University of Arizona Mineral Museum
##DESCRIPTION=Colorless fragments of crystals
##STATUS=The identification of this mineral has been confirmed by X-ray diffraction and chemical analysis
##URL=rruff.info/R040059
##MEASURED CHEMISTRY=(Ca_0.94_Na_0.04_Fe_0.02_)(Al_0.98_Si_0.02_)_2_Si_2.00_O_8_
##PIN_ID=L00234
##ORIENTATION=Laser parallel to b* (0 1 0). Fiducial mark perpendicular to laser is parallel to c [0 0 1]
123.102, 0.000
124.497, 3.402
125.892, 234.008
127.286, 100.373
128.681, 389.441
130.075, 686.695
131.469, 643.154
132.862, 1234.383
134.256, 986.127
135.649, 1268.844
137.042, 1344.463
138.435, 1548.650
139.827, 1635.053
141.219, 1678.691
142.611, 1656.428
144.003, 1661.121
145.394, 1409.498
146.786, 1049.039
148.177, 719.572
149.567, 461.039
150.958, 46.258
152.348, 217.779
153.738, 23.141
155.128, 239.578
156.517, 163.137
157.907, 84.818
159.296, 3.297
160.685, 112.186
162.073, 331.391
163.462, 470.832
164.850, 830.451
166.237, 930.205
167.625, 1440.059
169.012, 1940.000
170.400, 2210.008
171.786, 2610.100
173.173, 3010.227
174.559, 3370.441
175.946, 3783.113
177.332, 4548.805
178.717, 5015.398
180.103, 5443.096
181.488, 6402.107
182.873, 6701.934
184.258, 6981.125
185.642, 7079.674
187.026, 7187.627
188.410, 7275.021
189.794, 7341.895
191.178, 7728.281
192.561, 7034.205
193.944, 7389.695
195.327, 7244.770
196.709, 6719.453
198.092, 6623.760
199.474, 5907.711
200.856, 6231.322
202.237, 5404.613
203.618, 5317.602
205.000, 4840.309
206.380, 4422.779
207.761, 3955.076
209.142, 3497.230
210.522, 3209.266
211.902, 3021.199
213.281, 2653.035
214.661, 2314.783
216.040, 1736.445
217.419, 1828.029
218.798, 1420.658
220.176, 1262.072
221.554, 1233.414
222.932, 1304.660
224.310, 1331.678
225.688, 1321.314
227.065, 1458.910
228.442, 1514.648
229.819, 1774.900
231.196, 1830.418
232.572, 2023.896
233.948, 2413.186
235.324, 2358.109
236.700, 3062.215
238.075, 3680.326
239.450, 4676.635
240.825, 5075.264
242.200, 5664.592
243.574, 6789.848
244.948, 6715.127
246.322, 7580.430
247.696, 7295.746
249.070, 7401.074
250.443, 7536.418
251.816, 7781.771
253.189, 7787.129
254.561, 7572.492
255.933, 7657.855
257.306, 7323.221
258.677, 7108.576
260.049, 7253.910
261.420, 6889.219
262.791, 7134.492
264.162, 7479.725
265.533, 8074.912
266.903, 8260.049
268.274, 8555.137
269.643, 9140.180
271.013, 9005.176
272.383, 9020.125
273.752, 8955.031
275.121, 9117.594
276.490, 9354.770
277.858, 9479.615
279.226, 9824.445
280.595, 9929.312
281.962, 10224.223
283.330, 10249.150
284.697, 10324.293
286.064, 10329.486
287.431, 9504.846
288.798, 9523.082
290.164, 8450.414
291.530, 8098.785
292.896, 7237.410
294.262, 6096.275
295.627, 5625.281
296.993, 4314.410
298.358, 3973.615
299.722, 3882.891
301.087, 2712.232
302.451, 2271.566
303.815, 1750.979
305.179, 1750.201
306.543, 1119.471
307.906, 1158.787
309.269, 718.127
310.632, 727.504
311.995, 636.898
313.357, 416.311
314.719, 665.734
316.081, 694.131
317.443, 1003.637
318.804, 1323.131
320.166, 1072.621
321.527, 1306.799
322.887, 1106.250
324.248, 885.660
325.608, 405.051
326.968, 214.408
328.328, 133.727
329.688, 317.000
331.047, 237.873
332.406, 408.883
333.765, 170.062
335.124, 131.350
336.482, 212.744
337.840, 154.209
339.198, 4.211
340.556, 112.557
341.913, 230.830
343.271, 29.023
344.628, 22.875
345.984, 144.896
347.341, 112.928
348.697, 229.346
350.053, 21.795
351.409, 84.359
352.765, 197.057
354.120, 119.914
355.475, 142.910
356.830, 16.943
358.185, 280.715
359.539, 457.406
360.894, 714.027
362.248, 1040.586
363.601, 1487.080
364.955, 1563.516
366.308, 1859.893
367.661, 1946.209
369.014, 2022.471
370.367, 1768.674
371.719, 1444.822
373.071, 1440.914
374.423, 1076.953
375.775, 1142.934
377.126, 1108.863
378.478, 1204.736
379.828, 1450.553
381.179, 1296.318
382.530, 1472.025
383.880, 1537.676
385.230, 1543.273
386.580, 1888.820
387.929, 1774.312
389.279, 2859.730
390.628, 3034.891
391.977, 4039.639
393.325, 4784.113
394.674, 5508.301
396.022, 6782.377
397.370, 7636.355
398.718, 8640.129
400.065, 9293.699
401.413, 8587.098
402.760, 8450.238
404.106, 7583.197
405.453, 6876.105
406.799, 5998.982
408.146, 4951.824
409.491, 4424.635
410.837, 3257.410
412.182, 3080.154
413.528, 2562.861
414.873, 2355.535
416.217, 2538.174
417.562, 2420.777
418.906, 3033.699
420.250, 3366.680
421.594, 4239.848
422.938, 4973.074
424.281, 5216.824
425.624, 5850.586
426.967, 5223.826
428.310, 5359.996
429.652, 4532.271
430.994, 4146.926
432.336, 3650.865
433.678, 3304.363
435.020, 3321.920
436.361, 2955.119
437.702, 3139.656
439.043, 2752.600
440.383, 2214.312
441.724, 2390.734
443.064, 1784.912
444.404, 1719.246
445.743, 1507.762
447.083, 1065.283
448.422, 1370.691
449.761, 1215.490
451.100, 1215.881
452.438, 1240.572
453.777, 1447.184
455.115, 1774.170
456.453, 1528.350
457.790, 2147.859
459.128, 1981.916
460.465, 2094.961
461.802, 1929.795
463.139, 1870.832
464.475, 2008.359
465.811, 1849.260
467.147, 2100.199
468.483, 2232.387
469.819, 2533.078
471.154, 3126.182
472.489, 3226.967
473.824, 4058.500
475.159, 4330.211
476.493, 5171.854
477.827, 6170.740
479.161, 7041.199
480.495, 8434.184
481.829, 9625.627
483.162, 11445.652
484.495, 12755.609
485.828, 12455.854
487.161, 13595.459
488.493, 12303.699
489.825, 11691.004
491.157, 11465.270
492.489, 11303.004
493.820, 12610.523
495.151, 14054.600
496.482, 16448.736
497.813, 19270.615
499.144, 23153.143
500.474, 26747.260
501.804, 28834.812
503.134, 29678.648
504.464, 30227.223
505.793, 28017.670
507.123, 25830.314
508.451, 21995.924
509.780, 19943.043
511.109, 17293.127
512.437, 15299.182
513.765, 13968.074
515.093, 11941.709
516.421, 10703.826
517.748, 9055.854
519.075, 8062.715
520.402, 7360.436
521.729, 6859.109
523.055, 7327.740
524.382, 6196.311
525.708, 5894.812
527.034, 5873.250
528.359, 4761.623
529.685, 4479.928
531.010, 3458.232
532.335, 3276.471
533.659, 2834.734
534.984, 2312.936
536.308, 2181.070
537.632, 2069.137
538.956, 1927.139
540.279, 2105.074
541.603, 1852.943
542.926, 2220.746
544.249, 1859.195
545.571, 2656.865
546.894, 2634.469
548.216, 2842.008
549.538, 3939.479
550.860, 3757.754
552.181, 5045.096
553.503, 4933.852
554.824, 5601.070
556.145, 6048.227
557.465, 5835.320
558.786, 5712.355
560.106, 5799.326
561.426, 5166.240
562.746, 4743.094
564.065, 4139.889
565.385, 3696.625
566.704, 3190.365
568.023, 2809.924
569.341, 2246.484
570.660, 1992.986
571.978, 1639.430
573.296, 1155.812
574.614, 1152.137
575.931, 1078.402
577.248, 594.607
578.565, 570.752
579.882, 516.832
581.199, 492.846
582.515, 358.795
583.831, 344.674
585.147, 460.479
586.463, 46.219
587.779, 801.861
589.094, 157.445
590.409, 252.949
591.724, 348.375
593.038, 156.270
594.353, 398.893
595.667, 143.984
596.981, 438.990
598.295, 66.070
599.608, 301.277
600.922, 163.240
602.235, 137.676
603.547, 177.969
604.860, 3.820
606.172, 289.785
607.485, 73.980
608.797, 212.342
610.108, 71.113
611.420, 4.480
612.731, 162.266
614.042, 90.791
615.353, 46.234
616.664, 86.605
617.974, 189.359
619.284, 32.037
620.594, 694.621
621.904, 22.854
623.213, 859.551
624.523, 591.895
625.832, 274.180
627.141, 706.393
628.449, 98.549
629.758, 550.623
631.066, 352.639
632.374, 154.586
633.681, 287.232
634.989, 220.961
636.296, 530.869
637.603, 52.805
638.910, 254.250
640.217, 681.682
641.523, 723.002
642.829, 495.021
644.135, 426.225
645.441, 477.367
646.747, 522.984
648.052, 264.029
649.357, 828.301
650.662, 445.752
651.967, 107.143
653.271, 696.510
654.575, 106.434
655.879, 665.281
657.183, 205.672
658.486, 226.867
659.790, 644.715
661.093, 255.711
662.396, 632.053
663.698, 719.805
665.001, 680.750
666.303, 1191.650
667.605, 895.713
668.907, 1726.629
670.209, 1902.494
671.510, 1963.434
672.811, 2890.301
674.112, 2571.639
675.413, 4092.566
676.713, 3829.471
678.013, 4180.291
679.313, 4755.342
680.613, 4556.594
681.913, 4507.234
683.212, 4037.816
684.511, 3498.338
685.810, 3428.951
687.109, 2683.525
688.407, 2473.867
689.706, 2115.100
691.004, 1915.320
692.302, 1745.482
693.599, 1285.584
694.897, 1205.625
696.194, 1325.605
697.491, 785.527
698.788, 1105.391
700.084, 465.193
701.380, 1094.932
702.677, 744.613
703.972, 774.234
705.268, 1043.799
706.564, 413.305
707.859, 922.748
709.154, 262.133
710.449, 621.449
711.743, 860.709
713.037, 699.912
714.332, 699.059
715.626, 608.148
716.919, 687.186
718.213, 606.164
719.506, 855.088
720.799, 673.959
722.092, 852.773
723.384, 581.533
724.677, 1290.240
725.969, 778.895
727.261, 1297.496
728.553, 1346.041
729.844, 1524.535
731.136, 1702.979
732.427, 1801.369
733.718, 2083.713
735.008, 2304.561
736.299, 2644.756
737.589, 2952.174
738.879, 3298.984
740.169, 3825.688
741.458, 3532.832
742.748, 3516.961
744.037, 3944.898
745.326, 3130.371
746.614, 3496.473
747.903, 2742.932
749.191, 2645.248
750.479, 3161.834
751.767, 2267.004
753.055, 3343.680
754.342, 3241.504
755.629, 3084.533
756.916, 3609.729
758.203, 3644.680
759.490, 3985.369
760.776, 4116.967
762.062, 3670.598
763.348, 4534.754
764.634, 3703.221
765.919, 3707.297
767.204, 4029.361
768.489, 3110.957
769.774, 3225.262
771.059, 2804.141
772.343, 2458.375
773.627, 2243.525
774.911, 1826.787
776.195, 1783.750
777.479, 1404.121
778.762, 1271.027
780.045, 1347.793
781.328, 673.211
782.611, 840.033
783.893, 724.346
785.175, 610.877
786.457, 1046.566
787.739, 101.328
789.021, 716.711
790.302, 204.754
791.583, 161.131
792.864, 514.883
794.145, 69.924
795.425, 326.586
796.706, 63.074
797.986, 359.164
799.266, 284.961
800.545, 369.037
801.825, 456.844
803.104, 28.365
804.383, 82.248
805.662, 173.168
806.940, 273.135
808.219, 237.297
809.497, 55.480
810.775, 138.867
812.053, 164.953
813.330, 421.145
814.608, 254.137
815.885, 242.186
817.162, 107.135
818.438, 337.895
819.715, 272.904
820.991, 212.100
822.267, 152.762
823.543, 82.395
824.818, 272.387
826.094, 102.850
827.369, 41.844
828.644, 256.512
829.919, 108.832
831.193, 245.754
832.468, 79.676
833.742, 4.836
835.016, 179.328
836.289, 173.805
837.563, 168.270
838.836, 52.727
840.109, 252.836
841.382, 541.461
842.654, 364.246
843.927, 449.852
845.199, 313.938
846.471, 228.012
847.743, 652.078
849.014, 86.141
850.286, 390.191
851.557, 124.246
852.828, 118.297
854.099, 551.625
855.369, 355.660
856.639, 439.691
857.909, 703.715
859.179, 457.738
860.449, 1190.883
861.718, 924.895
862.988, 197.430
864.257, 701.434
865.525, 605.438
866.794, 679.441
868.062, 573.441
869.331, 537.441
870.599, 961.441
871.866, 615.441
873.134, 479.445
874.401, 1043.445
875.668, 347.445
876.935, 1191.453
878.202, 605.500
879.468, 359.555
880.735, 1503.609
882.001, 297.668
883.267, 1301.730
884.532, 885.816
885.798, 1389.906
887.063, 1584.000
888.328, 1158.137
889.593, 1372.277
890.857, 1246.457
892.122, 1520.652
893.386, 1559.891
894.650, 1299.090
895.913, 1643.340
897.177, 1737.598
898.440, 1551.938
899.703, 2086.289
900.966, 1610.664
902.229, 2275.113
903.491, 1829.586
904.754, 1924.129
906.016, 2318.688
907.278, 1673.309
908.539, 1768.047
909.801, 2652.812
911.062, 1757.602
912.323, 2262.477
913.584, 2317.402
914.844, 2012.445
916.105, 2557.516
917.365, 1682.691
918.625, 1887.898
919.885, 2113.148
921.144, 1698.480
922.404, 2523.848
923.663, 1629.273
924.922, 2434.730
926.180, 2630.219
927.439, 2275.742
928.697, 3071.285
929.955, 2946.887
931.213, 3132.504
932.471, 3548.152
933.728, 3123.820
934.985, 4249.562
936.242, 3615.328
937.499, 3801.117
938.756, 4496.938
940.012, 4012.020
941.269, 4497.895
942.525, 4153.633
943.780, 3779.227
945.036, 4465.270
946.291, 3935.281
947.546, 4711.375
948.801, 5066.750
950.056, 5022.902
951.311, 5509.086
952.565, 5830.773
953.819, 6007.012
955.073, 6280.098
956.327, 5280.074
957.580, 5876.211
958.834, 4984.414
960.087, 4884.969
961.339, 5220.867
962.592, 4608.129
963.845, 4344.586
965.097, 4794.367
966.349, 4140.980
967.601, 5042.242
968.852, 4802.094
970.104, 4548.805
971.355, 5965.543
972.606, 5139.184
973.857, 6015.984
975.107, 5487.859
976.358, 5444.719
977.608, 6335.695
978.858, 5582.250
980.108, 6349.219
981.357, 5700.195
982.607, 5387.230
983.856, 5080.016
985.105, 5136.578
986.353, 4503.730
987.602, 4820.926
988.850, 3978.164
990.098, 3885.285
991.346, 3948.438
992.594, 3535.797
993.841, 4042.250
995.089, 3269.699
996.336, 3577.191
997.583, 3894.730
998.829, 3402.312
1000.076, 4239.938
1001.322, 3880.215
1002.568, 3937.938
1003.814, 3915.707
1005.060, 2603.527
1006.305, 3471.398
1007.550, 2849.316
1008.795, 2617.281
1010.040, 3325.293
1011.285, 2513.359
1012.529, 2671.473
1013.773, 3239.645
1015.017, 2427.867
1016.261, 3316.133
1017.505, 2354.453
1018.748, 2832.820
1019.991, 3241.238
1021.234, 2089.711
1022.477, 2878.227
1023.719, 2486.801
1024.962, 2125.426
1026.204, 2714.105
1027.446, 1491.801
1028.688, 2110.586
1029.929, 2009.422
1031.170, 1638.309
1032.411, 2317.250
1033.652, 1939.641
1034.893, 1308.695
1036.134, 2087.801
1037.374, 1212.301
1038.614, 1981.520
1039.854, 1517.707
1041.094, 1767.035
1042.333, 2186.422
1043.572, 1445.863
1044.811, 1745.363
1046.050, 1764.922
1047.289, 1097.352
1048.527, 2437.023
1049.766, 1396.777
1051.004, 1656.574
1052.241, 2176.426
1053.479, 1188.168
1054.717, 1768.145
1055.954, 1718.184
1057.191, 1428.457
1058.428, 1458.617
1059.664, 1168.848
1060.901, 1349.137
1062.137, 1759.492
1063.373, 890.031
1064.609, 1670.480
1065.844, 1450.996
1067.080, 931.578
1068.315, 1692.223
1069.550, 962.930
1070.785, 1773.711
1072.019, 1584.555
1073.254, 875.691
1074.488, 1746.668
1075.722, 1537.594
1076.955, 1318.582
1078.189, 1889.637
1079.422, 901.320
1080.656, 1652.371
1081.889, 1573.371
1083.121, 1254.230
1084.354, 1895.355
1085.586, 1126.320
1086.818, 1267.344
1088.050, 1958.418
1089.282, 749.328
1090.514, 1570.277
1091.745, 1031.266
1092.976, 1322.297
1094.207, 1233.359
1095.438, 574.484
1096.668, 748.910
1097.899, 1310.094
1099.129, 491.297
1100.359, 1192.520
1101.588, 1133.852
1102.818, 525.203
1104.047, 1406.266
1105.276, 417.367
1106.505, 1579.879
1107.734, 1151.078
1108.962, 462.355
1110.191, 1033.465
1111.419, 594.594
1112.647, 646.406
1113.874, 957.578
1115.102, 558.613
1116.329, 1059.660
1117.556, 1260.691
1118.783, 1061.562
1120.010, 1842.438
1121.236, 1033.207
1122.463, 1533.801
1123.689, 1605.383
1124.914, 1127.102
1126.140, 1538.926
1127.366, 1740.887
1128.591, 732.957
1129.816, 1835.109
1131.041, 537.410
1132.266, 999.965
1133.490, 1552.703
1134.714, 675.527
1135.938, 1458.434
1137.162, 1161.410
1138.386, 424.484
1139.609, 1807.645
1140.833, 350.898
1142.056, 704.246
1143.279, 1497.680
1144.501, 51.219
1145.724, 1484.840
1146.946, 858.562
1148.168, 117.629
1149.390, 1306.180
1150.612, 270.082
1151.833, 1054.062
1153.054, 938.109
1154.275, 12.191
1155.496, 1296.285
1156.717, 700.469
1157.937, 434.738
1159.158, 688.953
1160.378, 503.258
1161.598, 687.582
1162.817, 1041.914
1164.037, 36.336
1165.256, 1050.836
1166.475, 415.422
1167.694, 230.086
1168.913, 1164.836
1170.131, 149.664
1171.349, 434.570
1172.567, 999.559
1173.785, 195.379
1175.003, 1009.773
1176.220, 164.938
1177.438, 280.125
1178.655, 855.402
1179.872, 89.227
1181.088, 796.250
1182.305, 451.828
1183.521, 112.551
1184.737, 1113.180
1185.953, 130.992
1187.169, 444.957
1188.384, 890.996
1189.599, 7.156
1190.814, 113.438
1192.029, 509.852
1193.244, 203.598
1194.459, 763.109
1195.673, 39.973
1196.887, 367.000
1198.101, 774.176
1199.314, 168.500
1200.528, 418.973
1201.741, 946.582
1202.954, 54.332
1204.167, 762.223
1205.380, 450.254
1206.592, 148.422
1207.805, 1236.734
1209.017, 98.785
1210.229, 527.246
1211.440, 815.844
1212.652, 184.594
1213.863, 1183.492
1215.074, 472.543
1216.285, 851.762
1217.496, 1181.152
1218.707, 160.711
1219.917, 1130.441
1221.127, 672.527
1222.337, 341.875
1223.547, 1521.379
1224.756, 129.613
1225.966, 590.609
1227.175, 1435.016
1228.384, 76.566
1229.592, 831.910
1230.801, 1380.227
1232.009, 586.988
1233.217, 1353.691
1234.425, 668.836
1235.633, 322.473
1236.841, 1566.441
1238.048, 269.934
1239.255, 1002.406
1240.462, 1174.977
1241.669, 6.793
1242.876, 1027.711
1244.082, 796.168
1245.288, 396.254
1246.494, 1391.234
1247.700, 211.074
1248.906, 824.922
1250.111, 1051.191
1251.316, 7.625
1252.521, 1174.625
1253.726, 390.230
1254.931, 196.984
1256.135, 1465.359
1257.339, 1.023
1258.543, 497.984
1259.747, 1201.438
1260.951, 362.688
1262.154, 396.523
1263.357, 1042.965
1264.560, 0.840
1265.763, 802.844
1266.966, 0.000
##END=



