##NAMES=Anorthite
##RRUFFID=R050104
##IDEAL CHEMISTRY=CaAl_2_Si_2_O_8_
##LOCALITY=unknown
##OWNER=RRUFF
##SOURCE=Rock Currier
##DESCRIPTION=Iridescent slab, labradorite/andesine
##STATUS=The identification of this mineral has been confirmed by X-ray diffraction and chemical analysis
##URL=rruff.info/R050104
##MEASURED CHEMISTRY=Ca_0.50_Na_0.47_K_0.03_Al_1.50_Si_2.50_O_8_
##PIN_ID=L00427
##ORIENTATION=Laser parallel to -a* (-1 0 0). Fiducial mark perpendicular to laser is parallel to b [0 1 0]
134.390, 0.000
135.777, 0.328
137.164, 101.795
138.550, 151.475
139.937, 173.890
141.323, 108.167
142.709, 129.096
144.094, 93.458
145.480, 89.603
146.865, 215.600
148.250, 184.051
149.635, 177.845
151.019, 212.733
152.403, 149.302
153.788, 212.520
155.171, 109.353
156.555, 78.770
157.939, 31.736
159.322, 37.784
160.705, 20.177
162.088, 23.411
163.470, 2.426
164.853, 53.320
166.235, 158.364
167.617, 148.456
168.998, 369.928
170.380, 378.759
171.761, 652.932
173.142, 745.431
174.523, 1049.241
175.904, 1313.351
177.284, 1447.744
178.664, 1822.399
180.044, 2020.300
181.424, 2292.432
182.803, 2412.154
184.183, 2597.320
185.562, 2560.056
186.940, 2661.977
188.319, 2719.079
189.698, 2842.360
191.076, 2978.816
192.454, 2893.443
193.831, 2923.338
195.209, 3098.695
196.586, 3058.366
197.963, 3144.174
199.340, 3058.110
200.717, 3169.174
202.093, 3019.365
203.470, 2958.685
204.846, 2981.132
206.221, 3003.708
207.597, 2996.413
208.972, 2701.245
210.347, 2582.205
211.722, 2484.292
213.097, 2315.506
214.472, 2321.846
215.846, 2115.312
217.220, 2168.887
218.594, 1962.514
219.967, 1982.191
221.341, 1998.918
222.714, 1936.691
224.087, 1996.507
225.460, 1903.358
226.832, 1929.252
228.204, 1781.195
229.577, 1889.159
230.948, 1869.138
232.320, 1941.136
233.692, 1967.183
235.063, 1907.308
236.434, 1987.516
237.805, 1942.809
239.175, 2044.188
240.545, 2022.656
241.916, 1946.212
243.286, 2207.857
244.655, 2069.593
246.025, 2127.417
247.394, 2259.331
248.763, 2142.336
250.132, 2188.430
251.501, 2237.191
252.869, 2291.514
254.237, 2209.938
255.605, 2314.290
256.973, 2252.244
258.340, 2299.309
259.708, 2454.770
261.075, 2629.321
262.442, 2845.963
263.808, 2622.694
265.175, 2607.516
266.541, 2700.425
267.907, 2605.422
269.273, 2830.508
270.639, 2843.681
272.004, 2880.942
273.369, 2998.290
274.734, 2926.724
276.099, 2991.243
277.463, 3053.845
278.828, 3184.531
280.192, 3028.300
281.556, 3163.149
282.919, 2961.080
284.283, 2965.092
285.646, 2971.185
287.009, 2741.356
288.372, 2716.607
289.734, 2504.938
291.097, 2374.347
292.459, 2141.834
293.821, 1887.398
295.183, 1784.039
296.544, 1456.756
297.905, 1274.549
299.266, 1042.760
300.627, 959.587
301.988, 752.650
303.348, 537.716
304.709, 537.789
306.069, 410.833
307.428, 315.850
308.788, 293.879
310.147, 236.942
311.507, 211.831
312.865, 104.680
314.224, 170.458
315.583, 172.367
316.941, 106.407
318.299, 250.571
319.657, 120.860
321.015, 144.286
322.372, 108.521
323.729, 103.439
325.086, 114.107
326.443, 81.829
327.800, 99.528
329.156, 75.963
330.512, 91.510
331.868, 60.938
333.224, 66.480
334.579, 91.141
335.935, 72.108
337.290, 113.745
338.645, 88.678
339.999, 65.709
341.354, 120.833
342.708, 134.661
344.062, 176.934
345.416, 179.669
346.769, 293.093
348.123, 211.582
349.476, 287.138
350.829, 478.757
352.182, 360.441
353.534, 374.190
354.887, 297.000
356.239, 269.872
357.591, 375.805
358.942, 157.797
360.294, 181.846
361.645, 55.951
362.996, 92.113
364.347, 40.332
365.698, 2.604
367.048, 32.067
368.398, 118.688
369.748, 98.265
371.098, 114.797
372.448, 152.287
373.797, 26.741
375.146, 72.145
376.495, 88.502
377.844, 120.816
379.192, 34.091
380.540, 7.318
381.889, 69.505
383.236, 133.378
384.584, 97.302
385.932, 269.276
387.279, 145.301
388.626, 181.375
389.973, 341.500
391.319, 299.674
392.666, 417.898
394.012, 383.173
395.358, 555.498
396.704, 591.874
398.049, 590.298
399.394, 862.773
400.740, 838.298
402.084, 1087.872
403.429, 1129.495
404.774, 1289.166
406.118, 1497.886
407.462, 1507.654
408.806, 1692.469
410.150, 1715.332
411.493, 1735.241
412.836, 1672.197
414.179, 1578.196
415.522, 1644.212
416.865, 1591.237
418.207, 1709.298
419.549, 1651.378
420.891, 1678.500
422.233, 1744.667
423.575, 1800.877
424.916, 1905.133
426.257, 1884.433
427.598, 1941.776
428.939, 1947.162
430.279, 2028.591
431.619, 2258.062
432.959, 2301.576
434.299, 2463.131
435.639, 2465.727
436.978, 2588.363
438.318, 2659.040
439.657, 2578.757
440.996, 2676.512
442.334, 2765.308
443.673, 2665.142
445.011, 2966.014
446.349, 2679.923
447.687, 2975.870
449.024, 2739.855
450.361, 2866.876
451.699, 2772.934
453.036, 2710.026
454.372, 3036.155
455.709, 2858.318
457.045, 3058.516
458.381, 3160.749
459.717, 3104.015
461.053, 3464.322
462.388, 3419.675
463.724, 3711.068
465.059, 4328.504
466.394, 4423.980
467.728, 4858.502
469.063, 5253.063
470.397, 6378.668
471.731, 6975.314
473.065, 7902.033
474.398, 9043.853
475.732, 9794.639
477.065, 11004.948
478.398, 11689.468
479.731, 12224.769
481.063, 12138.738
482.396, 12376.279
483.728, 11390.689
485.060, 10541.076
486.391, 9802.261
487.723, 8855.998
489.054, 8064.941
490.385, 7834.354
491.716, 7445.188
493.047, 7438.118
494.377, 7559.609
495.708, 8101.030
497.038, 8741.626
498.368, 10028.590
499.697, 11529.801
501.027, 12826.446
502.356, 14542.771
503.685, 15929.045
505.014, 17244.797
506.342, 18719.584
507.671, 19181.156
508.999, 19743.748
510.327, 19752.357
511.655, 19194.994
512.982, 18513.658
514.310, 16777.346
515.637, 15281.056
516.964, 13724.789
518.291, 12302.546
519.617, 10820.324
520.944, 9554.131
522.270, 8954.955
523.596, 7484.814
524.921, 6913.698
526.247, 6212.602
527.572, 5481.148
528.897, 4912.646
530.222, 4293.765
531.547, 3745.425
532.871, 3485.925
534.196, 2996.729
535.520, 2973.654
536.844, 2472.213
538.167, 2527.882
539.491, 2343.703
540.814, 2223.898
542.137, 2222.204
543.460, 2121.012
544.783, 2211.887
546.105, 2078.262
547.427, 2049.670
548.749, 2082.111
550.071, 1974.589
551.393, 2079.105
552.714, 2010.653
554.035, 2044.251
555.356, 2164.888
556.677, 2117.552
557.998, 2267.239
559.318, 2389.971
560.638, 2487.718
561.958, 2727.486
563.278, 2791.289
564.597, 3104.104
565.917, 3146.932
567.236, 3009.788
568.555, 3065.653
569.874, 2866.543
571.192, 2917.448
572.511, 2737.362
573.829, 2434.285
575.147, 2394.217
576.464, 2147.154
577.782, 2211.098
579.099, 2002.046
580.416, 2070.999
581.733, 1965.956
583.050, 1861.914
584.366, 1882.876
585.683, 1770.839
586.999, 1875.801
588.315, 1762.763
589.630, 1881.724
590.946, 1985.682
592.261, 1930.639
593.576, 1940.593
594.891, 1976.543
596.206, 1940.491
597.520, 1956.587
598.834, 1919.374
600.148, 1938.309
601.462, 1938.239
602.776, 1909.163
604.089, 1943.082
605.402, 1672.994
606.715, 1723.899
608.028, 1652.798
609.341, 1432.689
610.653, 1425.573
611.965, 1203.447
613.277, 1047.314
614.589, 888.172
615.901, 878.020
617.212, 654.858
618.523, 600.687
619.834, 519.504
621.145, 352.311
622.456, 347.106
623.766, 257.890
625.076, 217.661
626.386, 149.419
627.696, 141.165
629.006, 80.896
630.315, 42.613
631.624, 21.686
632.933, 51.029
634.242, 57.437
635.551, 42.909
636.859, 53.442
638.167, 110.042
639.475, 37.739
640.783, 113.496
642.090, 79.354
643.398, 106.296
644.705, 113.338
646.012, 19.484
647.318, 152.685
648.625, 142.013
649.931, 78.462
651.237, 102.000
652.543, 12.359
653.849, 69.324
655.155, 49.906
656.460, 44.893
657.765, 18.767
659.070, 44.297
660.375, 10.671
661.679, 77.301
662.984, 76.247
664.288, 154.327
665.592, 195.470
666.895, 149.823
668.199, 221.196
669.502, 245.688
670.805, 341.553
672.108, 316.041
673.411, 253.196
674.713, 418.677
676.016, 529.242
677.318, 587.063
678.620, 435.175
679.921, 555.557
681.223, 566.785
682.524, 576.114
683.825, 732.843
685.126, 616.860
686.427, 757.376
687.727, 773.206
689.028, 805.169
690.328, 801.226
691.628, 843.490
692.927, 764.987
694.227, 977.016
695.526, 874.716
696.825, 954.098
698.124, 941.303
699.423, 935.583
700.721, 1045.591
702.020, 934.908
703.318, 878.688
704.616, 963.774
705.913, 990.674
707.211, 1054.016
708.508, 1089.793
709.805, 1070.100
711.102, 1174.973
712.399, 1214.725
713.695, 1067.873
714.992, 1232.066
716.288, 1094.790
717.584, 1199.272
718.879, 1052.367
720.175, 1128.158
721.470, 1051.539
722.765, 1089.130
724.060, 1138.635
725.355, 1038.386
726.649, 1131.058
727.944, 1193.893
729.238, 995.469
730.532, 1224.849
731.825, 1133.974
733.119, 1120.987
734.412, 1189.781
735.705, 1164.446
736.998, 1194.910
738.291, 1234.449
739.584, 1259.979
740.876, 1322.965
742.168, 1363.780
743.460, 1392.708
744.752, 1371.427
746.043, 1444.098
747.334, 1411.721
748.626, 1479.295
749.916, 1504.821
751.207, 1475.299
752.498, 1479.728
753.788, 1538.107
755.078, 1488.438
756.368, 1518.720
757.658, 1545.952
758.947, 1711.135
760.237, 1661.268
761.526, 1581.352
762.815, 1763.386
764.104, 1728.371
765.392, 1723.305
766.680, 1914.190
767.969, 1760.025
769.257, 1826.809
770.544, 1911.544
771.832, 1793.228
773.119, 1940.862
774.406, 1855.445
775.693, 1888.978
776.980, 1838.460
778.267, 1707.891
779.553, 1770.271
780.839, 1593.602
782.125, 1649.880
783.411, 1534.108
784.697, 1498.286
785.982, 1509.380
787.267, 1484.366
788.552, 1513.378
789.837, 1539.854
791.122, 1521.113
792.406, 1566.582
793.690, 1595.373
794.974, 1518.577
796.258, 1435.906
797.542, 1395.259
798.825, 1351.804
800.108, 1287.794
801.391, 1158.565
802.674, 1034.868
803.957, 1036.736
805.239, 1000.491
806.522, 887.672
807.804, 711.904
809.085, 717.945
810.367, 681.603
811.649, 539.994
812.930, 526.936
814.211, 528.179
815.492, 469.454
816.772, 343.233
818.053, 284.953
819.333, 264.875
820.613, 208.753
821.893, 198.584
823.173, 164.369
824.452, 101.105
825.732, 153.791
827.011, 128.427
828.290, 121.015
829.568, 68.552
830.847, 90.036
832.125, 109.467
833.403, 9.848
834.681, 32.161
835.959, 21.586
837.236, 93.584
838.514, 53.298
839.791, 25.721
841.068, 17.678
842.345, 37.428
843.621, 23.624
844.898, 11.903
846.174, 64.260
847.450, 41.720
848.726, 13.728
850.001, 23.113
851.277, 0.438
852.552, 22.918
853.827, 1.471
855.102, 17.019
856.376, 28.912
857.651, 34.925
858.925, 49.023
860.199, 57.215
861.473, 33.503
862.746, 106.874
864.020, 69.366
865.293, 20.960
866.566, 12.629
867.839, 94.368
869.112, 12.780
870.384, 6.130
871.656, 65.105
872.928, 63.825
874.200, 15.706
875.472, 45.469
876.744, 78.273
878.015, 35.033
879.286, 3.415
880.557, 28.144
881.828, 43.651
883.098, 59.110
884.369, 82.522
885.639, 88.889
886.909, 125.187
888.178, 143.492
889.448, 178.730
890.717, 147.929
891.987, 137.087
893.256, 254.204
894.524, 308.284
895.793, 242.330
897.061, 337.338
898.330, 297.312
899.598, 337.252
900.865, 410.158
902.133, 419.352
903.401, 456.529
904.668, 485.671
905.935, 478.442
907.202, 460.179
908.468, 428.884
909.735, 421.577
911.001, 530.240
912.267, 592.879
913.533, 518.490
914.799, 573.068
916.064, 556.616
917.330, 571.134
918.595, 565.623
919.860, 607.084
921.124, 622.519
922.389, 648.924
923.653, 660.302
924.918, 704.650
926.182, 724.970
927.445, 731.260
928.709, 720.523
929.972, 673.757
931.236, 765.966
932.499, 717.147
933.761, 922.301
935.024, 783.429
936.286, 910.530
937.549, 907.613
938.811, 977.671
940.073, 875.719
941.334, 889.776
942.596, 901.833
943.857, 982.886
945.118, 967.938
946.379, 1067.007
947.640, 1058.306
948.900, 1112.187
950.161, 1053.294
951.421, 1057.418
952.681, 1034.562
953.940, 1060.724
955.200, 1065.918
956.459, 1085.139
957.719, 1135.371
958.978, 1236.623
960.236, 1235.863
961.495, 1339.114
962.753, 1265.348
964.012, 1363.585
965.270, 1383.823
966.527, 1419.044
967.785, 1601.263
969.043, 1508.463
970.300, 1644.483
971.557, 1666.399
972.814, 1787.060
974.071, 1844.656
975.327, 1830.090
976.583, 2013.108
977.840, 2037.458
979.095, 2050.667
980.351, 1996.796
981.607, 2092.402
982.862, 2133.240
984.117, 1954.225
985.372, 2013.418
986.627, 1969.322
987.882, 2002.606
989.136, 1897.397
990.390, 1888.703
991.644, 1929.431
992.898, 1863.926
994.152, 1877.254
995.405, 1792.459
996.659, 1874.412
997.912, 1831.093
999.165, 1860.204
1000.417, 1793.609
1001.670, 1808.145
1002.922, 1882.102
1004.174, 1786.793
1005.426, 1840.709
1006.678, 1794.270
1007.930, 1773.322
1009.181, 1804.021
1010.432, 1759.860
1011.683, 1800.212
1012.934, 1892.081
1014.185, 1834.376
1015.435, 1928.058
1016.685, 1766.812
1017.935, 1888.126
1019.185, 1896.346
1020.435, 1842.989
1021.684, 1872.828
1022.934, 1791.007
1024.183, 1829.443
1025.432, 1987.243
1026.680, 1770.786
1027.929, 1869.367
1029.177, 1899.660
1030.425, 1830.843
1031.673, 1849.157
1032.921, 1841.421
1034.169, 1728.894
1035.416, 1788.574
1036.663, 1661.320
1037.911, 1707.239
1039.157, 1625.242
1040.404, 1673.399
1041.650, 1654.436
1042.897, 1653.435
1044.143, 1658.943
1045.389, 1656.556
1046.634, 1669.022
1047.880, 1621.650
1049.125, 1675.281
1050.371, 1560.914
1051.615, 1640.550
1052.860, 1566.190
1054.105, 1591.833
1055.349, 1586.480
1056.593, 1616.132
1057.837, 1640.787
1059.081, 1568.991
1060.325, 1581.316
1061.568, 1587.730
1062.812, 1554.003
1064.055, 1636.683
1065.298, 1692.368
1066.540, 1667.434
1067.783, 1646.446
1069.025, 1645.624
1070.267, 1700.163
1071.509, 1691.916
1072.751, 1701.296
1073.993, 1706.025
1075.234, 1673.760
1076.475, 1732.522
1077.716, 1720.369
1078.957, 1703.231
1080.198, 1755.054
1081.438, 1696.324
1082.679, 1764.203
1083.919, 1849.273
1085.159, 1733.135
1086.398, 1713.980
1087.638, 1682.870
1088.877, 1670.700
1090.116, 1734.296
1091.355, 1650.146
1092.594, 1619.007
1093.833, 1660.879
1095.071, 1570.761
1096.309, 1519.312
1097.547, 1559.216
1098.785, 1467.132
1100.023, 1507.146
1101.260, 1463.084
1102.498, 1444.817
1103.735, 1418.777
1104.972, 1443.750
1106.208, 1336.733
1107.445, 1379.729
1108.681, 1294.737
1109.918, 1325.757
1111.154, 1247.789
1112.389, 1238.833
1113.625, 1215.583
1114.860, 1171.960
1116.096, 1178.044
1117.331, 1093.141
1118.566, 1105.250
1119.800, 1088.521
1121.035, 1010.604
1122.269, 1104.675
1123.503, 976.762
1124.737, 964.855
1125.971, 965.950
1127.205, 885.051
1128.438, 852.169
1129.671, 846.809
1130.904, 750.953
1132.137, 858.255
1133.370, 670.427
1134.602, 829.597
1135.834, 671.748
1137.066, 787.931
1138.298, 634.132
1139.530, 701.384
1140.762, 711.587
1141.993, 488.715
1143.224, 717.895
1144.455, 554.080
1145.686, 488.335
1146.917, 548.618
1148.147, 568.950
1149.377, 537.235
1150.607, 416.528
1151.837, 404.836
1153.067, 421.156
1154.296, 473.490
1155.526, 455.178
1156.755, 344.241
1157.984, 429.610
1159.213, 364.341
1160.441, 291.762
1161.670, 303.334
1162.898, 327.825
1164.126, 348.348
1165.354, 369.890
1166.581, 237.454
1167.809, 322.076
1169.036, 202.845
1170.263, 147.462
1171.490, 199.107
1172.717, 151.763
1173.943, 242.434
1175.170, 303.115
1176.396, 82.823
1177.622, 238.541
1178.848, 113.941
1180.073, 92.034
1181.299, 119.949
1182.524, 117.901
1183.749, 32.889
1184.974, 247.907
1186.199, 80.957
1187.423, 105.031
1188.648, 117.130
1189.872, 21.253
1191.096, 140.400
1192.320, 92.573
1193.543, 65.750
1194.767, 91.914
1195.990, 37.087
1197.213, 5.285
1198.436, 56.499
1199.659, 62.727
1200.881, 27.974
1202.104, 59.248
1203.326, 43.547
1204.548, 39.866
1205.770, 99.791
1206.991, 24.433
1208.213, 50.060
1209.434, 21.689
1210.655, 33.710
1211.876, 14.116
1213.096, 13.471
1214.317, 11.030
1215.537, 15.627
1216.757, 24.893
1217.977, 6.260
1219.197, 19.255
1220.417, 30.257
1221.636, 63.797
1222.855, 15.365
1224.074, 0.960
1225.293, 119.585
1226.512, 15.758
1227.731, 46.932
1228.949, 3.646
1230.167, 3.610
1231.385, 15.169
1232.603, 40.019
1233.820, 15.829
1235.038, 140.714
1236.255, 48.364
1237.472, 178.595
1238.689, 89.592
1239.906, 76.628
1241.122, 160.703
1242.338, 57.182
1243.555, 145.969
1244.771, 69.159
1245.986, 28.389
1247.202, 283.659
1248.417, 85.032
1249.633, 134.317
1250.848, 161.709
1252.063, 74.128
1253.277, 93.601
1254.492, 178.121
1255.706, 66.682
1256.920, 179.285
1258.134, 124.928
1259.348, 164.612
1260.562, 119.338
1261.775, 162.109
1262.988, 201.924
1264.201, 118.786
1265.414, 49.693
1266.627, 243.826
1267.839, 103.664
1269.052, 93.312
1270.264, 277.178
1271.476, 100.349
1272.688, 176.067
1273.899, 152.686
1275.111, 16.998
1276.322, 225.729
1277.533, 51.082
1278.744, 165.687
1279.955, 159.627
1281.165, 129.081
1282.376, 152.302
1283.586, 219.504
1284.796, 56.630
1286.006, 199.046
1287.215, 103.767
1288.425, 52.625
1289.634, 179.339
1290.843, 47.886
1292.052, 50.239
1293.261, 45.371
1294.469, 70.249
1295.678, 178.124
1296.886, 98.060
1298.094, 90.892
1299.302, 250.696
1300.509, 42.276
1301.717, 133.547
1302.924, 141.469
1304.131, 0.674
1305.338, 117.368
1306.545, 28.294
1307.752, 119.608
1308.958, 165.244
1310.164, 62.959
1311.370, 107.285
1312.576, 60.616
1313.782, 30.527
1314.987, 170.867
1316.193, 165.640
1317.398, 112.200
1318.603, 186.822
1319.807, 128.865
1321.012, 1.590
1322.216, 138.783
1323.421, 62.021
1324.625, 0.000
##END=



