##NAMES=Anorthite
##RRUFFID=R040059
##IDEAL CHEMISTRY=CaAl_2_Si_2_O_8_
##LOCALITY=Miyakejima, Japan
##OWNER=RRUFF
##SOURCE=University of Arizona Mineral Museum
##DESCRIPTION=Colorless fragments of crystals
##STATUS=The identification of this mineral has been confirmed by X-ray diffraction and chemical analysis
##URL=rruff.info/R040059
##MEASURED CHEMISTRY=(Ca_0.94_Na_0.04_Fe_0.02_)(Al_0.98_Si_0.02_)_2_Si_2.00_O_8_
##PIN_ID=M00453
##ORIENTATION=Laser parallel to -c* (0 0 -1). Fiducial mark perpendicular to laser is parallel to a [1 0 0]
123.129, 0.000
124.519, 333.399
125.910, 2.823
127.300, 126.201
128.690, 104.481
130.080, 43.164
131.469, 440.295
132.858, 252.803
134.248, 502.792
135.636, 588.991
137.025, 790.364
138.413, 1196.208
139.801, 1586.120
141.189, 2299.666
142.577, 2736.391
143.964, 3345.861
145.352, 3937.686
146.739, 3881.532
148.125, 4047.117
149.512, 3424.205
150.898, 3132.724
152.284, 2272.899
153.670, 1895.049
155.056, 1479.062
156.441, 1094.613
157.827, 1011.409
159.212, 709.205
160.596, 817.802
161.981, 987.035
163.365, 1336.771
164.749, 1486.898
166.133, 1947.330
167.517, 2528.002
168.900, 2858.863
170.283, 3479.885
171.666, 3821.037
173.049, 4092.293
174.431, 4403.629
175.813, 5075.085
177.195, 5347.514
178.577, 5791.732
179.959, 6568.364
181.340, 7138.457
182.721, 7641.500
184.102, 8215.914
185.483, 8320.171
186.863, 8553.849
188.244, 8376.860
189.624, 8529.129
191.003, 7830.654
192.383, 7911.477
193.762, 7501.627
195.141, 6821.146
196.520, 6410.059
197.899, 5518.396
199.277, 5246.182
200.656, 4443.441
202.034, 4050.199
203.411, 3866.475
204.789, 3632.285
206.166, 3257.678
207.543, 3202.726
208.920, 3037.466
210.297, 2871.937
211.673, 2786.185
213.049, 2550.234
214.425, 2214.106
215.801, 2047.812
217.176, 1701.597
218.552, 1505.069
219.927, 1408.346
221.302, 1171.496
222.676, 1134.526
224.051, 797.441
225.425, 780.245
226.799, 552.939
228.173, 469.627
229.546, 336.165
230.919, 474.768
232.292, 513.473
233.665, 332.513
235.038, 758.201
236.410, 765.282
237.782, 1208.596
239.154, 1146.374
240.526, 1508.039
241.898, 2204.773
243.269, 2161.250
244.640, 2849.310
246.011, 2765.039
247.381, 3046.645
248.752, 3227.854
250.122, 3327.119
251.492, 3555.057
252.861, 3381.679
254.231, 3596.393
255.600, 3641.118
256.969, 3665.015
258.338, 3749.003
259.707, 3572.858
261.075, 3576.682
262.443, 3380.464
263.811, 3524.191
265.179, 3507.848
266.546, 3801.428
267.914, 4074.925
269.281, 4088.341
270.647, 4271.674
272.014, 4464.926
273.380, 4778.098
274.747, 4851.211
276.113, 4974.254
277.478, 5127.225
278.844, 5230.117
280.209, 5682.930
281.574, 5645.664
282.939, 5828.320
284.304, 6050.898
285.668, 5713.398
287.032, 5805.822
288.396, 5612.013
289.760, 5327.596
291.123, 4922.570
292.487, 4298.938
293.850, 3995.719
295.212, 3232.042
296.575, 2799.457
297.937, 2217.114
299.300, 2024.972
300.662, 1602.996
302.023, 1471.166
303.385, 1209.455
304.746, 867.845
306.107, 976.316
307.468, 824.852
308.829, 833.440
310.189, 562.069
311.549, 590.728
312.909, 679.406
314.269, 618.099
315.629, 666.827
316.988, 925.555
318.347, 984.277
319.706, 1152.992
321.065, 1321.682
322.423, 1410.376
323.781, 1469.036
325.139, 1317.657
326.497, 1356.234
327.855, 804.762
329.212, 683.236
330.569, 411.657
331.926, 330.019
333.283, 108.316
334.639, 36.538
335.995, 44.680
337.351, 177.264
338.707, 9.339
340.063, 31.493
341.418, 173.758
342.773, 86.129
344.128, 208.629
345.483, 21.274
346.837, 294.038
348.192, 177.035
349.546, 280.227
350.899, 383.650
352.253, 327.328
353.606, 291.245
354.960, 245.389
356.313, 319.748
357.665, 344.336
359.018, 179.160
360.370, 227.045
361.722, 50.612
363.074, 154.729
364.426, 89.753
365.777, 144.118
367.128, 168.372
368.479, 402.521
369.830, 186.574
371.181, 310.525
372.531, 274.380
373.881, 358.140
375.231, 401.808
376.581, 385.385
377.930, 578.872
379.280, 462.273
380.629, 715.586
381.977, 718.816
383.326, 821.966
384.674, 845.036
386.023, 698.030
387.370, 1010.943
388.718, 863.777
390.066, 836.539
391.413, 909.204
392.760, 1121.757
394.107, 1284.072
395.454, 1286.188
396.800, 1698.021
398.146, 1849.587
399.492, 1740.795
400.838, 2141.578
402.184, 2121.961
403.529, 2361.967
404.874, 2381.618
406.219, 2321.038
407.564, 2650.272
408.908, 2149.411
410.252, 2308.477
411.596, 1917.465
412.940, 1836.386
414.284, 1615.245
415.627, 1374.049
416.970, 1362.802
418.313, 1131.658
419.656, 1250.316
420.999, 1559.753
422.341, 1619.586
423.683, 2029.185
425.025, 2268.135
426.367, 2787.061
427.708, 2855.439
429.049, 3194.530
430.390, 3252.817
431.731, 3101.059
433.072, 3069.254
434.412, 2797.402
435.752, 3045.507
437.092, 2643.566
438.432, 2351.580
439.772, 2589.548
441.111, 2127.471
442.450, 2065.350
443.789, 1903.183
445.127, 1500.971
446.466, 1388.715
447.804, 1296.415
449.142, 1144.070
450.480, 1161.669
451.817, 1239.850
453.155, 1368.424
454.492, 1471.666
455.829, 1559.426
457.166, 1746.979
458.502, 1935.414
459.838, 2040.446
461.175, 2000.586
462.510, 2118.271
463.846, 2105.244
465.181, 1972.146
466.517, 2198.977
467.852, 2165.734
469.186, 2562.420
470.521, 2789.033
471.855, 3225.439
473.190, 3241.868
474.523, 3598.259
475.857, 4021.144
477.191, 4577.877
478.524, 5305.277
479.857, 5784.011
481.190, 6911.023
482.523, 7815.732
483.855, 8522.864
485.187, 10319.969
486.519, 10526.458
487.851, 10542.552
489.183, 10438.386
490.514, 9493.893
491.845, 9248.675
493.176, 8972.875
494.507, 9064.486
495.837, 9785.608
497.168, 11075.601
498.498, 12954.462
499.828, 14555.856
501.157, 17511.936
502.487, 19189.781
503.816, 20674.854
505.145, 21259.971
506.474, 19904.750
507.802, 18883.648
509.131, 16701.303
510.459, 15350.112
511.787, 13502.669
513.115, 10488.503
514.442, 9506.102
515.770, 7976.432
517.097, 7101.961
518.424, 6185.801
519.750, 5409.873
521.077, 5460.848
522.403, 4568.594
523.729, 4563.863
525.055, 4492.658
526.381, 4092.523
527.706, 3822.703
529.031, 3295.215
530.356, 3085.541
531.681, 2487.154
533.006, 2148.391
534.330, 1760.250
535.654, 1622.398
536.978, 1544.336
538.302, 1437.162
539.625, 1289.432
540.949, 1372.695
542.272, 1146.557
543.595, 1440.146
544.917, 1244.934
546.240, 1437.904
547.562, 1741.430
548.884, 1746.350
550.206, 2329.680
551.527, 2129.537
552.849, 2693.174
554.170, 2936.434
555.491, 3220.328
556.812, 3264.166
558.132, 3527.988
559.453, 3422.053
560.773, 3035.766
562.093, 2789.469
563.412, 2663.164
564.732, 2136.186
566.051, 2140.637
567.370, 1593.438
568.689, 1487.111
570.008, 1219.945
571.326, 1022.898
572.644, 915.537
573.963, 768.135
575.280, 510.691
576.598, 393.209
577.915, 435.688
579.233, 228.121
580.550, 120.512
581.866, 162.852
583.183, 305.141
584.499, 297.387
585.815, 569.590
587.131, 231.752
588.447, 673.871
589.763, 505.947
591.078, 467.984
592.393, 949.984
593.708, 821.943
595.022, 873.865
596.337, 835.748
597.651, 807.590
598.965, 840.934
600.279, 764.146
601.593, 842.883
602.906, 684.568
604.219, 606.217
605.532, 637.826
606.845, 458.598
608.158, 530.930
609.470, 222.422
610.782, 113.873
612.094, 25.273
613.406, 63.371
614.718, 307.896
616.029, 79.125
617.340, 150.305
618.651, 501.439
619.962, 202.537
621.272, 533.590
622.582, 554.609
623.892, 505.590
625.202, 896.531
626.512, 707.441
627.821, 938.312
629.131, 609.146
630.440, 399.947
631.749, 370.711
633.057, 98.559
634.366, 212.137
635.674, 32.730
636.982, 36.721
638.290, 83.766
639.597, 135.791
640.905, 14.664
642.212, 4.949
643.519, 125.188
644.825, 211.822
646.132, 251.984
647.438, 552.586
648.744, 192.693
650.050, 223.066
651.356, 585.156
652.662, 5.609
653.967, 450.471
655.272, 20.838
656.577, 51.260
657.882, 169.221
659.186, 160.807
660.490, 23.371
661.794, 146.322
663.098, 116.453
664.402, 159.033
665.705, 6.086
667.009, 341.514
668.312, 261.568
669.614, 281.639
670.917, 739.100
672.219, 469.965
673.522, 1342.021
674.824, 912.646
676.125, 1443.137
677.427, 1963.033
678.728, 1955.447
680.030, 2266.123
681.331, 2154.113
682.631, 2025.125
683.932, 2186.188
685.232, 1776.525
686.532, 1787.105
687.832, 1523.990
689.132, 1494.527
690.432, 1275.039
691.731, 905.525
693.030, 905.984
694.329, 671.848
695.628, 632.248
696.926, 772.619
698.224, 225.564
699.522, 805.863
700.820, 96.129
702.118, 366.350
703.415, 526.537
704.713, 66.693
706.010, 376.799
707.307, 33.129
708.603, 286.850
709.900, 456.793
711.196, 196.701
712.492, 196.570
713.788, 186.400
715.083, 114.834
716.379, 185.945
717.674, 175.658
718.969, 165.334
720.264, 314.969
721.558, 54.572
722.853, 554.125
724.147, 123.646
725.441, 313.129
726.735, 272.580
728.028, 411.996
729.322, 461.379
730.615, 380.734
731.908, 730.059
733.201, 859.199
734.493, 828.461
735.785, 846.867
737.078, 1044.803
738.370, 1432.893
739.661, 1271.561
740.953, 1680.176
742.244, 2009.262
743.535, 1607.562
744.826, 1996.590
746.117, 1635.592
747.407, 1714.562
748.698, 1893.508
749.988, 1302.426
751.278, 1981.316
752.567, 1760.178
753.857, 1789.016
755.146, 2107.824
756.435, 2426.609
757.724, 2645.367
759.013, 2904.100
760.301, 2922.805
761.590, 3571.484
762.878, 3250.143
764.165, 3548.770
765.453, 3836.738
766.741, 3394.234
768.028, 3381.312
769.315, 3115.125
770.602, 2783.393
771.888, 2490.688
773.175, 2190.617
774.461, 1926.707
775.747, 1664.479
777.033, 1312.873
778.319, 1221.244
779.604, 769.596
780.889, 1017.922
782.174, 716.230
783.459, 894.516
784.744, 762.781
786.028, 251.025
787.312, 629.248
788.596, 220.885
789.880, 478.574
791.164, 575.504
792.447, 261.002
793.730, 468.127
795.013, 187.461
796.296, 504.281
797.579, 271.027
798.861, 61.703
800.143, 495.840
801.425, 93.545
802.707, 201.479
803.989, 128.922
805.270, 153.520
806.551, 94.260
807.832, 199.277
809.113, 101.662
810.394, 116.488
811.674, 133.555
812.954, 243.049
814.234, 251.248
815.514, 87.555
816.794, 228.174
818.073, 74.207
819.352, 258.047
820.631, 73.564
821.910, 146.914
823.189, 139.270
824.467, 104.467
825.745, 12.088
827.023, 11.383
828.301, 65.113
829.578, 191.594
830.856, 141.941
832.133, 15.557
833.410, 90.793
834.687, 112.875
835.963, 13.375
837.240, 9.607
838.516, 154.188
839.792, 411.918
841.068, 101.992
842.343, 284.027
843.618, 170.029
844.894, 136.020
846.169, 362.031
847.443, 91.969
848.718, 223.967
849.992, 139.887
851.266, 44.207
852.540, 541.035
853.814, 136.902
855.088, 281.594
856.361, 547.445
857.634, 323.314
858.907, 498.410
860.180, 653.568
861.453, 552.912
862.725, 778.416
863.997, 854.236
865.269, 679.361
866.541, 474.482
867.812, 429.564
869.084, 544.346
870.355, 429.426
871.626, 324.461
872.897, 569.457
874.167, 365.080
875.438, 919.225
876.708, 324.973
877.978, 609.803
879.248, 905.428
880.517, 210.887
881.787, 986.617
883.056, 362.359
884.325, 818.100
885.594, 843.836
886.862, 799.568
888.130, 825.301
889.399, 761.115
890.667, 1196.932
891.934, 1392.754
893.202, 1068.576
894.469, 1424.402
895.737, 1160.223
897.004, 1176.051
898.270, 1591.873
899.537, 1427.799
900.803, 1783.725
902.070, 1699.648
903.336, 2065.637
904.601, 2231.627
905.867, 1847.617
907.132, 2203.607
908.398, 2699.602
909.663, 2445.598
910.928, 3001.600
912.192, 2717.602
913.457, 2693.629
914.721, 3009.656
915.985, 2315.689
917.249, 2421.727
918.512, 2407.771
919.776, 2063.828
921.039, 2539.896
922.302, 1615.992
923.565, 2282.098
924.827, 1888.215
926.090, 1774.340
927.352, 1980.473
928.614, 1626.615
929.876, 1922.799
931.138, 1778.988
932.399, 1485.186
933.660, 2051.391
934.922, 1717.607
936.182, 1983.828
937.443, 1990.062
938.704, 1976.303
939.964, 2522.553
941.224, 2028.783
942.484, 2075.086
943.744, 2581.406
945.003, 2437.748
946.262, 2834.105
947.521, 2920.389
948.780, 3066.812
950.039, 3223.254
951.298, 3203.275
952.556, 3599.746
953.814, 3875.752
955.072, 3532.234
956.330, 4318.434
957.587, 3812.896
958.845, 3839.000
960.102, 3980.688
961.359, 3488.553
962.615, 3485.586
963.872, 3561.719
965.128, 3218.381
966.384, 3827.596
967.640, 3507.223
968.896, 3514.059
970.152, 4295.262
971.407, 3974.998
972.662, 4739.463
973.917, 4186.355
975.172, 4683.355
976.427, 5113.074
977.681, 4529.492
978.935, 5134.812
980.189, 4681.676
981.443, 4598.793
982.697, 4560.969
983.950, 4466.336
985.203, 4303.457
986.456, 4113.338
987.709, 3650.213
988.962, 3647.043
990.214, 3094.607
991.467, 3151.926
992.719, 3123.035
993.971, 2530.408
995.222, 2687.811
996.474, 2883.219
997.725, 2390.680
998.976, 2832.732
1000.227, 2920.246
1001.478, 3557.791
1002.728, 3464.695
1003.978, 2672.301
1005.229, 2869.934
1006.479, 2355.158
1007.728, 2132.945
1008.978, 2240.756
1010.227, 1628.604
1011.476, 2176.525
1012.725, 2044.502
1013.974, 1722.510
1015.223, 2280.551
1016.471, 1658.619
1017.719, 2246.719
1018.967, 2414.850
1020.215, 1813.014
1021.462, 2691.209
1022.710, 2319.436
1023.957, 2167.693
1025.204, 2635.980
1026.451, 1724.305
1027.697, 2422.660
1028.944, 1921.049
1030.190, 1549.467
1031.436, 2197.914
1032.682, 1679.738
1033.928, 1658.244
1035.173, 1896.777
1036.418, 1285.340
1037.663, 1973.934
1038.908, 1601.992
1040.153, 1940.641
1041.398, 2089.367
1042.642, 1388.203
1043.886, 1896.984
1045.130, 1665.857
1046.374, 1454.762
1047.617, 2423.695
1048.860, 1495.812
1050.104, 1894.873
1051.347, 2043.963
1052.589, 1436.631
1053.832, 1955.771
1055.074, 1514.957
1056.316, 1474.166
1057.558, 1413.400
1058.800, 1192.740
1060.042, 1652.074
1061.283, 1491.443
1062.524, 1104.725
1063.765, 1644.146
1065.006, 1153.719
1066.247, 1253.314
1067.487, 1672.934
1068.728, 1092.953
1069.968, 1952.623
1071.208, 1312.316
1072.447, 1202.656
1073.687, 1732.410
1074.926, 1552.355
1076.165, 1482.162
1077.404, 2001.994
1078.643, 1648.996
1079.881, 1958.916
1081.120, 1818.863
1082.358, 1609.221
1083.596, 2159.316
1084.834, 1459.438
1086.071, 1779.654
1087.309, 1859.891
1088.546, 970.164
1089.783, 1570.459
1091.020, 1120.773
1092.256, 1401.113
1093.493, 1461.473
1094.729, 631.854
1095.965, 1202.256
1097.201, 1062.680
1098.436, 513.123
1099.672, 1163.590
1100.907, 624.105
1102.142, 734.646
1103.377, 815.209
1104.612, 455.791
1105.846, 1256.408
1107.081, 557.098
1108.315, 437.809
1109.549, 958.684
1110.782, 319.621
1112.016, 811.424
1113.249, 492.492
1114.483, 203.580
1115.716, 784.771
1116.948, 266.010
1118.181, 577.270
1119.413, 628.574
1120.646, 120.031
1121.878, 751.379
1123.110, 642.855
1124.341, 294.350
1125.573, 655.893
1126.804, 417.455
1128.035, 409.045
1129.266, 940.652
1130.497, 147.727
1131.727, 574.398
1132.957, 636.078
1134.188, 157.771
1135.418, 699.512
1136.647, 381.271
1137.877, 363.049
1139.106, 984.883
1140.335, 3.271
1141.564, 479.287
1142.793, 511.186
1144.022, 206.904
1145.250, 865.656
1146.479, 77.518
1147.707, 49.412
1148.934, 422.383
1150.162, 75.701
1151.390, 656.215
1152.617, 268.143
1153.844, 189.926
1155.071, 883.033
1156.298, 34.912
1157.524, 466.795
1158.751, 438.846
1159.977, 330.740
1161.203, 542.793
1162.428, 465.076
1163.654, 116.979
1164.879, 678.881
1166.105, 40.785
1167.330, 292.693
1168.555, 424.602
1169.779, 136.510
1171.004, 438.420
1172.228, 440.328
1173.452, 52.236
1174.676, 884.568
1175.900, 46.471
1177.123, 468.373
1178.346, 530.791
1179.570, 77.316
1180.793, 934.543
1182.015, 116.398
1183.238, 218.250
1184.460, 861.125
1185.683, 337.035
1186.905, 574.631
1188.126, 536.980
1189.348, 28.781
1190.569, 170.426
1191.791, 157.832
1193.012, 119.461
1194.233, 371.844
1195.453, 369.445
1196.674, 341.953
1197.894, 174.523
1199.114, 213.789
1200.334, 527.453
1201.554, 212.469
1202.774, 303.691
1203.993, 504.898
1205.212, 128.301
1206.431, 449.480
1207.650, 582.164
1208.869, 45.695
1210.087, 465.402
1211.305, 276.535
1212.524, 277.602
1213.741, 778.656
1214.959, 100.797
1216.177, 921.812
1217.394, 662.992
1218.611, 57.176
1219.828, 1038.141
1221.045, 170.582
1222.261, 411.512
1223.478, 1112.426
1224.694, 66.016
1225.910, 594.801
1227.126, 805.598
1228.342, 191.359
1229.557, 902.121
1230.772, 763.801
1231.987, 591.578
1233.202, 1162.277
1234.417, 506.086
1235.631, 646.777
1236.846, 1407.465
1238.060, 348.617
1239.274, 1399.289
1240.488, 809.961
1241.701, 340.629
1242.915, 1201.285
1244.128, 481.941
1245.341, 843.195
1246.554, 1213.828
1247.767, 395.438
1248.979, 1376.055
1250.191, 656.664
1251.403, 510.176
1252.615, 1450.766
1253.827, 461.344
1255.039, 820.836
1256.250, 1411.395
1257.461, 181.938
1258.672, 1073.977
1259.883, 1104.488
1261.094, 556.664
1262.304, 917.145
1263.514, 957.613
1264.724, 878.391
1265.934, 1248.824
1267.144, 436.074
1268.354, 1317.898
1269.563, 1408.102
1270.772, 668.285
1271.981, 1628.453
1273.190, 808.602
1274.398, 719.340
1275.607, 1839.453
1276.815, 305.160
1278.023, 1058.930
1279.231, 1528.977
1280.439, 529.133
1281.646, 1159.133
1282.853, 589.117
1284.060, 449.008
1285.267, 1378.770
1286.474, 288.422
1287.681, 608.125
1288.887, 817.684
1290.093, 279.219
1291.299, 1448.707
1292.505, 878.086
1293.711, 207.422
1294.916, 1286.508
1296.121, 583.633
1297.327, 652.660
1298.531, 781.629
1299.736, 216.996
1300.941, 901.820
1302.145, 780.516
1303.349, 41.020
1304.553, 1217.363
1305.757, 435.562
1306.961, 383.699
1308.164, 751.797
1309.367, 639.852
1310.570, 937.875
1311.773, 825.844
1312.976, 533.773
1314.178, 1281.656
1315.381, 859.469
1316.583, 797.043
1317.785, 1364.570
1318.987, 392.023
1320.188, 1029.410
1321.390, 1416.742
1322.591, 374.016
1323.792, 1081.215
1324.993, 905.012
1326.193, 532.094
1327.394, 1079.109
1328.594, 256.016
1329.794, 532.852
1330.994, 940.191
1332.194, 53.098
1333.394, 453.500
1334.593, 679.949
1335.792, 133.582
1336.991, 1092.754
1338.190, 309.035
1339.389, 154.754
1340.587, 1138.242
1341.786, 204.266
1342.984, 400.234
1344.182, 1012.602
1345.379, 48.461
1346.577, 794.254
1347.774, 590.000
1348.972, 94.301
1350.169, 1091.273
1351.365, 156.836
1352.562, 232.352
1353.759, 1243.938
1354.955, 380.625
1356.151, 774.656
1357.347, 610.262
1358.543, 205.492
1359.738, 1050.328
1360.934, 426.457
1362.129, 61.641
1363.324, 1346.195
1364.519, 162.293
1365.713, 737.297
1366.908, 1402.484
1368.102, 72.332
1369.296, 805.668
1370.490, 761.922
1371.684, 303.000
1372.877, 761.707
1374.071, 249.797
1375.264, 175.465
1376.457, 1345.871
1377.650, 64.793
1378.843, 813.664
1380.035, 962.496
1381.227, 371.285
1382.419, 1590.035
1383.611, 848.742
1384.803, 547.391
1385.995, 1475.988
1387.186, 804.523
1388.377, 352.844
1389.568, 1400.215
1390.759, 268.398
1391.950, 1116.527
1393.140, 1324.602
1394.331, 92.645
1395.521, 1540.633
1396.711, 998.570
1397.900, 193.547
1399.090, 1403.730
1400.279, 541.504
1401.469, 209.227
1402.658, 1306.891
1403.847, 193.684
1405.035, 1120.395
1406.224, 907.988
1407.412, 454.176
1408.600, 1081.688
1409.788, 971.668
1410.976, 198.891
1412.164, 1352.504
1413.351, 938.773
1414.538, 575.730
1415.725, 1472.645
1416.912, 369.527
1418.099, 916.379
1419.285, 1232.598
1420.472, 59.395
1421.658, 1425.406
1422.844, 492.199
1424.030, 537.434
1425.215, 1634.301
1426.401, 564.582
1427.586, 596.730
1428.771, 1361.965
1429.956, 451.121
1431.141, 1385.078
1432.325, 1275.391
1433.510, 611.867
1434.694, 1547.652
1435.878, 1389.547
1437.062, 843.336
1438.245, 2008.773
1439.429, 1352.219
1440.612, 1831.445
1441.795, 2713.969
1442.978, 1389.188
1444.161, 3054.070
1445.343, 2630.496
1446.526, 1512.789
1447.708, 3182.609
1448.890, 2219.586
1450.072, 1951.633
1451.253, 3104.422
1452.435, 2366.977
1453.616, 2407.957
1454.797, 3357.832
1455.978, 1979.609
1457.159, 3034.367
1458.340, 3090.688
1459.520, 1890.605
1460.700, 2876.457
1461.880, 2511.406
1463.060, 1669.258
1464.240, 2747.871
1465.420, 1642.410
1466.599, 1600.758
1467.778, 2846.973
1468.957, 1094.398
1470.136, 1930.438
1471.315, 2276.227
1472.493, 622.062
1473.671, 2398.215
1474.849, 1704.234
1476.027, 540.223
1477.205, 2536.262
1478.383, 693.332
1479.560, 880.016
1480.737, 2236.309
1481.914, 793.488
1483.091, 1381.648
1484.268, 1760.270
1485.444, 478.562
1486.621, 1596.605
1487.797, 1514.492
1488.973, 244.102
1490.149, 1693.930
1491.324, 1143.934
1492.500, 334.219
1493.675, 1564.766
1494.850, 716.230
1496.025, 538.234
1497.200, 1510.859
1498.374, 94.176
1499.548, 838.258
1500.723, 1093.184
1501.897, 11.051
1503.071, 1105.801
1504.244, 993.805
1505.418, 3.105
1506.591, 1323.965
1507.764, 286.562
1508.937, 665.562
1510.110, 1264.395
1511.282, 50.055
1512.455, 712.656
