##NAMES=Anorthite
##RRUFFID=R050104
##IDEAL CHEMISTRY=CaAl_2_Si_2_O_8_
##LOCALITY=unknown
##OWNER=RRUFF
##SOURCE=Rock Currier
##DESCRIPTION=Iridescent slab, labradorite/andesine
##STATUS=The identification of this mineral has been confirmed by X-ray diffraction and chemical analysis
##URL=rruff.info/R050104
##MEASURED CHEMISTRY=Ca_0.50_Na_0.47_K_0.03_Al_1.50_Si_2.50_O_8_
##PIN_ID=L00363
##ORIENTATION=Laser parallel to b* (0 1 0). Fiducial mark perpendicular to laser is parallel to c [0 0 1]
124.675, 0.000
126.063, 127.345
127.452, 16.995
128.840, 5.821
130.228, 141.205
131.615, 24.752
133.003, 47.443
134.390, 90.292
135.777, 106.651
137.164, 169.604
138.550, 328.430
139.937, 415.603
141.323, 447.728
142.709, 563.477
144.094, 623.528
145.480, 892.597
146.865, 991.428
148.250, 1084.801
149.635, 1173.526
151.019, 1412.447
152.403, 1594.653
153.788, 1833.937
155.171, 2168.306
156.555, 2484.818
157.939, 2934.357
159.322, 3415.770
160.705, 4035.929
162.088, 4769.728
163.470, 5520.081
164.853, 6307.910
166.235, 7541.154
167.617, 8474.755
168.998, 9648.664
170.380, 10419.843
171.761, 11419.268
173.142, 12238.915
174.523, 12889.764
175.904, 13472.806
177.284, 13800.040
178.664, 14105.793
180.044, 13761.112
181.424, 13765.258
182.803, 13219.869
184.183, 12608.424
185.562, 11865.392
186.940, 10895.433
188.319, 9948.682
189.698, 9335.739
191.076, 8778.574
192.454, 8012.201
193.831, 7508.634
195.209, 7094.883
196.586, 6811.958
197.963, 6433.872
199.340, 6072.631
200.717, 6095.242
202.093, 5868.714
203.470, 5682.049
204.846, 5413.260
206.221, 5212.350
207.597, 4899.319
208.972, 4605.133
210.347, 4244.800
211.722, 3885.361
213.097, 3527.851
214.472, 3106.285
215.846, 2614.678
217.220, 2242.042
218.594, 1714.385
219.967, 1372.712
221.341, 1025.029
222.714, 837.339
224.087, 620.647
225.460, 317.952
226.832, 309.476
228.204, 176.090
229.577, 191.556
230.948, 76.065
232.320, 0.309
233.692, 21.442
235.063, 151.276
236.434, 21.257
237.805, 5.329
239.175, 169.729
240.545, 157.065
241.916, 285.011
243.286, 357.613
244.655, 482.044
246.025, 672.409
247.394, 837.924
248.763, 946.555
250.132, 1021.710
251.501, 1127.340
252.869, 1315.119
254.237, 1463.705
255.605, 1664.312
256.973, 1730.938
258.340, 1880.582
259.708, 2053.240
261.075, 2240.898
262.442, 2466.567
263.808, 2620.241
265.175, 2970.916
266.541, 3124.589
267.907, 3371.255
269.273, 3763.906
270.639, 4084.541
272.004, 4491.158
273.369, 4857.758
274.734, 5177.340
276.099, 5690.902
277.463, 6136.447
278.828, 6420.979
280.192, 6800.501
281.556, 7200.016
282.919, 7406.535
284.283, 7605.059
285.646, 7701.599
287.009, 7499.152
288.372, 7547.743
289.734, 7056.739
291.097, 6839.378
292.459, 6318.624
293.821, 5652.988
295.183, 5337.464
296.544, 4690.837
297.905, 4090.910
299.266, 3740.227
300.627, 3296.746
301.988, 2885.479
303.348, 2429.383
304.709, 2284.423
306.069, 1903.605
307.428, 1759.905
308.788, 1408.315
310.147, 1224.814
311.507, 1103.394
312.865, 948.046
314.224, 877.760
315.583, 668.533
316.941, 550.355
318.299, 589.221
319.657, 415.124
321.015, 492.059
322.372, 253.018
323.729, 205.000
325.086, 111.001
326.443, 87.019
327.800, 92.047
329.156, 79.083
330.512, 102.128
331.868, 95.031
333.224, 370.224
334.579, 116.273
335.935, 188.397
337.290, 246.371
338.645, 16.586
339.999, 82.559
341.354, 80.566
342.708, 59.627
344.062, 71.723
345.416, 0.139
346.769, 47.972
348.123, 127.219
349.476, 39.484
350.829, 0.804
352.182, 6.171
353.534, 45.415
354.887, 88.041
356.239, 83.566
357.591, 41.162
358.942, 153.815
360.294, 116.556
361.645, 162.375
362.996, 109.283
364.347, 188.267
365.698, 133.346
367.048, 134.094
368.398, 86.750
369.748, 109.061
371.098, 31.448
372.448, 22.889
373.797, 44.619
375.146, 76.090
376.495, 65.528
377.844, 101.932
379.192, 172.305
380.540, 269.646
381.889, 280.956
383.236, 294.237
384.584, 313.488
385.932, 397.030
387.279, 510.899
388.626, 596.060
389.973, 733.188
391.319, 854.285
392.666, 992.350
394.012, 944.323
395.358, 1141.276
396.704, 1208.140
398.049, 1140.896
399.394, 1366.606
400.740, 1418.139
402.084, 1493.664
403.429, 1474.108
404.774, 1434.445
406.118, 1452.621
407.462, 1482.637
408.806, 1562.477
410.150, 1577.177
411.493, 1478.768
412.836, 1426.301
414.179, 1384.805
415.522, 1319.281
416.865, 1272.737
418.207, 1238.171
419.549, 1297.583
420.891, 1346.974
422.233, 1358.342
423.575, 1398.688
424.916, 1434.011
426.257, 1492.312
427.598, 1572.590
428.939, 1685.253
430.279, 1668.221
431.619, 1797.736
432.959, 1834.740
434.299, 2038.384
435.639, 2006.185
436.978, 2144.400
438.318, 2124.480
439.657, 2200.791
440.996, 2302.858
442.334, 2237.796
443.673, 2255.517
445.011, 2339.178
446.349, 2230.591
447.687, 2278.943
449.024, 2067.191
450.361, 2159.856
451.699, 1974.366
453.036, 1963.104
454.372, 1997.345
455.709, 1947.560
457.045, 1956.605
458.381, 2150.004
459.717, 2139.645
461.053, 2298.334
462.388, 2352.559
463.724, 2769.581
465.059, 3078.683
466.394, 3469.042
467.728, 3911.844
469.063, 4407.544
470.397, 4983.784
471.731, 5836.229
473.065, 6673.396
474.398, 7623.772
475.732, 8297.545
477.065, 9170.210
478.398, 9754.253
479.731, 9998.317
481.063, 9875.265
482.396, 9828.959
483.728, 9242.900
485.060, 8529.836
486.391, 7969.985
487.723, 7101.513
489.054, 6594.826
490.385, 6338.776
491.716, 6183.553
493.047, 6161.195
494.377, 6607.382
495.708, 7265.757
497.038, 7990.864
498.368, 9200.807
499.697, 10828.698
501.027, 12321.454
502.356, 14164.738
503.685, 15616.824
505.014, 17118.869
506.342, 18473.896
507.671, 18885.018
508.999, 19595.531
510.327, 19602.961
511.655, 18957.213
512.982, 18116.221
514.310, 16583.475
515.637, 14922.530
516.964, 13039.699
518.291, 11607.440
519.617, 9898.960
520.944, 8696.706
522.270, 7705.459
523.596, 6558.475
524.921, 5780.383
526.247, 5089.627
527.572, 4503.713
528.897, 3889.664
530.222, 3438.107
531.547, 3079.316
532.871, 2807.969
534.196, 2431.062
535.520, 2365.518
536.844, 2016.820
538.167, 1943.319
539.491, 1755.064
540.814, 1632.096
542.137, 1651.099
543.460, 1475.093
544.783, 1644.046
546.105, 1579.964
547.427, 1592.030
548.749, 1532.881
550.071, 1526.733
551.393, 1560.562
552.714, 1564.349
554.035, 1511.115
555.356, 1651.840
556.677, 1605.533
557.998, 1713.216
559.318, 1876.856
560.638, 2003.500
561.958, 2226.004
563.278, 2343.699
564.597, 2503.251
565.917, 2705.784
567.236, 2429.288
568.555, 2563.752
569.874, 2261.184
571.192, 2136.612
572.511, 1886.024
573.829, 1628.397
575.147, 1477.747
576.464, 1127.057
577.782, 1034.326
579.099, 1104.556
580.416, 851.745
581.733, 708.895
583.050, 516.002
584.366, 407.077
585.683, 400.113
586.999, 278.110
588.315, 200.063
589.630, 302.969
590.946, 180.829
592.261, 261.643
593.576, 218.784
594.891, 30.126
596.206, 140.783
597.520, 100.389
598.834, 33.941
600.148, 39.435
601.462, 8.867
602.776, 54.230
604.089, 73.538
605.402, 19.210
606.715, 2.042
608.028, 56.949
609.341, 38.958
610.653, 27.062
611.965, 83.251
613.277, 19.559
614.589, 128.951
615.901, 54.517
617.212, 44.075
618.523, 2.238
619.834, 118.521
621.145, 36.416
622.456, 62.597
623.766, 43.448
625.076, 3.588
626.386, 18.803
627.696, 38.901
629.006, 25.544
630.315, 37.126
631.624, 109.647
632.933, 58.115
634.242, 63.525
635.551, 152.881
636.859, 137.185
638.167, 152.814
639.475, 202.638
640.783, 130.791
642.090, 120.891
643.398, 81.939
644.705, 177.934
646.012, 217.880
647.318, 69.776
648.625, 296.621
649.931, 119.420
651.237, 214.169
652.543, 144.869
653.849, 208.520
655.155, 235.123
656.460, 170.679
657.765, 135.198
659.070, 242.696
660.375, 94.179
661.679, 126.633
662.984, 219.067
664.288, 224.463
665.592, 278.179
666.895, 146.529
668.199, 259.701
669.502, 205.473
670.805, 358.661
672.108, 337.421
673.411, 422.469
674.713, 340.227
676.016, 443.265
677.318, 415.905
678.620, 475.794
679.921, 333.868
681.223, 512.841
682.524, 383.824
683.825, 399.485
685.126, 521.388
686.427, 505.828
687.727, 412.918
689.028, 543.400
690.328, 451.169
691.628, 531.059
692.927, 370.666
694.227, 460.300
695.526, 439.510
696.825, 441.219
698.124, 387.719
699.423, 515.457
700.721, 467.112
702.020, 355.898
703.318, 303.375
704.616, 500.198
705.913, 459.594
707.211, 471.202
708.508, 616.223
709.805, 437.245
711.102, 535.475
712.399, 614.353
713.695, 427.688
714.992, 693.371
716.288, 435.724
717.584, 603.567
718.879, 462.236
720.175, 616.493
721.470, 604.359
722.765, 605.799
724.060, 616.273
725.355, 563.931
726.649, 605.829
727.944, 776.050
729.238, 565.479
730.532, 839.001
731.825, 777.138
733.119, 749.278
734.412, 860.558
735.705, 884.283
736.998, 798.036
738.291, 979.029
739.584, 1012.221
740.876, 1006.469
742.168, 1084.361
743.460, 1026.924
744.752, 1018.602
746.043, 1110.664
747.334, 1101.312
748.626, 1145.111
749.916, 1058.688
751.207, 1140.779
752.498, 1133.939
753.788, 1297.804
755.078, 1051.842
756.368, 1186.942
757.658, 1055.194
758.947, 1116.438
760.237, 1220.860
761.526, 1106.276
762.815, 1401.729
764.104, 1291.697
765.392, 1383.756
766.680, 1500.525
767.969, 1454.735
769.257, 1280.909
770.544, 1443.186
771.832, 1440.046
773.119, 1553.595
774.406, 1419.024
775.693, 1623.851
776.980, 1416.807
778.267, 1339.612
779.553, 1439.088
780.839, 1365.047
782.125, 1267.033
783.411, 1265.406
784.697, 1223.809
785.982, 1181.794
787.267, 1225.803
788.552, 1351.340
789.837, 1397.909
791.122, 1287.021
792.406, 1187.038
793.690, 1351.091
794.974, 1370.324
796.258, 1130.229
797.542, 1309.064
798.825, 1177.609
800.108, 1176.628
801.391, 1120.786
802.674, 1017.156
803.957, 928.781
805.239, 656.258
806.522, 702.294
807.804, 589.015
809.085, 543.977
810.367, 705.024
811.649, 485.777
812.930, 423.357
814.211, 504.362
815.492, 418.715
816.772, 294.184
818.053, 401.016
819.333, 162.844
820.613, 305.870
821.893, 44.321
823.173, 130.215
824.452, 26.852
825.732, 113.057
827.011, 41.186
828.290, 3.324
829.568, 34.392
830.847, 11.548
832.125, 70.462
833.403, 28.438
834.681, 17.666
835.959, 52.224
837.236, 130.079
838.514, 72.442
839.791, 180.694
841.068, 24.455
842.345, 11.818
843.621, 1.140
844.898, 50.495
846.174, 107.098
847.450, 90.339
848.726, 4.208
850.001, 50.709
851.277, 34.822
852.552, 103.412
853.827, 28.904
855.102, 10.812
856.376, 48.429
857.651, 45.553
858.925, 151.406
860.199, 60.376
861.473, 109.584
862.746, 53.483
864.020, 35.384
865.293, 21.777
866.566, 109.985
867.839, 129.715
869.112, 160.612
870.384, 66.943
871.656, 120.528
872.928, 362.904
874.200, 62.686
875.472, 41.341
876.744, 91.951
878.015, 14.779
879.286, 132.550
880.557, 75.417
881.828, 51.647
883.098, 51.313
884.369, 95.672
885.639, 81.635
886.909, 35.574
888.178, 191.488
889.448, 135.384
890.717, 65.258
891.987, 21.888
893.256, 0.922
894.524, 50.738
895.793, 18.517
897.061, 188.274
898.330, 160.018
899.598, 100.743
900.865, 277.455
902.133, 148.151
903.401, 157.833
904.668, 194.509
905.935, 183.172
907.202, 177.293
908.468, 317.469
909.735, 189.109
911.001, 306.749
912.267, 435.380
913.533, 319.003
914.799, 341.631
916.064, 365.261
917.330, 279.908
918.595, 401.565
919.860, 389.232
921.124, 450.921
922.389, 365.619
923.653, 420.359
924.918, 423.096
926.182, 346.848
927.445, 497.600
928.709, 367.389
929.972, 442.188
931.236, 607.982
932.499, 329.794
933.761, 460.609
935.024, 398.435
936.286, 470.256
937.549, 522.078
938.811, 531.897
940.073, 477.713
941.334, 566.526
942.596, 522.336
943.857, 599.142
945.118, 604.942
946.379, 737.739
947.640, 523.535
948.900, 723.328
950.161, 654.118
951.421, 835.905
952.681, 830.689
953.940, 850.484
955.200, 965.278
956.459, 978.068
957.719, 1020.868
958.978, 1064.666
960.236, 1084.461
961.495, 1365.253
962.753, 1214.043
964.012, 1508.832
965.270, 1514.620
966.527, 1396.405
967.785, 1562.190
969.043, 1465.978
970.300, 1594.763
971.557, 1481.184
972.814, 1845.969
974.071, 1905.904
975.327, 1663.205
976.583, 1982.057
977.840, 1859.296
979.095, 1906.238
980.351, 1887.463
981.607, 1893.397
982.862, 2047.740
984.117, 1960.836
985.372, 1941.764
986.627, 1873.792
987.882, 1808.832
989.136, 1967.205
990.390, 1823.343
991.644, 1839.942
992.898, 1720.895
994.152, 1813.439
995.405, 1661.682
996.659, 1587.767
997.912, 1692.099
999.165, 1725.369
1000.417, 1620.026
1001.670, 1666.148
1002.922, 1682.439
1004.174, 1451.454
1005.426, 1694.515
1006.678, 1551.400
1007.930, 1638.554
1009.181, 1525.315
1010.432, 1336.465
1011.683, 1604.360
1012.934, 1636.803
1014.185, 1450.203
1015.435, 1652.357
1016.685, 1436.826
1017.935, 1562.800
1019.185, 1664.387
1020.435, 1430.269
1021.684, 1680.623
1022.934, 1486.115
1024.183, 1378.983
1025.432, 1642.207
1026.680, 1396.822
1027.929, 1450.368
1029.177, 1460.695
1030.425, 1693.749
1031.673, 1339.444
1032.921, 1472.898
1034.169, 1333.226
1035.416, 1738.905
1036.663, 1311.549
1037.911, 1654.020
1039.157, 1373.015
1040.404, 1433.948
1041.650, 1562.610
1042.897, 1351.762
1044.143, 1499.108
1045.389, 1378.780
1046.634, 1458.341
1047.880, 1503.430
1049.125, 1438.533
1050.371, 1457.120
1051.615, 1479.644
1052.860, 1348.792
1054.105, 1441.956
1055.349, 1325.137
1056.593, 1421.331
1057.837, 1581.543
1059.081, 1364.421
1060.325, 1343.666
1061.568, 1442.927
1062.812, 1374.204
1064.055, 1522.498
1065.298, 1552.811
1066.540, 1383.140
1067.783, 1712.486
1069.025, 1517.851
1070.267, 1694.233
1071.509, 1587.633
1072.751, 1574.871
1073.993, 1729.307
1075.234, 1579.760
1076.475, 1612.230
1077.716, 1640.720
1078.957, 1713.228
1080.198, 1661.754
1081.438, 1686.298
1082.679, 1636.863
1083.919, 1650.517
1085.159, 1857.050
1086.398, 1616.674
1087.638, 1578.318
1088.877, 1440.984
1090.116, 1691.671
1091.355, 1717.380
1092.594, 1551.110
1093.833, 1761.865
1095.071, 1427.641
1096.309, 1459.391
1097.547, 1727.214
1098.785, 1189.061
1100.023, 1317.967
1101.260, 1328.842
1102.498, 1375.072
1103.735, 1279.998
1104.972, 1443.948
1106.208, 1271.984
1107.445, 1343.977
1108.681, 1391.996
1109.918, 1390.042
1111.154, 1269.115
1112.389, 1199.218
1113.625, 1356.348
1114.860, 1129.475
1116.096, 1239.633
1117.331, 1183.818
1118.566, 972.034
1119.800, 1186.848
1121.035, 1019.126
1122.269, 1084.436
1123.503, 1017.781
1124.737, 892.161
1125.971, 1135.590
1127.205, 1050.018
1128.438, 823.482
1129.671, 834.249
1130.904, 652.622
1132.137, 860.153
1133.370, 664.862
1134.602, 651.331
1135.834, 839.223
1137.066, 960.760
1138.298, 622.299
1139.530, 667.953
1140.762, 789.565
1141.993, 444.449
1143.224, 910.203
1144.455, 548.711
1145.686, 606.296
1146.917, 647.975
1148.147, 662.450
1149.377, 781.112
1150.607, 496.665
1151.837, 556.031
1153.067, 628.514
1154.296, 618.224
1155.526, 641.976
1156.755, 584.830
1157.984, 571.795
1159.213, 469.827
1160.441, 429.942
1161.670, 427.168
1162.898, 557.512
1164.126, 376.942
1165.354, 580.457
1166.581, 295.062
1167.809, 452.795
1169.036, 409.599
1170.263, 421.444
1171.490, 513.327
1172.717, 453.898
1173.943, 478.214
1175.170, 422.223
1176.396, 283.271
1177.622, 277.353
1178.848, 378.475
1180.073, 455.632
1181.299, 279.819
1182.524, 330.045
1183.749, 118.310
1184.974, 394.612
1186.199, 229.953
1187.423, 53.323
1188.648, 416.722
1189.872, 76.841
1191.096, 407.638
1192.320, 92.156
1193.543, 86.715
1194.767, 358.314
1195.990, 65.956
1197.213, 57.638
1198.436, 204.361
1199.659, 83.114
1200.881, 37.910
1202.104, 36.726
1203.326, 52.562
1204.548, 259.398
1205.770, 37.725
1206.991, 410.193
1208.213, 613.153
1209.434, 188.153
1210.655, 49.190
1211.876, 46.266
1213.096, 62.381
1214.317, 184.535
1215.537, 55.714
1216.757, 31.915
1217.977, 142.152
1219.197, 63.572
1220.417, 88.745
1221.636, 257.101
1222.855, 78.498
1224.074, 138.941
1225.293, 70.434
1226.512, 75.978
1227.731, 189.575
1228.949, 98.271
1230.167, 215.053
1231.385, 66.918
1232.603, 40.866
1233.820, 126.893
1235.038, 78.346
1236.255, 35.170
1237.472, 191.420
1238.689, 37.746
1239.906, 189.148
1241.122, 360.623
1242.338, 23.820
1243.555, 259.816
1244.771, 400.535
1245.986, 12.723
1247.202, 534.504
1248.417, 63.635
1249.633, 196.311
1250.848, 355.344
1252.063, 53.537
1253.277, 227.660
1254.492, 252.914
1255.706, 122.266
1256.920, 480.717
1258.134, 404.270
1259.348, 169.934
1260.562, 167.010
1261.775, 273.689
1262.988, 257.480
1264.201, 211.385
1265.414, 4.402
1266.627, 338.533
1267.839, 128.775
1269.052, 137.127
1270.264, 499.592
1271.476, 103.332
1272.688, 185.799
1273.899, 277.279
1275.111, 19.250
1276.322, 505.002
1277.533, 76.121
1278.744, 45.121
1279.955, 296.949
1281.165, 34.023
1282.376, 123.873
1283.586, 434.387
1284.796, 106.104
1286.006, 124.053
1287.215, 66.781
1288.425, 58.166
1289.634, 330.934
1290.843, 100.377
1292.052, 79.785
1293.261, 230.734
1294.469, 67.730
1295.678, 92.221
1296.886, 130.600
1298.094, 0.607
1299.302, 0.000
##END=



