##NAMES=Anorthite
##RRUFFID=R050104
##IDEAL CHEMISTRY=CaAl_2_Si_2_O_8_
##LOCALITY=unknown
##OWNER=RRUFF
##SOURCE=Rock Currier
##DESCRIPTION=Iridescent slab, labradorite/andesine
##STATUS=The identification of this mineral has been confirmed by X-ray diffraction and chemical analysis
##URL=rruff.info/R050104
##MEASURED CHEMISTRY=Ca_0.50_Na_0.47_K_0.03_Al_1.50_Si_2.50_O_8_
##PIN_ID=L00369
##ORIENTATION=Laser parallel to (0 1 1). Fiducial mark perpendicular to laser is parallel to a [1 0 0]
130.228, 0.000
131.615, 8.325
133.003, 134.282
134.390, 46.754
135.777, 204.716
137.164, 210.714
138.550, 554.996
139.937, 829.998
141.323, 765.037
142.709, 1312.045
144.094, 1493.662
145.480, 2366.830
146.865, 2673.773
148.250, 3421.711
149.635, 3619.891
151.019, 4008.635
152.403, 4250.350
153.788, 4911.604
155.171, 4593.568
156.555, 4441.477
157.939, 4309.564
159.322, 4194.863
160.705, 4072.549
162.088, 3929.357
163.470, 3685.838
164.853, 3519.586
166.235, 3479.281
167.617, 3123.666
168.998, 3167.529
170.380, 3117.699
171.761, 3392.039
173.142, 3542.451
174.523, 3878.873
175.904, 4033.482
177.284, 4605.285
178.664, 5144.594
180.044, 5379.095
181.424, 5995.061
182.803, 6063.213
184.183, 6562.366
185.562, 6754.418
186.940, 6927.027
188.319, 6992.739
189.698, 7368.052
191.076, 7649.867
192.454, 7615.166
193.831, 7743.301
195.209, 7846.102
196.586, 8008.570
197.963, 7913.776
199.340, 7773.790
200.717, 8008.666
202.093, 7805.461
203.470, 7413.222
204.846, 7082.990
206.221, 6538.812
207.597, 6333.734
208.972, 5254.780
210.347, 4705.983
211.722, 3877.379
213.097, 3312.060
214.472, 2731.228
215.846, 2013.930
217.220, 1704.251
218.594, 1007.237
219.967, 904.777
221.341, 493.613
222.714, 347.119
224.087, 257.074
225.460, 144.089
226.832, 139.158
228.204, 7.640
229.577, 286.981
230.948, 34.786
232.320, 38.016
233.692, 350.715
235.063, 313.627
236.434, 575.328
237.805, 554.834
239.175, 850.000
240.545, 1106.896
241.916, 1429.559
243.286, 1766.003
244.655, 1900.934
246.025, 2445.204
247.394, 2783.664
248.763, 2930.884
250.132, 3211.245
251.501, 3374.403
252.869, 3713.012
254.237, 3728.541
255.605, 4044.967
256.973, 3911.932
258.340, 4332.164
259.708, 4406.740
261.075, 4479.228
262.442, 4930.604
263.808, 4829.853
265.175, 5321.982
266.541, 5510.992
267.907, 5682.875
269.273, 6170.617
270.639, 6412.206
272.004, 6724.625
273.369, 6938.867
274.734, 7390.930
276.099, 7779.811
277.463, 8017.510
278.828, 8555.030
280.192, 8319.376
281.556, 8974.701
282.919, 8751.353
284.283, 8847.161
285.646, 8861.812
287.009, 8500.290
288.372, 8490.613
289.734, 7706.785
291.097, 7427.807
292.459, 7068.692
293.821, 5977.451
295.183, 5566.996
296.544, 4586.779
297.905, 4127.043
299.266, 3376.520
300.627, 3031.992
301.988, 2562.916
303.348, 1838.192
304.709, 1766.738
306.069, 1314.518
307.428, 1020.461
308.788, 651.532
310.147, 470.719
311.507, 479.960
312.865, 281.270
314.224, 238.580
315.583, 88.120
316.941, 78.897
318.299, 1.766
319.657, 290.701
321.015, 110.812
322.372, 331.064
323.729, 143.527
325.086, 114.165
326.443, 0.018
327.800, 98.042
329.156, 65.083
330.512, 382.605
331.868, 289.146
333.224, 381.535
334.579, 646.771
335.935, 450.859
337.290, 579.795
338.645, 387.578
339.999, 358.201
341.354, 165.667
342.708, 312.938
344.062, 119.000
345.416, 60.828
346.769, 110.436
348.123, 120.172
349.476, 151.053
350.829, 112.227
352.182, 186.700
353.534, 124.504
354.887, 368.633
356.239, 166.144
357.591, 324.980
358.942, 337.187
360.294, 330.755
361.645, 340.683
362.996, 223.972
364.347, 77.585
365.698, 121.480
367.048, 13.334
368.398, 25.104
369.748, 69.201
371.098, 36.273
372.448, 141.107
373.797, 215.727
375.146, 340.140
376.495, 448.355
377.844, 406.381
379.192, 1793.217
380.540, 1601.886
381.889, 1017.388
383.236, 1070.705
384.584, 1311.816
385.932, 3202.703
387.279, 3737.213
388.626, 1787.290
389.973, 1924.872
391.319, 2085.278
392.666, 2345.187
394.012, 2282.992
395.358, 2734.565
396.704, 2691.831
398.049, 3070.914
399.394, 3637.789
400.740, 3921.449
402.084, 4378.860
403.429, 4854.865
404.774, 5050.457
406.118, 5026.563
407.462, 5252.193
408.806, 5023.284
410.150, 4873.883
411.493, 4466.129
412.836, 4052.092
414.179, 3710.812
415.522, 3316.339
416.865, 2878.708
418.207, 2774.947
419.549, 2370.080
420.891, 2265.099
422.233, 1967.019
423.575, 1853.839
424.916, 1757.559
426.257, 1609.178
427.598, 1690.697
428.939, 1524.117
430.279, 1439.438
431.619, 1326.659
432.959, 1498.779
434.299, 1726.890
435.639, 1512.853
436.978, 1838.479
438.318, 1914.206
439.657, 2034.836
440.996, 2330.473
442.334, 2259.729
443.673, 2568.375
445.011, 2856.484
446.349, 2856.172
447.687, 3217.568
449.024, 3216.876
450.361, 3751.604
451.699, 3752.867
453.036, 3880.917
454.372, 4411.211
455.709, 4486.311
457.045, 4969.673
458.381, 5120.061
459.717, 5488.634
461.053, 5928.951
462.388, 6131.670
463.724, 6656.408
465.059, 7155.510
466.394, 7945.012
467.728, 8758.604
469.063, 9736.586
470.397, 10973.421
471.731, 12494.546
473.065, 14324.852
474.398, 16134.120
475.732, 18053.984
477.065, 19724.654
478.398, 20989.455
479.731, 22219.422
481.063, 21954.258
482.396, 22594.910
483.728, 21407.633
485.060, 19870.541
486.391, 19353.859
487.723, 17373.094
489.054, 16773.080
490.385, 16375.891
491.716, 15674.355
493.047, 16692.770
494.377, 17485.520
495.708, 19292.445
497.038, 21195.111
498.368, 24544.664
499.697, 28071.367
501.027, 31386.209
502.356, 35628.402
503.685, 38564.184
505.014, 42057.113
506.342, 44446.844
507.671, 45324.023
508.999, 46501.094
510.327, 45655.590
511.655, 44038.832
512.982, 41700.344
514.310, 37399.703
515.637, 33500.680
516.964, 28870.092
518.291, 25527.244
519.617, 21261.076
520.944, 18263.393
522.270, 16012.699
523.596, 13665.116
524.921, 11953.527
526.247, 10286.006
527.572, 9037.737
528.897, 8044.887
530.222, 6962.025
531.547, 6190.459
532.871, 5511.560
534.196, 5093.025
535.520, 4865.079
536.844, 4319.982
538.167, 4292.453
539.491, 3951.842
540.814, 4043.152
542.137, 3825.706
543.460, 3548.420
544.783, 4205.027
546.105, 3725.063
547.427, 3947.018
548.749, 3931.922
550.071, 3867.761
551.393, 4133.561
552.714, 3943.267
554.035, 3840.930
555.356, 4222.548
556.677, 4071.123
557.998, 4388.620
559.318, 4614.027
560.638, 4982.390
561.958, 5493.688
563.278, 5934.966
564.597, 6344.158
565.917, 6408.304
567.236, 6084.403
568.555, 6162.439
569.874, 5460.425
571.192, 5140.344
572.511, 4518.209
573.829, 3870.993
575.147, 3495.713
576.464, 2775.354
577.782, 2568.921
579.099, 1955.408
580.416, 1927.819
581.733, 1661.152
583.050, 1444.409
584.366, 1124.590
585.683, 1153.694
586.999, 1036.719
588.315, 940.665
589.630, 892.388
590.946, 897.563
592.261, 721.279
593.576, 729.916
594.891, 544.478
596.206, 789.953
597.520, 783.354
598.834, 462.678
600.148, 526.915
601.462, 407.069
602.776, 508.138
604.089, 583.123
605.402, 388.026
606.715, 382.845
608.028, 256.576
609.341, 102.215
610.653, 127.758
611.965, 43.206
613.277, 64.556
614.589, 2.189
615.901, 167.963
617.212, 20.976
618.523, 117.979
619.834, 143.160
621.145, 98.462
622.456, 25.902
623.766, 116.447
625.076, 106.859
626.386, 1.926
627.696, 123.805
629.006, 16.172
630.315, 165.930
631.624, 81.807
632.933, 31.531
634.242, 34.047
635.551, 60.600
636.859, 88.877
638.167, 62.562
639.475, 95.035
640.783, 42.492
642.090, 101.994
643.398, 128.492
644.705, 109.984
646.012, 211.436
647.318, 36.838
648.625, 256.219
649.931, 28.537
651.237, 321.793
652.543, 96.992
653.849, 136.119
655.155, 266.180
656.460, 138.182
657.765, 38.879
659.070, 310.984
660.375, 55.807
661.679, 51.570
662.984, 133.287
664.288, 62.969
665.592, 238.609
666.895, 72.264
668.199, 169.941
669.502, 111.635
670.805, 632.996
672.108, 246.508
673.411, 245.936
674.713, 492.633
676.016, 323.293
677.318, 487.027
678.620, 587.367
679.921, 533.342
681.223, 612.371
682.524, 705.902
683.825, 661.473
685.126, 903.082
686.427, 777.467
687.727, 851.572
689.028, 857.119
690.328, 837.508
691.628, 866.961
692.927, 774.447
694.227, 1048.822
695.526, 784.664
696.825, 872.607
698.124, 837.428
699.423, 1084.439
700.721, 1183.051
702.020, 1136.592
703.318, 938.812
704.616, 1161.510
705.913, 1333.889
707.211, 1488.373
708.508, 1457.082
709.805, 1560.982
711.102, 1663.291
712.399, 2156.518
713.695, 3024.574
714.992, 2014.465
716.288, 2339.828
717.584, 2497.111
718.879, 2296.748
720.175, 2148.531
721.470, 2053.277
722.765, 2152.537
724.060, 2245.447
725.355, 2098.115
726.649, 2327.473
727.944, 2240.635
729.238, 2244.537
730.532, 2638.602
731.825, 2479.535
733.119, 2484.922
734.412, 2893.885
735.705, 2976.229
736.998, 2854.510
738.291, 3138.014
739.584, 3487.730
740.876, 3569.822
742.168, 3855.852
743.460, 3719.820
744.752, 3819.729
746.043, 4042.574
747.334, 3870.361
748.626, 4206.996
749.916, 4277.621
751.207, 4215.422
752.498, 4365.967
753.788, 4466.447
755.078, 4412.770
756.368, 4571.316
757.658, 4476.312
758.947, 4817.689
760.237, 4824.334
761.526, 4774.119
762.815, 5202.840
764.104, 5155.984
765.392, 5121.441
766.680, 5447.963
767.969, 5346.090
769.257, 5315.264
770.544, 5498.988
771.832, 5297.508
773.119, 5539.664
774.406, 5146.895
775.693, 5326.535
776.980, 5238.969
778.267, 5172.844
779.553, 5241.121
780.839, 5076.113
782.125, 5062.520
783.411, 5115.311
784.697, 5351.816
785.982, 5513.951
787.267, 5672.664
788.552, 6161.160
789.837, 6328.605
791.122, 6586.133
792.406, 6371.965
793.690, 6903.434
794.974, 6819.006
796.258, 6272.328
797.542, 6335.863
798.825, 5839.477
800.108, 5696.975
801.391, 5014.867
802.674, 4670.994
803.957, 4166.004
805.239, 3675.031
806.522, 3520.248
807.804, 3049.490
809.085, 2878.865
810.367, 2631.750
811.649, 2094.066
812.930, 2032.752
814.211, 2016.727
815.492, 1683.602
816.772, 1227.424
818.053, 1189.561
819.333, 1405.367
820.613, 995.877
821.893, 561.660
823.173, 493.816
824.452, 334.697
825.732, 305.316
827.011, 344.682
828.290, 287.002
829.568, 76.314
830.847, 76.865
832.125, 35.049
833.403, 60.318
834.681, 63.479
835.959, 71.393
837.236, 33.570
838.514, 72.535
839.791, 616.230
841.068, 53.953
842.345, 88.395
843.621, 11.127
844.898, 72.428
846.174, 26.105
847.450, 152.881
848.726, 33.822
850.001, 52.865
851.277, 132.018
852.552, 168.322
853.827, 59.205
855.102, 52.330
856.376, 16.973
857.651, 137.703
858.925, 70.586
860.199, 153.582
861.473, 174.262
862.746, 131.947
864.020, 124.301
865.293, 140.797
866.566, 10.441
867.839, 42.836
869.112, 116.945
870.384, 69.857
871.656, 220.879
872.928, 235.912
874.200, 115.342
875.472, 109.727
876.744, 24.236
878.015, 72.822
879.286, 18.512
880.557, 53.277
881.828, 316.865
883.098, 1.031
884.369, 271.006
885.639, 145.004
886.909, 226.957
888.178, 423.865
889.448, 353.738
890.717, 280.576
891.987, 211.375
893.256, 528.166
894.524, 566.920
895.793, 551.639
897.061, 802.344
898.330, 626.018
899.598, 820.658
900.865, 1083.273
902.133, 876.855
903.401, 1078.410
904.668, 1061.938
905.935, 1232.434
907.202, 1465.902
908.468, 1460.346
909.735, 1371.766
911.001, 1636.162
912.267, 1865.535
913.533, 1812.885
914.799, 1844.213
916.064, 1845.520
917.330, 1984.812
918.595, 2124.090
919.860, 2129.354
921.124, 2144.604
922.389, 2120.844
923.653, 2105.078
924.918, 2142.297
926.182, 2035.510
927.445, 2219.738
928.709, 2154.986
929.972, 2170.250
931.236, 2328.512
932.499, 2138.791
933.761, 2298.059
935.024, 2133.322
936.286, 2488.609
937.549, 2550.891
938.811, 2602.207
940.073, 2236.516
941.334, 2446.830
942.596, 2538.141
943.857, 2652.445
945.118, 2642.764
946.379, 2896.082
947.640, 2541.398
948.900, 2738.713
950.161, 2958.025
951.421, 2999.357
952.681, 3010.662
953.940, 3339.951
955.200, 3155.221
956.459, 3668.473
957.719, 4006.709
958.978, 4038.926
960.236, 3808.123
961.495, 4198.305
962.753, 3875.469
964.012, 4587.613
965.270, 4784.754
966.527, 4717.871
967.785, 5041.977
969.043, 5202.066
970.300, 5643.141
971.557, 5512.207
972.814, 5883.254
974.071, 6336.293
975.327, 6114.316
976.583, 6648.695
977.840, 6515.938
979.095, 6709.344
980.351, 6293.504
981.607, 6409.779
982.862, 6625.057
984.117, 6215.809
985.372, 6227.014
986.627, 5961.219
987.882, 5953.939
989.136, 5793.656
990.390, 5688.336
991.644, 5302.250
992.898, 5177.438
994.152, 5133.184
995.405, 4958.066
996.659, 5155.867
997.912, 4892.604
999.165, 4989.414
1000.417, 4794.734
1001.670, 4811.898
1002.922, 4804.133
1004.174, 4332.135
1005.426, 4748.496
1006.678, 4129.873
1007.930, 4148.525
1009.181, 4447.654
1010.432, 4151.055
1011.683, 4453.305
1012.934, 4320.283
1014.185, 3970.023
1015.435, 4346.312
1016.685, 3910.643
1017.935, 3968.098
1019.185, 4208.670
1020.435, 3685.730
1021.684, 4243.832
1022.934, 3837.539
1024.183, 3510.055
1025.432, 4326.568
1026.680, 3611.529
1027.929, 3919.799
1029.177, 3969.273
1030.425, 3748.023
1031.673, 3766.930
1032.921, 3902.062
1034.169, 3763.000
1035.416, 4267.035
1036.663, 3537.592
1037.911, 4202.541
1039.157, 3570.084
1040.404, 3889.662
1041.650, 4071.994
1042.897, 3859.320
1044.143, 4163.020
1045.389, 4002.762
1046.634, 3908.025
1047.880, 3993.859
1049.125, 3974.820
1050.371, 3689.129
1051.615, 4265.107
1052.860, 3779.416
1054.105, 4165.496
1055.349, 3789.635
1056.593, 3896.312
1057.837, 4029.561
1059.081, 3680.953
1060.325, 3876.385
1061.568, 3856.816
1062.812, 3665.311
1064.055, 3743.873
1065.298, 3815.504
1066.540, 3510.625
1067.783, 3810.402
1069.025, 3381.256
1070.267, 3641.191
1071.509, 3696.205
1072.751, 3283.309
1073.993, 3465.332
1075.234, 3395.324
1076.475, 3410.104
1077.716, 3455.211
1078.957, 3295.400
1080.198, 3229.691
1081.438, 3045.029
1082.679, 3004.453
1083.919, 3388.965
1085.159, 3045.549
1086.398, 2985.877
1087.638, 3175.637
1088.877, 2643.500
1090.116, 3109.658
1091.355, 3281.410
1092.594, 2718.252
1093.833, 3224.184
1095.071, 2457.137
1096.309, 2647.234
1097.547, 3111.334
1098.785, 2302.559
1100.023, 2626.301
1101.260, 2420.547
1102.498, 2473.658
1103.735, 2664.768
1104.972, 2407.885
1106.208, 2111.998
1107.445, 2398.113
1108.681, 2230.232
1109.918, 2401.355
1111.154, 1943.480
1112.389, 1848.615
1113.625, 2303.754
1114.860, 1613.912
1116.096, 1794.094
1117.331, 1671.320
1118.566, 1246.623
1119.800, 2052.074
1121.035, 1479.637
1122.269, 1524.279
1123.503, 1614.066
1124.737, 1119.043
1125.971, 1383.215
1127.205, 1312.648
1128.438, 899.244
1129.671, 1152.031
1130.904, 627.078
1132.137, 1039.312
1133.370, 1099.850
1134.602, 819.562
1135.834, 1054.500
1137.066, 1202.734
1138.298, 620.211
1139.530, 719.912
1140.762, 927.816
1141.993, 230.857
1143.224, 1121.006
1144.455, 331.250
1145.686, 900.584
1146.917, 606.924
1148.147, 666.314
1149.377, 1077.764
1150.607, 461.273
1151.837, 689.863
1153.067, 873.531
1154.296, 490.277
1155.526, 692.105
1156.755, 678.016
1157.984, 530.004
1159.213, 662.068
1160.441, 509.209
1161.670, 328.428
1162.898, 664.684
1164.126, 307.975
1165.354, 731.342
1166.581, 297.781
1167.809, 443.287
1169.036, 442.857
1170.263, 292.492
1171.490, 707.195
1172.717, 395.955
1173.943, 543.771
1175.170, 586.609
1176.396, 423.656
1177.622, 356.902
1178.848, 596.365
1180.073, 420.047
1181.299, 287.965
1182.524, 436.125
1183.749, 120.545
1184.974, 639.221
1186.199, 899.166
1187.423, 222.377
1188.648, 569.855
1189.872, 212.404
1191.096, 392.592
1192.320, 167.844
1193.543, 142.660
1194.767, 602.072
1195.990, 27.045
1197.213, 49.744
1198.436, 510.719
1199.659, 5.447
1200.881, 240.453
1202.104, 213.750
1203.326, 1.652
1204.548, 471.266
1205.770, 100.518
1206.991, 116.131
1208.213, 582.129
1209.434, 169.533
1210.655, 227.381
1211.876, 263.701
1213.096, 91.533
1214.317, 513.893
1215.537, 404.799
1216.757, 264.279
1217.977, 578.346
1219.197, 192.285
1220.417, 506.977
1221.636, 533.311
1222.855, 111.631
1224.074, 507.232
1225.293, 419.125
1226.512, 288.086
1227.731, 733.479
1228.949, 424.178
1230.167, 603.111
1231.385, 674.479
1232.603, 226.186
1233.820, 585.531
1235.038, 1093.396
1236.255, 280.035
1237.472, 815.479
1238.689, 566.150
1239.906, 464.090
1241.122, 890.619
1242.338, 245.533
1243.555, 789.209
1244.771, 770.617
1245.986, 2.520
1247.202, 0.000
##END=



