##NAMES=Anorthite
##RRUFFID=R040059
##IDEAL CHEMISTRY=CaAl_2_Si_2_O_8_
##LOCALITY=Miyakejima, Japan
##OWNER=RRUFF
##SOURCE=University of Arizona Mineral Museum
##DESCRIPTION=Colorless fragments of crystals
##STATUS=The identification of this mineral has been confirmed by X-ray diffraction and chemical analysis
##URL=rruff.info/R040059
##MEASURED CHEMISTRY=(Ca_0.94_Na_0.04_Fe_0.02_)(Al_0.98_Si_0.02_)_2_Si_2.00_O_8_
##PIN_ID=M00328
##ORIENTATION=Laser parallel to (-1 0 -1). Fiducial mark perpendicular to laser is parallel to -b [0 -1 0]
125.910, 0.000
127.300, 11.365
128.690, 62.445
130.080, 36.365
131.469, 449.571
132.858, 263.511
134.248, 721.148
135.636, 919.558
137.025, 1466.583
138.413, 1960.608
139.801, 2440.592
141.189, 3315.678
142.577, 4115.156
143.964, 5068.410
145.352, 5434.889
146.739, 5714.112
148.125, 5245.674
149.512, 4439.317
150.898, 3904.950
152.284, 2633.000
153.670, 2202.932
155.056, 1434.308
156.441, 1457.150
157.827, 1061.393
159.212, 756.799
160.596, 983.151
161.981, 1000.279
163.365, 1328.039
164.749, 1376.314
166.133, 1955.010
167.517, 2294.047
168.900, 2833.354
170.283, 3222.883
171.666, 3433.014
173.049, 4104.573
174.431, 4457.246
175.813, 5209.827
177.195, 5856.257
178.577, 6554.230
179.959, 7786.893
181.340, 8511.155
182.721, 9596.701
184.102, 10343.127
185.483, 11020.750
186.863, 11149.729
188.244, 10808.885
189.624, 11077.577
191.003, 10135.741
192.383, 10233.417
193.762, 9430.628
195.141, 8637.402
196.520, 7983.762
197.899, 6749.734
199.277, 6255.333
200.656, 4990.580
202.034, 4505.492
203.411, 3880.081
204.789, 3404.362
206.166, 3068.352
207.543, 2682.061
208.920, 2465.496
210.297, 2128.680
211.673, 1931.631
213.049, 1594.421
214.425, 1337.078
215.801, 1254.451
217.176, 821.028
218.552, 676.129
219.927, 588.919
221.302, 376.696
222.676, 437.994
224.051, 88.886
225.425, 269.758
226.799, 79.391
228.173, 161.441
229.546, 86.673
230.919, 153.458
232.292, 82.251
233.665, 25.112
235.038, 365.139
236.410, 334.296
237.782, 745.174
239.154, 741.584
240.526, 894.373
241.898, 1462.759
243.269, 1370.429
244.640, 1949.552
246.011, 1748.757
247.381, 2095.883
248.752, 2109.693
250.122, 2142.661
251.492, 2329.496
252.861, 2085.820
254.231, 2432.161
255.600, 2418.515
256.969, 2684.873
258.338, 2791.230
259.707, 2617.576
261.075, 2753.882
262.443, 2690.164
263.811, 3036.438
265.179, 2852.693
266.546, 2948.929
267.914, 3085.135
269.281, 3071.309
270.647, 3267.443
272.014, 3233.540
273.380, 3649.599
274.747, 3435.618
276.113, 3521.601
277.478, 3857.546
278.844, 3823.453
280.209, 4249.324
281.574, 4195.160
282.939, 4280.959
284.304, 4456.722
285.668, 4272.447
287.032, 4468.139
288.396, 3843.794
289.760, 3899.415
291.123, 3315.317
292.487, 2841.586
293.850, 2618.155
295.212, 1983.887
296.575, 1871.548
297.937, 1229.616
299.300, 1068.014
300.662, 566.687
302.023, 325.593
303.385, 404.700
304.746, 16.025
306.107, 263.382
307.468, 97.089
308.829, 2.508
310.189, 57.815
311.549, 11.842
312.909, 58.382
314.269, 108.644
315.629, 71.138
316.988, 150.948
318.347, 260.854
319.706, 640.777
321.065, 660.711
322.423, 870.648
323.781, 740.583
325.139, 900.514
326.497, 930.432
327.855, 490.333
329.212, 470.218
330.569, 120.079
331.926, 229.918
333.283, 119.731
334.639, 89.514
335.995, 39.266
337.351, 61.028
338.707, 41.363
340.063, 61.769
341.418, 162.260
342.773, 122.876
344.128, 203.559
345.483, 35.672
346.837, 245.161
348.192, 83.869
349.546, 52.860
350.899, 188.230
352.253, 39.462
353.606, 70.799
354.960, 117.756
356.313, 123.760
357.665, 75.396
359.018, 207.138
360.370, 119.019
361.722, 71.015
363.074, 115.999
364.426, 75.380
365.777, 117.749
367.128, 89.772
368.479, 77.234
369.830, 75.364
371.181, 201.940
372.531, 29.195
373.881, 286.385
375.231, 393.525
376.581, 440.622
377.930, 737.676
379.280, 724.659
380.629, 1101.534
381.977, 968.303
383.326, 974.847
384.674, 791.277
386.023, 527.670
387.370, 854.024
388.718, 550.342
390.066, 505.385
391.413, 591.629
392.760, 466.396
394.107, 718.955
395.454, 525.000
396.800, 900.907
398.146, 826.602
399.492, 942.133
400.838, 1137.496
402.184, 1072.707
403.529, 1427.778
404.874, 1362.735
406.219, 1367.490
407.564, 1482.081
408.908, 1076.424
410.252, 1320.653
411.596, 1064.786
412.940, 1058.867
414.284, 902.926
415.627, 596.965
416.970, 840.984
418.313, 524.982
419.656, 808.961
420.999, 892.920
422.341, 996.858
423.683, 1440.776
425.025, 1654.674
426.367, 2088.551
427.708, 2012.408
429.049, 2436.243
430.390, 2470.059
431.731, 2183.854
433.072, 2237.628
434.412, 1941.383
435.752, 2285.117
437.092, 2008.830
438.432, 1892.523
439.772, 2136.195
441.111, 1539.848
442.450, 1813.480
443.789, 1267.094
445.127, 1100.686
446.466, 1154.258
447.804, 947.810
449.142, 931.342
450.480, 804.854
451.817, 928.347
453.155, 991.821
454.492, 995.308
455.829, 1419.923
457.166, 1413.335
458.502, 1928.918
459.838, 1682.271
461.175, 1975.594
462.510, 2049.183
463.846, 1832.437
465.181, 2175.655
466.517, 2066.191
467.852, 2539.335
469.186, 2914.541
470.521, 3175.871
471.855, 3843.286
473.190, 3748.628
474.523, 4666.143
475.857, 5219.287
477.191, 6011.590
478.524, 7160.973
479.857, 7744.908
481.190, 9588.035
482.523, 10851.493
483.855, 12244.446
485.187, 14548.377
486.519, 14441.159
487.851, 14903.742
489.183, 13916.761
490.514, 12939.301
491.845, 12291.793
493.176, 11874.177
494.507, 12456.020
495.837, 13088.377
497.168, 15408.899
498.498, 17941.311
499.828, 20557.217
501.157, 24994.336
502.487, 26884.438
503.816, 29530.920
505.145, 29454.543
506.474, 27485.326
507.802, 25959.498
509.131, 21997.596
510.459, 19547.721
511.787, 16673.834
513.115, 14748.771
514.442, 13531.701
515.770, 11412.826
517.097, 10592.296
518.424, 9374.690
519.750, 8768.711
521.077, 9168.230
522.403, 8230.671
523.729, 8965.324
525.055, 8687.350
526.381, 8296.623
527.706, 8006.882
529.031, 6906.777
530.356, 6528.500
531.681, 5140.027
533.006, 4758.020
534.330, 3789.833
535.654, 3402.018
536.978, 3184.170
538.302, 2626.294
539.625, 2378.387
540.949, 2290.457
542.272, 2192.494
543.595, 2504.502
544.917, 2256.481
546.240, 2548.432
547.562, 3030.351
548.884, 3192.238
550.206, 3754.105
551.527, 3956.261
552.849, 4858.073
554.170, 5299.875
555.491, 5911.645
556.812, 6193.383
558.132, 6585.098
559.453, 6536.781
560.773, 6038.441
562.093, 5920.072
563.412, 6071.678
564.732, 4663.383
566.051, 4574.936
567.370, 3596.465
568.689, 3627.971
570.008, 2939.453
571.326, 2180.910
572.644, 2032.346
573.963, 1473.760
575.280, 1495.148
576.598, 1056.516
577.915, 1077.859
579.233, 849.178
580.550, 580.475
581.866, 751.748
583.183, 732.996
584.499, 674.221
585.815, 925.422
587.131, 576.600
588.447, 1117.754
589.763, 888.885
591.078, 1029.990
592.393, 1431.072
593.708, 1212.131
595.022, 1683.164
596.337, 1394.174
597.651, 1435.160
598.965, 1686.121
600.279, 1577.055
601.593, 1537.969
602.906, 1018.855
604.219, 1069.719
605.532, 900.555
606.845, 511.369
608.158, 722.158
609.470, 352.922
610.782, 283.660
612.094, 244.375
613.406, 5.062
614.718, 495.713
616.029, 23.658
617.340, 286.916
618.651, 507.469
619.962, 177.994
621.272, 638.494
622.582, 378.967
623.892, 679.414
625.202, 729.854
626.512, 390.266
627.821, 760.688
629.131, 331.096
630.440, 321.508
631.749, 151.971
633.057, 137.568
634.366, 273.127
635.674, 256.500
636.982, 3.701
638.290, 153.869
639.597, 64.006
640.905, 175.076
642.212, 4.846
643.519, 195.355
644.825, 284.266
646.132, 134.254
647.438, 414.102
648.744, 124.811
650.050, 245.164
651.356, 406.119
652.662, 56.566
653.967, 481.656
655.272, 96.975
656.577, 233.881
657.882, 10.223
659.186, 160.475
660.490, 49.867
661.794, 85.178
663.098, 84.438
664.402, 37.436
665.705, 61.109
667.009, 602.062
668.312, 246.031
669.614, 616.361
670.917, 584.670
672.219, 674.225
673.522, 1484.883
674.824, 1105.217
676.125, 1715.195
677.427, 1962.293
678.728, 2223.379
680.030, 2596.594
681.331, 2444.547
682.631, 2654.537
683.932, 2396.199
685.232, 2126.580
686.532, 2116.742
687.832, 1796.678
689.132, 1906.373
690.432, 1436.484
691.731, 1236.127
693.030, 1396.062
694.329, 926.227
695.628, 1035.762
696.926, 1066.996
698.224, 636.461
699.522, 1095.889
700.820, 455.463
702.118, 884.820
703.415, 734.178
704.713, 563.463
706.010, 742.713
707.307, 331.928
708.603, 821.104
709.900, 610.246
711.196, 669.352
712.492, 728.420
713.788, 507.580
715.083, 836.580
716.379, 655.543
717.674, 634.471
718.969, 663.363
720.264, 372.223
721.558, 531.043
722.853, 699.832
724.147, 608.584
725.441, 627.301
726.735, 555.984
728.028, 654.631
729.322, 653.244
730.615, 751.820
731.908, 700.367
733.201, 1048.877
734.493, 1237.354
735.785, 1245.795
737.078, 1504.201
738.370, 1792.576
739.661, 1580.916
740.953, 2139.223
742.244, 2267.496
743.535, 1945.734
744.826, 2343.939
746.117, 1672.115
747.407, 1910.258
748.698, 1958.365
749.988, 1526.441
751.278, 2084.484
752.567, 1622.496
753.857, 1760.475
755.146, 2028.420
756.435, 2006.336
757.724, 2444.221
759.013, 2542.068
760.301, 2809.889
761.590, 3037.045
762.878, 3085.434
764.165, 3373.158
765.453, 3290.852
766.741, 3328.514
768.028, 3106.109
769.315, 2882.525
770.602, 2960.094
771.888, 2415.434
773.175, 2422.943
774.461, 2180.420
775.747, 1717.566
777.033, 1794.984
778.319, 1442.373
779.604, 1129.732
780.889, 1007.061
782.174, 934.361
783.459, 1121.633
784.744, 808.873
786.028, 486.086
787.312, 752.873
788.596, 260.713
789.880, 537.832
791.164, 438.148
792.447, 314.066
793.730, 560.723
795.013, 86.982
796.296, 583.670
797.579, 269.311
798.861, 73.969
800.143, 462.842
801.425, 90.852
802.707, 115.816
803.989, 191.908
805.270, 111.523
806.551, 154.959
807.832, 179.453
809.113, 46.838
810.394, 55.311
811.674, 198.645
812.954, 274.664
814.234, 441.477
815.514, 31.816
816.794, 245.457
818.073, 169.918
819.352, 13.832
820.631, 177.941
821.910, 32.631
823.189, 42.215
824.467, 262.570
825.745, 232.459
827.023, 302.535
828.301, 32.270
829.578, 117.041
830.856, 248.209
832.133, 6.363
833.410, 29.102
834.687, 104.627
835.963, 139.752
837.240, 165.893
838.516, 38.332
839.792, 82.531
841.068, 143.295
842.343, 390.768
843.618, 74.807
844.894, 208.820
846.169, 92.814
847.443, 26.787
848.718, 280.732
849.992, 15.342
851.266, 218.547
852.540, 382.416
853.814, 106.266
855.088, 410.096
856.361, 133.908
857.634, 307.701
858.907, 771.482
860.180, 345.244
861.453, 498.672
862.725, 312.400
863.997, 436.113
865.269, 639.814
866.541, 83.500
867.812, 567.168
869.084, 440.838
870.355, 394.496
871.626, 418.141
872.897, 471.773
874.167, 495.266
875.438, 888.871
876.708, 302.463
877.978, 736.045
879.248, 689.613
880.517, 533.168
881.787, 936.715
883.056, 500.248
884.325, 1173.771
885.594, 887.305
886.862, 1040.828
888.130, 1074.344
889.399, 977.943
890.667, 1331.533
891.934, 1425.117
893.202, 1148.703
894.469, 1582.281
895.737, 1235.895
897.004, 1559.500
898.270, 1603.100
899.537, 1446.742
900.803, 1990.379
902.070, 1374.023
903.336, 2057.662
904.601, 2041.297
905.867, 1744.928
907.132, 2108.553
908.398, 2172.178
909.663, 2295.797
910.928, 2389.414
912.192, 2153.029
913.457, 2247.094
914.721, 2320.256
915.985, 2143.871
917.249, 2147.480
918.512, 2041.090
919.776, 2144.701
921.039, 2158.311
922.302, 1471.928
923.565, 2325.543
924.827, 1729.172
926.090, 1982.801
927.352, 2006.434
928.614, 1950.066
929.876, 2363.717
931.138, 2047.369
932.399, 2251.025
933.660, 3074.686
934.922, 2438.346
936.182, 3162.008
937.443, 3165.676
938.704, 3269.348
939.964, 4043.027
941.224, 3326.449
942.484, 3820.178
943.744, 3823.984
945.003, 3557.803
946.262, 4361.627
947.521, 3814.494
948.780, 4258.334
950.039, 4182.027
951.298, 4126.990
952.556, 4780.855
953.814, 4634.844
955.072, 4537.953
956.330, 5171.402
957.587, 4414.232
958.845, 4737.557
960.102, 4426.254
961.359, 4398.668
962.615, 4531.574
963.872, 4319.457
965.128, 4363.496
966.384, 4756.668
967.640, 4825.771
968.896, 5129.969
970.152, 5490.781
971.407, 5613.201
972.662, 6523.857
973.917, 6113.719
975.172, 6857.277
976.427, 6812.879
977.681, 6747.262
978.935, 7030.539
980.189, 6154.180
981.443, 6648.211
982.697, 6045.193
983.950, 5698.234
985.203, 5709.182
986.456, 5105.494
987.709, 4949.809
988.962, 4532.496
990.214, 3916.498
991.467, 4370.723
992.719, 3775.211
993.971, 3619.982
995.222, 3864.350
996.474, 3449.178
997.725, 3613.707
998.976, 3958.004
1000.227, 3832.918
1001.478, 4686.133
1002.728, 4251.109
1003.978, 3766.111
1005.229, 3880.961
1006.479, 3186.020
1007.728, 3501.170
1008.978, 3266.857
1010.227, 2882.105
1011.476, 3207.404
1012.725, 2732.734
1013.974, 2908.152
1015.223, 3043.598
1016.471, 2449.080
1017.719, 3184.467
1018.967, 2823.803
1020.215, 2579.375
1021.462, 3064.975
1022.710, 2540.604
1023.957, 2766.264
1025.204, 2551.953
1026.451, 2137.672
1027.697, 2753.449
1028.944, 1929.254
1030.190, 2025.088
1031.436, 2210.959
1032.682, 1606.855
1033.928, 2062.789
1035.173, 1953.037
1036.418, 1709.029
1037.663, 2195.098
1038.908, 1693.352
1040.153, 2429.477
1041.398, 2035.715
1042.642, 1813.957
1043.886, 2380.256
1045.130, 1885.791
1046.374, 1822.166
1047.617, 2498.596
1048.860, 1906.773
1050.104, 2563.266
1051.347, 2332.338
1052.589, 1909.092
1053.832, 2345.695
1055.074, 1802.730
1056.316, 2299.387
1057.558, 1786.078
1058.800, 1622.988
1060.042, 1959.744
1061.283, 1706.881
1062.524, 1664.498
1063.765, 1961.391
1065.006, 1378.918
1066.247, 1905.957
1067.487, 1763.023
1068.728, 1380.482
1069.968, 2047.609
1071.208, 1434.764
1072.447, 1652.488
1073.687, 1809.697
1074.926, 1647.164
1076.165, 1924.457
1077.404, 1811.773
1078.643, 1492.604
1079.881, 1910.053
1081.120, 1487.531
1082.358, 1655.283
1083.596, 1702.832
1084.834, 1330.420
1086.071, 1798.035
1087.309, 1475.674
1088.546, 1134.180
1089.783, 1281.885
1091.020, 799.613
1092.256, 1377.461
1093.493, 1065.236
1094.729, 593.039
1095.965, 1030.861
1097.201, 708.713
1098.436, 536.582
1099.672, 824.475
1100.907, 332.426
1102.142, 740.598
1103.377, 568.643
1104.612, 397.326
1105.846, 1315.422
1107.081, 413.588
1108.315, 548.357
1109.549, 636.637
1110.782, 194.941
1112.016, 973.777
1113.249, 222.199
1114.483, 260.643
1115.716, 819.242
1116.948, 287.887
1118.181, 766.549
1119.413, 715.289
1120.646, 354.055
1121.878, 1192.900
1123.110, 551.783
1124.341, 920.686
1125.573, 889.686
1126.804, 478.699
1128.035, 667.820
1129.266, 946.961
1130.497, 326.119
1131.727, 956.311
1132.957, 505.586
1134.188, 584.891
1135.418, 664.469
1136.647, 403.844
1137.877, 631.020
1139.106, 770.477
1140.335, 159.947
1141.564, 551.186
1142.793, 510.725
1144.022, 80.594
1145.250, 691.127
1146.479, 30.693
1147.707, 251.221
1148.934, 181.658
1150.162, 121.260
1151.390, 691.232
1152.617, 40.848
1153.844, 130.889
1155.071, 593.213
1156.298, 37.158
1157.524, 403.438
1158.751, 89.248
1159.977, 318.877
1161.203, 561.697
1162.428, 101.326
1163.654, 223.471
1164.879, 463.242
1166.105, 137.131
1167.330, 432.707
1168.555, 52.529
1169.779, 242.113
1171.004, 352.371
1172.228, 121.947
1173.452, 201.520
1174.676, 297.986
1175.900, 67.549
1177.123, 547.107
1178.346, 78.137
1179.570, 67.682
1180.793, 428.748
1182.015, 131.721
1183.238, 257.764
1184.460, 298.270
1185.683, 422.266
1186.905, 747.266
1188.126, 47.119
1189.348, 63.637
1190.569, 66.988
1191.791, 199.098
1193.012, 280.006
1194.233, 175.412
1195.453, 233.412
1196.674, 475.547
1197.894, 67.385
1199.114, 31.520
1200.334, 490.404
1201.554, 0.033
1202.774, 438.816
1203.993, 279.611
1205.212, 51.457
1206.431, 440.252
1207.650, 43.191
1208.869, 7.480
1210.087, 271.248
1211.305, 22.654
1212.524, 291.338
1213.741, 490.891
1214.959, 71.863
1216.177, 760.480
1217.394, 300.457
1218.611, 39.910
1219.828, 788.469
1221.045, 135.209
1222.261, 553.717
1223.478, 692.211
1224.694, 38.834
1225.910, 609.578
1227.126, 429.209
1228.342, 172.994
1229.557, 611.328
1230.772, 373.273
1231.987, 662.703
1233.202, 600.957
1234.417, 54.062
1235.631, 612.270
1236.846, 510.469
1238.060, 239.586
1239.274, 917.768
1240.488, 306.805
1241.701, 414.969
1242.915, 703.119
1244.128, 301.258
1245.341, 699.355
1246.554, 637.439
1247.767, 246.795
1248.979, 1054.854
1250.191, 152.900
1251.403, 651.908
1252.615, 1029.926
1253.827, 52.070
1255.039, 746.688
1256.250, 724.625
1257.461, 202.793
1258.672, 890.695
1259.883, 538.541
1261.094, 518.266
1262.304, 516.010
1263.514, 343.730
1264.724, 821.568
1265.934, 739.232
1267.144, 917.057
1268.354, 1864.549
1269.563, 771.975
1270.772, 519.303
1271.981, 1056.588
1273.190, 473.846
1274.398, 751.523
1275.607, 1068.719
1276.815, 155.889
1278.023, 903.805
1279.231, 710.857
1280.439, 339.082
1281.646, 876.064
1282.853, 37.055
1284.060, 479.932
1285.267, 906.568
1286.474, 96.857
1287.681, 509.990
1288.887, 336.332
1290.093, 182.635
1291.299, 948.895
1292.505, 195.084
1293.711, 221.127
1294.916, 737.129
1296.121, 342.924
1297.327, 538.650
1298.531, 334.328
1299.736, 260.045
1300.941, 885.377
1302.145, 210.115
1303.349, 5.271
1304.553, 720.305
1305.757, 104.752
1306.961, 580.045
1308.164, 94.789
1309.367, 419.463
1310.570, 624.072
1311.773, 394.836
1312.976, 399.334
1314.178, 703.764
1315.381, 298.127
1316.583, 662.426
1317.785, 646.656
1318.987, 0.820
1320.188, 904.867
1321.390, 1228.854
1322.591, 172.770
1323.792, 876.609
1324.993, 170.383
1326.193, 474.084
1327.394, 663.426
1328.594, 63.025
1329.794, 610.391
1330.994, 391.576
1332.194, 225.152
1333.394, 717.953
1334.593, 169.018
1335.792, 31.980
1336.991, 905.668
1338.190, 1.523
1339.389, 111.193
1340.587, 622.123
1341.786, 35.289
1342.984, 564.686
1344.182, 596.947
1345.379, 279.332
1346.577, 671.250
1347.774, 113.518
1348.972, 65.721
1350.169, 657.678
1351.365, 130.240
1352.562, 311.434
1353.759, 852.600
1354.955, 265.529
1356.151, 935.684
1357.347, 237.367
1358.543, 99.006
1359.738, 790.238
1360.934, 174.482
1362.129, 245.996
1363.324, 1046.936
1364.519, 31.611
1365.713, 789.586
1366.908, 912.391
1368.102, 226.248
1369.296, 551.617
1370.490, 193.051
1371.684, 14.061
1372.877, 564.609
1374.071, 56.596
1375.264, 207.043
1376.457, 887.082
1377.650, 26.182
1378.843, 810.945
1380.035, 676.375
1381.227, 241.838
1382.419, 1177.240
1383.611, 262.586
1384.803, 757.664
1385.995, 782.223
1387.186, 577.361
1388.377, 755.314
1389.568, 949.707
1390.759, 214.574
1391.950, 1089.357
1393.140, 924.076
1394.331, 258.721
1395.521, 1343.303
1396.711, 607.818
1397.900, 302.270
1399.090, 1315.541
1400.279, 439.838
1401.469, 723.795
1402.658, 898.562
1403.847, 158.197
1405.035, 1181.572
1406.224, 524.057
1407.412, 455.410
1408.600, 988.488
1409.788, 451.420
1410.976, 535.191
1412.164, 1038.789
1413.351, 464.055
1414.538, 573.281
1415.725, 895.609
1416.912, 347.455
1418.099, 1088.963
1419.285, 781.348
1420.472, 253.805
1421.658, 1183.824
1422.844, 203.662
1424.030, 785.686
1425.215, 1141.109
1426.401, 341.383
1427.586, 670.803
1428.771, 745.043
1429.956, 303.256
1431.141, 1081.695
1432.325, 732.988
1433.510, 433.105
1434.694, 1055.965
1435.878, 633.004
1437.062, 812.691
1438.245, 1233.711
1439.429, 618.004
1440.612, 1565.367
1441.795, 1813.477
1442.978, 657.891
1444.161, 1948.613
1445.343, 1514.879
1446.526, 922.852
1447.708, 2091.633
1448.890, 1089.805
1450.072, 1517.414
1451.253, 2062.801
1452.435, 1217.949
1453.616, 1894.590
1454.797, 1951.051
1455.978, 1034.305
1457.159, 2227.809
1458.340, 1793.125
1459.520, 1416.172
1460.700, 2060.098
1461.880, 1639.715
1463.060, 1313.820
1464.240, 1897.176
1465.420, 830.328
1466.599, 1164.270
1467.778, 1768.074
1468.957, 650.215
1470.136, 1570.891
1471.315, 1480.059
1472.493, 792.449
1473.671, 1774.457
1474.849, 915.996
1476.027, 488.902
1477.205, 1801.461
1478.383, 574.359
1479.560, 958.086
1480.737, 1251.590
1481.914, 535.824
1483.091, 1290.641
1484.268, 945.895
1485.444, 601.164
1486.621, 1366.379
1487.797, 641.523
1488.973, 296.738
1490.149, 1312.035
1491.324, 477.598
1492.500, 533.301
1493.675, 909.152
1494.850, 405.316
1496.025, 872.043
1497.200, 799.227
1498.374, 146.887
1499.548, 945.043
1500.723, 543.695
1501.897, 37.211
1503.071, 1052.344
1504.244, 572.469
1505.418, 463.285
1506.591, 894.895
1507.764, 2.586
1508.937, 780.922
1510.110, 715.508
1511.282, 61.883
1512.455, 730.156
1513.627, 678.113
1514.799, 2.488
1515.971, 507.711
1517.143, 23.660
1518.314, 0.000
##END=



