##NAMES=Anorthite
##RRUFFID=R050104
##IDEAL CHEMISTRY=CaAl_2_Si_2_O_8_
##LOCALITY=unknown
##OWNER=RRUFF
##SOURCE=Rock Currier
##DESCRIPTION=Iridescent slab, labradorite/andesine
##STATUS=The identification of this mineral has been confirmed by X-ray diffraction and chemical analysis
##URL=rruff.info/R050104
##MEASURED CHEMISTRY=Ca_0.50_Na_0.47_K_0.03_Al_1.50_Si_2.50_O_8_
##PIN_ID=L00363
##ORIENTATION=Laser parallel to b* (0 1 0). Fiducial mark perpendicular to laser is parallel to c [0 0 1]
124.675, 0.000
126.063, 20.818
127.452, 14.041
128.840, 187.679
130.228, 193.718
131.615, 86.884
133.003, 8.159
134.390, 17.833
135.777, 88.495
137.164, 211.504
138.550, 306.983
139.937, 346.772
141.323, 295.700
142.709, 456.642
144.094, 542.466
145.480, 726.055
146.865, 932.298
148.250, 1068.104
149.635, 1128.416
151.019, 1406.317
152.403, 1530.019
153.788, 1637.035
155.171, 1839.401
156.555, 1972.200
157.939, 1968.414
159.322, 2160.966
160.705, 2168.790
162.088, 2337.831
163.470, 2603.042
164.853, 2787.389
166.235, 3040.841
167.617, 3248.376
168.998, 3451.979
170.380, 3572.634
171.761, 3748.011
173.142, 3868.683
174.523, 4026.485
175.904, 4103.901
177.284, 4235.496
178.664, 4229.364
180.044, 4266.715
181.424, 4147.090
182.803, 4046.869
184.183, 3958.924
185.562, 3698.890
186.940, 3502.624
188.319, 3324.680
189.698, 3089.783
191.076, 2828.587
192.454, 2703.234
193.831, 2582.686
195.209, 2478.949
196.586, 2394.038
197.963, 2426.957
199.340, 2223.715
200.717, 2290.317
202.093, 2107.772
203.470, 2008.088
204.846, 1936.271
206.221, 1777.332
207.597, 1614.288
208.972, 1370.177
210.347, 1161.992
211.722, 1107.730
213.097, 960.383
214.472, 820.987
215.846, 552.550
217.220, 508.077
218.594, 289.568
219.967, 182.739
221.341, 75.375
222.714, 13.239
224.087, 4.151
225.460, 14.303
226.832, 14.951
228.204, 27.056
229.577, 16.713
230.948, 60.320
232.320, 16.216
233.692, 60.253
235.063, 257.063
236.434, 203.732
237.805, 394.716
239.175, 574.740
240.545, 631.062
241.916, 751.221
243.286, 933.489
244.655, 1139.531
246.025, 1226.543
247.394, 1472.341
248.763, 1549.945
250.132, 1544.954
251.501, 1726.002
252.869, 1804.365
254.237, 1811.722
255.605, 1961.837
256.973, 1852.701
258.340, 1846.549
259.708, 2022.384
261.075, 2245.179
262.442, 1980.958
263.808, 2149.723
265.175, 2251.470
266.541, 2314.198
267.907, 2327.905
269.273, 2513.584
270.639, 2788.232
272.004, 2741.851
273.369, 3098.438
274.734, 3229.995
276.099, 3346.521
277.463, 3522.027
278.828, 3690.523
280.192, 3814.021
281.556, 4051.536
282.919, 4111.103
284.283, 4135.663
285.646, 4226.237
287.009, 4029.812
288.372, 4063.428
289.734, 3772.803
291.097, 3708.919
292.459, 3275.763
293.821, 3054.610
295.183, 2870.387
296.544, 2429.285
297.905, 2152.188
299.266, 1836.063
300.627, 1499.204
301.988, 1299.398
303.348, 1171.669
304.709, 964.979
306.069, 797.327
307.428, 594.700
308.788, 499.094
310.147, 318.505
311.507, 368.930
312.865, 183.364
314.224, 182.803
315.583, 153.243
316.941, 148.681
318.299, 114.112
319.657, 59.537
321.015, 121.958
322.372, 4.364
323.729, 44.751
325.086, 19.124
326.443, 17.475
327.800, 73.806
329.156, 44.117
330.512, 189.409
331.868, 112.684
333.224, 82.960
334.579, 180.215
335.935, 142.448
337.290, 248.661
338.645, 119.850
339.999, 83.007
341.354, 70.133
342.708, 116.201
344.062, 0.242
345.416, 16.251
346.769, 37.227
348.123, 9.170
349.476, 20.926
350.829, 83.929
352.182, 89.258
353.534, 3.486
354.887, 124.182
356.239, 13.797
357.591, 67.447
358.942, 73.983
360.294, 46.479
361.645, 114.035
362.996, 111.669
364.347, 54.377
365.698, 70.145
367.048, 53.978
368.398, 106.871
369.748, 88.839
371.098, 109.877
372.448, 1.010
373.797, 2.150
375.146, 41.355
376.495, 21.381
377.844, 1.924
379.192, 173.726
380.540, 125.339
381.889, 266.914
383.236, 290.450
384.584, 348.948
385.932, 610.355
387.279, 600.668
388.626, 770.683
389.973, 973.924
391.319, 974.165
392.666, 1237.968
394.012, 1207.325
395.358, 1496.040
396.704, 1519.148
398.049, 1536.205
399.394, 1899.213
400.740, 1918.154
402.084, 2268.010
403.429, 2185.816
404.774, 2438.574
406.118, 2606.229
407.462, 2707.738
408.806, 2687.145
410.150, 2650.434
411.493, 2491.596
412.836, 2417.699
414.179, 2257.735
415.522, 2161.724
416.865, 1966.682
418.207, 1861.610
419.549, 1750.513
420.891, 1671.388
422.233, 1645.236
423.575, 1476.058
424.916, 1409.263
426.257, 1451.795
427.598, 1405.301
428.939, 1270.236
430.279, 1190.292
431.619, 1263.597
432.959, 1270.249
434.299, 1251.302
435.639, 1234.806
436.978, 1225.868
438.318, 1191.821
439.657, 1197.685
440.996, 1212.941
442.334, 1235.198
443.673, 1207.365
445.011, 1414.898
446.349, 1249.836
447.687, 1345.722
449.024, 1190.143
450.361, 1271.555
451.699, 1214.384
453.036, 1306.772
454.372, 1345.760
455.709, 1350.943
457.045, 1465.626
458.381, 1551.421
459.717, 1605.991
461.053, 1906.975
462.388, 1872.544
463.724, 2204.367
465.059, 2522.724
466.394, 2811.196
467.728, 3272.095
469.063, 3771.909
470.397, 4418.006
471.731, 5103.787
473.065, 5900.491
474.398, 6835.420
475.732, 7591.516
477.065, 8343.536
478.398, 9108.038
479.731, 9627.696
481.063, 9591.433
482.396, 9438.633
483.728, 9067.146
485.060, 8206.510
486.391, 7735.874
487.723, 7046.430
489.054, 6394.625
490.385, 6023.986
491.716, 5830.619
493.047, 5676.852
494.377, 6010.848
495.708, 6466.189
497.038, 7054.252
498.368, 8304.743
499.697, 9429.567
501.027, 10723.619
502.356, 12525.079
503.685, 13912.762
505.014, 14919.237
506.342, 16133.782
507.671, 16520.990
508.999, 17200.604
510.327, 17262.498
511.655, 16673.549
512.982, 15764.251
514.310, 14505.594
515.637, 13153.579
516.964, 11736.200
518.291, 10497.775
519.617, 9249.771
520.944, 8077.660
522.270, 7043.373
523.596, 6054.260
524.921, 5307.640
526.247, 4746.526
527.572, 4192.553
528.897, 3576.904
530.222, 3241.315
531.547, 2703.420
532.871, 2531.362
534.196, 2063.065
535.520, 2072.259
536.844, 1682.897
538.167, 1608.463
539.491, 1497.219
540.814, 1359.612
542.137, 1257.555
543.460, 1136.563
544.783, 1250.734
546.105, 1114.870
547.427, 1100.958
548.749, 990.021
550.071, 1014.060
551.393, 1133.072
552.714, 1130.039
554.035, 937.022
555.356, 1118.973
556.677, 1057.899
557.998, 1245.814
559.318, 1305.682
560.638, 1373.523
561.958, 1631.319
563.278, 1743.099
564.597, 1903.831
565.917, 1943.517
567.236, 1821.169
568.555, 1867.774
569.874, 1640.334
571.192, 1647.881
572.511, 1357.381
573.829, 1202.834
575.147, 1078.242
576.464, 772.604
577.782, 803.920
579.099, 541.188
580.416, 522.408
581.733, 454.582
583.050, 305.708
584.366, 220.786
585.683, 220.811
586.999, 111.780
588.315, 92.692
589.630, 59.545
590.946, 2.152
592.261, 83.051
593.576, 32.295
594.891, 52.732
596.206, 50.728
597.520, 92.123
598.834, 45.459
600.148, 14.270
601.462, 47.920
602.776, 22.045
604.089, 6.104
605.402, 41.912
606.715, 19.024
608.028, 51.225
609.341, 42.526
610.653, 19.072
611.965, 14.396
613.277, 25.050
614.589, 58.570
615.901, 2.703
617.212, 42.100
618.523, 27.001
619.834, 53.032
621.145, 96.000
622.456, 66.843
623.766, 3.623
625.076, 114.328
626.386, 122.975
627.696, 64.561
629.006, 127.087
630.315, 114.553
631.624, 239.961
632.933, 185.314
634.242, 159.612
635.551, 265.855
636.859, 179.047
638.167, 12.183
639.475, 282.254
640.783, 239.273
642.090, 112.246
643.398, 283.165
644.705, 219.035
646.012, 147.856
647.318, 72.624
648.625, 93.214
649.931, 49.013
651.237, 145.544
652.543, 145.045
653.849, 159.493
655.155, 147.887
656.460, 162.715
657.765, 74.723
659.070, 169.952
660.375, 148.130
661.679, 120.256
662.984, 219.646
664.288, 97.890
665.592, 140.574
666.895, 97.505
668.199, 176.992
669.502, 60.149
670.805, 301.899
672.108, 195.382
673.411, 297.491
674.713, 193.654
676.016, 240.681
677.318, 289.700
678.620, 341.530
679.921, 234.686
681.223, 245.462
682.524, 348.206
683.825, 300.485
685.126, 426.675
686.427, 384.700
687.727, 345.861
689.028, 372.133
690.328, 408.434
691.628, 409.192
692.927, 450.298
694.227, 395.516
695.526, 354.380
696.825, 389.041
698.124, 384.104
699.423, 490.781
700.721, 492.550
702.020, 447.354
703.318, 506.835
704.616, 461.884
705.913, 562.203
707.211, 557.942
708.508, 609.916
709.805, 435.729
711.102, 599.372
712.399, 633.271
713.695, 455.434
714.992, 799.244
716.288, 566.836
717.584, 809.736
718.879, 591.354
720.175, 702.981
721.470, 717.603
722.765, 616.759
724.060, 767.284
725.355, 677.699
726.649, 677.413
727.944, 825.606
729.238, 619.607
730.532, 913.833
731.825, 782.734
733.119, 715.836
734.412, 897.635
735.705, 935.385
736.998, 861.084
738.291, 1013.733
739.584, 1097.336
740.876, 1095.119
742.168, 1192.851
743.460, 1169.078
744.752, 1203.106
746.043, 1331.808
747.334, 1191.086
748.626, 1230.886
749.916, 1125.160
751.207, 1265.096
752.498, 1164.469
753.788, 1332.154
755.078, 1316.366
756.368, 1317.506
757.658, 1320.657
758.947, 1343.367
760.237, 1355.936
761.526, 1222.799
762.815, 1371.390
764.104, 1379.914
765.392, 1337.938
766.680, 1710.320
767.969, 1391.024
769.257, 1461.450
770.544, 1486.297
771.832, 1309.948
773.119, 1472.750
774.406, 1344.063
775.693, 1397.707
776.980, 1315.015
778.267, 1248.507
779.553, 1282.198
780.839, 1133.182
782.125, 1056.167
783.411, 1047.704
784.697, 985.635
785.982, 921.480
787.267, 1033.814
788.552, 891.887
789.837, 1037.818
791.122, 901.160
792.406, 849.106
793.690, 979.592
794.974, 914.904
796.258, 740.005
797.542, 900.541
798.825, 841.762
800.108, 843.683
801.391, 666.275
802.674, 700.417
803.957, 533.703
805.239, 477.313
806.522, 561.776
807.804, 398.207
809.085, 563.669
810.367, 495.056
811.649, 198.476
812.930, 287.422
814.211, 413.816
815.492, 283.092
816.772, 166.225
818.053, 187.742
819.333, 67.723
820.613, 288.852
821.893, 89.773
823.173, 153.998
824.452, 28.407
825.732, 56.239
827.011, 131.409
828.290, 7.021
829.568, 125.062
830.847, 9.312
832.125, 155.728
833.403, 74.665
834.681, 21.610
835.959, 10.427
837.236, 24.857
838.514, 37.377
839.791, 72.508
841.068, 34.926
842.345, 82.771
843.621, 84.473
844.898, 45.264
846.174, 4.119
847.450, 71.019
848.726, 48.003
850.001, 82.886
851.277, 9.153
852.552, 68.236
853.827, 39.395
855.102, 25.610
856.376, 108.122
857.651, 52.173
858.925, 70.528
860.199, 62.958
861.473, 119.545
862.746, 194.976
864.020, 34.632
865.293, 72.338
866.566, 126.115
867.839, 84.012
869.112, 72.885
870.384, 32.152
871.656, 108.837
872.928, 67.091
874.200, 52.994
875.472, 43.124
876.744, 45.711
878.015, 56.522
879.286, 121.688
880.557, 79.018
881.828, 143.702
883.098, 40.369
884.369, 204.016
885.639, 39.644
886.909, 144.254
888.178, 216.847
889.448, 125.423
890.717, 118.982
891.987, 0.474
893.256, 83.390
894.524, 178.579
895.793, 237.088
897.061, 304.587
898.330, 359.077
899.598, 299.561
900.865, 486.045
902.133, 264.521
903.401, 527.008
904.668, 308.509
905.935, 341.004
907.202, 652.505
908.468, 462.003
909.735, 422.526
911.001, 530.048
912.267, 584.569
913.533, 557.092
914.799, 625.069
916.064, 616.176
917.330, 664.740
918.595, 658.320
919.860, 667.901
921.124, 723.491
922.389, 613.083
923.653, 811.696
924.918, 597.314
926.182, 639.949
927.445, 694.587
928.709, 703.226
929.972, 640.896
931.236, 842.569
932.499, 604.248
933.761, 906.928
935.024, 550.606
936.286, 821.288
937.549, 861.981
938.811, 849.676
940.073, 832.370
941.334, 804.065
942.596, 933.761
943.857, 1062.455
945.118, 978.153
946.379, 1175.857
947.640, 781.563
948.900, 917.271
950.161, 1041.982
951.421, 958.694
952.681, 1063.410
953.940, 1101.142
955.200, 1194.879
956.459, 1224.624
957.719, 1241.407
958.978, 1300.785
960.236, 1293.990
961.495, 1399.789
962.753, 1452.925
964.012, 1557.195
965.270, 1669.016
966.527, 1558.841
967.785, 1688.675
969.043, 1602.203
970.300, 1699.838
971.557, 1633.988
972.814, 1870.853
974.071, 1892.131
975.327, 1733.696
976.583, 2036.655
977.840, 1886.848
979.095, 1924.373
980.351, 1840.808
981.607, 2057.354
982.862, 2117.893
984.117, 1884.605
985.372, 1922.992
986.627, 1783.761
987.882, 1831.543
989.136, 1984.783
990.390, 1763.098
991.644, 2137.581
992.898, 1929.928
994.152, 1729.165
995.405, 1685.350
996.659, 1782.054
997.912, 1660.398
999.165, 1682.604
1000.417, 1688.141
1001.670, 1601.850
1002.922, 1854.123
1004.174, 1566.754
1005.426, 1849.262
1006.678, 1635.701
1007.930, 1683.649
1009.181, 1662.559
1010.432, 1477.390
1011.683, 1864.778
1012.934, 1880.904
1014.185, 1708.161
1015.435, 1915.558
1016.685, 1774.660
1017.935, 1884.464
1019.185, 1844.583
1020.435, 1772.886
1021.684, 2049.846
1022.934, 1841.055
1024.183, 1728.221
1025.432, 2114.357
1026.680, 1742.929
1027.929, 1920.100
1029.177, 1864.348
1030.425, 1792.267
1031.673, 1815.676
1032.921, 1747.244
1034.169, 1621.561
1035.416, 1926.173
1036.663, 1756.555
1037.911, 1906.210
1039.157, 1619.886
1040.404, 1685.586
1041.650, 1794.308
1042.897, 1611.137
1044.143, 1784.904
1045.389, 1560.696
1046.634, 1595.513
1047.880, 1680.354
1049.125, 1569.219
1050.371, 1382.107
1051.615, 1712.021
1052.860, 1493.963
1054.105, 1584.930
1055.349, 1417.920
1056.593, 1391.455
1057.837, 1608.500
1059.081, 1483.301
1060.325, 1476.717
1061.568, 1472.842
1062.812, 1473.994
1064.055, 1525.174
1065.298, 1474.379
1066.540, 1406.617
1067.783, 1614.879
1069.025, 1312.172
1070.267, 1535.492
1071.509, 1609.842
1072.751, 1534.219
1073.993, 1551.627
1075.234, 1570.064
1076.475, 1788.533
1077.716, 1683.029
1078.957, 1579.559
1080.198, 1681.117
1081.438, 1536.705
1082.679, 1661.326
1083.919, 1908.979
1085.159, 1706.660
1086.398, 1692.119
1087.638, 1695.865
1088.877, 1585.646
1090.116, 1864.457
1091.355, 1758.303
1092.594, 1561.180
1093.833, 1825.092
1095.071, 1417.037
1096.309, 1625.018
1097.547, 1909.033
1098.785, 1269.082
1100.023, 1481.242
1101.260, 1491.363
1102.498, 1442.338
1103.735, 1439.535
1104.972, 1500.754
1106.208, 1323.713
1107.445, 1539.010
1108.681, 1469.342
1109.918, 1598.719
1111.154, 1535.682
1112.389, 1484.688
1113.625, 1387.865
1114.860, 1315.305
1116.096, 1283.783
1117.331, 1177.303
1118.566, 1174.246
1119.800, 1328.471
1121.035, 1150.121
1122.269, 1202.814
1123.503, 1202.553
1124.737, 1065.336
1125.971, 1092.135
1127.205, 992.980
1128.438, 858.871
1129.671, 1004.205
1130.904, 806.197
1132.137, 1014.244
1133.370, 968.334
1134.602, 1114.438
1135.834, 1029.537
1137.066, 1030.686
1138.298, 693.879
1139.530, 743.164
1140.762, 981.459
1141.993, 465.803
1143.224, 1017.223
1144.455, 598.723
1145.686, 685.291
1146.917, 563.918
1148.147, 695.525
1149.377, 840.178
1150.607, 599.885
1151.837, 463.656
1153.067, 738.688
1154.296, 576.605
1155.526, 562.592
1156.755, 687.643
1157.984, 598.791
1159.213, 409.922
1160.441, 552.264
1161.670, 484.324
1162.898, 620.703
1164.126, 429.154
1165.354, 551.117
1166.581, 262.189
1167.809, 446.369
1169.036, 533.635
1170.263, 262.982
1171.490, 609.420
1172.717, 267.947
1173.943, 458.529
1175.170, 431.168
1176.396, 237.859
1177.622, 316.604
1178.848, 373.398
1180.073, 419.248
1181.299, 231.152
1182.524, 443.117
1183.749, 101.139
1184.974, 441.191
1186.199, 306.250
1187.423, 236.363
1188.648, 469.535
1189.872, 78.234
1191.096, 512.055
1192.320, 256.404
1193.543, 30.812
1194.767, 427.281
1195.990, 89.809
1197.213, 102.398
1198.436, 262.047
1199.659, 71.727
1200.881, 193.469
1202.104, 133.273
1203.326, 102.863
1204.548, 451.064
1205.770, 154.945
1206.991, 24.912
1208.213, 190.166
1209.434, 183.273
1210.655, 52.443
1211.876, 27.676
1213.096, 41.971
1214.317, 206.334
1215.537, 134.762
1216.757, 260.254
1217.977, 199.812
1219.197, 180.434
1220.417, 166.105
1221.636, 291.824
1222.855, 238.367
1224.074, 315.455
1225.293, 225.365
1226.512, 213.344
1227.731, 199.387
1228.949, 185.490
1230.167, 282.654
1231.385, 233.883
1232.603, 87.834
1233.820, 186.508
1235.038, 618.883
1236.255, 91.279
1237.472, 375.752
1238.689, 221.332
1239.906, 283.020
1241.122, 404.811
1242.338, 41.711
1243.555, 429.715
1244.771, 355.826
1245.986, 0.045
1247.202, 762.373
1248.417, 68.188
1249.633, 314.369
1250.848, 357.348
1252.063, 62.938
1253.277, 340.367
1254.492, 406.846
1255.706, 529.920
1256.920, 601.205
1258.134, 380.070
1259.348, 212.117
1260.562, 255.172
1261.775, 303.336
1262.988, 435.613
1264.201, 255.004
1265.414, 70.512
1266.627, 485.141
1267.839, 175.887
1269.052, 197.754
1270.264, 557.748
1271.476, 226.467
1272.688, 378.385
1273.899, 383.414
1275.111, 33.436
1276.322, 608.824
1277.533, 147.191
1278.744, 309.326
1279.955, 353.162
1281.165, 171.643
1282.376, 389.289
1283.586, 578.074
1284.796, 84.727
1286.006, 453.469
1287.215, 244.256
1288.425, 173.066
1289.634, 710.873
1290.843, 243.000
1292.052, 197.506
1293.261, 366.898
1294.469, 359.758
1295.678, 330.256
1296.886, 429.547
1298.094, 118.443
1299.302, 681.848
1300.509, 239.279
1301.717, 422.328
1302.924, 392.139
1304.131, 5.541
1305.338, 640.627
1306.545, 172.955
1307.752, 176.428
1308.958, 0.000
##END=



