##NAMES=Anorthite
##RRUFFID=R040059
##IDEAL CHEMISTRY=CaAl_2_Si_2_O_8_
##LOCALITY=Miyakejima, Japan
##OWNER=RRUFF
##SOURCE=University of Arizona Mineral Museum
##DESCRIPTION=Colorless fragments of crystals
##STATUS=The identification of this mineral has been confirmed by X-ray diffraction and chemical analysis
##URL=rruff.info/R040059
##MEASURED CHEMISTRY=(Ca_0.94_Na_0.04_Fe_0.02_)(Al_0.98_Si_0.02_)_2_Si_2.00_O_8_
##PIN_ID=M00328
##ORIENTATION=Laser parallel to (-1 0 -1). Fiducial mark perpendicular to laser is parallel to -b [0 -1 0]
125.910, 0.000
127.300, 7.293
128.690, 171.270
130.080, 25.338
131.469, 548.051
132.858, 550.640
134.248, 687.878
135.636, 956.485
137.025, 1294.154
138.413, 1629.135
139.801, 1910.114
141.189, 2346.219
142.577, 2846.881
143.964, 3171.533
145.352, 3349.617
146.739, 3340.634
148.125, 3024.142
149.512, 2289.775
150.898, 1987.271
152.284, 1216.397
153.670, 1047.107
155.056, 719.704
156.441, 644.367
157.827, 290.830
159.212, 48.761
160.596, 27.882
161.981, 37.953
163.365, 168.777
164.749, 267.794
166.133, 412.071
167.517, 614.300
168.900, 946.793
170.283, 1169.493
171.666, 1562.359
173.049, 1775.501
174.431, 2239.084
175.813, 2722.735
177.195, 2916.459
178.577, 3421.049
179.959, 4206.320
181.340, 4873.863
182.721, 5605.025
184.102, 6339.342
185.483, 7025.438
186.863, 7401.684
188.244, 7567.271
189.624, 8002.182
191.003, 7876.412
192.383, 8540.002
193.762, 8172.922
195.141, 7915.132
196.520, 7686.672
197.899, 6937.574
199.277, 6737.867
200.656, 5877.580
202.034, 5366.742
203.411, 5015.371
204.789, 4723.492
206.166, 4321.129
207.543, 3950.036
208.920, 3565.024
210.297, 3191.389
211.673, 2757.461
213.049, 2473.287
214.425, 1958.899
215.801, 1794.375
217.176, 1499.696
218.552, 1386.475
219.927, 1556.550
221.302, 1478.416
222.676, 1424.843
224.051, 1169.177
225.425, 1223.395
226.799, 827.501
228.173, 765.006
229.546, 730.173
230.919, 747.324
232.292, 788.438
233.665, 536.771
235.038, 904.605
236.410, 1017.957
237.782, 1466.809
239.154, 1596.988
240.526, 1751.946
241.898, 2315.873
243.269, 2319.250
244.640, 2902.126
246.011, 2768.918
247.381, 2924.229
248.752, 2964.400
250.122, 3203.476
251.492, 3303.611
252.861, 3313.545
254.231, 3572.178
255.600, 3620.487
256.969, 3819.553
258.338, 3798.060
259.707, 3735.416
261.075, 3720.815
262.443, 3416.058
263.811, 3471.265
265.179, 3226.420
266.546, 3271.512
267.914, 3456.526
269.281, 3341.461
270.647, 3266.314
272.014, 3261.088
273.380, 3555.781
274.747, 3420.395
276.113, 3484.930
277.478, 3659.384
278.844, 3603.762
280.209, 3718.061
281.574, 3942.287
282.939, 3896.436
284.304, 3930.510
285.668, 3624.510
287.032, 3548.438
288.396, 3102.292
289.760, 2936.076
291.123, 2481.488
292.487, 2097.602
293.850, 1884.784
295.212, 1352.573
296.575, 1370.831
297.937, 949.465
299.300, 868.403
300.662, 667.594
302.023, 536.992
303.385, 526.562
304.746, 316.276
306.107, 426.111
307.468, 326.044
308.829, 256.056
310.189, 206.127
311.549, 156.242
312.909, 56.392
314.269, 26.556
315.629, 176.720
316.988, 266.889
318.347, 227.059
319.706, 497.218
321.065, 447.359
322.423, 567.472
323.781, 527.552
325.139, 557.593
326.497, 607.589
327.855, 177.537
329.212, 217.432
330.569, 57.269
331.926, 52.968
333.283, 66.721
334.639, 26.335
335.995, 74.042
337.351, 82.467
338.707, 162.215
340.063, 174.431
341.418, 116.174
342.773, 226.841
344.128, 217.671
345.483, 299.334
346.837, 327.584
348.192, 261.278
349.546, 352.925
350.899, 374.823
352.253, 326.979
353.606, 249.375
354.960, 191.989
356.313, 274.805
357.665, 207.840
359.018, 151.076
360.370, 114.494
361.722, 18.084
363.074, 10.334
364.426, 44.317
365.777, 90.329
367.128, 226.226
368.479, 262.025
369.830, 277.731
371.181, 363.347
372.531, 288.875
373.881, 254.314
375.231, 299.667
376.581, 314.934
377.930, 260.116
379.280, 309.493
380.629, 410.226
381.977, 375.149
383.326, 359.969
384.674, 454.673
386.023, 259.290
387.370, 443.825
388.718, 308.284
390.066, 352.664
391.413, 576.948
392.760, 631.064
394.107, 795.043
395.454, 888.874
396.800, 1051.281
398.146, 1356.042
399.492, 1369.099
400.838, 1571.761
402.184, 1673.979
403.529, 1785.817
404.874, 1837.322
406.219, 1918.539
407.564, 1859.554
408.908, 1570.432
410.252, 1621.230
411.596, 1351.971
412.940, 1392.657
414.284, 1253.287
415.627, 793.858
416.970, 1074.380
418.313, 884.851
419.656, 1105.268
420.999, 1265.634
422.341, 1455.952
423.683, 1786.234
425.025, 2006.479
426.367, 2476.685
427.708, 2566.856
429.049, 3016.989
430.390, 3117.087
431.731, 3057.147
433.072, 3277.171
434.412, 3107.158
435.752, 3557.111
437.092, 3517.028
438.432, 3436.910
439.772, 3716.757
441.111, 3376.568
442.450, 3356.346
443.789, 3106.089
445.127, 2725.797
446.466, 2665.471
447.804, 2575.113
449.142, 2264.720
450.480, 2144.294
451.817, 2063.834
453.155, 2103.336
454.492, 1892.800
455.829, 2212.215
457.166, 2511.582
458.502, 2650.898
459.838, 2670.162
461.175, 2829.369
462.510, 2908.521
463.846, 2857.615
465.181, 2996.651
466.517, 3305.598
467.852, 3504.516
469.186, 4133.331
470.521, 4551.770
471.855, 5329.909
473.190, 5507.748
474.523, 6454.236
475.857, 7179.609
477.191, 7907.268
478.524, 9355.695
479.857, 10493.670
481.190, 12571.967
482.523, 14470.204
483.855, 15868.377
485.187, 18756.660
486.519, 18944.709
487.851, 19033.000
489.183, 18120.297
490.514, 16467.234
491.845, 15181.732
493.176, 14795.460
494.507, 14997.508
495.837, 15113.694
497.168, 17250.285
498.498, 19539.186
499.828, 21963.955
501.157, 26110.609
502.487, 28169.762
503.816, 30626.439
505.145, 30844.477
506.474, 28978.760
507.802, 27237.596
509.131, 23671.490
510.459, 21448.428
511.787, 19013.861
513.115, 16962.143
514.442, 15785.215
515.770, 13471.754
517.097, 12212.986
518.424, 10488.311
519.750, 9537.076
521.077, 9338.029
522.403, 8064.961
523.729, 7963.584
525.055, 7843.957
526.381, 7386.068
527.706, 6781.037
529.031, 5906.381
530.356, 5771.789
531.681, 4807.785
533.006, 4593.176
534.330, 3948.191
535.654, 3863.566
536.978, 3549.008
538.302, 3423.926
539.625, 3389.225
540.949, 3495.125
542.272, 3510.854
543.595, 4126.441
544.917, 4302.402
546.240, 4756.947
547.562, 5712.783
548.884, 6247.766
550.206, 7423.084
551.527, 7919.555
552.849, 9626.043
554.170, 10482.598
555.491, 11549.115
556.812, 11895.598
558.132, 12242.045
559.453, 11988.459
560.773, 11154.848
562.093, 10601.203
563.412, 9637.527
564.732, 8343.828
566.051, 7690.105
567.370, 6366.355
568.689, 5772.580
570.008, 4908.781
571.326, 4124.959
572.644, 3761.115
573.963, 2987.246
575.280, 2693.352
576.598, 2249.439
577.915, 2045.498
579.233, 1811.537
580.550, 1527.551
581.866, 1543.545
583.183, 1429.512
584.499, 1355.457
585.815, 1581.381
587.131, 1327.281
588.447, 1653.158
589.763, 1589.014
591.078, 1724.844
592.393, 2070.654
593.708, 1936.443
595.022, 2182.203
596.337, 1997.945
597.651, 1863.664
598.965, 2079.361
600.279, 1815.035
601.593, 1620.686
602.906, 1356.314
604.219, 1181.922
605.532, 1207.506
606.845, 773.066
608.158, 818.605
609.470, 534.125
610.782, 699.619
612.094, 655.094
613.406, 510.545
614.718, 795.975
616.029, 761.383
617.340, 976.768
618.651, 1352.129
619.962, 957.473
621.272, 1562.795
622.582, 1418.094
623.892, 1333.371
625.202, 1378.631
626.512, 943.867
627.821, 1159.084
629.131, 964.281
630.440, 679.461
631.749, 554.625
633.057, 169.777
634.366, 534.930
635.674, 90.064
636.982, 135.178
638.290, 460.271
639.597, 215.346
640.905, 280.656
642.212, 155.693
643.519, 210.711
644.825, 130.805
646.132, 55.781
647.438, 271.262
648.744, 136.207
650.050, 98.850
651.356, 138.406
652.662, 346.539
653.967, 60.061
655.272, 177.916
656.577, 142.844
657.882, 24.891
659.186, 250.582
660.490, 7.781
661.794, 13.373
663.098, 38.775
664.402, 303.734
665.705, 16.123
667.009, 391.191
668.312, 313.387
669.614, 638.473
670.917, 788.611
672.219, 556.107
673.522, 1507.816
674.824, 1308.779
676.125, 1814.471
677.427, 2093.809
678.728, 2359.984
680.030, 2660.967
681.331, 2611.768
682.631, 2847.812
683.932, 2688.273
685.232, 2363.514
686.532, 2339.068
687.832, 1919.510
689.132, 1875.082
690.432, 1572.777
691.731, 1261.441
693.030, 1317.295
694.329, 1009.262
695.628, 924.730
696.926, 996.941
698.224, 467.705
699.522, 873.078
700.820, 378.678
702.118, 634.008
703.415, 734.051
704.713, 388.893
706.010, 649.086
707.307, 284.342
708.603, 709.574
709.900, 634.779
711.196, 569.961
712.492, 475.113
713.788, 480.242
715.083, 715.346
716.379, 450.424
717.674, 725.480
718.969, 610.510
720.264, 565.514
721.558, 500.494
722.853, 635.449
724.147, 480.381
725.441, 745.287
726.735, 580.170
728.028, 675.027
729.322, 849.859
730.615, 954.670
731.908, 1089.453
733.201, 1254.213
734.493, 1448.949
735.785, 1423.664
737.078, 1738.352
738.370, 2273.018
739.661, 2077.660
740.953, 2572.279
742.244, 2726.875
743.535, 2501.449
744.826, 2836.000
746.117, 2240.527
747.407, 2385.033
748.698, 2449.516
749.988, 2013.977
751.278, 2538.414
752.567, 2112.830
753.857, 2217.225
755.146, 2641.598
756.435, 2635.951
757.724, 3160.283
759.013, 3224.590
760.301, 3368.877
761.590, 4193.145
762.878, 3697.389
764.165, 4101.613
765.453, 4055.818
766.741, 3870.002
768.028, 3784.164
769.315, 3588.307
770.602, 3422.430
771.888, 3026.529
773.175, 2730.613
774.461, 2434.674
775.747, 2098.715
777.033, 2082.738
778.319, 1796.742
779.604, 1390.725
780.889, 1504.691
782.174, 1338.637
783.459, 1272.562
784.744, 966.469
786.028, 670.357
787.312, 914.229
788.596, 537.920
789.880, 611.752
791.164, 725.086
792.447, 488.600
793.730, 622.377
795.013, 166.137
796.296, 529.877
797.579, 393.430
798.861, 12.865
800.143, 430.498
801.425, 93.537
802.707, 287.139
803.989, 260.490
805.270, 28.184
806.551, 171.494
807.832, 136.410
809.113, 63.596
810.394, 68.430
811.674, 327.338
812.954, 244.926
814.234, 188.432
815.514, 36.529
816.794, 124.373
818.073, 96.309
819.352, 93.537
820.631, 58.117
821.910, 89.209
823.189, 103.379
824.467, 90.744
825.745, 92.777
827.023, 79.227
828.301, 66.914
829.578, 45.330
830.856, 40.979
832.133, 150.266
833.410, 68.201
834.687, 66.203
835.963, 15.729
837.240, 222.363
838.516, 140.600
839.792, 121.059
841.068, 67.295
842.343, 64.287
843.618, 24.143
844.894, 42.609
846.169, 8.877
847.443, 99.658
848.718, 51.734
849.992, 106.887
851.266, 85.584
852.540, 115.658
853.814, 6.889
855.088, 68.100
856.361, 80.701
857.634, 159.555
858.907, 86.729
860.180, 72.480
861.453, 23.299
862.725, 114.270
863.997, 165.232
865.269, 146.186
866.541, 217.762
867.812, 418.068
869.084, 309.012
870.355, 219.947
871.626, 300.875
872.897, 531.797
874.167, 222.713
875.438, 773.621
876.708, 314.525
877.978, 505.424
879.248, 796.318
880.517, 447.211
881.787, 938.098
883.056, 458.979
884.325, 969.859
885.594, 950.734
886.862, 831.607
888.130, 1152.477
889.399, 1013.414
890.667, 1384.346
891.934, 1385.279
893.202, 1346.238
894.469, 1627.195
895.737, 1688.148
897.004, 1649.105
898.270, 1700.061
899.537, 1661.061
900.803, 1952.061
902.070, 1733.061
903.336, 2044.109
904.601, 2065.158
905.867, 1896.209
907.132, 2097.264
908.398, 2118.320
909.663, 1979.379
910.928, 2240.439
912.192, 1971.504
913.457, 2292.570
914.721, 2363.641
915.985, 1684.715
917.249, 2015.793
918.512, 1966.877
919.776, 1937.965
921.039, 2139.057
922.302, 1530.158
923.565, 2131.270
924.827, 1822.385
926.090, 1913.510
927.352, 2274.641
928.614, 2135.777
929.876, 2316.951
931.138, 2388.131
932.399, 2109.320
933.660, 3010.518
934.922, 2521.725
936.182, 2962.938
937.443, 3114.160
938.704, 3125.395
939.964, 3756.637
941.224, 3447.887
942.484, 3349.150
943.744, 3880.434
945.003, 3701.727
946.262, 4543.031
947.521, 4364.092
948.780, 4745.418
950.039, 4776.758
951.298, 5163.014
952.556, 5614.381
953.814, 5585.242
955.072, 5406.641
956.330, 6088.051
957.587, 5397.162
958.845, 5628.486
960.102, 5588.195
961.359, 5182.527
962.615, 5243.760
963.872, 5022.293
965.128, 4974.035
966.384, 5521.939
967.640, 5329.447
968.896, 5561.283
970.152, 6195.301
971.407, 6269.568
972.662, 7141.248
973.917, 6635.969
975.172, 7367.930
976.427, 7354.969
977.681, 6854.756
978.935, 7520.422
980.189, 6656.949
981.443, 6948.846
982.697, 6357.178
983.950, 6118.787
985.203, 5915.641
986.456, 5492.717
987.709, 5094.590
988.962, 5032.068
990.214, 4384.793
991.467, 4447.215
992.719, 4394.760
993.971, 3887.287
995.222, 4007.703
996.474, 3797.164
997.725, 3739.494
998.976, 3895.717
1000.227, 3638.453
1001.478, 4034.502
1002.728, 3682.008
1003.978, 3324.920
1005.229, 3867.619
1006.479, 3130.596
1007.728, 3348.961
1008.978, 3372.535
1010.227, 2610.779
1011.476, 3034.020
1012.725, 2997.289
1013.974, 2850.688
1015.223, 3114.127
1016.471, 2497.602
1017.719, 2951.115
1018.967, 2917.109
1020.215, 2350.693
1021.462, 2874.314
1022.710, 2387.969
1023.957, 2581.664
1025.204, 2635.395
1026.451, 1869.160
1027.697, 2542.980
1028.944, 2027.471
1030.190, 1991.357
1031.436, 2315.322
1032.682, 1869.322
1033.928, 2103.359
1035.173, 1897.436
1036.418, 1531.543
1037.663, 2335.729
1038.908, 1645.574
1040.153, 2359.828
1041.398, 2304.154
1042.642, 1884.674
1043.886, 2659.072
1045.130, 2113.549
1046.374, 2428.061
1047.617, 3032.609
1048.860, 2206.988
1050.104, 2861.654
1051.347, 2776.373
1052.589, 2221.307
1053.832, 3006.094
1055.074, 2480.922
1056.316, 2755.779
1057.558, 2480.670
1058.800, 2315.600
1060.042, 2480.561
1061.283, 2385.564
1062.524, 2180.598
1063.765, 2505.664
1065.006, 2000.857
1066.247, 2236.074
1067.487, 2511.322
1068.728, 1906.611
1069.968, 2841.926
1071.208, 2187.277
1072.447, 2223.994
1073.687, 2809.418
1074.926, 2354.879
1076.165, 2710.371
1077.404, 2835.896
1078.643, 2287.730
1079.881, 2923.416
1081.120, 2299.133
1082.358, 2154.934
1083.596, 2530.768
1084.834, 1856.631
1086.071, 2132.531
1087.309, 2118.461
1088.546, 1524.459
1089.783, 1980.486
1091.020, 1266.543
1092.256, 1753.527
1093.493, 1409.648
1094.729, 965.797
1095.965, 1361.977
1097.201, 1058.186
1098.436, 884.654
1099.672, 1300.922
1100.907, 867.244
1102.142, 1094.514
1103.377, 2390.910
1104.612, 1367.336
1105.846, 1583.795
1107.081, 700.293
1108.315, 827.492
1109.549, 864.102
1110.782, 640.775
1112.016, 1008.498
1113.249, 795.326
1114.483, 592.182
1115.716, 1169.133
1116.948, 556.129
1118.181, 973.150
1119.413, 950.232
1120.646, 517.375
1121.878, 1110.818
1123.110, 978.041
1124.341, 745.287
1125.573, 1082.623
1126.804, 729.990
1128.035, 777.570
1129.266, 1185.045
1130.497, 402.547
1131.727, 1099.439
1132.957, 837.051
1134.188, 644.705
1135.418, 973.080
1136.647, 670.805
1137.877, 619.992
1139.106, 918.012
1140.335, 255.898
1141.564, 727.838
1142.793, 825.783
1144.022, 204.205
1145.250, 1090.342
1146.479, 298.367
1147.707, 396.648
1148.934, 633.352
1150.162, 281.480
1151.390, 860.637
1152.617, 348.828
1153.844, 337.021
1155.071, 763.922
1156.298, 42.162
1157.524, 510.453
1158.751, 309.260
1159.977, 387.596
1161.203, 626.604
1162.428, 196.127
1163.654, 214.891
1164.879, 724.070
1166.105, 117.566
1167.330, 540.775
1168.555, 239.883
1169.779, 108.236
1171.004, 477.678
1172.228, 206.031
1173.452, 44.387
1174.676, 596.896
1175.900, 44.746
1177.123, 503.604
1178.346, 470.865
1179.570, 109.213
1180.793, 718.232
1182.015, 67.080
1183.238, 205.418
1184.460, 622.643
1185.683, 339.025
1186.905, 789.164
1188.126, 266.326
1189.348, 175.492
1190.569, 332.621
1191.791, 181.430
1193.012, 189.529
1194.233, 278.840
1195.453, 222.016
1196.674, 485.969
1197.894, 258.961
1199.114, 223.076
1200.334, 534.787
1201.554, 294.195
1202.774, 302.037
1203.993, 570.176
1205.212, 69.037
1206.431, 536.844
1207.650, 216.422
1208.869, 74.342
1210.087, 672.105
1211.305, 70.105
1212.524, 167.836
1213.741, 715.551
1214.959, 83.857
1216.177, 991.537
1217.394, 470.258
1218.611, 30.020
1219.828, 917.600
1221.045, 126.604
1222.261, 584.186
1223.478, 981.750
1224.694, 106.865
1225.910, 770.604
1227.126, 518.062
1228.342, 278.141
1229.557, 725.557
1230.772, 423.715
1231.987, 602.064
1233.202, 809.414
1234.417, 195.900
1235.631, 553.215
1236.846, 1020.521
1238.060, 8.801
1239.274, 966.098
1240.488, 433.389
1241.701, 250.672
1242.915, 797.951
1244.128, 175.258
1245.341, 652.525
1246.554, 739.779
1247.767, 30.404
1248.979, 887.643
1250.191, 264.873
1251.403, 323.533
1252.615, 1010.719
1253.827, 107.893
1255.039, 675.902
1256.250, 1013.006
1257.461, 50.098
1258.672, 1017.170
1259.883, 644.223
1261.094, 413.477
1262.304, 740.375
1263.514, 307.211
1264.724, 533.982
1265.934, 570.732
1267.144, 42.539
1268.354, 794.143
1269.563, 860.641
1270.772, 356.998
1271.981, 833.326
1273.190, 299.625
1274.398, 378.152
1275.607, 1044.391
1276.815, 79.395
1278.023, 557.260
1279.231, 573.299
1280.439, 199.303
1281.646, 795.273
1282.853, 91.156
1284.060, 336.945
1285.267, 892.703
1286.474, 301.643
1287.681, 554.553
1288.887, 279.918
1290.093, 44.750
1291.299, 850.871
1292.505, 346.080
1293.711, 48.760
1294.916, 826.768
1296.121, 171.668
1297.327, 407.078
1298.531, 501.887
1299.736, 203.359
1300.941, 891.904
1302.145, 426.295
1303.349, 69.357
1304.553, 876.332
1305.757, 229.578
1306.961, 174.301
1308.164, 338.123
1309.367, 241.885
1310.570, 485.590
1311.773, 486.793
1312.976, 260.393
1314.178, 644.588
1315.381, 198.021
1316.583, 551.393
1317.785, 884.691
1318.987, 47.930
1320.188, 541.062
1321.390, 563.494
1322.591, 33.502
1323.792, 829.396
1324.993, 302.234
1326.193, 345.012
1327.394, 927.691
1328.594, 29.701
1329.794, 712.801
1330.994, 739.912
1332.194, 37.719
1333.394, 474.539
1334.593, 600.633
1335.792, 67.242
1336.991, 984.762
1338.190, 196.695
1339.389, 71.441
1340.587, 850.555
1341.786, 22.211
1342.984, 583.785
1344.182, 685.125
1345.379, 146.582
1346.577, 1007.969
1347.774, 380.234
1348.972, 211.504
1350.169, 1212.711
1351.365, 133.863
1352.562, 424.957
1353.759, 1255.996
1354.955, 223.020
1356.151, 907.820
1357.347, 578.617
1358.543, 319.367
1359.738, 1040.066
1360.934, 221.852
1362.129, 122.473
1363.324, 1131.691
1364.519, 182.273
1365.713, 902.742
1366.908, 1223.230
1368.102, 276.352
1369.296, 767.766
1370.490, 501.141
1371.684, 98.691
1372.877, 921.406
1374.071, 292.969
1375.264, 242.395
1376.457, 1020.898
1377.650, 41.453
1378.843, 863.562
1380.035, 737.617
1381.227, 252.520
1382.419, 1267.363
1383.611, 561.914
1384.803, 695.680
1385.995, 1180.316
1387.186, 494.887
1388.377, 698.668
1389.568, 1211.988
1390.759, 96.348
1391.950, 1080.629
1393.140, 1294.848
1394.331, 221.898
1395.521, 1495.926
1396.711, 799.898
1397.900, 323.613
1399.090, 1486.434
1400.279, 560.086
1401.469, 642.867
1402.658, 1234.531
1403.847, 138.547
1405.035, 1291.070
1406.224, 703.898
1407.412, 535.566
1408.600, 1056.953
1409.788, 629.504
1410.976, 457.598
1412.164, 1245.930
1413.351, 520.293
1414.538, 659.727
1415.725, 1230.094
1416.912, 100.480
1418.099, 1010.316
1419.285, 931.598
1420.472, 326.871
1421.658, 1325.055
1422.844, 554.941
1424.030, 765.000
1425.215, 1222.375
1426.401, 439.418
1427.586, 449.941
1428.771, 953.742
1429.956, 224.543
1431.141, 1106.559
1432.325, 786.527
1433.510, 313.941
1434.694, 1191.562
1435.878, 608.324
1437.062, 297.770
1438.245, 1202.082
1439.429, 240.070
1440.612, 957.148
1441.795, 1372.246
1442.978, 218.410
1444.161, 1352.188
1445.343, 1030.121
1446.526, 33.379
1447.708, 1547.262
1448.890, 586.012
1450.072, 502.648
1451.253, 1596.965
1452.435, 502.953
1453.616, 998.539
1454.797, 1213.875
1455.978, 111.312
1457.159, 1402.496
1458.340, 1126.641
1459.520, 478.484
1460.700, 1471.996
1461.880, 889.664
1463.060, 442.980
1464.240, 1576.238
1465.420, 429.086
1466.599, 632.688
1467.778, 1546.273
1468.957, 313.176
1470.136, 1324.398
1471.315, 1377.121
1472.493, 149.617
1473.671, 1722.207
1474.849, 862.668
1476.027, 195.562
1477.205, 1756.891
1478.383, 477.578
1479.560, 688.383
1480.737, 1490.828
1481.914, 221.281
1483.091, 1088.855
1484.268, 882.812
1485.444, 376.914
1486.621, 1360.875
1487.797, 871.734
1488.973, 4.207
1490.149, 1599.906
1491.324, 734.289
1492.500, 448.734
1493.675, 1273.230
1494.850, 298.160
1496.025, 731.484
1497.200, 1096.805
1498.374, 462.047
1499.548, 828.160
1500.723, 784.789
1501.897, 7.750
1503.071, 1330.109
1504.244, 739.727
1505.418, 178.156
1506.591, 1257.164
1507.764, 196.922
1508.937, 667.586
1510.110, 1239.145
1511.282, 19.039
1512.455, 880.617
1513.627, 890.555
1514.799, 50.402
1515.971, 523.801
