##NAMES=Anorthite
##RRUFFID=R040059
##IDEAL CHEMISTRY=CaAl_2_Si_2_O_8_
##LOCALITY=Miyakejima, Japan
##OWNER=RRUFF
##SOURCE=University of Arizona Mineral Museum
##DESCRIPTION=Colorless fragments of crystals
##STATUS=The identification of this mineral has been confirmed by X-ray diffraction and chemical analysis
##URL=rruff.info/R040059
##MEASURED CHEMISTRY=(Ca_0.94_Na_0.04_Fe_0.02_)(Al_0.98_Si_0.02_)_2_Si_2.00_O_8_
##PIN_ID=L00163
##ORIENTATION=Laser parallel to (0 -1 -1). Fiducial mark perpendicular to laser is parallel to -a [-1 0 0]
103.545, 0.000
104.943, 14.340
106.342, 434.347
107.740, 761.771
109.137, 1569.350
110.535, 1467.610
111.932, 1676.867
113.329, 1418.798
114.726, 1453.266
116.123, 1498.478
117.519, 1152.588
118.915, 774.198
120.311, 482.394
121.706, 656.429
123.102, 815.593
124.497, 839.232
125.892, 1266.773
127.286, 1307.718
128.681, 1941.638
130.075, 2298.176
131.469, 2707.028
132.862, 3308.047
134.256, 3381.549
135.649, 3937.536
137.042, 4345.885
138.435, 5056.244
139.827, 5328.312
141.219, 5891.834
142.611, 5996.600
144.003, 5882.432
145.394, 5309.180
146.786, 4156.707
148.177, 3244.902
149.567, 2393.685
150.958, 1712.988
152.348, 1092.760
153.738, 472.954
155.128, 303.535
156.517, 34.471
157.907, 215.732
159.296, 157.294
160.685, 349.595
162.073, 615.037
163.462, 784.123
164.850, 1245.936
166.237, 1487.886
167.625, 2272.531
169.012, 2597.543
170.400, 3391.951
171.786, 3905.793
173.173, 4259.105
174.559, 5121.920
175.946, 5634.268
177.332, 6746.171
178.717, 7287.652
180.103, 8118.736
181.488, 8829.437
182.873, 9259.771
184.258, 9389.760
185.642, 9029.414
187.026, 9178.720
188.410, 8577.591
189.794, 8266.146
191.178, 8014.456
192.561, 7142.563
193.944, 7230.507
195.327, 6228.315
196.709, 5966.010
198.092, 5273.610
199.474, 4931.131
200.856, 4778.588
202.237, 4125.992
203.618, 4213.349
205.000, 3770.666
206.380, 3757.945
207.761, 3285.190
209.142, 2942.406
210.522, 2659.595
211.902, 1936.757
213.281, 1593.896
214.661, 1061.014
216.040, 838.109
217.419, 480.020
218.798, 303.800
220.176, 7.020
221.554, 91.684
222.932, 41.323
224.310, 77.662
225.688, 86.790
227.065, 491.392
228.442, 446.146
229.819, 867.510
231.196, 956.423
232.572, 1364.877
233.948, 1735.641
235.324, 1815.923
236.700, 2516.243
238.075, 2996.599
239.450, 3976.983
240.825, 4047.396
242.200, 4877.832
243.574, 5578.290
244.948, 5598.756
246.322, 6279.215
247.696, 6109.647
249.070, 6590.058
250.443, 6430.430
251.816, 6860.762
253.189, 6751.051
254.561, 6501.296
255.933, 6511.497
257.306, 5871.658
258.677, 6041.773
260.049, 5591.847
261.420, 5381.877
262.791, 5531.862
264.162, 5481.808
265.533, 6231.713
266.903, 6131.579
268.274, 6711.411
269.643, 7098.519
271.013, 7264.625
272.383, 7363.262
273.752, 7342.865
275.121, 8023.246
276.490, 7854.273
277.858, 8515.843
279.226, 8497.885
280.595, 8810.327
281.962, 8993.121
283.330, 8726.226
284.697, 8659.601
286.064, 8133.229
287.431, 7567.081
288.798, 7101.150
290.164, 6105.426
291.530, 5619.852
292.896, 4554.475
294.262, 3959.228
295.627, 3214.137
296.993, 2709.186
298.358, 2164.320
299.722, 1859.571
301.087, 1884.889
302.451, 1330.250
303.815, 1275.681
305.179, 1171.138
306.543, 856.623
307.906, 912.125
309.269, 577.638
310.632, 793.192
311.995, 458.745
313.357, 444.320
314.719, 669.904
316.081, 685.482
317.443, 1031.144
318.804, 906.789
320.166, 1182.458
321.527, 1158.108
322.887, 1133.735
324.248, 799.341
325.608, 334.919
326.968, 290.460
328.328, 34.061
329.688, 188.689
331.047, 223.464
332.406, 278.410
333.765, 333.541
335.124, 308.876
336.482, 238.804
337.840, 240.086
339.198, 35.942
340.556, 11.899
341.913, 22.032
343.271, 24.140
344.628, 260.424
345.984, 216.886
347.341, 43.509
348.697, 440.249
350.053, 167.209
351.409, 444.319
352.765, 281.648
354.120, 419.156
355.475, 306.877
356.830, 4.780
358.185, 62.787
359.539, 229.085
360.894, 360.895
362.248, 792.638
363.601, 1124.322
364.955, 1235.949
366.308, 1787.516
367.661, 1539.022
369.014, 1750.468
370.367, 1481.854
371.719, 1363.182
373.071, 1294.449
374.423, 1035.654
375.775, 1256.801
377.126, 1177.887
378.478, 1248.914
379.828, 1489.879
381.179, 1270.623
382.530, 1561.041
383.880, 1231.057
385.230, 1630.781
386.580, 1509.953
387.929, 1428.447
389.279, 1997.557
390.628, 2076.348
391.977, 2594.783
393.325, 2722.834
394.674, 3320.641
396.022, 3798.326
397.370, 3935.977
398.718, 4583.596
400.065, 4761.180
401.413, 4828.729
402.760, 4756.244
404.106, 4683.727
405.453, 4681.170
406.799, 4038.578
408.146, 3955.951
409.491, 3263.287
410.837, 2730.586
412.182, 2467.850
413.528, 1975.078
414.873, 1992.268
416.217, 1849.424
417.562, 1966.541
418.906, 2383.621
420.250, 2630.664
421.594, 3517.674
422.938, 4154.705
424.281, 5562.617
425.624, 4959.520
426.967, 5006.881
428.310, 5304.326
429.652, 4341.109
430.994, 4489.480
432.336, 3936.207
433.678, 3593.723
435.020, 3471.035
436.361, 3107.887
437.702, 2893.713
439.043, 2571.807
440.383, 2329.775
441.724, 2127.066
443.064, 1673.490
444.404, 1620.627
445.743, 1237.832
447.083, 1106.373
448.422, 996.041
449.761, 978.238
451.100, 854.125
452.438, 871.021
453.777, 1133.047
455.115, 961.338
456.453, 1180.102
457.790, 1276.930
459.128, 1223.725
460.465, 1520.459
461.802, 1118.199
463.139, 1324.082
464.475, 1276.934
465.811, 1292.301
467.147, 1539.746
468.483, 1575.875
469.819, 2051.975
471.154, 2135.324
472.489, 2400.561
473.824, 2751.377
475.159, 2829.527
476.493, 3765.688
477.827, 4082.803
479.161, 5107.656
480.495, 6121.609
481.829, 6666.311
483.162, 8210.891
484.495, 8555.605
485.828, 8520.283
487.161, 9305.746
488.493, 8299.842
489.825, 8247.305
491.157, 8084.838
492.489, 8559.406
493.820, 9550.898
495.151, 11117.977
496.482, 13026.465
497.813, 14972.924
499.144, 18485.113
500.474, 20563.600
501.804, 22249.580
503.134, 23357.443
504.464, 22032.295
505.793, 21022.064
507.123, 18444.324
508.451, 16427.209
509.780, 15264.975
511.109, 13359.648
512.437, 12486.744
513.765, 11023.828
515.093, 9612.062
516.421, 8437.188
517.748, 6991.062
519.075, 6311.094
520.402, 5212.896
521.729, 4995.389
523.055, 5018.324
524.382, 3741.201
525.708, 3694.039
527.034, 3306.846
528.359, 3049.590
529.685, 2592.312
531.010, 2074.980
532.335, 2237.590
533.659, 1720.219
534.984, 1902.789
536.308, 1605.338
537.632, 1727.834
538.956, 1630.268
540.279, 1772.693
541.603, 1875.066
542.926, 1957.418
544.249, 2099.717
545.571, 2831.963
546.894, 2864.189
548.216, 3496.369
549.538, 4328.498
550.860, 4690.578
552.181, 5302.611
553.503, 5265.008
554.824, 6066.947
556.145, 5988.844
557.465, 6130.693
558.786, 5362.498
560.106, 5184.266
561.426, 4775.992
562.746, 4017.670
564.065, 3769.305
565.385, 3180.891
566.704, 2382.432
568.023, 2443.930
569.341, 1865.381
570.660, 1806.785
571.978, 1238.145
573.296, 1009.459
574.614, 1120.725
575.931, 791.945
577.248, 913.123
578.565, 554.252
579.882, 505.336
581.199, 446.373
582.515, 227.365
583.831, 458.301
585.147, 339.193
586.463, 310.029
587.779, 540.818
589.094, 141.559
590.409, 482.240
591.724, 262.875
593.038, 303.457
594.353, 403.986
595.667, 274.469
596.981, 544.896
598.295, 155.277
599.608, 255.600
600.922, 455.869
602.235, 266.094
603.547, 236.260
604.860, 86.377
606.172, 36.426
607.485, 13.605
608.797, 73.738
610.108, 235.994
611.420, 174.330
612.731, 75.162
614.042, 125.414
615.353, 96.152
616.664, 182.969
617.974, 97.967
619.284, 80.953
620.594, 339.809
621.904, 41.385
623.213, 477.307
624.523, 75.957
625.832, 204.541
627.141, 193.074
628.449, 58.443
629.758, 359.918
631.066, 21.764
632.374, 22.336
633.681, 124.598
634.989, 287.314
636.296, 350.537
637.603, 81.656
638.910, 346.025
640.217, 353.662
641.523, 301.256
642.829, 289.680
644.135, 117.184
645.441, 464.633
646.747, 280.811
648.052, 258.211
649.357, 499.408
650.662, 236.885
651.967, 564.654
653.271, 367.492
654.575, 5.170
655.879, 665.158
657.183, 12.902
658.486, 490.744
659.790, 549.939
661.093, 377.631
662.396, 901.846
663.698, 689.600
665.001, 1077.404
666.303, 1098.182
667.605, 1349.375
668.907, 1707.826
670.209, 1816.051
671.510, 2334.203
672.811, 2866.406
674.112, 2894.748
675.413, 4133.363
676.713, 3693.553
678.013, 4621.877
679.313, 4511.371
680.613, 4569.609
681.913, 4572.111
683.212, 3884.910
684.511, 3913.020
685.810, 3247.664
687.109, 2756.256
688.407, 2744.240
689.706, 2319.201
691.004, 2307.100
692.302, 1633.262
693.599, 1471.070
694.897, 1538.836
696.194, 1267.188
697.491, 1284.867
698.788, 1250.711
700.084, 948.305
701.380, 1265.852
702.677, 659.518
703.972, 1226.979
705.268, 1064.396
706.564, 771.771
707.859, 959.104
709.154, 376.391
710.449, 1063.631
711.743, 930.830
713.037, 747.990
714.332, 915.104
715.626, 644.000
716.919, 1271.031
718.213, 698.020
719.506, 1114.965
720.799, 1121.871
722.092, 908.734
723.384, 975.559
724.677, 1222.340
725.969, 949.082
727.261, 1305.783
728.553, 1152.445
729.844, 1609.066
731.136, 1615.646
732.427, 1882.188
733.718, 1968.689
735.008, 2191.324
736.299, 2781.576
737.589, 2727.898
738.879, 3133.270
740.169, 3549.570
741.458, 3105.338
742.748, 3510.949
744.037, 3317.146
745.326, 3021.682
746.614, 3577.805
747.903, 2653.082
749.191, 3108.496
750.479, 3064.303
751.767, 2719.533
753.055, 4015.475
754.342, 3569.932
755.629, 3924.990
756.916, 4290.828
758.203, 4535.867
759.490, 5220.756
760.776, 4774.215
762.062, 4956.463
763.348, 5236.088
764.634, 4491.934
765.919, 4666.678
767.204, 4276.201
768.489, 3809.367
769.774, 3501.963
771.059, 3326.402
772.343, 3010.777
773.627, 2185.121
774.911, 2488.359
776.195, 2023.367
777.479, 1611.303
778.762, 1796.633
780.045, 1249.783
781.328, 1144.158
782.611, 1138.467
783.893, 975.424
785.175, 1200.402
786.457, 929.707
787.739, 661.578
789.021, 995.348
790.302, 338.062
791.583, 672.943
792.864, 578.633
794.145, 423.477
795.425, 778.348
796.706, 42.992
797.986, 757.566
799.266, 231.266
800.545, 93.764
801.825, 480.646
803.104, 175.043
804.383, 309.680
805.662, 133.715
806.940, 41.600
808.219, 202.900
809.497, 156.469
810.775, 198.008
812.053, 138.721
813.330, 146.826
814.608, 477.508
815.885, 388.283
817.162, 295.791
818.438, 359.850
819.715, 16.109
820.991, 22.115
822.267, 138.170
823.543, 105.660
824.818, 219.475
826.094, 196.730
827.369, 206.926
828.644, 60.564
829.919, 5.818
831.193, 247.758
832.468, 318.678
833.742, 334.682
835.016, 51.977
836.289, 58.691
837.563, 194.533
838.836, 92.260
840.109, 10.871
841.382, 233.977
842.654, 262.934
843.927, 249.998
845.199, 127.090
846.471, 205.736
847.743, 288.551
849.014, 168.650
850.286, 354.043
851.557, 133.275
852.828, 219.316
854.099, 471.900
855.369, 105.529
856.639, 336.977
857.909, 99.471
859.179, 101.957
860.449, 684.469
861.718, 26.973
862.988, 229.055
864.257, 271.545
865.525, 264.023
866.794, 286.500
868.062, 41.033
869.331, 481.408
870.599, 463.857
871.866, 196.297
873.134, 568.734
874.401, 571.166
875.668, 553.596
876.935, 656.021
878.202, 218.443
879.468, 570.859
880.735, 573.342
882.001, 385.822
883.267, 1048.305
884.532, 310.781
885.798, 1133.262
887.063, 865.736
888.328, 908.213
889.593, 1200.689
890.857, 963.189
892.122, 1535.693
893.386, 1488.195
894.650, 1350.709
895.913, 1683.225
897.177, 1445.744
898.440, 1788.273
899.703, 1810.805
900.966, 1673.402
902.229, 2416.012
903.491, 1618.625
904.754, 2351.246
906.016, 2363.871
907.278, 1916.510
908.539, 2689.158
909.801, 2541.812
911.062, 2714.477
912.323, 3017.152
913.584, 2569.846
914.844, 2732.562
916.105, 2575.318
917.365, 2078.125
918.625, 1950.945
919.885, 1683.844
921.144, 2006.766
922.404, 2069.754
923.663, 1452.801
924.922, 2355.865
926.180, 1808.992
927.439, 1912.135
928.697, 2205.297
929.955, 2058.504
931.213, 2401.762
932.471, 2185.043
933.728, 2298.340
934.985, 2891.658
936.242, 2075.027
937.499, 2948.410
938.756, 2541.838
940.012, 2505.295
941.269, 3328.775
942.525, 2442.367
943.780, 2845.979
945.036, 3219.648
946.291, 2913.334
947.546, 4217.039
948.801, 3619.889
950.056, 4693.633
951.311, 4637.396
952.565, 4812.418
953.819, 5386.223
955.073, 5166.285
956.327, 4700.133
957.580, 5253.766
958.834, 4182.426
960.087, 4696.340
961.339, 4397.996
962.592, 3961.975
963.845, 4258.430
965.097, 3980.980
966.349, 4095.043
967.601, 4492.607
968.852, 4206.723
970.104, 4680.863
971.355, 5012.068
972.606, 5022.992
973.857, 5766.730
975.107, 4810.836
976.358, 5665.113
977.608, 5705.480
978.858, 5189.816
980.108, 5723.914
981.357, 4736.479
982.607, 5080.910
983.856, 4514.160
985.105, 4258.652
986.353, 4218.877
987.602, 3688.797
988.850, 3373.395
990.098, 3451.447
991.346, 2715.545
992.594, 3140.246
993.841, 2627.965
995.089, 2192.771
996.336, 2749.311
997.583, 2294.193
998.829, 2279.117
1000.076, 2423.453
1001.322, 1868.459
1002.568, 2515.314
1003.814, 1900.422
1005.060, 1245.570
1006.305, 1994.602
1007.550, 1209.838
1008.795, 1625.121
1010.040, 1558.230
1011.285, 1003.600
1012.529, 1539.043
1013.773, 1334.535
1015.017, 1090.068
1016.261, 1495.646
1017.505, 841.268
1018.748, 1715.109
1019.991, 1393.027
1021.234, 928.770
1022.477, 1474.555
1023.719, 1040.377
1024.962, 1256.230
1026.204, 1242.125
1027.446, 588.062
1028.688, 1414.039
1029.929, 695.391
1031.170, 1071.449
1032.411, 1267.555
1033.652, 793.699
1034.893, 1219.887
1036.134, 1016.117
1037.374, 672.391
1038.614, 1638.711
1039.854, 619.645
1041.094, 1396.051
1042.333, 1292.500
1043.572, 799.316
1044.811, 1595.859
1046.050, 912.441
1047.289, 849.074
1048.527, 1735.750
1049.766, 746.598
1051.004, 1803.367
1052.241, 1410.188
1053.479, 937.055
1054.717, 1473.969
1055.954, 990.930
1057.191, 1467.941
1058.428, 1095.004
1059.664, 812.113
1060.901, 1599.273
1062.137, 1206.477
1063.373, 943.738
1064.609, 1571.047
1065.844, 1106.828
1067.080, 1335.250
1068.315, 1464.102
1069.550, 1498.766
1070.785, 1157.008
1072.019, 1301.410
1073.254, 1251.066
1074.488, 1751.289
1075.722, 1239.047
1076.955, 1616.859
1078.189, 1564.723
1079.422, 1341.504
1080.656, 1969.477
1081.889, 1177.508
1083.121, 1305.586
1084.354, 1593.723
1085.586, 831.914
1086.818, 1740.160
1088.050, 1408.465
1089.282, 796.824
1090.514, 1455.234
1091.745, 433.637
1092.976, 1442.098
1094.207, 1030.609
1095.438, 309.180
1096.668, 1207.781
1097.899, 706.441
1099.129, 435.160
1100.359, 1023.934
1101.588, 432.664
1102.818, 771.445
1104.047, 940.348
1105.276, 419.309
1106.505, 1378.273
1107.734, 317.324
1108.962, 426.418
1110.191, 705.633
1111.419, 135.250
1112.647, 873.910
1113.874, 333.176
1115.102, 302.496
1116.329, 931.984
1117.556, 301.527
1118.783, 1101.125
1120.010, 1020.793
1121.236, 350.535
1122.463, 1310.379
1123.689, 780.281
1124.914, 640.234
1126.140, 1140.184
1127.366, 360.188
1128.591, 680.238
1129.816, 1180.359
1131.041, 130.527
1132.266, 930.844
1133.490, 481.207
1134.714, 711.645
1135.938, 902.156
1137.162, 362.727
1138.386, 633.383
1139.609, 1074.102
1140.833, 124.879
1142.056, 712.938
1143.279, 753.914
1144.501, 34.996
1145.724, 404.242
1146.946, 593.566
1148.168, 696.070
1149.390, 720.949
1150.612, 412.734
1151.833, 528.945
1153.054, 475.180
1154.275, 414.551
1155.496, 1043.891
1156.717, 254.137
1157.937, 617.570
1159.158, 345.941
1160.378, 427.785
1161.598, 769.578
1162.817, 181.223
1164.037, 312.816
1165.256, 934.391
1166.475, 104.801
1167.694, 605.754
1168.913, 496.699
1170.131, 386.578
1171.349, 735.477
##END=



