##NAMES=Anorthite
##RRUFFID=R040059
##IDEAL CHEMISTRY=CaAl_2_Si_2_O_8_
##LOCALITY=Miyakejima, Japan
##OWNER=RRUFF
##SOURCE=University of Arizona Mineral Museum
##DESCRIPTION=Colorless fragments of crystals
##STATUS=The identification of this mineral has been confirmed by X-ray diffraction and chemical analysis
##URL=rruff.info/R040059
##MEASURED CHEMISTRY=(Ca_0.94_Na_0.04_Fe_0.02_)(Al_0.98_Si_0.02_)_2_Si_2.00_O_8_
##PIN_ID=M00453
##ORIENTATION=Laser parallel to -c* (0 0 -1). Fiducial mark perpendicular to laser is parallel to a [1 0 0]
118.956, 0.000
120.347, 5.831
121.738, 121.495
123.129, 17.660
124.519, 38.188
125.910, 13.352
127.300, 6.270
128.690, 105.261
130.080, 67.799
131.469, 205.889
132.858, 225.303
134.248, 469.655
135.636, 748.495
137.025, 1211.425
138.413, 1837.994
139.801, 2617.767
141.189, 3730.338
142.577, 4725.352
143.964, 5992.502
145.352, 6901.529
146.739, 7542.217
148.125, 7754.528
149.512, 7088.773
150.898, 6745.208
152.284, 5583.568
153.670, 4933.521
155.056, 3934.806
156.441, 3367.195
157.827, 3150.516
159.212, 2864.611
160.596, 3019.359
161.981, 3214.652
163.365, 3780.403
164.749, 4136.547
166.133, 4993.029
167.517, 6039.811
168.900, 6706.859
170.283, 7534.142
171.666, 7871.641
173.049, 8389.331
174.431, 8877.354
175.813, 9356.612
177.195, 9928.171
178.577, 10483.087
179.959, 11401.773
181.340, 11993.019
182.721, 12794.173
184.102, 13264.684
185.483, 13634.510
186.863, 14093.694
188.244, 13932.278
189.624, 14360.301
191.003, 13617.789
192.383, 13434.777
193.762, 12881.290
195.141, 11747.348
196.520, 10972.974
197.899, 9538.194
199.277, 8793.018
200.656, 7467.471
202.034, 6751.576
203.411, 6025.347
204.789, 5198.820
206.166, 4632.031
207.543, 4015.020
208.920, 3797.812
210.297, 3420.450
211.673, 2972.951
213.049, 2585.329
214.425, 2457.598
215.801, 2299.766
217.176, 2021.847
218.552, 1903.845
219.927, 1905.771
221.302, 1737.629
222.676, 1569.424
224.051, 1151.159
225.425, 1212.838
226.799, 784.461
228.173, 809.410
229.546, 655.706
230.919, 547.338
232.292, 633.042
233.665, 576.150
235.038, 856.023
236.410, 1062.343
237.782, 1426.411
239.154, 1740.674
240.526, 2062.326
241.898, 2895.226
243.269, 2944.101
244.640, 3696.843
246.011, 3725.394
247.381, 4091.496
248.752, 4125.783
250.122, 4360.104
251.492, 4354.455
252.861, 4348.834
254.231, 4623.237
255.600, 4617.660
256.969, 4762.104
258.338, 4876.559
259.707, 4611.020
261.075, 4725.471
262.443, 4639.895
263.811, 5004.281
265.179, 5028.627
266.546, 5382.928
267.914, 5847.186
269.281, 6061.402
270.647, 6365.576
272.014, 6569.715
273.380, 7043.816
274.747, 7107.885
276.113, 7421.914
277.478, 7825.904
278.844, 8039.854
280.209, 8543.767
281.574, 8807.641
282.939, 9081.473
284.304, 9467.367
285.668, 9241.421
287.032, 9526.837
288.396, 8952.282
289.760, 8838.247
291.123, 8343.825
292.487, 7470.584
293.850, 7027.664
295.212, 5883.690
296.575, 5331.299
297.937, 4269.127
299.300, 3737.153
300.662, 3115.352
302.023, 2563.705
303.385, 2362.193
304.746, 1820.800
306.107, 1779.510
307.468, 1498.312
308.829, 1417.196
310.189, 1366.153
311.549, 1125.174
312.909, 1374.250
314.269, 1253.376
315.629, 1472.612
316.988, 1751.876
318.347, 1891.211
319.706, 2340.596
321.065, 2499.987
322.423, 2919.388
323.781, 2808.809
325.139, 2848.226
326.497, 2607.637
327.855, 2087.039
329.212, 1726.438
330.569, 1125.819
331.926, 935.185
333.283, 614.556
334.639, 313.908
335.995, 163.310
337.351, 192.678
338.707, 152.033
340.063, 31.350
341.418, 39.399
342.773, 29.820
344.128, 191.059
345.483, 57.897
346.837, 293.249
348.192, 94.592
349.546, 346.075
350.899, 337.765
352.253, 299.656
353.606, 371.737
354.960, 254.026
356.313, 396.488
357.665, 479.162
359.018, 412.065
360.370, 335.180
361.722, 348.486
363.074, 311.983
364.426, 145.663
365.777, 0.521
367.128, 66.607
368.479, 292.615
369.830, 198.561
371.181, 344.443
372.531, 350.268
373.881, 496.036
375.231, 611.750
376.581, 607.414
377.930, 933.027
379.280, 998.588
380.629, 1254.100
381.977, 1299.562
383.326, 1314.973
384.674, 1490.334
386.023, 1175.646
387.370, 1380.908
388.718, 1186.121
390.066, 981.283
391.413, 1036.381
392.760, 1161.406
394.107, 1276.283
395.454, 1460.955
396.800, 1775.390
398.146, 2039.517
399.492, 2123.268
400.838, 2646.650
402.184, 2719.582
403.529, 3182.115
404.874, 3324.285
406.219, 3406.279
407.564, 3458.213
408.908, 3130.105
410.252, 3051.970
411.596, 2613.815
412.940, 2525.639
414.284, 2197.442
415.627, 1829.226
416.970, 2160.985
418.313, 1732.725
419.656, 1834.541
420.999, 2196.337
422.341, 2378.240
423.683, 2950.462
425.025, 3242.088
426.367, 3954.229
427.708, 4055.811
429.049, 4487.539
430.390, 4649.076
431.731, 4470.592
433.072, 4422.086
434.412, 4023.556
435.752, 3965.003
437.092, 3706.430
438.432, 3407.832
439.772, 3276.135
441.111, 2930.574
442.450, 2841.910
443.789, 2573.227
445.127, 2264.519
446.466, 2025.783
447.804, 1937.029
449.142, 1868.250
450.480, 1879.444
451.817, 1980.985
453.155, 2022.882
454.492, 2194.250
455.829, 2526.008
457.166, 2707.049
458.502, 3028.459
459.838, 3290.336
461.175, 3101.264
462.510, 3272.821
463.846, 3023.664
465.181, 2944.463
466.517, 2995.219
467.852, 2995.930
469.186, 3446.887
470.521, 3567.508
471.855, 4098.082
473.190, 4139.340
474.523, 5030.182
475.857, 5628.027
477.191, 6348.912
478.524, 7431.361
479.857, 8259.544
481.190, 9820.555
482.523, 11582.280
483.855, 12827.105
485.187, 15648.070
486.519, 15689.098
487.851, 16089.693
489.183, 15911.802
490.514, 14511.689
491.845, 14081.986
493.176, 13507.612
494.507, 13747.880
495.837, 14654.266
497.168, 16822.314
498.498, 19504.342
499.828, 22092.967
501.157, 26558.227
502.487, 29204.520
503.816, 31649.611
505.145, 32611.266
506.474, 30177.646
507.802, 28701.498
509.131, 24297.738
510.459, 20947.994
511.787, 17808.691
513.115, 14941.619
514.442, 13009.962
515.770, 10825.579
517.097, 9682.116
518.424, 8663.375
519.750, 7618.716
521.077, 8038.832
522.403, 6938.016
523.729, 7199.432
525.055, 7201.221
526.381, 6672.080
527.706, 6516.223
529.031, 5594.154
530.356, 5291.095
531.681, 4149.332
533.006, 3707.546
534.330, 3166.358
535.654, 2705.567
536.978, 2364.740
538.302, 2183.907
539.625, 1713.039
540.949, 1812.139
542.272, 1381.218
543.595, 1680.262
544.917, 1469.290
546.240, 1518.286
547.562, 1717.249
548.884, 1636.181
550.206, 1925.078
551.527, 1693.942
552.849, 2032.772
554.170, 2231.569
555.491, 2260.332
556.812, 2349.064
558.132, 2447.764
559.453, 2386.437
560.773, 2245.080
562.093, 2053.696
563.412, 1942.289
564.732, 1530.858
566.051, 1569.405
567.370, 1197.930
568.689, 1026.432
570.008, 924.912
571.326, 703.368
572.644, 751.802
573.963, 520.213
575.280, 438.601
576.598, 396.968
577.915, 265.311
579.233, 263.629
580.550, 231.923
581.866, 150.192
583.183, 298.433
584.499, 156.651
585.815, 464.840
587.131, 243.007
588.447, 551.147
589.763, 699.266
591.078, 497.358
592.393, 945.429
593.708, 893.476
595.022, 1081.497
596.337, 949.496
597.651, 847.471
598.965, 1085.421
600.279, 933.348
601.593, 821.250
602.906, 709.127
604.219, 456.981
605.532, 604.811
606.845, 322.616
608.158, 380.396
609.470, 178.153
610.782, 85.882
612.094, 203.580
613.406, 101.248
614.718, 288.889
616.029, 166.503
617.340, 44.089
618.651, 411.643
619.962, 99.174
621.272, 516.674
622.582, 294.148
623.892, 301.598
625.202, 539.023
626.512, 186.424
627.821, 393.799
629.131, 331.148
630.440, 78.475
631.749, 165.768
633.057, 266.965
634.366, 130.125
635.674, 182.814
636.982, 115.885
638.290, 60.947
639.597, 12.252
640.905, 65.492
642.212, 31.197
643.519, 7.855
644.825, 97.844
646.132, 25.561
647.438, 301.598
648.744, 128.541
650.050, 84.857
651.356, 116.875
652.662, 266.734
653.967, 250.158
655.272, 52.055
656.577, 14.557
657.882, 143.502
659.186, 240.379
660.490, 112.842
661.794, 12.629
663.098, 8.674
664.402, 406.271
665.705, 257.398
667.009, 664.018
668.312, 595.990
669.614, 772.600
670.917, 1109.879
672.219, 942.574
673.522, 1950.035
674.824, 1756.184
676.125, 2343.453
677.427, 2806.266
678.728, 2927.635
680.030, 3317.027
681.331, 3283.143
682.631, 3250.477
683.932, 3324.936
685.232, 2831.047
686.532, 2768.363
687.832, 2472.773
689.132, 2350.389
690.432, 2125.533
691.731, 1695.438
693.030, 1762.619
694.329, 1475.795
695.628, 1362.910
696.926, 1370.461
698.224, 930.457
699.522, 1247.475
700.820, 898.236
702.118, 1065.406
703.415, 1222.818
704.713, 800.299
706.010, 1167.154
707.307, 874.113
708.603, 1120.977
709.900, 1247.734
711.196, 974.459
712.492, 1081.150
713.788, 977.811
715.083, 974.438
716.379, 935.842
717.674, 957.656
718.969, 794.186
720.264, 720.684
721.558, 617.152
722.853, 1023.588
724.147, 559.990
725.441, 916.361
726.735, 932.701
728.028, 869.008
729.322, 835.285
730.615, 951.529
731.908, 1087.742
733.201, 1463.924
734.493, 1329.973
735.785, 1505.988
737.078, 1591.844
738.370, 2307.326
739.661, 1943.352
740.953, 2288.812
742.244, 2734.775
743.535, 2300.541
744.826, 2796.441
746.117, 2292.314
747.407, 2258.154
748.698, 2453.965
749.988, 2099.744
751.278, 2825.494
752.567, 2441.213
753.857, 2596.900
755.146, 2982.559
756.435, 3098.191
757.724, 3793.789
759.013, 3849.359
760.301, 4014.898
761.590, 4860.410
762.878, 4445.887
764.165, 4791.340
765.453, 5016.387
766.741, 4391.020
768.028, 4496.121
769.315, 3990.768
770.602, 3696.072
771.888, 3160.943
773.175, 2635.277
774.461, 2690.498
775.747, 2105.016
777.033, 1810.178
778.319, 1755.312
779.604, 1310.418
780.889, 1435.496
782.174, 1150.256
783.459, 1255.279
784.744, 1150.275
786.028, 744.516
787.312, 1179.096
788.596, 536.598
789.880, 710.986
791.164, 693.736
792.447, 610.674
793.730, 684.713
795.013, 327.957
796.296, 618.027
797.579, 501.887
798.861, 15.607
800.143, 509.666
801.425, 132.135
802.707, 176.744
803.989, 250.875
805.270, 20.404
806.551, 293.574
807.832, 90.719
809.113, 35.156
810.394, 135.744
811.674, 150.791
812.954, 333.039
814.234, 228.633
815.514, 15.168
816.794, 347.775
818.073, 20.664
819.352, 195.391
820.631, 108.373
821.910, 207.854
823.189, 155.760
824.467, 290.646
825.745, 57.254
827.023, 36.059
828.301, 110.658
829.578, 112.521
830.856, 214.326
832.133, 31.334
833.410, 158.404
834.687, 105.609
835.963, 207.088
837.240, 80.240
838.516, 107.656
839.792, 254.826
841.068, 242.717
842.343, 99.568
843.618, 98.170
844.894, 16.002
846.169, 216.115
847.443, 71.789
848.718, 220.229
849.992, 52.227
851.266, 25.799
852.540, 376.123
853.814, 41.973
855.088, 99.873
856.361, 31.697
857.634, 13.500
858.907, 445.273
860.180, 107.029
861.453, 118.768
862.725, 380.484
863.997, 192.189
865.269, 213.873
866.541, 215.543
867.812, 197.193
869.084, 448.854
870.355, 100.496
871.626, 242.119
872.897, 393.729
874.167, 195.326
875.438, 586.906
876.708, 288.475
877.978, 430.025
879.248, 681.568
880.517, 153.098
881.787, 784.613
883.056, 246.131
884.325, 817.633
885.594, 799.123
886.862, 620.604
888.130, 1032.068
889.399, 923.605
890.667, 1095.135
891.934, 1216.654
893.202, 938.176
894.469, 1499.691
895.737, 1251.195
897.004, 1342.691
898.270, 1724.174
899.537, 1605.672
900.803, 1727.158
902.070, 1768.635
903.336, 1864.400
904.601, 2411.598
905.867, 2183.066
907.132, 2464.527
908.398, 2705.982
909.663, 2577.432
910.928, 3268.875
912.192, 2800.311
913.457, 3151.740
914.721, 3323.166
915.985, 2784.586
917.249, 2936.000
918.512, 2767.412
919.776, 2498.820
921.039, 2890.229
922.302, 2001.635
923.565, 2473.053
924.827, 2144.469
926.090, 1845.885
927.352, 2147.297
928.614, 1848.711
929.876, 2070.143
931.138, 1971.574
932.399, 1883.002
933.660, 2334.430
934.922, 1835.855
936.182, 2147.285
937.443, 2358.709
938.704, 2190.139
939.964, 2761.568
941.224, 2373.074
942.484, 2554.586
943.744, 2866.152
945.003, 2557.760
946.262, 3089.369
947.521, 3060.992
948.780, 3082.639
950.039, 3224.293
951.298, 3322.590
952.556, 3734.254
953.814, 3875.324
955.072, 3576.592
956.330, 4468.176
957.587, 3664.582
958.845, 3966.311
960.102, 4327.441
961.359, 3667.672
962.615, 3839.043
963.872, 3978.084
965.128, 3629.959
966.384, 4564.686
967.640, 4132.852
968.896, 4394.828
970.152, 5235.240
971.407, 5112.221
972.662, 6043.961
973.917, 5560.250
975.172, 6232.018
976.427, 6523.213
977.681, 6229.117
978.935, 6720.342
980.189, 6313.012
981.443, 6414.705
982.697, 6271.051
983.950, 5728.961
985.203, 5508.963
986.456, 5192.354
987.709, 4584.607
988.962, 4719.771
990.214, 4253.295
991.467, 4115.611
992.719, 4070.832
993.971, 3512.932
995.222, 3827.490
996.474, 3537.283
997.725, 3379.832
998.976, 3596.373
1000.227, 3388.967
1001.478, 3701.121
1002.728, 3490.818
1003.978, 3033.488
1005.229, 3662.408
1006.479, 2894.910
1007.728, 2887.291
1008.978, 3329.590
1010.227, 2652.508
1011.476, 3035.377
1012.725, 3128.336
1013.974, 2811.395
1015.223, 3284.484
1016.471, 2657.598
1017.719, 3190.736
1018.967, 3188.438
1020.215, 2541.627
1021.462, 3244.787
1022.710, 2838.027
1023.957, 2631.299
1025.204, 3094.594
1026.451, 2087.914
1027.697, 2911.270
1028.944, 2425.451
1030.190, 2118.855
1031.436, 2732.318
1032.682, 2167.900
1033.928, 2421.412
1035.173, 2314.945
1036.418, 1708.506
1037.663, 2532.094
1038.908, 1915.010
1040.153, 2208.648
1041.398, 2432.328
1042.642, 1628.508
1043.886, 2152.234
1045.130, 1846.053
1046.374, 1629.891
1047.617, 2293.754
1048.860, 1431.574
1050.104, 1795.557
1051.347, 1919.566
1052.589, 1196.594
1053.832, 1780.652
1055.074, 1324.736
1056.316, 1418.846
1057.558, 1232.977
1058.800, 1217.141
1060.042, 1451.326
1061.283, 1435.543
1062.524, 909.922
1063.765, 1574.186
1065.006, 1118.541
1066.247, 1432.922
1067.487, 1967.324
1068.728, 1191.750
1069.968, 1566.199
1071.208, 1000.672
1072.447, 1048.029
1073.687, 1622.551
1074.926, 1297.105
1076.165, 1191.680
1077.404, 1576.277
1078.643, 1045.199
1079.881, 1619.877
1081.120, 1084.578
1082.358, 939.502
1083.596, 1334.309
1084.834, 769.139
1086.071, 1253.996
1087.309, 1488.873
1088.546, 523.783
1089.783, 1368.715
1091.020, 793.666
1092.256, 1009.443
1093.493, 1204.439
1094.729, 399.461
1095.965, 865.023
1097.201, 800.084
1098.436, 395.295
1099.672, 690.398
1100.907, 385.539
1102.142, 541.305
1103.377, 746.488
1104.612, 351.699
1105.846, 826.938
1107.081, 562.221
1108.315, 267.574
1109.549, 632.902
1110.782, 248.254
1112.016, 767.867
1113.249, 473.318
1114.483, 78.785
1115.716, 564.359
1116.948, 269.969
1118.181, 415.596
1119.413, 601.256
1120.646, 23.006
1121.878, 723.207
1123.110, 489.053
1124.341, 224.914
1125.573, 651.355
1126.804, 467.363
1128.035, 253.395
1129.266, 819.896
1130.497, 3.998
1131.727, 557.064
1132.957, 473.291
1134.188, 69.582
1135.418, 611.260
1136.647, 277.619
1137.877, 364.641
1139.106, 912.168
1140.335, 28.637
1141.564, 655.697
1142.793, 612.268
1144.022, 28.885
1145.250, 1055.312
1146.479, 301.965
1147.707, 189.346
1148.934, 667.420
1150.162, 34.127
1151.390, 832.127
1152.617, 329.580
1153.844, 76.344
1155.071, 883.289
1156.298, 30.100
1157.524, 416.916
1158.751, 489.307
1159.977, 216.133
1161.203, 654.146
1162.428, 372.074
1163.654, 248.908
1164.879, 716.584
1166.105, 136.582
1167.330, 540.213
1168.555, 348.479
1169.779, 165.275
1171.004, 402.818
1172.228, 490.275
1173.452, 87.068
1174.676, 705.959
1175.900, 36.926
1177.123, 459.854
1178.346, 513.836
1179.570, 69.393
1180.793, 737.355
1182.015, 14.100
1183.238, 240.840
1184.460, 758.398
1185.683, 364.045
1186.905, 602.514
1188.126, 372.672
1189.348, 70.785
1190.569, 425.732
1191.791, 107.283
1193.012, 183.787
1194.233, 690.574
1195.453, 86.193
1196.674, 540.242
1197.894, 447.855
1199.114, 65.729
1200.334, 440.648
1201.554, 258.123
1202.774, 384.479
1203.993, 600.830
1205.212, 339.467
1206.431, 535.793
1207.650, 543.311
1208.869, 80.316
1210.087, 626.600
1211.305, 358.678
1212.524, 334.936
1213.741, 831.180
1214.959, 168.010
1216.177, 904.225
1217.394, 590.439
1218.611, 42.205
1219.828, 953.951
1221.045, 261.920
1222.261, 468.045
1223.478, 1054.156
1224.694, 61.535
1225.910, 624.494
1227.126, 690.516
1228.342, 171.256
1229.557, 847.211
1230.772, 673.168
1231.987, 430.664
1233.202, 916.617
1234.417, 264.354
1235.631, 460.301
1236.846, 966.246
1238.060, 43.252
1239.274, 959.186
1240.488, 525.117
1241.701, 121.043
1242.915, 816.963
1244.128, 222.857
1245.341, 538.748
1246.554, 974.633
1247.767, 121.492
1248.979, 947.359
1250.191, 313.227
1251.403, 411.441
1252.615, 1127.287
1253.827, 273.051
1255.039, 558.807
1256.250, 1214.525
1257.461, 19.773
1258.672, 755.852
1259.883, 781.404
1261.094, 340.066
1262.304, 755.525
1263.514, 460.967
1264.724, 577.582
1265.934, 792.820
1267.144, 217.744
1268.354, 834.367
1269.563, 769.447
1270.772, 224.504
1271.981, 969.529
1273.190, 414.531
1274.398, 250.082
1275.607, 1305.020
1276.815, 170.168
1278.023, 585.350
1279.231, 980.109
1280.439, 14.742
1281.646, 829.912
1282.853, 224.543
1284.060, 119.045
1285.267, 1144.307
1286.474, 251.375
1287.681, 393.967
1288.887, 438.137
1290.093, 77.740
1291.299, 896.818
1292.505, 230.828
1293.711, 94.684
1294.916, 899.525
1296.121, 113.309
1297.327, 237.043
1298.531, 760.729
1299.736, 395.691
1300.941, 854.988
1302.145, 648.246
1303.349, 158.549
1304.553, 805.637
1305.757, 148.682
1306.961, 171.672
1308.164, 514.615
1309.367, 237.514
1310.570, 680.365
1311.773, 458.621
1312.976, 121.346
1314.178, 814.660
1315.381, 267.281
1316.583, 289.854
1317.785, 912.336
1318.987, 84.773
1320.188, 377.135
1321.390, 928.633
1322.591, 19.115
1323.792, 813.057
1324.993, 513.078
1326.193, 1365.137
1327.394, 1037.139
1328.594, 269.088
1329.794, 270.977
1330.994, 924.061
1332.194, 35.832
1333.394, 647.533
1334.593, 717.215
1335.792, 151.195
1336.991, 980.285
1338.190, 391.592
1339.389, 177.170
1340.587, 1310.088
1341.786, 181.160
1342.984, 512.180
1344.182, 990.299
1345.379, 201.213
1346.577, 1002.074
1347.774, 754.877
1348.972, 75.648
1350.169, 1116.363
1351.365, 187.033
1352.562, 307.641
1353.759, 1178.064
1354.955, 161.432
1356.151, 878.967
1357.347, 819.984
1358.543, 340.322
1359.738, 1030.625
1360.934, 664.855
1362.129, 215.010
1363.324, 1162.273
1364.519, 123.865
1365.713, 883.891
1366.908, 1403.889
1368.102, 36.584
1369.296, 858.291
1370.490, 830.594
1371.684, 140.871
1372.877, 923.709
1374.071, 558.025
1375.264, 172.293
1376.457, 1186.508
1377.650, 149.850
1378.843, 843.971
1380.035, 1017.502
1381.227, 271.400
1382.419, 1304.748
1383.611, 938.686
1384.803, 582.553
1385.995, 1276.324
1387.186, 855.395
1388.377, 619.088
1389.568, 1372.707
1390.759, 316.273
1391.950, 979.270
1393.140, 1392.736
1394.331, 135.598
1395.521, 1488.484
1396.711, 973.945
1397.900, 587.041
1399.090, 1503.561
1400.279, 644.412
1401.469, 521.623
1402.658, 1454.172
1403.847, 64.164
1405.035, 1183.809
1406.224, 994.389
1407.412, 255.623
1408.600, 1137.412
1409.788, 777.936
1410.976, 157.568
1412.164, 1357.234
1413.351, 687.172
1414.538, 556.199
1415.725, 1306.152
1416.912, 366.160
1418.099, 703.512
1419.285, 1153.645
1420.472, 324.305
1421.658, 1334.941
1422.844, 402.977
1424.030, 738.113
1425.215, 1548.785
1426.401, 535.301
1427.586, 247.883
1428.771, 1255.859
1429.956, 195.742
1431.141, 1193.723
1432.325, 959.535
1433.510, 347.094
1434.694, 1295.438
1435.878, 716.562
1437.062, 204.512
1438.245, 1423.449
1439.429, 550.156
1440.612, 915.457
1441.795, 1478.180
1442.978, 73.387
1444.161, 1315.418
1445.343, 1200.039
1446.526, 153.809
1447.708, 1680.980
1448.890, 885.602
1450.072, 782.207
1451.253, 1728.570
1452.435, 934.688
1453.616, 1078.223
1454.797, 1448.098
1455.978, 253.297
1457.159, 1258.414
1458.340, 1323.410
1459.520, 600.477
1460.700, 1505.422
1461.880, 1197.316
1463.060, 628.832
1464.240, 1674.211
1465.420, 559.367
1466.599, 812.605
1467.778, 1785.285
1468.957, 458.531
1470.136, 1522.891
1471.315, 1524.977
1472.493, 256.270
1473.671, 1701.090
1474.849, 1273.895
1476.027, 265.312
1477.205, 1890.164
1478.383, 825.152
1479.560, 811.254
1480.737, 1631.641
1481.914, 396.383
1483.091, 1030.992
1484.268, 1445.492
1485.444, 337.000
1486.621, 1241.441
1487.797, 1146.156
1488.973, 1.020
1490.149, 1675.883
1491.324, 870.812
1492.500, 425.852
1493.675, 1477.273
1494.850, 642.434
1496.025, 723.805
1497.200, 1239.918
1498.374, 247.535
1499.548, 1065.492
1500.723, 1122.551
1501.897, 30.980
1503.071, 1366.363
1504.244, 1054.172
1505.418, 132.832
1506.591, 1320.137
1507.764, 507.102
1508.937, 670.340
