##NAMES=Anorthite
##RRUFFID=R040059
##IDEAL CHEMISTRY=CaAl_2_Si_2_O_8_
##LOCALITY=Miyakejima, Japan
##OWNER=RRUFF
##SOURCE=University of Arizona Mineral Museum
##DESCRIPTION=Colorless fragments of crystals
##STATUS=The identification of this mineral has been confirmed by X-ray diffraction and chemical analysis
##URL=rruff.info/R040059
##MEASURED CHEMISTRY=(Ca_0.94_Na_0.04_Fe_0.02_)(Al_0.98_Si_0.02_)_2_Si_2.00_O_8_
##PIN_ID=L00163
##ORIENTATION=Laser parallel to (0 -1 -1). Fiducial mark perpendicular to laser is parallel to -a [-1 0 0]
121.706, 0.000
123.102, 248.019
124.497, 7.602
125.892, 171.869
127.286, 13.379
128.681, 349.619
130.075, 577.201
131.469, 745.929
132.862, 1582.861
134.256, 2066.051
135.649, 2996.719
137.042, 3703.972
138.435, 4855.523
139.827, 5949.904
141.219, 7116.166
142.611, 8283.667
144.003, 8631.979
145.394, 8620.860
146.786, 7423.521
148.177, 6469.467
149.567, 5261.408
150.958, 3950.916
152.348, 3357.984
153.738, 2302.945
155.128, 2146.066
156.517, 1737.568
157.907, 1817.638
159.296, 1926.435
160.685, 2134.096
162.073, 2440.742
163.462, 2656.477
164.850, 3301.394
166.237, 3275.582
167.625, 4009.125
169.012, 4453.764
170.400, 4772.146
171.786, 5357.438
173.173, 5905.559
174.559, 6743.494
175.946, 7634.455
177.332, 8929.792
178.717, 9752.578
180.103, 10735.396
181.488, 12088.249
182.873, 12601.191
184.258, 13174.187
185.642, 13107.217
187.026, 13240.293
188.410, 12933.415
189.794, 12296.553
191.178, 12239.681
192.561, 10622.796
193.944, 10385.908
195.327, 9079.021
196.709, 7912.152
198.092, 6765.298
199.474, 5678.459
200.856, 4892.227
202.237, 4044.831
203.618, 3608.051
205.000, 2981.314
206.380, 2644.634
207.761, 2118.040
209.142, 1521.566
210.522, 1335.232
211.902, 1009.041
213.281, 803.089
214.661, 467.810
216.040, 359.374
217.419, 394.270
218.798, 28.225
220.176, 21.042
221.554, 245.980
222.932, 242.853
224.310, 279.581
225.688, 386.174
227.065, 232.638
228.442, 271.945
229.819, 23.854
231.196, 10.082
232.572, 273.728
233.948, 587.432
235.324, 571.195
236.700, 1115.017
238.075, 1208.896
239.450, 1802.830
240.825, 1846.820
242.200, 2091.929
243.574, 2676.239
244.948, 2410.523
246.322, 2924.710
247.696, 2498.947
249.070, 2723.233
250.443, 2597.573
251.816, 2901.958
253.189, 3146.355
254.561, 3100.607
255.933, 3594.454
257.306, 3377.824
258.677, 3700.905
260.049, 3593.977
261.420, 3637.109
262.791, 3860.303
264.162, 3773.559
265.533, 4336.873
266.903, 4080.244
268.274, 4343.674
269.643, 4527.221
271.013, 4431.340
272.383, 4504.930
273.752, 4488.574
275.121, 4580.360
276.490, 4616.019
277.858, 4829.820
279.226, 5043.674
280.595, 5207.578
281.962, 5531.531
283.330, 5235.535
284.697, 5239.588
286.064, 5154.130
287.431, 4710.030
288.798, 4615.812
290.164, 3921.266
291.530, 3868.188
292.896, 3135.418
294.262, 2613.108
295.627, 2201.065
296.993, 1399.284
298.358, 1367.670
299.722, 696.203
301.087, 634.844
302.451, 163.554
303.815, 82.358
305.179, 121.194
306.543, 259.931
307.906, 71.111
309.269, 332.306
310.632, 203.533
311.995, 54.831
313.357, 176.188
314.719, 62.377
316.081, 120.855
317.443, 589.381
318.804, 787.836
320.166, 1036.286
321.527, 1184.684
322.887, 1193.031
324.248, 1101.363
325.608, 719.653
326.968, 587.908
328.328, 456.131
329.688, 224.323
331.047, 382.491
332.406, 49.366
333.765, 148.728
335.124, 13.272
336.482, 65.677
337.840, 101.317
339.198, 2.341
340.556, 143.680
341.913, 179.660
343.271, 215.663
344.628, 241.692
345.984, 317.743
347.341, 673.814
348.697, 369.908
350.053, 736.023
351.409, 492.158
352.765, 488.313
354.120, 504.489
355.475, 290.687
356.830, 376.902
358.185, 203.140
359.539, 9.397
360.894, 65.670
362.248, 81.962
363.601, 248.272
364.955, 94.604
366.308, 310.955
367.661, 367.326
369.014, 523.718
370.367, 700.129
371.719, 787.818
373.071, 963.008
374.423, 1049.474
375.775, 1265.958
377.126, 1452.459
378.478, 1608.840
379.828, 1955.028
381.179, 1611.090
382.530, 1773.395
383.880, 1345.465
385.230, 1110.976
386.580, 1036.828
387.929, 520.515
389.279, 897.646
390.628, 634.543
391.977, 778.893
393.325, 831.504
394.674, 813.409
396.022, 1179.490
397.370, 955.594
398.718, 1331.716
400.065, 1217.856
401.413, 1014.017
402.760, 1220.196
404.106, 906.395
405.453, 1062.602
406.799, 708.825
408.146, 755.065
409.491, 741.324
410.837, 257.598
412.182, 463.890
413.528, 0.197
414.873, 146.521
416.217, 42.859
417.562, 30.784
418.906, 405.587
420.250, 461.978
421.594, 938.390
422.938, 1194.822
424.281, 1441.277
425.624, 1917.752
426.967, 1654.247
428.310, 2180.762
429.652, 1567.296
430.994, 1773.850
432.336, 1640.420
433.678, 1267.008
435.020, 1333.610
436.361, 1050.233
437.702, 1076.872
439.043, 803.529
440.383, 400.202
441.724, 736.892
443.064, 103.597
444.404, 170.318
445.743, 37.056
447.083, 26.192
448.422, 60.568
449.761, 2.661
451.100, 174.446
452.438, 351.237
453.777, 588.780
455.115, 826.265
456.453, 883.519
457.790, 1352.427
459.128, 1259.302
460.465, 1468.025
461.802, 1376.367
463.139, 1353.420
464.475, 1581.670
465.811, 1548.449
467.147, 2059.042
468.483, 2369.561
469.819, 2841.582
471.154, 3529.821
472.489, 3923.545
473.824, 5014.006
475.159, 5405.865
476.493, 6933.443
477.827, 8109.947
479.161, 9527.091
480.495, 11707.165
481.829, 13104.907
483.162, 15481.758
484.495, 16655.092
485.828, 16601.754
487.161, 17249.123
488.493, 15565.881
489.825, 14932.616
491.157, 14599.954
492.489, 14816.734
493.820, 16509.719
495.151, 18507.201
496.482, 21851.711
497.813, 25670.688
499.144, 31097.707
500.474, 35385.422
501.804, 37873.086
503.134, 38734.191
504.464, 38297.910
505.793, 36075.094
507.123, 31942.221
508.451, 27269.266
509.780, 24426.328
511.109, 20493.395
512.437, 18500.490
513.765, 16127.642
515.093, 14114.795
516.421, 13341.973
517.748, 11879.154
519.075, 11886.328
520.402, 11602.992
521.729, 11859.957
523.055, 12807.026
524.382, 11824.263
525.708, 11741.390
527.034, 10778.640
528.359, 9475.888
529.685, 8013.137
531.010, 6560.399
532.335, 6077.654
533.659, 4614.959
534.984, 4352.256
536.308, 3519.547
537.632, 3136.828
538.956, 2944.102
540.279, 2681.371
541.603, 2478.633
542.926, 2495.927
544.249, 2363.232
545.571, 2930.619
546.894, 2718.087
548.216, 3155.643
549.538, 3963.312
550.860, 4241.058
552.181, 5038.887
553.503, 5126.723
554.824, 5964.570
556.145, 6202.406
557.465, 6320.234
558.786, 6208.049
560.106, 5895.854
561.426, 5733.646
562.746, 5071.426
564.065, 4679.195
565.385, 3996.952
566.704, 3084.694
568.023, 3042.424
569.341, 2330.140
570.660, 2107.842
571.978, 1555.528
573.296, 1213.146
574.614, 1210.806
575.931, 868.449
577.248, 805.551
578.565, 693.163
579.882, 590.760
581.199, 638.340
582.515, 485.904
583.831, 713.452
585.147, 630.981
586.463, 628.494
587.779, 1045.989
589.094, 623.467
590.409, 1270.924
591.724, 1188.364
593.038, 1185.785
594.353, 1743.188
595.667, 1640.570
596.981, 1927.933
598.295, 1615.276
599.608, 1572.598
600.922, 1689.898
602.235, 1227.180
603.547, 1134.438
604.860, 781.676
606.172, 538.449
607.485, 665.643
608.797, 132.738
610.108, 289.884
611.420, 37.008
612.731, 54.102
614.042, 111.168
615.353, 171.796
616.664, 205.111
617.974, 8.006
619.284, 1.171
620.594, 165.623
621.904, 157.611
623.213, 219.029
624.523, 34.356
625.832, 12.196
627.141, 58.786
628.449, 184.629
629.758, 41.909
631.066, 101.526
632.374, 245.038
633.681, 21.544
634.989, 442.127
636.296, 144.604
637.603, 179.377
638.910, 26.496
640.217, 213.445
641.523, 70.746
642.829, 300.547
644.135, 96.656
645.441, 242.814
646.747, 322.750
648.052, 148.629
649.357, 539.678
650.662, 126.277
651.967, 142.779
653.271, 325.018
654.575, 58.213
655.879, 280.461
657.183, 38.068
658.486, 164.146
659.790, 337.285
661.093, 172.865
662.396, 343.494
663.698, 363.439
665.001, 428.982
666.303, 689.529
667.605, 805.697
668.907, 1288.107
670.209, 1178.049
671.510, 1513.641
672.811, 1895.428
674.112, 1941.467
675.413, 2987.230
676.713, 2720.303
678.013, 3375.148
679.313, 3578.889
680.613, 3425.240
681.913, 3631.117
683.212, 3070.545
684.511, 3145.641
685.810, 2771.992
687.109, 2280.893
688.407, 2405.566
689.706, 1903.330
691.004, 1967.789
692.302, 1582.791
693.599, 1447.371
694.897, 1621.699
696.194, 1187.023
697.491, 1261.121
698.788, 1389.832
700.084, 1034.105
701.380, 1388.070
702.677, 852.172
703.972, 1206.043
705.268, 1119.869
706.564, 843.707
707.859, 1217.436
709.154, 761.119
710.449, 1124.752
711.743, 1068.338
713.037, 1071.875
714.332, 1125.363
715.626, 789.248
716.919, 1082.641
718.213, 795.982
719.506, 899.275
720.799, 1052.521
722.092, 905.719
723.384, 858.865
724.677, 1111.965
725.969, 905.014
727.261, 1118.018
728.553, 990.971
729.844, 1163.873
731.136, 1336.729
732.427, 1279.537
733.718, 1662.297
735.008, 1925.010
736.299, 2217.672
737.589, 2220.285
738.879, 2322.852
740.169, 2905.367
741.458, 2557.836
742.748, 2620.256
744.037, 2602.627
745.326, 2214.949
746.614, 2517.223
747.903, 1879.447
749.191, 1961.625
750.479, 1963.752
751.767, 1555.834
753.055, 2177.865
754.342, 1899.850
755.629, 1901.785
756.916, 2323.674
758.203, 2165.514
759.490, 2767.305
760.776, 2479.049
762.062, 2480.750
763.348, 2882.402
764.634, 2283.678
765.919, 2545.236
767.204, 2565.998
768.489, 2316.775
769.774, 2207.732
771.059, 1916.990
772.343, 2088.227
773.627, 1707.564
774.911, 1447.232
776.195, 1588.137
777.479, 1067.793
778.762, 1188.812
780.045, 1086.016
781.328, 535.943
782.611, 956.131
783.893, 483.623
785.175, 693.627
786.457, 716.145
787.739, 369.561
789.021, 749.213
790.302, 230.080
791.583, 450.250
792.864, 467.439
794.145, 126.908
795.425, 497.211
796.706, 19.018
797.986, 271.352
799.266, 250.959
800.545, 318.875
801.825, 301.160
803.104, 179.463
804.383, 120.357
805.662, 129.354
806.940, 201.635
808.219, 87.889
809.497, 150.393
810.775, 28.680
812.053, 165.494
813.330, 226.039
814.608, 262.891
815.885, 188.914
817.162, 20.238
818.438, 238.422
819.715, 32.875
820.991, 85.740
822.267, 65.689
823.543, 187.223
824.818, 171.082
826.094, 60.658
827.369, 67.504
828.644, 95.621
829.919, 86.305
831.193, 291.658
832.468, 100.412
833.742, 17.404
835.016, 45.168
836.289, 37.115
837.563, 170.525
838.836, 8.127
840.109, 34.324
841.382, 233.150
842.654, 179.410
843.927, 257.881
845.199, 115.141
846.471, 202.363
847.743, 249.557
849.014, 26.719
850.286, 313.840
851.557, 49.070
852.828, 207.949
854.099, 404.936
855.369, 221.895
856.639, 338.824
857.909, 435.727
859.179, 242.600
860.449, 342.045
861.718, 366.266
862.988, 293.059
864.257, 339.826
865.525, 276.568
866.794, 543.285
868.062, 129.977
869.331, 556.645
870.599, 633.291
871.866, 299.916
873.134, 666.520
874.401, 533.102
875.668, 399.660
876.935, 836.197
878.202, 322.713
879.468, 639.209
880.735, 675.686
882.001, 272.143
883.267, 778.582
884.532, 435.002
885.798, 881.402
887.063, 797.787
888.328, 644.154
889.593, 1030.510
890.857, 786.869
892.122, 1073.219
893.386, 1079.551
894.650, 885.869
895.913, 1262.176
897.177, 898.471
898.440, 1114.752
899.703, 1241.023
900.966, 1097.309
902.229, 1663.586
903.491, 1449.850
904.754, 1626.105
906.016, 1962.354
907.278, 1428.594
908.539, 1854.820
909.801, 1941.033
911.062, 1887.234
912.323, 2183.420
913.584, 1909.588
914.844, 2095.734
916.105, 2171.865
917.365, 1587.973
918.625, 2014.064
919.885, 1790.137
921.144, 1856.195
922.404, 2152.236
923.663, 1648.312
924.922, 2444.369
926.180, 2210.420
927.439, 2426.465
928.697, 3052.492
929.955, 2928.551
931.213, 3384.596
932.471, 3770.641
933.728, 3756.678
934.985, 4882.703
936.242, 4298.775
937.499, 5004.836
938.756, 5050.926
940.012, 4896.861
941.269, 5353.012
942.525, 4728.598
943.780, 4724.861
945.036, 4981.174
946.291, 4356.375
947.546, 5112.684
948.801, 4713.449
950.056, 4949.363
951.311, 5155.199
952.565, 4977.229
953.819, 5293.281
955.073, 5224.133
956.327, 4699.410
957.580, 5414.773
958.834, 4624.371
960.087, 4929.424
961.339, 5182.537
962.592, 4896.693
963.845, 5272.385
965.097, 5340.945
966.349, 5397.043
967.601, 6428.064
968.852, 6379.740
970.104, 6925.795
971.355, 7546.818
972.606, 7582.199
973.857, 8271.309
975.107, 7552.865
976.358, 8048.746
977.608, 8058.406
978.858, 7353.791
980.108, 7739.428
981.357, 6677.734
982.607, 6504.244
983.856, 6241.838
985.105, 5626.799
986.353, 5452.211
987.602, 5014.051
988.850, 4640.193
990.098, 4525.062
991.346, 4047.361
992.594, 4163.867
993.841, 4207.258
995.089, 3733.936
996.336, 4170.053
997.583, 4027.605
998.829, 4114.361
1000.076, 4470.168
1001.322, 4057.123
1002.568, 4379.453
1003.814, 3816.203
1005.060, 3253.254
1006.305, 3590.158
1007.550, 2787.275
1008.795, 2854.434
1010.040, 2941.566
1011.285, 2218.797
1012.529, 2706.064
1013.773, 2483.371
1015.017, 2160.723
1016.261, 2758.113
1017.505, 1945.547
1018.748, 2752.582
1019.991, 2481.762
1021.234, 2029.336
1022.477, 2606.955
1023.719, 2064.627
1024.962, 2152.348
1026.204, 2330.125
1027.446, 1527.955
1028.688, 2335.842
1029.929, 1673.789
1031.170, 1901.773
1032.411, 2099.820
1033.652, 1627.963
1034.893, 1726.137
1036.134, 1824.383
1037.374, 1212.793
1038.614, 2071.184
1039.854, 1465.631
1041.094, 1864.176
1042.333, 1772.748
1043.572, 1271.613
1044.811, 1820.354
1046.050, 1319.182
1047.289, 1358.246
1048.527, 2017.266
1049.766, 1252.695
1051.004, 1661.916
1052.241, 1690.881
1053.479, 1240.680
1054.717, 1699.768
1055.954, 1328.891
1057.191, 1447.314
1058.428, 1335.494
1059.664, 1013.428
1060.901, 1671.000
1062.137, 1448.283
1063.373, 1124.867
1064.609, 1601.461
1065.844, 1128.064
1067.080, 1234.678
1068.315, 1551.307
1069.550, 1077.945
1070.785, 1734.596
1072.019, 1221.256
1073.254, 1197.930
1074.488, 1624.617
1075.722, 1081.316
1076.955, 1218.031
1078.189, 1264.756
1079.422, 1061.502
1080.656, 1298.316
1081.889, 1035.266
1083.121, 992.434
1084.354, 1329.711
1085.586, 697.191
1086.818, 1234.852
1088.050, 1242.650
1089.282, 480.658
1090.514, 1108.836
1091.745, 547.123
1092.976, 975.619
1094.207, 1044.285
1095.438, 503.053
1096.668, 951.971
1097.899, 641.057
1099.129, 1220.254
1100.359, 1629.555
1101.588, 528.984
1102.818, 548.635
1104.047, 688.352
1105.276, 348.135
1106.505, 1068.023
1107.734, 218.010
1108.962, 428.064
1110.191, 538.186
1111.419, 1.625
1112.647, 548.633
1113.874, 348.957
1115.102, 149.342
1116.329, 899.781
1117.556, 480.285
1118.783, 840.855
1120.010, 991.490
1121.236, 432.188
1122.463, 1052.947
1123.689, 933.768
1124.914, 544.600
1126.140, 875.441
1127.366, 746.332
1128.591, 567.271
1129.816, 968.201
1131.041, 199.119
1132.266, 750.064
1133.490, 651.059
1134.714, 472.123
1135.938, 743.285
1137.162, 404.584
1138.386, 406.041
1139.609, 757.658
1140.833, 149.445
1142.056, 421.414
1143.279, 533.564
1144.501, 74.086
1145.724, 858.465
1146.946, 8.783
1148.168, 264.168
1149.390, 567.312
1150.612, 130.652
1151.833, 864.180
1153.054, 347.893
1154.275, 101.795
1155.496, 715.881
1156.717, 230.152
1157.937, 364.609
1159.158, 519.254
1160.378, 223.986
1161.598, 509.025
1162.817, 394.277
1164.037, 59.748
1165.256, 715.449
1166.475, 68.609
1167.694, 447.594
1168.913, 454.074
1170.131, 170.854
1171.349, 477.963
1172.567, 365.426
1173.785, 193.260
1175.003, 651.482
1176.220, 240.104
1177.438, 554.297
1178.655, 503.256
1179.872, 82.941
1181.088, 553.070
1182.305, 213.668
1183.521, 104.760
1184.737, 736.387
1185.953, 71.416
1187.169, 631.389
1188.384, 372.857
1189.599, 136.234
1190.814, 370.252
1192.029, 334.926
1193.244, 200.496
1194.459, 716.752
1195.673, 25.824
1196.887, 801.301
1198.101, 486.283
1199.314, 123.424
1200.528, 601.545
1201.741, 462.852
1202.954, 372.020
1204.167, 436.732
1205.380, 38.852
1206.592, 287.043
1207.805, 0.000
##END=



