##NAMES=Anorthite
##RRUFFID=R040059
##IDEAL CHEMISTRY=CaAl_2_Si_2_O_8_
##LOCALITY=Miyakejima, Japan
##OWNER=RRUFF
##SOURCE=University of Arizona Mineral Museum
##DESCRIPTION=Colorless fragments of crystals
##STATUS=The identification of this mineral has been confirmed by X-ray diffraction and chemical analysis
##URL=rruff.info/R040059
##MEASURED CHEMISTRY=(Ca_0.94_Na_0.04_Fe_0.02_)(Al_0.98_Si_0.02_)_2_Si_2.00_O_8_
##PIN_ID=M00328
##ORIENTATION=Laser parallel to (-1 0 -1). Fiducial mark perpendicular to laser is parallel to -b [0 -1 0]
121.738, 0.000
123.129, 16.910
124.519, 262.115
125.910, 87.695
127.300, 257.631
128.690, 529.281
130.080, 634.742
131.469, 1318.907
132.858, 1388.141
134.248, 1849.668
135.636, 2021.333
137.025, 2241.657
138.413, 2509.679
139.801, 2864.475
141.189, 3315.160
142.577, 3560.929
143.964, 4081.076
145.352, 4004.992
146.739, 3852.173
148.125, 3742.189
149.512, 2974.871
150.898, 2680.646
152.284, 1939.794
153.670, 1851.974
155.056, 1446.678
156.441, 1503.520
157.827, 1112.132
159.212, 772.203
160.596, 763.477
161.981, 555.739
163.365, 588.816
164.749, 462.554
166.133, 666.841
167.517, 881.590
168.900, 1246.740
170.283, 1352.237
171.666, 1528.037
173.049, 1914.104
174.431, 2060.432
175.813, 2478.119
177.195, 2699.397
178.577, 2955.746
179.959, 3787.013
181.340, 4231.111
182.721, 5116.354
184.102, 6090.967
185.483, 7054.547
186.863, 8027.295
188.244, 8639.565
189.624, 9821.227
191.003, 10112.021
192.383, 11321.967
193.762, 11321.098
195.141, 11259.461
196.520, 11107.090
197.899, 10324.019
199.277, 10290.280
200.656, 9245.902
202.034, 8890.917
203.411, 8185.344
204.789, 7759.205
206.166, 7102.510
207.543, 6185.385
208.920, 5707.910
210.297, 4920.142
211.673, 4252.119
213.049, 3493.873
214.425, 2985.434
215.801, 2896.815
217.176, 2488.039
218.552, 2699.115
219.927, 2890.053
221.302, 2860.861
222.676, 2951.548
224.051, 2602.117
225.425, 2602.570
226.799, 2054.723
228.173, 2203.566
229.546, 1785.571
230.919, 1934.036
232.292, 2189.653
233.665, 2159.236
235.038, 2723.844
236.410, 2874.553
237.782, 3396.183
239.154, 3584.611
240.526, 3932.826
241.898, 4565.376
243.269, 4605.926
244.640, 5360.223
246.011, 5080.308
247.381, 5600.889
248.752, 5502.053
250.122, 5695.562
251.492, 5801.317
252.861, 5965.238
254.231, 6401.505
255.600, 6390.059
256.969, 6641.984
258.338, 6781.451
259.707, 6470.443
261.075, 6309.403
262.443, 5968.308
263.811, 5987.141
265.179, 5695.242
266.546, 5334.562
267.914, 5383.148
269.281, 5201.650
270.647, 5290.072
272.014, 5188.407
273.380, 5396.660
274.747, 5374.830
276.113, 5282.918
277.478, 5350.926
278.844, 5518.854
280.209, 5686.703
281.574, 5474.474
282.939, 5552.170
284.304, 5449.787
285.668, 5067.331
287.032, 4935.305
288.396, 4212.287
289.760, 4162.006
291.123, 3592.779
292.487, 3064.396
293.850, 2746.704
295.212, 2239.590
296.575, 2242.961
297.937, 1706.748
299.300, 1760.890
300.662, 1465.340
302.023, 1500.053
303.385, 1534.994
304.746, 1220.130
306.107, 1395.433
307.468, 1150.877
308.829, 1246.443
310.189, 1022.111
311.549, 867.866
312.909, 953.691
314.269, 899.576
315.629, 945.507
316.988, 1051.465
318.347, 1047.435
319.706, 1123.407
321.065, 1149.371
322.423, 1245.316
323.781, 1151.236
325.139, 1097.126
326.497, 872.979
327.855, 558.790
329.212, 524.559
330.569, 160.279
331.926, 105.952
333.283, 68.428
334.639, 102.910
335.995, 137.451
337.351, 242.116
338.707, 276.867
340.063, 301.772
341.418, 406.847
342.773, 462.110
344.128, 517.641
345.483, 373.440
346.837, 569.520
348.192, 395.931
349.546, 632.622
350.899, 519.651
352.253, 426.995
353.606, 384.620
354.960, 202.517
356.313, 150.634
357.665, 98.954
359.018, 257.461
360.370, 46.194
361.722, 35.098
363.074, 14.164
364.426, 196.613
365.777, 347.276
367.128, 547.835
368.479, 498.296
369.830, 478.660
371.181, 498.930
372.531, 399.106
373.881, 489.188
375.231, 269.177
376.581, 369.069
377.930, 288.868
379.280, 208.571
380.629, 198.171
381.977, 57.670
383.326, 227.043
384.674, 246.316
386.023, 105.492
387.370, 384.555
388.718, 333.523
390.066, 502.395
391.413, 571.088
392.760, 819.502
394.107, 917.529
395.454, 1125.098
396.800, 1352.109
398.146, 1618.584
399.492, 1644.494
400.838, 1969.881
402.184, 2144.883
403.529, 2399.625
404.874, 2344.094
406.219, 2538.377
407.564, 2562.598
408.908, 2066.779
410.252, 2040.916
411.596, 1745.008
412.940, 1659.039
414.284, 1483.002
415.627, 1386.859
416.970, 1530.646
418.313, 1354.350
419.656, 1888.002
420.999, 1931.615
422.341, 2255.191
423.683, 2808.732
425.025, 2952.234
426.367, 3855.703
427.708, 3909.133
429.049, 4652.527
430.390, 4765.885
431.731, 5019.207
433.072, 5082.496
434.412, 5055.750
435.752, 5668.969
437.092, 5552.152
438.432, 5675.305
439.772, 6178.422
441.111, 5511.508
442.450, 5544.559
443.789, 5047.574
445.127, 4830.561
446.466, 4423.516
447.804, 4076.438
449.142, 3909.330
450.480, 3522.197
451.817, 3365.027
453.155, 3237.818
454.492, 3260.559
455.829, 3433.250
457.166, 3715.889
458.502, 4218.473
459.838, 4110.996
461.175, 4193.463
462.510, 4265.867
463.846, 4108.207
465.181, 4270.486
466.517, 4482.701
467.852, 5154.850
469.186, 5716.934
470.521, 6298.949
471.855, 7270.898
473.190, 7732.777
474.523, 9104.592
475.857, 10316.332
477.191, 11658.012
478.524, 13829.615
479.857, 15641.152
481.190, 19032.619
482.523, 21844.016
483.855, 24565.377
485.187, 28766.668
486.519, 28817.887
487.851, 29109.107
489.183, 27220.250
490.514, 24861.387
491.845, 23072.426
493.176, 21163.020
494.507, 21383.803
495.837, 21974.523
497.168, 24760.539
498.498, 27675.270
499.828, 31015.264
501.157, 36655.465
502.487, 39486.328
503.816, 42933.512
505.145, 42833.188
506.474, 40242.969
507.802, 38050.125
509.131, 33357.949
510.459, 30250.682
511.787, 26990.275
513.115, 24475.471
514.442, 22793.121
515.770, 19442.004
517.097, 17553.939
518.424, 14778.953
519.750, 13003.846
521.077, 12361.889
522.403, 10260.469
523.729, 10010.215
525.055, 9568.164
526.381, 8887.688
527.706, 8218.082
529.031, 7318.299
530.356, 7138.371
531.681, 6368.506
533.006, 5906.281
534.330, 5808.148
535.654, 5146.535
536.978, 5195.799
538.302, 5274.262
539.625, 5461.475
540.949, 5598.367
542.272, 5690.387
543.595, 6797.629
544.917, 6935.104
546.240, 7888.854
547.562, 9287.711
548.884, 10406.078
550.206, 12165.496
551.527, 13095.152
552.849, 15645.156
554.170, 17175.137
555.491, 18585.086
556.812, 19055.010
558.132, 19614.912
559.453, 19324.801
560.773, 17624.672
562.093, 16684.516
563.412, 15024.359
564.732, 13184.184
566.051, 12103.996
567.370, 9983.797
568.689, 8963.592
570.008, 7593.379
571.326, 6393.152
572.644, 5812.914
573.963, 4682.664
575.280, 4412.406
576.598, 3782.135
577.915, 3241.854
579.233, 2821.562
580.550, 2431.264
581.866, 2420.953
583.183, 2190.633
584.499, 2020.305
585.815, 2419.965
587.131, 2049.617
588.447, 2499.260
589.763, 2248.893
591.078, 2448.518
592.393, 2888.133
593.708, 2777.740
595.022, 2917.340
596.337, 2596.930
597.651, 2376.512
598.965, 2476.088
600.279, 2165.650
601.593, 1925.209
602.906, 1684.760
604.219, 1314.301
605.532, 1413.832
606.845, 1043.359
608.158, 1042.877
609.470, 1132.389
610.782, 1181.891
612.094, 1245.518
613.406, 960.875
614.718, 1450.359
616.029, 1429.834
617.340, 1639.301
618.651, 2218.764
619.962, 2058.219
621.272, 2777.668
622.582, 2577.113
623.892, 2686.551
625.202, 2565.986
626.512, 2025.414
627.821, 2164.838
629.131, 1564.256
630.440, 1203.668
631.749, 1123.078
633.057, 532.484
634.366, 761.887
635.674, 321.287
636.982, 500.682
638.290, 440.078
639.597, 309.469
640.905, 405.500
642.212, 164.887
643.519, 274.270
644.825, 88.264
646.132, 87.646
647.438, 259.633
648.744, 55.342
650.050, 65.285
651.356, 33.449
652.662, 244.721
653.967, 154.283
655.272, 279.195
656.577, 76.660
657.882, 90.781
659.186, 211.303
660.490, 31.682
661.794, 131.424
663.098, 38.277
664.402, 308.104
665.705, 98.111
667.009, 658.254
668.312, 458.598
669.614, 679.109
670.917, 969.770
672.219, 890.564
673.522, 1911.449
674.824, 1675.961
676.125, 2308.844
677.427, 2754.611
678.728, 2959.357
680.030, 3424.156
681.331, 3435.656
682.631, 3611.615
683.932, 3438.131
685.232, 2939.035
686.532, 2990.291
687.832, 2548.010
689.132, 2469.248
690.432, 1941.193
691.731, 1732.420
693.030, 1403.643
694.329, 984.863
695.628, 1076.080
696.926, 967.305
698.224, 348.535
699.522, 709.797
700.820, 121.061
702.118, 442.330
703.415, 513.619
704.713, 194.908
706.010, 386.195
707.307, 97.477
708.603, 498.750
709.900, 540.016
711.196, 321.273
712.492, 302.521
713.788, 283.764
715.083, 645.000
716.379, 176.225
717.674, 577.443
718.969, 318.652
720.264, 319.854
721.558, 251.051
722.853, 652.238
724.147, 474.482
725.441, 585.658
726.735, 696.824
728.028, 727.982
729.322, 689.137
730.615, 970.281
731.908, 1061.420
733.201, 1382.553
734.493, 1843.678
735.785, 1894.795
737.078, 2255.906
738.370, 3037.012
739.661, 2678.113
740.953, 3399.207
742.244, 3500.295
743.535, 3281.377
744.826, 3762.453
746.117, 2783.523
747.407, 2934.588
748.698, 2885.646
749.988, 2376.701
751.278, 3097.750
752.567, 2448.795
753.857, 2779.834
755.146, 2970.867
756.435, 3151.895
757.724, 3411.670
759.013, 3593.938
760.301, 3854.953
761.590, 4236.365
762.878, 4486.973
764.165, 4577.973
765.453, 4648.971
766.741, 4079.963
768.028, 4010.955
769.315, 3701.939
770.602, 3592.922
771.888, 2943.902
773.175, 2874.877
774.461, 2535.850
775.747, 2086.816
777.033, 2197.781
778.319, 1658.744
779.604, 1359.703
780.889, 1440.660
782.174, 1071.613
783.459, 1122.564
784.744, 853.516
786.028, 554.463
787.312, 815.406
788.596, 306.350
789.880, 607.289
791.164, 598.227
792.447, 399.164
793.730, 680.100
795.013, 48.969
796.296, 411.898
797.579, 122.766
798.861, 176.369
800.143, 184.365
801.425, 144.904
802.707, 34.287
803.989, 55.174
805.270, 255.666
806.551, 145.287
807.832, 267.350
809.113, 227.256
810.394, 172.812
811.674, 546.156
812.954, 158.285
814.234, 614.812
815.514, 21.869
816.794, 322.283
818.073, 121.391
819.352, 140.553
820.631, 269.711
821.910, 258.873
823.189, 293.531
824.467, 217.188
825.745, 266.342
827.023, 75.496
828.301, 45.355
829.578, 14.332
830.856, 227.160
832.133, 48.211
833.410, 49.301
834.687, 160.432
835.963, 71.656
837.240, 82.936
838.516, 314.268
839.792, 214.223
841.068, 107.287
842.343, 171.139
843.618, 0.439
844.894, 87.971
846.169, 76.381
847.443, 94.789
848.718, 293.197
849.992, 111.605
851.266, 330.014
852.540, 808.420
853.814, 496.826
855.088, 895.234
856.361, 503.645
857.634, 462.055
858.907, 860.465
860.180, 248.877
861.453, 337.289
862.725, 215.705
863.997, 374.127
865.269, 202.549
866.541, 70.973
867.812, 369.402
869.084, 167.852
870.355, 36.301
871.626, 204.758
872.897, 253.219
874.167, 181.686
875.438, 630.156
876.708, 31.367
877.978, 357.102
879.248, 655.605
880.517, 174.113
881.787, 632.631
883.056, 241.152
884.325, 899.680
885.594, 468.217
886.862, 596.760
888.130, 765.312
889.399, 683.928
890.667, 1142.553
891.934, 1211.186
893.202, 879.828
894.469, 1368.479
895.737, 1147.137
897.004, 1255.811
898.270, 1354.490
899.537, 1563.248
900.803, 1752.018
902.070, 1240.799
903.336, 2029.615
904.601, 1908.441
905.867, 1517.283
907.132, 1786.137
908.398, 1894.998
909.663, 1703.875
910.928, 1992.766
912.192, 1681.664
913.457, 2120.578
914.721, 1969.508
915.985, 1788.449
917.249, 1817.402
918.512, 2066.369
919.776, 1835.352
921.039, 2084.348
922.302, 1343.359
923.565, 2242.391
924.827, 1731.436
926.090, 1880.496
927.352, 2219.574
928.614, 2028.664
929.876, 2337.836
931.138, 2337.021
932.399, 2386.225
933.660, 2915.449
934.922, 2464.688
936.182, 3183.945
937.443, 3133.221
938.704, 3262.516
939.964, 4071.824
941.224, 3521.154
942.484, 3870.504
943.744, 4339.869
945.003, 4099.256
946.262, 5058.658
947.521, 5011.439
948.780, 5710.885
950.039, 5880.354
951.298, 6165.230
952.556, 6744.738
953.814, 6901.662
955.072, 6895.570
956.330, 7554.465
957.587, 6664.703
958.845, 7211.916
960.102, 6992.006
961.359, 6354.674
962.615, 6471.371
963.872, 6304.855
965.128, 6194.852
966.384, 6514.812
967.640, 6394.303
968.896, 6784.512
970.152, 7394.754
971.407, 7535.031
972.662, 8505.336
973.917, 7725.711
975.172, 8816.117
976.427, 8996.555
977.681, 8247.031
978.935, 8877.537
980.189, 7854.533
981.443, 8173.256
982.697, 7509.236
983.950, 7246.408
985.203, 7023.609
986.456, 6354.191
987.709, 5860.363
988.962, 5786.006
990.214, 5097.322
991.467, 5298.320
992.719, 4802.885
993.971, 4154.018
995.222, 4494.482
996.474, 4105.701
997.725, 4026.984
998.976, 4148.307
1000.227, 3859.676
1001.478, 4371.123
1002.728, 3842.613
1003.978, 3374.160
1005.229, 3585.754
1006.479, 2937.387
1007.728, 3199.141
1008.978, 3150.934
1010.227, 2462.771
1011.476, 2794.773
1012.725, 2526.820
1013.974, 2528.959
1015.223, 2861.145
1016.471, 2033.377
1017.719, 2685.660
1018.967, 2500.992
1020.215, 2043.359
1021.462, 2585.775
1022.710, 2108.234
1023.957, 2330.738
1025.204, 2153.451
1026.451, 1546.037
1027.697, 2287.654
1028.944, 1756.262
1030.190, 1839.020
1031.436, 2191.840
1032.682, 1634.701
1033.928, 1877.605
1035.173, 2010.557
1036.418, 1493.547
1037.663, 2056.613
1038.908, 1502.266
1040.153, 2345.412
1041.398, 2108.617
1042.642, 1871.863
1043.886, 2405.148
1045.130, 2188.543
1046.374, 2281.977
1047.617, 2915.455
1048.860, 2234.629
1050.104, 2988.201
1051.347, 2901.836
1052.589, 2310.605
1053.832, 2964.314
1055.074, 2558.381
1056.316, 2822.170
1057.558, 2596.000
1058.800, 2449.867
1060.042, 2863.771
1061.283, 2547.727
1062.524, 2531.717
1063.765, 2805.748
1065.006, 2229.883
1066.247, 2604.057
1067.487, 2678.266
1068.728, 2272.562
1069.968, 3436.852
1071.208, 2511.184
1072.447, 2976.367
1073.687, 3120.773
1074.926, 3185.244
1076.165, 3309.752
1077.404, 3304.289
1078.643, 3183.244
1079.881, 3547.967
1081.120, 2802.727
1082.358, 2808.100
1083.596, 3002.982
1084.834, 2217.902
1086.071, 2872.863
1087.309, 2437.852
1088.546, 1932.926
1089.783, 2498.008
1091.020, 1543.121
1092.256, 1838.449
1093.493, 1743.625
1094.729, 1068.836
1095.965, 1614.082
1097.201, 1019.383
1098.436, 1015.570
1099.672, 1310.938
1100.907, 926.398
1102.142, 1082.504
1103.377, 948.090
1104.612, 694.168
1105.846, 1459.855
1107.081, 765.664
1108.315, 748.180
1109.549, 1064.188
1110.782, 510.297
1112.016, 959.250
1113.249, 715.633
1114.483, 402.039
1115.716, 1078.648
1116.948, 475.285
1118.181, 821.953
1119.413, 758.641
1120.646, 345.355
1121.878, 1137.992
1123.110, 924.750
1124.341, 821.531
1125.573, 908.543
1126.804, 695.363
1128.035, 792.410
1129.266, 1019.582
1130.497, 266.488
1131.727, 962.910
1132.957, 599.945
1134.188, 527.016
1135.418, 765.148
1136.647, 642.324
1137.877, 625.531
1139.106, 982.859
1140.335, 220.199
1141.564, 610.547
1142.793, 878.137
1144.022, 126.043
1145.250, 1018.523
1146.479, 85.969
1147.707, 324.246
1148.934, 460.691
1150.162, 258.172
1151.390, 699.363
1152.617, 337.520
1153.844, 105.020
1155.071, 680.391
1156.298, 137.914
1157.524, 605.727
1158.751, 262.684
1159.977, 390.219
1161.203, 539.488
1162.428, 288.625
1163.654, 67.320
1164.879, 596.719
1166.105, 135.746
1167.330, 422.191
1168.555, 331.211
1169.779, 198.711
1171.004, 407.234
1172.228, 15.277
1173.452, 92.207
1174.676, 321.141
1175.900, 191.379
1177.123, 496.035
1178.346, 297.668
1179.570, 45.070
1180.793, 693.746
1182.015, 21.836
1183.238, 219.211
1184.460, 444.500
1185.683, 288.148
1186.905, 829.082
1188.126, 240.477
1189.348, 178.102
1190.569, 355.469
1191.791, 28.727
1193.012, 295.887
1194.233, 334.227
1195.453, 315.195
1196.674, 771.781
1197.894, 124.465
1199.114, 138.590
1200.334, 318.285
1201.554, 13.301
1202.774, 393.527
1203.993, 200.742
1205.212, 217.691
1206.431, 524.465
1207.650, 284.742
1208.869, 121.660
1210.087, 468.359
1211.305, 142.035
1212.524, 488.695
1213.741, 625.332
1214.959, 74.070
1216.177, 910.652
1217.394, 418.625
1218.611, 13.738
1219.828, 852.762
1221.045, 146.105
1222.261, 472.551
1223.478, 1068.973
1224.694, 227.824
1225.910, 808.414
1227.126, 626.000
1228.342, 55.566
1229.557, 551.711
1230.772, 559.039
1231.987, 706.047
1233.202, 652.102
1234.417, 204.746
1235.631, 590.781
1236.846, 1186.812
1238.060, 183.492
1239.274, 829.496
1240.488, 435.492
1241.701, 381.477
1242.915, 907.449
1244.128, 53.684
1245.341, 709.594
1246.554, 695.473
1247.767, 123.242
1248.979, 1019.090
1250.191, 174.918
1251.403, 512.926
1252.615, 948.691
1253.827, 55.562
1255.039, 690.688
1256.250, 896.266
1257.461, 11.820
1258.672, 927.305
1259.883, 642.766
1261.094, 549.355
1262.304, 334.664
1263.514, 349.941
1264.724, 675.477
1265.934, 750.625
1267.144, 24.355
1268.354, 950.598
1269.563, 555.359
1270.772, 310.008
1271.981, 904.598
1273.190, 319.152
1274.398, 304.078
1275.607, 1028.547
1276.815, 227.098
1278.023, 617.777
1279.231, 791.945
1280.439, 166.324
1281.646, 750.348
1282.853, 5.676
1284.060, 409.797
1285.267, 743.836
1286.474, 112.488
1287.681, 371.629
1288.887, 305.090
1290.093, 18.492
1291.299, 922.410
1292.505, 235.699
1293.711, 41.090
1294.916, 681.984
1296.121, 54.926
1297.327, 287.906
1298.531, 500.688
1299.736, 176.633
1300.941, 778.109
1302.145, 390.387
1303.349, 357.520
1304.553, 654.387
1305.757, 73.773
1306.961, 167.891
1308.164, 219.480
1309.367, 150.996
1310.570, 612.438
1311.773, 370.801
1312.976, 182.082
1314.178, 663.293
1315.381, 244.402
1316.583, 545.422
1317.785, 686.203
1318.987, 62.930
1320.188, 567.801
1321.390, 712.555
1322.591, 63.125
1323.792, 783.602
1324.993, 224.004
1326.193, 324.320
1327.394, 844.551
1328.594, 5.301
1329.794, 554.730
1330.994, 742.117
1332.194, 61.965
1333.394, 391.715
1334.593, 451.426
1335.792, 138.996
1336.991, 1010.426
1338.190, 239.770
1339.389, 88.988
1340.587, 922.477
1341.786, 21.535
1342.984, 560.504
1344.182, 774.297
1345.379, 183.117
1346.577, 861.551
1347.774, 390.508
1348.972, 449.113
1350.169, 1317.656
1351.365, 76.129
1352.562, 444.516
1353.759, 1132.836
1354.955, 158.906
1356.151, 989.219
1357.347, 517.316
1358.543, 145.328
1359.738, 993.238
1360.934, 212.227
1362.129, 250.074
1363.324, 1177.055
1364.519, 4.801
1365.713, 932.484
1366.908, 1080.441
1368.102, 311.934
1369.296, 681.211
1370.490, 208.793
1371.684, 103.852
1372.877, 612.859
1374.071, 231.605
1375.264, 268.762
1376.457, 964.320
1377.650, 7.160
1378.843, 1049.930
1380.035, 862.445
1381.227, 345.066
1382.419, 1476.734
1383.611, 689.203
1384.803, 660.938
1385.995, 1142.762
1387.186, 437.789
1388.377, 619.840
1389.568, 1198.770
1390.759, 190.621
1391.950, 1162.391
1393.140, 1234.078
1394.331, 168.938
1395.521, 1450.164
1396.711, 871.312
1397.900, 402.281
1399.090, 1360.410
1400.279, 610.129
1401.469, 633.684
1402.658, 1134.340
1403.847, 248.629
1405.035, 1402.023
1406.224, 701.148
1407.412, 419.750
1408.600, 863.977
1409.788, 620.375
1410.976, 489.367
1412.164, 1129.375
1413.351, 610.145
1414.538, 504.504
1415.725, 1012.273
1416.912, 338.457
1418.099, 975.195
1419.285, 876.910
1420.472, 274.781
1421.658, 1176.418
1422.844, 361.133
1424.030, 696.781
1425.215, 1284.195
1426.401, 124.520
1427.586, 316.379
1428.771, 1031.340
1429.956, 252.648
1431.141, 1200.141
1432.325, 814.246
1433.510, 240.148
1434.694, 1076.371
1435.878, 666.387
1437.062, 332.992
1438.245, 1188.719
1439.429, 320.539
1440.612, 1121.453
1441.795, 1434.059
1442.978, 29.098
1444.161, 1492.902
1445.343, 1058.461
1446.526, 279.727
1447.708, 1711.340
1448.890, 560.996
1450.072, 812.191
1451.253, 1434.363
1452.435, 466.156
1453.616, 1006.992
1454.797, 1543.914
1455.978, 224.570
1457.159, 1389.770
1458.340, 1188.270
1459.520, 518.055
1460.700, 1477.531
1461.880, 1193.859
1463.060, 792.090
1464.240, 1551.199
1465.420, 460.543
1466.599, 770.359
1467.778, 1688.668
1468.957, 377.938
1470.136, 1325.168
1471.315, 1213.289
1472.493, 307.031
1473.671, 1734.918
1474.849, 771.781
1476.027, 128.203
1477.205, 1606.168
1478.383, 344.328
1479.560, 812.043
1480.737, 1291.902
1481.914, 231.500
1483.091, 951.391
1484.268, 921.582
1485.444, 391.625
1486.621, 1351.641
1487.797, 671.707
1488.973, 31.961
1490.149, 1192.312
1491.324, 562.832
1492.500, 1813.414
1493.675, 1254.121
1494.850, 255.055
1496.025, 586.496
1497.200, 877.980
1498.374, 80.297
1499.548, 853.383
1500.723, 567.203
1501.897, 28.523
1503.071, 916.320
1504.244, 598.914
1505.418, 304.945
1506.591, 831.902
1507.764, 39.949
