##NAMES=Anorthite
##RRUFFID=R040059
##IDEAL CHEMISTRY=CaAl_2_Si_2_O_8_
##LOCALITY=Miyakejima, Japan
##OWNER=RRUFF
##SOURCE=University of Arizona Mineral Museum
##DESCRIPTION=Colorless fragments of crystals
##STATUS=The identification of this mineral has been confirmed by X-ray diffraction and chemical analysis
##URL=rruff.info/R040059
##MEASURED CHEMISTRY=(Ca_0.94_Na_0.04_Fe_0.02_)(Al_0.98_Si_0.02_)_2_Si_2.00_O_8_
##PIN_ID=M00453
##ORIENTATION=Laser parallel to -c* (0 0 -1). Fiducial mark perpendicular to laser is parallel to a [1 0 0]
118.956, 0.000
120.347, 2.666
121.738, 225.911
123.129, 6.376
124.519, 133.468
125.910, 9.840
127.300, 101.987
128.690, 367.944
130.080, 258.490
131.469, 751.504
132.858, 456.633
134.248, 693.638
135.636, 772.422
137.025, 912.854
138.413, 1124.753
139.801, 1077.014
141.189, 1690.714
142.577, 1745.402
143.964, 2170.931
145.352, 2237.175
146.739, 2174.077
148.125, 1991.798
149.512, 1420.539
150.898, 1530.339
152.284, 761.012
153.670, 662.387
155.056, 334.310
156.441, 286.654
157.827, 169.316
159.212, 77.788
160.596, 245.273
161.981, 148.450
163.365, 311.706
164.749, 375.017
166.133, 518.362
167.517, 871.729
168.900, 845.102
170.283, 1358.472
171.666, 1481.853
173.049, 1745.437
174.431, 2139.938
175.813, 2456.320
177.195, 3024.267
178.577, 2983.906
179.959, 3825.254
181.340, 3936.926
182.721, 4618.137
184.102, 4998.928
185.483, 5189.305
186.863, 5509.229
188.244, 5268.672
189.624, 5527.619
191.003, 5106.098
192.383, 5384.129
193.762, 5181.733
195.141, 4838.930
196.520, 4715.736
197.899, 4222.166
199.277, 4118.242
200.656, 3683.975
202.034, 3649.406
203.411, 3594.619
204.789, 3259.631
206.166, 3434.468
207.543, 3179.150
208.920, 3273.689
210.297, 3068.098
211.673, 2892.382
213.049, 2816.547
214.425, 2320.603
215.801, 2324.549
217.176, 1858.393
218.552, 1692.138
219.927, 1575.799
221.302, 1289.357
222.676, 1532.808
224.051, 1088.015
225.425, 1445.652
226.799, 915.530
228.173, 1014.516
229.546, 1002.540
230.919, 812.806
232.292, 1272.562
233.665, 829.970
235.038, 1249.995
236.410, 1280.998
237.782, 1642.855
239.154, 1725.662
240.526, 1683.691
241.898, 2299.518
243.269, 2091.964
244.640, 2713.249
246.011, 2693.763
247.381, 2985.756
248.752, 3207.598
250.122, 3438.736
251.492, 3539.482
252.861, 3528.393
254.231, 3647.430
255.600, 3615.434
256.969, 3612.909
258.338, 3555.699
259.707, 3377.028
261.075, 3354.023
262.443, 3190.965
263.811, 3077.852
265.179, 3034.679
266.546, 2851.449
267.914, 2957.143
269.281, 3104.816
270.647, 3201.416
272.014, 3207.957
273.380, 3434.442
274.747, 3470.872
276.113, 3467.246
277.478, 3653.566
278.844, 3659.832
280.209, 3826.044
281.574, 3942.201
282.939, 3768.305
284.304, 3948.247
285.668, 3617.063
287.032, 3816.628
288.396, 3366.009
289.760, 3295.924
291.123, 2935.840
292.487, 2416.007
293.850, 2506.269
295.212, 1716.636
296.575, 1677.061
297.937, 1317.539
299.300, 1308.057
300.662, 1028.602
302.023, 869.175
303.385, 1009.761
304.746, 570.311
306.107, 720.864
307.468, 661.418
308.829, 691.967
310.189, 652.507
311.549, 533.034
312.909, 603.547
314.269, 554.037
315.629, 534.543
316.988, 695.017
318.347, 515.511
319.706, 855.971
321.065, 636.391
322.423, 826.776
323.781, 695.940
325.139, 666.258
326.497, 646.531
327.855, 256.759
329.212, 416.938
330.569, 127.067
331.926, 197.141
333.283, 97.161
334.639, 32.878
335.995, 107.004
337.351, 163.174
338.707, 23.466
340.063, 73.852
341.418, 144.353
342.773, 54.931
344.128, 275.630
345.483, 103.504
346.837, 257.451
348.192, 11.417
349.546, 139.786
350.899, 311.133
352.253, 62.664
353.606, 204.318
354.960, 76.127
356.313, 248.056
357.665, 170.148
359.018, 132.384
360.370, 124.752
361.722, 27.245
363.074, 29.782
364.426, 207.483
365.777, 244.736
367.128, 211.921
368.479, 399.041
369.830, 266.098
371.181, 423.092
372.531, 280.025
373.881, 196.896
375.231, 303.700
376.581, 190.444
377.930, 377.123
379.280, 213.744
380.629, 380.301
381.977, 286.799
383.326, 273.238
384.674, 579.617
386.023, 275.992
387.370, 692.297
388.718, 568.529
390.066, 524.746
391.413, 560.836
392.760, 786.785
394.107, 1062.523
395.454, 818.002
396.800, 1203.301
398.146, 1298.424
399.492, 1173.309
400.838, 1497.969
402.184, 1512.363
403.529, 1756.551
404.874, 1780.627
406.219, 1744.656
407.564, 1868.643
408.908, 1362.584
410.252, 1656.492
411.596, 1240.350
412.940, 1174.164
414.284, 1067.936
415.627, 711.664
416.970, 1085.357
418.313, 669.012
419.656, 1052.637
420.999, 1006.230
422.341, 1159.793
423.683, 1603.324
425.025, 1496.822
426.367, 2060.309
427.708, 2103.750
429.049, 2497.160
430.390, 2680.539
431.731, 2353.885
433.072, 2497.203
434.412, 2190.490
435.752, 2393.748
437.092, 2206.975
438.432, 1800.174
439.772, 2293.340
441.111, 1696.480
442.450, 1669.588
443.789, 1472.666
445.127, 1115.715
446.466, 1098.719
447.804, 1021.682
449.142, 985.271
450.480, 778.150
451.817, 761.564
453.155, 994.600
454.492, 747.881
455.829, 1028.326
457.166, 1081.133
458.502, 1375.166
459.838, 1317.836
461.175, 1230.330
462.510, 1484.057
463.846, 1266.451
465.181, 1398.797
466.517, 1311.090
467.852, 1623.332
469.186, 2165.520
470.521, 1987.658
471.855, 2489.748
473.190, 2271.781
474.523, 2783.768
475.857, 3125.047
477.191, 3306.926
478.524, 4170.867
479.857, 4163.322
481.190, 5425.043
482.523, 5988.000
483.855, 6450.227
485.187, 8135.156
486.519, 8006.668
487.851, 8158.145
489.183, 7978.922
490.514, 7169.807
491.845, 6959.004
493.176, 6728.799
494.507, 6997.332
495.837, 7311.562
497.168, 8370.129
498.498, 10006.793
499.828, 10941.020
501.157, 13431.566
502.487, 14532.139
503.816, 15644.770
505.145, 16386.537
506.474, 15145.953
507.802, 14565.154
509.131, 12768.203
510.459, 11523.965
511.787, 10439.395
513.115, 9199.867
514.442, 8731.453
515.770, 7361.016
517.097, 6699.711
518.424, 5573.256
519.750, 4709.107
521.077, 4585.402
522.403, 3377.754
523.729, 3423.410
525.055, 3112.146
526.381, 2821.150
527.706, 2699.877
529.031, 2029.629
530.356, 2328.711
531.681, 1668.502
533.006, 1757.635
534.330, 1396.025
535.654, 1465.180
536.978, 1363.422
538.302, 1422.797
539.625, 1421.146
540.949, 1460.449
542.272, 1280.330
543.595, 1949.041
544.917, 1579.984
546.240, 2028.623
547.562, 2658.752
548.884, 2573.820
550.206, 3483.721
551.527, 3319.045
552.849, 4309.289
554.170, 4739.461
555.491, 5053.057
556.812, 5283.336
558.132, 5407.229
559.453, 5157.016
560.773, 4717.500
562.093, 4367.707
563.412, 4007.719
564.732, 3511.451
566.051, 3111.793
567.370, 2538.260
568.689, 2241.709
570.008, 1781.230
571.326, 1441.094
572.644, 1570.549
573.963, 1089.971
575.280, 1069.361
576.598, 718.719
577.915, 768.045
579.233, 627.336
580.550, 446.598
581.866, 675.824
583.183, 535.020
584.499, 374.184
585.815, 903.311
587.131, 432.406
588.447, 761.469
589.763, 710.500
591.078, 619.496
592.393, 1008.463
593.708, 767.396
595.022, 1086.299
596.337, 875.168
597.651, 684.002
598.965, 1012.807
600.279, 871.576
601.593, 830.314
602.906, 719.020
604.219, 467.691
605.532, 726.330
606.845, 194.939
608.158, 503.508
609.470, 212.043
610.782, 290.545
612.094, 219.012
613.406, 102.559
614.718, 305.771
616.029, 24.064
617.340, 312.312
618.651, 540.529
619.962, 38.717
621.272, 696.859
622.582, 414.973
623.892, 723.051
625.202, 1061.102
626.512, 529.123
627.821, 1427.109
629.131, 565.066
630.440, 332.994
631.749, 520.893
633.057, 131.242
634.366, 446.512
635.674, 175.764
636.982, 151.820
638.290, 349.371
639.597, 16.893
640.905, 164.707
642.212, 37.848
643.519, 319.535
644.825, 360.035
646.132, 177.361
647.438, 733.402
648.744, 270.672
650.050, 267.922
651.356, 678.564
652.662, 85.773
653.967, 783.926
655.272, 1.113
656.577, 168.537
657.882, 305.912
659.186, 196.861
660.490, 80.988
661.794, 20.867
663.098, 56.297
664.402, 184.238
665.705, 77.477
667.009, 563.389
668.312, 237.590
669.614, 434.824
670.917, 641.104
672.219, 398.404
673.522, 1265.719
674.824, 818.740
676.125, 1366.164
677.427, 1719.324
678.728, 1736.809
680.030, 2096.295
681.331, 1826.033
682.631, 1963.492
683.932, 1912.082
685.232, 1579.486
686.532, 1666.867
687.832, 1320.820
689.132, 1378.143
690.432, 1085.439
691.731, 852.711
693.030, 1089.957
694.329, 438.059
695.628, 385.252
696.926, 662.480
698.224, 129.621
699.522, 536.727
700.820, 96.193
702.118, 430.762
703.415, 557.688
704.713, 165.414
706.010, 291.318
707.307, 171.980
708.603, 294.555
709.900, 301.059
711.196, 17.525
712.492, 253.930
713.788, 10.299
715.083, 416.600
716.379, 172.869
717.674, 229.104
718.969, 265.301
720.264, 131.471
721.558, 147.602
722.853, 343.695
724.147, 9.762
725.441, 415.760
726.735, 241.729
728.028, 427.666
729.322, 543.576
730.615, 399.459
731.908, 705.311
733.201, 911.139
734.493, 1006.938
735.785, 932.709
737.078, 938.453
738.370, 1534.170
739.661, 1229.861
740.953, 1505.508
742.244, 1901.148
743.535, 1476.760
744.826, 2072.348
746.117, 1367.908
747.407, 1513.447
748.698, 1858.957
749.988, 1204.445
751.278, 2039.910
752.567, 1465.350
753.857, 1620.764
755.146, 2076.154
756.435, 1901.523
757.724, 2456.869
759.013, 2302.191
760.301, 2537.490
761.590, 3262.766
762.878, 2777.352
764.165, 3182.582
765.453, 3247.211
766.741, 2892.150
768.028, 3016.775
769.315, 2604.168
770.602, 2759.127
771.888, 2332.795
773.175, 2097.752
774.461, 1922.812
775.747, 1336.574
777.033, 1411.596
778.319, 1376.598
779.604, 761.580
780.889, 1166.547
782.174, 851.492
783.459, 1106.420
784.744, 811.330
786.028, 426.221
787.312, 981.096
788.596, 246.602
789.880, 471.439
791.164, 654.152
792.447, 218.268
793.730, 783.061
795.013, 106.549
796.296, 570.695
797.579, 362.078
798.861, 23.191
800.143, 621.494
801.425, 114.375
802.707, 190.203
803.989, 334.604
805.270, 191.010
806.551, 323.408
807.832, 153.146
809.113, 181.152
810.394, 103.701
811.674, 302.650
812.954, 571.316
814.234, 319.277
815.514, 3.486
816.794, 333.143
818.073, 5.717
819.352, 1.129
820.631, 55.062
821.910, 111.295
823.189, 144.368
824.467, 304.398
825.745, 229.104
827.023, 102.594
828.301, 93.924
829.578, 419.494
830.856, 97.100
832.133, 266.242
833.410, 200.428
834.687, 37.213
835.963, 385.967
837.240, 190.861
838.516, 82.197
839.792, 445.246
841.068, 121.715
842.343, 451.262
843.618, 264.230
844.894, 347.191
846.169, 410.145
847.443, 16.910
848.718, 446.016
849.992, 18.934
851.266, 191.842
852.540, 823.727
853.814, 496.625
855.088, 628.574
856.361, 481.484
857.634, 414.387
858.907, 569.277
860.180, 524.688
861.453, 691.986
862.725, 954.631
863.997, 717.307
865.269, 686.518
866.541, 359.014
867.812, 517.855
869.084, 620.793
870.355, 462.996
871.626, 525.445
872.897, 508.055
874.167, 270.113
875.438, 1022.252
876.708, 35.193
877.978, 544.244
879.248, 817.215
880.517, 129.812
881.787, 992.789
883.056, 365.781
884.325, 1048.773
885.594, 621.809
886.862, 654.846
888.130, 1047.885
889.399, 561.043
890.667, 1114.207
891.934, 1157.373
893.202, 520.570
894.469, 1103.773
895.737, 956.984
897.004, 1070.205
898.270, 1223.430
899.537, 966.740
900.803, 1590.057
902.070, 1013.381
903.336, 1646.748
904.601, 1630.123
905.867, 1143.508
907.132, 1626.900
908.398, 1940.305
909.663, 1583.719
910.928, 2307.143
912.192, 1860.578
913.457, 2314.025
914.721, 2447.480
915.985, 1660.955
917.249, 1904.441
918.512, 1797.943
919.776, 1621.461
921.039, 2074.992
922.302, 1028.574
923.565, 1942.172
924.827, 1325.787
926.090, 1319.420
927.352, 1873.064
928.614, 1416.730
929.876, 1770.461
931.138, 1634.205
932.399, 1377.969
933.660, 2011.742
934.922, 1285.535
936.182, 1869.344
937.443, 1703.166
938.704, 1567.008
939.964, 2320.863
941.224, 1924.777
942.484, 1998.709
943.744, 2382.711
945.003, 1976.732
946.262, 2730.770
947.521, 2484.498
948.780, 2868.580
950.039, 3032.697
951.298, 3023.689
952.556, 3607.842
953.814, 3603.271
955.072, 3387.467
956.330, 4141.680
957.587, 3222.496
958.845, 3526.754
960.102, 3660.102
961.359, 3024.412
962.615, 3040.400
963.872, 3064.607
965.128, 2819.002
966.384, 3332.768
967.640, 2976.268
968.896, 3000.824
970.152, 3544.604
971.407, 3208.127
972.662, 3920.090
973.917, 3177.740
975.172, 3782.465
976.427, 4128.182
977.681, 3622.963
978.935, 4297.770
980.189, 3396.959
981.443, 3881.822
982.697, 3691.004
983.950, 3345.928
985.203, 3518.887
986.456, 3121.611
987.709, 2696.621
988.962, 2960.508
990.214, 2045.580
991.467, 2610.686
992.719, 2460.906
993.971, 1836.145
995.222, 2221.412
996.474, 1846.725
997.725, 1792.064
998.976, 2216.555
1000.227, 2001.957
1001.478, 2777.342
1002.728, 2592.816
1003.978, 2008.326
1005.229, 2283.869
1006.479, 1414.613
1007.728, 1400.328
1008.978, 1661.320
1010.227, 1017.164
1011.476, 1443.057
1012.725, 1269.047
1013.974, 1185.090
1015.223, 1721.164
1016.471, 797.285
1017.719, 1763.441
1018.967, 1534.730
1020.215, 1190.969
1021.462, 1887.234
1022.710, 1223.535
1023.957, 1689.867
1025.204, 1676.234
1026.451, 892.633
1027.697, 1809.062
1028.944, 990.383
1030.190, 986.891
1031.436, 1583.438
1032.682, 842.086
1033.928, 1298.691
1035.173, 1092.586
1036.418, 709.246
1037.663, 1685.961
1038.908, 938.395
1040.153, 1495.160
1041.398, 1581.973
1042.642, 1084.078
1043.886, 1700.941
1045.130, 1338.066
1046.374, 1235.078
1047.617, 2112.117
1048.860, 1206.293
1050.104, 1873.457
1051.347, 1950.719
1052.589, 1275.480
1053.832, 2062.789
1055.074, 1420.141
1056.316, 1787.516
1057.558, 1624.914
1058.800, 1262.492
1060.042, 1799.945
1061.283, 1637.508
1062.524, 1275.094
1063.765, 1822.703
1065.006, 1191.039
1066.247, 1388.883
1067.487, 1596.754
1068.728, 1084.930
1069.968, 2242.848
1071.208, 1380.793
1072.447, 1789.438
1073.687, 2077.426
1074.926, 1515.445
1076.165, 1923.480
1077.404, 1831.539
1078.643, 1671.344
1079.881, 2279.512
1081.120, 1687.699
1082.358, 1805.977
1083.596, 2144.273
1084.834, 1472.590
1086.071, 2460.930
1087.309, 2429.281
1088.546, 1437.680
1089.783, 1776.098
1091.020, 814.531
1092.256, 1562.984
1093.493, 1341.449
1094.729, 709.938
1095.965, 1328.441
1097.201, 816.957
1098.436, 655.641
1099.672, 1014.191
1100.907, 342.773
1102.142, 761.410
1103.377, 720.094
1104.612, 358.793
1105.846, 1387.527
1107.081, 526.332
1108.315, 367.750
1109.549, 586.641
1110.782, 94.461
1112.016, 825.352
1113.249, 414.348
1114.483, 213.355
1115.716, 852.465
1116.948, 211.598
1118.181, 590.738
1119.413, 819.898
1120.646, 60.926
1121.878, 988.512
1123.110, 557.758
1124.341, 517.012
1125.573, 706.359
1126.804, 415.711
1128.035, 435.074
1129.266, 834.473
1130.497, 43.883
1131.727, 874.766
1132.957, 344.223
1134.188, 233.734
1135.418, 873.277
1136.647, 392.820
1137.877, 363.344
1139.106, 922.953
1140.335, 77.430
1141.564, 758.703
1142.793, 548.352
1144.022, 7.996
1145.250, 1270.176
1146.479, 79.824
1147.707, 249.531
1148.934, 321.070
1150.162, 140.727
1151.390, 960.852
1152.617, 170.504
1153.844, 139.848
1155.071, 934.027
1156.298, 136.379
1157.524, 543.156
1158.751, 186.566
1159.977, 326.090
1161.203, 899.922
1162.428, 269.430
1163.654, 38.926
1164.879, 738.418
1166.105, 122.102
1167.330, 697.320
1168.555, 266.730
1169.779, 246.133
1171.004, 355.520
1172.228, 184.895
1173.452, 214.262
1174.676, 644.008
1175.900, 106.652
1177.123, 782.621
1178.346, 103.793
1179.570, 46.957
1180.793, 922.250
1182.015, 138.078
1183.238, 261.031
1184.460, 924.059
1185.683, 426.863
1186.905, 871.973
1188.126, 224.473
1189.348, 96.730
1190.569, 341.996
1191.791, 112.977
1193.012, 461.660
1194.233, 411.309
1195.453, 262.441
1196.674, 836.023
1197.894, 321.867
1199.114, 99.715
1200.334, 698.609
1201.554, 331.016
1202.774, 599.293
1203.993, 438.332
1205.212, 189.488
1206.431, 977.680
1207.650, 324.281
1208.869, 272.895
1210.087, 631.004
1211.305, 175.020
1212.524, 623.062
1213.741, 841.367
1214.959, 240.387
1216.177, 1118.336
1217.394, 766.914
1218.611, 156.355
1219.828, 1394.215
1221.045, 373.957
1222.261, 711.754
1223.478, 1169.516
1224.694, 105.832
1225.910, 931.766
1227.126, 819.332
1228.342, 443.566
1229.557, 1121.066
1230.772, 708.863
1231.987, 827.137
1233.202, 974.574
1234.417, 428.035
1235.631, 945.441
1236.846, 1372.836
1238.060, 410.430
1239.274, 1397.789
1240.488, 875.125
1241.701, 562.441
1242.915, 1329.730
1244.128, 387.004
1245.341, 1044.242
1246.554, 1161.469
1247.767, 435.758
1248.979, 1802.938
1250.191, 560.098
1251.403, 741.699
1252.615, 1328.816
1253.827, 105.914
1255.039, 943.570
1256.250, 1430.598
1257.461, 245.738
1258.672, 1242.711
1259.883, 1059.562
1261.094, 726.473
1262.304, 1103.258
1263.514, 680.000
1264.724, 1096.719
1265.934, 1043.324
1267.144, 428.863
1268.354, 1347.094
1269.563, 1263.559
1270.772, 499.992
1271.981, 1666.395
1273.190, 832.770
1274.398, 879.105
1275.607, 1745.414
1276.815, 221.688
1278.023, 1209.141
1279.231, 1135.328
1280.439, 603.051
1281.646, 1439.145
1282.853, 305.184
1284.060, 531.703
1285.267, 1287.512
1286.474, 118.520
1287.681, 868.547
1288.887, 663.906
1290.093, 169.211
1291.299, 1564.457
1292.505, 529.527
1293.711, 214.203
1294.916, 1248.836
1296.121, 433.410
1297.327, 857.922
1298.531, 882.371
1299.736, 78.344
1300.941, 1295.809
1302.145, 774.527
1303.349, 118.438
1304.553, 1272.277
1305.757, 106.004
1306.961, 729.656
1308.164, 623.250
1309.367, 636.793
1310.570, 1210.270
1311.773, 868.531
1312.976, 621.816
1314.178, 1134.996
1315.381, 608.094
1316.583, 981.133
1317.785, 1294.102
1318.987, 457.000
1320.188, 1179.824
1321.390, 1217.742
1322.591, 220.402
1323.792, 992.988
1324.993, 623.426
1326.193, 435.859
1327.394, 1090.938
1328.594, 113.168
1329.794, 775.293
1330.994, 841.637
1332.194, 103.582
1333.394, 785.430
1334.593, 581.930
1335.792, 226.363
1336.991, 1115.035
1338.190, 286.512
1339.389, 152.074
1340.587, 1232.156
1341.786, 156.633
1342.984, 514.441
1344.182, 837.988
1345.379, 68.949
1346.577, 1109.836
1347.774, 300.668
1348.972, 111.441
1350.169, 1172.016
1351.365, 177.328
1352.562, 373.207
1353.759, 1203.699
1354.955, 615.840
1356.151, 1023.879
1357.347, 414.078
1358.543, 254.258
1359.738, 984.129
1360.934, 325.711
1362.129, 195.844
1363.324, 1195.289
1364.519, 165.422
1365.713, 945.570
1366.908, 1065.750
1368.102, 154.172
1369.296, 744.215
1370.490, 525.152
1371.684, 154.730
1372.877, 945.098
1374.071, 384.777
1375.264, 269.297
1376.457, 1333.727
1377.650, 18.074
1378.843, 972.359
1380.035, 916.578
1381.227, 420.582
1382.419, 1574.680
1383.611, 758.637
1384.803, 752.520
1385.995, 1273.473
1387.186, 567.164
1388.377, 749.793
1389.568, 1273.359
1390.759, 6.852
1391.950, 1420.277
1393.140, 1343.352
1394.331, 66.633
1395.521, 1669.840
1396.711, 1092.977
1397.900, 344.305
1399.090, 1637.254
1400.279, 519.004
1401.469, 791.785
1402.658, 1283.863
1403.847, 453.102
1405.035, 1495.367
1406.224, 1105.199
1407.412, 556.762
1408.600, 1110.059
1409.788, 602.008
1410.976, 178.695
1412.164, 1224.617
1413.351, 496.320
1414.538, 598.004
1415.725, 1329.676
1416.912, 541.297
1418.099, 1032.305
1419.285, 973.879
1420.472, 222.613
1421.658, 1573.430
1422.844, 189.027
1424.030, 780.695
1425.215, 1626.758
1426.401, 263.309
1427.586, 523.062
1428.771, 1155.855
1429.956, 118.328
1431.141, 1472.316
1432.325, 1021.715
1433.510, 617.387
1434.694, 1715.023
1435.878, 833.836
1437.062, 642.211
1438.245, 1859.164
1439.429, 803.824
1440.612, 1998.836
1441.795, 2397.328
1442.978, 692.965
1444.161, 2397.977
1445.343, 2394.676
1446.526, 1300.125
1447.708, 2984.402
1448.890, 1930.266
1450.072, 1916.289
1451.253, 3132.039
1452.435, 1877.512
1453.616, 2436.535
1454.797, 2921.039
1455.978, 1334.625
1457.159, 2926.719
1458.340, 2409.879
1459.520, 1522.848
1460.700, 2905.445
1461.880, 2297.906
1463.060, 1720.367
1464.240, 2697.879
1465.420, 1269.570
1466.599, 1650.758
1467.778, 2401.426
1468.957, 727.863
1470.136, 2042.547
1471.315, 1969.879
1472.493, 499.535
1473.671, 2494.328
1474.849, 1154.082
1476.027, 445.477
1477.205, 2377.664
1478.383, 839.625
1479.560, 1251.742
1480.737, 1855.156
1481.914, 538.582
1483.091, 1422.027
1484.268, 1445.258
1485.444, 878.973
1486.621, 1423.109
1487.797, 1127.301
1488.973, 261.594
1490.149, 1756.129
1491.324, 651.012
1492.500, 316.363
1493.675, 1292.707
1494.850, 299.957
1496.025, 778.148
1497.200, 1187.062
1498.374, 136.762
1499.548, 1097.266
1500.723, 738.750
1501.897, 48.660
1503.071, 1065.277
1504.244, 740.836
1505.418, 48.207
1506.591, 1407.570
1507.764, 189.285
1508.937, 752.438
1510.110, 1123.465
