##NAMES=Anorthite
##RRUFFID=R040059
##IDEAL CHEMISTRY=CaAl_2_Si_2_O_8_
##LOCALITY=Miyakejima, Japan
##OWNER=RRUFF
##SOURCE=University of Arizona Mineral Museum
##DESCRIPTION=Colorless fragments of crystals
##STATUS=The identification of this mineral has been confirmed by X-ray diffraction and chemical analysis
##URL=rruff.info/R040059
##MEASURED CHEMISTRY=(Ca_0.94_Na_0.04_Fe_0.02_)(Al_0.98_Si_0.02_)_2_Si_2.00_O_8_
##PIN_ID=L00234
##ORIENTATION=Laser parallel to b* (0 1 0). Fiducial mark perpendicular to laser is parallel to c [0 0 1]
121.706, 0.000
123.102, 254.704
124.497, 16.954
125.892, 157.060
127.286, 36.799
128.681, 255.656
130.075, 589.232
131.469, 544.584
132.862, 1179.539
134.256, 1152.398
135.649, 1531.836
137.042, 1756.977
138.435, 2207.211
139.827, 2461.930
141.219, 2890.553
142.611, 3182.549
144.003, 3107.463
145.394, 2814.896
146.786, 2244.520
148.177, 1636.066
149.567, 1129.604
150.958, 475.363
152.348, 563.398
153.738, 273.441
155.128, 585.160
156.517, 88.273
157.907, 412.547
159.296, 597.787
160.685, 813.832
162.073, 1390.557
163.462, 1737.840
164.850, 2785.594
166.237, 3073.744
167.625, 3922.232
169.012, 4961.020
170.400, 5750.074
171.786, 6589.367
173.173, 7618.875
174.559, 8588.967
175.946, 9881.785
177.332, 11597.375
178.717, 12685.363
180.103, 13805.387
181.488, 15187.266
182.873, 15809.668
184.258, 16071.398
185.642, 15722.555
187.026, 15043.246
188.410, 14763.402
189.794, 13853.006
191.178, 13462.090
192.561, 11720.682
193.944, 11388.809
195.327, 10186.496
196.709, 8773.762
198.092, 8050.627
199.474, 7077.113
200.856, 6853.236
202.237, 5899.008
203.618, 5734.453
205.000, 5379.578
206.380, 4934.375
207.761, 4728.902
209.142, 4323.238
210.522, 4167.408
211.902, 3851.449
213.281, 3115.383
214.661, 2719.223
216.040, 1962.982
217.419, 1976.674
218.798, 1400.305
220.176, 1183.879
221.554, 1187.410
222.932, 960.895
224.310, 1004.338
225.688, 907.805
227.065, 1247.396
228.442, 1093.773
229.819, 1244.004
231.196, 1435.156
232.572, 1436.758
233.948, 1895.469
235.324, 2116.492
236.700, 2660.482
238.075, 2966.684
239.450, 3850.711
240.825, 4068.527
242.200, 4550.164
243.574, 5678.832
244.948, 5346.250
246.322, 6132.852
247.696, 5910.682
249.070, 6231.809
250.443, 6142.207
251.816, 6211.277
253.189, 6509.264
254.561, 6375.967
255.933, 6592.629
257.306, 6239.311
258.677, 6315.996
260.049, 6302.680
261.420, 6029.348
262.791, 6265.982
264.162, 6382.584
265.533, 6829.141
266.903, 6925.652
268.274, 7512.119
269.643, 7988.543
271.013, 7834.918
272.383, 8271.250
273.752, 8227.533
275.121, 8783.777
276.490, 8929.977
277.858, 9136.133
279.226, 9692.248
280.595, 9758.326
281.962, 10244.367
283.330, 10170.420
284.697, 9816.473
286.064, 9802.545
287.431, 8798.762
288.798, 8674.699
290.164, 7550.389
291.530, 6997.986
292.896, 6116.203
294.262, 4994.967
295.627, 4564.148
296.993, 3473.750
298.358, 3073.648
299.722, 2303.803
301.087, 2034.199
302.451, 1654.783
303.815, 1295.555
305.179, 1296.469
306.543, 657.508
307.906, 928.658
309.269, 569.902
310.632, 471.230
311.995, 572.631
313.357, 464.098
314.719, 735.625
316.081, 787.195
317.443, 1068.902
318.804, 1330.629
320.166, 1412.385
321.527, 1436.820
322.887, 1385.912
324.248, 1197.674
325.608, 829.422
326.968, 511.156
328.328, 362.869
329.688, 155.439
331.047, 16.172
332.406, 302.262
333.765, 110.822
335.124, 129.459
336.482, 328.182
337.840, 187.033
339.198, 285.990
340.556, 115.088
341.913, 154.270
343.271, 253.586
344.628, 203.049
345.984, 432.676
347.341, 77.471
348.697, 222.484
350.053, 82.611
351.409, 152.877
352.765, 293.293
354.120, 143.900
355.475, 284.654
356.830, 124.408
358.185, 206.615
359.539, 257.795
360.894, 140.850
362.248, 249.414
363.601, 457.904
364.955, 396.328
366.308, 624.682
367.661, 662.971
369.014, 621.197
370.367, 799.359
371.719, 357.463
373.071, 405.498
374.423, 143.473
375.775, 261.373
377.126, 269.209
378.478, 216.979
379.828, 654.680
381.179, 352.320
382.530, 829.896
383.880, 677.414
385.230, 614.873
386.580, 962.273
387.929, 789.613
389.279, 1486.895
390.628, 1413.988
391.977, 2160.793
393.325, 2957.285
394.674, 3283.465
396.022, 4189.410
397.370, 4285.051
398.718, 5140.418
400.065, 5685.543
401.413, 5330.375
402.760, 5584.918
404.106, 5039.291
405.453, 5093.473
406.799, 4797.613
408.146, 4121.715
409.491, 3835.785
410.837, 3149.814
412.182, 2613.785
413.528, 2147.703
414.873, 2071.574
416.217, 1945.402
417.562, 1899.191
418.906, 2462.945
420.250, 2536.658
421.594, 3250.334
422.938, 4003.971
424.281, 4307.678
425.624, 5111.355
426.967, 4734.875
428.310, 5249.086
429.652, 4612.525
430.994, 4436.389
432.336, 4319.752
433.678, 3783.070
435.020, 3857.646
436.361, 3550.889
437.702, 3785.328
439.043, 3258.736
440.383, 2672.912
441.724, 2975.076
443.064, 2168.445
444.404, 2023.000
445.743, 1760.877
447.083, 1336.943
448.422, 1575.270
449.761, 1160.465
451.100, 1062.326
452.438, 1194.396
453.777, 1081.740
455.115, 1373.107
456.453, 1270.432
457.790, 1632.953
459.128, 1696.648
460.465, 1850.627
461.802, 1797.723
463.139, 1759.982
464.475, 2005.930
465.811, 1938.049
467.147, 2220.094
468.483, 2492.633
469.819, 3044.531
471.154, 3757.547
472.489, 4049.295
473.824, 4992.113
475.159, 5386.230
476.493, 6428.600
477.827, 7734.840
479.161, 8896.969
480.495, 10931.836
481.829, 12374.590
483.162, 14425.785
484.495, 15877.715
485.828, 15548.840
487.161, 16409.750
488.493, 14590.586
489.825, 13521.297
491.157, 13239.074
492.489, 12886.594
493.820, 13973.969
495.151, 15635.039
496.482, 17892.828
497.813, 21101.578
499.144, 25285.291
500.474, 29295.117
501.804, 31169.484
503.134, 32366.678
504.464, 32730.484
505.793, 30704.129
507.123, 28592.396
508.451, 24100.865
509.780, 22060.992
511.109, 19189.801
512.437, 17454.010
513.765, 15939.328
515.093, 13643.824
516.421, 12889.342
517.748, 11287.158
519.075, 10687.227
520.402, 10193.953
521.729, 10021.656
523.055, 10950.273
524.382, 9789.703
525.708, 9318.783
527.034, 9098.441
528.359, 7388.039
529.685, 6627.562
531.010, 5397.082
532.335, 4995.619
533.659, 4074.268
534.984, 3490.854
536.308, 3358.611
537.632, 3006.330
538.956, 2963.506
540.279, 2952.537
541.603, 2810.418
542.926, 3179.312
544.249, 3018.771
545.571, 3987.480
546.894, 4056.521
548.216, 4625.133
549.538, 6093.676
550.860, 6313.762
552.181, 7812.166
553.503, 8311.465
554.824, 9430.059
556.145, 10148.262
557.465, 10006.398
558.786, 9844.676
560.106, 9712.713
561.426, 8790.660
562.746, 8289.055
564.065, 7016.879
565.385, 6274.645
566.704, 5192.352
568.023, 4580.750
569.341, 3698.336
570.660, 3345.859
571.978, 2703.322
573.296, 2160.725
574.614, 1948.066
575.931, 1745.350
577.248, 1262.568
578.565, 1089.729
579.882, 936.826
581.199, 963.861
582.515, 620.836
583.831, 617.748
585.147, 844.598
586.463, 471.385
587.779, 1068.104
589.094, 534.760
590.409, 691.352
591.724, 747.879
593.038, 334.348
594.353, 800.742
595.667, 347.074
596.981, 583.332
598.295, 389.525
599.608, 44.354
600.922, 561.623
602.235, 267.533
603.547, 23.367
604.860, 89.090
606.172, 465.275
607.485, 149.988
608.797, 204.830
610.108, 49.879
611.420, 135.074
612.731, 200.465
614.042, 23.918
615.353, 221.809
616.664, 332.225
617.974, 246.188
619.284, 20.074
620.594, 843.850
621.904, 47.562
623.213, 911.180
624.523, 664.732
625.832, 478.225
627.141, 891.652
628.449, 325.016
629.758, 738.305
631.066, 331.535
632.374, 104.693
633.681, 399.039
634.989, 307.951
636.296, 415.686
637.603, 38.924
638.910, 221.494
640.217, 575.162
641.523, 377.598
642.829, 553.738
644.135, 586.250
645.441, 578.867
646.747, 691.885
648.052, 384.012
649.357, 913.713
650.662, 573.500
651.967, 145.783
653.271, 809.793
654.575, 44.543
655.879, 597.834
657.183, 125.668
658.486, 1.717
659.790, 373.783
661.093, 26.424
662.396, 260.113
663.698, 450.877
665.001, 482.998
666.303, 965.990
667.605, 784.416
668.907, 1508.891
670.209, 1718.344
671.510, 1791.062
672.811, 2553.420
674.112, 2241.646
675.413, 3703.896
676.713, 3316.932
678.013, 4099.090
679.313, 5641.971
680.613, 4359.352
681.913, 4271.322
683.212, 3815.406
684.511, 3437.992
685.810, 3239.891
687.109, 2846.924
688.407, 2637.311
689.706, 2259.309
691.004, 2000.820
692.302, 1812.277
693.599, 1283.674
694.897, 1315.008
696.194, 1126.725
697.491, 1027.938
698.788, 1229.088
700.084, 550.172
701.380, 1301.184
702.677, 612.131
703.972, 793.012
705.268, 1133.826
706.564, 304.576
707.859, 705.250
709.154, 455.857
710.449, 606.393
711.743, 926.861
713.037, 737.268
714.332, 627.611
715.626, 667.889
716.919, 858.104
718.213, 548.256
719.506, 708.342
720.799, 788.365
722.092, 728.326
723.384, 478.225
724.677, 1158.059
725.969, 747.828
727.261, 887.539
728.553, 1197.189
729.844, 1136.779
731.136, 1476.309
732.427, 1645.779
733.718, 1895.191
735.008, 2684.543
736.299, 2243.838
737.589, 2783.072
738.879, 2712.143
740.169, 3471.141
741.458, 3130.203
742.748, 2998.477
744.037, 3547.426
745.326, 2755.855
746.614, 3224.691
747.903, 2623.471
749.191, 2360.898
750.479, 2839.570
751.767, 2146.945
753.055, 2885.260
754.342, 2842.709
755.629, 2662.078
756.916, 3350.148
758.203, 3246.939
759.490, 3690.312
760.776, 3625.404
762.062, 3458.143
763.348, 4383.924
764.634, 3472.951
765.919, 3731.680
767.204, 3985.039
768.489, 2954.281
769.774, 3287.463
771.059, 2935.346
772.343, 2701.951
773.627, 2558.166
774.911, 2021.158
776.195, 1938.877
777.479, 1542.805
778.762, 1310.449
780.045, 1388.055
781.328, 685.061
782.611, 862.592
783.893, 768.896
785.175, 626.357
786.457, 972.639
787.739, 87.504
789.021, 814.004
790.302, 146.518
791.583, 223.033
792.864, 526.691
794.145, 72.344
795.425, 369.447
796.706, 14.297
797.986, 292.625
799.266, 249.652
800.545, 136.637
801.825, 333.596
803.104, 80.277
804.383, 83.449
805.662, 283.238
806.940, 312.033
808.219, 5.551
809.497, 27.197
810.775, 376.422
812.053, 187.258
813.330, 503.146
814.608, 151.523
815.885, 478.422
817.162, 114.664
818.438, 449.768
819.715, 44.318
820.991, 400.400
822.267, 15.371
823.543, 420.395
824.818, 104.316
826.094, 151.002
827.369, 86.439
828.644, 198.037
829.919, 167.512
831.193, 286.814
832.468, 31.113
833.742, 84.617
835.016, 289.576
836.289, 26.256
837.563, 17.865
838.836, 161.953
840.109, 233.980
841.382, 719.938
842.654, 73.836
843.927, 407.707
845.199, 501.562
846.471, 185.395
847.743, 569.207
849.014, 43.004
850.286, 216.773
851.557, 240.531
852.828, 444.266
854.099, 847.352
855.369, 461.055
856.639, 544.387
857.909, 938.066
859.179, 611.730
860.449, 1273.766
861.718, 997.402
862.988, 410.066
864.257, 1083.352
865.525, 686.953
866.794, 730.543
868.062, 523.918
869.331, 637.457
870.599, 941.016
871.866, 574.062
873.134, 617.605
874.401, 1081.141
875.668, 524.668
876.935, 1337.434
878.202, 520.953
879.468, 884.469
880.735, 1587.973
882.001, 681.477
883.267, 1634.977
884.532, 968.500
885.798, 1782.023
887.063, 1725.539
888.328, 1289.113
889.593, 2012.684
890.857, 1866.258
892.122, 1939.828
893.386, 2683.398
894.650, 1776.973
895.913, 2400.551
897.177, 2234.133
898.440, 1917.766
899.703, 2541.398
900.966, 2285.070
902.229, 2558.754
903.491, 2232.445
904.754, 2346.176
906.016, 2599.910
907.278, 2073.656
908.539, 2287.457
909.801, 2871.266
911.062, 2165.090
912.323, 2738.945
913.584, 2602.824
914.844, 2306.887
916.105, 3010.977
917.365, 1945.160
918.625, 2089.395
919.885, 2443.703
921.144, 1968.113
922.404, 3002.559
923.663, 1757.105
924.922, 2791.676
926.180, 2786.266
927.439, 2470.898
928.697, 3415.547
929.955, 3370.230
931.213, 3294.930
932.471, 3879.648
933.728, 3354.379
934.985, 4509.137
936.242, 3973.914
937.499, 4398.715
938.756, 4883.531
940.012, 4367.105
941.269, 5121.973
942.525, 4706.055
943.780, 4390.496
945.036, 5125.555
946.291, 4709.473
947.546, 5304.582
948.801, 5485.953
950.056, 5440.906
951.311, 5995.715
952.565, 5980.090
953.819, 6305.312
955.073, 6692.977
956.327, 5600.539
957.580, 6565.672
958.834, 5699.082
960.087, 5501.777
961.339, 5995.984
962.592, 5365.688
963.845, 5370.660
965.097, 5892.758
966.349, 5457.734
967.601, 6371.699
968.852, 6248.617
970.104, 6274.273
971.355, 7829.023
972.606, 7058.395
973.857, 7901.734
975.107, 7540.133
976.358, 7295.336
977.608, 7960.945
978.858, 7070.754
980.108, 7286.520
981.357, 6911.555
982.607, 6577.543
983.856, 6312.789
985.105, 6333.516
986.353, 5309.621
987.602, 5693.590
988.850, 4769.031
990.098, 5235.145
991.346, 4527.340
992.594, 4523.660
993.841, 5059.598
995.089, 4256.004
996.336, 4792.457
997.583, 5088.957
998.829, 4475.508
1000.076, 5671.656
1001.322, 5218.301
1002.568, 5344.992
1003.814, 5411.730
1005.060, 4128.527
1006.305, 4575.367
1007.550, 4133.266
1008.795, 3590.207
1010.040, 4127.203
1011.285, 3374.262
1012.529, 3751.367
1013.773, 4078.527
1015.017, 3115.746
1016.261, 4023.008
1017.505, 3000.332
1018.748, 3527.707
1019.991, 4015.137
1021.234, 2692.617
1022.477, 3610.160
1023.719, 2947.754
1024.962, 2715.410
1026.204, 3293.117
1027.446, 1941.891
1028.688, 2619.719
1029.929, 2447.602
1031.170, 2045.539
1032.411, 2583.543
1033.652, 1947.785
1034.893, 1825.902
1036.134, 2434.082
1037.374, 1564.863
1038.614, 2213.164
1039.854, 2021.527
1041.094, 2109.953
1042.333, 2478.441
1043.572, 1557.395
1044.811, 2196.012
1046.050, 2234.691
1047.289, 1563.387
1048.527, 2682.203
1049.766, 1619.375
1051.004, 1968.324
1052.241, 2547.348
1053.479, 1143.449
1054.717, 1912.613
1055.954, 1811.848
1057.191, 1421.449
1058.428, 1640.828
1059.664, 1150.281
1060.901, 1599.871
1062.137, 1809.469
1063.373, 864.168
1064.609, 1983.906
1065.844, 1623.719
1067.080, 903.609
1068.315, 2113.582
1069.550, 1043.629
1070.785, 1853.766
1072.019, 1753.977
1073.254, 1065.328
1074.488, 1815.684
1075.722, 1556.121
1076.955, 1326.840
1078.189, 2327.145
1079.422, 1388.141
1080.656, 2078.602
1081.889, 1889.129
1083.121, 1270.578
1084.354, 2140.914
1085.586, 1391.312
1086.818, 1411.625
1088.050, 2111.996
1089.282, 712.426
1090.514, 1762.914
1091.745, 1193.332
1092.976, 1187.383
1094.207, 1797.875
1095.438, 588.410
1096.668, 990.875
1097.899, 1401.438
1099.129, 392.004
1100.359, 1242.613
1101.588, 1153.199
1102.818, 563.820
1104.047, 1754.508
1105.276, 605.266
1106.505, 1596.914
1107.734, 1237.508
1108.962, 568.117
1110.191, 1458.730
1111.419, 659.430
1112.647, 943.805
1113.874, 1484.492
1115.102, 575.141
1116.329, 1374.770
1117.556, 1332.863
1118.783, 1323.156
1120.010, 2053.773
1121.236, 1374.734
1122.463, 1735.910
1123.689, 2197.262
1124.914, 1108.766
1126.140, 1570.414
1127.366, 1942.188
1128.591, 984.137
1129.816, 2256.250
1131.041, 818.473
1132.266, 1310.793
1133.490, 2083.227
1134.714, 795.758
1135.938, 1568.395
1137.162, 1321.125
1138.386, 473.961
1139.609, 1806.906
1140.833, 459.949
1142.056, 613.105
1143.279, 1666.371
1144.501, 19.746
1145.724, 1423.227
1146.946, 736.809
1148.168, 10.496
1149.390, 1514.266
1150.612, 308.109
1151.833, 1131.918
1153.054, 1015.836
1154.275, 70.145
1155.496, 1523.988
1156.717, 488.105
1157.937, 442.230
1159.158, 1056.414
1160.378, 410.656
1161.598, 875.000
1162.817, 1259.441
1164.037, 213.953
1165.256, 1298.531
1166.475, 453.207
1167.694, 287.984
1168.913, 1232.848
1170.131, 147.801
1171.349, 712.844
1172.567, 1157.988
1173.785, 56.773
1175.003, 1298.562
1176.220, 84.012
1177.438, 439.582
1178.655, 1125.242
1179.872, 169.000
1181.088, 846.855
1182.305, 732.836
1183.521, 261.047
1184.737, 1175.203
1185.953, 121.586
1187.169, 538.121
1188.384, 974.773
1189.599, 8.445
1190.814, 208.547
1192.029, 555.750
1193.244, 186.859
1194.459, 900.715
1195.673, 151.535
1196.887, 396.398
1198.101, 864.500
1199.314, 117.223
1200.528, 531.234
1201.741, 1129.871
1202.954, 78.680
1204.167, 1067.668
1205.380, 426.848
1206.592, 166.203
1207.805, 1185.746
1209.017, 47.195
1210.229, 522.684
1211.440, 922.766
1212.652, 363.062
1213.863, 1283.582
1215.074, 274.328
1216.285, 775.312
1217.496, 1066.543
1218.707, 84.730
1219.917, 1216.375
1221.127, 918.285
1222.337, 248.406
1223.547, 1784.078
1224.756, 154.645
1225.966, 665.371
1227.175, 1704.613
1228.384, 93.875
1229.592, 1177.410
1230.801, 1525.594
1232.009, 520.750
1233.217, 1495.797
1234.425, 911.832
1235.633, 327.047
1236.841, 2104.176
1238.048, 12.770
1239.255, 1039.297
1240.462, 1380.156
1241.669, 22.395
1242.876, 1518.395
1244.082, 893.453
1245.288, 311.195
1246.494, 1712.301
1247.700, 373.047
1248.906, 1114.020
1250.111, 1495.168
1251.316, 111.816
1252.521, 1391.402
1253.726, 574.551
1254.931, 326.094
1256.135, 1984.688
1257.339, 6.086
1258.543, 630.746
1259.747, 1681.941
1260.951, 136.668
1262.154, 0.000
##END=



