##NAMES=Anorthite
##RRUFFID=R040059
##IDEAL CHEMISTRY=CaAl_2_Si_2_O_8_
##LOCALITY=Miyakejima, Japan
##OWNER=RRUFF
##SOURCE=University of Arizona Mineral Museum
##DESCRIPTION=Colorless fragments of crystals
##STATUS=The identification of this mineral has been confirmed by X-ray diffraction and chemical analysis
##URL=rruff.info/R040059
##MEASURED CHEMISTRY=(Ca_0.94_Na_0.04_Fe_0.02_)(Al_0.98_Si_0.02_)_2_Si_2.00_O_8_
##PIN_ID=M00124
##ORIENTATION=Laser parallel to a* (1 0 0). Fiducial mark perpendicular to laser is parallel to b [0 1 0]
123.129, 0.000
124.519, 162.032
125.910, 10.592
127.300, 116.776
128.690, 388.562
130.080, 200.685
131.469, 791.006
132.858, 857.689
134.248, 1249.075
135.636, 1513.951
137.025, 1902.709
138.413, 2345.321
139.801, 2800.569
141.189, 3517.594
142.577, 3945.777
143.964, 4474.668
145.352, 4613.942
146.739, 4573.488
148.125, 4434.010
149.512, 3640.488
150.898, 3312.633
152.284, 2484.418
153.670, 2275.088
155.056, 1794.764
156.441, 1463.471
157.827, 1021.226
159.212, 718.043
160.596, 643.939
161.981, 378.942
163.365, 423.073
164.749, 266.362
166.133, 398.856
167.517, 350.615
168.900, 511.935
170.283, 465.856
171.666, 582.649
173.049, 639.736
174.431, 718.842
175.813, 939.213
177.195, 934.479
178.577, 1032.422
179.959, 1195.097
181.340, 1304.293
182.721, 1703.770
184.102, 2013.446
185.483, 2672.666
186.863, 3031.276
188.244, 3469.261
189.624, 4316.653
191.003, 4503.481
192.383, 5409.688
193.762, 5605.280
195.141, 5650.290
196.520, 5634.744
197.899, 5288.697
199.277, 5252.156
200.656, 4555.129
202.034, 4367.633
203.411, 3869.693
204.789, 3411.323
206.166, 3132.613
207.543, 2383.764
208.920, 2054.799
210.297, 1585.741
211.673, 1216.598
213.049, 1040.831
214.425, 680.262
215.801, 671.322
217.176, 212.319
218.552, 291.931
219.927, 360.716
221.302, 91.297
222.676, 105.826
224.051, 91.867
225.425, 49.730
226.799, 225.188
228.173, 95.333
229.546, 110.471
230.919, 103.934
232.292, 41.968
233.665, 37.426
235.038, 369.150
236.410, 383.381
237.782, 769.924
239.154, 885.469
240.526, 1176.025
241.898, 1687.240
243.269, 1665.574
244.640, 2100.119
246.011, 2138.739
247.381, 2245.198
248.752, 2360.771
250.122, 2495.761
251.492, 2549.807
252.861, 2303.892
254.231, 2648.111
255.600, 2592.449
256.969, 2946.587
258.338, 2859.754
259.707, 2681.060
261.075, 2792.183
262.443, 2603.194
263.811, 2794.137
265.179, 2575.010
266.546, 2555.810
267.914, 2646.538
269.281, 2607.193
270.647, 2608.812
272.014, 2500.771
273.380, 2551.189
274.747, 2601.539
276.113, 2351.820
277.478, 2522.035
278.844, 2502.186
280.209, 2652.270
281.574, 2542.289
282.939, 2552.248
284.304, 2682.143
285.668, 2351.978
287.032, 2591.753
288.396, 2189.909
289.760, 2177.706
291.123, 2065.145
292.487, 1633.482
293.850, 1701.967
295.212, 1340.548
296.575, 1269.185
297.937, 887.844
299.300, 666.504
300.662, 485.146
302.023, 303.748
303.385, 352.288
304.746, 50.754
306.107, 159.125
307.468, 57.399
308.829, 45.571
310.189, 126.368
311.549, 268.460
312.909, 100.748
314.269, 133.217
315.629, 55.897
316.988, 48.771
318.347, 28.169
319.706, 144.948
321.065, 291.575
322.423, 318.062
323.781, 304.412
325.139, 340.628
326.497, 286.714
327.855, 212.673
329.212, 168.506
330.569, 44.214
331.926, 49.792
333.283, 205.245
334.639, 120.567
335.995, 135.785
337.351, 70.814
338.707, 65.484
340.063, 50.324
341.418, 76.546
342.773, 102.985
344.128, 169.586
345.483, 86.340
346.837, 203.213
348.192, 40.268
349.546, 117.438
350.899, 164.763
352.253, 82.253
353.606, 89.886
354.960, 32.341
356.313, 35.539
357.665, 43.540
359.018, 18.339
360.370, 89.884
361.722, 28.234
363.074, 16.692
364.426, 194.743
365.777, 136.100
367.128, 237.374
368.479, 308.572
369.830, 319.698
371.181, 410.751
372.531, 351.735
373.881, 412.648
375.231, 433.492
376.581, 374.253
377.930, 624.907
379.280, 455.451
380.629, 515.118
381.977, 494.588
383.326, 423.982
384.674, 561.519
386.023, 299.155
387.370, 538.487
388.718, 280.422
390.066, 421.283
391.413, 460.189
392.760, 598.086
394.107, 886.320
395.454, 852.295
396.800, 1233.593
398.146, 1431.311
399.492, 1418.754
400.838, 1696.811
402.184, 1624.692
403.529, 1722.466
404.874, 1480.126
406.219, 1347.641
407.564, 1325.074
408.908, 972.453
410.252, 969.786
411.596, 617.077
412.940, 604.329
414.284, 591.547
415.627, 298.729
416.970, 435.870
418.313, 282.973
419.656, 530.035
420.999, 517.066
422.341, 594.074
423.683, 981.059
425.025, 848.020
426.367, 1474.959
427.708, 1451.875
429.049, 1788.771
430.390, 1925.645
431.731, 1912.497
433.072, 2029.322
434.412, 1986.122
435.752, 2462.900
437.092, 2429.659
438.432, 2406.398
439.772, 2783.117
441.111, 2499.816
442.450, 2536.497
443.789, 2413.157
445.127, 2299.801
446.466, 2286.424
447.804, 2093.029
449.142, 1839.617
450.480, 1826.150
451.817, 1772.635
453.155, 1799.068
454.492, 1875.448
455.829, 2131.773
457.166, 2248.041
458.502, 2614.255
459.838, 2700.412
461.175, 2866.513
462.510, 2961.995
463.846, 2766.651
465.181, 3081.446
466.517, 3243.573
467.852, 3587.039
469.186, 4159.160
470.521, 4450.965
471.855, 5282.881
473.190, 5515.808
474.523, 6409.189
475.857, 7110.467
477.191, 8026.534
478.524, 9512.989
479.857, 10543.874
481.190, 12596.600
482.523, 14580.359
483.855, 15994.180
485.187, 19087.891
486.519, 19141.701
487.851, 19285.275
489.183, 18228.289
490.514, 16460.889
491.845, 15351.799
493.176, 14322.841
494.507, 14265.660
495.837, 14797.151
497.168, 16769.373
498.498, 19245.316
499.828, 21613.646
501.157, 26113.123
502.487, 28110.217
503.816, 30674.598
505.145, 31156.984
506.474, 28937.848
507.802, 27474.527
509.131, 23596.348
510.459, 20918.215
511.787, 18677.258
513.115, 16251.419
514.442, 15055.199
515.770, 12866.104
517.097, 11663.347
518.424, 10120.146
519.750, 9180.701
521.077, 9194.685
522.403, 8162.585
523.729, 8191.242
525.055, 8224.227
526.381, 7726.710
527.706, 7390.066
529.031, 6503.707
530.356, 6077.373
531.681, 5031.480
533.006, 4655.323
534.330, 3939.408
535.654, 3543.576
536.978, 3347.479
538.302, 3092.459
539.625, 2956.713
540.949, 2981.219
542.272, 2805.630
543.595, 3349.736
544.917, 3244.422
546.240, 3668.010
547.562, 4482.666
548.884, 4706.346
550.206, 5730.694
551.527, 5985.496
552.849, 7310.654
554.170, 8105.844
555.491, 8951.029
556.812, 9336.235
558.132, 9471.429
559.453, 9626.613
560.773, 8971.790
562.093, 8556.952
563.412, 7952.105
564.732, 6887.248
566.051, 6322.381
567.370, 5377.504
568.689, 4632.619
570.008, 4017.725
571.326, 3272.822
572.644, 3067.910
573.963, 2462.988
575.280, 2137.127
576.598, 1801.840
577.915, 1555.918
579.233, 1360.960
580.550, 1075.996
581.866, 1181.021
583.183, 1106.038
584.499, 1031.045
585.815, 1326.046
587.131, 1061.036
588.447, 1406.019
589.763, 1510.991
591.078, 1625.956
592.393, 2070.912
593.708, 1715.858
595.022, 2070.796
596.337, 1895.726
597.651, 1700.646
598.965, 1935.558
600.279, 1660.461
601.593, 1655.354
602.906, 1380.239
604.219, 1085.116
605.532, 1149.982
606.845, 634.840
608.158, 779.688
609.470, 774.528
610.782, 669.359
612.094, 934.181
613.406, 758.994
614.718, 1073.799
616.029, 908.595
617.340, 1293.384
618.651, 1778.163
619.962, 1542.936
621.272, 2197.703
622.582, 2042.468
623.892, 2017.230
625.202, 2192.001
626.512, 1596.775
627.821, 1751.558
629.131, 1356.350
630.440, 981.195
631.749, 866.132
633.057, 521.115
634.366, 646.152
635.674, 421.226
636.982, 276.332
638.290, 441.453
639.597, 116.578
640.905, 331.882
642.212, 157.007
643.519, 252.133
644.825, 264.157
646.132, 99.282
647.438, 305.005
648.744, 60.419
650.050, 45.563
651.356, 322.838
652.662, 211.856
653.967, 119.604
655.272, 118.545
656.577, 162.975
657.882, 93.110
659.186, 248.005
660.490, 43.066
661.794, 87.008
663.098, 142.055
664.402, 77.131
665.705, 98.792
667.009, 394.633
668.312, 157.983
669.614, 343.321
670.917, 569.594
672.219, 490.690
673.522, 1166.922
674.824, 923.405
676.125, 1418.591
677.427, 1709.846
678.728, 1742.214
680.030, 2151.332
681.331, 2112.846
682.631, 2238.668
683.932, 2113.688
685.232, 1839.399
686.532, 1924.615
687.832, 1527.406
689.132, 1582.675
690.432, 1308.631
691.731, 1125.496
693.030, 990.886
694.329, 795.530
695.628, 710.731
696.926, 858.319
698.224, 373.542
699.522, 688.601
700.820, 323.928
702.118, 578.950
703.415, 653.959
704.713, 258.947
706.010, 503.922
707.307, 218.879
708.603, 503.813
709.900, 448.728
711.196, 303.619
712.492, 458.490
713.788, 333.338
715.083, 548.164
716.379, 322.969
717.674, 547.752
718.969, 482.513
720.264, 417.252
721.558, 371.969
722.853, 696.663
724.147, 411.336
725.441, 655.987
726.735, 660.615
728.028, 655.222
729.322, 789.807
730.615, 744.369
731.908, 958.913
733.201, 1293.438
734.493, 1427.943
735.785, 1422.428
737.078, 1666.891
738.370, 2301.330
739.661, 1995.749
740.953, 2300.146
742.244, 2664.521
743.535, 2278.875
744.826, 2753.207
746.117, 2097.517
747.407, 2141.805
748.698, 2086.072
749.988, 1700.317
751.278, 2134.539
752.567, 1908.742
753.857, 1912.923
755.146, 2247.082
756.435, 2111.221
757.724, 2645.336
759.013, 2799.431
760.301, 2773.505
761.590, 3487.557
762.878, 3131.589
764.165, 3535.600
765.453, 3669.588
766.741, 3323.555
768.028, 3437.502
769.315, 3171.427
770.602, 3095.331
771.888, 2699.215
773.175, 2423.078
774.461, 2146.920
775.747, 1770.740
777.033, 1784.541
778.319, 1438.319
779.604, 1042.078
780.889, 1245.815
782.174, 999.531
783.459, 1013.229
784.744, 846.903
786.028, 530.559
787.312, 734.191
788.596, 407.802
789.880, 571.391
791.164, 604.958
792.447, 338.502
793.730, 562.025
795.013, 205.526
796.296, 439.002
797.579, 292.456
798.861, 34.112
800.143, 379.234
801.425, 102.559
802.707, 175.854
803.989, 309.125
805.270, 117.683
806.551, 205.437
807.832, 190.952
809.113, 38.021
810.394, 100.236
811.674, 174.046
812.954, 185.012
814.234, 265.237
815.514, 124.544
816.794, 203.885
818.073, 180.973
819.352, 99.068
820.631, 92.139
821.910, 250.166
823.189, 111.569
824.467, 296.660
825.745, 55.093
827.023, 26.401
828.301, 142.141
829.578, 169.197
830.856, 219.483
832.133, 78.324
833.410, 27.252
834.687, 66.237
835.963, 34.700
837.240, 124.391
838.516, 36.412
839.792, 237.188
841.068, 252.053
842.343, 118.532
843.618, 19.100
844.894, 0.362
846.169, 70.138
847.443, 129.382
848.718, 100.994
849.992, 18.647
851.266, 81.668
852.540, 181.965
853.814, 42.246
855.088, 132.506
856.361, 122.752
857.634, 102.982
858.907, 120.744
860.180, 183.346
861.453, 103.311
862.725, 303.482
863.997, 343.641
865.269, 363.785
866.541, 263.918
867.812, 344.037
869.084, 584.148
870.355, 394.246
871.626, 484.330
872.897, 534.404
874.167, 434.467
875.438, 944.516
876.708, 634.553
877.978, 844.580
879.248, 994.607
880.517, 724.621
881.787, 1314.625
883.056, 984.621
884.325, 1494.607
885.594, 1344.584
886.862, 1474.555
888.130, 1964.516
889.399, 1784.529
890.667, 2244.537
891.934, 2514.535
893.202, 2274.539
894.469, 2744.535
895.737, 2684.523
897.004, 2664.506
898.270, 2844.480
899.537, 2604.490
900.803, 3084.492
902.070, 2684.488
903.336, 2924.504
904.601, 2934.508
905.867, 2524.512
907.132, 2764.508
908.398, 2764.502
909.663, 2514.490
910.928, 2734.475
912.192, 2324.455
913.457, 2784.445
914.721, 2634.434
915.985, 2174.416
917.249, 2134.400
918.512, 2114.381
919.776, 2034.389
921.039, 2224.393
922.302, 1604.398
923.565, 2144.400
924.827, 1884.404
926.090, 1904.408
927.352, 2434.410
928.614, 2154.412
929.876, 2424.436
931.138, 2434.457
932.399, 2474.480
933.660, 3204.504
934.922, 2774.531
936.182, 3214.561
937.443, 3274.590
938.704, 3364.619
939.964, 3854.654
941.224, 3624.691
942.484, 3744.732
943.744, 3864.779
945.003, 3594.826
946.262, 4104.883
947.521, 4064.764
948.780, 4304.826
950.039, 4414.895
951.298, 4348.070
952.556, 4918.148
953.814, 4987.645
955.072, 4647.455
956.330, 5397.555
957.587, 4525.539
958.845, 4725.506
960.102, 4829.330
961.359, 4422.777
962.615, 4452.500
963.872, 4367.914
965.128, 4158.113
966.384, 4708.469
967.640, 4457.752
968.896, 4768.193
970.152, 5294.428
971.407, 5115.850
972.662, 5977.938
973.917, 5570.184
975.172, 6080.510
976.427, 6409.955
977.681, 5844.633
978.935, 6374.199
980.189, 5813.553
981.443, 5714.246
982.697, 5568.898
983.950, 5272.520
985.203, 5079.430
986.456, 4773.977
987.709, 4494.234
988.962, 4525.311
990.214, 3925.713
991.467, 4086.625
992.719, 4099.977
993.971, 3560.883
995.222, 3951.119
996.474, 3770.455
997.725, 3731.312
998.976, 3892.930
1000.227, 3563.994
1001.478, 4152.699
1002.728, 3843.777
1003.978, 3455.031
1005.229, 3906.027
1006.479, 3417.340
1007.728, 3578.748
1008.978, 3580.424
1010.227, 3031.895
1011.476, 3343.451
1012.725, 3275.035
1013.974, 3116.686
1015.223, 3478.365
1016.471, 2710.074
1017.719, 3211.814
1018.967, 3024.496
1020.215, 2616.299
1021.462, 3138.143
1022.710, 2590.018
1023.957, 2781.924
1025.204, 2603.859
1026.451, 1975.822
1027.697, 2607.826
1028.944, 2091.771
1030.190, 2083.836
1031.436, 2205.959
1032.682, 1868.334
1033.928, 2020.520
1035.173, 2123.043
1036.418, 1585.293
1037.663, 2257.613
1038.908, 1694.656
1040.153, 2017.035
1041.398, 2119.500
1042.642, 1784.480
1043.886, 2217.004
1045.130, 1829.584
1046.374, 1842.197
1047.617, 2334.838
1048.860, 1896.270
1050.104, 2358.998
1051.347, 2301.787
1052.589, 1829.158
1053.832, 2352.004
1055.074, 2014.887
1056.316, 2267.801
1057.558, 1990.738
1058.800, 1783.707
1060.042, 2046.701
1061.283, 1839.766
1062.524, 1625.578
1063.765, 2168.693
1065.006, 1551.961
1066.247, 1845.254
1067.487, 1828.576
1068.728, 1568.178
1069.968, 2191.559
1071.208, 1774.969
1072.447, 1768.635
1073.687, 2032.100
1074.926, 1745.600
1076.165, 2059.125
1077.404, 2032.676
1078.643, 1710.359
1079.881, 2024.041
1081.120, 1637.750
1082.358, 1611.539
1083.596, 1775.354
1084.834, 1389.197
1086.071, 1773.070
1087.309, 1576.967
1088.546, 1061.182
1089.783, 1585.154
1091.020, 889.154
1092.256, 1223.807
1093.493, 1147.861
1094.729, 631.939
1095.965, 1066.523
1097.201, 690.656
1098.436, 495.445
1099.672, 909.629
1100.907, 443.869
1102.142, 658.670
1103.377, 782.973
1104.612, 457.396
1105.846, 941.766
1107.081, 496.215
1108.315, 470.967
1109.549, 715.537
1110.782, 260.164
1112.016, 625.285
1113.249, 430.027
1114.483, 324.789
1115.716, 839.664
1116.948, 484.607
1118.181, 649.572
1119.413, 824.625
1120.646, 439.736
1121.878, 1179.051
1123.110, 734.322
1124.341, 629.615
1125.573, 1115.305
1126.804, 790.754
1128.035, 996.674
1129.266, 1212.221
1130.497, 447.783
1131.727, 1139.830
1132.957, 695.537
1134.188, 731.277
1135.418, 957.809
1136.647, 643.615
1137.877, 680.582
1139.106, 966.744
1140.335, 242.645
1141.564, 584.309
1142.793, 700.463
1144.022, 236.490
1145.250, 820.836
1146.479, 176.902
1147.707, 253.236
1148.934, 401.912
1150.162, 198.066
1151.390, 644.600
1152.617, 210.773
1153.844, 116.955
1155.071, 599.908
1156.298, 23.895
1157.524, 382.305
1158.751, 392.488
1159.977, 178.697
1161.203, 363.084
1162.428, 69.301
1163.654, 205.521
1164.879, 532.908
1166.105, 60.867
1167.330, 425.350
1168.555, 105.467
1169.779, 151.684
1171.004, 388.168
1172.228, 64.385
1173.452, 210.602
1174.676, 489.023
1175.900, 94.762
1177.123, 381.430
1178.346, 145.184
1179.570, 18.631
1180.793, 468.268
1182.015, 24.496
1183.238, 101.670
1184.460, 536.613
1185.683, 317.129
1186.905, 438.889
1188.126, 118.531
1189.348, 95.186
1190.569, 350.785
1191.791, 64.211
1193.012, 210.162
1194.233, 296.604
1195.453, 200.531
1196.674, 525.320
1197.894, 178.375
1199.114, 125.795
1200.334, 279.977
1201.554, 148.697
1202.774, 234.445
1203.993, 390.182
1205.212, 66.100
1206.431, 561.811
1207.650, 156.539
1208.869, 77.576
1210.087, 488.062
1211.305, 92.463
1212.524, 188.072
1213.741, 544.051
1214.959, 118.760
1216.177, 616.738
1217.394, 372.588
1218.611, 38.965
1219.828, 724.453
1221.045, 131.270
1222.261, 326.746
1223.478, 672.225
1224.694, 63.732
1225.910, 531.730
1227.126, 587.189
1228.342, 408.025
1229.557, 638.422
1230.772, 466.527
1231.987, 372.498
1233.202, 697.945
1234.417, 108.807
1235.631, 314.246
1236.846, 719.629
1238.060, 35.979
1239.274, 711.352
1240.488, 326.719
1241.701, 82.082
1242.915, 697.412
1244.128, 52.736
1245.341, 428.053
1246.554, 643.357
1247.767, 90.654
1248.979, 905.904
1250.191, 201.145
1251.403, 390.324
1252.615, 795.502
1253.827, 119.332
1255.039, 446.174
1256.250, 801.205
1257.461, 136.223
1258.672, 751.223
1259.883, 636.107
1261.094, 331.338
1262.304, 616.055
1263.514, 440.754
1264.724, 535.768
1265.934, 540.395
1267.144, 4.998
1268.354, 679.719
1269.563, 614.250
1270.772, 218.705
1271.981, 903.135
1273.190, 187.531
1274.398, 312.129
1275.607, 916.316
1276.815, 29.523
1278.023, 515.822
1279.231, 679.787
1280.439, 143.670
1281.646, 797.521
1282.853, 111.320
1284.060, 255.084
1285.267, 858.740
1286.474, 7.633
1287.681, 297.758
1288.887, 371.037
1290.093, 45.721
1291.299, 928.242
1292.505, 291.352
1293.711, 64.254
1294.916, 677.104
1296.121, 259.789
1297.327, 352.416
1298.531, 504.941
1299.736, 172.586
1300.941, 679.963
1302.145, 392.008
1303.349, 125.764
1304.553, 526.348
1305.757, 31.623
1306.961, 420.264
1308.164, 382.086
1309.367, 153.842
1310.570, 625.527
1311.773, 416.230
1312.976, 47.783
1314.178, 699.246
1315.381, 310.639
1316.583, 491.961
1317.785, 623.213
1318.987, 104.393
1320.188, 555.473
1321.390, 674.570
1322.591, 14.490
1323.792, 756.346
1324.993, 216.855
1326.193, 177.514
1327.394, 777.781
1328.594, 31.713
1329.794, 358.689
1330.994, 694.330
1332.194, 115.396
1333.394, 304.756
1334.593, 432.355
1335.792, 17.611
1336.991, 762.326
1338.190, 252.207
1339.389, 7.971
1340.587, 725.199
1341.786, 15.119
1342.984, 474.480
1344.182, 749.480
1345.379, 68.990
1346.577, 658.449
1347.774, 508.184
1348.972, 317.574
1350.169, 796.939
1351.365, 43.854
1352.562, 315.287
1353.759, 901.674
1354.955, 359.275
1356.151, 649.621
1357.347, 268.520
1358.543, 127.439
1359.738, 600.191
1360.934, 269.416
1362.129, 183.271
1363.324, 927.307
1364.519, 151.301
1365.713, 700.930
1366.908, 924.590
1368.102, 191.852
1369.296, 551.656
1370.490, 384.779
1371.684, 92.535
1372.877, 850.762
1374.071, 293.484
1375.264, 265.975
1376.457, 1008.510
1377.650, 31.459
1378.843, 834.424
1380.035, 695.465
1381.227, 207.652
1382.419, 1180.324
1383.611, 542.939
1384.803, 535.496
1385.995, 1072.971
1387.186, 435.361
1388.377, 467.344
1389.568, 1019.061
1390.759, 143.188
1391.950, 995.250
1393.140, 906.295
1394.331, 76.438
1395.521, 1340.814
1396.711, 722.344
1397.900, 292.809
1399.090, 1140.531
1400.279, 531.412
1401.469, 442.760
1402.658, 950.355
1403.847, 261.340
1405.035, 970.207
1406.224, 590.725
1407.412, 279.467
1408.600, 954.023
1409.788, 593.924
1410.976, 324.188
1412.164, 940.963
1413.351, 409.164
1414.538, 487.992
1415.725, 896.205
1416.912, 271.441
1418.099, 838.531
1419.285, 717.604
1420.472, 124.299
1421.658, 990.652
1422.844, 367.082
1424.030, 496.107
1425.215, 1189.742
1426.401, 338.297
1427.586, 390.178
1428.771, 948.391
1429.956, 31.070
1431.141, 854.744
1432.325, 601.637
1433.510, 87.236
1434.694, 931.664
1435.878, 279.318
1437.062, 325.270
1438.245, 963.371
1439.429, 356.205
1440.612, 608.385
1441.795, 1012.426
1442.978, 83.934
1444.161, 977.311
1445.343, 810.400
1446.526, 243.088
1447.708, 1320.311
1448.890, 581.840
1450.072, 473.273
1451.253, 1093.309
1452.435, 344.094
1453.616, 753.904
1454.797, 1085.020
1455.978, 314.729
1457.159, 1014.545
1458.340, 1084.523
1459.520, 284.156
1460.700, 1182.986
1461.880, 688.232
1463.060, 268.033
1464.240, 1217.531
1465.420, 226.781
1466.599, 438.547
1467.778, 1158.639
1468.957, 54.953
1470.136, 805.465
1471.315, 896.674
1472.493, 8.141
1473.671, 1118.467
1474.849, 579.594
1476.027, 71.061
1477.205, 1212.773
1478.383, 184.588
1479.560, 406.510
1480.737, 1088.619
1481.914, 59.012
1483.091, 543.941
1484.268, 567.285
1485.444, 141.658
1486.621, 856.873
1487.797, 512.670
1488.973, 10.756
1490.149, 936.682
1491.324, 415.158
1492.500, 284.502
1493.675, 781.852
1494.850, 59.828
1496.025, 371.379
1497.200, 647.924
1498.374, 81.539
1499.548, 559.883
1500.723, 510.855
1501.897, 0.000
##END=



