##NAMES=Anorthite
##RRUFFID=R050104
##IDEAL CHEMISTRY=CaAl_2_Si_2_O_8_
##LOCALITY=unknown
##OWNER=RRUFF
##SOURCE=Rock Currier
##DESCRIPTION=Iridescent slab, labradorite/andesine
##STATUS=The identification of this mineral has been confirmed by X-ray diffraction and chemical analysis
##URL=rruff.info/R050104
##MEASURED CHEMISTRY=Ca_0.50_Na_0.47_K_0.03_Al_1.50_Si_2.50_O_8_
##PIN_ID=L00363
##ORIENTATION=Laser parallel to b* (0 1 0). Fiducial mark perpendicular to laser is parallel to c [0 0 1]
127.452, 0.000
128.840, 115.408
130.228, 167.777
131.615, 8.553
133.003, 39.932
134.390, 9.996
135.777, 17.155
137.164, 208.072
138.550, 249.679
139.937, 280.183
141.323, 327.732
142.709, 529.863
144.094, 542.919
145.480, 817.466
146.865, 962.166
148.250, 1186.760
149.635, 1263.043
151.019, 1675.860
152.403, 1782.664
153.788, 1886.099
155.171, 2118.543
156.555, 2190.617
157.939, 2253.474
159.322, 2701.280
160.705, 2837.047
162.088, 3169.732
163.470, 3679.296
164.853, 4212.713
166.235, 4758.959
167.617, 5277.021
168.998, 5865.889
170.380, 6326.564
171.761, 6963.055
173.142, 7377.371
174.523, 7717.521
175.904, 7985.168
177.284, 8176.270
178.664, 8417.995
180.044, 8227.474
181.424, 8306.728
182.803, 7987.461
184.183, 7562.787
185.562, 7019.684
186.940, 6549.496
188.319, 5995.404
189.698, 5633.979
191.076, 5304.615
192.454, 4915.090
193.831, 4638.235
195.209, 4391.048
196.586, 4152.542
197.963, 4054.730
199.340, 3778.626
200.717, 3733.246
202.093, 3605.600
203.470, 3405.699
204.846, 3259.556
206.221, 3154.178
207.597, 2923.583
208.972, 2726.119
210.347, 2457.454
211.722, 2190.734
213.097, 1868.566
214.472, 1483.330
215.846, 1218.041
217.220, 898.706
218.594, 641.329
219.967, 463.914
221.341, 283.461
222.714, 189.350
224.087, 7.387
225.460, 32.458
226.832, 64.005
228.204, 212.202
229.577, 22.373
230.948, 106.615
232.320, 129.722
233.692, 17.071
235.063, 11.616
236.434, 8.936
237.805, 148.710
239.175, 373.063
240.545, 360.679
241.916, 608.773
243.286, 680.962
244.655, 940.071
246.025, 1193.578
247.394, 1348.916
248.763, 1358.891
250.132, 1552.941
251.501, 1635.705
252.869, 1793.619
254.237, 1916.456
255.605, 1987.356
256.973, 1945.820
258.340, 2055.121
259.708, 2149.348
261.075, 2169.378
262.442, 2348.261
263.808, 2359.061
265.175, 2565.822
266.541, 2763.551
267.907, 2951.247
269.273, 3152.904
270.639, 3427.517
272.004, 3635.080
273.369, 3973.595
274.734, 4189.057
276.099, 4505.905
277.463, 4936.824
278.828, 5144.150
280.192, 5368.445
281.556, 5709.708
282.919, 5841.629
284.283, 5959.607
285.646, 6081.428
287.009, 5900.689
288.372, 5779.964
289.734, 5390.263
291.097, 5231.616
292.459, 4854.033
293.821, 4331.488
295.183, 4098.879
296.544, 3492.587
297.905, 3020.363
299.266, 2719.148
300.627, 2350.190
301.988, 2039.309
303.348, 1607.503
304.709, 1518.741
306.069, 1247.011
307.428, 1051.296
308.788, 975.589
310.147, 701.878
311.507, 634.158
312.865, 524.424
314.224, 412.673
315.583, 316.899
316.941, 178.095
318.299, 286.237
319.657, 186.323
321.015, 206.354
322.372, 28.328
323.729, 122.238
325.086, 85.089
326.443, 43.878
327.800, 86.602
329.156, 76.263
330.512, 187.864
331.868, 256.406
333.224, 216.902
334.579, 255.341
335.935, 192.721
337.290, 340.049
338.645, 75.323
339.999, 172.531
341.354, 105.597
342.708, 197.400
344.062, 77.956
345.416, 76.438
346.769, 15.143
348.123, 88.209
349.476, 58.497
350.829, 56.707
352.182, 24.843
353.534, 7.902
354.887, 63.120
356.239, 7.242
357.591, 76.549
358.942, 100.731
360.294, 64.121
361.645, 97.609
362.996, 32.205
364.347, 114.889
365.698, 88.684
367.048, 73.581
368.398, 109.576
369.748, 58.680
371.098, 48.875
372.448, 4.840
373.797, 6.479
375.146, 23.044
376.495, 72.538
377.844, 20.968
379.192, 146.326
380.540, 107.623
381.889, 217.855
383.236, 342.030
384.584, 521.146
385.932, 645.198
387.279, 731.536
388.626, 707.878
389.973, 914.996
391.319, 908.699
392.666, 1088.035
394.012, 1177.173
395.358, 1420.769
396.704, 1268.717
398.049, 1468.140
399.394, 1653.879
400.740, 1670.064
402.084, 1857.185
403.429, 1885.217
404.774, 1944.120
406.118, 2091.929
407.462, 1958.569
408.806, 2086.058
410.150, 1989.369
411.493, 1940.512
412.836, 1702.517
414.179, 1721.427
415.522, 1602.261
416.865, 1450.021
418.207, 1487.722
419.549, 1385.377
420.891, 1296.990
422.233, 1226.564
423.575, 1180.938
424.916, 1093.084
426.257, 1130.561
427.598, 1120.234
428.939, 1110.451
430.279, 986.298
431.619, 1198.881
432.959, 1185.358
434.299, 1075.092
435.639, 1166.644
436.978, 1152.563
438.318, 1219.716
439.657, 1245.021
440.996, 1271.947
442.334, 1338.040
443.673, 1317.399
445.011, 1465.092
446.349, 1252.634
447.687, 1431.558
449.024, 1255.692
450.361, 1348.316
451.699, 1317.394
453.036, 1237.951
454.372, 1377.249
455.709, 1286.825
457.045, 1405.219
458.381, 1536.459
459.717, 1581.467
461.053, 1809.485
462.388, 1873.409
463.724, 2185.723
465.059, 2476.975
466.394, 2898.892
467.728, 3434.866
469.063, 3767.594
470.397, 4574.176
471.731, 5239.274
473.065, 6000.436
474.398, 7111.768
475.732, 7743.466
477.065, 8510.673
478.398, 9050.412
479.731, 9612.382
481.063, 9406.832
482.396, 9692.131
483.728, 8920.220
485.060, 8219.078
486.391, 7797.289
487.723, 6795.910
489.054, 6438.980
490.385, 6059.287
491.716, 5630.672
493.047, 5814.102
494.377, 6072.861
495.708, 6748.787
497.038, 7558.950
498.368, 8392.731
499.697, 9961.417
501.027, 11300.066
502.356, 13116.666
503.685, 14412.974
505.014, 15745.123
506.342, 17038.928
507.671, 17321.707
508.999, 18114.346
510.327, 17840.391
511.655, 17500.342
512.982, 16722.783
514.310, 15105.213
515.637, 13743.739
516.964, 11978.765
518.291, 10710.141
519.617, 9099.729
520.944, 7779.701
522.270, 7183.383
523.596, 6033.850
524.921, 5313.987
526.247, 4640.726
527.572, 4165.334
528.897, 3607.636
530.222, 3237.057
531.547, 2705.029
532.871, 2568.296
534.196, 2073.617
535.520, 2032.657
536.844, 1719.767
538.167, 1666.596
539.491, 1459.471
540.814, 1541.883
542.137, 1365.116
543.460, 1110.854
544.783, 1331.298
546.105, 1283.760
547.427, 1221.233
548.749, 1177.768
550.071, 1282.087
551.393, 1349.527
552.714, 1192.827
554.035, 1150.134
555.356, 1365.440
556.677, 1198.691
557.998, 1323.911
559.318, 1414.076
560.638, 1536.190
561.958, 1762.249
563.278, 1972.301
564.597, 2035.294
565.917, 2225.231
567.236, 1984.129
568.555, 2091.969
569.874, 1871.791
571.192, 1786.575
572.511, 1535.306
573.829, 1278.979
575.147, 1119.600
576.464, 919.273
577.782, 812.672
579.099, 617.124
580.416, 555.521
581.733, 446.860
583.050, 400.143
584.366, 237.367
585.683, 180.525
586.999, 279.617
588.315, 119.644
589.630, 172.602
590.946, 187.492
592.261, 116.315
593.576, 18.070
594.891, 85.746
596.206, 6.649
597.520, 26.870
598.834, 98.687
600.148, 36.621
601.462, 13.983
602.776, 48.992
604.089, 85.054
605.402, 53.973
606.715, 26.109
608.028, 98.343
609.341, 10.711
610.653, 3.168
611.965, 63.711
613.277, 5.368
614.589, 83.114
615.901, 1.984
617.212, 94.938
618.523, 71.974
619.834, 74.815
621.145, 39.416
622.456, 24.249
623.766, 49.840
625.076, 34.357
626.386, 54.801
627.696, 63.171
629.006, 133.472
630.315, 101.703
631.624, 65.867
632.933, 176.958
634.242, 182.985
635.551, 134.947
636.859, 166.848
638.167, 16.685
639.475, 205.451
640.783, 85.157
642.090, 155.807
643.398, 213.396
644.705, 197.931
646.012, 205.411
647.318, 95.837
648.625, 259.204
649.931, 17.485
651.237, 297.742
652.543, 232.914
653.849, 35.028
655.155, 212.077
656.460, 76.067
657.765, 54.056
659.070, 369.926
660.375, 100.749
661.679, 120.511
662.984, 176.633
664.288, 109.504
665.592, 209.827
666.895, 67.606
668.199, 222.878
669.502, 143.153
670.805, 183.959
672.108, 269.399
673.411, 249.341
674.713, 331.738
676.016, 349.496
677.318, 307.600
678.620, 331.697
679.921, 393.934
681.223, 411.975
682.524, 412.395
683.825, 444.438
685.126, 461.472
686.427, 427.372
687.727, 410.110
689.028, 456.138
690.328, 424.038
691.628, 494.575
692.927, 436.641
694.227, 459.977
695.526, 401.074
696.825, 422.078
698.124, 501.283
699.423, 459.298
700.721, 574.938
702.020, 474.423
703.318, 420.694
704.616, 392.994
705.913, 461.963
707.211, 418.829
708.508, 701.178
709.805, 462.454
711.102, 581.071
712.399, 725.900
713.695, 620.424
714.992, 850.991
716.288, 591.977
717.584, 692.777
718.879, 594.793
720.175, 678.985
721.470, 664.419
722.765, 683.317
724.060, 808.369
725.355, 663.136
726.649, 696.882
727.944, 843.035
729.238, 722.642
730.532, 904.653
731.825, 755.148
733.119, 844.882
734.412, 1021.266
735.705, 961.595
736.998, 926.869
738.291, 1029.939
739.584, 1234.762
740.876, 1131.850
742.168, 1248.666
743.460, 1088.826
744.752, 1244.267
746.043, 1309.875
747.334, 1170.495
748.626, 1343.766
749.916, 1236.126
751.207, 1259.094
752.498, 1254.598
753.788, 1302.927
755.078, 1324.541
756.368, 1221.897
757.658, 1286.896
758.947, 1276.467
760.237, 1494.099
761.526, 1269.255
762.815, 1530.111
764.104, 1383.386
765.392, 1388.113
766.680, 1703.270
767.969, 1415.580
769.257, 1553.512
770.544, 1603.521
771.832, 1481.582
773.119, 1537.770
774.406, 1426.841
775.693, 1565.900
776.980, 1440.464
778.267, 1346.980
779.553, 1471.726
780.839, 1272.303
782.125, 1342.021
783.411, 1243.775
784.697, 1187.903
785.982, 1277.863
787.267, 1110.542
788.552, 1156.747
789.837, 1282.942
791.122, 1314.901
792.406, 1160.961
793.690, 1324.002
794.974, 1221.155
796.258, 974.771
797.542, 1171.651
798.825, 1051.739
800.108, 1214.731
801.391, 915.722
802.674, 1019.223
803.957, 675.376
805.239, 693.655
806.522, 733.908
807.804, 531.861
809.085, 591.785
810.367, 557.592
811.649, 269.800
812.930, 331.806
814.211, 381.186
815.492, 428.412
816.772, 175.693
818.053, 221.178
819.333, 101.354
820.613, 216.916
821.893, 89.854
823.173, 75.411
824.452, 47.601
825.732, 136.928
827.011, 122.582
828.290, 28.123
829.568, 36.029
830.847, 56.814
832.125, 51.452
833.403, 29.841
834.681, 53.052
835.959, 98.034
837.236, 45.776
838.514, 77.450
839.791, 72.231
841.068, 104.878
842.345, 1.479
843.621, 78.959
844.898, 42.487
846.174, 19.914
847.450, 9.015
848.726, 39.416
850.001, 71.249
851.277, 75.913
852.552, 170.018
853.827, 70.077
855.102, 32.782
856.376, 67.608
857.651, 45.333
858.925, 11.915
860.199, 113.363
861.473, 112.170
862.746, 124.236
864.020, 67.748
865.293, 61.668
866.566, 69.946
867.839, 91.366
869.112, 12.350
870.384, 11.892
871.656, 180.898
872.928, 116.184
874.200, 42.239
875.472, 56.731
876.744, 100.237
878.015, 138.819
879.286, 59.977
880.557, 26.808
881.828, 171.564
883.098, 27.301
884.369, 155.013
885.639, 60.703
886.909, 146.372
888.178, 136.021
889.448, 183.650
890.717, 199.261
891.987, 164.853
893.256, 354.427
894.524, 103.988
895.793, 128.537
897.061, 305.073
898.330, 177.598
899.598, 384.111
900.865, 439.626
902.133, 255.131
903.401, 349.631
904.668, 287.122
905.935, 413.614
907.202, 551.101
908.468, 420.612
909.735, 409.119
911.001, 635.626
912.267, 594.145
913.533, 588.658
914.799, 459.196
916.064, 570.742
917.330, 544.313
918.595, 657.891
919.860, 527.471
921.124, 689.069
922.389, 675.672
923.653, 663.300
924.918, 570.932
926.182, 676.594
927.445, 639.253
928.709, 753.911
929.972, 618.586
931.236, 733.262
932.499, 662.938
933.761, 802.618
935.024, 741.298
936.286, 942.980
937.549, 845.663
938.811, 814.347
940.073, 733.033
941.334, 744.721
942.596, 781.408
943.857, 970.098
945.118, 962.789
946.379, 1013.487
947.640, 755.187
948.900, 900.891
950.161, 986.600
951.421, 998.312
952.681, 1178.029
953.940, 1020.777
955.200, 1055.529
956.459, 1167.287
957.719, 1295.059
958.978, 1163.838
960.236, 1244.621
961.495, 1532.412
962.753, 1220.213
964.012, 1621.965
965.270, 1609.785
966.527, 1606.609
967.785, 1793.443
969.043, 1551.875
970.300, 1971.514
971.557, 1675.674
972.814, 1937.336
974.071, 2033.488
975.327, 1901.596
976.583, 2122.609
977.840, 2183.020
979.095, 2121.387
980.351, 2105.277
981.607, 2209.783
982.862, 2203.941
984.117, 2009.082
985.372, 2178.078
986.627, 2032.242
987.882, 2029.029
989.136, 2189.188
990.390, 1824.342
991.644, 1922.631
992.898, 1663.068
994.152, 1991.201
995.405, 1709.438
996.659, 1945.006
997.912, 1906.018
999.165, 1853.723
1000.417, 1928.639
1001.670, 1795.611
1002.922, 1863.344
1004.174, 1695.232
1005.426, 2007.457
1006.678, 1743.793
1007.930, 1716.301
1009.181, 1771.740
1010.432, 1635.889
1011.683, 1993.732
1012.934, 1872.531
1014.185, 1827.834
1015.435, 2034.760
1016.685, 2035.432
1017.935, 2013.373
1019.185, 2093.230
1020.435, 1909.633
1021.684, 2029.184
1022.934, 1901.482
1024.183, 1881.570
1025.432, 1876.420
1026.680, 1840.074
1027.929, 1840.816
1029.177, 1831.191
1030.425, 1891.551
1031.673, 1881.475
1032.921, 1861.910
1034.169, 1725.910
1035.416, 2021.395
1036.663, 1582.889
1037.911, 1895.424
1039.157, 1695.982
1040.404, 1870.568
1041.650, 1911.182
1042.897, 1719.818
1044.143, 1825.484
1045.389, 1551.156
1046.634, 1671.961
1047.880, 1668.707
1049.125, 1556.482
1050.371, 1608.000
1051.615, 1608.910
1052.860, 1526.773
1054.105, 1531.662
1055.349, 1432.582
1056.593, 1690.535
1057.837, 1628.514
1059.081, 1612.523
1060.325, 1598.123
1061.568, 1576.195
1062.812, 1531.299
1064.055, 1506.375
1065.298, 1541.545
1066.540, 1458.752
1067.783, 1707.990
1069.025, 1698.264
1070.267, 1870.576
1071.509, 1605.924
1072.751, 1582.309
1073.993, 1707.730
1075.234, 1638.193
1076.475, 1703.695
1077.716, 1817.236
1078.957, 1757.818
1080.198, 1857.441
1081.438, 1868.764
1082.679, 1911.812
1083.919, 1905.566
1085.159, 1934.357
1086.398, 1940.195
1087.638, 1756.078
1088.877, 1657.012
1090.116, 1894.988
1091.355, 2023.969
1092.594, 1624.998
1093.833, 1917.082
1095.071, 1484.215
1096.309, 1589.387
1097.547, 1792.615
1098.785, 1491.861
1100.023, 1401.844
1101.260, 1525.201
1102.498, 1605.719
1103.735, 1504.191
1104.972, 1620.729
1106.208, 1580.635
1107.445, 1583.986
1108.681, 1496.713
1109.918, 1563.508
1111.154, 1392.371
1112.389, 1126.311
1113.625, 1622.328
1114.860, 1170.426
1116.096, 1202.580
1117.331, 1291.547
1118.566, 1087.584
1119.800, 1295.324
1121.035, 1040.498
1122.269, 1285.734
1123.503, 1077.029
1124.737, 1021.396
1125.971, 1106.797
1127.205, 1112.289
1128.438, 874.891
1129.671, 981.807
1130.904, 864.639
1132.137, 1038.834
1133.370, 832.100
1134.602, 830.471
1135.834, 949.936
1137.066, 1153.447
1138.298, 552.080
1139.530, 813.789
1140.762, 1043.611
1141.993, 332.615
1143.224, 966.775
1144.455, 565.986
1145.686, 802.295
1146.917, 677.734
1148.147, 632.316
1149.377, 871.004
1150.607, 582.770
1151.837, 476.709
1153.067, 812.730
1154.296, 560.879
1155.526, 489.180
1156.755, 624.541
1157.984, 624.967
1159.213, 369.451
1160.441, 561.998
1161.670, 316.605
1162.898, 774.273
1164.126, 678.006
1165.354, 578.770
1166.581, 382.596
1167.809, 410.484
1169.036, 251.439
1170.263, 281.453
1171.490, 592.518
1172.717, 341.639
1173.943, 514.824
1175.170, 399.076
1176.396, 342.396
1177.622, 480.781
1178.848, 497.236
1180.073, 443.760
1181.299, 181.350
1182.524, 322.008
1183.749, 26.268
1184.974, 367.527
1186.199, 239.389
1187.423, 85.320
1188.648, 458.318
1189.872, 56.377
1191.096, 455.412
1192.320, 226.510
1193.543, 9.328
1194.767, 386.893
1195.990, 161.178
1197.213, 116.484
1198.436, 91.912
1199.659, 126.359
1200.881, 71.867
1202.104, 135.432
1203.326, 3.045
1204.548, 183.676
1205.770, 160.096
1206.991, 35.617
1208.213, 148.459
1209.434, 127.686
1210.655, 82.939
1211.876, 29.582
1213.096, 161.250
1214.317, 214.059
1215.537, 173.012
1216.757, 136.105
1217.977, 120.340
1219.197, 195.715
1220.417, 243.236
1221.636, 149.904
1222.855, 73.729
1224.074, 240.709
1225.293, 276.854
1226.512, 238.164
1227.731, 197.652
1228.949, 284.316
1230.167, 184.162
1231.385, 221.307
1232.603, 227.518
1233.820, 418.936
1235.038, 700.572
1236.255, 340.135
1237.472, 728.961
1238.689, 266.994
1239.906, 257.281
1241.122, 339.824
1242.338, 114.318
1243.555, 388.379
1244.771, 521.979
1245.986, 12.701
1247.202, 811.906
1248.417, 118.189
1249.633, 327.029
1250.848, 421.566
1252.063, 210.439
1253.277, 477.654
1254.492, 471.258
1255.706, 224.270
1256.920, 618.686
1258.134, 463.236
1259.348, 213.346
1260.562, 405.252
1261.775, 534.035
1262.988, 497.309
1264.201, 326.914
1265.414, 48.334
1266.627, 659.311
1267.839, 361.365
1269.052, 358.527
1270.264, 739.383
1271.476, 358.303
1272.688, 383.848
1273.899, 646.080
1275.111, 1.734
1276.322, 0.000
##END=



