##NAMES=Aragonite
##RRUFFID=R040078
##IDEAL CHEMISTRY=CaCO_3_
##LOCALITY=Molina, Aragon, Spain
##OWNER=RRUFF
##SOURCE=University of Arizona Mineral Museum
##DESCRIPTION=Orange pseudohexagonal prisms
##STATUS=The identification of this mineral has been confirmed by X-ray diffraction and chemical analysis
##URL=rruff.info/R040078
##MEASURED CHEMISTRY=Ca_1.00_CO_3_
##PIN_ID=L00114
##ORIENTATION=Laser parallel to -b* (0 -1 0). Fiducial mark perpendicular to laser is parallel to -c [0 0 -1]
50.765, 0.000
52.166, 15.955
53.566, 2.659
54.966, 47.386
56.365, 97.572
57.765, 154.485
59.164, 158.593
60.563, 267.224
61.962, 346.639
63.360, 309.127
64.758, 276.275
66.157, 258.181
67.554, 242.769
68.952, 217.972
70.349, 92.732
71.747, 40.000
73.144, 13.268
74.540, 18.110
75.937, 145.436
77.333, 226.340
78.729, 351.575
80.125, 332.132
81.521, 323.983
82.916, 222.106
84.311, 345.482
85.706, 286.095
87.101, 252.929
88.496, 319.974
89.890, 273.218
91.284, 432.651
92.678, 434.264
94.071, 666.046
95.465, 603.985
96.858, 636.070
98.251, 663.289
99.644, 759.631
101.036, 864.090
102.428, 773.660
103.820, 939.338
105.212, 907.119
106.604, 1004.188
107.995, 1123.347
109.387, 1044.587
110.777, 1148.903
112.168, 1098.295
113.559, 1209.763
114.949, 1235.306
116.339, 1307.920
117.729, 1318.605
119.119, 1163.361
120.508, 1103.188
121.897, 937.088
123.286, 1100.056
124.675, 940.102
126.063, 937.228
127.452, 918.415
128.840, 955.664
130.228, 965.973
131.615, 867.352
133.003, 1020.799
134.390, 950.296
135.777, 951.823
137.164, 1075.383
138.550, 1064.969
139.937, 1167.576
141.323, 1202.194
142.709, 1420.828
144.094, 1513.479
145.480, 1747.114
146.865, 2034.761
148.250, 2475.434
149.635, 3337.134
151.019, 4056.865
152.403, 5422.624
153.788, 5948.425
155.171, 6045.269
156.555, 5196.143
157.939, 4148.048
159.322, 3457.985
160.705, 2925.906
162.088, 3146.481
163.470, 2664.429
164.853, 2225.410
166.235, 1725.425
167.617, 1249.477
168.998, 1096.562
170.380, 861.687
171.761, 936.850
173.142, 706.047
174.523, 766.300
175.904, 812.586
177.284, 819.904
178.664, 1060.255
180.044, 1098.636
181.424, 1194.049
182.803, 928.493
184.183, 850.968
185.562, 739.484
186.940, 629.135
188.319, 648.722
189.698, 591.383
191.076, 686.202
192.454, 587.917
193.831, 720.658
195.209, 777.427
196.586, 743.222
197.963, 875.424
199.340, 840.278
200.717, 1065.151
202.093, 1165.058
203.470, 1519.990
204.846, 2342.946
206.221, 2700.927
207.597, 3056.951
208.972, 2380.009
210.347, 1910.090
211.722, 1340.298
213.097, 942.415
214.472, 823.552
215.846, 590.712
217.220, 657.339
218.594, 492.016
219.967, 461.863
221.341, 493.506
222.714, 360.108
224.087, 485.642
225.460, 292.240
226.832, 427.745
228.204, 320.921
229.577, 417.063
230.948, 388.270
232.320, 232.537
233.692, 352.861
235.063, 291.240
236.434, 413.686
237.805, 294.460
239.175, 294.380
240.545, 434.033
241.916, 300.662
243.286, 441.333
244.655, 461.043
246.025, 461.792
247.394, 566.577
248.763, 518.398
250.132, 586.261
251.501, 369.157
252.869, 520.085
254.237, 354.045
255.605, 378.509
256.973, 423.529
258.340, 315.576
259.708, 416.652
261.075, 186.756
262.442, 253.884
263.808, 166.039
265.175, 74.219
266.541, 80.443
267.907, 132.309
269.273, 92.168
270.639, 28.547
272.004, 81.756
273.369, 61.094
274.734, 106.452
276.099, 219.834
277.463, 156.237
278.828, 300.659
280.192, 167.119
281.556, 330.599
282.919, 263.097
284.283, 236.614
285.646, 280.148
287.009, 105.703
288.372, 300.934
289.734, 190.523
291.097, 150.129
292.459, 127.753
293.821, 152.398
295.183, 220.906
296.544, 142.583
297.905, 260.275
299.266, 220.981
300.627, 111.703
301.988, 248.438
303.348, 105.189
304.709, 145.953
306.069, 128.732
307.428, 109.525
308.788, 215.332
310.147, 64.152
311.507, 223.987
312.865, 69.835
314.224, 216.699
315.583, 77.575
316.941, 63.466
318.299, 167.413
319.657, 6.669
321.015, 148.265
322.372, 41.210
323.729, 82.175
325.086, 138.624
326.443, 87.579
327.800, 102.548
329.156, 8.471
330.512, 87.532
331.868, 71.546
333.224, 15.572
334.579, 49.615
335.935, 45.671
337.290, 140.742
338.645, 23.823
339.999, 102.916
341.354, 133.020
342.708, 46.867
344.062, 231.255
345.416, 0.397
346.769, 223.747
348.123, 86.695
349.476, 40.858
350.829, 162.031
352.182, 56.212
353.534, 147.401
354.887, 19.599
356.239, 166.805
357.591, 94.050
358.942, 13.355
360.294, 130.590
361.645, 1.959
362.996, 107.203
364.347, 109.481
365.698, 72.740
367.048, 100.005
368.398, 38.721
369.748, 67.553
371.098, 31.862
372.448, 51.149
373.797, 13.443
375.146, 25.738
376.495, 142.039
377.844, 38.420
379.192, 108.736
380.540, 36.062
381.889, 9.239
383.236, 66.100
384.584, 39.641
385.932, 182.996
387.279, 4.639
388.626, 38.732
389.973, 86.113
391.319, 15.965
392.666, 92.365
394.012, 8.798
395.358, 143.216
396.704, 15.642
398.049, 38.505
399.394, 199.947
400.740, 92.508
402.084, 143.937
403.429, 28.396
404.774, 44.863
406.118, 183.336
407.462, 10.879
408.806, 133.368
410.150, 11.862
411.493, 115.150
412.836, 69.656
414.179, 96.217
415.522, 125.734
416.865, 37.727
418.207, 142.939
419.549, 20.496
420.891, 121.194
422.233, 98.760
423.575, 35.330
424.916, 80.909
426.257, 81.492
427.598, 146.741
428.939, 63.334
430.279, 6.692
431.619, 136.095
432.959, 33.256
434.299, 189.910
435.639, 79.517
436.978, 83.805
438.318, 171.417
439.657, 12.032
440.996, 121.060
442.334, 54.677
443.673, 106.328
445.011, 48.960
446.349, 72.593
447.687, 176.682
449.024, 13.682
450.361, 172.068
451.699, 30.699
453.036, 42.616
454.372, 218.514
455.709, 34.856
457.045, 114.823
458.381, 97.435
459.717, 21.046
461.053, 178.778
462.388, 43.388
463.724, 196.996
465.059, 18.603
466.394, 95.209
467.728, 51.813
469.063, 49.432
470.397, 227.055
471.731, 30.671
473.065, 107.285
474.398, 50.897
475.732, 106.528
477.065, 213.547
478.398, 31.825
479.731, 193.782
481.063, 68.886
482.396, 115.489
483.728, 140.597
485.060, 68.806
486.391, 151.748
487.723, 130.513
489.054, 55.084
490.385, 198.762
491.716, 60.326
493.047, 146.887
494.377, 22.899
495.708, 67.453
497.038, 145.109
498.368, 81.654
499.697, 70.246
501.027, 58.854
502.356, 178.387
503.685, 102.561
505.014, 7.084
506.342, 197.919
507.671, 19.335
508.999, 129.153
510.327, 56.938
511.655, 73.416
512.982, 98.887
514.310, 42.396
515.637, 170.855
516.964, 25.619
518.291, 17.067
519.617, 220.508
520.944, 36.996
522.270, 190.401
523.596, 30.969
524.921, 121.356
526.247, 140.737
527.572, 40.111
528.897, 166.401
530.222, 35.260
531.547, 193.612
532.871, 135.959
534.196, 80.298
535.520, 176.631
536.844, 31.204
538.167, 272.521
539.491, 83.829
540.814, 14.155
542.137, 195.269
543.460, 33.428
544.783, 201.816
546.105, 150.053
547.427, 144.190
548.749, 294.410
550.071, 52.379
551.393, 270.785
552.714, 53.940
554.035, 130.086
555.356, 186.224
556.677, 34.648
557.998, 213.441
559.318, 45.521
560.638, 144.382
561.958, 158.443
563.278, 147.502
564.597, 148.549
565.917, 49.585
567.236, 104.208
568.555, 103.244
569.874, 8.720
571.192, 226.291
572.511, 57.291
573.829, 219.412
575.147, 66.392
576.464, 51.189
577.782, 282.147
579.099, 47.095
580.416, 182.199
581.733, 114.136
583.050, 101.311
584.366, 193.225
585.683, 48.872
586.999, 186.825
588.315, 114.666
589.630, 8.890
590.946, 341.928
592.261, 22.263
593.576, 202.507
594.891, 21.267
596.206, 148.302
597.520, 244.031
598.834, 43.251
600.148, 154.476
601.462, 86.130
602.776, 170.842
604.089, 241.471
605.402, 33.089
606.715, 293.070
608.028, 69.999
609.341, 155.820
610.653, 41.382
611.965, 9.928
613.277, 198.619
614.589, 84.288
615.901, 167.888
617.212, 146.377
618.523, 72.854
619.834, 324.317
621.145, 102.769
622.456, 237.290
623.766, 159.715
625.076, 140.126
626.386, 292.034
627.696, 106.420
629.006, 240.117
630.315, 153.556
631.624, 114.901
632.933, 292.470
634.242, 44.788
635.551, 186.258
636.859, 145.760
638.167, 35.032
639.475, 242.622
640.783, 8.869
642.090, 197.090
643.398, 112.794
644.705, 60.987
646.012, 314.002
647.318, 2.836
648.625, 219.294
649.931, 163.611
651.237, 10.729
652.543, 278.045
653.849, 19.121
655.155, 270.172
656.460, 108.520
657.765, 103.543
659.070, 248.804
660.375, 25.798
661.679, 283.776
662.984, 48.650
664.288, 65.597
665.592, 280.888
666.895, 49.804
668.199, 312.703
669.502, 122.828
670.805, 111.699
672.108, 252.555
673.411, 12.596
674.713, 208.385
676.016, 152.253
677.318, 108.040
678.620, 310.682
679.921, 78.668
681.223, 234.384
682.524, 168.203
683.825, 225.918
685.126, 230.800
686.427, 35.520
687.727, 237.193
689.028, 129.079
690.328, 162.751
691.628, 289.410
692.927, 11.057
694.227, 212.606
695.526, 151.214
696.825, 115.807
698.124, 372.021
699.423, 116.588
700.721, 304.948
702.020, 184.500
703.318, 305.038
704.616, 570.562
705.913, 330.075
707.211, 644.109
708.508, 418.594
709.805, 157.042
711.102, 235.502
712.399, 174.946
713.695, 304.951
714.992, 140.372
716.288, 190.700
717.584, 309.114
718.879, 112.321
720.175, 329.710
721.470, 180.086
722.765, 23.769
724.060, 324.113
725.355, 152.795
726.649, 236.328
727.944, 216.636
729.238, 85.882
730.532, 236.164
731.825, 123.453
733.119, 236.618
734.412, 237.790
735.705, 81.425
736.998, 369.570
738.291, 5.703
739.584, 352.915
740.876, 138.012
742.168, 11.566
743.460, 360.631
744.752, 11.684
746.043, 288.529
747.334, 233.552
748.626, 141.685
749.916, 341.683
751.207, 37.991
752.498, 282.964
753.788, 262.926
755.078, 89.464
756.368, 313.401
757.658, 31.704
758.947, 266.186
760.237, 226.064
761.526, 16.477
762.815, 373.330
764.104, 43.055
765.392, 194.890
766.680, 240.427
767.969, 59.971
769.257, 297.357
770.544, 78.091
771.832, 109.879
773.119, 183.657
774.406, 132.305
775.693, 311.062
776.980, 79.810
778.267, 160.547
779.553, 281.274
780.839, 42.008
782.125, 214.669
783.411, 20.327
784.697, 78.981
785.982, 274.625
787.267, 70.739
788.552, 287.840
789.837, 56.021
791.122, 34.581
792.406, 337.139
793.690, 15.111
794.974, 231.286
796.258, 106.306
797.542, 112.823
798.825, 249.353
800.108, 82.342
801.391, 172.120
802.674, 116.353
803.957, 42.797
805.239, 292.595
806.522, 37.565
807.804, 183.980
809.085, 179.280
810.367, 15.679
811.649, 232.060
812.930, 28.366
814.211, 184.736
815.492, 190.314
816.772, 56.671
818.053, 402.681
819.333, 48.784
820.613, 185.125
821.893, 211.154
823.173, 27.479
824.452, 203.795
825.732, 110.062
827.011, 36.363
828.290, 361.348
829.568, 47.634
830.847, 323.915
832.125, 100.184
833.403, 26.467
834.681, 292.566
835.959, 58.834
837.236, 195.094
838.514, 47.509
839.791, 123.755
841.068, 369.498
842.345, 35.756
843.621, 361.981
844.898, 298.385
846.174, 114.599
847.450, 649.599
848.726, 115.946
850.001, 282.186
851.277, 458.396
852.552, 744.627
853.827, 1390.836
855.102, 719.751
856.376, 415.984
857.651, 482.218
858.925, 98.444
860.199, 424.667
861.473, 180.906
862.746, 127.140
864.020, 343.385
865.293, 99.625
866.566, 235.861
867.839, 172.112
869.112, 88.360
870.384, 334.605
871.656, 8.971
872.928, 347.253
874.200, 113.506
875.472, 70.246
876.744, 355.382
878.015, 38.354
879.286, 207.827
880.557, 224.015
881.828, 140.199
883.098, 326.248
884.369, 42.429
885.639, 319.303
886.909, 355.475
888.178, 48.354
889.448, 387.635
890.717, 83.780
891.987, 38.672
893.256, 334.811
894.524, 30.950
895.793, 156.261
897.061, 192.415
898.330, 87.749
899.598, 383.913
900.865, 20.079
902.133, 376.258
903.401, 242.434
904.668, 128.318
905.935, 314.493
907.202, 90.669
908.468, 226.802
909.735, 292.994
911.001, 136.119
912.267, 392.312
913.533, 178.504
914.799, 174.384
916.064, 330.592
917.330, 116.552
918.595, 392.760
919.860, 278.967
921.124, 34.988
922.389, 411.210
923.653, 67.311
924.918, 323.507
926.182, 329.702
927.445, 105.897
928.709, 372.093
929.972, 238.203
931.236, 204.397
932.499, 430.592
933.761, 123.274
935.024, 349.470
936.286, 185.339
937.549, 131.454
938.811, 427.647
940.073, 108.604
941.334, 424.799
942.596, 250.825
943.857, 96.763
945.118, 472.962
946.379, 41.171
947.640, 345.016
948.900, 221.212
950.161, 47.407
951.421, 403.604
952.681, 133.965
953.940, 130.164
955.200, 356.374
956.459, 77.615
957.719, 388.566
958.978, 184.531
960.236, 100.723
961.495, 556.921
962.753, 32.808
964.012, 339.007
965.270, 254.956
966.527, 21.158
967.785, 317.764
969.043, 153.845
970.300, 160.057
971.557, 346.113
972.814, 142.328
974.071, 298.546
975.327, 284.525
976.583, 110.745
977.840, 277.149
979.095, 163.178
980.351, 109.505
981.607, 205.918
982.862, 32.155
984.117, 278.673
985.372, 154.688
986.627, 70.931
987.882, 317.301
989.136, 126.454
990.390, 309.592
991.644, 185.940
992.898, 42.146
994.152, 318.180
995.405, 4.386
996.659, 340.597
997.912, 286.598
999.165, 32.838
1000.417, 399.413
1001.670, 166.262
1002.922, 192.549
1004.174, 489.837
1005.426, 63.874
1006.678, 462.396
1007.930, 119.499
1009.181, 145.785
1010.432, 562.240
1011.683, 118.885
1012.934, 315.216
1014.185, 325.303
1015.435, 121.636
1016.685, 438.021
1017.935, 85.599
1019.185, 291.990
1020.435, 388.699
1021.684, 25.095
1022.934, 360.706
1024.183, 173.464
1025.432, 129.876
1026.680, 531.911
1027.929, 59.448
1029.177, 383.514
1030.425, 310.252
1031.673, 76.667
1032.921, 593.084
1034.169, 220.182
1035.416, 216.464
1036.663, 532.965
1037.911, 169.959
1039.157, 523.841
1040.404, 380.427
1041.650, 306.950
1042.897, 563.357
1044.143, 80.644
1045.389, 377.017
1046.634, 503.530
1047.880, 101.101
1049.125, 507.610
1050.371, 385.275
1051.615, 311.954
1052.860, 578.464
1054.105, 225.232
1055.349, 501.743
1056.593, 348.254
1057.837, 115.174
1059.081, 711.676
1060.325, 408.857
1061.568, 535.613
1062.812, 422.127
1064.055, 82.337
1065.298, 658.845
1066.540, 385.349
1067.783, 322.049
1069.025, 598.543
1070.267, 225.454
1071.509, 630.354
1072.751, 716.834
1073.993, 293.392
1075.234, 989.862
1076.475, 766.326
1077.716, 1083.118
1078.957, 1529.571
1080.198, 1446.284
1081.438, 2962.732
1082.679, 4839.172
1083.919, 15706.356
1085.159, 49022.816
1086.398, 48259.285
1087.638, 26285.789
1088.877, 10692.296
1090.116, 3718.823
1091.355, 2205.337
1092.594, 1161.843
1093.833, 778.984
1095.071, 955.477
1096.309, 390.323
1097.547, 607.279
1098.785, 783.752
1100.023, 220.215
1101.260, 726.943
1102.498, 503.420
1103.735, 240.175
1104.972, 746.636
1106.208, 239.725
1107.445, 566.754
1108.681, 403.189
1109.918, 189.615
1111.154, 666.034
1112.389, 212.402
1113.625, 279.751
1114.860, 546.146
1116.096, 42.439
1117.331, 369.308
1118.566, 445.668
1119.800, 172.018
1121.035, 678.743
1122.269, 175.071
1123.503, 381.921
1124.737, 468.230
1125.971, 104.528
1127.205, 531.859
1128.438, 128.133
1129.671, 74.393
1130.904, 591.771
1132.137, 87.951
1133.370, 204.669
1134.602, 591.535
1135.834, 107.732
1137.066, 464.178
1138.298, 154.189
1139.530, 120.347
1140.762, 518.982
1141.993, 155.090
1143.224, 301.208
1144.455, 338.562
1145.686, 165.353
1146.917, 606.316
1148.147, 92.187
1149.377, 28.143
1150.607, 615.662
1151.837, 8.400
1153.067, 418.102
1154.296, 342.827
1155.526, 1.296
1156.755, 608.538
1157.984, 157.618
1159.213, 113.434
1160.441, 387.320
1161.670, 56.388
1162.898, 409.686
1164.126, 548.363
1165.354, 5.952
1166.581, 561.787
1167.809, 149.278
1169.036, 234.886
1170.263, 476.045
1171.490, 88.312
1172.717, 417.182
1173.943, 374.140
1175.170, 0.393
1176.396, 565.393
1177.622, 162.379
1178.848, 257.777
1180.073, 594.012
1181.299, 80.095
1182.524, 475.418
1183.749, 362.527
1184.974, 137.802
1186.199, 543.048
1187.423, 241.244
1188.648, 256.452
1189.872, 503.010
1191.096, 78.770
1192.320, 603.897
1193.543, 400.641
1194.767, 25.899
1195.990, 580.940
1197.213, 18.895
1198.436, 193.873
1199.659, 608.930
1200.881, 215.656
1202.104, 550.548
1203.326, 516.817
1204.548, 181.934
1205.770, 746.740
1206.991, 124.663
1208.213, 229.407
1209.434, 654.132
1210.655, 30.173
1211.876, 514.409
1213.096, 449.437
1214.317, 244.396
1215.537, 728.944
1216.757, 194.477
1217.977, 468.961
1219.197, 553.425
1220.417, 278.883
1221.636, 683.287
1222.855, 557.898
1224.074, 223.025
1225.293, 607.336
1226.512, 243.906
1227.731, 438.162
1228.949, 812.387
1230.167, 141.289
1231.385, 735.800
1232.603, 450.367
1233.820, 348.889
1235.038, 832.936
1236.255, 327.385
1237.472, 482.019
1238.689, 716.004
1239.906, 180.759
1241.122, 464.702
1242.338, 558.622
1243.555, 223.712
1244.771, 697.595
1245.986, 501.456
1247.202, 276.887
1248.417, 750.701
1249.633, 274.491
1250.848, 498.995
1252.063, 722.740
1253.277, 206.670
1254.492, 720.375
1255.706, 404.059
1256.920, 378.627
1258.134, 672.255
1259.348, 125.859
1260.562, 440.437
1261.775, 813.978
1262.988, 237.091
1264.201, 680.545
1265.414, 413.975
1266.627, 267.477
1267.839, 860.783
1269.052, 234.042
1270.264, 518.071
1271.476, 741.209
1272.688, 114.062
1273.899, 697.661
1275.111, 400.521
1276.322, 103.593
1277.533, 976.959
1278.744, 249.499
1279.955, 213.272
1281.165, 786.016
1282.376, 308.440
1283.586, 462.356
1284.796, 474.935
1286.006, 17.323
1287.215, 670.760
1288.425, 423.196
1289.634, 75.608
1290.843, 717.988
1292.052, 39.478
1293.261, 483.578
1294.469, 555.456
1295.678, 132.977
1296.886, 663.893
1298.094, 234.951
1299.302, 66.970
1300.509, 439.190
1301.717, 9.690
1302.924, 2.207
1304.131, 603.883
1305.338, 74.703
1306.545, 257.085
1307.752, 294.859
1308.958, 153.656
1310.164, 508.017
1311.370, 28.174
1312.576, 39.468
1313.782, 650.390
1314.987, 38.415
1316.193, 362.711
1317.398, 507.449
1318.603, 68.484
1319.807, 489.471
1321.012, 279.285
1322.216, 60.175
1323.421, 610.697
1324.625, 171.495
1325.829, 202.240
1327.032, 412.255
1328.236, 137.096
1329.439, 463.456
1330.642, 383.460
1331.845, 3.904
1333.048, 644.216
1334.251, 84.530
1335.453, 234.823
1336.656, 634.991
1337.858, 55.187
1339.060, 335.260
1340.261, 544.225
1341.463, 4.206
1342.664, 712.981
1343.866, 352.525
1345.067, 42.357
1346.267, 661.887
1347.468, 81.629
1348.669, 311.324
1349.869, 520.984
1351.069, 0.602
1352.269, 639.492
1353.469, 521.436
1354.668, 140.918
1355.868, 636.662
1357.067, 276.664
1358.266, 286.010
1359.465, 615.121
1360.664, 134.400
1361.862, 433.225
1363.061, 692.762
1364.259, 131.955
1365.457, 761.018
1366.655, 320.562
1367.852, 189.516
1369.050, 958.064
1370.247, 18.990
1371.444, 417.496
1372.641, 656.205
1373.838, 24.014
1375.035, 293.506
1376.231, 272.264
1377.427, 178.553
1378.623, 775.814
1379.819, 277.600
1381.015, 229.352
1382.211, 850.400
1383.406, 191.562
1384.601, 503.168
1385.796, 894.436
1386.991, 115.633
1388.185, 576.459
1389.380, 727.865
1390.574, 69.219
1391.768, 849.480
1392.962, 400.178
1394.156, 211.383
1395.350, 912.105
1396.543, 342.607
1397.736, 472.459
1398.929, 673.465
1400.122, 173.094
1401.315, 892.625
1402.507, 733.158
1403.700, 153.955
1404.892, 781.656
1406.084, 520.561
1407.276, 434.133
1408.467, 834.746
1409.659, 340.502
1410.850, 658.146
1412.041, 763.236
1413.232, 179.152
1414.423, 787.779
1415.614, 589.787
1416.804, 206.703
1417.994, 993.836
1419.184, 225.328
1420.374, 222.811
1421.564, 951.760
1422.753, 108.996
1423.943, 606.100
1425.132, 897.953
1426.321, 57.088
1427.510, 921.682
1428.698, 457.645
1429.887, 104.020
1431.075, 1052.609
1432.263, 346.752
1433.451, 322.416
1434.639, 1038.803
1435.827, 136.975
1437.014, 550.250
1438.201, 787.002
1439.388, 45.266
1440.575, 702.482
1441.762, 789.043
1442.949, 265.502
1444.135, 943.330
1445.321, 480.084
1446.507, 373.873
1447.693, 992.775
1448.879, 289.088
1450.064, 807.959
1451.250, 963.096
1452.435, 218.547
1453.620, 635.451
1454.805, 879.650
1455.989, 482.693
1457.174, 1339.000
1458.358, 693.445
1459.542, 818.916
1460.726, 1632.484
1461.910, 1547.996
1463.093, 1960.855
1464.277, 2206.043
1465.460, 1080.830
1466.643, 1336.062
1467.826, 1149.168
1469.009, 483.117
1470.191, 1317.273
1471.373, 641.287
1472.556, 343.709
1473.738, 1205.301
1474.919, 320.711
1476.101, 643.041
1477.283, 1088.219
1478.464, 90.699
1479.645, 905.742
1480.826, 763.590
1482.007, 306.953
1483.187, 1030.953
1484.368, 525.002
1485.548, 249.076
1486.728, 1052.752
1487.908, 297.496
1489.088, 612.273
1490.268, 1077.008
1491.447, 141.744
1492.626, 626.518
1493.805, 1051.254
1494.984, 33.949
1496.163, 700.895
1497.341, 745.941
1498.520, 101.102
1499.698, 771.539
1500.876, 387.133
1502.054, 303.469
1503.232, 910.068
1504.409, 176.982
1505.586, 614.168
1506.763, 1017.334
1507.940, 114.615
1509.117, 589.375
