##NAMES=Aragonite
##RRUFFID=R040078
##IDEAL CHEMISTRY=CaCO_3_
##LOCALITY=Molina, Aragon, Spain
##OWNER=RRUFF
##SOURCE=University of Arizona Mineral Museum
##DESCRIPTION=Orange pseudohexagonal prisms
##STATUS=The identification of this mineral has been confirmed by X-ray diffraction and chemical analysis
##URL=rruff.info/R040078
##MEASURED CHEMISTRY=Ca_1.00_CO_3_
##PIN_ID=L00299
##ORIENTATION=Laser parallel to c* (0 0 1). Fiducial mark perpendicular to laser is parallel to -a [-1 0 0]
114.949, 0.000
116.339, 1.581
117.729, 80.284
119.119, 8.135
120.508, 78.640
121.897, 76.469
123.286, 125.796
124.675, 6.070
126.063, 55.912
127.452, 34.042
128.840, 92.248
130.228, 65.365
131.615, 118.260
133.003, 101.824
134.390, 152.986
135.777, 164.701
137.164, 265.896
138.550, 585.503
139.937, 723.475
141.323, 846.784
142.709, 1182.402
144.094, 1310.301
145.480, 1141.449
146.865, 974.817
148.250, 719.383
149.635, 595.127
151.019, 610.033
152.403, 602.121
153.788, 673.683
155.171, 669.358
156.555, 614.125
157.939, 611.973
159.322, 654.892
160.705, 616.876
162.088, 649.920
163.470, 594.021
164.853, 634.221
166.235, 486.612
167.617, 245.138
168.998, 202.701
170.380, 174.338
171.761, 233.053
173.142, 144.792
174.523, 202.549
175.904, 250.328
177.284, 303.124
178.664, 398.936
180.044, 373.764
181.424, 489.606
182.803, 487.464
184.183, 635.334
185.562, 720.275
186.940, 738.242
188.319, 952.439
189.698, 1001.517
191.076, 1067.717
192.454, 894.458
193.831, 899.506
195.209, 710.557
196.586, 531.627
197.963, 477.708
199.340, 380.756
200.717, 400.784
202.093, 451.801
203.470, 477.811
204.846, 616.819
206.221, 693.838
207.597, 765.860
208.972, 867.887
210.347, 905.933
211.722, 950.000
213.097, 949.594
214.472, 976.655
215.846, 898.561
217.220, 802.221
218.594, 564.195
219.967, 556.115
221.341, 463.101
222.714, 319.126
224.087, 195.190
225.460, 233.010
226.832, 61.048
228.204, 161.595
229.577, 106.671
230.948, 166.753
232.320, 61.842
233.692, 70.938
235.063, 52.210
236.434, 122.329
237.805, 38.460
239.175, 56.602
240.545, 99.753
241.916, 33.903
243.286, 47.055
244.655, 163.209
246.025, 94.368
247.394, 137.531
248.763, 144.696
250.132, 170.863
251.501, 89.029
252.869, 198.255
254.237, 70.325
255.605, 127.971
256.973, 75.129
258.340, 44.315
259.708, 119.116
261.075, 13.169
262.442, 15.776
263.808, 2.724
265.175, 83.620
266.541, 2.567
267.907, 14.237
269.273, 170.806
270.639, 142.057
272.004, 270.090
273.369, 335.264
274.734, 253.290
276.099, 308.312
277.463, 436.472
278.828, 358.476
280.192, 412.848
281.556, 449.750
282.919, 504.151
284.283, 370.660
285.646, 467.264
287.009, 304.958
288.372, 321.722
289.734, 328.544
291.097, 183.519
292.459, 216.439
293.821, 148.399
295.183, 148.020
296.544, 77.050
297.905, 55.137
299.266, 117.368
300.627, 117.479
301.988, 92.613
303.348, 5.778
304.709, 178.935
306.069, 63.168
307.428, 8.382
308.788, 62.708
310.147, 25.055
311.507, 87.361
312.865, 68.663
314.224, 109.930
315.583, 28.791
316.941, 78.492
318.299, 72.793
319.657, 44.125
321.015, 25.530
322.372, 17.828
323.729, 15.863
325.086, 65.689
326.443, 17.001
327.800, 41.435
329.156, 31.220
330.512, 49.536
331.868, 68.851
333.224, 6.412
334.579, 46.207
335.935, 138.268
337.290, 3.567
338.645, 49.828
339.999, 5.943
341.354, 68.542
342.708, 111.129
344.062, 123.525
345.416, 15.339
346.769, 62.845
348.123, 47.957
349.476, 30.498
350.829, 65.809
352.182, 1.077
353.534, 128.421
354.887, 18.694
356.239, 55.954
357.591, 73.159
358.942, 41.623
360.294, 141.819
361.645, 94.066
362.996, 12.251
364.347, 98.434
365.698, 37.914
367.048, 140.186
368.398, 61.355
369.748, 21.523
371.098, 85.684
372.448, 73.910
373.797, 42.369
375.146, 61.514
376.495, 56.960
377.844, 51.092
379.192, 90.450
380.540, 77.529
381.889, 108.601
383.236, 60.874
384.584, 39.974
385.932, 156.025
387.279, 20.071
388.626, 182.094
389.973, 128.255
391.319, 15.688
392.666, 98.321
394.012, 9.677
395.358, 143.299
396.704, 103.268
398.049, 36.569
399.394, 148.541
400.740, 74.256
402.084, 65.657
403.429, 84.437
404.774, 85.318
406.118, 67.373
407.462, 131.553
408.806, 153.413
410.150, 78.293
411.493, 40.276
412.836, 120.209
414.179, 188.344
415.522, 56.166
416.865, 4.230
418.207, 60.577
419.549, 71.527
420.891, 128.524
422.233, 20.239
423.575, 51.159
424.916, 85.838
426.257, 114.485
427.598, 96.141
428.939, 30.780
430.279, 71.122
431.619, 176.037
432.959, 79.688
434.299, 137.330
435.639, 17.114
436.978, 94.671
438.318, 198.428
439.657, 92.181
440.996, 120.065
442.334, 127.474
443.673, 68.209
445.011, 72.041
446.349, 135.780
447.687, 147.657
449.024, 79.207
450.361, 192.749
451.699, 54.285
453.036, 151.994
454.372, 138.513
455.709, 12.378
457.045, 192.875
458.381, 75.696
459.717, 48.521
461.053, 186.310
462.388, 96.814
463.724, 103.217
465.059, 9.308
466.394, 80.386
467.728, 105.029
469.063, 66.425
470.397, 134.955
471.731, 49.628
473.065, 79.983
474.398, 92.233
475.732, 91.569
477.065, 135.254
478.398, 101.667
479.731, 85.002
481.063, 68.683
482.396, 181.075
483.728, 197.553
485.060, 40.523
486.391, 157.782
487.723, 71.159
489.054, 47.608
490.385, 233.937
491.716, 130.107
493.047, 43.266
494.377, 86.737
495.708, 59.376
497.038, 256.620
498.368, 8.983
499.697, 5.242
501.027, 115.327
502.356, 101.834
503.685, 122.018
505.014, 126.101
506.342, 118.169
507.671, 106.283
508.999, 130.266
510.327, 45.297
511.655, 132.381
512.982, 7.203
514.310, 95.251
515.637, 97.154
516.964, 121.068
518.291, 3.993
519.617, 132.870
520.944, 97.731
522.270, 183.578
523.596, 118.698
524.921, 40.797
526.247, 89.755
527.572, 114.556
528.897, 113.591
530.222, 143.378
531.547, 98.150
532.871, 41.919
534.196, 117.820
535.520, 41.559
536.844, 116.290
538.167, 59.006
539.491, 121.705
540.814, 138.392
542.137, 69.062
543.460, 109.719
544.783, 159.359
546.105, 142.985
547.427, 142.562
548.749, 87.176
550.071, 23.226
551.393, 117.728
552.714, 118.271
554.035, 126.537
555.356, 146.052
556.677, 40.554
557.998, 118.014
559.318, 61.526
560.638, 16.579
561.958, 65.134
563.278, 150.550
564.597, 71.950
565.917, 40.337
567.236, 154.990
568.555, 109.371
569.874, 83.756
571.192, 94.211
572.511, 44.565
573.829, 248.983
575.147, 10.309
576.464, 112.581
577.782, 77.084
579.099, 64.362
580.416, 127.031
581.733, 68.116
583.050, 38.500
584.366, 171.715
585.683, 54.083
586.999, 153.333
588.315, 125.356
589.630, 60.937
590.946, 142.063
592.261, 149.177
593.576, 7.274
594.891, 81.271
596.206, 86.555
597.520, 83.597
598.834, 50.622
600.148, 8.739
601.462, 84.723
602.776, 60.946
604.089, 81.893
605.402, 17.174
606.715, 217.090
608.028, 136.971
609.341, 148.153
610.653, 81.903
611.965, 180.879
613.277, 41.107
614.589, 213.294
615.901, 46.362
617.212, 43.489
618.523, 50.100
619.834, 115.835
621.145, 27.446
622.456, 118.561
623.766, 58.385
625.076, 68.359
626.386, 125.243
627.696, 90.751
629.006, 75.340
630.315, 184.743
631.624, 5.255
632.933, 177.976
634.242, 68.511
635.551, 76.429
636.859, 121.304
638.167, 35.706
639.475, 106.814
640.783, 15.266
642.090, 59.104
643.398, 149.467
644.705, 100.803
646.012, 134.304
647.318, 42.582
648.625, 145.864
649.931, 200.406
651.237, 50.747
652.543, 122.436
653.849, 99.528
655.155, 67.883
656.460, 87.666
657.765, 43.709
659.070, 21.321
660.375, 93.444
661.679, 114.557
662.984, 114.799
664.288, 100.878
665.592, 129.938
666.895, 114.315
668.199, 98.084
669.502, 190.300
670.805, 97.225
672.108, 160.148
673.411, 134.269
674.713, 128.215
676.016, 203.019
677.318, 155.932
678.620, 172.907
679.921, 63.943
681.223, 66.981
682.524, 96.521
683.825, 142.683
685.126, 75.689
686.427, 215.161
687.727, 158.259
689.028, 236.312
690.328, 104.749
691.628, 209.991
692.927, 298.453
694.227, 295.144
695.526, 421.692
696.825, 628.616
698.124, 1055.260
699.423, 1851.983
700.721, 2878.551
702.020, 3345.146
703.318, 3545.695
704.616, 3582.438
705.913, 3478.998
707.211, 2932.741
708.508, 1939.245
709.805, 1025.916
711.102, 572.611
712.399, 469.521
713.695, 335.803
714.992, 132.225
716.288, 198.476
717.584, 214.537
718.879, 250.894
720.175, 227.309
721.470, 153.828
722.765, 86.287
724.060, 222.648
725.355, 223.539
726.649, 120.164
727.944, 266.501
729.238, 133.010
730.532, 209.410
731.825, 116.752
733.119, 102.977
734.412, 299.031
735.705, 55.401
736.998, 291.590
738.291, 107.549
739.584, 173.821
740.876, 169.959
742.168, 3.603
743.460, 279.890
744.752, 46.018
746.043, 211.978
747.334, 258.326
748.626, 154.388
749.916, 139.472
751.207, 95.300
752.498, 151.619
753.788, 227.419
755.078, 123.138
756.368, 158.236
757.658, 84.277
758.947, 239.907
760.237, 155.607
761.526, 59.146
762.815, 204.986
764.104, 71.185
765.392, 236.990
766.680, 112.598
767.969, 48.524
769.257, 176.266
770.544, 82.004
771.832, 57.391
773.119, 202.744
774.406, 188.108
775.693, 163.731
776.980, 66.429
778.267, 112.025
779.553, 57.368
780.839, 82.732
782.125, 148.315
783.411, 173.738
784.697, 179.080
785.982, 254.623
787.267, 0.758
788.552, 165.018
789.837, 25.014
791.122, 40.262
792.406, 275.678
793.690, 29.280
794.974, 16.011
796.258, 159.187
797.542, 5.758
798.825, 189.574
800.108, 64.760
801.391, 30.061
802.674, 145.002
803.957, 70.288
805.239, 55.558
806.522, 10.482
807.804, 125.688
809.085, 100.785
810.367, 5.733
811.649, 130.884
812.930, 25.710
814.211, 210.481
815.492, 175.573
816.772, 100.655
818.053, 345.726
819.333, 170.723
820.613, 55.822
821.893, 160.892
823.173, 86.200
824.452, 131.255
825.732, 176.633
827.011, 88.180
828.290, 196.785
829.568, 101.716
830.847, 136.661
832.125, 101.593
833.403, 96.509
834.681, 91.141
835.959, 135.769
837.236, 29.489
838.514, 85.646
839.791, 49.737
841.068, 55.087
842.345, 27.955
843.621, 186.819
844.898, 11.435
846.174, 23.819
847.450, 191.158
848.726, 105.863
850.001, 70.558
851.277, 225.244
852.552, 60.284
853.827, 244.946
855.102, 269.598
856.376, 55.763
857.651, 89.016
858.925, 93.684
860.199, 68.258
861.473, 173.056
862.746, 87.621
864.020, 82.178
865.293, 26.723
866.566, 91.252
867.839, 135.773
869.112, 110.239
870.384, 54.740
871.656, 99.229
872.928, 203.707
874.200, 58.175
875.472, 97.306
876.744, 256.827
878.015, 68.787
879.286, 25.550
880.557, 99.963
881.828, 4.442
883.098, 98.661
884.369, 27.051
885.639, 197.152
886.909, 181.196
888.178, 35.439
889.448, 209.262
890.717, 203.480
891.987, 17.503
893.256, 161.700
894.524, 33.733
895.793, 79.203
897.061, 113.433
898.330, 87.159
899.598, 51.309
900.865, 115.449
902.133, 159.580
903.401, 193.664
904.668, 7.553
905.935, 251.654
907.202, 105.747
908.468, 129.924
909.735, 54.000
911.001, 157.794
912.267, 171.851
913.533, 145.897
914.799, 169.579
916.064, 33.616
917.330, 227.325
918.595, 161.340
919.860, 85.203
921.124, 41.209
922.389, 152.759
923.653, 686.443
924.918, 810.017
926.182, 123.960
927.445, 167.896
928.709, 141.824
929.972, 305.422
931.236, 169.203
932.499, 322.747
933.761, 216.390
935.024, 170.284
936.286, 124.169
937.549, 178.047
938.811, 181.915
940.073, 54.591
941.334, 438.443
942.596, 151.830
943.857, 235.273
945.118, 289.122
946.379, 120.168
947.640, 263.486
948.900, 127.321
950.161, 139.898
951.421, 183.717
952.681, 117.224
953.940, 130.578
955.200, 314.443
956.459, 137.950
957.719, 181.388
958.978, 204.632
960.236, 188.509
961.495, 242.138
962.753, 85.326
964.012, 269.175
965.270, 103.761
966.527, 97.484
967.785, 221.685
969.043, 195.763
970.300, 129.463
971.557, 363.445
972.814, 106.795
974.071, 30.534
975.327, 264.010
976.583, 7.650
977.840, 81.293
979.095, 258.922
980.351, 113.245
981.607, 236.728
982.862, 170.360
984.117, 133.848
985.372, 192.068
986.627, 185.509
987.882, 129.672
989.136, 50.841
990.390, 148.863
991.644, 219.084
992.898, 47.660
994.152, 153.883
995.405, 167.812
996.659, 130.887
997.912, 52.882
999.165, 136.452
1000.417, 140.617
1001.670, 165.499
1002.922, 29.139
1004.174, 253.062
1005.426, 137.154
1006.678, 130.771
1007.930, 70.858
1009.181, 94.851
1010.432, 259.474
1011.683, 63.270
1012.934, 207.767
1014.185, 172.059
1015.435, 135.891
1016.685, 349.044
1017.935, 123.309
1019.185, 207.183
1020.435, 121.005
1021.684, 234.538
1022.934, 218.031
1024.183, 262.102
1025.432, 105.857
1026.680, 353.051
1027.929, 167.921
1029.177, 237.575
1030.425, 60.939
1031.673, 74.645
1032.921, 247.679
1034.169, 281.691
1035.416, 93.373
1036.663, 176.930
1037.911, 150.837
1039.157, 243.990
1040.404, 237.529
1041.650, 301.692
1042.897, 304.790
1044.143, 29.216
1045.389, 420.577
1046.634, 104.326
1047.880, 208.373
1049.125, 371.735
1050.371, 135.589
1051.615, 239.489
1052.860, 412.988
1054.105, 216.483
1055.349, 189.686
1056.593, 303.153
1057.837, 76.533
1059.081, 539.975
1060.325, 303.114
1061.568, 396.742
1062.812, 340.188
1064.055, 293.790
1065.298, 407.174
1066.540, 430.461
1067.783, 313.821
1069.025, 497.168
1070.267, 371.096
1071.509, 502.081
1072.751, 585.892
1073.993, 379.398
1075.234, 792.687
1076.475, 826.089
1077.716, 939.357
1078.957, 1192.612
1080.198, 1765.969
1081.438, 3179.282
1082.679, 6582.584
1083.919, 20625.879
1085.159, 45559.156
1086.398, 46262.664
1087.638, 26915.939
1088.877, 10959.192
1090.116, 4582.166
1091.355, 2145.434
1092.594, 1168.729
1093.833, 711.938
1095.071, 585.129
1096.309, 528.317
1097.547, 231.788
1098.785, 324.945
1100.023, 208.092
1101.260, 441.225
1102.498, 384.343
1103.735, 137.445
1104.972, 470.529
1106.208, 183.599
1107.445, 187.313
1108.681, 120.354
1109.918, 153.584
1111.154, 336.588
1112.389, 129.444
1113.625, 27.067
1114.860, 275.819
1116.096, 48.661
1117.331, 41.937
1118.566, 194.819
1119.800, 97.814
1121.035, 260.655
1122.269, 153.534
1123.503, 166.458
1124.737, 209.275
1125.971, 261.575
1127.205, 124.879
1128.438, 7.682
1129.671, 220.969
1130.904, 338.561
1132.137, 211.243
1133.370, 84.737
1134.602, 389.645
1135.834, 52.224
1137.066, 205.558
1138.298, 81.384
1139.530, 111.146
1140.762, 224.601
1141.993, 106.337
1143.224, 99.015
1144.455, 201.847
1145.686, 84.372
1146.917, 247.399
1148.147, 30.321
1149.377, 22.569
1150.607, 287.293
1151.837, 79.541
1153.067, 113.552
1154.296, 275.743
1155.526, 118.601
1156.755, 92.350
1157.984, 4.297
1159.213, 117.788
1160.441, 26.296
1161.670, 29.073
1162.898, 131.497
1164.126, 385.725
1165.354, 38.408
1166.581, 171.410
1167.809, 165.939
1169.036, 177.765
1170.263, 250.083
1171.490, 143.405
1172.717, 146.315
1173.943, 369.244
1175.170, 1.927
1176.396, 104.857
1177.622, 208.612
1178.848, 201.257
1180.073, 313.175
1181.299, 126.307
1182.524, 312.886
1183.749, 325.847
1184.974, 188.384
1186.199, 319.842
1187.423, 343.195
1188.648, 124.996
1189.872, 294.971
1191.096, 79.003
1192.320, 470.241
1193.543, 192.540
1194.767, 154.358
1195.990, 405.964
1197.213, 139.611
1198.436, 190.970
1199.659, 382.182
1200.881, 293.878
1202.104, 245.428
1203.326, 316.459
1204.548, 357.807
1205.770, 388.432
1206.991, 389.741
1208.213, 250.498
1209.434, 291.214
1210.655, 252.551
1211.876, 433.574
1213.096, 234.580
1214.317, 345.775
1215.537, 546.303
1216.757, 126.794
1217.977, 309.164
1219.197, 189.585
1220.417, 259.961
1221.636, 370.301
1222.855, 282.600
1224.074, 333.277
1225.293, 363.500
1226.512, 323.855
1227.731, 654.652
1228.949, 415.475
1230.167, 396.639
1231.385, 677.133
1232.603, 278.799
1233.820, 393.006
1235.038, 493.072
1236.255, 392.977
1237.472, 333.834
1238.689, 323.686
1239.906, 343.908
1241.122, 533.705
1242.338, 433.477
1243.555, 273.490
1244.771, 463.203
1245.986, 482.887
1247.202, 403.432
1248.417, 363.057
1249.633, 502.650
1250.848, 352.346
1252.063, 561.881
1253.277, 191.576
1254.492, 501.297
1255.706, 300.553
1256.920, 360.119
1258.134, 469.459
1259.348, 228.629
1260.562, 397.512
1261.775, 456.738
1262.988, 265.396
1264.201, 473.982
1265.414, 322.932
1266.627, 451.547
1267.839, 330.605
1269.052, 239.359
1270.264, 348.092
1271.476, 386.799
1272.688, 185.457
1273.899, 343.855
1275.111, 221.664
1276.322, 19.305
1277.533, 539.426
1278.744, 87.750
1279.955, 51.266
1281.165, 519.857
1282.376, 167.439
1283.586, 165.906
1284.796, 339.266
1286.006, 126.871
1287.215, 75.309
1288.425, 292.781
1289.634, 109.824
1290.843, 318.752
1292.052, 135.910
1293.261, 213.502
1294.469, 19.662
1295.678, 223.748
1296.886, 263.998
1298.094, 50.723
1299.302, 357.523
1300.509, 184.748
1301.717, 51.459
1302.924, 87.846
1304.131, 373.963
1305.338, 49.668
1306.545, 166.158
1307.752, 241.949
1308.958, 28.113
1310.164, 164.666
1311.370, 110.316
1312.576, 16.469
1313.782, 352.518
1314.987, 111.439
1316.193, 64.770
1317.398, 100.465
1318.603, 86.111
1319.807, 122.156
1321.012, 86.850
1322.216, 32.125
1323.421, 87.764
1324.625, 213.312
1325.829, 59.070
1327.032, 25.812
1328.236, 59.803
1329.439, 105.363
1330.642, 320.510
1331.845, 35.953
1333.048, 221.332
1334.251, 83.975
1335.453, 11.254
1336.656, 235.551
1337.858, 100.658
1339.060, 155.307
1340.261, 209.734
1341.463, 14.678
1342.664, 248.916
1343.866, 273.322
1345.067, 148.113
1346.267, 172.846
1347.468, 287.328
1348.669, 201.979
1349.869, 316.582
1351.069, 191.145
1352.269, 465.664
1353.469, 329.934
1354.668, 154.330
1355.868, 218.521
1357.067, 212.879
1358.266, 156.914
1359.465, 421.199
1360.664, 335.457
1361.862, 28.938
1363.061, 483.131
1364.259, 306.807
1365.457, 330.750
1366.655, 24.887
1367.852, 198.881
1369.050, 312.986
1370.247, 271.656
1371.444, 142.340
1372.641, 126.379
1373.838, 80.443
1375.035, 184.281
1376.231, 38.006
1377.427, 18.576
1378.623, 258.393
1379.819, 295.271
1381.015, 92.049
1382.211, 498.850
1383.406, 195.287
1384.601, 401.975
1385.796, 368.604
1386.991, 225.178
1388.185, 310.982
1389.380, 427.211
1390.574, 103.041
1391.768, 409.387
1392.962, 445.270
1394.156, 241.369
1395.350, 436.889
1396.543, 242.988
1397.736, 228.180
1398.929, 547.793
1400.122, 232.098
1401.315, 425.857
1402.507, 379.787
1403.700, 94.338
1404.892, 318.014
1406.084, 340.496
1407.276, 304.121
1408.467, 250.982
1409.659, 303.330
1410.850, 197.482
1412.041, 508.398
1413.232, 244.422
1414.423, 367.611
1415.614, 438.223
1416.804, 267.674
1417.994, 607.549
1419.184, 78.055
1420.374, 129.074
1421.564, 578.377
1422.753, 219.896
1423.943, 104.061
1425.132, 563.957
1426.321, 104.684
1427.510, 364.344
1428.698, 292.949
1429.887, 53.508
1431.075, 271.988
1432.263, 254.414
1433.451, 15.420
1434.639, 457.531
1435.827, 279.732
1437.014, 272.756
1438.201, 443.924
1439.388, 75.014
1440.575, 287.863
1441.762, 617.168
1442.949, 309.893
1444.135, 268.027
1445.321, 382.027
1446.507, 21.256
1447.693, 449.947
1448.879, 129.684
1450.064, 310.668
1451.250, 309.695
1452.435, 189.678
1453.620, 99.688
1454.805, 520.068
1455.989, 128.240
1457.174, 437.688
1458.358, 216.906
1459.542, 355.785
1460.726, 574.586
1461.910, 481.398
1463.093, 560.373
1464.277, 879.559
1465.460, 568.363
1466.643, 767.604
1467.826, 436.777
1469.009, 446.039
1470.191, 582.680
1471.373, 351.887
1472.556, 169.955
1473.738, 608.107
1474.919, 355.754
1476.101, 315.127
1477.283, 511.363
1478.464, 80.328
1479.645, 517.775
1480.826, 236.359
1482.007, 334.805
1483.187, 432.781
1484.368, 282.502
1485.548, 232.367
1486.728, 472.234
1487.908, 202.109
1489.088, 202.035
1490.268, 462.033
1491.447, 82.209
1492.626, 152.475
1493.805, 572.836
1494.984, 53.359
1496.163, 114.096
1497.341, 375.113
1498.520, 106.436
1499.698, 318.152
1500.876, 210.281
1502.054, 202.877
1503.232, 225.840
1504.409, 219.240
1505.586, 123.164
1506.763, 507.703
1507.940, 302.986
1509.117, 59.137
1510.294, 536.299
1511.470, 15.365
1512.647, 174.430
1513.823, 196.055
1514.999, 210.008
1516.174, 347.186
1517.350, 158.184
1518.526, 0.000
##END=



