##NAMES=Aragonite
##RRUFFID=R040078
##IDEAL CHEMISTRY=CaCO_3_
##LOCALITY=Molina, Aragon, Spain
##OWNER=RRUFF
##SOURCE=University of Arizona Mineral Museum
##DESCRIPTION=Orange pseudohexagonal prisms
##STATUS=The identification of this mineral has been confirmed by X-ray diffraction and chemical analysis
##URL=rruff.info/R040078
##MEASURED CHEMISTRY=Ca_1.00_CO_3_
##PIN_ID=L00114
##ORIENTATION=Laser parallel to -b* (0 -1 0). Fiducial mark perpendicular to laser is parallel to -c [0 0 -1]
50.765, 0.000
52.166, 35.350
53.566, 66.192
54.966, 78.346
56.365, 69.452
57.765, 42.934
59.164, 61.390
60.563, 102.625
61.962, 154.841
63.360, 111.129
64.758, 117.949
66.157, 59.155
67.554, 98.715
68.952, 47.600
70.349, 0.786
71.747, 36.749
73.144, 1.024
74.540, 3.058
75.937, 20.132
77.333, 40.528
78.729, 59.116
80.125, 77.883
81.521, 95.818
82.916, 95.912
84.311, 118.155
85.706, 156.541
87.101, 151.062
88.496, 187.713
89.890, 229.487
91.284, 239.380
92.678, 302.388
94.071, 344.506
95.465, 389.726
96.858, 429.042
98.251, 405.445
99.644, 428.927
101.036, 488.484
102.428, 510.114
103.820, 537.813
105.212, 556.581
106.604, 569.416
107.995, 615.315
109.387, 654.277
110.777, 619.300
112.168, 633.384
113.559, 674.526
114.949, 681.727
116.339, 617.984
117.729, 637.297
119.119, 598.664
120.508, 615.085
121.897, 601.559
123.286, 616.084
124.675, 532.661
126.063, 556.288
127.452, 564.965
128.840, 557.691
130.228, 580.466
131.615, 614.304
133.003, 534.190
134.390, 543.117
135.777, 575.077
137.164, 583.063
138.550, 616.072
139.937, 647.097
141.323, 690.133
142.709, 731.179
144.094, 801.232
145.480, 867.245
146.865, 953.261
148.250, 1149.299
149.635, 1338.361
151.019, 1531.447
152.403, 1710.558
153.788, 1802.696
155.171, 1761.871
156.555, 1485.080
157.939, 1228.315
159.322, 993.574
160.705, 791.859
162.088, 666.170
163.470, 597.509
164.853, 565.879
166.235, 490.280
167.617, 416.706
168.998, 495.158
170.380, 468.637
171.761, 426.141
173.142, 435.678
174.523, 440.240
175.904, 402.829
177.284, 392.446
178.664, 420.089
180.044, 401.756
181.424, 438.448
182.803, 413.166
184.183, 436.908
185.562, 435.678
186.940, 500.475
188.319, 548.297
189.698, 599.144
191.076, 583.017
192.454, 613.914
193.831, 673.838
195.209, 669.789
196.586, 670.764
197.963, 631.760
199.340, 632.780
200.717, 845.822
202.093, 1029.893
203.470, 709.992
204.846, 896.125
206.221, 1094.275
207.597, 1364.446
208.972, 1687.641
210.347, 2196.745
211.722, 2746.985
213.097, 3116.246
214.472, 3524.537
215.846, 3498.836
217.220, 3176.935
218.594, 2659.015
219.967, 2082.049
221.341, 1660.031
222.714, 1297.943
224.087, 1040.790
225.460, 852.598
226.832, 739.328
228.204, 632.839
229.577, 553.344
230.948, 515.891
232.320, 502.382
233.692, 450.012
235.063, 359.586
236.434, 398.422
237.805, 354.089
239.175, 296.293
240.545, 319.435
241.916, 279.192
243.286, 280.067
244.655, 293.972
246.025, 262.907
247.394, 262.027
248.763, 267.024
250.132, 273.042
251.501, 231.085
252.869, 250.152
254.237, 195.244
255.605, 183.740
256.973, 217.877
258.340, 173.397
259.708, 191.579
261.075, 185.781
262.442, 171.005
263.808, 132.249
265.175, 180.513
266.541, 198.804
267.907, 195.115
269.273, 222.445
270.639, 269.794
272.004, 300.162
273.369, 321.698
274.734, 322.103
276.099, 388.524
277.463, 498.822
278.828, 589.280
280.192, 650.755
281.556, 725.247
282.919, 833.755
284.283, 883.279
285.646, 904.819
287.009, 796.384
288.372, 733.049
289.734, 645.644
291.097, 499.255
292.459, 435.398
293.821, 370.047
295.183, 333.711
296.544, 293.388
297.905, 252.080
299.266, 237.178
300.627, 193.896
301.988, 189.629
303.348, 149.375
304.709, 185.177
306.069, 159.949
307.428, 135.735
308.788, 129.534
310.147, 156.346
311.507, 85.349
312.865, 114.188
314.224, 138.043
315.583, 95.910
316.941, 125.029
318.299, 98.934
319.657, 111.853
321.015, 95.240
322.372, 77.185
323.729, 93.146
325.086, 100.120
326.443, 87.105
327.800, 102.324
329.156, 71.334
330.512, 96.364
331.868, 64.405
333.224, 61.458
334.579, 22.316
335.935, 76.392
337.290, 90.482
338.645, 63.583
339.999, 65.695
341.354, 23.817
342.708, 20.951
344.062, 76.096
345.416, 45.251
346.769, 45.416
348.123, 31.592
349.476, 71.778
350.829, 44.344
352.182, 83.550
353.534, 73.765
354.887, 1.010
356.239, 37.225
357.591, 87.380
358.942, 39.633
360.294, 35.895
361.645, 25.167
362.996, 39.448
364.347, 36.199
365.698, 53.658
367.048, 39.034
368.398, 83.277
369.748, 30.597
371.098, 56.926
372.448, 48.261
373.797, 58.602
375.146, 1.050
376.495, 47.305
377.844, 19.668
379.192, 44.039
380.540, 70.695
381.889, 36.423
383.236, 68.821
384.584, 17.757
385.932, 70.174
387.279, 52.600
388.626, 54.037
389.973, 68.484
391.319, 73.943
392.666, 59.412
394.012, 29.637
395.358, 52.510
396.704, 4.012
398.049, 30.838
399.394, 5.366
400.740, 8.619
402.084, 21.311
403.429, 1.114
404.774, 26.470
406.118, 33.378
407.462, 27.268
408.806, 10.239
410.150, 0.380
411.493, 25.007
412.836, 54.643
414.179, 39.288
415.522, 34.941
416.865, 18.398
418.207, 57.267
419.549, 44.060
420.891, 84.635
422.233, 32.313
423.575, 7.997
424.916, 26.690
426.257, 22.389
427.598, 16.929
428.939, 13.643
430.279, 28.377
431.619, 16.123
432.959, 16.858
434.299, 8.286
435.639, 34.460
436.978, 22.213
438.318, 28.756
439.657, 8.002
440.996, 39.838
442.334, 2.608
443.673, 40.385
445.011, 43.168
446.349, 47.956
447.687, 33.823
449.024, 4.377
450.361, 34.427
451.699, 57.237
453.036, 17.212
454.372, 59.950
455.709, 17.779
457.045, 40.612
458.381, 20.450
459.717, 13.247
461.053, 30.398
462.388, 55.268
463.724, 62.407
465.059, 1.452
466.394, 26.340
467.728, 17.405
469.063, 6.971
470.397, 47.774
471.731, 5.745
473.065, 34.149
474.398, 30.268
475.732, 8.159
477.065, 6.130
478.398, 12.766
479.731, 40.667
481.063, 11.430
482.396, 14.999
483.728, 26.495
485.060, 20.412
486.391, 44.332
487.723, 4.746
489.054, 43.177
490.385, 73.075
491.716, 44.003
493.047, 17.933
494.377, 16.135
495.708, 17.793
497.038, 53.373
498.368, 14.304
499.697, 48.240
501.027, 16.177
502.356, 7.208
503.685, 52.167
505.014, 8.109
506.342, 76.052
507.671, 32.998
508.999, 54.952
510.327, 24.091
511.655, 31.854
512.982, 50.803
514.310, 38.753
515.637, 71.693
516.964, 14.354
518.291, 37.591
519.617, 27.537
520.944, 51.651
522.270, 52.599
523.596, 4.452
524.921, 17.428
526.247, 12.507
527.572, 59.598
528.897, 48.541
530.222, 18.479
531.547, 48.418
532.871, 46.358
534.196, 17.299
535.520, 39.229
536.844, 22.172
538.167, 54.115
539.491, 1.058
540.814, 0.002
542.137, 36.935
543.460, 21.129
544.783, 64.793
546.105, 27.715
547.427, 27.636
548.749, 84.556
550.071, 29.476
551.393, 54.396
552.714, 5.686
554.035, 1.225
555.356, 28.131
556.677, 3.036
557.998, 15.937
559.318, 17.159
560.638, 15.380
561.958, 35.495
563.278, 42.356
564.597, 4.229
565.917, 5.097
567.236, 6.015
568.555, 64.708
569.874, 24.581
571.192, 67.455
572.511, 57.328
573.829, 25.199
575.147, 43.069
576.464, 59.557
577.782, 26.425
579.099, 14.929
580.416, 45.893
581.733, 74.760
583.050, 39.626
584.366, 61.491
585.683, 19.646
586.999, 41.198
588.315, 18.039
589.630, 17.878
590.946, 42.714
592.261, 13.547
593.576, 65.226
594.891, 45.052
596.206, 8.932
597.520, 43.892
598.834, 15.706
600.148, 21.552
601.462, 74.359
602.776, 55.356
604.089, 23.162
605.402, 21.018
606.715, 64.763
608.028, 50.456
609.341, 50.229
610.653, 15.000
611.965, 8.241
613.277, 58.913
614.589, 34.654
615.901, 60.391
617.212, 25.124
618.523, 26.461
619.834, 65.186
621.145, 22.907
622.456, 41.624
623.766, 30.294
625.076, 47.003
626.386, 42.708
627.696, 19.409
629.006, 62.104
630.315, 60.619
631.624, 12.307
632.933, 45.137
634.242, 29.187
635.551, 28.485
636.859, 67.213
638.167, 61.852
639.475, 10.076
640.783, 8.715
642.090, 49.345
643.398, 41.979
644.705, 34.585
646.012, 32.964
647.318, 14.441
648.625, 106.133
649.931, 38.762
651.237, 37.391
652.543, 81.219
653.849, 7.774
655.155, 116.320
656.460, 55.343
657.765, 52.878
659.070, 25.409
660.375, 29.933
661.679, 73.452
662.984, 33.965
664.288, 57.474
665.592, 61.843
666.895, 41.548
668.199, 77.680
669.502, 40.463
670.805, 61.176
672.108, 105.653
673.411, 61.204
674.713, 90.758
676.016, 84.282
677.318, 23.737
678.620, 56.292
679.921, 92.735
681.223, 27.710
682.524, 118.108
683.825, 90.955
685.126, 35.392
686.427, 113.869
687.727, 63.295
689.028, 135.129
690.328, 99.546
691.628, 117.957
692.927, 73.796
694.227, 133.195
695.526, 223.619
696.825, 201.731
698.124, 307.774
699.423, 411.151
700.721, 803.994
702.020, 1304.360
703.318, 2333.778
704.616, 4124.132
705.913, 4864.482
707.211, 3994.824
708.508, 2207.161
709.805, 1106.802
711.102, 512.748
712.399, 293.136
713.695, 287.137
714.992, 157.356
716.288, 175.194
717.584, 132.124
718.879, 122.481
720.175, 118.768
721.470, 115.735
722.765, 53.535
724.060, 96.923
725.355, 59.282
726.649, 125.542
727.944, 48.797
729.238, 78.196
730.532, 104.532
731.825, 67.207
733.119, 48.440
734.412, 137.668
735.705, 29.607
736.998, 118.828
738.291, 63.042
739.584, 67.724
740.876, 82.991
742.168, 55.355
743.460, 107.546
744.752, 53.809
746.043, 82.980
747.334, 95.154
748.626, 58.208
749.916, 78.376
751.207, 34.533
752.498, 57.413
753.788, 78.562
755.078, 39.634
756.368, 85.771
757.658, 21.903
758.947, 54.145
760.237, 45.263
761.526, 62.305
762.815, 76.412
764.104, 63.514
765.392, 66.610
766.680, 59.965
767.969, 16.295
769.257, 68.771
770.544, 47.831
771.832, 66.885
773.119, 107.934
774.406, 110.979
775.693, 63.020
776.980, 49.031
778.267, 99.060
779.553, 75.085
780.839, 62.104
782.125, 141.118
783.411, 63.024
784.697, 64.028
785.982, 76.245
787.267, 5.103
788.552, 104.960
789.837, 12.117
791.122, 24.085
792.406, 78.046
793.690, 20.997
794.974, 40.460
796.258, 39.809
797.542, 37.735
798.825, 56.656
800.108, 61.572
801.391, 53.515
802.674, 49.449
803.957, 27.352
805.239, 26.668
806.522, 27.561
807.804, 81.508
809.085, 84.744
810.367, 1.626
811.649, 47.581
812.930, 45.450
814.211, 91.222
815.492, 109.064
816.772, 44.919
818.053, 79.769
819.333, 21.261
820.613, 7.564
821.893, 38.384
823.173, 4.205
824.452, 6.019
825.732, 92.851
827.011, 21.654
828.290, 95.452
829.568, 25.250
830.847, 44.044
832.125, 14.667
833.403, 64.451
834.681, 58.232
835.959, 14.910
837.236, 1.689
838.514, 53.688
839.791, 31.449
841.068, 59.212
842.345, 1.391
843.621, 110.142
844.898, 55.888
846.174, 0.631
847.450, 50.375
848.726, 35.106
850.001, 45.833
851.277, 74.559
852.552, 136.282
853.827, 157.003
855.102, 154.727
856.376, 27.447
857.651, 74.162
858.925, 54.875
860.199, 93.583
861.473, 55.289
862.746, 27.991
864.020, 45.693
865.293, 24.394
866.566, 49.090
867.839, 9.213
869.112, 65.471
870.384, 82.159
871.656, 24.849
872.928, 54.537
874.200, 66.223
875.472, 88.092
876.744, 70.543
878.015, 17.350
879.286, 54.995
880.557, 97.636
881.828, 4.275
883.098, 16.911
884.369, 3.458
885.639, 72.167
886.909, 63.790
888.178, 24.590
889.448, 75.919
890.717, 44.519
891.987, 4.882
893.256, 22.708
894.524, 40.298
895.793, 57.893
897.061, 16.484
898.330, 35.074
899.598, 106.662
900.865, 65.248
902.133, 35.833
903.401, 64.417
904.668, 53.944
905.935, 55.526
907.202, 63.106
908.468, 72.649
909.735, 64.226
911.001, 17.393
912.267, 112.169
913.533, 92.711
914.799, 79.279
916.064, 91.846
917.330, 69.410
918.595, 42.974
919.860, 37.542
921.124, 85.184
922.389, 71.750
923.653, 39.316
924.918, 73.880
926.182, 82.442
927.445, 43.003
928.709, 43.562
929.972, 143.120
931.236, 62.676
932.499, 100.230
933.761, 71.783
935.024, 81.335
936.286, 71.887
937.549, 3.561
938.811, 113.987
940.073, 10.386
941.334, 68.932
942.596, 102.239
943.857, 76.710
945.118, 90.264
946.379, 18.772
947.640, 91.312
948.900, 43.853
950.161, 91.384
951.421, 55.938
952.681, 20.491
953.940, 76.044
955.200, 107.604
956.459, 10.896
957.719, 82.594
958.978, 14.090
960.236, 72.645
961.495, 69.201
962.753, 7.274
964.012, 125.829
965.270, 100.383
966.527, 59.937
967.785, 59.491
969.043, 79.043
970.300, 0.405
971.557, 91.279
972.814, 75.621
974.071, 92.159
975.327, 84.412
976.583, 18.729
977.840, 53.274
979.095, 71.742
980.351, 28.288
981.607, 122.854
982.862, 27.401
984.117, 25.841
985.372, 108.389
986.627, 57.038
987.882, 43.394
989.136, 6.467
990.390, 75.078
991.644, 70.575
992.898, 12.880
994.152, 74.249
995.405, 57.788
996.659, 85.336
997.912, 21.585
999.165, 30.133
1000.417, 59.651
1001.670, 64.372
1002.922, 38.937
1004.174, 114.629
1005.426, 82.193
1006.678, 76.758
1007.930, 29.264
1009.181, 99.839
1010.432, 58.425
1011.683, 102.002
1012.934, 65.630
1014.185, 53.199
1015.435, 33.829
1016.685, 108.344
1017.935, 34.101
1019.185, 147.774
1020.435, 74.370
1021.684, 96.967
1022.934, 76.500
1024.183, 135.695
1025.432, 131.302
1026.680, 130.225
1027.929, 4.393
1029.177, 73.137
1030.425, 101.839
1031.673, 103.515
1032.921, 123.978
1034.169, 97.581
1035.416, 36.756
1036.663, 111.456
1037.911, 105.294
1039.157, 85.171
1040.404, 116.792
1041.650, 104.657
1042.897, 212.801
1044.143, 119.598
1045.389, 140.212
1046.634, 186.827
1047.880, 121.351
1049.125, 138.266
1050.371, 174.992
1051.615, 202.833
1052.860, 211.879
1054.105, 173.716
1055.349, 264.469
1056.593, 174.078
1057.837, 159.743
1059.081, 348.349
1060.325, 332.967
1061.568, 368.528
1062.812, 322.132
1064.055, 204.126
1065.298, 310.731
1066.540, 230.447
1067.783, 298.217
1069.025, 331.887
1070.267, 351.508
1071.509, 470.136
1072.751, 442.946
1073.993, 440.574
1075.234, 672.313
1076.475, 788.948
1077.716, 996.583
1078.957, 1345.216
1080.198, 2055.939
1081.438, 3509.586
1082.679, 7682.232
1083.919, 24877.223
1085.159, 56211.879
1086.398, 53956.746
1087.638, 25641.182
1088.877, 9845.836
1090.116, 3985.407
1091.355, 1863.062
1092.594, 1055.716
1093.833, 715.367
1095.071, 559.150
1096.309, 394.793
1097.547, 375.446
1098.785, 377.097
1100.023, 225.744
1101.260, 277.553
1102.498, 322.165
1103.735, 176.880
1104.972, 277.612
1106.208, 143.829
1107.445, 217.100
1108.681, 220.675
1109.918, 153.303
1111.154, 195.930
1112.389, 100.474
1113.625, 147.458
1114.860, 181.082
1116.096, 81.702
1117.331, 75.319
1118.566, 140.933
1119.800, 144.457
1121.035, 184.078
1122.269, 184.691
1123.503, 136.408
1124.737, 181.015
1125.971, 131.595
1127.205, 151.472
1128.438, 131.070
1129.671, 21.700
1130.904, 118.772
1132.137, 54.359
1133.370, 72.175
1134.602, 125.089
1135.834, 100.685
1137.066, 54.265
1138.298, 67.703
1139.530, 49.276
1140.762, 137.121
1141.993, 95.380
1143.224, 49.934
1144.455, 87.513
1145.686, 19.057
1146.917, 167.875
1148.147, 78.413
1149.377, 11.075
1150.607, 97.978
1151.837, 26.498
1153.067, 79.198
1154.296, 149.905
1155.526, 69.591
1156.755, 63.803
1157.984, 60.007
1159.213, 110.492
1160.441, 51.977
1161.670, 53.591
1162.898, 52.058
1164.126, 93.457
1165.354, 24.087
1166.581, 67.532
1167.809, 72.390
1169.036, 89.119
1170.263, 134.943
1171.490, 9.114
1172.717, 144.513
1173.943, 43.093
1175.170, 45.129
1176.396, 70.410
1177.622, 53.980
1178.848, 60.663
1180.073, 116.454
1181.299, 57.336
1182.524, 100.832
1183.749, 57.671
1184.974, 25.202
1186.199, 107.658
1187.423, 78.834
1188.648, 21.145
1189.872, 99.444
1191.096, 22.343
1192.320, 101.267
1193.543, 142.079
1194.767, 147.163
1195.990, 9.274
1197.213, 56.078
1198.436, 28.780
1199.659, 1.544
1200.881, 30.582
1202.104, 50.912
1203.326, 173.271
1204.548, 72.575
1205.770, 128.744
1206.991, 84.151
1208.213, 70.362
1209.434, 138.506
1210.655, 5.218
1211.876, 129.784
1213.096, 63.009
1214.317, 54.513
1215.537, 78.970
1216.757, 132.327
1217.977, 142.542
1219.197, 51.602
1220.417, 96.312
1221.636, 69.347
1222.855, 127.052
1224.074, 102.504
1225.293, 137.630
1226.512, 85.311
1227.731, 121.697
1228.949, 212.915
1230.167, 25.180
1231.385, 163.320
1232.603, 54.350
1233.820, 192.936
1235.038, 153.842
1236.255, 109.802
1237.472, 130.061
1238.689, 226.947
1239.906, 131.827
1241.122, 79.699
1242.338, 105.564
1243.555, 115.487
1244.771, 145.345
1245.986, 161.186
1247.202, 75.058
1248.417, 127.916
1249.633, 96.788
1250.848, 92.793
1252.063, 154.595
1253.277, 6.391
1254.492, 148.273
1255.706, 143.050
1256.920, 140.181
1258.134, 185.981
1259.348, 35.699
1260.562, 167.279
1261.775, 227.977
1262.988, 194.655
1264.201, 121.391
1265.414, 112.083
1266.627, 119.711
1267.839, 121.351
1269.052, 95.942
1270.264, 123.520
1271.476, 180.082
1272.688, 56.628
1273.899, 144.370
1275.111, 114.873
1276.322, 26.452
1277.533, 204.968
1278.744, 68.415
1279.955, 83.159
1281.165, 155.420
1282.376, 122.802
1283.586, 102.525
1284.796, 123.878
1286.006, 58.221
1287.215, 96.840
1288.425, 141.159
1289.634, 13.535
1290.843, 130.750
1292.052, 58.886
1293.261, 127.272
1294.469, 96.622
1295.678, 50.322
1296.886, 148.153
1298.094, 84.188
1299.302, 81.320
1300.509, 85.597
1301.717, 23.280
1302.924, 13.771
1304.131, 130.781
1305.338, 4.766
1306.545, 95.853
1307.752, 157.729
1308.958, 6.581
1310.164, 87.678
1311.370, 133.373
1312.576, 33.775
1313.782, 60.047
1314.987, 43.852
1316.193, 19.363
1317.398, 77.808
1318.603, 87.544
1319.807, 48.136
1321.012, 53.053
1322.216, 0.710
1323.421, 53.271
1324.625, 37.840
1325.829, 26.454
1327.032, 91.964
1328.236, 29.537
1329.439, 80.005
1330.642, 95.315
1331.845, 8.288
1333.048, 130.333
1334.251, 201.357
1335.453, 224.571
1336.656, 55.649
1337.858, 134.714
1339.060, 114.460
1340.261, 143.334
1341.463, 88.369
1342.664, 120.583
1343.866, 117.137
1345.067, 63.985
1346.267, 96.028
1347.468, 86.138
1348.669, 97.374
1349.869, 138.536
1351.069, 67.754
1352.269, 111.926
1353.469, 173.037
1354.668, 23.207
1355.868, 35.952
1357.067, 99.389
1358.266, 17.623
1359.465, 45.296
1360.664, 15.593
1361.862, 90.426
1363.061, 146.431
1364.259, 17.237
1365.457, 148.210
1366.655, 21.945
1367.852, 35.989
1369.050, 94.888
1370.247, 37.909
1371.444, 39.859
1372.641, 64.688
1373.838, 51.498
1375.035, 14.100
1376.231, 99.608
1377.427, 5.605
1378.623, 133.695
1379.819, 108.751
1381.015, 44.791
1382.211, 190.677
1383.406, 128.656
1384.601, 135.647
1385.796, 226.451
1386.991, 109.227
1388.185, 122.482
1389.380, 155.396
1390.574, 116.291
1391.768, 117.767
1392.962, 112.617
1394.156, 79.409
1395.350, 181.219
1396.543, 157.895
1397.736, 103.358
1398.929, 263.078
1400.122, 49.256
1401.315, 103.169
1402.507, 210.786
1403.700, 9.269
1404.892, 145.359
1406.084, 182.414
1407.276, 103.581
1408.467, 111.917
1409.659, 186.808
1410.850, 109.719
1412.041, 198.322
1413.232, 126.708
1414.423, 137.477
1415.614, 166.476
1416.804, 61.470
1417.994, 228.565
1419.184, 59.633
1420.374, 91.159
1421.564, 146.277
1422.753, 251.172
1423.943, 55.799
1425.132, 238.834
1426.321, 29.305
1427.510, 168.957
1428.698, 163.887
1429.887, 36.334
1431.075, 206.146
1432.263, 102.727
1433.451, 130.098
1434.639, 205.459
1435.827, 70.094
1437.014, 75.398
1438.201, 206.213
1439.388, 37.026
1440.575, 181.884
1441.762, 268.203
1442.949, 53.589
1444.135, 78.191
1445.321, 117.605
1446.507, 78.216
1447.693, 141.431
1448.879, 33.161
1450.064, 136.987
1451.250, 205.180
1452.435, 22.163
1453.620, 135.074
1454.805, 253.755
1455.989, 164.441
1457.174, 229.937
1458.358, 218.099
1459.542, 239.388
1460.726, 334.956
1461.910, 415.259
1463.093, 475.507
1464.277, 535.658
1465.460, 252.862
1466.643, 180.105
1467.826, 269.397
1469.009, 130.078
1470.191, 167.867
1471.373, 271.997
1472.556, 110.696
1473.738, 270.844
1474.919, 173.985
1476.101, 97.111
1477.283, 252.053
1478.464, 102.477
1479.645, 241.867
1480.826, 93.602
1482.007, 147.819
1483.187, 229.536
1484.368, 202.542
1485.548, 6.998
1486.728, 157.314
1487.908, 63.438
1489.088, 147.517
1490.268, 193.574
1491.447, 109.635
1492.626, 40.764
1493.805, 289.878
1494.984, 39.985
1496.163, 39.109
1497.341, 249.270
1498.520, 3.522
1499.698, 124.742
1500.876, 106.120
1502.054, 16.633
1503.232, 153.312
1504.409, 81.752
1505.586, 86.228
1506.763, 143.594
1507.940, 103.978
1509.117, 116.347
1510.294, 156.436
1511.470, 2.287
1512.647, 114.826
1513.823, 48.721
1514.999, 45.267
1516.174, 111.540
1517.350, 52.922
1518.526, 0.098
1519.701, 0.000
##END=



