##NAMES=Aragonite
##RRUFFID=R040078
##IDEAL CHEMISTRY=CaCO_3_
##LOCALITY=Molina, Aragon, Spain
##OWNER=RRUFF
##SOURCE=University of Arizona Mineral Museum
##DESCRIPTION=Orange pseudohexagonal prisms
##STATUS=The identification of this mineral has been confirmed by X-ray diffraction and chemical analysis
##URL=rruff.info/R040078
##MEASURED CHEMISTRY=Ca_1.00_CO_3_
##PIN_ID=L00344
##ORIENTATION=Laser parallel to a* (1 0 0). Fiducial mark perpendicular to laser is parallel to b [0 1 0]
98.251, 0.000
99.644, 0.223
101.036, 29.506
102.428, 4.625
103.820, 55.293
105.212, 86.143
106.604, 125.654
107.995, 140.998
109.387, 135.604
110.777, 149.061
112.168, 138.058
113.559, 189.355
114.949, 222.767
116.339, 219.145
117.729, 255.369
119.119, 213.337
120.508, 193.974
121.897, 182.214
123.286, 260.984
124.675, 192.223
126.063, 247.885
127.452, 206.934
128.840, 190.340
130.228, 266.086
131.615, 256.146
133.003, 247.494
134.390, 302.101
135.777, 375.945
137.164, 485.006
138.550, 784.266
139.937, 1196.713
141.323, 1739.445
142.709, 2462.416
144.094, 2412.502
145.480, 1737.695
146.865, 1030.988
148.250, 639.374
149.635, 455.847
151.019, 404.403
152.403, 357.064
153.788, 384.836
155.171, 525.734
156.555, 548.741
157.939, 646.826
159.322, 777.039
160.705, 1058.463
162.088, 1223.001
163.470, 1168.604
164.853, 949.245
166.235, 696.923
167.617, 452.639
168.998, 314.390
170.380, 271.166
171.761, 201.976
173.142, 191.817
174.523, 266.677
175.904, 251.554
177.284, 291.498
178.664, 337.503
180.044, 380.521
181.424, 379.542
182.803, 355.855
184.183, 362.288
185.562, 269.125
186.940, 248.959
188.319, 299.794
189.698, 259.636
191.076, 294.493
192.454, 291.361
193.831, 316.245
195.209, 289.146
196.586, 309.062
197.963, 343.995
199.340, 316.944
200.717, 453.911
202.093, 563.896
203.470, 803.907
204.846, 1013.945
206.221, 1226.812
207.597, 1259.890
208.972, 1166.807
210.347, 993.676
211.722, 937.598
213.097, 792.701
214.472, 813.558
215.846, 753.673
217.220, 697.803
218.594, 534.402
219.967, 425.897
221.341, 339.918
222.714, 218.165
224.087, 233.278
225.460, 186.364
226.832, 217.969
228.204, 136.066
229.577, 143.669
230.948, 78.788
232.320, 55.920
233.692, 130.149
235.063, 78.347
236.434, 104.503
237.805, 101.308
239.175, 99.478
240.545, 103.740
241.916, 105.932
243.286, 112.231
244.655, 147.608
246.025, 188.811
247.394, 206.022
248.763, 150.240
250.132, 190.466
251.501, 147.703
252.869, 145.955
254.237, 102.282
255.605, 128.880
256.973, 89.106
258.340, 96.339
259.708, 93.585
261.075, 31.829
262.442, 41.266
263.808, 28.181
265.175, 60.148
266.541, 9.798
267.907, 86.629
269.273, 38.740
270.639, 52.233
272.004, 71.830
273.369, 38.517
274.734, 96.284
276.099, 74.123
277.463, 140.024
278.828, 165.983
280.192, 180.994
281.556, 287.417
282.919, 266.518
284.283, 317.659
285.646, 367.838
287.009, 247.050
288.372, 275.636
289.734, 191.908
291.097, 185.207
292.459, 152.540
293.821, 113.898
295.183, 120.277
296.544, 74.676
297.905, 112.094
299.266, 64.530
300.627, 71.985
301.988, 43.455
303.348, 52.945
304.709, 42.448
306.069, 26.965
307.428, 84.765
308.788, 17.303
310.147, 62.851
311.507, 49.421
312.865, 31.012
314.224, 32.707
315.583, 4.284
316.941, 15.128
318.299, 1.555
319.657, 13.846
321.015, 50.756
322.372, 26.637
323.729, 3.031
325.086, 61.656
326.443, 24.269
327.800, 1.893
329.156, 27.490
330.512, 29.126
331.868, 8.743
333.224, 13.363
334.579, 8.984
335.935, 37.005
337.290, 32.620
338.645, 19.736
339.999, 1.888
341.354, 13.487
342.708, 56.862
344.062, 41.775
345.416, 45.167
346.769, 68.438
348.123, 28.985
349.476, 16.587
350.829, 26.161
352.182, 16.265
353.534, 0.693
354.887, 32.880
356.239, 66.453
357.591, 8.027
358.942, 3.398
360.294, 45.175
361.645, 56.815
362.996, 34.389
364.347, 34.963
365.698, 0.462
367.048, 5.890
368.398, 7.680
369.748, 26.240
371.098, 41.804
372.448, 39.360
373.797, 30.911
375.146, 3.548
376.495, 48.991
377.844, 19.520
379.192, 9.049
380.540, 15.843
381.889, 23.358
383.236, 40.865
384.584, 48.350
385.932, 9.821
387.279, 8.719
388.626, 8.735
389.973, 47.181
391.319, 46.625
392.666, 27.066
394.012, 17.689
395.358, 41.127
396.704, 46.592
398.049, 41.021
399.394, 55.448
400.740, 28.011
402.084, 43.396
403.429, 30.257
404.774, 67.673
406.118, 32.466
407.462, 15.873
408.806, 43.624
410.150, 74.974
411.493, 59.403
412.836, 46.861
414.179, 98.245
415.522, 23.615
416.865, 22.312
418.207, 89.719
419.549, 43.059
420.891, 62.396
422.233, 13.730
423.575, 98.417
424.916, 8.793
426.257, 16.122
427.598, 29.051
428.939, 49.361
430.279, 62.888
431.619, 38.174
432.959, 29.515
434.299, 64.875
435.639, 47.216
436.978, 101.573
438.318, 144.912
439.657, 108.423
440.996, 57.769
442.334, 11.103
443.673, 119.431
445.011, 69.829
446.349, 57.154
447.687, 58.697
449.024, 13.016
450.361, 95.329
451.699, 32.743
453.036, 106.203
454.372, 145.338
455.709, 153.431
457.045, 38.549
458.381, 82.512
459.717, 62.921
461.053, 41.117
462.388, 107.348
463.724, 70.647
465.059, 61.920
466.394, 79.383
467.728, 2.313
469.063, 49.936
470.397, 163.404
471.731, 35.642
473.065, 44.927
474.398, 16.038
475.732, 64.168
477.065, 81.137
478.398, 29.776
479.731, 40.067
481.063, 75.762
482.396, 117.938
483.728, 96.993
485.060, 30.101
486.391, 129.280
487.723, 36.452
489.054, 39.616
490.385, 124.685
491.716, 66.838
493.047, 67.010
494.377, 84.337
495.708, 17.481
497.038, 74.591
498.368, 35.726
499.697, 44.191
501.027, 48.270
502.356, 84.378
503.685, 0.366
505.014, 13.458
506.342, 85.166
507.671, 50.240
508.999, 91.830
510.327, 38.058
511.655, 86.113
512.982, 32.222
514.310, 44.456
515.637, 150.491
516.964, 54.529
518.291, 75.559
519.617, 78.211
520.944, 26.275
522.270, 42.284
523.596, 64.287
524.921, 40.282
526.247, 34.961
527.572, 74.360
528.897, 81.303
530.222, 33.280
531.547, 51.250
532.871, 68.211
534.196, 72.167
535.520, 86.572
536.844, 66.513
538.167, 76.447
539.491, 19.304
540.814, 37.223
542.137, 113.135
543.460, 84.041
544.783, 153.939
546.105, 44.742
547.427, 101.711
548.749, 36.459
550.071, 108.329
551.393, 83.191
552.714, 24.047
554.035, 60.894
555.356, 32.733
556.677, 94.565
557.998, 76.390
559.318, 27.208
560.638, 1.017
561.958, 14.810
563.278, 80.592
564.597, 17.367
565.917, 62.131
567.236, 18.824
568.555, 47.571
569.874, 100.221
571.192, 27.970
572.511, 35.710
573.829, 92.444
575.147, 16.229
576.464, 29.939
577.782, 102.647
579.099, 58.348
580.416, 95.042
581.733, 15.542
583.050, 32.226
584.366, 96.529
585.683, 26.955
586.999, 25.676
588.315, 10.699
589.630, 0.538
590.946, 88.064
592.261, 39.659
593.576, 97.299
594.891, 40.878
596.206, 47.560
597.520, 25.123
598.834, 43.678
600.148, 75.357
601.462, 74.532
602.776, 32.539
604.089, 53.062
605.402, 22.604
606.715, 48.284
608.028, 91.441
609.341, 100.006
610.653, 17.511
611.965, 21.946
613.277, 77.394
614.589, 53.833
615.901, 36.265
617.212, 28.688
618.523, 10.102
619.834, 132.502
621.145, 5.105
622.456, 138.556
623.766, 25.922
625.076, 43.279
626.386, 83.880
627.696, 23.220
629.006, 57.571
630.315, 39.897
631.624, 79.211
632.933, 142.402
634.242, 1.707
635.551, 126.043
636.859, 30.297
638.167, 43.574
639.475, 54.118
640.783, 64.389
642.090, 33.701
643.398, 101.935
644.705, 119.188
646.012, 61.559
647.318, 31.865
648.625, 76.098
649.931, 52.455
651.237, 27.671
652.543, 59.940
653.849, 12.248
655.155, 100.756
656.460, 23.032
657.765, 93.289
659.070, 7.552
660.375, 3.702
661.679, 95.828
662.984, 64.622
664.288, 104.765
665.592, 44.899
666.895, 30.032
668.199, 65.232
669.502, 58.382
670.805, 15.496
672.108, 80.710
673.411, 85.946
674.713, 124.033
676.016, 58.114
677.318, 52.188
678.620, 148.244
679.921, 95.302
681.223, 105.352
682.524, 163.652
683.825, 97.721
685.126, 60.751
686.427, 86.698
687.727, 88.709
689.028, 126.724
690.328, 79.778
691.628, 138.771
692.927, 116.759
694.227, 118.740
695.526, 135.713
696.825, 242.961
698.124, 352.920
699.423, 478.871
700.721, 862.813
702.020, 1318.749
703.318, 2082.677
704.616, 3274.603
705.913, 3908.521
707.211, 3040.433
708.508, 1576.336
709.805, 895.049
711.102, 467.938
712.399, 328.840
713.695, 236.714
714.992, 160.581
716.288, 245.300
717.584, 176.188
718.879, 145.591
720.175, 149.429
721.470, 127.880
722.765, 163.775
724.060, 111.244
725.355, 67.987
726.649, 107.812
727.944, 101.547
729.238, 102.346
730.532, 51.150
731.825, 96.617
733.119, 107.341
734.412, 160.123
735.705, 70.898
736.998, 106.667
738.291, 62.072
739.584, 120.859
740.876, 75.610
742.168, 118.757
743.460, 103.351
744.752, 5.504
746.043, 64.278
747.334, 82.044
748.626, 45.732
749.916, 121.433
751.207, 32.110
752.498, 137.797
753.788, 92.305
755.078, 25.970
756.368, 92.639
757.658, 5.302
758.947, 88.885
760.237, 50.533
761.526, 18.010
762.815, 148.644
764.104, 21.727
765.392, 70.935
766.680, 61.483
767.969, 65.832
769.257, 133.421
770.544, 81.004
771.832, 72.520
773.119, 73.945
774.406, 115.964
775.693, 176.527
776.980, 5.823
778.267, 76.372
779.553, 90.722
780.839, 0.220
782.125, 90.754
783.411, 45.059
784.697, 45.583
785.982, 159.049
787.267, 8.437
788.552, 136.074
789.837, 36.810
791.122, 33.310
792.406, 63.701
793.690, 3.155
794.974, 56.436
796.258, 37.914
797.542, 72.693
798.825, 64.734
800.108, 15.156
801.391, 30.573
802.674, 74.849
803.957, 15.256
805.239, 107.634
806.522, 26.155
807.804, 166.219
809.085, 23.179
810.367, 15.174
811.649, 22.222
812.930, 18.565
814.211, 136.208
815.492, 98.706
816.772, 18.041
818.053, 195.373
819.333, 58.702
820.613, 87.959
821.893, 21.114
823.173, 31.869
824.452, 49.170
825.732, 12.060
827.011, 30.636
828.290, 83.647
829.568, 76.926
830.847, 136.180
832.125, 23.405
833.403, 71.674
834.681, 60.939
835.959, 0.799
837.236, 27.458
838.514, 47.712
839.791, 29.047
841.068, 66.186
842.345, 32.415
843.621, 20.642
844.898, 46.031
846.174, 56.251
847.450, 108.725
848.726, 52.940
850.001, 7.846
851.277, 105.362
852.552, 98.568
853.827, 174.771
855.102, 54.971
856.376, 99.169
857.651, 117.486
858.925, 69.716
860.199, 89.908
861.473, 112.098
862.746, 76.286
864.020, 37.474
865.293, 14.661
866.566, 92.845
867.839, 51.028
869.112, 41.209
870.384, 116.400
871.656, 26.607
872.928, 117.801
874.200, 35.001
875.472, 8.202
876.744, 165.400
878.015, 66.400
879.286, 98.766
880.557, 69.930
881.828, 65.094
883.098, 43.256
884.369, 85.359
885.639, 30.522
886.909, 34.685
888.178, 54.849
889.448, 85.012
890.717, 32.174
891.987, 1.330
893.256, 52.494
894.524, 72.659
895.793, 44.834
897.061, 77.010
898.330, 54.650
899.598, 5.838
900.865, 60.028
902.133, 114.164
903.401, 106.353
904.668, 62.435
905.935, 54.625
907.202, 37.817
908.468, 114.878
909.735, 58.072
911.001, 67.791
912.267, 39.985
913.533, 1.152
914.799, 118.172
916.064, 65.369
917.330, 0.490
918.595, 74.687
919.860, 7.893
921.124, 14.102
922.389, 82.312
923.653, 66.521
924.918, 130.732
926.182, 39.945
927.445, 67.160
928.709, 68.376
929.972, 18.312
931.236, 78.536
932.499, 139.762
933.761, 103.462
935.024, 84.690
936.286, 63.901
937.549, 121.116
938.811, 196.348
940.073, 78.553
941.334, 144.787
942.596, 90.979
943.857, 47.159
945.118, 165.399
946.379, 42.632
947.640, 147.596
948.900, 47.783
950.161, 69.962
951.421, 137.195
952.681, 75.362
953.940, 141.366
955.200, 176.429
956.459, 182.011
957.719, 113.049
958.978, 77.231
960.236, 93.477
961.495, 120.912
962.753, 46.050
964.012, 139.223
965.270, 34.385
966.527, 42.654
967.785, 144.928
969.043, 24.110
970.300, 44.388
971.557, 112.669
972.814, 124.952
974.071, 17.840
975.327, 43.412
976.583, 46.698
977.840, 42.876
979.095, 175.032
980.351, 20.328
981.607, 135.628
982.862, 83.932
984.117, 38.216
985.372, 19.542
986.627, 71.855
987.882, 125.966
989.136, 1.252
990.390, 119.118
991.644, 56.520
992.898, 7.848
994.152, 88.175
995.405, 10.543
996.659, 128.796
997.912, 13.771
999.165, 3.574
1000.417, 79.398
1001.670, 101.201
1002.922, 49.556
1004.174, 120.962
1005.426, 63.334
1006.678, 173.711
1007.930, 8.718
1009.181, 3.324
1010.432, 115.138
1011.683, 20.552
1012.934, 71.007
1014.185, 135.814
1015.435, 30.277
1016.685, 132.707
1017.935, 21.195
1019.185, 272.698
1020.435, 71.537
1021.684, 0.934
1022.934, 176.631
1024.183, 81.645
1025.432, 92.213
1026.680, 148.718
1027.929, 118.479
1029.177, 173.128
1030.425, 92.720
1031.673, 136.313
1032.921, 221.931
1034.169, 129.552
1035.416, 66.175
1036.663, 115.803
1037.911, 33.825
1039.157, 173.458
1040.404, 113.195
1041.650, 82.860
1042.897, 203.613
1044.143, 124.592
1045.389, 147.252
1046.634, 197.916
1047.880, 56.031
1049.125, 184.699
1050.371, 172.698
1051.615, 237.370
1052.860, 299.043
1054.105, 105.106
1055.349, 273.783
1056.593, 215.462
1057.837, 247.449
1059.081, 489.129
1060.325, 255.851
1061.568, 407.535
1062.812, 323.219
1064.055, 144.894
1065.298, 389.579
1066.540, 223.267
1067.783, 290.211
1069.025, 358.908
1070.267, 311.877
1071.509, 467.574
1072.751, 496.271
1073.993, 385.974
1075.234, 717.669
1076.475, 683.368
1077.716, 959.067
1078.957, 1258.765
1080.198, 1748.598
1081.438, 3301.312
1082.679, 7293.025
1083.919, 27134.914
1085.159, 54586.633
1086.398, 48338.352
1087.638, 22050.072
1088.877, 9051.790
1090.116, 3963.518
1091.355, 2015.239
1092.594, 1050.959
1093.833, 771.678
1095.071, 551.396
1096.309, 446.475
1097.547, 450.193
1098.785, 364.910
1100.023, 225.743
1101.260, 340.480
1102.498, 241.218
1103.735, 144.952
1104.972, 346.686
1106.208, 197.418
1107.445, 204.147
1108.681, 120.885
1109.918, 203.667
1111.154, 244.410
1112.389, 133.150
1113.625, 159.203
1114.860, 139.022
1116.096, 47.760
1117.331, 182.553
1118.566, 149.286
1119.800, 100.071
1121.035, 228.801
1122.269, 141.525
1123.503, 168.907
1124.737, 170.627
1125.971, 150.343
1127.205, 188.793
1128.438, 44.512
1129.671, 66.533
1130.904, 137.520
1132.137, 25.233
1133.370, 30.280
1134.602, 174.575
1135.834, 23.275
1137.066, 70.288
1138.298, 16.020
1139.530, 109.971
1140.762, 123.011
1141.993, 99.426
1143.224, 115.209
1144.455, 130.267
1145.686, 20.126
1146.917, 231.271
1148.147, 13.075
1149.377, 91.975
1150.607, 163.140
1151.837, 33.873
1153.067, 173.286
1154.296, 240.580
1155.526, 4.873
1156.755, 139.164
1157.984, 44.314
1159.213, 134.997
1160.441, 82.882
1161.670, 2.943
1162.898, 129.987
1164.126, 363.193
1165.354, 130.085
1166.581, 149.656
1167.809, 37.479
1169.036, 119.035
1170.263, 129.217
1171.490, 19.992
1172.717, 168.614
1173.943, 241.396
1175.170, 49.237
1176.396, 115.322
1177.622, 124.503
1178.848, 131.931
1180.073, 238.723
1181.299, 112.452
1182.524, 152.260
1183.749, 158.198
1184.974, 11.134
1186.199, 225.752
1187.423, 87.443
1188.648, 105.837
1189.872, 68.566
1191.096, 35.198
1192.320, 170.528
1193.543, 183.285
1194.767, 11.559
1195.990, 228.908
1197.213, 24.946
1198.436, 120.178
1199.659, 148.503
1200.881, 25.114
1202.104, 235.550
1203.326, 214.937
1204.548, 46.273
1205.770, 233.424
1206.991, 111.954
1208.213, 192.077
1209.434, 182.303
1210.655, 112.479
1211.876, 285.606
1213.096, 187.176
1214.317, 53.414
1215.537, 291.460
1216.757, 58.726
1217.977, 268.742
1219.197, 200.746
1220.417, 127.864
1221.636, 305.840
1222.855, 133.630
1224.074, 239.727
1225.293, 334.661
1226.512, 107.145
1227.731, 216.388
1228.949, 278.284
1230.167, 96.606
1231.385, 347.472
1232.603, 189.484
1233.820, 242.734
1235.038, 325.563
1236.255, 140.510
1237.472, 266.368
1238.689, 240.172
1239.906, 144.229
1241.122, 251.157
1242.338, 107.934
1243.555, 159.942
1244.771, 226.709
1245.986, 124.467
1247.202, 193.786
1248.417, 197.523
1249.633, 155.252
1250.848, 218.020
1252.063, 254.729
1253.277, 188.429
1254.492, 271.114
1255.706, 141.789
1256.920, 159.653
1258.134, 241.302
1259.348, 79.940
1260.562, 137.401
1261.775, 240.010
1262.988, 143.603
1264.201, 179.182
1265.414, 145.745
1266.627, 170.341
1267.839, 256.858
1269.052, 137.329
1270.264, 233.735
1271.476, 172.126
1272.688, 24.475
1273.899, 225.758
1275.111, 89.982
1276.322, 100.853
1277.533, 265.033
1278.744, 85.151
1279.955, 42.679
1281.165, 319.759
1282.376, 91.766
1283.586, 221.981
1284.796, 94.431
1286.006, 83.405
1287.215, 29.785
1288.425, 143.715
1289.634, 49.666
1290.843, 123.608
1292.052, 30.390
1293.261, 228.240
1294.469, 73.597
1295.678, 54.411
1296.886, 147.222
1298.094, 15.055
1299.302, 37.689
1300.509, 37.416
1301.717, 15.077
1302.924, 27.440
1304.131, 151.111
1305.338, 118.310
1306.545, 48.317
1307.752, 86.458
1308.958, 44.077
1310.164, 92.414
1311.370, 18.187
1312.576, 54.820
1313.782, 170.187
1314.987, 93.517
1316.193, 99.725
1317.398, 137.497
1318.603, 8.691
1319.807, 76.849
1321.012, 40.799
1322.216, 0.905
1323.421, 246.979
1324.625, 56.970
1325.829, 95.037
1327.032, 74.021
1328.236, 52.963
1329.439, 51.876
1330.642, 110.377
1331.845, 24.755
1333.048, 157.984
1334.251, 6.779
1335.453, 95.384
1336.656, 163.974
1337.858, 62.714
1339.060, 181.432
1340.261, 149.678
1341.463, 28.356
1342.664, 246.631
1343.866, 145.266
1345.067, 73.880
1346.267, 112.085
1347.468, 120.660
1348.669, 129.216
1349.869, 187.443
1351.069, 75.965
1352.269, 314.426
1353.469, 143.829
1354.668, 152.300
1355.868, 160.710
1357.067, 59.154
1358.266, 127.579
1359.465, 205.688
1360.664, 114.089
1361.862, 192.193
1363.061, 220.575
1364.259, 138.950
1365.457, 287.312
1366.655, 25.627
1367.852, 133.929
1369.050, 292.225
1370.247, 28.632
1371.444, 89.515
1372.641, 177.775
1373.838, 66.041
1375.035, 233.966
1376.231, 12.622
1377.427, 69.859
1378.623, 229.589
1379.819, 139.293
1381.015, 158.981
1382.211, 268.486
1383.406, 108.129
1384.601, 137.648
1385.796, 397.246
1386.991, 116.820
1388.185, 276.375
1389.380, 285.855
1390.574, 55.019
1391.768, 314.408
1392.962, 203.797
1394.156, 163.167
1395.350, 332.464
1396.543, 191.852
1397.736, 290.360
1398.929, 279.016
1400.122, 127.914
1401.315, 456.480
1402.507, 255.349
1403.700, 33.773
1404.892, 291.942
1406.084, 240.190
1407.276, 258.407
1408.467, 256.354
1409.659, 161.734
1410.850, 269.021
1412.041, 249.599
1413.232, 225.971
1414.423, 323.428
1415.614, 225.338
1416.804, 192.416
1417.994, 390.146
1419.184, 12.119
1420.374, 173.761
1421.564, 378.596
1422.753, 28.958
1423.943, 255.994
1425.132, 392.408
1426.321, 74.979
1427.510, 360.683
1428.698, 128.045
1429.887, 25.185
1431.075, 311.625
1432.263, 109.270
1433.451, 105.991
1434.639, 343.114
1435.827, 120.177
1437.014, 227.676
1438.201, 205.133
1439.388, 111.571
1440.575, 178.743
1441.762, 276.304
1442.949, 113.602
1444.135, 249.271
1445.321, 149.905
1446.507, 116.548
1447.693, 242.928
1448.879, 76.970
1450.064, 363.788
1451.250, 260.671
1452.435, 86.701
1453.620, 242.971
1454.805, 249.627
1455.989, 134.904
1457.174, 431.213
1458.358, 157.514
1459.542, 313.715
1460.726, 399.319
1461.910, 313.225
1463.093, 659.057
1464.277, 894.787
1465.460, 540.324
1466.643, 726.223
1467.826, 382.240
1469.009, 318.621
1470.191, 400.290
1471.373, 215.453
1472.556, 231.947
1473.738, 467.948
1474.919, 223.172
1476.101, 219.560
1477.283, 355.864
1478.464, 42.290
1479.645, 388.597
1480.826, 254.918
1482.007, 191.178
1483.187, 427.643
1484.368, 113.672
1485.548, 160.179
1486.728, 406.405
1487.908, 172.926
1489.088, 229.479
1490.268, 456.062
1491.447, 132.790
1492.626, 189.601
1493.805, 326.491
1494.984, 16.448
1496.163, 150.854
1497.341, 158.291
1498.520, 175.866
1499.698, 352.483
1500.876, 140.271
1502.054, 238.236
1503.232, 196.414
1504.409, 164.827
1505.586, 203.509
1506.763, 292.489
1507.940, 170.268
1509.117, 198.568
1510.294, 307.058
1511.470, 4.453
1512.647, 223.842
1513.823, 142.874
1514.999, 133.452
1516.174, 234.131
1517.350, 0.007
1518.526, 0.000
##END=



