##NAMES=Aragonite
##RRUFFID=R040078
##IDEAL CHEMISTRY=CaCO_3_
##LOCALITY=Molina, Aragon, Spain
##OWNER=RRUFF
##SOURCE=University of Arizona Mineral Museum
##DESCRIPTION=Orange pseudohexagonal prisms
##STATUS=The identification of this mineral has been confirmed by X-ray diffraction and chemical analysis
##URL=rruff.info/R040078
##MEASURED CHEMISTRY=Ca_1.00_CO_3_
##PIN_ID=L00114
##ORIENTATION=Laser parallel to -b* (0 -1 0). Fiducial mark perpendicular to laser is parallel to -c [0 0 -1]
50.765, 0.000
52.166, 111.654
53.566, 96.274
54.966, 146.808
56.365, 229.143
57.765, 166.219
59.164, 241.373
60.563, 337.141
61.962, 483.572
63.360, 363.253
64.758, 315.359
66.157, 269.289
67.554, 256.946
68.952, 180.246
70.349, 48.119
71.747, 53.495
73.144, 33.645
74.540, 16.621
75.937, 115.263
77.333, 112.244
78.729, 252.543
80.125, 91.149
81.521, 126.030
82.916, 145.159
84.311, 199.514
85.706, 219.085
87.101, 248.860
88.496, 281.825
89.890, 346.967
91.284, 462.273
92.678, 482.731
94.071, 606.331
95.465, 617.059
96.858, 687.906
98.251, 712.864
99.644, 792.919
101.036, 887.063
102.428, 908.293
103.820, 1134.615
105.212, 1173.056
106.604, 1355.775
107.995, 1459.576
109.387, 1544.418
110.777, 1798.300
112.168, 1837.219
113.559, 2097.177
114.949, 2090.173
116.339, 2083.221
117.729, 1894.310
119.119, 1430.539
120.508, 1315.861
121.897, 1042.244
123.286, 1079.656
124.675, 998.106
126.063, 1011.603
127.452, 1025.134
128.840, 1115.722
130.228, 1181.352
131.615, 1248.988
133.003, 1439.652
134.390, 1461.342
135.777, 1699.052
137.164, 1963.778
138.550, 2234.514
139.937, 2727.249
141.323, 3042.026
142.709, 4024.809
144.094, 4709.594
145.480, 6158.307
146.865, 7801.010
148.250, 10475.715
149.635, 15120.449
151.019, 19665.195
152.403, 28259.941
153.788, 30484.699
155.171, 31159.457
156.555, 26015.096
157.939, 17890.049
159.322, 13146.687
160.705, 8617.191
162.088, 6476.614
163.470, 4717.271
164.853, 3577.940
166.235, 2877.621
167.617, 2112.310
168.998, 1799.007
170.380, 1399.711
171.761, 1255.422
173.142, 1061.140
174.523, 904.915
175.904, 861.760
177.284, 734.545
178.664, 768.461
180.044, 632.605
181.424, 733.931
182.803, 605.917
184.183, 615.714
185.562, 580.682
186.940, 445.563
188.319, 524.615
189.698, 523.120
191.076, 576.697
192.454, 566.726
193.831, 578.981
195.209, 638.941
196.586, 556.677
197.963, 633.501
199.340, 479.746
200.717, 620.692
202.093, 649.812
203.470, 771.202
204.846, 1079.095
206.221, 1122.862
207.597, 1449.918
208.972, 1419.792
210.347, 1663.427
211.722, 1906.198
213.097, 2136.075
214.472, 2630.076
215.846, 2486.807
217.220, 2566.082
218.594, 1972.570
219.967, 1649.865
221.341, 1354.157
222.714, 1037.507
224.087, 1019.470
225.460, 861.454
226.832, 830.340
228.204, 658.659
229.577, 574.452
230.948, 460.829
232.320, 363.258
233.692, 369.716
235.063, 241.208
236.434, 333.154
237.805, 226.874
239.175, 178.080
240.545, 193.221
241.916, 69.958
243.286, 166.667
244.655, 108.615
246.025, 199.207
247.394, 157.915
248.763, 154.035
250.132, 258.775
251.501, 94.650
252.869, 140.550
254.237, 89.467
255.605, 110.605
256.973, 150.423
258.340, 52.277
259.708, 102.094
261.075, 14.987
262.442, 67.014
263.808, 11.848
265.175, 5.234
266.541, 23.170
267.907, 67.225
269.273, 13.845
270.639, 33.308
272.004, 3.165
273.369, 92.677
274.734, 107.781
276.099, 236.673
277.463, 217.516
278.828, 260.793
280.192, 292.646
281.556, 422.615
282.919, 501.622
284.283, 428.472
285.646, 598.498
287.009, 452.386
288.372, 483.338
289.734, 388.221
291.097, 252.076
292.459, 328.997
293.821, 198.833
295.183, 227.272
296.544, 97.328
297.905, 171.152
299.266, 44.201
300.627, 118.019
301.988, 163.062
303.348, 33.876
304.709, 62.837
306.069, 34.725
307.428, 15.582
308.788, 101.642
310.147, 5.570
311.507, 92.472
312.865, 23.247
314.224, 90.232
315.583, 64.002
316.941, 67.122
318.299, 89.958
319.657, 36.700
321.015, 101.726
322.372, 25.548
323.729, 2.157
325.086, 0.970
326.443, 17.249
327.800, 30.854
329.156, 7.236
330.512, 87.389
331.868, 2.072
333.224, 9.683
334.579, 11.446
335.935, 15.147
337.290, 72.738
338.645, 8.149
339.999, 29.423
341.354, 100.063
342.708, 46.625
344.062, 153.173
345.416, 17.551
346.769, 50.973
348.123, 40.782
349.476, 35.268
350.829, 18.745
352.182, 16.720
353.534, 28.716
354.887, 26.379
356.239, 110.792
357.591, 59.292
358.942, 39.307
360.294, 97.062
361.645, 0.589
362.996, 43.932
364.347, 55.466
365.698, 79.791
367.048, 90.165
368.398, 45.834
369.748, 86.315
371.098, 37.917
372.448, 62.174
373.797, 72.423
375.146, 29.336
376.495, 124.884
377.844, 49.461
379.192, 121.698
380.540, 38.985
381.889, 75.368
383.236, 58.526
384.584, 16.983
385.932, 87.160
387.279, 62.363
388.626, 70.579
389.973, 99.683
391.319, 45.718
392.666, 153.341
394.012, 6.417
395.358, 126.845
396.704, 89.870
398.049, 18.975
399.394, 116.017
400.740, 37.446
402.084, 54.891
403.429, 62.867
404.774, 74.920
406.118, 22.874
407.462, 18.924
408.806, 151.992
410.150, 6.127
411.493, 98.431
412.836, 60.312
414.179, 57.327
415.522, 56.212
416.865, 10.073
418.207, 85.394
419.549, 79.214
420.891, 153.938
422.233, 70.747
423.575, 52.066
424.916, 95.146
426.257, 74.780
427.598, 48.200
428.939, 75.990
430.279, 40.063
431.619, 103.015
432.959, 21.123
434.299, 160.816
435.639, 31.493
436.978, 82.267
438.318, 161.986
439.657, 7.761
440.996, 210.799
442.334, 69.408
443.673, 60.155
445.011, 106.823
446.349, 55.416
447.687, 90.357
449.024, 74.899
450.361, 90.780
451.699, 97.295
453.036, 80.899
454.372, 215.713
455.709, 57.812
457.045, 46.844
458.381, 157.303
459.717, 46.782
461.053, 112.007
462.388, 47.372
463.724, 138.225
465.059, 67.604
466.394, 83.936
467.728, 90.552
469.063, 40.677
470.397, 173.268
471.731, 42.123
473.065, 107.382
474.398, 55.900
475.732, 106.131
477.065, 83.580
478.398, 25.649
479.731, 123.948
481.063, 35.542
482.396, 128.728
483.728, 154.504
485.060, 56.484
486.391, 88.391
487.723, 12.570
489.054, 38.548
490.385, 180.233
491.716, 89.385
493.047, 142.200
494.377, 67.218
495.708, 80.049
497.038, 128.169
498.368, 7.798
499.697, 134.481
501.027, 87.425
502.356, 104.421
503.685, 147.573
505.014, 5.522
506.342, 201.167
507.671, 35.254
508.999, 186.029
510.327, 106.981
511.655, 87.632
512.982, 153.219
514.310, 47.898
515.637, 134.551
516.964, 82.586
518.291, 104.345
519.617, 119.310
520.944, 64.107
522.270, 192.495
523.596, 56.485
524.921, 116.146
526.247, 88.883
527.572, 17.605
528.897, 56.176
530.222, 24.990
531.547, 174.493
532.871, 132.083
534.196, 108.793
535.520, 156.096
536.844, 15.811
538.167, 93.282
539.491, 78.869
540.814, 53.265
542.137, 160.797
543.460, 30.242
544.783, 94.496
546.105, 86.006
547.427, 80.417
548.749, 163.845
550.071, 10.311
551.393, 204.299
552.714, 56.731
554.035, 47.140
555.356, 106.542
556.677, 68.929
557.998, 172.481
559.318, 11.159
560.638, 14.149
561.958, 128.329
563.278, 77.528
564.597, 139.761
565.917, 36.833
567.236, 171.277
568.555, 42.528
569.874, 7.443
571.192, 192.668
572.511, 62.756
573.829, 90.930
575.147, 93.968
576.464, 4.996
577.782, 129.121
579.099, 18.795
580.416, 95.563
581.733, 75.559
583.050, 24.796
584.366, 177.859
585.683, 51.172
586.999, 137.914
588.315, 84.819
589.630, 12.818
590.946, 124.798
592.261, 38.468
593.576, 101.561
594.891, 72.244
596.206, 82.266
597.520, 66.183
598.834, 26.349
600.148, 113.868
601.462, 62.606
602.776, 78.542
604.089, 93.387
605.402, 9.960
606.715, 151.032
608.028, 14.719
609.341, 130.557
610.653, 74.306
611.965, 20.970
613.277, 98.942
614.589, 39.051
615.901, 82.651
617.212, 74.399
618.523, 4.072
619.834, 161.777
621.145, 13.815
622.456, 66.256
623.766, 109.862
625.076, 7.361
626.386, 133.021
627.696, 24.307
629.006, 130.011
630.315, 165.668
631.624, 11.818
632.933, 155.786
634.242, 24.741
635.551, 77.310
636.859, 75.399
638.167, 4.843
639.475, 133.503
640.783, 38.915
642.090, 82.344
643.398, 86.048
644.705, 52.357
646.012, 119.554
647.318, 63.632
648.625, 88.127
649.931, 158.092
651.237, 59.408
652.543, 195.569
653.849, 35.878
655.155, 148.151
656.460, 138.174
657.765, 75.424
659.070, 99.818
660.375, 35.080
661.679, 169.287
662.984, 80.799
664.288, 40.985
665.592, 200.302
666.895, 53.459
668.199, 132.603
669.502, 89.371
670.805, 139.494
672.108, 158.364
673.411, 61.749
674.713, 163.734
676.016, 150.897
677.318, 107.964
678.620, 144.853
679.921, 21.929
681.223, 149.757
682.524, 126.036
683.825, 113.027
685.126, 148.772
686.427, 77.809
687.727, 135.436
689.028, 184.688
690.328, 84.623
691.628, 186.547
692.927, 83.589
694.227, 154.122
695.526, 139.287
696.825, 205.282
698.124, 308.941
699.423, 194.800
700.721, 575.335
702.020, 741.128
703.318, 1161.871
704.616, 2722.579
705.913, 3971.376
707.211, 4271.659
708.508, 2436.452
709.805, 1035.143
711.102, 603.688
712.399, 314.594
713.695, 279.205
714.992, 155.176
716.288, 160.549
717.584, 212.931
718.879, 107.962
720.175, 166.586
721.470, 85.329
722.765, 84.366
724.060, 199.051
725.355, 88.378
726.649, 121.627
727.944, 123.279
729.238, 76.772
730.532, 119.372
731.825, 53.063
733.119, 170.179
734.412, 122.772
735.705, 41.593
736.998, 144.151
738.291, 22.765
739.584, 186.035
740.876, 147.568
742.168, 29.353
743.460, 242.863
744.752, 6.694
746.043, 186.424
747.334, 184.892
748.626, 65.289
749.916, 171.735
751.207, 63.059
752.498, 149.950
753.788, 129.226
755.078, 11.371
756.368, 165.785
757.658, 34.015
758.947, 119.106
760.237, 145.442
761.526, 43.405
762.815, 149.786
764.104, 72.761
765.392, 104.268
766.680, 147.472
767.969, 38.442
769.257, 181.850
770.544, 65.910
771.832, 81.144
773.119, 75.333
774.406, 47.705
775.693, 257.235
776.980, 28.023
778.267, 55.063
779.553, 129.267
780.839, 57.067
782.125, 149.250
783.411, 53.124
784.697, 7.289
785.982, 164.625
787.267, 13.344
788.552, 206.477
789.837, 1.631
791.122, 38.603
792.406, 195.215
793.690, 46.233
794.974, 114.794
796.258, 84.551
797.542, 30.520
798.825, 161.387
800.108, 20.145
801.391, 144.106
802.674, 52.896
803.957, 18.223
805.239, 159.698
806.522, 23.577
807.804, 58.310
809.085, 91.896
810.367, 17.765
811.649, 131.776
812.930, 31.513
814.211, 76.341
815.492, 170.022
816.772, 72.853
818.053, 187.583
819.333, 31.861
820.613, 115.929
821.893, 159.635
823.173, 68.592
824.452, 169.052
825.732, 115.771
827.011, 15.482
828.290, 175.988
829.568, 59.684
830.847, 125.370
832.125, 115.156
833.403, 74.829
834.681, 210.133
835.959, 18.810
837.236, 68.459
838.514, 51.211
839.791, 17.847
841.068, 228.373
842.345, 7.993
843.621, 95.605
844.898, 150.820
846.174, 51.418
847.450, 210.932
848.726, 4.604
850.001, 27.200
851.277, 202.940
852.552, 168.532
853.827, 478.121
855.102, 153.705
856.376, 174.282
857.651, 266.855
858.925, 78.516
860.199, 223.078
861.473, 178.093
862.746, 53.647
864.020, 170.209
865.293, 42.909
866.566, 133.459
867.839, 23.034
869.112, 35.601
870.384, 264.169
871.656, 2.739
872.928, 210.295
874.200, 65.850
875.472, 24.675
876.744, 323.774
878.015, 29.667
879.286, 183.771
880.557, 521.274
881.828, 76.781
883.098, 159.159
884.369, 52.650
885.639, 159.920
886.909, 184.402
888.178, 36.880
889.448, 221.107
890.717, 37.583
891.987, 65.722
893.256, 158.188
894.524, 21.717
895.793, 175.915
897.061, 98.396
898.330, 153.649
899.598, 162.129
900.865, 25.608
902.133, 131.949
903.401, 81.420
904.668, 6.253
905.935, 93.206
907.202, 33.661
908.468, 65.773
909.735, 157.230
911.001, 80.568
912.267, 194.843
913.533, 124.250
914.799, 60.439
916.064, 184.849
917.330, 25.155
918.595, 228.559
919.860, 166.958
921.124, 41.113
922.389, 307.506
923.653, 83.771
924.918, 218.096
926.182, 181.393
927.445, 3.578
928.709, 102.956
929.972, 157.876
931.236, 91.093
932.499, 239.468
933.761, 81.689
935.024, 170.062
936.286, 175.265
937.549, 23.238
938.811, 284.600
940.073, 100.636
941.334, 151.998
942.596, 236.652
943.857, 54.958
945.118, 260.378
946.379, 66.188
947.640, 162.521
948.900, 154.830
950.161, 103.646
951.421, 228.974
952.681, 136.010
953.940, 76.334
955.200, 272.505
956.459, 73.125
957.719, 139.443
958.978, 82.744
960.236, 63.935
961.495, 241.250
962.753, 22.270
964.012, 242.580
965.270, 156.656
966.527, 25.919
967.785, 180.225
969.043, 110.473
970.300, 78.775
971.557, 166.857
972.814, 22.158
974.071, 162.454
975.327, 192.082
976.583, 72.377
977.840, 214.771
979.095, 125.777
980.351, 75.195
981.607, 127.385
982.862, 26.677
984.117, 124.023
985.372, 74.278
986.627, 48.568
987.882, 117.803
989.136, 27.035
990.390, 184.256
991.644, 48.275
992.898, 66.561
994.152, 308.541
995.405, 19.911
996.659, 181.381
997.912, 129.004
999.165, 42.293
1000.417, 246.358
1001.670, 26.644
1002.922, 118.937
1004.174, 225.923
1005.426, 86.212
1006.678, 216.502
1007.930, 131.330
1009.181, 39.617
1010.432, 276.042
1011.683, 36.232
1012.934, 233.062
1014.185, 148.839
1015.435, 32.130
1016.685, 291.285
1017.935, 112.810
1019.185, 184.891
1020.435, 217.419
1021.684, 73.004
1022.934, 247.070
1024.183, 127.118
1025.432, 87.445
1026.680, 206.211
1027.929, 67.408
1029.177, 298.892
1030.425, 155.479
1031.673, 72.844
1032.921, 248.208
1034.169, 116.025
1035.416, 196.296
1036.663, 257.677
1037.911, 88.528
1039.157, 254.748
1040.404, 230.139
1041.650, 143.455
1042.897, 419.810
1044.143, 69.170
1045.389, 402.335
1046.634, 722.715
1047.880, 137.502
1049.125, 367.878
1050.371, 188.917
1051.615, 212.519
1052.860, 440.902
1054.105, 194.583
1055.349, 350.421
1056.593, 321.792
1057.837, 133.293
1059.081, 537.632
1060.325, 382.141
1061.568, 462.227
1062.812, 389.579
1064.055, 243.993
1065.298, 417.297
1066.540, 312.638
1067.783, 227.247
1069.025, 536.579
1070.267, 370.972
1071.509, 545.172
1072.751, 623.487
1073.993, 370.901
1075.234, 911.207
1076.475, 847.506
1077.716, 1019.525
1078.957, 1468.812
1080.198, 1678.403
1081.438, 2797.708
1082.679, 5206.998
1083.919, 16146.825
1085.159, 50756.121
1086.398, 53905.398
1087.638, 30794.512
1088.877, 12363.799
1090.116, 4223.078
1091.355, 2182.416
1092.594, 1191.685
1093.833, 718.120
1095.071, 787.387
1096.309, 355.659
1097.547, 502.521
1098.785, 522.781
1100.023, 160.046
1101.260, 488.305
1102.498, 383.557
1103.735, 174.876
1104.972, 512.110
1106.208, 203.346
1107.445, 172.194
1108.681, 310.420
1109.918, 211.638
1111.154, 413.013
1112.389, 251.070
1113.625, 233.793
1114.860, 328.996
1116.096, 184.059
1117.331, 292.648
1118.566, 325.823
1119.800, 67.048
1121.035, 305.289
1122.269, 190.304
1123.503, 111.808
1124.737, 379.004
1125.971, 100.150
1127.205, 317.860
1128.438, 95.985
1129.671, 141.100
1130.904, 381.953
1132.137, 114.938
1133.370, 161.385
1134.602, 396.129
1135.834, 81.172
1137.066, 287.803
1138.298, 119.035
1139.530, 138.062
1140.762, 402.945
1141.993, 201.951
1143.224, 73.944
1144.455, 257.514
1145.686, 71.521
1146.917, 401.827
1148.147, 121.984
1149.377, 35.127
1150.607, 236.260
1151.837, 2.892
1153.067, 165.462
1154.296, 268.989
1155.526, 21.792
1156.755, 207.159
1157.984, 129.969
1159.213, 58.721
1160.441, 279.182
1161.670, 52.562
1162.898, 277.295
1164.126, 288.487
1165.354, 109.438
1166.581, 339.026
1167.809, 86.167
1169.036, 113.696
1170.263, 333.580
1171.490, 24.492
1172.717, 251.152
1173.943, 321.057
1175.170, 4.563
1176.396, 298.456
1177.622, 138.233
1178.848, 196.620
1180.073, 376.211
1181.299, 85.382
1182.524, 204.116
1183.749, 247.426
1184.974, 86.334
1186.199, 284.597
1187.423, 237.631
1188.648, 185.853
1189.872, 345.120
1191.096, 26.003
1192.320, 252.079
1193.543, 321.325
1194.767, 0.438
1195.990, 357.622
1197.213, 60.951
1198.436, 118.962
1199.659, 417.360
1200.881, 145.970
1202.104, 313.910
1203.326, 302.358
1204.548, 150.432
1205.770, 488.308
1206.991, 188.228
1208.213, 96.140
1209.434, 364.028
1210.655, 12.913
1211.876, 300.682
1213.096, 338.614
1214.317, 117.049
1215.537, 394.745
1216.757, 212.934
1217.977, 250.873
1219.197, 368.498
1220.417, 207.111
1221.636, 474.687
1222.855, 312.342
1224.074, 250.546
1225.293, 438.050
1226.512, 168.396
1227.731, 236.193
1228.949, 473.701
1230.167, 113.960
1231.385, 361.806
1232.603, 289.167
1233.820, 250.621
1235.038, 507.924
1236.255, 295.282
1237.472, 233.149
1238.689, 510.404
1239.906, 267.778
1241.122, 385.012
1242.338, 402.229
1243.555, 110.504
1244.771, 417.684
1245.986, 294.846
1247.202, 262.951
1248.417, 510.076
1249.633, 237.417
1250.848, 294.554
1252.063, 461.625
1253.277, 108.853
1254.492, 385.881
1255.706, 262.892
1256.920, 220.299
1258.134, 427.264
1259.348, 134.208
1260.562, 375.378
1261.775, 542.276
1262.988, 169.133
1264.201, 325.967
1265.414, 252.780
1266.627, 249.643
1267.839, 476.396
1269.052, 183.126
1270.264, 260.317
1271.476, 506.963
1272.688, 133.468
1273.899, 330.568
1275.111, 346.941
1276.322, 93.790
1277.533, 610.427
1278.744, 186.717
1279.955, 113.652
1281.165, 529.930
1282.376, 135.939
1283.586, 202.957
1284.796, 439.032
1286.006, 75.135
1287.215, 312.164
1288.425, 328.207
1289.634, 25.979
1290.843, 530.300
1292.052, 171.756
1293.261, 198.122
1294.469, 333.869
1295.678, 2.542
1296.886, 464.851
1298.094, 149.895
1299.302, 105.602
1300.509, 292.229
1301.717, 137.334
1302.924, 57.055
1304.131, 298.365
1305.338, 43.431
1306.545, 149.624
1307.752, 231.433
1308.958, 3.209
1310.164, 172.120
1311.370, 9.817
1312.576, 84.580
1313.782, 420.222
1314.987, 144.895
1316.193, 170.163
1317.398, 224.513
1318.603, 19.502
1319.807, 254.453
1321.012, 148.498
1322.216, 23.336
1323.421, 397.914
1324.625, 32.678
1325.829, 77.396
1327.032, 171.618
1328.236, 43.745
1329.439, 120.834
1330.642, 284.958
1331.845, 40.547
1333.048, 343.896
1334.251, 48.212
1335.453, 102.567
1336.656, 424.349
1337.858, 38.632
1339.060, 232.853
1340.261, 365.612
1341.463, 50.250
1342.664, 443.186
1343.866, 166.938
1345.067, 110.940
1346.267, 454.605
1347.468, 138.539
1348.669, 222.438
1349.869, 436.503
1351.069, 0.335
1352.269, 243.982
1353.469, 247.662
1354.668, 41.392
1355.868, 304.023
1357.067, 217.725
1358.266, 91.346
1359.465, 304.475
1360.664, 138.040
1361.862, 191.506
1363.061, 465.016
1364.259, 48.502
1365.457, 461.843
1366.655, 235.272
1367.852, 98.649
1369.050, 422.000
1370.247, 13.008
1371.444, 180.012
1372.641, 243.388
1373.838, 12.705
1375.035, 149.793
1376.231, 283.378
1377.427, 32.824
1378.623, 437.533
1379.819, 243.033
1381.015, 118.435
1382.211, 483.865
1383.406, 228.648
1384.601, 294.000
1385.796, 529.312
1386.991, 44.508
1388.185, 269.083
1389.380, 414.283
1390.574, 59.267
1391.768, 533.790
1392.962, 208.387
1394.156, 253.326
1395.350, 568.211
1396.543, 222.687
1397.736, 286.916
1398.929, 481.766
1400.122, 165.696
1401.315, 389.231
1402.507, 433.254
1403.700, 32.439
1404.892, 511.105
1406.084, 370.382
1407.276, 284.370
1408.467, 548.475
1409.659, 189.556
1410.850, 282.386
1412.041, 406.000
1413.232, 122.244
1414.423, 484.175
1415.614, 424.524
1416.804, 124.156
1417.994, 667.816
1419.184, 125.337
1420.374, 166.811
1421.564, 699.732
1422.753, 81.457
1423.943, 322.104
1425.132, 627.669
1426.321, 40.211
1427.510, 376.359
1428.698, 256.968
1429.887, 18.499
1431.075, 611.531
1432.263, 186.288
1433.451, 127.683
1434.639, 549.881
1435.827, 92.616
1437.014, 331.973
1438.201, 532.923
1439.388, 14.518
1440.575, 367.078
1441.762, 438.445
1442.949, 9.373
1444.135, 481.901
1445.321, 263.326
1446.507, 259.841
1447.693, 546.670
1448.879, 28.134
1450.064, 352.208
1451.250, 522.977
1452.435, 184.688
1453.620, 386.562
1454.805, 556.005
1455.989, 255.490
1457.174, 756.401
1458.358, 517.585
1459.542, 708.330
1460.726, 1558.353
1461.910, 1469.233
1463.093, 2019.514
1464.277, 2010.006
1465.460, 939.593
1466.643, 969.844
1467.826, 668.618
1469.009, 327.384
1470.191, 606.664
1471.373, 386.496
1472.556, 145.184
1473.738, 743.250
1474.919, 303.837
1476.101, 221.298
1477.283, 730.410
1478.464, 49.190
1479.645, 619.547
1480.826, 434.016
1482.007, 180.504
1483.187, 610.271
1484.368, 280.171
1485.548, 117.182
1486.728, 557.070
1487.908, 156.903
1489.088, 256.727
1490.268, 646.449
1491.447, 26.105
1492.626, 306.119
1493.805, 666.126
1494.984, 36.199
1496.163, 356.335
1497.341, 436.222
1498.520, 136.554
1499.698, 394.046
1500.876, 234.604
1502.054, 185.633
1503.232, 455.876
1504.409, 197.333
1505.586, 239.011
1506.763, 645.838
1507.940, 152.460
1509.117, 233.969
1510.294, 515.307
1511.470, 12.502
1512.647, 429.947
1513.823, 162.880
1514.999, 56.842
1516.174, 426.008
1517.350, 36.439
