##NAMES=Aragonite
##RRUFFID=R040078
##IDEAL CHEMISTRY=CaCO_3_
##LOCALITY=Molina, Aragon, Spain
##OWNER=RRUFF
##SOURCE=University of Arizona Mineral Museum
##DESCRIPTION=Orange pseudohexagonal prisms
##STATUS=The identification of this mineral has been confirmed by X-ray diffraction and chemical analysis
##URL=rruff.info/R040078
##MEASURED CHEMISTRY=Ca_1.00_CO_3_
##PIN_ID=L00344
##ORIENTATION=Laser parallel to a* (1 0 0). Fiducial mark perpendicular to laser is parallel to b [0 1 0]
105.212, 0.000
106.604, 13.023
107.995, 2.720
109.387, 8.255
110.777, 53.102
112.168, 24.771
113.559, 13.023
114.949, 45.059
116.339, 73.319
117.729, 92.394
119.119, 79.973
120.508, 71.826
121.897, 34.781
123.286, 61.699
124.675, 62.458
126.063, 64.950
127.452, 38.085
128.840, 79.784
130.228, 47.981
131.615, 44.628
133.003, 70.696
134.390, 82.153
135.777, 162.983
137.164, 250.182
138.550, 479.717
139.937, 777.548
141.323, 1187.637
142.709, 1717.953
144.094, 1797.470
145.480, 1357.166
146.865, 1033.021
148.250, 883.014
149.635, 1036.132
151.019, 1173.358
152.403, 1318.683
153.788, 1356.098
155.171, 1456.666
156.555, 1281.352
157.939, 1128.144
159.322, 1152.131
160.705, 1176.328
162.088, 1245.564
163.470, 1125.979
164.853, 976.609
166.235, 682.524
167.617, 568.690
168.998, 485.879
170.380, 439.144
171.761, 511.395
173.142, 598.622
174.523, 863.824
175.904, 1256.998
177.284, 1731.145
178.664, 2483.262
180.044, 2978.361
181.424, 3192.438
182.803, 2633.495
184.183, 1978.545
185.562, 1405.572
186.940, 1000.590
188.319, 807.599
189.698, 779.553
191.076, 758.472
192.454, 728.361
193.831, 924.229
195.209, 1029.080
196.586, 1150.919
197.963, 1546.751
199.340, 2110.578
200.717, 3078.417
202.093, 4354.270
203.470, 6547.841
204.846, 9433.623
206.221, 11756.437
207.597, 12769.404
208.972, 10562.220
210.347, 8437.599
211.722, 5248.190
213.097, 3542.940
214.472, 2515.204
215.846, 1754.884
217.220, 1396.571
218.594, 1042.055
219.967, 826.172
221.341, 663.260
222.714, 467.868
224.087, 412.594
225.460, 369.350
226.832, 345.792
228.204, 268.589
229.577, 276.491
230.948, 271.965
232.320, 192.239
233.692, 222.418
235.063, 159.680
236.434, 285.905
237.805, 219.145
239.175, 326.483
240.545, 424.619
241.916, 542.873
243.286, 807.126
244.655, 961.377
246.025, 1179.926
247.394, 1334.198
248.763, 1365.464
250.132, 1387.727
251.501, 1251.000
252.869, 1147.478
254.237, 1071.062
255.605, 1007.379
256.973, 922.624
258.340, 965.879
259.708, 1017.639
261.075, 1025.458
262.442, 900.797
263.808, 714.131
265.175, 578.331
266.541, 377.574
267.907, 232.172
269.273, 251.123
270.639, 187.226
272.004, 176.695
273.369, 190.202
274.734, 245.224
276.099, 205.105
277.463, 212.073
278.828, 232.134
280.192, 193.273
281.556, 277.489
282.919, 346.768
284.283, 280.099
285.646, 317.477
287.009, 187.902
288.372, 274.456
289.734, 194.950
291.097, 140.474
292.459, 148.039
293.821, 154.611
295.183, 73.399
296.544, 61.010
297.905, 85.638
299.266, 55.279
300.627, 9.065
301.988, 73.226
303.348, 35.101
304.709, 97.151
306.069, 39.831
307.428, 0.653
308.788, 29.446
310.147, 16.140
311.507, 74.892
312.865, 16.294
314.224, 11.452
315.583, 41.582
316.941, 7.098
318.299, 37.085
319.657, 43.861
321.015, 27.901
322.372, 68.426
323.729, 48.226
325.086, 30.254
326.443, 41.059
327.800, 36.800
329.156, 4.275
330.512, 34.344
331.868, 44.933
333.224, 43.766
334.579, 15.595
335.935, 21.629
337.290, 11.918
338.645, 38.367
339.999, 34.308
341.354, 62.991
342.708, 64.454
344.062, 57.066
345.416, 61.412
346.769, 27.513
348.123, 41.968
349.476, 13.544
350.829, 80.925
352.182, 43.721
353.534, 36.608
354.887, 12.930
356.239, 69.242
357.591, 54.655
358.942, 34.942
360.294, 54.421
361.645, 13.794
362.996, 6.958
364.347, 106.461
365.698, 50.700
367.048, 47.948
368.398, 91.180
369.748, 38.594
371.098, 25.044
372.448, 7.395
373.797, 70.677
375.146, 63.902
376.495, 52.108
377.844, 88.192
379.192, 56.233
380.540, 45.264
381.889, 81.280
383.236, 23.286
384.584, 61.197
385.932, 82.133
387.279, 55.114
388.626, 126.995
389.973, 78.820
391.319, 61.820
392.666, 110.657
394.012, 74.216
395.358, 117.109
396.704, 65.900
398.049, 33.590
399.394, 80.416
400.740, 30.170
402.084, 141.828
403.429, 50.250
404.774, 69.884
406.118, 70.683
407.462, 129.247
408.806, 138.992
410.150, 27.583
411.493, 148.346
412.836, 25.914
414.179, 105.698
415.522, 99.242
416.865, 47.930
418.207, 47.814
419.549, 83.325
420.891, 139.847
422.233, 120.365
423.575, 66.840
424.916, 127.306
426.257, 12.762
427.598, 42.638
428.939, 76.147
430.279, 23.703
431.619, 158.818
432.959, 55.205
434.299, 127.777
435.639, 42.274
436.978, 81.744
438.318, 182.096
439.657, 131.550
440.996, 168.063
442.334, 93.996
443.673, 96.125
445.011, 103.531
446.349, 122.005
447.687, 114.727
449.024, 73.988
450.361, 119.426
451.699, 109.795
453.036, 94.182
454.372, 154.549
455.709, 1.255
457.045, 105.110
458.381, 114.354
459.717, 115.603
461.053, 136.003
462.388, 35.678
463.724, 147.197
465.059, 36.489
466.394, 141.960
467.728, 70.254
469.063, 78.185
470.397, 119.549
471.731, 90.651
473.065, 76.878
474.398, 68.910
475.732, 61.238
477.065, 109.133
478.398, 48.060
479.731, 80.228
481.063, 45.123
482.396, 143.213
483.728, 124.021
485.060, 41.007
486.391, 62.838
487.723, 76.829
489.054, 46.756
490.385, 145.669
491.716, 76.435
493.047, 74.088
494.377, 47.840
495.708, 52.628
497.038, 129.883
498.368, 58.554
499.697, 60.878
501.027, 52.528
502.356, 80.956
503.685, 74.292
505.014, 71.923
506.342, 20.769
507.671, 62.419
508.999, 76.719
510.327, 60.896
511.655, 114.705
512.982, 112.928
514.310, 117.160
515.637, 136.668
516.964, 58.243
518.291, 58.736
519.617, 60.295
520.944, 55.756
522.270, 127.998
523.596, 37.315
524.921, 78.883
526.247, 73.420
527.572, 17.173
528.897, 28.715
530.222, 24.163
531.547, 37.437
532.871, 47.241
534.196, 54.549
535.520, 56.844
536.844, 77.124
538.167, 120.468
539.491, 104.718
540.814, 139.953
542.137, 81.174
543.460, 31.866
544.783, 114.299
546.105, 66.449
547.427, 81.584
548.749, 135.705
550.071, 35.812
551.393, 67.902
552.714, 14.022
554.035, 50.023
555.356, 68.054
556.677, 119.072
557.998, 52.887
559.318, 67.876
560.638, 124.555
561.958, 2.515
563.278, 134.392
564.597, 46.317
565.917, 16.769
567.236, 54.133
568.555, 103.020
569.874, 44.430
571.192, 97.303
572.511, 33.604
573.829, 104.448
575.147, 51.860
576.464, 17.574
577.782, 106.254
579.099, 84.039
580.416, 82.111
581.733, 115.870
583.050, 99.788
584.366, 88.519
585.683, 12.124
586.999, 68.658
588.315, 53.333
589.630, 1.545
590.946, 124.210
592.261, 41.875
593.576, 58.632
594.891, 61.956
596.206, 96.864
597.520, 61.456
598.834, 45.031
600.148, 13.373
601.462, 0.837
602.776, 62.761
604.089, 43.261
605.402, 11.072
606.715, 96.489
608.028, 42.841
609.341, 56.360
610.653, 48.817
611.965, 50.514
613.277, 122.199
614.589, 38.375
615.901, 63.859
617.212, 59.228
618.523, 19.728
619.834, 103.037
621.145, 6.781
622.456, 86.241
623.766, 6.940
625.076, 24.198
626.386, 115.305
627.696, 9.430
629.006, 58.919
630.315, 25.296
631.624, 108.362
632.933, 69.750
634.242, 7.733
635.551, 121.127
636.859, 26.609
638.167, 114.638
639.475, 36.609
640.783, 21.708
642.090, 53.833
643.398, 108.265
644.705, 45.254
646.012, 56.441
647.318, 0.811
648.625, 137.391
649.931, 104.375
651.237, 82.352
652.543, 69.241
653.849, 18.113
655.155, 188.263
656.460, 2.052
657.765, 141.935
659.070, 40.909
660.375, 29.801
661.679, 108.724
662.984, 14.416
664.288, 79.009
665.592, 193.030
666.895, 59.959
668.199, 29.770
669.502, 62.270
670.805, 3.169
672.108, 62.150
673.411, 80.238
674.713, 157.984
676.016, 63.782
677.318, 155.531
678.620, 106.732
679.921, 44.550
681.223, 69.203
682.524, 73.163
683.825, 100.951
685.126, 9.939
686.427, 77.487
687.727, 157.937
689.028, 50.603
690.328, 121.162
691.628, 172.458
692.927, 105.029
694.227, 79.670
695.526, 103.370
696.825, 218.017
698.124, 289.651
699.423, 334.254
700.721, 592.915
702.020, 817.526
703.318, 1378.042
704.616, 2316.611
705.913, 2817.188
707.211, 2341.538
708.508, 1195.010
709.805, 671.736
711.102, 403.135
712.399, 321.993
713.695, 294.591
714.992, 264.937
716.288, 519.353
717.584, 547.823
718.879, 235.504
720.175, 289.980
721.470, 196.948
722.765, 127.928
724.060, 173.197
725.355, 97.113
726.649, 187.481
727.944, 139.860
729.238, 164.002
730.532, 6.361
731.825, 94.825
733.119, 159.795
734.412, 145.115
735.705, 26.026
736.998, 105.291
738.291, 43.574
739.584, 131.845
740.876, 83.215
742.168, 86.389
743.460, 117.777
744.752, 29.859
746.043, 205.356
747.334, 65.578
748.626, 69.581
749.916, 127.642
751.207, 20.713
752.498, 191.901
753.788, 124.939
755.078, 90.574
756.368, 135.090
757.658, 76.388
758.947, 151.525
760.237, 52.432
761.526, 70.313
762.815, 130.385
764.104, 73.513
765.392, 84.431
766.680, 19.307
767.969, 22.177
769.257, 114.192
770.544, 63.006
771.832, 86.916
773.119, 51.795
774.406, 96.499
775.693, 75.559
776.980, 50.092
778.267, 92.045
779.553, 106.584
780.839, 115.265
782.125, 103.192
783.411, 25.751
784.697, 35.548
785.982, 188.193
787.267, 41.921
788.552, 178.853
789.837, 34.273
791.122, 1.102
792.406, 126.661
793.690, 37.467
794.974, 96.051
796.258, 84.563
797.542, 0.799
798.825, 70.979
800.108, 33.558
801.391, 92.217
802.674, 47.276
803.957, 69.003
805.239, 70.723
806.522, 54.413
807.804, 65.039
809.085, 47.443
810.367, 93.125
811.649, 68.438
812.930, 105.897
814.211, 119.482
815.492, 77.807
816.772, 92.386
818.053, 244.285
819.333, 33.829
820.613, 72.386
821.893, 139.798
823.173, 65.919
824.452, 155.432
825.732, 59.379
827.011, 31.270
828.290, 194.668
829.568, 67.126
830.847, 104.442
832.125, 81.115
833.403, 140.272
834.681, 73.419
835.959, 37.714
837.236, 68.965
838.514, 16.489
839.791, 71.331
841.068, 162.590
842.345, 46.053
843.621, 150.187
844.898, 5.484
846.174, 107.832
847.450, 122.143
848.726, 68.366
850.001, 90.664
851.277, 205.954
852.552, 237.236
853.827, 271.515
855.102, 230.012
856.376, 144.290
857.651, 126.984
858.925, 120.252
860.199, 105.514
861.473, 162.785
862.746, 138.038
864.020, 70.307
865.293, 0.570
866.566, 53.824
867.839, 76.102
869.112, 71.375
870.384, 143.643
871.656, 113.906
872.928, 68.168
874.200, 6.574
875.472, 70.260
876.744, 189.953
878.015, 54.839
879.286, 35.330
880.557, 124.501
881.828, 103.665
883.098, 76.827
884.369, 6.401
885.639, 166.540
886.909, 92.688
888.178, 6.168
889.448, 98.667
890.717, 99.798
891.987, 155.698
893.256, 42.819
894.524, 55.121
895.793, 14.910
897.061, 138.991
898.330, 129.780
899.598, 65.858
900.865, 146.797
902.133, 89.749
903.401, 66.821
904.668, 61.563
905.935, 96.628
907.202, 9.312
908.468, 192.707
909.735, 143.762
911.001, 33.733
912.267, 135.784
913.533, 7.650
914.799, 141.598
916.064, 4.645
917.330, 123.600
918.595, 219.596
919.860, 98.317
921.124, 93.051
922.389, 167.082
923.653, 76.980
924.918, 188.977
926.182, 76.824
927.445, 42.843
928.709, 151.786
929.972, 147.621
931.236, 60.631
932.499, 173.642
933.761, 142.651
935.024, 122.660
936.286, 179.390
937.549, 71.161
938.811, 241.166
940.073, 71.804
941.334, 218.803
942.596, 182.564
943.857, 67.914
945.118, 184.910
946.379, 78.683
947.640, 178.676
948.900, 145.644
950.161, 53.905
951.421, 300.812
952.681, 46.563
953.940, 170.546
955.200, 164.357
956.459, 56.258
957.719, 109.164
958.978, 72.002
960.236, 112.884
961.495, 185.691
962.753, 22.665
964.012, 279.560
965.270, 139.313
966.527, 73.288
967.785, 133.278
969.043, 120.249
970.300, 41.227
971.557, 113.989
972.814, 100.913
974.071, 47.886
975.327, 150.258
976.583, 7.229
977.840, 15.898
979.095, 110.853
980.351, 58.114
981.607, 105.015
982.862, 101.981
984.117, 63.552
985.372, 100.522
986.627, 27.461
987.882, 104.387
989.136, 1.309
990.390, 68.012
991.644, 84.947
992.898, 11.923
994.152, 158.762
995.405, 46.007
996.659, 82.281
997.912, 59.745
999.165, 116.746
1000.417, 203.740
1001.670, 130.789
1002.922, 67.834
1004.174, 245.330
1005.426, 77.625
1006.678, 99.395
1007.930, 13.172
1009.181, 133.863
1010.432, 181.316
1011.683, 38.409
1012.934, 175.712
1014.185, 86.314
1015.435, 173.378
1016.685, 210.046
1017.935, 74.255
1019.185, 321.370
1020.435, 138.785
1021.684, 176.150
1022.934, 253.292
1024.183, 151.009
1025.432, 37.518
1026.680, 160.156
1027.929, 87.699
1029.177, 291.660
1030.425, 139.077
1031.673, 186.221
1032.921, 193.365
1034.169, 140.697
1035.416, 67.590
1036.663, 224.979
1037.911, 142.556
1039.157, 179.104
1040.404, 116.465
1041.650, 233.638
1042.897, 310.825
1044.143, 88.384
1045.389, 332.208
1046.634, 179.311
1047.880, 87.078
1049.125, 344.261
1050.371, 132.009
1051.615, 249.537
1052.860, 266.715
1054.105, 184.020
1055.349, 281.171
1056.593, 218.347
1057.837, 234.864
1059.081, 462.031
1060.325, 439.554
1061.568, 526.620
1062.812, 283.780
1064.055, 301.066
1065.298, 328.222
1066.540, 215.119
1067.783, 312.282
1069.025, 409.428
1070.267, 296.833
1071.509, 463.973
1072.751, 411.106
1073.993, 428.271
1075.234, 625.396
1076.475, 742.637
1077.716, 819.668
1078.957, 1246.780
1080.198, 1554.273
1081.438, 2811.408
1082.679, 5618.548
1083.919, 20656.311
1085.159, 47293.457
1086.398, 45391.004
1087.638, 21608.154
1088.877, 8525.307
1090.116, 3552.555
1091.355, 1859.708
1092.594, 946.854
1093.833, 814.448
1095.071, 601.585
1096.309, 358.716
1097.547, 405.840
1098.785, 332.955
1100.023, 110.054
1101.260, 437.247
1102.498, 294.304
1103.735, 131.823
1104.972, 408.910
1106.208, 175.988
1107.445, 253.433
1108.681, 140.498
1109.918, 167.555
1111.154, 304.633
1112.389, 181.532
1113.625, 119.373
1114.860, 226.431
1116.096, 73.479
1117.331, 160.794
1118.566, 197.825
1119.800, 155.055
1121.035, 262.069
1122.269, 199.075
1123.503, 306.172
1124.737, 293.180
1125.971, 200.016
1127.205, 166.920
1128.438, 23.897
1129.671, 180.862
1130.904, 198.929
1132.137, 75.884
1133.370, 174.109
1134.602, 211.892
1135.834, 68.784
1137.066, 155.815
1138.298, 103.068
1139.530, 110.172
1140.762, 138.301
1141.993, 125.796
1143.224, 43.152
1144.455, 124.787
1145.686, 1.757
1146.917, 230.218
1148.147, 107.255
1149.377, 104.644
1150.607, 172.023
1151.837, 19.104
1153.067, 236.531
1154.296, 161.024
1155.526, 27.852
1156.755, 209.349
1157.984, 41.051
1159.213, 128.041
1160.441, 92.472
1161.670, 58.821
1162.898, 168.221
1164.126, 205.937
1165.354, 116.869
1166.581, 255.634
1167.809, 85.436
1169.036, 102.190
1170.263, 222.900
1171.490, 20.302
1172.717, 147.496
1173.943, 205.245
1175.170, 72.120
1176.396, 88.837
1177.622, 66.690
1178.848, 193.192
1180.073, 210.124
1181.299, 127.076
1182.524, 199.326
1183.749, 126.535
1184.974, 84.770
1186.199, 291.253
1187.423, 138.662
1188.648, 185.127
1189.872, 195.242
1191.096, 72.134
1192.320, 248.252
1193.543, 155.726
1194.767, 52.175
1195.990, 228.337
1197.213, 55.837
1198.436, 111.893
1199.659, 208.083
1200.881, 165.134
1202.104, 271.471
1203.326, 307.774
1204.548, 193.651
1205.770, 359.508
1206.991, 116.771
1208.213, 192.577
1209.434, 318.612
1210.655, 114.865
1211.876, 351.216
1213.096, 297.280
1214.317, 203.188
1215.537, 379.314
1216.757, 145.537
1217.977, 221.163
1219.197, 226.764
1220.417, 202.891
1221.636, 288.441
1222.855, 184.634
1224.074, 350.246
1225.293, 315.724
1226.512, 141.213
1227.731, 407.028
1228.949, 452.645
1230.167, 81.007
1231.385, 476.390
1232.603, 134.641
1233.820, 272.851
1235.038, 408.114
1236.255, 213.701
1237.472, 309.468
1238.689, 454.671
1239.906, 129.855
1241.122, 385.119
1242.338, 290.270
1243.555, 285.401
1244.771, 390.518
1245.986, 245.616
1247.202, 221.113
1248.417, 276.173
1249.633, 141.216
1250.848, 326.251
1252.063, 331.255
1253.277, 156.239
1254.492, 421.206
1255.706, 266.152
1256.920, 241.075
1258.134, 275.972
1259.348, 70.974
1260.562, 326.026
1261.775, 440.852
1262.988, 185.597
1264.201, 330.350
1265.414, 195.073
1266.627, 279.909
1267.839, 414.526
1269.052, 229.117
1270.264, 323.631
1271.476, 388.076
1272.688, 142.485
1273.899, 326.863
1275.111, 300.868
1276.322, 47.891
1277.533, 382.182
1278.744, 36.268
1279.955, 80.958
1281.165, 355.062
1282.376, 238.968
1283.586, 143.548
1284.796, 217.508
1286.006, 41.720
1287.215, 96.112
1288.425, 149.942
1289.634, 35.906
1290.843, 238.018
1292.052, 21.257
1293.261, 215.234
1294.469, 128.836
1295.678, 127.608
1296.886, 196.057
1298.094, 109.098
1299.302, 72.551
1300.509, 245.987
1301.717, 41.024
1302.924, 37.674
1304.131, 195.147
1305.338, 81.706
1306.545, 11.173
1307.752, 160.668
1308.958, 53.641
1310.164, 116.571
1311.370, 57.740
1312.576, 14.901
1313.782, 187.585
1314.987, 29.899
1316.193, 62.802
1317.398, 84.860
1318.603, 27.411
1319.807, 139.995
1321.012, 172.139
1322.216, 24.309
1323.421, 216.339
1324.625, 108.758
1325.829, 101.141
1327.032, 56.705
1328.236, 65.579
1329.439, 7.570
1330.642, 189.329
1331.845, 41.454
1333.048, 183.349
1334.251, 24.619
1335.453, 87.354
1336.656, 248.799
1337.858, 30.692
1339.060, 162.396
1340.261, 223.627
1341.463, 25.404
1342.664, 236.562
1343.866, 197.917
1345.067, 49.586
1346.267, 151.087
1347.468, 152.687
1348.669, 414.253
1349.869, 325.766
1351.069, 27.271
1352.269, 328.385
1353.469, 192.650
1354.668, 134.059
1355.868, 105.063
1357.067, 166.413
1358.266, 197.735
1359.465, 139.020
1360.664, 110.295
1361.862, 251.284
1363.061, 342.518
1364.259, 113.733
1365.457, 344.900
1366.655, 96.086
1367.852, 217.002
1369.050, 318.010
1370.247, 119.490
1371.444, 151.089
1372.641, 191.983
1373.838, 7.152
1375.035, 233.079
1376.231, 6.303
1377.427, 6.178
1378.623, 274.240
1379.819, 154.618
1381.015, 107.789
1382.211, 340.558
1383.406, 253.743
1384.601, 216.894
1385.796, 319.918
1386.991, 242.545
1388.185, 335.581
1389.380, 268.182
1390.574, 141.111
1391.768, 373.156
1392.962, 266.031
1394.156, 238.566
1395.350, 411.096
1396.543, 243.736
1397.736, 306.462
1398.929, 308.604
1400.122, 289.964
1401.315, 361.064
1402.507, 212.613
1403.700, 194.390
1404.892, 365.118
1406.084, 406.040
1407.276, 262.342
1408.467, 322.305
1409.659, 180.400
1410.850, 331.202
1412.041, 261.836
1413.232, 250.457
1414.423, 331.554
1415.614, 279.865
1416.804, 229.092
1417.994, 457.963
1419.184, 16.908
1420.374, 171.949
1421.564, 470.510
1422.753, 69.080
1423.943, 289.107
1425.132, 400.500
1426.321, 57.086
1427.510, 355.734
1428.698, 100.078
1429.887, 59.595
1431.075, 477.530
1432.263, 45.627
1433.451, 125.740
1434.639, 393.806
1435.827, 93.607
1437.014, 401.646
1438.201, 481.591
1439.388, 130.016
1440.575, 429.289
1441.762, 457.666
1442.949, 277.793
1444.135, 316.883
1445.321, 285.489
1446.507, 206.586
1447.693, 435.075
1448.879, 218.784
1450.064, 436.678
1451.250, 315.188
1452.435, 213.161
1453.620, 261.892
1454.805, 400.672
1455.989, 239.302
1457.174, 516.864
1458.358, 295.141
1459.542, 463.279
1460.726, 621.244
1461.910, 449.063
1463.093, 745.941
1464.277, 883.451
1465.460, 700.927
1466.643, 768.043
1467.826, 705.643
1469.009, 353.489
1470.191, 551.403
1471.373, 301.472
1472.556, 337.738
1473.738, 635.576
1474.919, 231.746
1476.101, 227.139
1477.283, 433.012
1478.464, 190.158
1479.645, 606.773
1480.826, 323.809
1482.007, 311.242
1483.187, 438.543
1484.368, 216.031
1485.548, 163.816
1486.728, 442.014
1487.908, 120.197
1489.088, 288.334
1490.268, 486.475
1491.447, 164.607
1492.626, 242.775
1493.805, 571.006
1494.984, 40.691
1496.163, 227.646
1497.341, 596.453
1498.520, 335.430
1499.698, 324.744
1500.876, 154.340
1502.054, 384.223
1503.232, 364.406
1504.409, 194.887
1505.586, 305.666
1506.763, 356.822
1507.940, 208.439
1509.117, 107.969
1510.294, 317.344
1511.470, 13.383
1512.647, 185.564
1513.823, 123.826
1514.999, 160.725
1516.174, 342.762
1517.350, 104.117
1518.526, 99.428
1519.701, 339.459
1520.876, 0.000
##END=



