##NAMES=Aragonite
##RRUFFID=R060195
##IDEAL CHEMISTRY=CaCO_3_
##LOCALITY=Cicov Hill, Horenec, Czech Republic
##OWNER=RRUFF
##SOURCE=Marcus Origlieri
##DESCRIPTION=Colorless transparent elongated prismatic crystal
##STATUS=The identification of this mineral has been confirmed by X-ray diffraction and chemical analysis
##URL=rruff.info/R060195
##MEASURED CHEMISTRY=Ca_1.00_CO_3_
##PIN_ID=L01257
##ORIENTATION=Laser parallel to c* (0 0 1). Fiducial mark perpendicular to laser is parallel to a [1 0 0]
100.8830, 0.0000000E+00
102.1160, 1.839844
103.3490, 12.33984
104.5820, 93.33301
105.8150, 2.665039
107.0470, 28.19629
108.2800, 24.43066
109.5120, 115.4160
110.7440, 160.0342
111.9760, 129.4707
113.2080, 285.1123
114.4400, 247.4824
115.6710, 241.2061
116.9030, 378.9883
118.1340, 298.5869
119.3650, 361.8008
120.5960, 217.4658
121.8270, 313.4297
123.0580, 298.5664
124.2880, 259.0039
125.5190, 352.9258
126.7490, 281.9707
127.9790, 402.8291
129.2090, 551.4434
130.4390, 420.7598
131.6680, 551.7363
132.8980, 520.3301
134.1270, 448.5020
135.3560, 611.2188
136.5850, 778.4482
137.8140, 588.1680
139.0430, 640.3389
140.2710, 593.9160
141.5000, 802.8691
142.7280, 1080.172
143.9560, 1337.803
145.1840, 1515.743
146.4120, 1549.979
147.6390, 1405.496
148.8670, 1061.284
150.0940, 961.3320
151.3210, 901.6289
152.5490, 794.1680
153.7750, 961.9424
155.0020, 1007.943
156.2290, 980.2275
157.4550, 1051.723
158.6810, 933.4189
159.9080, 840.3574
161.1340, 922.5410
162.3590, 949.9053
163.5850, 1129.455
164.8110, 1202.185
166.0360, 887.0879
167.2610, 960.1553
168.4860, 865.3838
169.7110, 810.7949
170.9360, 745.3857
172.1610, 508.1748
173.3850, 588.1289
174.6100, 490.2188
175.8340, 445.2588
177.0580, 725.2852
178.2820, 624.3193
179.5050, 748.3809
180.7290, 803.4785
181.9520, 714.6270
183.1760, 778.8301
184.3990, 810.0938
185.6220, 597.4277
186.8450, 747.8340
188.0670, 756.3311
189.2900, 873.9004
190.5120, 975.5469
191.7340, 1034.272
192.9560, 1146.111
194.1780, 1118.031
195.4000, 1124.030
196.6220, 977.1113
197.8430, 749.2715
199.0640, 792.5117
200.2860, 650.8311
201.5070, 613.2842
202.7270, 563.8154
203.9480, 665.4434
205.1690, 716.1475
206.3890, 765.9277
207.6090, 711.7910
208.8290, 851.7373
210.0490, 848.3799
211.2690, 734.6299
212.4890, 771.7920
213.7080, 677.0264
214.9280, 641.3311
216.1470, 683.7051
217.3660, 642.2002
218.5850, 708.7822
219.8030, 660.9082
221.0220, 747.5791
222.2400, 662.3145
223.4590, 540.1152
224.6770, 274.9814
225.8950, 446.7119
227.1120, 308.7520
228.3300, 374.8564
229.5480, 464.1279
230.7650, 352.3623
231.9820, 499.6680
233.1990, 282.0400
234.4160, 360.4775
235.6330, 467.0303
236.8490, 288.7637
238.0660, 332.4355
239.2820, 355.1602
240.4980, 300.9590
241.7140, 252.7754
242.9300, 398.9990
244.1460, 377.8965
245.3610, 359.8467
246.5770, 396.7031
247.7920, 406.0928
249.0070, 262.0791
250.2220, 264.6016
251.4370, 376.5234
252.6510, 242.7656
253.8660, 304.3105
255.0800, 298.1094
256.2940, 270.1357
257.5080, 337.3662
258.7220, 413.7842
259.9360, 234.3799
261.1490, 352.2744
262.3630, 195.1895
263.5760, 397.2451
264.7890, 371.4316
266.0020, 523.7432
267.2150, 386.1787
268.4270, 349.7422
269.6400, 481.8203
270.8520, 394.5938
272.0640, 479.4648
273.2760, 550.4697
274.4880, 562.5205
275.7000, 401.6572
276.9120, 389.8789
278.1230, 361.1797
279.3340, 387.5557
280.5450, 458.0176
281.7560, 362.5537
282.9670, 397.7393
284.1780, 294.4111
285.3880, 289.1533
286.5980, 372.9590
287.8090, 273.8242
289.0190, 323.8584
290.2290, 232.8418
291.4380, 226.8809
292.6480, 156.9756
293.8570, 399.1328
295.0670, 512.3428
296.2760, 126.6201
297.4850, 243.9473
298.6930, 3.325195
299.9020, 123.0400
301.1110, 93.51367
302.3190, 170.0322
303.5270, 173.5967
304.7350, 172.5996
305.9430, 16.25098
307.1510, 51.51465
308.3580, 148.6777
309.5660, 39.45117
310.7730, 135.2646
311.9800, 194.1221
313.1870, 287.2109
314.3940, 47.14746
315.6010, 226.1348
316.8070, 133.1562
318.0130, 88.96680
319.2200, 12.87695
320.4260, 5.246094
321.6310, 144.7451
322.8370, 148.9365
324.0430, 111.2480
325.2480, 84.50586
326.4540, 111.4082
327.6590, 48.12305
328.8640, 127.4814
330.0680, 197.8740
331.2730, 140.7422
332.4780, 15.19727
333.6820, 117.5146
334.8860, 180.1914
336.0900, 26.27148
337.2940, 79.29492
338.4980, 72.89062
339.7010, 64.51562
340.9050, 47.17090
342.1080, 72.85938
343.3110, 57.57910
344.5140, 156.3301
345.7170, 144.1074
346.9200, 196.9258
348.1220, 32.37207
349.3240, 50.49707
350.5270, 91.39062
351.7290, 22.13672
352.9310, 177.0830
354.1320, 120.0537
355.3340, 5.962891
356.5350, 72.04492
357.7370, 90.09570
358.9380, 145.1504
360.1390, 89.56445
361.3400, 36.66602
362.5400, 77.45508
363.7410, 129.5889
364.9410, 172.7432
366.1410, 217.6865
367.3410, 36.53711
368.5410, 35.64160
369.7410, 87.88086
370.9400, 37.76367
372.1400, 125.5986
373.3390, 99.89648
374.5380, 19.21191
375.7370, 66.54590
376.9360, 86.10254
378.1350, 154.2559
379.3330, 111.2871
380.5310, 36.67969
381.7300, 40.08594
382.9280, 68.49219
384.1260, 66.94727
385.3230, 160.6318
386.5210, 29.07812
387.7180, 17.08398
388.9160, 68.55176
390.1130, 78.96484
391.3100, 35.50684
392.5060, 127.0205
393.7030, 104.5713
394.9000, 203.1592
396.0960, 199.4395
397.2920, 20.43359
398.4880, 153.1201
399.6840, 187.8369
400.8800, 44.58105
402.0750, 154.3525
403.2710, 130.2197
404.4660, 0.1035160
405.6610, 100.9512
406.8560, 53.24512
408.0510, 65.14453
409.2450, 9.066406
410.4400, 125.2070
411.6340, 47.76172
412.8280, 6.212891
414.0220, 170.3105
415.2160, 34.33691
416.4100, 22.61719
417.6030, 82.43848
418.7970, 56.51172
419.9900, 55.32422
421.1830, 32.43359
422.3760, 175.5605
423.5690, 40.38379
424.7610, 73.13379
425.9540, 54.69043
427.1460, 60.47852
428.3380, 80.32422
429.5300, 85.52246
430.7220, 51.73730
431.9140, 8.964844
433.1050, 81.20508
434.2970, 121.4590
435.4880, 103.7256
436.6790, 100.0469
437.8700, 215.3398
439.0610, 28.32422
440.2510, 56.64258
441.4420, 84.97266
442.6320, 80.53320
443.8220, 70.78711
445.0120, 88.11719
446.2020, 55.46289
447.3910, 18.18359
448.5810, 35.16797
449.7700, 191.5312
450.9600, 83.90039
452.1490, 191.2832
453.3370, 125.6719
454.5260, 116.1465
455.7150, 10.41992
456.9030, 93.99609
458.0910, 68.40625
459.2800, 38.86328
460.4670, 3.9059999E-03
461.6550, 129.6406
462.8430, 29.00391
464.0300, 11.49414
465.2180, 93.00586
466.4050, 23.51172
467.5920, 117.0254
468.7790, 132.5469
469.9650, 130.0723
471.1520, 86.60352
472.3380, 135.1426
473.5250, 68.31641
474.7110, 80.19336
475.8970, 16.01758
477.0820, 20.25781
478.2680, 84.76367
479.4540, 149.8555
480.6390, 131.5840
481.8240, 138.3555
483.0090, 97.45312
484.1940, 89.38477
485.3780, 85.93164
486.5630, 90.12305
487.7470, 160.6758
488.9320, 160.9609
490.1160, 69.48047
491.3000, 65.39648
492.4830, 175.9316
493.6670, 8.468750
494.8500, 157.9980
496.0340, 215.5371
497.2170, 155.0801
498.4000, 284.5293
499.5820, 6.078125
500.7650, 127.6172
501.9480, 0.1562500
503.1300, 126.6875
504.3120, 17.21680
505.4940, 214.0898
506.6760, 118.8516
507.8580, 5.623047
509.0390, 39.83203
510.2210, 43.68164
511.4020, 142.0996
512.5830, 43.54688
513.7640, 44.38281
514.9450, 121.8301
516.1250, 101.2773
517.3060, 107.7227
518.4860, 119.1719
519.6660, 54.84961
520.8460, 1.609375
522.0260, 135.8262
523.2060, 57.26172
524.3850, 78.69727
525.5650, 52.83594
526.7440, 37.26758
527.9230, 116.6973
529.1020, 26.12500
530.2810, 107.5449
531.4590, 336.9668
532.6380, 205.5293
533.8160, 237.9414
534.9940, 58.35547
536.1720, 113.7676
537.3500, 100.1758
538.5270, 71.58398
539.7050, 125.3477
540.8820, 105.7676
542.0590, 64.14648
543.2360, 112.5410
544.4130, 14.92969
545.5900, 5.634766
546.7660, 74.53125
547.9430, 37.88086
549.1190, 80.02930
550.2950, 130.3672
551.4710, 13.69922
552.6470, 46.98242
553.8220, 64.29102
554.9980, 36.90039
556.1730, 243.1582
557.3480, 122.4102
558.5230, 142.6152
559.6980, 125.8574
560.8730, 30.11133
562.0470, 192.3555
563.2220, 148.5957
564.3960, 12.17578
565.5700, 37.02734
566.7440, 105.2188
567.9170, 191.8223
569.0910, 4.998047
570.2640, 115.1562
571.4380, 112.3066
572.6110, 219.4512
573.7840, 207.4805
574.9570, 90.60938
576.1290, 186.7441
577.3020, 0.1269530
578.4740, 200.9746
579.6460, 27.65820
580.8180, 145.3965
581.9900, 132.4453
583.1620, 66.50391
584.3330, 253.2480
585.5040, 184.2715
586.6760, 230.8555
587.8470, 129.8652
589.0180, 158.5840
590.1880, 117.4688
591.3590, 151.4531
592.5290, 155.4316
593.7000, 84.40039
594.8700, 22.35938
596.0400, 24.27148
597.2090, 105.6680
598.3790, 16.41406
599.5490, 98.20508
600.7180, 42.07617
601.8870, 24.11719
603.0560, 231.4941
604.2250, 241.3398
605.3940, 243.6191
606.5620, 206.4512
607.7300, 187.1816
608.8990, 245.2246
610.0670, 200.4062
611.2350, 202.4141
612.4020, 190.5938
613.5700, 136.3652
614.7370, 160.8145
615.9050, 64.58398
617.0720, 156.5371
618.2390, 111.1426
619.4060, 155.8887
620.5720, 142.4219
621.7390, 193.1992
622.9050, 170.9199
624.0710, 17.65430
625.2370, 362.3691
626.4030, 47.07422
627.5690, 147.7617
628.7340, 9.378906
629.9000, 230.3086
631.0650, 147.0879
632.2300, 130.3926
633.3950, 274.0117
634.5600, 112.7930
635.7240, 209.2266
636.8890, 286.4941
638.0530, 196.0918
639.2170, 141.9375
640.3810, 287.4883
641.5450, 164.0488
642.7080, 328.2598
643.8720, 501.7969
645.0350, 15.66016
646.1980, 70.16211
647.3610, 147.6543
648.5240, 65.87695
649.6870, 260.6953
650.8490, 100.2676
652.0120, 153.7129
653.1740, 8.048828
654.3360, 226.4238
655.4980, 167.8301
656.6600, 89.22266
657.8210, 338.6699
658.9830, 73.05078
660.1440, 78.57617
661.3050, 287.2910
662.4660, 138.7793
663.6270, 150.1309
664.7870, 104.4648
665.9480, 191.7910
667.1080, 186.7168
668.2680, 200.1719
669.4280, 242.9180
670.5880, 229.2871
671.7480, 244.5625
672.9070, 236.1172
674.0670, 192.1055
675.2260, 196.3613
676.3850, 162.6016
677.5440, 124.8359
678.7030, 55.05664
679.8610, 154.2617
681.0200, 101.6250
682.1780, 135.6328
683.3360, 122.8008
684.4940, 113.8906
685.6520, 160.9766
686.8090, 357.1113
687.9670, 30.81445
689.1240, 154.9199
690.2810, 267.0117
691.4380, 129.8965
692.5950, 163.4570
693.7520, 29.49609
694.9080, 315.0371
696.0650, 376.1602
697.2210, 236.3418
698.3770, 507.4727
699.5330, 550.8438
700.6880, 1041.127
701.8440, 1454.121
702.9990, 1970.104
704.1550, 1910.395
705.3100, 2077.854
706.4650, 1910.855
707.6190, 1813.842
708.7740, 1565.113
709.9290, 1081.037
711.0830, 486.9902
712.2370, 235.1641
713.3910, 303.0508
714.5450, 158.4551
715.6980, 308.3164
716.8520, 144.1289
718.0050, 58.96484
719.1580, 186.1094
720.3110, 139.9219
721.4640, 14.83203
722.6170, 241.4609
723.7700, 241.8633
724.9220, 37.63672
726.0740, 203.3906
727.2260, 294.1348
728.3780, 254.8730
729.5300, 125.5977
730.6810, 178.3555
731.8330, 317.0566
732.9840, 98.74609
734.1350, 252.3477
735.2860, 21.01367
736.4370, 146.6465
737.5880, 71.69336
738.7380, 239.8945
739.8880, 131.1211
741.0390, 68.94531
742.1890, 89.79492
743.3380, 21.29102
744.4880, 166.4961
745.6380, 151.9648
746.7870, 58.42188
747.9360, 166.0762
749.0850, 243.5098
750.2340, 185.9453
751.3830, 272.4023
752.5310, 69.86719
753.6800, 209.2070
754.8280, 105.3750
755.9760, 83.81250
757.1240, 112.3516
758.2720, 25.21680
759.4190, 85.17969
760.5670, 119.5625
761.7140, 228.9102
762.8610, 229.4043
764.0080, 295.9668
765.1550, 275.6582
766.3020, 73.00000
767.4480, 91.24414
768.5950, 272.5391
769.7410, 23.15039
770.8870, 151.6523
772.0330, 184.9141
773.1780, 20.27148
774.3240, 29.51758
775.4690, 99.77344
776.6140, 64.74805
777.7590, 171.5898
778.9040, 148.5742
780.0490, 143.7559
781.1940, 205.1055
782.3380, 202.2656
783.4820, 127.1328
784.6260, 181.2168
785.7700, 42.61133
786.9140, 111.7266
788.0580, 127.0859
789.2010, 124.3047
790.3450, 280.4316
791.4880, 102.1250
792.6310, 157.2266
793.7730, 169.3164
794.9160, 7.392578
796.0590, 259.3770
797.2010, 4.292969
798.3430, 157.2285
799.4850, 84.85352
800.6270, 115.8574
801.7690, 189.8457
802.9100, 157.8262
804.0520, 276.7910
805.1930, 139.7461
806.3340, 249.6895
807.4750, 99.62305
808.6160, 241.5430
809.7560, 182.4492
810.8970, 207.3457
812.0370, 192.6680
813.1770, 222.6191
814.3170, 208.0977
815.4570, 183.4453
816.5960, 210.9180
817.7360, 281.7422
818.8750, 345.3027
820.0140, 236.3516
821.1530, 378.1367
822.2920, 260.2852
823.4310, 174.1074
824.5690, 305.8730
825.7070, 231.1367
826.8460, 364.8809
827.9840, 170.6113
829.1220, 112.5938
830.2590, 126.5586
831.3970, 252.5273
832.5340, 110.2363
833.6710, 92.93750
834.8080, 103.6211
835.9450, 51.70898
837.0820, 361.9121
838.2190, 262.5234
839.3550, 228.3379
840.4910, 134.4883
841.6270, 124.3379
842.7630, 99.65820
843.8990, 120.2227
845.0350, 133.7793
846.1700, 157.3281
847.3060, 119.8672
848.4410, 68.39453
849.5760, 309.9082
850.7100, 23.58984
851.8450, 145.8809
852.9800, 465.3359
854.1140, 241.7910
855.2480, 290.9609
856.3820, 328.4512
857.5160, 104.9902
858.6500, 235.3965
859.7830, 29.80664
860.9170, 251.2051
862.0500, 185.1641
863.1830, 151.5352
864.3160, 339.8945
865.4480, 132.2441
866.5810, 121.5820
867.7130, 136.9082
868.8460, 180.2227
869.9780, 253.5273
871.1100, 287.8223
872.2410, 135.8398
873.3730, 307.1191
874.5050, 250.6621
875.6360, 57.95703
876.7670, 35.21484
877.8980, 7.507813
879.0290, 183.1855
880.1590, 11.61523
881.2900, 141.8164
882.4200, 214.0039
883.5500, 76.33789
884.6800, 133.5000
885.8100, 252.3398
886.9400, 257.0742
888.0690, 131.4023
889.1990, 45.61523
890.3280, 174.7148
891.4570, 261.7773
892.5860, 116.7852
893.7140, 176.8301
894.8430, 251.2305
895.9710, 148.4062
897.1000, 78.57031
898.2280, 36.38867
899.3560, 85.67969
900.4830, 196.6172
901.6110, 132.5469
902.7380, 22.28320
903.8660, 244.1523
904.9930, 201.9297
906.1200, 33.14062
907.2460, 182.0156
908.3730, 115.8945
909.5000, 147.9258
910.6260, 130.2070
911.7520, 37.94727
912.8780, 281.5918
914.0040, 10.38672
915.1290, 242.1641
916.2550, 94.92969
917.3800, 313.7285
918.5050, 121.4707
919.6300, 96.90820
920.7550, 75.87695
921.8800, 74.39844
923.0040, 83.09961
924.1290, 117.7891
925.2530, 188.4629
926.3770, 184.1289
927.5010, 232.7500
928.6250, 169.3984
929.7480, 279.0625
930.8720, 15.34961
931.9950, 293.2754
933.1180, 164.7441
934.2410, 20.34766
935.3640, 626.8047
936.4860, 136.3789
937.6090, 146.9453
938.7310, 333.5020
939.8530, 188.0449
940.9750, 346.5781
942.0970, 158.1035
943.2180, 268.5332
944.3400, 200.0391
945.4610, 156.5332
946.5820, 38.01367
947.7030, 114.4844
948.8240, 104.9414
949.9450, 134.3867
951.0650, 265.8809
952.1860, 149.3672
953.3060, 217.8477
954.4260, 275.3145
955.5460, 219.7715
956.6650, 45.21875
957.7850, 122.6523
958.9040, 248.0762
960.0230, 58.48828
961.1420, 205.8906
962.2610, 297.2832
963.3800, 54.33398
964.4990, 76.94336
965.6170, 166.2637
966.7350, 331.5820
967.8530, 275.8184
968.9710, 352.5547
970.0890, 171.1816
971.2070, 341.1172
972.3240, 152.4004
973.4410, 77.67188
974.5580, 14.93359
975.6750, 146.1777
976.7920, 213.3926
977.9090, 360.4941
979.0250, 253.6719
980.1410, 170.0879
981.2580, 350.2852
982.3740, 135.4277
983.4890, 157.6230
984.6050, 201.0547
985.7200, 328.6855
986.8360, 169.8359
987.9510, 290.9785
989.0660, 179.1113
990.1810, 114.2363
991.2950, 99.40625
992.4100, 130.5371
993.5240, 168.6387
994.6390, 297.1133
995.7530, 90.19531
996.8660, 307.2715
997.9800, 219.3379
999.0940, 337.3926
1000.207, 319.3965
1001.320, 309.7227
1002.433, 276.7539
1003.546, 159.7734
1004.659, 189.7910
1005.772, 76.20703
1006.884, 302.1562
1007.996, 267.1074
1009.108, 116.0742
1010.220, 259.7129
1011.332, 115.1484
1012.444, 140.8789
1013.555, 217.8340
1014.666, 119.0605
1015.777, 281.0039
1016.888, 25.93555
1017.999, 193.6523
1019.110, 34.43555
1020.220, 128.5547
1021.331, 72.24609
1022.441, 127.0176
1023.551, 53.91602
1024.661, 345.6895
1025.770, 57.20312
1026.880, 277.2988
1027.989, 77.01367
1029.098, 71.66211
1030.207, 145.3984
1031.316, 137.1211
1032.425, 30.29102
1033.533, 125.0176
1034.642, 115.7500
1035.750, 203.5059
1036.858, 255.5039
1037.966, 7.839844
1039.073, 294.7988
1040.181, 329.9141
1041.288, 41.33984
1042.396, 127.2637
1043.503, 87.86719
1044.610, 106.4355
1045.716, 197.6250
1046.823, 285.2109
1047.929, 116.1816
1049.036, 203.7500
1050.142, 97.14062
1051.248, 127.6973
1052.353, 22.80664
1053.459, 48.81445
1054.564, 31.07617
1055.670, 155.3242
1056.775, 391.6055
1057.880, 149.0254
1058.985, 147.5195
1060.089, 498.0078
1061.194, 259.4902
1062.298, 353.0254
1063.402, 318.4941
1064.506, 333.0332
1065.610, 338.0234
1066.713, 121.0352
1067.817, 287.8789
1068.920, 269.3281
1070.023, 188.7695
1071.126, 486.2090
1072.229, 280.6387
1073.332, 179.0645
1074.435, 250.6309
1075.537, 265.0449
1076.639, 488.7441
1077.741, 362.1445
1078.843, 575.5859
1079.945, 1152.625
1081.046, 1966.926
1082.148, 3852.184
1083.249, 4972.865
1084.350, 8034.236
1085.451, 16278.79
1086.551, 28191.15
1087.652, 31705.51
1088.752, 22188.85
1089.853, 9799.828
1090.953, 3838.119
1092.053, 1589.447
1093.152, 897.5684
1094.252, 338.8887
1095.351, 380.5137
1096.451, 230.5664
1097.550, 398.6328
1098.649, 323.9277
1099.748, 515.2754
1100.846, 301.7031
1101.945, 183.9844
1103.043, 352.2578
1104.141, 224.5469
1105.239, 118.8281
1106.337, 277.9219
1107.434, 196.6719
1108.532, 189.0645
1109.629, 368.3262
1110.726, 117.5820
1111.823, 61.83008
1112.920, 123.0723
1114.017, 189.5078
1115.113, 41.74219
1116.210, 47.96875
1117.306, 171.1855
1118.402, 315.4121
1119.498, 152.6328
1120.593, 274.2188
1121.689, 283.5273
1122.784, 97.68945
1123.879, 76.78320
1124.974, 308.9961
1126.069, 190.2051
1127.164, 213.4102
1128.259, 187.4707
1129.353, 188.6641
1130.447, 338.8535
1131.541, 41.03906
1132.635, 216.2168
1133.729, 382.3945
1134.822, 125.5645
1135.916, 107.7324
1137.009, 189.8926
1138.102, 7.685547
1139.195, 265.8340
1140.288, 251.9785
1141.380, 405.0918
1142.473, 222.2266
1143.565, 315.3340
1144.657, 332.4648
1145.749, 224.5957
1146.841, 216.7188
1147.932, 124.8906
1149.024, 312.6152
1150.115, 224.7344
1151.206, 245.1582
1152.297, 351.6738
1153.388, 243.5801
1154.479, 97.67773
1155.569, 162.8398
1156.659, 10.95312
1157.750, 12.10547
1158.839, 269.3672
1159.929, 48.68359
1161.019, 83.24414
1162.108, 172.3750
1163.198, 140.5273
1164.287, 27.33594
1165.376, 76.48242
1166.465, 64.42383
1167.553, 472.7578
1168.642, 162.8945
1169.730, 162.1523
1170.818, 275.2832
1171.906, 67.58984
1172.994, 65.50000
1174.082, 381.0840
1175.170, 256.0859
1176.257, 181.1660
1177.344, 161.2832
1178.431, 43.40430
1179.518, 180.5254
1180.605, 247.6426
1181.691, 126.7129
1182.778, 85.95312
1183.864, 24.36719
1184.950, 89.25195
1186.036, 88.56055
1187.122, 266.2559
1188.207, 217.3594
1189.292, 252.4570
1190.378, 389.9531
1191.463, 153.0449
1192.548, 99.86523
1193.632, 383.1699
1194.717, 278.2285
1195.801, 69.27148
1196.886, 217.3086
1197.970, 212.3613
1199.054, 255.4160
1200.137, 262.6699
1201.221, 200.8496
1202.305, 161.9004
1203.388, 207.9492
1204.471, 53.99609
1205.554, 206.0371
1206.637, 20.08008
1207.719, 238.1152
1208.802, 79.14648
1209.884, 69.17188
1210.966, 354.1992
1212.048, 210.2207
1213.130, 230.5820
1214.212, 475.4883
1215.293, 44.90039
1216.374, 259.0957
1217.456, 136.4805
1218.536, 374.3691
1219.617, 248.2559
1220.698, 91.15430
1221.778, 165.1289
1222.859, 65.10156
1223.939, 221.0977
1225.019, 16.98438
1226.099, 199.8652
1227.178, 164.7617
1228.258, 243.6562
1229.337, 78.54688
1230.417, 52.56836
1231.496, 378.4668
1232.574, 345.3164
1233.653, 176.1621
1234.732, 263.0039
1235.810, 85.84375
1236.888, 83.67969
1237.966, 62.51367
1239.044, 290.3438
1240.122, 320.1699
1241.199, 279.9902
1242.277, 259.6016
1243.354, 46.41406
1244.431, 266.2871
1245.508, 123.8066
1246.585, 178.3438
1247.661, 290.7012
1248.738, 241.4922
1249.814, 6.279297
1250.890, 71.06055
1251.966, 141.8340
1253.042, 369.5527
1254.117, 152.6133
1255.193, 251.4844
1256.268, 258.2402
1257.343, 313.9922
1258.418, 241.7402
1259.493, 136.4844
1260.567, 335.2227
1261.642, 467.1172
1262.716, 357.3789
1263.790, 287.1016
1264.864, 179.8242
1265.938, 149.5312
1267.011, 271.2383
1268.085, 299.5586
1269.158, 435.2812
1270.231, 252.0430
1271.304, 479.8203
1272.377, 174.6094
1273.450, 319.3086
1274.522, 294.0273
1275.594, 154.4258
1276.666, 93.10547
1277.738, 224.8164
1278.810, 289.4805
1279.882, 249.1484
1280.953, 257.8203
1282.025, 345.5234
