##NAMES=Aragonite
##RRUFFID=R040078
##IDEAL CHEMISTRY=CaCO_3_
##LOCALITY=Molina, Aragon, Spain
##OWNER=RRUFF
##SOURCE=University of Arizona Mineral Museum
##DESCRIPTION=Orange pseudohexagonal prisms
##STATUS=The identification of this mineral has been confirmed by X-ray diffraction and chemical analysis
##URL=rruff.info/R040078
##MEASURED CHEMISTRY=Ca_1.00_CO_3_
##PIN_ID=L00299
##ORIENTATION=Laser parallel to c* (0 0 1). Fiducial mark perpendicular to laser is parallel to -a [-1 0 0]
113.559, 0.000
114.949, 42.192
116.339, 1.956
117.729, 135.863
119.119, 37.285
120.508, 174.151
121.897, 65.568
123.286, 115.352
124.675, 35.068
126.063, 71.399
127.452, 2.933
128.840, 165.846
130.228, 141.556
131.615, 128.055
133.003, 225.271
134.390, 230.291
135.777, 226.984
137.164, 220.227
138.550, 306.922
139.937, 344.000
141.323, 327.402
142.709, 576.084
144.094, 742.015
145.480, 901.166
146.865, 1133.510
148.250, 1309.028
149.635, 1726.704
151.019, 1969.523
152.403, 2145.618
153.788, 2069.622
155.171, 1901.546
156.555, 1592.401
157.939, 1294.194
159.322, 908.935
160.705, 704.636
162.088, 504.305
163.470, 466.950
164.853, 386.576
166.235, 321.188
167.617, 286.790
168.998, 258.386
170.380, 227.979
171.761, 186.572
173.142, 197.213
174.523, 186.855
175.904, 282.500
177.284, 268.149
178.664, 365.806
180.044, 268.468
181.424, 406.140
182.803, 417.824
184.183, 422.523
185.562, 480.233
186.940, 558.975
188.319, 676.748
189.698, 767.891
191.076, 879.373
192.454, 798.837
193.831, 927.687
195.209, 784.572
196.586, 577.481
197.963, 459.390
199.340, 528.307
200.717, 557.242
202.093, 603.200
203.470, 685.184
204.846, 764.249
206.221, 989.396
207.597, 1274.571
208.972, 1361.774
210.347, 1720.012
211.722, 1935.298
213.097, 2031.614
214.472, 2037.958
215.846, 2065.329
217.220, 1796.728
218.594, 1427.154
219.967, 1221.606
221.341, 1005.083
222.714, 754.584
224.087, 670.117
225.460, 632.681
226.832, 540.268
228.204, 441.877
229.577, 409.507
230.948, 325.918
232.320, 241.574
233.692, 271.264
235.063, 215.972
236.434, 356.691
237.805, 85.423
239.175, 164.168
240.545, 356.925
241.916, 170.717
243.286, 102.520
244.655, 302.334
246.025, 266.162
247.394, 291.009
248.763, 233.868
250.132, 379.736
251.501, 211.988
252.869, 213.872
254.237, 163.784
255.605, 237.727
256.973, 218.679
258.340, 168.652
259.708, 188.741
261.075, 93.732
262.442, 38.738
263.808, 15.754
265.175, 115.214
266.541, 105.034
267.907, 234.983
269.273, 32.926
270.639, 40.862
272.004, 66.185
273.369, 126.109
274.734, 231.981
276.099, 144.870
277.463, 295.782
278.828, 348.593
280.192, 497.599
281.556, 684.732
282.919, 685.075
284.283, 636.536
285.646, 685.095
287.009, 604.750
288.372, 612.479
289.734, 466.274
291.097, 352.127
292.459, 418.011
293.821, 242.962
295.183, 256.896
296.544, 258.925
297.905, 214.988
299.266, 206.081
300.627, 239.201
301.988, 197.346
303.348, 183.539
304.709, 250.754
306.069, 145.571
307.428, 74.643
308.788, 127.909
310.147, 114.202
311.507, 198.510
312.865, 25.849
314.224, 223.182
315.583, 73.526
316.941, 124.878
318.299, 183.232
319.657, 211.589
321.015, 199.948
322.372, 126.311
323.729, 52.676
325.086, 60.054
326.443, 14.436
327.800, 134.819
329.156, 61.207
330.512, 173.600
331.868, 147.994
333.224, 104.398
334.579, 108.882
335.935, 66.284
337.290, 56.695
338.645, 99.106
339.999, 134.600
341.354, 94.018
342.708, 12.438
344.062, 177.859
345.416, 19.371
346.769, 125.049
348.123, 14.471
349.476, 137.947
350.829, 151.521
352.182, 14.954
353.534, 151.335
354.887, 95.555
356.239, 108.748
357.591, 104.947
358.942, 137.149
360.294, 160.357
361.645, 160.569
362.996, 83.785
364.347, 108.007
365.698, 40.438
367.048, 145.461
368.398, 69.694
369.748, 148.932
371.098, 156.173
372.448, 177.417
373.797, 100.790
375.146, 123.038
376.495, 119.375
377.844, 93.466
379.192, 129.807
380.540, 140.063
381.889, 116.321
383.236, 201.581
384.584, 127.841
385.932, 206.102
387.279, 3.364
388.626, 189.652
389.973, 138.913
391.319, 48.929
392.666, 119.190
394.012, 127.766
395.358, 176.019
396.704, 160.271
398.049, 163.522
399.394, 202.772
400.740, 147.142
402.084, 84.591
403.429, 22.160
404.774, 165.078
406.118, 111.514
407.462, 221.022
408.806, 172.258
410.150, 103.491
411.493, 114.350
412.836, 214.580
414.179, 205.468
415.522, 14.692
416.865, 103.145
418.207, 169.365
419.549, 41.732
420.891, 238.034
422.233, 161.240
423.575, 170.441
424.916, 177.159
426.257, 141.356
427.598, 71.317
428.939, 105.357
430.279, 98.308
431.619, 245.373
432.959, 33.799
434.299, 206.158
435.639, 46.135
436.978, 122.310
438.318, 178.520
439.657, 54.693
440.996, 201.158
442.334, 137.396
443.673, 84.737
445.011, 120.919
446.349, 107.227
447.687, 206.081
449.024, 52.262
450.361, 168.590
451.699, 134.767
453.036, 61.052
454.372, 207.440
455.709, 106.393
457.045, 159.770
458.381, 175.869
459.717, 32.109
461.053, 218.203
462.388, 114.293
463.724, 156.984
465.059, 163.063
466.394, 0.562
467.728, 4.498
469.063, 131.552
470.397, 130.167
471.731, 76.348
473.065, 22.380
474.398, 118.595
475.732, 94.624
477.065, 141.037
478.398, 77.102
479.731, 193.307
481.063, 79.310
482.396, 205.424
483.728, 161.765
485.060, 40.056
486.391, 106.140
487.723, 92.115
489.054, 78.242
490.385, 134.631
491.716, 130.597
493.047, 3.436
494.377, 22.791
495.708, 98.724
497.038, 175.498
498.368, 91.414
499.697, 27.600
501.027, 73.717
502.356, 79.632
503.685, 75.655
505.014, 11.557
506.342, 106.367
507.671, 132.533
508.999, 38.418
510.327, 4.328
511.655, 221.833
512.982, 97.681
514.310, 113.916
515.637, 219.746
516.964, 85.700
518.291, 101.535
519.617, 187.362
520.944, 73.181
522.270, 138.989
523.596, 114.791
524.921, 20.887
526.247, 13.333
527.572, 172.422
528.897, 138.424
530.222, 84.179
531.547, 129.923
532.871, 35.663
534.196, 171.392
535.520, 47.111
536.844, 2.820
538.167, 48.512
539.491, 134.190
540.814, 149.863
542.137, 135.524
543.460, 121.175
544.783, 166.817
546.105, 152.448
547.427, 67.757
548.749, 133.367
550.071, 11.031
551.393, 244.542
552.714, 19.895
554.035, 115.637
555.356, 261.157
556.677, 106.669
557.998, 102.168
559.318, 32.196
560.638, 33.252
561.958, 108.690
563.278, 182.258
564.597, 2.321
565.917, 23.076
567.236, 118.846
568.555, 134.256
569.874, 9.664
571.192, 215.317
572.511, 9.304
573.829, 166.050
575.147, 31.319
576.464, 127.117
577.782, 52.553
579.099, 67.870
580.416, 133.630
581.733, 138.925
583.050, 14.506
584.366, 229.934
585.683, 15.185
586.999, 181.001
588.315, 136.295
589.630, 18.181
590.946, 97.130
592.261, 52.436
593.576, 42.207
594.891, 103.037
596.206, 88.949
597.520, 194.169
598.834, 29.376
600.148, 85.231
601.462, 0.411
602.776, 115.837
604.089, 70.979
605.402, 23.440
606.715, 192.053
608.028, 67.129
609.341, 142.483
610.653, 77.532
611.965, 52.875
613.277, 107.980
614.589, 86.065
615.901, 101.080
617.212, 66.547
618.523, 151.533
619.834, 136.505
621.145, 88.538
622.456, 126.771
623.766, 31.644
625.076, 146.275
626.386, 160.643
627.696, 24.528
629.006, 70.263
630.315, 145.225
631.624, 59.969
632.933, 106.851
634.242, 21.583
635.551, 96.690
636.859, 61.855
638.167, 166.539
639.475, 81.208
640.783, 25.874
642.090, 19.490
643.398, 86.597
644.705, 111.181
646.012, 78.777
647.318, 23.712
648.625, 218.703
649.931, 113.501
651.237, 47.097
652.543, 131.633
653.849, 6.104
655.155, 160.706
656.460, 60.677
657.765, 75.016
659.070, 159.956
660.375, 94.579
661.679, 209.542
662.984, 87.045
664.288, 61.385
665.592, 175.707
666.895, 0.038
668.199, 53.099
669.502, 137.741
670.805, 32.189
672.108, 286.415
673.411, 106.105
674.713, 250.300
676.016, 304.600
677.318, 198.763
678.620, 173.095
679.921, 187.317
681.223, 61.432
682.524, 155.396
683.825, 157.831
685.126, 72.075
686.427, 240.150
687.727, 174.180
689.028, 209.277
690.328, 203.172
691.628, 287.351
692.927, 181.334
694.227, 184.469
695.526, 298.399
696.825, 392.771
698.124, 686.693
699.423, 970.606
700.721, 1824.779
702.020, 2438.658
703.318, 3012.948
704.616, 3406.771
705.913, 3010.602
707.211, 2622.664
708.508, 1686.463
709.805, 1007.924
711.102, 581.813
712.399, 375.763
713.695, 249.562
714.992, 103.283
716.288, 233.868
717.584, 287.354
718.879, 142.136
720.175, 216.032
721.470, 178.480
722.765, 60.646
724.060, 234.260
725.355, 160.150
726.649, 83.299
727.944, 236.862
729.238, 208.969
730.532, 132.500
731.825, 39.363
733.119, 122.859
734.412, 256.190
735.705, 39.709
736.998, 373.152
738.291, 76.582
739.584, 109.473
740.876, 193.021
742.168, 31.110
743.460, 324.466
744.752, 107.804
746.043, 178.856
747.334, 262.159
748.626, 135.269
749.916, 274.741
751.207, 18.055
752.498, 271.476
753.788, 184.690
755.078, 17.977
756.368, 221.095
757.658, 83.293
758.947, 216.437
760.237, 39.436
761.526, 49.869
762.815, 272.956
764.104, 75.878
765.392, 228.932
766.680, 71.858
767.969, 124.660
769.257, 223.359
770.544, 206.319
771.832, 39.319
773.119, 212.158
774.406, 305.124
775.693, 208.073
776.980, 44.399
778.267, 197.314
779.553, 59.932
780.839, 62.816
782.125, 285.686
783.411, 145.970
784.697, 98.669
785.982, 281.491
787.267, 15.889
788.552, 236.911
789.837, 49.279
791.122, 31.974
792.406, 274.501
793.690, 157.209
794.974, 139.786
796.258, 182.114
797.542, 7.530
798.825, 185.002
800.108, 32.380
801.391, 50.053
802.674, 32.199
803.957, 74.746
805.239, 117.268
806.522, 109.504
807.804, 202.012
809.085, 103.655
810.367, 73.865
811.649, 248.371
812.930, 10.579
814.211, 83.031
815.492, 5.285
816.772, 42.363
818.053, 299.784
819.333, 161.820
820.613, 164.104
821.893, 224.996
823.173, 46.991
824.452, 89.238
825.732, 251.438
827.011, 75.938
828.290, 286.112
829.568, 108.261
830.847, 280.396
832.125, 92.518
833.403, 114.802
834.681, 166.904
835.959, 118.689
837.236, 100.768
838.514, 92.913
839.791, 55.279
841.068, 286.736
842.345, 5.174
843.621, 236.808
844.898, 98.776
846.174, 120.732
847.450, 162.678
848.726, 124.614
850.001, 36.541
851.277, 278.456
852.552, 141.632
853.827, 73.527
855.102, 215.412
856.376, 37.285
857.651, 249.327
858.925, 241.176
860.199, 173.022
861.473, 304.858
862.746, 206.684
864.020, 108.512
865.293, 90.444
866.566, 122.250
867.839, 204.437
869.112, 216.110
870.384, 287.934
871.656, 10.251
872.928, 81.544
874.200, 153.331
875.472, 134.885
876.744, 476.468
878.015, 31.622
879.286, 90.061
880.557, 191.670
881.828, 83.335
883.098, 144.995
884.369, 53.404
885.639, 287.753
886.909, 219.251
888.178, 100.847
889.448, 231.979
890.717, 133.559
891.987, 144.830
893.256, 96.233
894.524, 81.748
895.793, 189.227
897.061, 170.729
898.330, 142.036
899.598, 203.534
900.865, 135.033
902.133, 306.457
903.401, 117.956
904.668, 78.770
905.935, 350.253
907.202, 41.727
908.468, 192.530
909.735, 83.988
911.001, 165.172
912.267, 156.620
913.533, 157.607
914.799, 328.654
916.064, 140.095
917.330, 231.233
918.595, 152.660
919.860, 203.767
921.124, 94.911
922.389, 306.443
923.653, 157.791
924.918, 358.662
926.182, 299.995
927.445, 141.318
928.709, 232.635
929.972, 353.550
931.236, 124.881
932.499, 345.848
933.761, 336.818
935.024, 228.129
936.286, 229.441
937.549, 180.567
938.811, 441.872
940.073, 121.037
941.334, 492.328
942.596, 213.221
943.857, 214.036
945.118, 335.312
946.379, 306.582
947.640, 337.832
948.900, 219.091
950.161, 338.865
951.421, 280.154
952.681, 208.379
953.940, 289.244
955.200, 330.439
956.459, 251.396
957.719, 332.525
958.978, 173.861
960.236, 175.080
961.495, 356.389
962.753, 102.061
964.012, 353.262
965.270, 103.918
966.527, 194.873
967.785, 365.719
969.043, 303.660
970.300, 114.832
971.557, 486.014
972.814, 157.178
974.071, 108.344
975.327, 379.344
976.583, 30.295
977.840, 21.443
979.095, 557.105
980.351, 158.977
981.607, 229.984
982.862, 311.156
984.117, 72.135
985.372, 164.826
986.627, 216.000
987.882, 197.324
989.136, 98.336
990.390, 210.254
991.644, 197.381
992.898, 121.461
994.152, 158.607
995.405, 129.732
996.659, 210.727
997.912, 412.168
999.165, 193.326
1000.417, 154.824
1001.670, 166.504
1002.922, 32.301
1004.174, 309.789
1005.426, 131.182
1006.678, 362.354
1007.930, 73.520
1009.181, 204.701
1010.432, 116.295
1011.683, 177.475
1012.934, 268.688
1014.185, 190.648
1015.435, 92.020
1016.685, 413.145
1017.935, 42.752
1019.185, 363.992
1020.435, 205.240
1021.684, 306.650
1022.934, 366.949
1024.183, 288.713
1025.432, 140.623
1026.680, 323.041
1027.929, 78.043
1029.177, 448.188
1030.425, 79.211
1031.673, 190.742
1032.921, 371.729
1034.169, 362.973
1035.416, 180.637
1036.663, 381.877
1037.911, 293.734
1039.157, 405.072
1040.404, 276.318
1041.650, 268.314
1042.897, 529.590
1044.143, 21.508
1045.389, 437.545
1046.634, 339.537
1047.880, 391.654
1049.125, 562.898
1050.371, 256.027
1051.615, 327.260
1052.860, 428.480
1054.105, 220.072
1055.349, 421.252
1056.593, 272.447
1057.837, 253.557
1059.081, 594.736
1060.325, 475.707
1061.568, 667.486
1062.812, 268.805
1064.055, 410.582
1065.298, 331.721
1066.540, 382.846
1067.783, 274.121
1069.025, 565.225
1070.267, 286.318
1071.509, 501.709
1072.751, 592.781
1073.993, 363.885
1075.234, 764.938
1076.475, 955.998
1077.716, 947.051
1078.957, 1288.088
1080.198, 1699.318
1081.438, 3170.348
1082.679, 6751.387
1083.919, 20932.418
1085.159, 42263.430
1086.398, 39805.766
1087.638, 20916.783
1088.877, 8097.773
1090.116, 3528.734
1091.355, 1789.721
1092.594, 1040.695
1093.833, 772.488
1095.071, 463.436
1096.309, 474.371
1097.547, 335.660
1098.785, 496.568
1100.023, 157.467
1101.260, 508.762
1102.498, 359.656
1103.735, 70.533
1104.972, 591.467
1106.208, 282.314
1107.445, 113.330
1108.681, 264.148
1109.918, 114.951
1111.154, 455.734
1112.389, 216.453
1113.625, 197.695
1114.860, 298.398
1116.096, 119.150
1117.331, 119.889
1118.566, 440.621
1119.800, 181.326
1121.035, 262.207
1122.269, 262.885
1123.503, 133.971
1124.737, 194.611
1125.971, 344.865
1127.205, 265.539
1128.438, 16.180
1129.671, 286.939
1130.904, 378.660
1132.137, 229.205
1133.370, 28.283
1134.602, 294.727
1135.834, 155.195
1137.066, 286.137
1138.298, 2.248
1139.530, 228.516
1140.762, 299.879
1141.993, 205.633
1143.224, 206.027
1144.455, 324.441
1145.686, 144.744
1146.917, 325.881
1148.147, 136.512
1149.377, 7.723
1150.607, 530.154
1151.837, 29.055
1153.067, 130.301
1154.296, 330.941
1155.526, 154.629
1156.755, 316.844
1157.984, 158.936
1159.213, 268.922
1160.441, 438.928
1161.670, 90.736
1162.898, 200.953
1164.126, 261.283
1165.354, 117.928
1166.581, 303.596
1167.809, 327.176
1169.036, 247.041
1170.263, 247.613
1171.490, 109.277
1172.717, 129.000
1173.943, 369.506
1175.170, 40.082
1176.396, 30.047
1177.622, 321.887
1178.848, 221.930
1180.073, 342.074
1181.299, 332.020
1182.524, 353.119
1183.749, 403.826
1184.974, 164.137
1186.199, 253.629
1187.423, 508.752
1188.648, 138.875
1189.872, 387.379
1191.096, 137.627
1192.320, 476.900
1193.543, 157.918
1194.767, 127.234
1195.990, 546.832
1197.213, 6.252
1198.436, 335.482
1199.659, 454.619
1200.881, 234.084
1202.104, 293.451
1203.326, 482.139
1204.548, 271.195
1205.770, 549.807
1206.991, 379.270
1208.213, 197.805
1209.434, 306.615
1210.655, 195.877
1211.876, 574.918
1213.096, 393.738
1214.317, 312.066
1215.537, 490.410
1216.757, 408.785
1217.977, 418.051
1219.197, 406.244
1220.417, 344.787
1221.636, 432.902
1222.855, 376.076
1224.074, 514.762
1225.293, 412.758
1226.512, 328.646
1227.731, 576.973
1228.949, 585.166
1230.167, 373.271
1231.385, 741.666
1232.603, 89.932
1233.820, 411.328
1235.038, 549.082
1236.255, 447.459
1237.472, 507.330
1238.689, 424.977
1239.906, 183.008
1241.122, 600.596
1242.338, 428.158
1243.555, 296.301
1244.771, 524.059
1245.986, 401.533
1247.202, 291.164
1248.417, 478.574
1249.633, 585.957
1250.848, 373.455
1252.063, 660.771
1253.277, 348.004
1254.492, 455.057
1255.706, 532.203
1256.920, 449.324
1258.134, 566.391
1259.348, 283.418
1260.562, 602.631
1261.775, 729.520
1262.988, 486.016
1264.201, 502.469
1265.414, 399.271
1266.627, 355.852
1267.839, 402.348
1269.052, 288.797
1270.264, 614.916
1271.476, 481.225
1272.688, 287.449
1273.899, 393.906
1275.111, 359.297
1276.322, 113.629
1277.533, 673.186
1278.744, 49.041
1279.955, 33.385
1281.165, 539.084
1282.376, 284.441
1283.586, 130.369
1284.796, 314.900
1286.006, 170.318
1287.215, 106.475
1288.425, 391.783
1289.634, 222.814
1290.843, 432.350
1292.052, 197.107
1293.261, 312.182
1294.469, 166.787
1295.678, 129.205
1296.886, 446.365
1298.094, 150.273
1299.302, 274.504
1300.509, 9.113
1301.717, 43.244
1302.924, 57.721
1304.131, 411.812
1305.338, 93.861
1306.545, 70.354
1307.752, 323.760
1308.958, 102.439
1310.164, 171.475
1311.370, 46.975
1312.576, 0.814
1313.782, 344.582
1314.987, 168.125
1316.193, 51.600
1317.398, 354.398
1318.603, 157.215
1319.807, 180.648
1321.012, 180.244
1322.216, 32.336
1323.421, 185.586
1324.625, 198.457
1325.829, 108.438
1327.032, 64.566
1328.236, 97.508
1329.439, 140.387
1330.642, 312.574
1331.845, 34.924
1333.048, 147.748
1334.251, 90.398
1335.453, 122.107
1336.656, 203.748
1337.858, 46.137
1339.060, 287.732
1340.261, 209.139
1341.463, 241.357
1342.664, 271.631
1343.866, 283.734
1345.067, 195.793
1346.267, 207.359
1347.468, 379.123
1348.669, 261.031
1349.869, 372.598
1351.069, 144.416
1352.269, 426.186
1353.469, 277.814
1354.668, 159.336
1355.868, 200.352
1357.067, 241.957
1358.266, 373.529
1359.465, 334.910
1360.664, 316.426
1361.862, 117.912
1363.061, 529.371
1364.259, 250.779
1365.457, 522.127
1366.655, 26.500
1367.852, 184.949
1369.050, 426.289
1370.247, 71.637
1371.444, 239.514
1372.641, 260.121
1373.838, 274.953
1375.035, 198.363
1376.231, 223.037
1377.427, 2.359
1378.623, 331.311
1379.819, 175.783
1381.015, 29.801
1382.211, 563.707
1383.406, 237.973
1384.601, 352.104
1385.796, 516.053
1386.991, 190.141
1388.185, 273.646
1389.380, 547.592
1390.574, 31.484
1391.768, 605.111
1392.962, 428.346
1394.156, 202.070
1395.350, 605.135
1396.543, 555.135
1397.736, 295.924
1398.929, 546.191
1400.122, 257.281
1401.315, 398.807
1402.507, 490.021
1403.700, 9.969
1404.892, 291.137
1406.084, 446.570
1407.276, 367.576
1408.467, 244.459
1409.659, 540.805
1410.850, 409.285
1412.041, 418.248
1413.232, 304.049
1414.423, 237.318
1415.614, 337.342
1416.804, 175.730
1417.994, 584.537
1419.184, 41.188
1420.374, 60.166
1421.564, 672.613
1422.753, 179.824
1423.943, 301.043
1425.132, 495.375
1426.321, 102.846
1427.510, 319.432
1428.698, 307.771
1429.887, 26.803
1431.075, 384.701
1432.263, 154.086
1433.451, 202.553
1434.639, 701.936
1435.827, 179.232
1437.014, 398.203
1438.201, 667.594
1439.388, 25.266
1440.575, 404.096
1441.762, 692.414
1442.949, 215.990
1444.135, 333.426
1445.321, 370.436
1446.507, 110.377
1447.693, 457.037
1448.879, 160.186
1450.064, 246.836
1451.250, 322.758
1452.435, 219.172
1453.620, 110.742
1454.805, 545.773
1455.989, 211.943
1457.174, 607.762
1458.358, 292.971
1459.542, 402.873
1460.726, 618.684
1461.910, 484.158
1463.093, 460.096
1464.277, 926.170
1465.460, 632.285
1466.643, 597.531
1467.826, 567.900
1469.009, 273.480
1470.191, 529.863
1471.373, 395.068
1472.556, 428.781
1473.738, 654.455
1474.919, 410.430
1476.101, 406.207
1477.283, 699.127
1478.464, 54.633
1479.645, 620.637
1480.826, 346.193
1482.007, 332.359
1483.187, 538.559
1484.368, 264.752
1485.548, 61.164
1486.728, 537.623
1487.908, 124.414
1489.088, 431.295
1490.268, 688.236
1491.447, 285.438
1492.626, 262.910
1493.805, 860.623
1494.984, 21.396
1496.163, 346.922
1497.341, 485.666
1498.520, 314.797
1499.698, 384.340
1500.876, 364.373
1502.054, 394.949
1503.232, 266.174
1504.409, 168.148
1505.586, 62.752
1506.763, 575.387
1507.940, 528.820
1509.117, 23.059
1510.294, 589.129
1511.470, 1.643
1512.647, 422.967
1513.823, 0.000
##END=



