##NAMES=Arfvedsonite
##RRUFFID=R040127
##IDEAL CHEMISTRY=NaNa_2_(Fe^2+^_4_Fe^3+^)Si_8_O_22_(OH)_2_
##LOCALITY=Mont Saint-Hilaire, Rouville County, Quebec, Canada
##OWNER=RRUFF
##SOURCE=Bob Downs
##DESCRIPTION=Black prismatic crystal associated with white analcime, R040128
##STATUS=The identification of this mineral has been confirmed by X-ray diffraction and chemical analysis
##URL=rruff.info/R040127
##MEASURED CHEMISTRY=(Na_0.61_K_0.39_)Na_2.00_(Fe^2+^_2.40_Mg_0.80_Mn_0.75_Ca_0.05_)_&#931;=4_(Fe^3+^_0.60_Al_0.25_Mn_0.15_)(Si_0.99_Ti_0.01_)_8_O_22_((OH)_0.67_F_0.33_)_2_
##PIN_ID=M00446
##ORIENTATION=Laser parallel to (-1 0 -1). Fiducial mark perpendicular to laser is parallel to -b [0 -1 0]
158.4600, 0.0000000E+00
159.6920, 9.304688
160.9250, 571.3867
162.1560, 960.9922
163.3880, 2094.629
164.6200, 2552.602
165.8510, 2856.105
167.0820, 2957.676
168.3130, 2999.504
169.5440, 2497.047
170.7750, 2521.121
172.0050, 1721.035
173.2350, 933.4219
174.4650, 1021.277
175.6950, 715.1719
176.9250, 878.8750
178.1550, 857.4258
179.3840, 928.5391
180.6130, 932.3711
181.8420, 1133.039
183.0710, 1914.000
184.3000, 2222.867
185.5280, 2734.336
186.7570, 3884.691
187.9850, 4337.973
189.2130, 4897.602
190.4400, 6393.863
191.6680, 6753.867
192.8960, 7889.906
194.1230, 8136.387
195.3500, 8688.766
196.5770, 9220.734
197.8030, 9326.480
199.0300, 10147.37
200.2560, 10508.55
201.4830, 11228.65
202.7090, 10653.39
203.9340, 8855.008
205.1600, 6598.758
206.3860, 4989.957
207.6110, 4154.281
208.8360, 3772.418
210.0610, 3511.383
211.2860, 3138.004
212.5100, 3013.867
213.7350, 3040.441
214.9590, 2648.703
216.1830, 2053.535
217.4070, 2114.129
218.6310, 1627.770
219.8540, 1640.547
221.0780, 1607.707
222.3010, 1453.328
223.5240, 1365.402
224.7470, 1216.160
225.9690, 995.8203
227.1920, 868.5039
228.4140, 750.7617
229.6360, 644.0156
230.8580, 631.8750
232.0800, 553.3164
233.3020, 604.4062
234.5230, 645.1641
235.7440, 466.5742
236.9650, 458.5938
238.1860, 295.2070
239.4070, 361.3477
240.6280, 299.9805
241.8480, 298.0508
243.0680, 305.6250
244.2880, 228.1016
245.5080, 287.4922
246.7280, 120.9141
247.9470, 77.57422
249.1660, 188.4961
250.3860, 115.1484
251.6040, 278.4414
252.8230, 308.9023
254.0420, 191.6953
255.2600, 6.390625
256.4790, 95.92578
257.6970, 196.7305
258.9150, 85.09375
260.1320, 338.2656
261.3500, 62.65234
262.5670, 66.17578
263.7840, 57.88672
265.0010, 94.75391
266.2180, 162.1562
267.4350, 46.90234
268.6510, 102.5742
269.8680, 82.67969
271.0840, 48.37891
272.3000, 386.2930
273.5160, 324.9688
274.7310, 195.9023
275.9470, 173.9570
277.1620, 170.4102
278.3770, 53.20703
279.5920, 91.28125
280.8070, 224.8047
282.0210, 111.9883
283.2360, 185.7148
284.4500, 104.1367
285.6640, 103.3438
286.8780, 58.70312
288.0920, 45.53906
289.3050, 28.19922
290.5180, 213.4648
291.7320, 188.3750
292.9450, 241.9766
294.1570, 497.2422
295.3700, 785.2227
296.5830, 1027.996
297.7950, 1128.688
299.0070, 1054.367
300.2190, 1456.074
301.4310, 1618.840
302.6420, 1867.668
303.8540, 2109.570
305.0650, 2581.766
306.2760, 2972.383
307.4870, 3465.855
308.6980, 3598.730
309.9080, 3878.789
311.1190, 4320.938
312.3290, 4630.961
313.5390, 4885.836
314.7490, 5347.500
315.9580, 5478.180
317.1680, 5548.297
318.3770, 5433.086
319.5860, 5611.531
320.7950, 5380.590
322.0040, 5192.258
323.2130, 4947.516
324.4210, 4567.352
325.6290, 4430.762
326.8380, 4044.738
328.0460, 3820.262
329.2530, 4128.320
330.4610, 3503.902
331.6680, 3272.996
332.8760, 3946.609
334.0830, 3273.562
335.2890, 4092.395
336.4960, 2840.566
337.7030, 2816.230
338.9090, 2819.387
340.1150, 2417.066
341.3210, 2697.273
342.5270, 2548.055
343.7330, 3006.402
344.9380, 3199.309
346.1440, 3307.789
347.3490, 3363.828
348.5540, 3572.438
349.7590, 3455.340
350.9630, 3892.875
352.1680, 3978.828
353.3720, 3878.203
354.5760, 4294.992
355.7800, 4206.020
356.9840, 4236.621
358.1870, 4131.645
359.3910, 4300.383
360.5940, 4185.754
361.7970, 4305.328
363.0000, 4123.375
364.2030, 4082.008
365.4050, 3978.199
366.6080, 3751.984
367.8100, 3819.180
369.0120, 3995.672
370.2140, 3835.453
371.4150, 4024.305
372.6170, 3461.668
373.8180, 3868.484
375.0190, 3497.805
376.2200, 3771.602
377.4210, 3172.141
378.6220, 3319.211
379.8220, 3510.738
381.0230, 3366.871
382.2230, 3490.043
383.4230, 3389.129
384.6220, 3291.340
385.8220, 3416.805
387.0220, 3517.371
388.2210, 3443.203
389.4200, 3502.676
390.6190, 3442.594
391.8180, 3473.699
393.0160, 3328.305
394.2150, 3305.137
395.4130, 3303.582
396.6110, 3099.754
397.8090, 3124.387
399.0060, 2908.816
400.2040, 3029.074
401.4010, 3097.898
402.5980, 2973.578
403.7950, 3261.121
404.9920, 2981.723
406.1890, 2934.320
407.3860, 2686.594
408.5820, 2758.711
409.7780, 2841.930
410.9740, 3048.113
412.1700, 2844.289
413.3650, 2949.742
414.5610, 3015.504
415.7560, 3098.324
416.9510, 3070.438
418.1460, 3054.781
419.3410, 2927.082
420.5360, 2891.145
421.7300, 2825.645
422.9240, 2589.723
424.1180, 2582.633
425.3120, 2681.402
426.5060, 2437.492
427.7000, 2394.203
428.8930, 2114.301
430.0860, 2158.707
431.2790, 1885.191
432.4720, 1728.766
433.6650, 1651.113
434.8580, 1540.691
436.0500, 1560.227
437.2420, 1459.961
438.4340, 1490.871
439.6260, 1455.098
440.8180, 1079.160
442.0090, 1047.277
443.2010, 883.1406
444.3920, 746.6992
445.5830, 690.0078
446.7740, 514.6602
447.9640, 328.7930
449.1550, 283.1914
450.3450, 137.5547
451.5350, 131.8750
452.7250, 96.84375
453.9150, 2.406250
455.1050, 58.60547
456.2940, 115.7656
457.4830, 30.87891
458.6720, 30.04688
459.8610, 278.9922
461.0500, 270.9883
462.2390, 420.9453
463.4270, 317.8750
464.6150, 360.7695
465.8040, 241.6328
466.9910, 253.4648
468.1790, 246.5039
469.3670, 314.0703
470.5540, 326.8125
471.7410, 398.5469
472.9280, 609.2617
474.1150, 363.9609
475.3020, 331.6445
476.4890, 794.1914
477.6750, 462.7266
478.8610, 524.7344
480.0470, 633.3750
481.2330, 997.8398
482.4190, 792.5234
483.6040, 1102.258
484.7900, 1170.570
485.9750, 1499.703
487.1600, 1436.465
488.3450, 1462.035
489.5290, 1753.824
490.7140, 1807.727
491.8980, 2433.664
493.0820, 1957.949
494.2660, 2505.375
495.4500, 2414.633
496.6340, 2346.383
497.8170, 2735.156
499.0010, 2799.953
500.1840, 2639.777
501.3670, 3119.641
502.5500, 3055.527
503.7320, 3397.453
504.9150, 3642.410
506.0970, 3650.418
507.2790, 3852.457
508.4610, 4149.547
509.6430, 4294.676
510.8250, 4391.859
512.0060, 4605.090
513.1870, 4721.375
514.3680, 4990.719
515.5490, 5285.047
516.7300, 5545.590
517.9110, 5982.125
519.0910, 6356.742
520.2710, 6739.391
521.4510, 7223.121
522.6310, 7701.922
523.8110, 8288.785
524.9910, 8920.727
526.1700, 9649.742
527.3490, 10349.84
528.5280, 10995.01
529.7070, 11550.25
530.8860, 12180.57
532.0650, 12670.55
533.2430, 13577.50
534.4210, 13529.11
535.5990, 13959.81
536.7770, 14169.70
537.9550, 13459.67
539.1320, 13601.80
540.3100, 13462.04
541.4870, 13020.50
542.6640, 12688.12
543.8410, 12017.02
545.0170, 11637.16
546.1940, 11246.54
547.3700, 10893.24
548.5470, 10448.23
549.7230, 9772.449
550.8980, 9349.910
552.0740, 9201.672
553.2500, 8870.680
554.4250, 8676.156
555.6000, 8441.227
556.7750, 8364.820
557.9500, 8175.578
559.1250, 8108.695
560.2990, 7767.070
561.4730, 7835.680
562.6480, 7916.551
563.8220, 8054.652
564.9950, 8153.371
566.1690, 8081.359
567.3430, 8411.000
568.5160, 8147.770
569.6890, 8254.781
570.8620, 8079.699
572.0350, 7763.887
573.2070, 8076.180
574.3800, 7493.578
575.5520, 7352.121
576.7240, 7070.719
577.8960, 6412.383
579.0680, 6054.094
580.2400, 5699.863
581.4110, 5157.672
582.5830, 4371.520
583.7540, 3898.406
584.9250, 3621.332
586.0950, 3078.293
587.2660, 2714.289
588.4370, 2562.324
589.6070, 2350.395
590.7770, 1880.500
591.9470, 1822.645
593.1170, 1808.820
594.2860, 1502.035
595.4560, 1159.230
596.6250, 1222.516
597.7940, 1008.266
598.9630, 1252.191
600.1320, 909.3086
601.3000, 984.7344
602.4690, 991.1953
603.6370, 752.6836
604.8050, 723.2109
605.9730, 325.7734
607.1410, 408.3711
608.3090, 570.0000
609.4760, 529.6641
610.6430, 224.3633
611.8100, 260.0938
612.9770, 238.8555
614.1440, 339.6523
615.3110, 162.4805
616.4770, 30.66016
617.6430, 93.77734
618.8090, 45.89844
619.9750, 26.00391
621.1410, 89.06641
622.3070, 282.1367
623.4720, 238.2734
624.6370, 249.4648
625.8020, 200.7148
626.9670, 299.0039
628.1320, 207.3711
629.2970, 62.78906
630.4610, 190.1992
631.6250, 254.6484
632.7890, 100.1641
633.9530, 127.6367
635.1170, 122.2305
636.2810, 66.21094
637.4440, 60.67969
638.6070, 226.1719
639.7700, 86.42188
640.9330, 438.9336
642.0960, 650.9844
643.2590, 730.0977
644.4210, 278.0781
645.5830, 511.9414
646.7450, 470.9609
647.9070, 418.7305
649.0690, 749.1836
650.2310, 963.4844
651.3920, 1269.238
652.5530, 1186.016
653.7140, 1491.812
654.8750, 1738.633
656.0360, 2071.477
657.1970, 1939.332
658.3570, 2592.211
659.5170, 3121.102
660.6770, 3767.016
661.8370, 4602.941
662.9970, 5308.887
664.1570, 6312.273
665.3160, 7288.820
666.4750, 8492.812
667.6340, 9684.812
668.7930, 11003.83
669.9520, 12356.34
671.1110, 13545.42
672.2690, 14548.51
673.4270, 15547.29
674.5850, 16334.37
675.7430, 16396.07
676.9010, 15956.16
678.0590, 15072.93
679.2160, 13995.76
680.3730, 13209.50
681.5300, 10801.34
682.6870, 9456.215
683.8440, 7790.262
685.0010, 6407.516
686.1570, 5538.160
687.3130, 4875.969
688.4690, 4209.867
689.6250, 4025.664
690.7810, 3575.086
691.9370, 3378.559
693.0920, 2820.152
694.2470, 2750.934
695.4020, 2617.262
696.5570, 2400.086
697.7120, 2622.141
698.8670, 2644.160
700.0210, 2669.047
701.1750, 2689.086
702.3290, 2640.098
703.4830, 2491.152
704.6370, 2686.023
705.7910, 2820.164
706.9440, 3175.789
708.0970, 3499.168
709.2510, 2729.648
710.4030, 3174.770
711.5560, 2670.258
712.7090, 2171.789
713.8610, 2623.348
715.0140, 2760.758
716.1660, 2304.965
717.3180, 2384.086
718.4690, 2151.152
719.6210, 2019.168
720.7730, 1978.125
721.9240, 2171.031
723.0750, 1982.879
724.2260, 2070.668
725.3770, 1917.402
726.5270, 2103.086
727.6780, 1794.707
728.8280, 1485.270
729.9780, 1672.777
731.1280, 2136.227
732.2780, 1870.551
733.4280, 1906.953
734.5770, 1746.230
735.7260, 1559.445
736.8760, 1456.602
738.0250, 1568.695
739.1730, 1345.738
740.3220, 1358.715
741.4700, 1587.637
742.6190, 1139.492
743.7670, 1211.289
744.9150, 1379.023
746.0630, 1336.695
747.2100, 1337.309
748.3580, 1239.855
749.5050, 1219.348
750.6520, 1327.773
751.7990, 1280.133
752.9460, 1203.434
754.0930, 1145.672
755.2390, 1068.039
756.3860, 1246.219
757.5320, 1231.898
758.6780, 1279.883
759.8240, 1290.219
760.9690, 1300.793
762.1150, 1311.918
763.2600, 1330.953
764.4060, 1314.719
765.5510, 1374.215
766.6950, 1369.844
767.8400, 1394.625
768.9850, 1337.379
770.1290, 1423.488
771.2730, 1359.203
772.4170, 1299.723
773.5610, 1396.371
774.7050, 1241.957
775.8480, 1288.766
776.9920, 1057.547
778.1350, 1274.484
779.2780, 1274.359
780.4210, 1248.180
781.5640, 1393.938
782.7060, 1234.633
783.8490, 1198.270
784.9910, 1232.844
786.1330, 1354.359
787.2750, 1259.812
788.4170, 1393.207
789.5580, 1265.531
790.7000, 1028.805
791.8410, 1144.020
792.9820, 1087.164
794.1230, 1079.250
795.2640, 963.2773
796.4040, 1018.246
797.5450, 888.1523
798.6850, 915.9961
799.8250, 746.7812
800.9650, 791.5039
802.1050, 738.1641
803.2450, 594.7656
804.3840, 523.3047
805.5230, 397.4258
806.6630, 278.7109
807.8020, 227.5508
808.9400, 145.8281
810.0790, 245.0156
811.2170, 430.1328
812.3560, 196.0156
813.4940, 453.1641
814.6320, 130.9180
815.7700, 10.77734
816.9070, 36.66797
818.0450, 55.28906
819.1820, 232.0859
820.3190, 236.1562
821.4560, 336.4922
822.5930, 344.1562
823.7300, 444.1406
824.8670, 224.5117
826.0030, 416.1367
827.1390, 476.1289
828.2750, 208.5117
829.4110, 197.1445
830.5470, 155.0117
831.6820, 278.1016
832.8180, 145.4766
833.9530, 455.0547
835.0880, 139.0000
836.2230, 172.1484
837.3580, 305.5195
838.4920, 213.1758
839.6270, 90.06641
840.7610, 59.12500
841.8950, 67.33594
843.0290, 274.3086
844.1630, 95.89453
845.2960, 307.4141
846.4300, 67.12109
847.5630, 233.2031
848.6960, 101.4805
849.8290, 150.3086
850.9620, 193.7266
852.0940, 223.7109
853.2270, 282.6523
854.3590, 331.5430
855.4910, 545.3906
856.6230, 379.1953
857.7550, 533.9531
858.8870, 571.6758
860.0180, 282.3516
861.1500, 614.9844
862.2810, 743.5820
863.4120, 663.1367
864.5430, 955.6523
865.6730, 1013.449
866.8040, 1019.129
867.9340, 1360.969
869.0640, 1037.336
870.1940, 1300.664
871.3240, 1340.957
872.4540, 1478.211
873.5830, 1209.438
874.7130, 1729.629
875.8420, 1943.789
876.9710, 2381.918
878.1000, 2251.016
879.2290, 2352.082
880.3570, 2157.117
881.4860, 2669.125
882.6140, 2632.102
883.7420, 2671.051
884.8700, 3057.977
885.9980, 2967.871
887.1250, 2882.738
888.2530, 2655.586
889.3800, 3305.406
890.5070, 3233.203
891.6340, 3410.984
892.7610, 3346.754
893.8880, 3134.508
895.0140, 3343.246
896.1400, 3253.957
897.2670, 3269.297
898.3930, 3337.527
899.5180, 3317.336
900.6440, 3393.168
901.7700, 3435.035
902.8950, 3445.465
904.0200, 3528.812
905.1450, 3469.719
906.2700, 3577.656
907.3950, 3556.609
908.5190, 3401.570
909.6440, 3324.555
910.7680, 3367.520
911.8920, 3186.477
913.0160, 3053.426
914.1400, 3036.367
915.2630, 3082.312
916.3870, 2973.250
917.5100, 3269.180
918.6330, 3085.109
919.7560, 3006.035
920.8790, 2605.969
922.0010, 2799.902
923.1240, 2855.863
924.2460, 2890.828
925.3680, 2544.793
926.4900, 2908.754
927.6120, 2466.723
928.7340, 2477.727
929.8550, 2644.113
930.9760, 2731.766
932.0980, 2919.805
933.2190, 2643.844
934.3390, 2726.887
935.4600, 2715.953
936.5810, 2759.023
937.7010, 2715.105
938.8210, 2666.211
939.9410, 2575.320
941.0610, 2574.480
942.1810, 2790.172
943.3010, 2859.309
944.4200, 3231.457
945.5390, 3015.938
946.6580, 3293.148
947.7770, 3313.750
948.8960, 3355.016
950.0150, 3316.621
951.1330, 3610.215
952.2510, 3752.906
953.3690, 3300.531
954.4870, 3233.148
955.6050, 3508.633
956.7230, 3774.922
957.8400, 3765.879
958.9580, 3867.688
960.0750, 4008.445
961.1920, 4330.328
962.3090, 4364.676
963.4250, 4747.047
964.5420, 4580.316
965.6580, 4979.434
966.7740, 5019.020
967.8900, 5156.137
969.0060, 5620.043
970.1220, 5980.004
971.2380, 6062.137
972.3530, 6301.648
973.4680, 6708.246
974.5830, 6512.363
975.6980, 6377.719
976.8130, 6525.863
977.9280, 6710.551
979.0420, 6295.496
980.1560, 6593.352
981.2710, 6213.590
982.3850, 6269.465
983.4980, 6263.320
984.6120, 5780.156
985.7260, 5684.156
986.8390, 5418.395
987.9520, 5330.730
989.0650, 5112.137
990.1780, 4954.605
991.2910, 4610.207
992.4030, 4627.887
993.5160, 4195.594
994.6280, 4426.074
995.7400, 4516.129
996.8520, 4473.297
997.9640, 3899.410
999.0750, 4011.520
1000.187, 3848.766
1001.298, 3674.914
1002.409, 3883.824
1003.520, 3387.742
1004.631, 3669.379
1005.741, 3192.039
1006.852, 3408.777
1007.962, 3456.598
1009.072, 3431.492
1010.182, 3756.461
1011.292, 3468.508
1012.402, 3531.641
1013.511, 3723.848
1014.621, 3659.133
1015.730, 3529.500
1016.839, 3634.797
1017.948, 3827.477
1019.056, 3686.078
1020.165, 3677.777
1021.273, 3737.559
1022.382, 3580.414
1023.490, 3418.723
1024.598, 3750.371
1025.706, 3525.469
1026.813, 3897.672
1027.921, 3782.148
1029.028, 3656.328
1030.135, 3699.805
1031.242, 3854.375
1032.349, 3939.062
1033.456, 3866.832
1034.562, 4137.773
1035.668, 4070.801
1036.775, 4258.938
1037.881, 4300.156
1038.987, 4472.723
1040.092, 4813.855
1041.198, 4822.926
1042.303, 5066.273
1043.408, 4935.945
1044.514, 4958.719
1045.618, 4847.234
1046.723, 4945.508
1047.828, 5132.707
1048.932, 5081.809
1050.037, 5211.211
1051.141, 5102.973
1052.245, 5167.324
1053.349, 5297.816
1054.452, 5455.340
1055.556, 5487.176
1056.659, 5569.855
1057.762, 5482.645
1058.865, 5613.266
1059.968, 5425.562
1061.071, 5383.988
1062.174, 5585.125
1063.276, 5864.672
1064.378, 5835.969
1065.480, 5882.352
1066.582, 5987.812
1067.684, 6328.539
1068.786, 6525.160
1069.887, 6429.312
1070.988, 6417.574
1072.090, 6480.438
1073.191, 6318.156
1074.291, 6180.188
1075.392, 6028.293
1076.493, 6154.488
1077.593, 6089.777
1078.693, 6155.520
1079.793, 5906.984
1080.893, 6022.020
1081.993, 6044.684
1083.092, 5983.871
1084.192, 6031.793
1085.291, 5817.453
1086.390, 5883.152
1087.489, 6084.742
1088.588, 5960.328
1089.686, 5863.629
1090.785, 6012.648
1091.883, 6298.129
1092.981, 6347.703
1094.079, 6511.008
1095.177, 6524.988
1096.275, 6640.062
1097.373, 6302.938
1098.470, 6320.926
1099.567, 6384.508
1100.664, 6461.320
1101.761, 6353.363
1102.858, 6581.141
1103.954, 6230.273
1105.051, 6100.273
1106.147, 6231.207
1107.243, 5833.188
1108.339, 5938.188
1109.435, 6179.387
1110.531, 5975.426
1111.626, 5797.539
1112.722, 5870.184
1113.817, 5652.574
1114.912, 5686.414
1116.007, 5511.844
1117.101, 5145.398
1118.196, 5276.023
1119.290, 5295.703
1120.385, 4909.449
1121.479, 4856.258
1122.573, 4716.367
1123.666, 4766.008
1124.760, 4453.996
1125.853, 4505.047
1126.947, 4432.160
1128.040, 4089.328
1129.133, 4106.555
1130.226, 4034.836
1131.318, 3762.168
1132.411, 3758.551
1133.503, 3674.051
1134.596, 3690.574
1135.688, 3347.121
1136.780, 3502.715
1137.871, 3082.363
1138.963, 3308.633
1140.054, 3119.375
1141.146, 2878.168
1142.237, 2869.004
1143.328, 2595.039
1144.419, 2621.973
1145.509, 2130.500
1146.600, 2317.887
1147.690, 2363.512
1148.780, 2276.250
1149.870, 1657.887
1150.960, 1728.793
1152.050, 1521.480
1153.139, 1303.082
1154.229, 1467.246
1155.318, 926.4570
1156.407, 1084.770
1157.496, 969.0234
1158.585, 976.0664
1159.674, 479.7344
1160.762, 668.4336
1161.850, 506.8867
1162.939, 352.4688
1164.027, 181.4297
1165.114, 280.9062
1166.202, 152.5430
1167.290, 234.8086
1168.377, 95.88672
1169.464, 23.07812
1170.551, 56.24609
1171.638, 8.859375
1172.725, 27.85938
1173.812, 60.40625
1174.898, 47.94141
1175.984, 48.91016
1177.071, 8.054688
1178.157, 85.78516
1179.242, 200.2031
1180.328, 17.28125
1181.414, 36.25391
1182.499, 252.7148
1183.584, 130.6992
1184.669, 430.9688
1185.754, 247.9609
1186.839, 5.484375
1187.924, 152.5430
1189.008, 43.87109
1190.092, 21.86719
1191.177, 239.3750
1192.260, 260.9844
1193.344, 170.6055
1194.428, 142.8477
1195.512, 315.5469
1196.595, 355.7070
1197.678, 135.5820
1198.761, 58.89844
1199.844, 21.47266
1200.927, 112.7305
1202.009, 178.2734
1203.092, 235.8633
1204.174, 49.25391
1205.256, 55.07422
1206.338, 189.3281
1207.420, 46.30859
1208.502, 11.28125
1209.583, 209.8789
1210.665, 135.8008
1211.746, 30.94922
1212.827, 88.10547
1213.908, 65.21484
1214.988, 42.03125
1216.069, 66.75391
1217.149, 105.2969
1218.230, 212.5977
1219.310, 134.6680
1220.390, 89.34766
1221.470, 86.73828
1222.549, 15.83594
1223.629, 304.2734
1224.708, 194.6016
1225.787, 26.48047
1226.866, 63.75000
1227.945, 2.570313
1229.024, 146.9688
1230.103, 5.820313
1231.181, 22.39062
1232.259, 52.27344
1233.337, 71.27344
1234.415, 127.0156
1235.493, 152.5117
1236.571, 116.5312
1237.648, 144.1523
1238.726, 6.457031
1239.803, 131.0547
1240.880, 258.5977
1241.957, 97.11328
1243.034, 284.5625
1244.110, 50.02734
1245.187, 176.4609
1246.263, 65.19141
1247.339, 22.73438
1248.415, 238.5977
1249.491, 85.90234
1250.566, 215.9180
1251.642, 159.8398
1252.717, 28.34766
1253.793, 300.7500
1254.868, 168.2109
1255.943, 404.3750
1257.017, 145.6602
1258.092, 531.1523
1259.166, 306.0273
1260.241, 145.3047
1261.315, 22.89453
1262.389, 21.62891
1263.462, 130.5586
1264.536, 186.9219
1265.610, 296.3555
1266.683, 679.7578
1267.756, 73.12500
1268.829, 146.4414
1269.902, 205.7148
1270.975, 307.9453
1272.048, 97.14062
1273.120, 297.2773
1274.192, 184.3789
1275.264, 98.43359
1276.336, 294.4336
1277.408, 180.3906
1278.480, 235.3008
1279.551, 62.16797
1280.623, 221.9609
1281.694, 274.7539
1282.765, 283.4297
1283.836, 408.0938
1284.907, 265.7109
1285.977, 44.28125
1287.048, 296.7539
1288.118, 82.18359
1289.188, 67.51562
1290.258, 99.74219
1291.328, 0.8281250
1292.398, 204.7969
1293.467, 216.2891
1294.537, 326.4648
1295.606, 16.16406
1296.675, 219.7656
1297.744, 82.32422
1298.813, 304.5703
1299.882, 109.2734
1300.950, 213.6211
1302.018, 143.6172
1303.086, 105.8516
1304.155, 257.0000
1305.222, 426.4375
1306.290, 271.4609
1307.358, 391.9531
1308.425, 236.9023
1309.492, 425.5703
1310.559, 214.9102
1311.626, 187.6914
1312.693, 236.3594
1313.760, 422.0078
1314.826, 186.4805
1315.893, 381.8750
1316.959, 118.3281
1318.025, 218.9609
1319.091, 123.9219
1320.157, 260.7734
1321.222, 270.1055
