##NAMES=Arfvedsonite
##RRUFFID=R040127
##IDEAL CHEMISTRY=NaNa_2_(Fe^2+^_4_Fe^3+^)Si_8_O_22_(OH)_2_
##LOCALITY=Mont Saint-Hilaire, Rouville County, Quebec, Canada
##OWNER=RRUFF
##SOURCE=Bob Downs
##DESCRIPTION=Black prismatic crystal associated with white analcime, R040128
##STATUS=The identification of this mineral has been confirmed by X-ray diffraction and chemical analysis
##URL=rruff.info/R040127
##MEASURED CHEMISTRY=(Na_0.61_K_0.39_)Na_2.00_(Fe^2+^_2.40_Mg_0.80_Mn_0.75_Ca_0.05_)_&#931;=4_(Fe^3+^_0.60_Al_0.25_Mn_0.15_)(Si_0.99_Ti_0.01_)_8_O_22_((OH)_0.67_F_0.33_)_2_
##PIN_ID=M00441
##ORIENTATION=Laser parallel to a* (1 0 0). Fiducial mark perpendicular to laser is parallel to -b [0 -1 0]
176.9250, 0.0000000E+00
178.1550, 11.54688
179.3840, 80.24805
180.6130, 2.656250
181.8420, 240.3809
183.0710, 686.3672
184.3000, 857.3164
185.5280, 1511.617
186.7570, 2309.789
187.9850, 2809.850
189.2130, 3091.453
190.4400, 3740.566
191.6680, 4098.686
192.8960, 5251.842
194.1230, 5697.051
195.3500, 5943.172
196.5770, 6685.912
197.8030, 6760.441
199.0300, 6931.230
200.2560, 7824.494
201.4830, 8365.926
202.7090, 8467.639
203.9340, 7231.078
205.1600, 4821.443
206.3860, 3474.693
207.6110, 2702.293
208.8360, 2208.086
210.0610, 2138.771
211.2860, 1723.777
212.5100, 2000.248
213.7350, 1573.506
214.9590, 1618.137
216.1830, 1898.502
217.4070, 1398.008
218.6310, 1338.477
219.8540, 820.9434
221.0780, 862.9824
222.3010, 764.4805
223.5240, 875.9160
224.7470, 739.2363
225.9690, 763.5391
227.1920, 882.5488
228.4140, 1087.145
229.6360, 1303.209
230.8580, 1671.840
232.0800, 1860.215
233.3020, 2193.820
234.5230, 2462.627
235.7440, 2666.889
236.9650, 2893.248
238.1860, 2849.652
239.4070, 2754.281
240.6280, 2887.611
241.8480, 3072.586
243.0680, 3089.490
244.2880, 2818.461
245.5080, 3055.953
246.7280, 3084.619
247.9470, 2893.389
249.1660, 3007.809
250.3860, 2910.684
251.6040, 2784.484
252.8230, 2817.814
254.0420, 2789.117
255.2600, 2701.828
256.4790, 2379.137
257.6970, 2360.711
258.9150, 2220.559
260.1320, 2075.584
261.3500, 2100.109
262.5670, 1812.178
263.7840, 1834.047
265.0010, 1741.457
266.2180, 1407.430
267.4350, 1364.283
268.6510, 1163.004
269.8680, 1073.576
271.0840, 891.9902
272.3000, 722.2324
273.5160, 398.2988
274.7310, 254.1719
275.9470, 525.8398
277.1620, 219.2598
278.3770, 178.3945
279.5920, 158.7930
280.8070, 396.3125
282.0210, 138.1582
283.2360, 329.3320
284.4500, 322.8242
285.6640, 257.6289
286.8780, 341.7422
288.0920, 324.1602
289.3050, 298.8730
290.5180, 258.2422
291.7320, 190.1895
292.9450, 85.78516
294.1570, 40.33984
295.3700, 155.8066
296.5830, 310.9629
297.7950, 521.8633
299.0070, 639.6328
300.2190, 884.9727
301.4310, 1065.740
302.6420, 1214.537
303.8540, 1438.375
305.0650, 1787.529
306.2760, 2180.908
307.4870, 2298.982
308.6980, 2419.988
309.9080, 2819.941
311.1190, 2992.805
312.3290, 2936.727
313.5390, 3079.195
314.7490, 3247.924
315.9580, 3397.395
317.1680, 3456.084
318.3770, 3479.590
319.5860, 3487.572
320.7950, 3279.293
322.0040, 3128.482
323.2130, 3004.875
324.4210, 2870.002
325.6290, 2740.775
326.8380, 2656.191
328.0460, 2597.383
329.2530, 2633.008
330.4610, 2770.182
331.6680, 2706.873
332.8760, 2706.566
334.0830, 2916.197
335.2890, 3110.459
336.4960, 3092.113
337.7030, 3503.602
338.9090, 4257.746
340.1150, 4351.113
341.3210, 5365.953
342.5270, 5082.820
343.7330, 5330.340
344.9380, 5876.344
346.1440, 6689.035
347.3490, 6819.408
348.5540, 6809.445
349.7590, 7319.078
350.9630, 7327.254
352.1680, 7686.945
353.3720, 7753.156
354.5760, 7790.914
355.7800, 7723.244
356.9840, 7442.174
358.1870, 7726.715
359.3910, 7221.889
360.5940, 6887.707
361.7970, 6850.189
363.0000, 6494.340
364.2030, 6037.176
365.4050, 6197.703
366.6080, 5841.936
367.8100, 5733.855
369.0120, 5327.441
370.2140, 5249.672
371.4150, 5183.422
372.6170, 5097.721
373.8180, 4832.281
375.0190, 4577.766
376.2200, 4716.129
377.4210, 4521.459
378.6220, 4702.777
379.8220, 4870.240
381.0230, 4598.137
382.2230, 4294.711
383.4230, 4094.068
384.6220, 4151.266
385.8220, 3986.695
387.0220, 3893.629
388.2210, 3957.154
389.4200, 3690.904
390.6190, 3722.547
391.8180, 3662.068
393.0160, 3486.465
394.2150, 3409.727
395.4130, 3011.852
396.6110, 3040.844
397.8090, 2769.695
399.0060, 2601.412
400.2040, 2521.988
401.4010, 2481.428
402.5980, 2455.730
403.7950, 2439.795
404.9920, 2248.922
406.1890, 2451.811
407.3860, 2312.812
408.5820, 2308.178
409.7780, 2451.656
410.9740, 2331.387
412.1700, 2412.977
413.3650, 2454.199
414.5610, 2507.096
415.7560, 2419.088
416.9510, 2549.818
418.1460, 2600.178
419.3410, 2447.973
420.5360, 2404.645
421.7300, 2356.436
422.9240, 2184.061
424.1180, 2213.809
425.3120, 2110.547
426.5060, 2129.391
427.7000, 1828.143
428.8930, 1882.219
430.0860, 1553.305
431.2790, 1462.033
432.4720, 1345.791
433.6650, 1266.064
434.8580, 1163.840
436.0500, 975.7812
437.2420, 997.2363
438.4340, 696.3984
439.6260, 635.1523
440.8180, 478.1582
442.0090, 305.7246
443.2010, 113.1641
444.3920, 178.1406
445.5830, 67.75781
446.7740, 17.12109
447.9640, 313.1895
449.1550, 365.8125
450.3450, 521.6660
451.5350, 428.7930
452.7250, 427.1465
453.9150, 456.8027
455.1050, 301.7227
456.2940, 441.8926
457.4830, 468.4766
458.6720, 414.6289
459.8610, 336.3164
461.0500, 283.4805
462.2390, 205.2734
463.4270, 112.2266
464.6150, 62.62891
465.8040, 84.75391
466.9910, 137.9570
468.1790, 103.9824
469.3670, 313.8262
470.5540, 107.4980
471.7410, 58.98438
472.9280, 106.2812
474.1150, 276.3926
475.3020, 246.3301
476.4890, 450.0938
477.6750, 485.8223
478.8610, 334.1270
480.0470, 545.3945
481.2330, 551.5020
482.4190, 430.4551
483.6040, 688.2441
484.7900, 847.8848
485.9750, 847.3828
487.1600, 1173.740
488.3450, 1267.967
489.5290, 1274.066
490.7140, 1566.041
491.8980, 1759.891
493.0820, 2040.615
494.2660, 2234.221
495.4500, 2580.705
496.6340, 2716.074
497.8170, 2840.326
499.0010, 3314.465
500.1840, 3577.492
501.3670, 3710.410
502.5500, 3925.219
503.7320, 4253.918
504.9150, 4531.514
506.0970, 4693.008
507.2790, 4854.395
508.4610, 5013.684
509.6430, 5247.871
510.8250, 5453.957
512.0060, 5538.945
513.1870, 5806.840
514.3680, 6034.643
515.5490, 6160.352
516.7300, 6716.975
517.9110, 6987.510
519.0910, 7466.965
520.2710, 7762.352
521.4510, 8219.668
522.6310, 8774.918
523.8110, 9516.111
524.9910, 10069.24
526.1700, 10874.33
527.3490, 11591.39
528.5280, 12306.42
529.7070, 13149.42
530.8860, 13418.46
532.0650, 14216.57
533.2430, 14700.75
534.4210, 14532.03
535.5990, 14944.37
536.7770, 15027.79
537.9550, 14943.30
539.1320, 14850.91
540.3100, 14481.60
541.4870, 14278.37
542.6640, 13853.21
543.8410, 13538.18
545.0170, 12844.27
546.1940, 12380.47
547.3700, 12096.71
548.5470, 11965.04
549.7230, 11418.48
550.8980, 11197.01
552.0740, 10900.16
553.2500, 10567.30
554.4250, 10355.03
555.6000, 10114.81
556.7750, 9891.641
557.9500, 9592.537
559.1250, 9390.471
560.2990, 9398.453
561.4730, 9222.473
562.6480, 9191.480
563.8220, 9126.297
564.9950, 8961.555
566.1690, 8984.707
567.3430, 8896.008
568.5160, 8771.375
569.6890, 8612.883
570.8620, 8330.510
572.0350, 7971.793
573.2070, 7678.984
574.3800, 7288.969
575.5520, 6972.883
576.7240, 6597.617
577.8960, 6334.775
579.0680, 6077.180
580.2400, 5577.254
581.4110, 5008.465
582.5830, 4701.877
583.7540, 4339.006
584.9250, 4136.344
586.0950, 3826.449
587.2660, 3791.289
588.4370, 3336.754
589.6070, 3009.756
590.7770, 2974.568
591.9470, 2796.721
593.1170, 2565.832
594.2860, 2459.174
595.4560, 2431.795
596.6250, 2294.057
597.7940, 2301.129
598.9630, 2133.455
600.1320, 1959.326
601.3000, 1880.906
602.4690, 1708.775
603.6370, 1816.367
604.8050, 1591.012
605.9730, 1529.988
607.1410, 1376.840
608.3090, 1499.193
609.4760, 1441.322
610.6430, 1435.178
611.8100, 1171.459
612.9770, 1220.398
614.1440, 1112.793
615.3110, 1100.609
616.4770, 1107.307
617.6430, 1055.910
618.8090, 905.6973
619.9750, 905.6621
621.1410, 872.9844
622.3070, 817.1484
623.4720, 824.8398
624.6370, 805.6484
625.8020, 852.1582
626.9670, 769.7051
628.1320, 911.4492
629.2970, 866.1934
630.4610, 837.9336
631.6250, 803.6777
632.7890, 1121.418
633.9530, 1062.160
635.1170, 1150.898
636.2810, 1600.639
637.4440, 1624.180
638.6070, 1571.121
639.7700, 2012.863
640.9330, 1488.607
642.0960, 1605.354
643.2590, 1763.100
644.4210, 1888.850
645.5830, 1791.600
646.7450, 1991.352
647.9070, 2031.109
649.0690, 2477.871
650.2310, 2475.332
651.3920, 2996.398
652.5530, 2719.168
653.7140, 2826.938
654.8750, 3089.715
656.0360, 3401.492
657.1970, 3412.277
658.3570, 3957.100
659.5170, 4345.891
660.6770, 4975.049
661.8370, 5607.748
662.9970, 6295.281
664.1570, 7184.277
665.3160, 8366.016
666.4750, 9522.699
667.6340, 10606.23
668.7930, 11797.31
669.9520, 12907.93
671.1110, 14229.90
672.2690, 14865.43
673.4270, 15161.32
674.5850, 15399.69
675.7430, 15136.73
676.9010, 14635.63
678.0590, 14014.77
679.2160, 12779.96
680.3730, 11317.28
681.5300, 9993.941
682.6870, 8846.441
683.8440, 7819.574
685.0010, 6908.742
686.1570, 6190.752
687.3130, 5525.686
688.4690, 5064.465
689.6250, 4832.012
690.7810, 4691.906
691.9370, 4495.262
693.0920, 4216.604
694.2470, 4444.309
695.4020, 4479.164
696.5570, 4305.037
697.7120, 4354.471
698.8670, 4505.242
700.0210, 4391.391
701.1750, 4548.648
702.3290, 4554.123
703.4830, 4511.926
704.6370, 4612.188
705.7910, 4642.965
706.9440, 4736.320
708.0970, 4802.773
709.2510, 4873.688
710.4030, 4967.557
711.5560, 4836.381
712.7090, 4947.156
713.8610, 4994.887
715.0140, 5084.576
716.1660, 5123.557
717.3180, 5164.816
718.4690, 5153.377
719.6210, 5122.184
720.7730, 4977.375
721.9240, 4972.822
723.0750, 4887.236
724.2260, 4743.633
725.3770, 4998.004
726.5270, 4729.352
727.6780, 4669.703
728.8280, 4783.129
729.9780, 4690.645
731.1280, 4752.293
732.2780, 4719.045
733.4280, 4414.902
734.5770, 4841.869
735.7260, 4633.908
736.8760, 4252.055
738.0250, 3820.312
739.1730, 3833.668
740.3220, 3669.100
741.4700, 3492.594
742.6190, 3314.127
743.7670, 3157.676
744.9150, 3036.334
746.0630, 3005.746
747.2100, 2769.240
748.3580, 2723.707
749.5050, 2480.139
750.6520, 2524.543
751.7990, 2468.916
752.9460, 2373.744
754.0930, 2183.574
755.2390, 2293.852
756.3860, 2128.088
757.5320, 2138.287
758.6780, 2102.449
759.8240, 1874.568
760.9690, 1674.645
762.1150, 1760.684
763.2600, 1547.680
764.4060, 1657.625
765.5510, 1690.523
766.6950, 1502.371
767.8400, 1497.166
768.9850, 1479.910
770.1290, 1380.600
771.2730, 1325.236
772.4170, 1486.820
773.5610, 1342.355
774.7050, 1158.840
775.8480, 1664.270
776.9920, 1528.650
778.1350, 1083.979
779.2780, 972.2539
780.4210, 1231.479
781.5640, 1096.652
782.7060, 1039.775
783.8490, 891.8496
784.9910, 923.8730
786.1330, 940.8438
787.2750, 889.7676
788.4170, 807.5000
789.5580, 960.4629
790.7000, 655.2383
791.8410, 487.9629
792.9820, 617.6406
794.1230, 488.6953
795.2640, 446.7031
796.4040, 496.3730
797.5450, 365.8535
798.6850, 236.2852
799.8250, 275.6602
800.9650, 164.9785
802.1050, 60.24023
803.2450, 6.421875
804.3840, 6.500000
805.5230, 1.464844
806.6630, 261.6758
807.8020, 378.0625
808.9400, 370.7598
810.0790, 456.0215
811.2170, 336.1133
812.3560, 442.7480
813.4940, 408.7246
814.6320, 429.0293
815.7700, 446.4023
816.9070, 353.6406
818.0450, 375.9102
819.1820, 629.4844
820.3190, 477.5000
821.4560, 530.6250
822.5930, 232.6191
823.7300, 435.5977
824.8670, 482.9062
826.0030, 433.5723
827.1390, 409.5625
828.2750, 323.8672
829.4110, 278.4414
830.5470, 207.2578
831.6820, 276.2734
832.8180, 279.5312
833.9530, 180.0215
835.0880, 140.7773
836.2230, 86.29297
837.3580, 53.49805
838.4920, 10.52539
839.6270, 40.36133
840.7610, 20.80664
841.8950, 185.9336
843.0290, 203.6367
844.1630, 292.3008
845.2960, 484.9316
846.4300, 538.5312
847.5630, 717.0957
848.6960, 684.6289
849.8290, 756.1328
850.9620, 1050.605
852.0940, 1144.047
853.2270, 1138.457
854.3590, 1212.842
855.4910, 1602.195
856.6230, 1770.521
857.7550, 1699.822
858.8870, 2446.096
860.0180, 2340.762
861.1500, 2577.764
862.2810, 2589.760
863.4120, 2857.934
864.5430, 3045.080
865.6730, 3234.205
866.8040, 3596.307
867.9340, 4044.383
869.0640, 4201.438
870.1940, 4569.465
871.3240, 5005.469
872.4540, 5011.449
873.5830, 5430.406
874.7130, 5614.342
875.8420, 5849.881
876.9710, 6085.447
878.1000, 6383.000
879.2290, 6493.842
880.3570, 6762.656
881.4860, 7065.451
882.6140, 6992.223
883.7420, 7289.973
884.8700, 7132.701
885.9980, 7154.412
887.1250, 7189.100
888.2530, 7145.941
889.3800, 7163.424
890.5070, 7105.057
891.6340, 6960.674
892.7610, 6783.275
893.8880, 6851.859
895.0140, 6690.428
896.1400, 6283.980
897.2670, 6342.520
898.3930, 6260.049
899.5180, 6013.582
900.6440, 6127.104
901.7700, 5758.633
902.8950, 5599.180
904.0200, 5643.719
905.1450, 5669.289
906.2700, 5555.877
907.3950, 5510.473
908.5190, 5013.094
909.6440, 5205.760
910.7680, 4970.521
911.8920, 4858.016
913.0160, 4848.812
914.1400, 4740.549
915.2630, 4835.320
916.3870, 4880.131
917.5100, 4760.811
918.6330, 4558.895
919.7560, 4550.861
920.8790, 4503.875
922.0010, 4369.939
923.1240, 4352.020
924.2460, 4245.141
925.3680, 4147.305
926.4900, 4089.559
927.6120, 4006.545
928.7340, 3954.111
929.8550, 3959.469
930.9760, 3941.867
932.0980, 4092.324
933.2190, 3696.459
934.3390, 3642.074
935.4600, 3797.891
936.5810, 3786.293
937.7010, 3893.998
938.8210, 3983.812
939.9410, 3909.812
941.0610, 4013.326
942.1810, 4045.580
943.3010, 4268.992
944.4200, 4158.123
945.5390, 4447.924
946.6580, 4546.271
947.7770, 4633.953
948.8960, 4768.562
950.0150, 4846.195
951.1330, 4922.053
952.2510, 5038.551
953.3690, 5150.738
954.4870, 5288.873
955.6050, 5458.115
956.7230, 5623.912
957.8400, 5830.547
958.9580, 6030.582
960.0750, 6055.799
961.1920, 6341.277
962.3090, 6564.297
963.4250, 6800.164
964.5420, 7131.932
965.6580, 7320.371
966.7740, 7560.688
967.8900, 7916.016
969.0060, 8226.812
970.1220, 8480.305
971.2380, 8697.455
972.3530, 9011.531
973.4680, 8887.859
974.5830, 9375.023
975.6980, 9298.199
976.8130, 9428.285
977.9280, 9637.555
979.0420, 9748.129
980.1560, 9663.785
981.2710, 9659.264
982.3850, 9573.225
983.4980, 9412.246
984.6120, 9305.229
985.7260, 9186.039
986.8390, 8999.438
987.9520, 8817.668
989.0650, 8653.980
990.1780, 8504.375
991.2910, 8285.855
992.4030, 8055.422
993.5160, 7882.072
994.6280, 7548.805
995.7400, 7569.650
996.8520, 7400.582
997.9640, 7444.607
999.0750, 7049.738
1000.187, 6954.969
1001.298, 6664.285
1002.409, 6874.693
1003.520, 6766.188
1004.631, 6557.775
1005.741, 6494.455
1006.852, 6279.225
1007.962, 6400.084
1009.072, 6432.033
1010.182, 6319.080
1011.292, 6256.219
1012.402, 6554.447
1013.511, 6450.768
1014.621, 6531.180
1015.730, 6522.684
1016.839, 6298.277
1017.948, 6353.965
1019.056, 6349.742
1020.165, 6407.617
1021.273, 6415.582
1022.382, 6494.643
1023.490, 6187.795
1024.598, 6313.043
1025.706, 6208.387
1026.813, 5847.820
1027.921, 5998.348
1029.028, 5833.973
1030.135, 5825.693
1031.242, 5680.539
1032.349, 5899.006
1033.456, 5946.236
1034.562, 5964.672
1035.668, 6136.027
1036.775, 6030.398
1037.881, 6211.879
1038.987, 6251.580
1040.092, 6544.936
1041.198, 6196.441
1042.303, 6666.148
1043.408, 6408.242
1044.514, 6528.641
1045.618, 6616.775
1046.723, 6778.582
1047.828, 6774.363
1048.932, 6886.043
1050.037, 6821.760
1051.141, 6994.061
1052.245, 6926.125
1053.349, 6916.631
1054.452, 7041.654
1055.556, 7006.166
1056.659, 7152.693
1057.762, 6981.336
1058.865, 6882.305
1059.968, 6997.998
1061.071, 6914.207
1062.174, 7063.033
1063.276, 7299.207
1064.378, 7571.639
1065.480, 7484.158
1066.582, 7493.527
1067.684, 7249.859
1068.786, 7283.516
1069.887, 7054.576
1070.988, 7078.752
1072.090, 6907.512
1073.191, 7096.305
1074.291, 6980.875
1075.392, 7133.680
1076.493, 7020.508
1077.593, 7079.125
1078.693, 6831.605
1079.793, 6722.285
1080.893, 6694.197
1081.993, 6943.328
1083.092, 6650.689
1084.192, 7005.279
1085.291, 7544.076
1086.390, 7822.105
1087.489, 6615.414
1088.588, 6992.975
1089.686, 7010.781
1090.785, 6600.754
1091.883, 6901.951
1092.981, 6905.383
1094.079, 6670.035
1095.177, 6778.902
1096.275, 6623.961
1097.373, 6541.191
1098.470, 6618.580
1099.567, 6635.137
1100.664, 6581.871
1101.761, 6669.746
1102.858, 6512.566
1103.954, 6550.879
1105.051, 6189.090
1106.147, 6040.066
1107.243, 5688.309
1108.339, 5704.029
1109.435, 5657.570
1110.531, 5552.273
1111.626, 5211.744
1112.722, 5175.143
1113.817, 5016.914
1114.912, 4853.754
1116.007, 4860.279
1117.101, 4554.434
1118.196, 4558.379
1119.290, 4438.854
1120.385, 4375.881
1121.479, 4190.504
1122.573, 4043.049
1123.666, 4018.406
1124.760, 3925.854
1125.853, 3726.734
1126.947, 3672.396
1128.040, 3363.646
1129.133, 3275.160
1130.226, 3284.525
1131.318, 3095.121
1132.411, 3038.891
1133.503, 2930.893
1134.596, 2586.818
1135.688, 2654.666
1136.780, 2531.719
1137.871, 2261.988
1138.963, 2458.658
1140.054, 2270.025
1141.146, 2180.727
1142.237, 2118.197
1143.328, 1976.717
1144.419, 1873.930
1145.509, 1725.891
1146.600, 1615.545
1147.690, 1447.803
1148.780, 1309.000
1149.870, 1182.791
1150.960, 1186.631
1152.050, 1169.512
1153.139, 983.4336
1154.229, 666.4023
1155.318, 628.4121
1156.407, 455.4570
1157.496, 447.5449
1158.585, 375.6660
1159.674, 139.8594
1160.762, 186.0566
1161.850, 13.39648
1162.939, 125.4883
1164.027, 5.445313
1165.114, 113.2715
1166.202, 175.4102
1167.290, 79.74023
1168.377, 229.2871
1169.464, 124.4141
1170.551, 111.0664
1171.638, 174.6367
1172.725, 252.0469
1173.812, 113.0312
1174.898, 41.64648
1175.984, 29.28516
1177.071, 251.4238
1178.157, 170.5605
1179.242, 211.5547
1180.328, 257.6406
1181.414, 133.6582
1182.499, 322.7969
1183.584, 198.8418
1184.669, 201.4453
1185.754, 54.64258
1186.839, 185.8926
1187.924, 146.9688
1189.008, 148.6445
1190.092, 249.3828
1191.177, 253.7266
1192.260, 55.85547
1193.344, 261.4375
1194.428, 79.83984
1195.512, 98.31445
1196.595, 3.363281
1197.678, 70.35547
1198.761, 124.4785
1199.844, 109.5859
1200.927, 107.6641
1202.009, 77.38281
1203.092, 128.8457
1204.174, 7.302734
1205.256, 152.1406
1206.338, 139.7871
1207.420, 25.65039
1208.502, 315.4707
1209.583, 107.8770
1210.665, 204.3789
1211.746, 184.8789
1212.827, 227.4844
1213.908, 255.4023
1214.988, 165.5039
1216.069, 309.7363
1217.149, 151.9238
1218.230, 189.0410
1219.310, 128.5566
1220.390, 174.2480
1221.470, 127.9941
1222.549, 290.0957
1223.629, 339.3203
1224.708, 179.2988
1225.787, 360.3809
1226.866, 414.0508
1227.945, 173.3164
1229.024, 342.7031
1230.103, 338.1953
1231.181, 318.6152
1232.259, 130.6562
1233.337, 345.6680
1234.415, 335.6191
1235.493, 64.56641
1236.571, 446.5625
1237.648, 317.5977
1238.726, 342.0469
1239.803, 382.2773
1240.880, 360.0801
1241.957, 280.9902
1243.034, 328.6758
1244.110, 315.4922
1245.187, 429.4629
1246.263, 223.0312
1247.339, 683.6230
1248.415, 490.9941
1249.491, 507.8633
1250.566, 298.5996
1251.642, 468.0547
1252.717, 214.3789
1253.793, 196.2051
1254.868, 466.3848
1255.943, 59.83984
1257.017, 165.1055
1258.092, 158.8281
1259.166, 84.35938
1260.241, 100.8027
1261.315, 251.7402
1262.389, 339.7871
1263.462, 370.4902
1264.536, 164.9980
1265.610, 262.6758
1266.683, 238.1738
1267.756, 211.4648
1268.829, 354.9082
1269.902, 182.3203
1270.975, 321.1934
1272.048, 335.0762
1273.120, 405.0996
1274.192, 352.7871
1275.264, 337.9961
1276.336, 446.9863
1277.408, 486.8066
1278.480, 420.4434
1279.551, 494.8281
1280.623, 317.6270
1281.694, 360.3887
1282.765, 499.3223
1283.836, 438.5273
1284.907, 513.7988
1285.977, 382.5918
1287.048, 335.1758
1288.118, 309.2930
1289.188, 414.8594
1290.258, 247.8809
1291.328, 154.3203
1292.398, 221.0234
1293.467, 24.96094
1294.537, 256.7148
1295.606, 283.6875
1296.675, 187.5547
1297.744, 233.3965
1298.813, 155.9883
1299.882, 234.9727
1300.950, 213.8457
1302.018, 88.54102
1303.086, 303.8945
1304.155, 378.9766
1305.222, 239.3691
1306.290, 437.1270
1307.358, 335.9375
1308.425, 383.3984
1309.492, 232.1348
1310.559, 387.2266
1311.626, 96.90430
1312.693, 207.1855
1313.760, 269.0957
1314.826, 220.2852
1315.893, 193.6250
1316.959, 301.8750
1318.025, 286.7988
1319.091, 176.0059
1320.157, 142.9219
1321.222, 111.1309
1322.288, 86.16016
1323.353, 84.47266
1324.418, 104.9453
1325.483, 177.9492
1326.548, 198.5410
1327.612, 174.0469
1328.677, 154.1367
1329.741, 113.0879
1330.806, 415.5137
1331.870, 182.9727
1332.934, 282.7109
1333.997, 156.3770
1335.061, 23.07812
1336.124, 49.19336
1337.188, 253.5938
