##NAMES=Arfvedsonite
##RRUFFID=R040127
##IDEAL CHEMISTRY=NaNa_2_(Fe^2+^_4_Fe^3+^)Si_8_O_22_(OH)_2_
##LOCALITY=Mont Saint-Hilaire, Rouville County, Quebec, Canada
##OWNER=RRUFF
##SOURCE=Bob Downs
##DESCRIPTION=Black prismatic crystal associated with white analcime, R040128
##STATUS=The identification of this mineral has been confirmed by X-ray diffraction and chemical analysis
##URL=rruff.info/R040127
##MEASURED CHEMISTRY=(Na_0.61_K_0.39_)Na_2.00_(Fe^2+^_2.40_Mg_0.80_Mn_0.75_Ca_0.05_)_&#931;=4_(Fe^3+^_0.60_Al_0.25_Mn_0.15_)(Si_0.99_Ti_0.01_)_8_O_22_((OH)_0.67_F_0.33_)_2_
##PIN_ID=M00386
##ORIENTATION=Laser parallel to -c* (0 0 -1). Fiducial mark perpendicular to laser is parallel to -a [-1 0 0]
128.8330, 0.0000000E+00
130.0700, 16.24805
131.3060, 58.83203
132.5420, 1246.168
133.7780, 2729.279
135.0140, 5449.498
136.2500, 9655.730
137.4850, 15517.75
138.7200, 22386.63
139.9550, 26884.01
141.1900, 27889.74
142.4250, 25179.60
143.6600, 20102.41
144.8940, 14783.64
146.1280, 10254.20
147.3620, 6883.311
148.5960, 4469.777
149.8300, 2847.609
151.0630, 1800.779
152.2960, 967.2227
153.5300, 449.5234
154.7620, 215.7031
155.9950, 247.4727
157.2280, 504.4082
158.4600, 1035.500
159.6920, 1732.654
160.9250, 2485.457
162.1560, 3645.547
163.3880, 4418.609
164.6200, 4686.379
165.8510, 5224.604
167.0820, 3894.502
168.3130, 4193.414
169.5440, 3040.844
170.7750, 2028.445
172.0050, 1048.641
173.2350, 547.0449
174.4650, 273.7754
175.6950, 174.0625
176.9250, 223.4492
178.1550, 45.61914
179.3840, 251.1367
180.6130, 290.1074
181.8420, 638.8965
183.0710, 1220.639
184.3000, 1863.738
185.5280, 2735.199
186.7570, 3755.895
187.9850, 4417.824
189.2130, 5716.984
190.4400, 6683.363
191.6680, 7867.963
192.8960, 8881.777
194.1230, 9940.803
195.3500, 10501.03
196.5770, 11209.44
197.8030, 11906.05
199.0300, 12447.84
200.2560, 12937.80
201.4830, 13689.56
202.7090, 14253.14
203.9340, 15220.36
205.1600, 15731.45
206.3860, 16834.64
207.6110, 18035.47
208.8360, 19075.12
210.0610, 20748.25
211.2860, 21123.09
212.5100, 21984.46
213.7350, 21589.89
214.9590, 20944.90
216.1830, 19797.95
217.4070, 18623.24
218.6310, 17292.71
219.8540, 16476.54
221.0780, 14952.42
222.3010, 13779.82
223.5240, 13201.61
224.7470, 12708.75
225.9690, 11727.12
227.1920, 11772.70
228.4140, 11516.53
229.6360, 11244.70
230.8580, 11448.17
232.0800, 11693.98
233.3020, 11999.30
234.5230, 12249.62
235.7440, 12377.35
236.9650, 12758.49
238.1860, 13027.62
239.4070, 13107.37
240.6280, 13434.37
241.8480, 13422.54
243.0680, 13514.85
244.2880, 13615.28
245.5080, 13330.82
246.7280, 12988.47
247.9470, 12420.23
249.1660, 11902.10
250.3860, 11594.06
251.6040, 10705.12
252.8230, 9935.266
254.0420, 9630.500
255.2600, 8853.812
256.4790, 8302.199
257.6970, 8488.648
258.9150, 7841.160
260.1320, 7365.531
261.3500, 7223.338
262.5670, 6185.000
263.7840, 5825.707
265.0010, 5393.455
266.2180, 5164.238
267.4350, 4901.061
268.6510, 4115.910
269.8680, 3933.789
271.0840, 3857.695
272.3000, 3021.619
273.5160, 2320.566
274.7310, 1539.527
275.9470, 908.4551
277.1620, 572.2422
278.3770, 195.2363
279.5920, 186.2480
280.8070, 300.3477
282.0210, 443.0469
283.2360, 747.1914
284.4500, 678.0840
285.6640, 809.8906
286.8780, 680.7930
288.0920, 742.8984
289.3050, 672.3223
290.5180, 623.1406
291.7320, 412.4121
292.9450, 221.1602
294.1570, 135.5977
295.3700, 430.8672
296.5830, 754.8613
297.7950, 1094.604
299.0070, 1501.590
300.2190, 2016.117
301.4310, 2502.760
302.6420, 3348.986
303.8540, 3787.795
305.0650, 4581.160
306.2760, 5428.893
307.4870, 5947.236
308.6980, 6577.037
309.9080, 7546.340
311.1190, 7833.043
312.3290, 8560.445
313.5390, 8814.277
314.7490, 8760.707
315.9580, 8608.840
317.1680, 8617.152
318.3770, 7900.848
319.5860, 7624.836
320.7950, 6786.766
322.0040, 6099.918
323.2130, 5423.279
324.4210, 4490.410
325.6290, 3872.598
326.8380, 4105.906
328.0460, 2548.184
329.2530, 2597.160
330.4610, 1667.969
331.6680, 1353.010
332.8760, 1160.727
334.0830, 758.8535
335.2890, 593.7793
336.4960, 382.4746
337.7030, 162.3672
338.9090, 6.156250
340.1150, 36.42578
341.3210, 37.95508
342.5270, 167.5781
343.7330, 289.7812
344.9380, 530.1094
346.1440, 29.57422
347.3490, 156.6465
348.5540, 1056.807
349.7590, 1054.949
350.9630, 922.9434
352.1680, 1277.439
353.3720, 1373.338
354.5760, 1992.670
355.7800, 2020.494
356.9840, 2486.055
358.1870, 2518.621
359.3910, 2752.195
360.5940, 2777.777
361.7970, 2969.359
363.0000, 2989.938
364.2030, 3108.504
365.4050, 2830.055
366.6080, 2843.584
367.8100, 3045.088
369.0120, 2819.562
370.2140, 2939.008
371.4150, 2818.422
372.6170, 2853.803
373.8180, 3068.148
375.0190, 3108.457
376.2200, 3140.748
377.4210, 3185.959
378.6220, 3164.145
379.8220, 3223.160
381.0230, 3269.982
382.2230, 3371.604
383.4230, 3273.082
384.6220, 3267.473
385.8220, 3266.814
387.0220, 3623.111
388.2210, 3143.361
389.4200, 3125.561
390.6190, 3898.709
391.8180, 3244.809
393.0160, 3241.855
394.2150, 2786.852
395.4130, 2603.791
396.6110, 2682.678
397.8090, 2590.506
399.0060, 2333.279
400.2040, 2484.996
401.4010, 2332.652
402.5980, 2213.250
403.7950, 2474.789
404.9920, 2491.270
406.1890, 2488.688
407.3860, 3090.043
408.5820, 3564.342
409.7780, 3853.574
410.9740, 4197.746
412.1700, 4850.855
413.3650, 5141.900
414.5610, 5575.879
415.7560, 5873.797
416.9510, 6122.645
418.1460, 6298.703
419.3410, 6489.154
420.5360, 6380.934
421.7300, 6448.234
422.9240, 6246.930
424.1180, 6212.422
425.3120, 5571.578
426.5060, 4963.137
427.7000, 4502.900
428.8930, 3984.875
430.0860, 3411.959
431.2790, 2886.248
432.4720, 2493.605
433.6650, 2053.273
434.8580, 1789.594
436.0500, 1380.758
437.2420, 1106.422
438.4340, 897.5762
439.6260, 519.8613
440.8180, 430.0801
442.0090, 236.2227
443.2010, 122.2441
444.3920, 160.8984
445.5830, 83.34766
446.7740, 293.0703
447.9640, 184.1738
449.1550, 136.6055
450.3450, 300.3438
451.5350, 318.6738
452.7250, 290.2695
453.9150, 164.9375
455.1050, 55.18359
456.2940, 266.2188
457.4830, 173.7305
458.6720, 504.3457
459.8610, 315.5469
461.0500, 393.1367
462.2390, 578.6855
463.4270, 635.5996
464.6150, 800.7949
465.8040, 617.5000
466.9910, 652.7441
468.1790, 939.7227
469.3670, 628.5762
470.5540, 399.7715
471.7410, 311.8242
472.9280, 526.9375
474.1150, 591.1621
475.3020, 412.1445
476.4890, 328.3320
477.6750, 457.9258
478.8610, 530.7207
480.0470, 581.3945
481.2330, 544.0762
482.4190, 855.5508
483.6040, 1017.168
484.7900, 1378.648
485.9750, 1271.021
487.1600, 1687.988
488.3450, 1906.398
489.5290, 1778.715
490.7140, 2234.352
491.8980, 2352.301
493.0820, 2848.420
494.2660, 2897.148
495.4500, 3031.770
496.6340, 3272.279
497.8170, 3647.684
499.0010, 3786.986
500.1840, 4475.184
501.3670, 4626.273
502.5500, 4818.262
503.7320, 4904.145
504.9150, 5099.412
506.0970, 5384.592
507.2790, 5427.156
508.4610, 5608.611
509.6430, 5746.961
510.8250, 5615.199
512.0060, 5930.332
513.1870, 5769.357
514.3680, 5867.275
515.5490, 6194.078
516.7300, 6359.775
517.9110, 6522.363
519.0910, 6999.840
520.2710, 7442.209
521.4510, 7982.465
522.6310, 8598.613
523.8110, 9400.762
524.9910, 10216.49
526.1700, 11300.40
527.3490, 12225.11
528.5280, 13407.71
529.7070, 14729.21
530.8860, 16220.59
532.0650, 16935.87
533.2430, 17934.03
534.4210, 18923.09
535.5990, 18957.03
536.7770, 19236.87
537.9550, 19116.59
539.1320, 18864.21
540.3100, 18322.72
541.4870, 17987.13
542.6640, 16972.44
543.8410, 16431.69
545.0170, 15931.87
546.1940, 14649.01
547.3700, 13713.10
548.5470, 13021.11
549.7230, 12336.04
550.8980, 11666.80
552.0740, 11056.82
553.2500, 10561.41
554.4250, 9963.082
555.6000, 9536.668
556.7750, 9198.156
557.9500, 8609.547
559.1250, 8806.938
560.2990, 8290.266
561.4730, 8214.535
562.6480, 8230.793
563.8220, 8389.961
564.9950, 8342.016
566.1690, 8496.711
567.3430, 8599.898
568.5160, 8841.818
569.6890, 8820.848
570.8620, 9183.977
572.0350, 9161.238
573.2070, 8880.566
574.3800, 9080.943
575.5520, 8559.395
576.7240, 8151.887
577.8960, 7227.418
579.0680, 6504.936
580.2400, 5365.363
581.4110, 4752.684
582.5830, 4111.064
583.7540, 3091.715
584.9250, 2604.016
586.0950, 2187.420
587.2660, 1869.465
588.4370, 1450.105
589.6070, 1183.354
590.7770, 951.3711
591.9470, 700.9062
593.1170, 636.0703
594.2860, 418.8047
595.4560, 114.1953
596.6250, 207.9805
597.7940, 167.7715
598.9630, 125.5527
600.1320, 104.9199
601.3000, 130.4316
602.4690, 52.92578
603.6370, 60.71289
604.8050, 84.43164
605.9730, 103.2832
607.1410, 55.56250
608.3090, 37.12695
609.4760, 53.44531
610.6430, 76.92188
611.8100, 46.16406
612.9770, 35.50586
614.1440, 0.2011720
615.3110, 21.59180
616.4770, 22.13086
617.6430, 56.02148
618.8090, 126.2480
619.9750, 54.38867
621.1410, 178.9512
622.3070, 149.6855
623.4720, 265.0039
624.6370, 256.1816
625.8020, 336.1680
626.9670, 526.9375
628.1320, 377.7930
629.2970, 871.9277
630.4610, 560.2363
631.6250, 914.6992
632.7890, 738.0469
633.9530, 1082.922
635.1170, 1022.211
636.2810, 1297.092
637.4440, 1304.832
638.6070, 1516.473
639.7700, 1640.020
640.9330, 1798.467
642.0960, 1831.074
643.2590, 2035.322
644.4210, 2149.473
645.5830, 2323.115
646.7450, 2450.480
647.9070, 2763.338
649.0690, 2976.100
650.2310, 3310.762
651.3920, 3698.328
652.5530, 4087.246
653.7140, 4560.168
654.8750, 5117.443
656.0360, 5442.625
657.1970, 6199.707
658.3570, 6681.695
659.5170, 7480.586
660.6770, 8410.379
661.8370, 9612.078
662.9970, 11147.68
664.1570, 12809.19
665.3160, 14572.61
666.4750, 16637.92
667.6340, 19206.15
668.7930, 21824.28
669.9520, 24869.32
671.1110, 27569.25
672.2690, 30540.10
673.4270, 32534.85
674.5850, 33566.51
675.7430, 33295.07
676.9010, 32077.92
678.0590, 29536.75
679.2160, 26201.48
680.3730, 22496.76
681.5300, 19046.35
682.6870, 16261.44
683.8440, 13317.67
685.0010, 11267.57
686.1570, 9720.512
687.3130, 8102.492
688.4690, 7485.994
689.6250, 6292.859
690.7810, 5367.969
691.9370, 5103.793
693.0920, 4366.824
694.2470, 4337.121
695.4020, 3813.711
696.5570, 3804.453
697.7120, 3474.385
698.8670, 3314.703
700.0210, 3014.924
701.1750, 2707.465
702.3290, 2725.652
703.4830, 2624.826
704.6370, 2375.477
705.7910, 2425.938
706.9440, 2411.768
708.0970, 2075.307
709.2510, 2014.352
710.4030, 2004.975
711.5560, 1905.516
712.7090, 1717.299
713.8610, 1917.074
715.0140, 1576.738
716.1660, 1792.416
717.3180, 1646.982
718.4690, 1504.334
719.6210, 1370.580
720.7730, 1427.678
721.9240, 1496.279
723.0750, 1507.217
724.2260, 1339.238
725.3770, 1334.932
726.5270, 1188.428
727.6780, 1151.500
728.8280, 1155.092
729.9780, 1157.477
731.1280, 1178.275
732.2780, 1186.150
733.4280, 1180.156
734.5770, 934.4844
735.7260, 829.8965
736.8760, 1172.922
738.0250, 744.8281
739.1730, 891.2090
740.3220, 829.0977
741.4700, 749.6309
742.6190, 739.6016
743.7670, 766.0938
744.9150, 646.8828
746.0630, 700.9453
747.2100, 716.0723
748.3580, 623.1230
749.5050, 766.6348
750.6520, 821.0684
751.7990, 419.2129
752.9460, 727.0332
754.0930, 494.8867
755.2390, 564.3145
756.3860, 582.1016
757.5320, 373.4707
758.6780, 543.6055
759.8240, 563.9707
760.9690, 601.7871
762.1150, 613.1270
763.2600, 636.2793
764.4060, 681.2168
765.5510, 634.3984
766.6950, 536.5137
767.8400, 791.6641
768.9850, 667.7070
770.1290, 667.6855
771.2730, 515.2930
772.4170, 628.0918
773.5610, 698.8047
774.7050, 724.4336
775.8480, 826.9824
776.9920, 698.4434
778.1350, 837.8262
779.2780, 630.1270
780.4210, 886.3438
781.5640, 837.4805
782.7060, 766.5371
783.8490, 869.5117
784.9910, 720.4082
786.1330, 907.2266
787.2750, 1077.969
788.4170, 1123.629
789.5580, 915.2168
790.7000, 1265.725
791.8410, 1155.156
792.9820, 1259.510
794.1230, 1294.789
795.2640, 1179.994
796.4040, 1156.121
797.5450, 1141.178
798.6850, 1093.871
799.8250, 1320.066
800.9650, 1138.902
802.1050, 1328.666
803.2450, 1536.359
804.3840, 1167.982
805.5230, 980.5352
806.6630, 1094.020
807.8020, 923.4395
808.9400, 813.7891
810.0790, 813.0723
811.2170, 651.2891
812.3560, 637.4395
813.4940, 493.5254
814.6320, 466.5430
815.7700, 229.4922
816.9070, 114.3672
818.0450, 210.1621
819.1820, 157.1211
820.3190, 50.58984
821.4560, 191.1855
822.5930, 162.9863
823.7300, 22.97266
824.8670, 50.07031
826.0030, 154.2949
827.1390, 33.69531
828.2750, 79.92383
829.4110, 165.8672
830.5470, 45.70117
831.6820, 5.650391
832.8180, 6.945313
833.9530, 367.8262
835.0880, 122.2383
836.2230, 155.8027
837.3580, 323.5352
838.4920, 34.51953
839.6270, 257.3926
840.7610, 114.1543
841.8950, 96.96680
843.0290, 37.69141
844.1630, 200.7129
845.2960, 228.3008
846.4300, 241.0820
847.5630, 116.0625
848.6960, 109.8262
849.8290, 111.3438
850.9620, 65.64062
852.0940, 213.0352
853.2270, 119.6074
854.3590, 72.30273
855.4910, 38.09570
856.6230, 38.97070
857.7550, 151.9219
858.8870, 113.0078
860.0180, 6.794922
861.1500, 162.4609
862.2810, 40.84961
863.4120, 54.31641
864.5430, 91.85742
865.6730, 78.49219
866.8040, 75.78711
867.9340, 30.01758
869.0640, 166.2031
870.1940, 295.3535
871.3240, 227.4121
872.4540, 146.0293
873.5830, 86.12109
874.7130, 255.4668
875.8420, 221.5117
876.9710, 373.3906
878.1000, 481.9980
879.2290, 274.6270
880.3570, 414.3828
881.4860, 385.6562
882.6140, 534.2188
883.7420, 354.8730
884.8700, 711.2012
885.9980, 719.2051
887.1250, 538.4844
888.2530, 757.1504
889.3800, 796.1406
890.5070, 669.2090
891.6340, 864.6016
892.7610, 668.1348
893.8880, 835.8926
895.0140, 719.3926
896.1400, 793.9883
897.2670, 735.7578
898.3930, 871.5781
899.5180, 939.5000
900.6440, 987.6113
901.7700, 1041.521
902.8950, 1069.020
904.0200, 1130.293
905.1450, 1182.324
906.2700, 980.3457
907.3950, 1261.723
908.5190, 1229.562
909.6440, 1308.693
910.7680, 1730.848
911.8920, 1525.984
913.0160, 1657.096
914.1400, 1574.195
915.2630, 1594.021
916.3870, 1799.121
917.5100, 1808.234
918.6330, 1908.355
919.7560, 1928.496
920.8790, 2141.627
922.0010, 2082.738
923.1240, 2359.844
924.2460, 2024.934
925.3680, 2136.027
926.4900, 2470.105
927.6120, 2189.172
928.7340, 2404.648
929.8550, 2257.277
930.9760, 2395.346
932.0980, 2347.439
933.2190, 2112.557
934.3390, 2015.766
935.4600, 2183.008
936.5810, 2232.297
937.7010, 2266.621
938.8210, 2090.029
939.9410, 2213.467
941.0610, 1989.994
942.1810, 2111.580
943.3010, 2222.215
944.4200, 2090.879
945.5390, 2552.566
946.6580, 2419.252
947.7770, 2977.973
948.8960, 2203.355
950.0150, 2458.693
951.1330, 2390.125
952.2510, 2562.904
953.3690, 2675.336
954.4870, 2783.203
955.6050, 2725.867
956.7230, 2807.830
957.8400, 2775.654
958.9580, 3055.363
960.0750, 3203.465
961.1920, 3001.119
962.3090, 3246.441
963.4250, 3298.961
964.5420, 3684.188
965.6580, 3893.061
966.7740, 4092.559
967.8900, 4256.818
969.0060, 4503.805
970.1220, 4696.684
971.2380, 4860.855
972.3530, 5097.984
973.4680, 5506.387
974.5830, 5666.721
975.6980, 5983.500
976.8130, 5866.387
977.9280, 6000.828
979.0420, 5922.482
980.1560, 5768.553
981.2710, 5486.967
982.3850, 5503.383
983.4980, 5188.477
984.6120, 5094.502
985.7260, 4791.555
986.8390, 4958.520
987.9520, 4519.516
989.0650, 4481.648
990.1780, 4246.809
991.2910, 3915.041
992.4030, 3449.693
993.5160, 3508.965
994.6280, 3552.125
995.7400, 3135.654
996.8520, 2959.406
997.9640, 2909.662
999.0750, 2733.150
1000.187, 2628.494
1001.298, 2614.398
1002.409, 2539.180
1003.520, 2565.598
1004.631, 2422.619
1005.741, 2332.426
1006.852, 2459.961
1007.962, 2519.312
1009.072, 2365.543
1010.182, 2374.498
1011.292, 2376.777
1012.402, 2292.094
1013.511, 2359.992
1014.621, 2379.461
1015.730, 2447.295
1016.839, 2462.779
1017.948, 2512.303
1019.056, 2473.869
1020.165, 2475.477
1021.273, 2477.123
1022.382, 2479.152
1023.490, 2556.543
1024.598, 2563.316
1025.706, 2777.133
1026.813, 2949.990
1027.921, 2936.893
1029.028, 3044.891
1030.135, 2805.828
1031.242, 3040.854
1032.349, 2975.922
1033.456, 2884.033
1034.562, 3093.184
1035.668, 3150.371
1036.775, 3383.604
1037.881, 3560.873
1038.987, 3445.184
1040.092, 3392.535
1041.198, 4071.928
1042.303, 4035.383
1043.408, 4079.857
1044.514, 4314.371
1045.618, 4406.926
1046.723, 4544.520
1047.828, 4591.939
1048.932, 4846.742
1050.037, 5063.607
1051.141, 5388.850
1052.245, 5629.715
1053.349, 5994.545
1054.452, 6275.414
1055.556, 6601.646
1056.659, 6801.650
1057.762, 7221.328
1058.865, 7586.395
1059.968, 7791.516
1061.071, 8066.672
1062.174, 8422.689
1063.276, 8712.137
1064.378, 9151.139
1065.480, 9381.449
1066.582, 9792.652
1067.684, 9852.359
1068.786, 9892.375
1069.887, 9829.016
1070.988, 9706.289
1072.090, 9489.973
1073.191, 9275.145
1074.291, 8957.219
1075.392, 8656.158
1076.493, 8115.367
1077.593, 7691.664
1078.693, 7719.305
1079.793, 7503.156
1080.893, 7534.852
1081.993, 7040.004
1083.092, 6944.727
1084.192, 6909.188
1085.291, 6849.758
1086.390, 6893.066
1087.489, 7283.617
1088.588, 7322.637
1089.686, 7716.855
1090.785, 7693.559
1091.883, 8095.375
1092.981, 8190.664
1094.079, 8580.035
1095.177, 9001.461
1096.275, 9254.086
1097.373, 9032.656
1098.470, 9603.281
1099.567, 9718.945
1100.664, 9850.648
1101.761, 10329.49
1102.858, 10558.41
1103.954, 10450.40
1105.051, 10435.52
1106.147, 10403.68
1107.243, 11103.86
1108.339, 11057.11
1109.435, 11096.44
1110.531, 10938.11
1111.626, 11109.51
1112.722, 11142.00
1113.817, 11310.59
1114.912, 11768.23
1116.007, 12120.91
1117.101, 12528.65
1118.196, 12767.97
1119.290, 13032.31
1120.385, 13075.24
1121.479, 13292.22
1122.573, 13203.23
1123.666, 13218.29
1124.760, 13156.41
1125.853, 12624.58
1126.947, 12273.79
1128.040, 11825.78
1129.133, 11807.35
1130.226, 10782.69
1131.318, 10616.07
1132.411, 10148.49
1133.503, 10217.94
1134.596, 9856.406
1135.688, 9706.891
1136.780, 9547.395
1137.871, 9444.918
1138.963, 9039.453
1140.054, 9224.008
1141.146, 8781.586
1142.237, 8599.180
1143.328, 8482.781
1144.419, 8361.402
1145.509, 8336.031
1146.600, 7861.680
1147.690, 7884.340
1148.780, 7323.016
1149.870, 7357.703
1150.960, 6962.398
1152.050, 6937.109
1153.139, 6401.277
1154.229, 5455.566
1155.318, 5197.312
1156.407, 4406.066
1157.496, 3604.832
1158.585, 2909.605
1159.674, 2702.391
1160.762, 1958.184
1161.850, 1905.984
1162.939, 1326.797
1164.027, 836.6172
1165.114, 725.5898
1166.202, 845.2773
1167.290, 454.1211
1168.377, 472.9688
1169.464, 606.8242
1170.551, 325.6797
1171.638, 318.5469
1172.725, 9.421875
1173.812, 167.2969
1174.898, 149.1758
1175.984, 26.05859
1177.071, 108.9414
1178.157, 20.16797
1179.242, 138.2852
1180.328, 94.47266
1181.414, 97.69922
1182.499, 147.9766
1183.584, 42.67188
1184.669, 75.32031
1185.754, 3.1250000E-02
1186.839, 67.87891
1187.924, 25.74609
1189.008, 36.87500
1190.092, 37.50000
1191.177, 44.11719
1192.260, 34.79297
1193.344, 106.6406
1194.428, 108.0820
1195.512, 106.5898
1196.595, 357.1758
1197.678, 123.9570
1198.761, 173.8281
1199.844, 149.8047
1200.927, 300.8789
1202.009, 98.13281
1203.092, 341.4570
1204.174, 196.9844
1205.256, 175.6328
1206.338, 82.39062
1207.420, 65.98047
1208.502, 317.9336
1209.583, 102.9219
1210.665, 66.85156
1211.746, 167.8438
1212.827, 207.0703
1213.908, 31.80859
1214.988, 121.4492
1216.069, 83.79688
1217.149, 85.07422
1218.230, 122.3359
1219.310, 118.6992
1220.390, 0.1054690
1221.470, 45.47656
1222.549, 361.8438
1223.629, 185.1953
1224.708, 180.5469
1225.787, 129.9414
1226.866, 225.3281
1227.945, 228.7031
1229.024, 220.7344
1230.103, 263.4922
1231.181, 239.7812
1232.259, 243.4180
1233.337, 321.8711
1234.415, 454.3398
1235.493, 296.8281
1236.571, 337.3047
1237.648, 186.7773
1238.726, 182.2461
1239.803, 109.6992
1240.880, 233.1406
1241.957, 344.5781
1243.034, 394.0000
1244.110, 359.8203
1245.187, 466.2773
1246.263, 276.2773
1247.339, 485.6719
1248.415, 630.0586
1249.491, 422.4297
1250.566, 564.2109
1251.642, 555.1133
1252.717, 496.4453
1253.793, 467.7617
1254.868, 332.0625
1255.943, 540.3477
1257.017, 444.6211
1258.092, 583.8789
1259.166, 418.1094
1260.241, 434.3242
1261.315, 516.5234
1262.389, 508.6953
1263.462, 693.8516
1264.536, 613.9883
1265.610, 894.1016
1266.683, 860.1953
1267.756, 559.2656
1268.829, 773.3203
1269.902, 589.3477
1270.975, 660.3516
1272.048, 677.3398
1273.120, 757.3008
1274.192, 824.2344
1275.264, 819.2695
1276.336, 565.0234
1277.408, 811.8789
1278.480, 674.7031
1279.551, 641.5039
1280.623, 720.2734
1281.694, 736.0117
1282.765, 860.7188
1283.836, 1137.395
1284.907, 848.0391
1285.977, 760.6523
1287.048, 893.2383
1288.118, 574.7812
1289.188, 451.2930
1290.258, 632.2773
1291.328, 1031.223
1292.398, 904.6406
1293.467, 963.0156
1294.537, 962.3633
1295.606, 898.6758
