##NAMES=Arfvedsonite
##RRUFFID=R040127
##IDEAL CHEMISTRY=NaNa_2_(Fe^2+^_4_Fe^3+^)Si_8_O_22_(OH)_2_
##LOCALITY=Mont Saint-Hilaire, Rouville County, Quebec, Canada
##OWNER=RRUFF
##SOURCE=Bob Downs
##DESCRIPTION=Black prismatic crystal associated with white analcime, R040128
##STATUS=The identification of this mineral has been confirmed by X-ray diffraction and chemical analysis
##URL=rruff.info/R040127
##MEASURED CHEMISTRY=(Na_0.61_K_0.39_)Na_2.00_(Fe^2+^_2.40_Mg_0.80_Mn_0.75_Ca_0.05_)_&#931;=4_(Fe^3+^_0.60_Al_0.25_Mn_0.15_)(Si_0.99_Ti_0.01_)_8_O_22_((OH)_0.67_F_0.33_)_2_
##PIN_ID=M00441
##ORIENTATION=Laser parallel to a* (1 0 0). Fiducial mark perpendicular to laser is parallel to -b [0 -1 0]
125.1230, 0.0000000E+00
126.3600, 22.48242
127.5960, 102.1641
128.8330, 927.0020
130.0700, 1741.516
131.3060, 2100.979
132.5420, 1788.734
133.7780, 1586.129
135.0140, 1696.926
136.2500, 2442.520
137.4850, 3478.463
138.7200, 5185.557
139.9550, 5547.008
141.1900, 4582.459
142.4250, 3597.250
143.6600, 3873.566
144.8940, 2870.879
146.1280, 2403.348
147.3620, 2075.676
148.5960, 1354.822
149.8300, 1256.027
151.0630, 1974.744
152.2960, 2166.559
153.5300, 2122.219
154.7620, 2784.520
155.9950, 3348.449
157.2280, 4280.469
158.4600, 2699.543
159.6920, 2633.445
160.9250, 3342.842
162.1560, 4310.953
163.3880, 4894.900
164.6200, 5579.875
165.8510, 6062.422
167.0820, 5243.699
168.3130, 5266.572
169.5440, 5279.268
170.7750, 5254.980
172.0050, 4410.898
173.2350, 3819.227
174.4650, 3595.133
175.6950, 3455.744
176.9250, 3404.182
178.1550, 3431.338
179.3840, 3562.555
180.6130, 3709.100
181.8420, 3908.326
183.0710, 4183.168
184.3000, 4834.348
185.5280, 5606.430
186.7570, 6567.656
187.9850, 6620.285
189.2130, 7312.662
190.4400, 8012.396
191.6680, 8465.053
192.8960, 9223.352
194.1230, 9650.324
195.3500, 10037.27
196.5770, 10435.52
197.8030, 10867.52
199.0300, 11134.91
200.2560, 11538.44
201.4830, 11799.91
202.7090, 11470.39
203.9340, 9670.598
205.1600, 7325.500
206.3860, 5777.186
207.6110, 4941.908
208.8360, 4355.965
210.0610, 4220.271
211.2860, 3683.820
212.5100, 3243.594
213.7350, 3099.576
214.9590, 2819.756
216.1830, 2212.125
217.4070, 1995.777
218.6310, 1751.963
219.8540, 1458.873
221.0780, 1346.355
222.3010, 1106.312
223.5240, 974.4102
224.7470, 903.7012
225.9690, 868.2578
227.1920, 723.8477
228.4140, 643.9922
229.6360, 551.0527
230.8580, 493.5742
232.0800, 491.0508
233.3020, 434.9844
234.5230, 402.9082
235.7440, 411.6133
236.9650, 340.2578
238.1860, 345.7695
239.4070, 298.1445
240.6280, 539.3789
241.8480, 378.4805
243.0680, 428.4473
244.2880, 351.2852
245.5080, 177.9922
246.7280, 365.5781
247.9470, 174.0391
249.1660, 289.3789
250.3860, 17.72656
251.6040, 133.1250
252.8230, 186.0957
254.0420, 180.0215
255.2600, 61.56445
256.4790, 0.6953130
257.6970, 58.96289
258.9150, 123.7363
260.1320, 18.98633
261.3500, 226.9688
262.5670, 125.2383
263.7840, 147.3691
265.0010, 113.1797
266.2180, 201.8945
267.4350, 253.1543
268.6510, 428.3770
269.8680, 552.4277
271.0840, 379.1270
272.3000, 521.0898
273.5160, 585.6426
274.7310, 355.7520
275.9470, 182.9219
277.1620, 67.37109
278.3770, 23.24219
279.5920, 167.6641
280.8070, 124.7734
282.0210, 145.6406
283.2360, 9.664063
284.4500, 5.123047
285.6640, 12.68750
286.8780, 104.3281
288.0920, 330.0273
289.3050, 506.7812
290.5180, 603.5586
291.7320, 746.3359
292.9450, 1062.088
294.1570, 1245.793
295.3700, 1317.441
296.5830, 1494.018
297.7950, 1939.520
299.0070, 2152.936
300.2190, 2604.264
301.4310, 2853.891
302.6420, 3466.582
303.8540, 3878.246
305.0650, 4227.316
306.2760, 4517.314
307.4870, 4575.627
308.6980, 4939.500
309.9080, 5188.572
311.1190, 5440.738
312.3290, 5865.992
313.5390, 5969.549
314.7490, 6381.150
315.9580, 6678.297
317.1680, 6613.867
318.3770, 6585.412
319.5860, 6483.125
320.7950, 6087.883
322.0040, 5953.842
323.2130, 5519.191
324.4210, 5301.852
325.6290, 4950.930
326.8380, 4490.906
328.0460, 4505.566
329.2530, 4172.111
330.4610, 4050.639
331.6680, 3642.803
332.8760, 3539.949
334.0830, 3325.945
335.2890, 3293.795
336.4960, 3248.314
337.7030, 3180.539
338.9090, 3405.428
340.1150, 3566.873
341.3210, 3561.941
342.5270, 3717.539
343.7330, 3880.402
344.9380, 3941.277
346.1440, 4211.127
347.3490, 4166.352
348.5540, 4437.311
349.7590, 4595.967
350.9630, 4801.459
352.1680, 5049.824
353.3720, 5112.158
354.5760, 5262.266
355.7800, 5385.740
356.9840, 5401.988
358.1870, 5346.203
359.3910, 5347.389
360.5940, 5152.537
361.7970, 5376.656
363.0000, 5047.738
364.2030, 5067.781
365.4050, 4702.785
366.6080, 4836.748
367.8100, 4720.666
369.0120, 4971.537
370.2140, 4835.361
371.4150, 4687.137
372.6170, 5006.867
373.8180, 4569.545
375.0190, 4481.586
376.2200, 4596.498
377.4210, 4649.086
378.6220, 4642.699
379.8220, 4400.840
381.0230, 4462.936
382.2230, 4402.875
383.4230, 4337.797
384.6220, 4442.109
385.8220, 4488.578
387.0220, 4911.574
388.2210, 4629.777
389.4200, 5241.479
390.6190, 4485.102
391.8180, 4486.859
393.0160, 4546.336
394.2150, 4278.695
395.4130, 4376.307
396.6110, 4437.277
397.8090, 4312.730
399.0060, 4232.070
400.2040, 4023.680
401.4010, 4163.135
402.5980, 4659.785
403.7950, 4989.318
404.9920, 4575.375
406.1890, 4670.883
407.3860, 4009.637
408.5820, 4218.520
409.7780, 4044.520
410.9740, 3963.943
412.1700, 4002.145
413.3650, 4367.359
414.5610, 3989.922
415.7560, 3946.055
416.9510, 3528.633
418.1460, 3457.080
419.3410, 3354.908
420.5360, 3239.500
421.7300, 3090.242
422.9240, 3087.631
424.1180, 2808.820
425.3120, 2617.555
426.5060, 2589.822
427.7000, 2262.676
428.8930, 2087.074
430.0860, 1983.775
431.2790, 1805.453
432.4720, 1836.104
433.6650, 1550.240
434.8580, 1409.348
436.0500, 1363.428
437.2420, 1433.475
438.4340, 1129.496
439.6260, 1082.945
440.8180, 794.4453
442.0090, 810.3789
443.2010, 496.2871
444.3920, 453.1641
445.5830, 175.0176
446.7740, 125.5664
447.9640, 187.6465
449.1550, 38.42383
450.3450, 66.82617
451.5350, 101.1406
452.7250, 226.5352
453.9150, 358.0742
455.1050, 422.8223
456.2940, 282.8125
457.4830, 259.9688
458.6720, 416.2734
459.8610, 230.8105
461.0500, 207.4746
462.2390, 103.7422
463.4270, 50.89258
464.6150, 84.88477
465.8040, 242.7676
466.9910, 186.7754
468.1790, 144.8770
469.3670, 203.0488
470.5540, 220.3145
471.7410, 129.6836
472.9280, 134.1094
474.1150, 28.59375
475.3020, 36.36523
476.4890, 132.8828
477.6750, 38.14062
478.8610, 46.31836
480.0470, 45.04883
481.2330, 541.2383
482.4190, 241.7031
483.6040, 551.1738
484.7900, 624.6504
485.9750, 667.1367
487.1600, 837.6348
488.3450, 967.1504
489.5290, 1104.688
490.7140, 1317.244
491.8980, 1301.822
493.0820, 1588.426
494.2660, 1819.053
495.4500, 1849.703
496.6340, 2005.381
497.8170, 2235.086
499.0010, 2337.816
500.1840, 2707.572
501.3670, 2833.357
502.5500, 3014.332
503.7320, 3350.012
504.9150, 3372.879
506.0970, 3566.777
507.2790, 3849.701
508.4610, 3981.656
509.6430, 4213.520
510.8250, 4685.652
512.0060, 4645.695
513.1870, 4782.770
514.3680, 5065.877
515.5490, 5612.014
516.7300, 6120.182
517.9110, 6665.943
519.0910, 6800.613
520.2710, 7964.879
521.4510, 8049.180
522.6310, 8782.512
523.8110, 9467.879
524.9910, 9896.289
526.1700, 10585.73
527.3490, 11422.23
528.5280, 12237.76
529.7070, 12935.79
530.8860, 13792.00
532.0650, 14140.71
533.2430, 14748.51
534.4210, 14830.43
535.5990, 15145.43
536.7770, 15048.55
537.9550, 14925.82
539.1320, 14728.26
540.3100, 14281.86
541.4870, 13908.66
542.6640, 13390.70
543.8410, 12875.00
545.0170, 12319.58
546.1940, 11620.44
547.3700, 11163.55
548.5470, 10669.96
549.7230, 10243.67
550.8980, 9941.625
552.0740, 9649.879
553.2500, 9299.441
554.4250, 9040.297
555.6000, 8786.457
556.7750, 8628.389
557.9500, 8519.801
559.1250, 8440.980
560.2990, 8347.408
561.4730, 8337.072
562.6480, 8358.871
563.8220, 8351.980
564.9950, 8324.961
566.1690, 8420.260
567.3430, 8516.750
568.5160, 8560.434
569.6890, 8592.234
570.8620, 8551.008
572.0350, 8461.104
573.2070, 8334.152
574.3800, 8094.248
575.5520, 7824.303
576.7240, 7634.869
577.8960, 7306.697
579.0680, 6835.033
580.2400, 6671.449
581.4110, 6296.662
582.5830, 5966.031
583.7540, 5641.438
584.9250, 5343.883
586.0950, 5031.363
587.2660, 4970.879
588.4370, 4783.430
589.6070, 4494.020
590.7770, 4618.643
591.9470, 4388.434
593.1170, 3964.504
594.2860, 4301.172
595.4560, 4286.773
596.6250, 3761.512
597.7940, 3876.244
598.9630, 3854.619
600.1320, 3674.404
601.3000, 3557.057
602.4690, 3346.404
603.6370, 3390.461
604.8050, 3165.354
605.9730, 3033.932
607.1410, 2988.016
608.3090, 2775.678
609.4760, 2582.830
610.6430, 2496.986
611.8100, 2429.359
612.9770, 2218.754
614.1440, 2332.102
615.3110, 1995.670
616.4770, 1734.100
617.6430, 1806.688
618.8090, 1605.234
619.9750, 1382.912
621.1410, 1618.635
622.3070, 1417.400
623.4720, 1193.211
624.6370, 1225.062
625.8020, 1116.957
626.9670, 1001.896
628.1320, 1099.877
629.2970, 986.9004
630.4610, 875.9629
631.6250, 902.0684
632.7890, 923.2129
633.9530, 980.3965
635.1170, 953.6211
636.2810, 1025.314
637.4440, 968.0195
638.6070, 1147.529
639.7700, 928.9082
640.9330, 995.3242
642.0960, 1127.777
643.2590, 1087.266
644.4210, 1132.791
645.5830, 1349.352
646.7450, 1300.947
647.9070, 1450.578
649.0690, 1515.242
650.2310, 1795.938
651.3920, 1856.109
652.5530, 1937.436
653.7140, 2126.230
654.8750, 2507.059
656.0360, 2766.916
657.1970, 3322.805
658.3570, 3830.727
659.5170, 4534.674
660.6770, 5586.654
661.8370, 7015.697
662.9970, 8141.734
664.1570, 9923.932
665.3160, 10531.27
666.4750, 10995.30
667.6340, 12225.77
668.7930, 13685.99
669.9520, 15297.32
671.1110, 16679.58
672.2690, 16952.12
673.4270, 17495.09
674.5850, 17444.10
675.7430, 17326.20
676.9010, 16696.73
678.0590, 15257.70
679.2160, 13639.05
680.3730, 12411.05
681.5300, 10727.76
682.6870, 9002.797
683.8440, 7641.334
685.0010, 6505.068
686.1570, 5515.617
687.3130, 4625.148
688.4690, 4130.377
689.6250, 4124.084
690.7810, 4066.262
691.9370, 3947.779
693.0920, 3586.994
694.2470, 3522.273
695.4020, 3336.119
696.5570, 3155.695
697.7120, 3134.824
698.8670, 2777.729
700.0210, 2741.453
701.1750, 2568.387
702.3290, 2562.504
703.4830, 2533.994
704.6370, 2586.664
705.7910, 2574.287
706.9440, 2459.662
708.0970, 2526.938
709.2510, 2469.543
710.4030, 2356.789
711.5560, 2423.918
712.7090, 2346.766
713.8610, 2159.019
715.0140, 2289.100
716.1660, 2263.173
717.3180, 2205.476
718.4690, 1949.245
719.6210, 1793.432
720.7730, 1777.556
721.9240, 1769.621
723.0750, 1903.627
724.2260, 1620.570
725.3770, 1501.452
726.5270, 1647.272
727.6780, 1607.029
728.8280, 1553.726
729.9780, 1520.358
731.1280, 1487.229
732.2780, 1418.505
733.4280, 1380.809
734.5770, 1360.240
735.7260, 1283.267
736.8760, 1310.902
738.0250, 1279.538
739.1730, 1211.216
740.3220, 1292.883
741.4700, 1104.534
742.6190, 1182.116
743.7670, 983.6426
744.9150, 1031.121
746.0630, 1198.586
747.2100, 1414.023
748.3580, 1399.209
749.5050, 1030.791
750.6520, 1330.138
751.7990, 1087.440
752.9460, 797.6963
754.0930, 930.8857
755.2390, 874.0088
756.3860, 981.0596
757.5320, 975.3652
758.6780, 1008.954
759.8240, 1023.790
760.9690, 1027.320
762.1150, 934.2344
763.2600, 1004.841
764.4060, 1070.372
765.5510, 990.8271
766.6950, 1097.205
767.8400, 1022.505
768.9850, 1117.727
770.1290, 1026.870
771.2730, 990.9336
772.4170, 1064.920
773.5610, 1231.828
774.7050, 1209.655
775.8480, 1239.404
776.9920, 1192.072
778.1350, 1088.660
779.2780, 1381.168
780.4210, 1247.516
781.5640, 1346.941
782.7060, 1178.208
783.8490, 1367.393
784.9910, 1242.496
786.1330, 1265.518
787.2750, 1215.457
788.4170, 984.3154
789.5580, 1190.091
790.7000, 1095.784
791.8410, 923.3955
792.9820, 979.9229
794.1230, 1026.369
795.2640, 836.4902
796.4040, 1177.010
797.5450, 608.2051
798.6850, 567.3164
799.8250, 609.3438
800.9650, 308.2861
802.1050, 489.1338
803.2450, 220.8936
804.3840, 275.5527
805.5230, 88.11328
806.6630, 193.5479
807.8020, 3.876953
808.9400, 33.03711
810.0790, 163.9551
811.2170, 27.79395
812.3560, 131.9238
813.4940, 137.8340
814.6320, 303.1592
815.7700, 292.3867
816.9070, 365.9434
818.0450, 440.4551
819.1820, 540.9326
820.3190, 516.9795
821.4560, 520.2129
822.5930, 469.8926
823.7300, 501.9951
824.8670, 489.5352
826.0030, 377.5059
827.1390, 549.8477
828.2750, 523.6504
829.4110, 412.8994
830.5470, 288.5361
831.6820, 296.4941
832.8180, 469.7773
833.9530, 311.4727
835.0880, 82.50000
836.2230, 111.5117
837.3580, 201.9766
838.4920, 164.4961
839.6270, 114.2148
840.7610, 72.15332
841.8950, 162.2871
843.0290, 176.6621
844.1630, 4.713867
845.2960, 134.9414
846.4300, 17.06836
847.5630, 364.0537
848.6960, 190.9580
849.8290, 294.7695
850.9620, 315.4980
852.0940, 297.1455
853.2270, 470.7090
854.3590, 328.1973
855.4910, 558.6055
856.6230, 632.9404
857.7550, 674.2021
858.8870, 1010.392
860.0180, 883.5791
861.1500, 1061.505
862.2810, 887.5293
863.4120, 1186.436
864.5430, 1440.271
865.6730, 1421.039
866.8040, 1622.740
867.9340, 1798.372
869.0640, 2038.938
870.1940, 2173.396
871.3240, 2343.458
872.4540, 2487.234
873.5830, 2650.534
874.7130, 2861.770
875.8420, 3063.939
876.9710, 3215.043
878.1000, 3356.083
879.2290, 3485.060
880.3570, 3625.973
881.4860, 3757.823
882.6140, 3936.612
883.7420, 4157.338
884.8700, 4118.004
885.9980, 4309.607
887.1250, 4613.713
888.2530, 4566.549
889.3800, 5171.061
890.5070, 4693.429
891.6340, 4612.738
892.7610, 4760.990
893.8880, 5324.186
895.0140, 4944.326
896.1400, 5178.412
897.2670, 4846.443
898.3930, 5085.422
899.5180, 4746.347
900.6440, 4883.223
901.7700, 5040.051
902.8950, 4837.835
904.0200, 4582.584
905.1450, 4707.316
906.2700, 4603.018
907.3950, 4731.695
908.5190, 4578.340
909.6440, 4576.952
910.7680, 4500.530
911.8920, 4399.080
913.0160, 4338.604
914.1400, 4302.104
915.2630, 4182.207
916.3870, 4188.072
917.5100, 3987.541
918.6330, 3924.018
919.7560, 3862.467
920.8790, 3898.895
922.0010, 3676.301
923.1240, 3568.684
924.2460, 3580.041
925.3680, 3652.376
926.4900, 3496.680
927.6120, 3429.006
928.7340, 3360.302
929.8550, 3384.588
930.9760, 3526.859
932.0980, 3456.133
933.2190, 3367.389
934.3390, 3195.592
935.4600, 3375.822
936.5810, 3409.892
937.7010, 3490.729
938.8210, 3271.205
939.9410, 3616.099
941.0610, 3531.248
942.1810, 3616.314
943.3010, 3795.448
944.4200, 3727.306
945.5390, 3907.779
946.6580, 4029.207
947.7770, 4086.348
948.8960, 4336.475
950.0150, 4278.959
951.1330, 4403.076
952.2510, 4492.535
953.3690, 4582.332
954.4870, 4901.732
955.6050, 4818.676
956.7230, 5068.430
957.8400, 5148.404
958.9580, 5470.346
960.0750, 5442.154
961.1920, 5862.059
962.3090, 5971.225
963.4250, 6098.125
964.5420, 6382.086
965.6580, 6699.965
966.7740, 6879.473
967.8900, 6968.238
969.0060, 7364.090
970.1220, 7463.594
971.2380, 7860.312
972.3530, 7977.143
973.4680, 8334.871
974.5830, 8301.926
975.6980, 8418.803
976.8130, 8392.211
977.9280, 8601.906
979.0420, 8412.184
980.1560, 8492.980
981.2710, 8273.441
982.3850, 8038.871
983.4980, 7894.582
984.6120, 7635.893
985.7260, 7438.375
986.8390, 7446.867
987.9520, 7291.135
989.0650, 7106.936
990.1780, 6918.854
991.2910, 6395.773
992.4030, 6441.289
993.5160, 6211.871
994.6280, 6055.535
995.7400, 6421.295
996.8520, 6268.125
997.9640, 5792.064
999.0750, 6209.070
1000.187, 5742.295
1001.298, 5743.285
1002.409, 5377.498
1003.520, 5125.785
1004.631, 5201.145
1005.741, 5356.574
1006.852, 4983.748
1007.962, 5131.707
1009.072, 5217.480
1010.182, 5244.412
1011.292, 5035.994
1012.402, 5131.664
1013.511, 5105.568
1014.621, 5074.570
1015.730, 4938.051
1016.839, 5002.273
1017.948, 4981.574
1019.056, 4925.293
1020.165, 5057.408
1021.273, 4906.941
1022.382, 5012.555
1023.490, 5035.250
1024.598, 4987.613
1025.706, 5025.762
1026.813, 4978.871
1027.921, 5006.914
1029.028, 5040.051
1030.135, 5052.270
1031.242, 5240.572
1032.349, 5275.959
1033.456, 5361.008
1034.562, 5428.719
1035.668, 5616.533
1036.775, 5618.338
1037.881, 5967.688
1038.987, 5819.143
1040.092, 6110.355
1041.198, 6197.035
1042.303, 6215.512
1043.408, 6338.961
1044.514, 6333.256
1045.618, 6421.057
1046.723, 6453.105
1047.828, 6515.303
1048.932, 6474.434
1050.037, 6600.299
1051.141, 6544.322
1052.245, 6464.471
1053.349, 6543.906
1054.452, 6734.213
1055.556, 6861.006
1056.659, 6928.568
1057.762, 6761.455
1058.865, 6900.723
1059.968, 6916.867
1061.071, 6929.234
1062.174, 7111.197
1063.276, 6979.398
1064.378, 7161.650
1065.480, 7215.074
1066.582, 7325.100
1067.684, 7314.912
1068.786, 7338.795
1069.887, 7495.221
1070.988, 7584.184
1072.090, 7556.107
1073.191, 7668.391
1074.291, 7623.811
1075.392, 7207.844
1076.493, 7231.842
1077.593, 7178.996
1078.693, 7227.502
1079.793, 7302.609
1080.893, 7159.400
1081.993, 7052.363
1083.092, 6825.535
1084.192, 7067.926
1085.291, 7038.559
1086.390, 6939.441
1087.489, 6971.600
1088.588, 7145.021
1089.686, 6946.740
1090.785, 7066.096
1091.883, 7123.471
1092.981, 7122.170
1094.079, 6885.672
1095.177, 6953.467
1096.275, 6899.701
1097.373, 6841.182
1098.470, 6952.531
1099.567, 6751.529
1100.664, 6860.662
1101.761, 6846.318
1102.858, 6888.695
1103.954, 6808.666
1105.051, 6766.576
1106.147, 6847.309
1107.243, 6860.291
1108.339, 6766.719
1109.435, 6813.602
1110.531, 6610.008
1111.626, 6496.250
1112.722, 6547.168
1113.817, 6535.566
1114.912, 6465.121
1116.007, 6159.348
1117.101, 6157.738
1118.196, 6034.295
1119.290, 5906.029
1120.385, 5947.373
1121.479, 5676.344
1122.573, 5715.252
1123.666, 5630.635
1124.760, 5603.424
1125.853, 5457.074
1126.947, 5350.402
1128.040, 5361.824
1129.133, 5313.273
1130.226, 5149.189
1131.318, 5125.377
1132.411, 4850.891
1133.503, 4796.520
1134.596, 4777.078
1135.688, 4740.600
1136.780, 4785.188
1137.871, 4846.723
1138.963, 4674.723
1140.054, 4340.457
1141.146, 3358.201
1142.237, 3038.084
1143.328, 3057.859
1144.419, 2979.406
1145.509, 2910.141
1146.600, 2819.293
1147.690, 2646.936
1148.780, 2446.773
1149.870, 2279.100
1150.960, 1971.486
1152.050, 1803.928
1153.139, 1598.424
1154.229, 1438.061
1155.318, 1275.455
1156.407, 958.0273
1157.496, 930.7812
1158.585, 789.5488
1159.674, 332.8438
1160.762, 378.7129
1161.850, 218.6309
1162.939, 178.4004
1164.027, 35.35547
1165.114, 5.330078
1166.202, 60.50000
1167.290, 123.5234
1168.377, 211.7148
1169.464, 133.0859
1170.551, 175.4453
1171.638, 100.9844
1172.725, 90.56055
1173.812, 85.22266
1174.898, 133.3887
1175.984, 87.13867
1177.071, 155.9316
1178.157, 205.8613
1179.242, 139.6348
1180.328, 222.2246
1181.414, 264.9805
1182.499, 72.12891
1183.584, 102.0527
1184.669, 108.9746
1185.754, 70.61914
1186.839, 58.29297
1187.924, 75.52344
1189.008, 131.3809
1190.092, 96.62305
1191.177, 122.1328
1192.260, 118.0684
1193.344, 86.38672
1194.428, 177.9453
1195.512, 53.90820
1196.595, 49.37695
1197.678, 105.3652
1198.761, 1.857422
1199.844, 228.9902
1200.927, 233.6953
1202.009, 72.09961
1203.092, 76.70312
1204.174, 102.1855
1205.256, 27.93945
1206.338, 37.25000
1207.420, 104.6289
1208.502, 91.46875
1209.583, 23.84570
1210.665, 313.4746
1211.746, 93.24414
1212.827, 232.3086
1213.908, 67.71484
1214.988, 96.68555
1216.069, 350.3418
1217.149, 33.63477
1218.230, 224.5723
1219.310, 5.458984
1220.390, 102.2051
1221.470, 244.2168
1222.549, 103.4180
1223.629, 311.5449
1224.708, 168.0312
1225.787, 254.7500
1226.866, 334.3125
1227.945, 82.18164
1229.024, 293.9570
1230.103, 164.0156
1231.181, 364.8008
1232.259, 228.5273
1233.337, 309.2305
1234.415, 242.0293
1235.493, 294.4180
1236.571, 304.9961
1237.648, 67.45703
1238.726, 223.0117
1239.803, 306.9805
1240.880, 279.0352
1241.957, 51.06836
1243.034, 208.8691
1244.110, 193.2012
1245.187, 272.6289
1246.263, 307.3223
1247.339, 259.7246
1248.415, 181.9697
1249.491, 206.8301
1250.566, 165.4434
1251.642, 175.1289
1252.717, 126.9014
1253.793, 62.23926
1254.868, 9.521484
1255.943, 39.07227
1257.017, 55.58008
1258.092, 84.81934
1259.166, 99.94434
1260.241, 143.8340
1261.315, 253.9062
1262.389, 286.2217
1263.462, 56.71875
1264.536, 276.4092
1265.610, 156.0908
1266.683, 84.78906
1267.756, 112.3457
1268.829, 2.854492
1269.902, 91.29980
1270.975, 63.13965
1272.048, 69.55176
1273.120, 112.7676
1274.192, 109.9570
1275.264, 197.1406
1276.336, 226.2393
1277.408, 322.2920
1278.480, 372.2979
1279.551, 321.6885
1280.623, 353.6250
1281.694, 212.6865
1282.765, 115.7900
1283.836, 99.53809
1284.907, 75.25879
1285.977, 171.8203
1287.048, 182.3701
1288.118, 69.86816
1289.188, 214.2803
1290.258, 317.6396
1291.328, 148.9463
1292.398, 109.1895
