##NAMES=Arfvedsonite
##RRUFFID=R040127
##IDEAL CHEMISTRY=NaNa_2_(Fe^2+^_4_Fe^3+^)Si_8_O_22_(OH)_2_
##LOCALITY=Mont Saint-Hilaire, Rouville County, Quebec, Canada
##OWNER=RRUFF
##SOURCE=Bob Downs
##DESCRIPTION=Black prismatic crystal associated with white analcime, R040128
##STATUS=The identification of this mineral has been confirmed by X-ray diffraction and chemical analysis
##URL=rruff.info/R040127
##MEASURED CHEMISTRY=(Na_0.61_K_0.39_)Na_2.00_(Fe^2+^_2.40_Mg_0.80_Mn_0.75_Ca_0.05_)_&#931;=4_(Fe^3+^_0.60_Al_0.25_Mn_0.15_)(Si_0.99_Ti_0.01_)_8_O_22_((OH)_0.67_F_0.33_)_2_
##PIN_ID=L01975
##ORIENTATION=Laser parallel to b* (0 1 0). Fiducial mark perpendicular to laser is parallel to c [0 0 1]
159.6920, 0.0000000E+00
160.9250, 23.84766
162.1560, 754.9199
163.3880, 2541.012
164.6200, 3151.447
165.8510, 2641.037
167.0820, 2574.379
168.3130, 2456.223
169.5440, 2904.004
170.7750, 3406.230
172.0050, 3091.193
173.2350, 2262.939
174.4650, 2520.609
175.6950, 2067.488
176.9250, 2139.457
178.1550, 2149.805
179.3840, 2614.275
180.6130, 2670.203
181.8420, 3788.432
183.0710, 3973.162
184.3000, 3345.135
185.5280, 4607.330
186.7570, 5855.676
187.9850, 7232.270
189.2130, 8510.965
190.4400, 9905.609
191.6680, 11062.97
192.8960, 12915.04
194.1230, 13428.14
195.3500, 14148.41
196.5770, 14764.38
197.8030, 14904.27
199.0300, 15291.02
200.2560, 16905.70
201.4830, 17697.71
202.7090, 17703.00
203.9340, 15072.04
205.1600, 10465.18
206.3860, 6401.227
207.6110, 3936.004
208.8360, 3330.953
210.0610, 2903.754
211.2860, 2560.285
212.5100, 2199.568
213.7350, 2068.326
214.9590, 1967.475
216.1830, 1551.792
217.4070, 1382.995
218.6310, 1079.048
219.8540, 1038.816
221.0780, 951.9238
222.3010, 1224.953
223.5240, 592.0449
224.7470, 587.2402
225.9690, 584.7773
227.1920, 1275.262
228.4140, 601.7305
229.6360, 702.9043
230.8580, 349.1748
232.0800, 408.3994
233.3020, 679.6367
234.5230, 1072.225
235.7440, 276.8721
236.9650, 172.2578
238.1860, 148.9854
239.4070, 163.2598
240.6280, 121.9395
241.8480, 141.8799
243.0680, 79.44727
244.2880, 206.0410
245.5080, 114.8555
246.7280, 215.8203
247.9470, 114.6836
249.1660, 49.60254
250.3860, 132.0977
251.6040, 231.6641
252.8230, 253.4160
254.0420, 35.86816
255.2600, 76.61621
256.4790, 28.10938
257.6970, 26.97070
258.9150, 142.0674
260.1320, 101.9062
261.3500, 63.52832
262.5670, 65.47852
263.7840, 142.1875
265.0010, 56.82422
266.2180, 21.38770
267.4350, 147.8691
268.6510, 184.5195
269.8680, 80.01074
271.0840, 160.7734
272.3000, 89.84863
273.5160, 49.96777
274.7310, 115.1680
275.9470, 18.05957
277.1620, 33.16406
278.3770, 114.4053
279.5920, 212.7891
280.8070, 155.3877
282.0210, 281.1904
283.2360, 257.2783
284.4500, 138.4600
285.6640, 237.8594
286.8780, 242.4365
288.0920, 208.1572
289.3050, 127.0732
290.5180, 304.2461
291.7320, 263.6201
292.9450, 186.3506
294.1570, 231.5234
295.3700, 156.1660
296.5830, 224.2500
297.7950, 91.74609
299.0070, 135.7070
300.2190, 56.08691
301.4310, 97.29004
302.6420, 23.69043
303.8540, 214.6807
305.0650, 225.9805
306.2760, 269.5703
307.4870, 323.7773
308.6980, 511.6992
309.9080, 630.3887
311.1190, 791.7969
312.3290, 593.5713
313.5390, 665.3955
314.7490, 632.1318
315.9580, 671.8857
317.1680, 633.6201
318.3770, 827.4854
319.5860, 599.3613
320.7950, 613.1865
322.0040, 713.9678
323.2130, 558.0566
324.4210, 577.0947
325.6290, 601.3340
326.8380, 523.1318
328.0460, 538.8945
329.2530, 609.7568
330.4610, 614.1465
331.6680, 761.2920
332.8760, 927.8105
334.0830, 707.2441
335.2890, 758.3359
336.4960, 1025.213
337.7030, 1373.652
338.9090, 1480.896
340.1150, 1694.187
341.3210, 1960.427
342.5270, 2268.609
343.7330, 2736.120
344.9380, 3233.176
346.1440, 3522.965
347.3490, 4050.470
348.5540, 4434.725
349.7590, 5108.738
350.9630, 5547.424
352.1680, 6157.896
353.3720, 6350.065
354.5760, 8483.926
355.7800, 6926.457
356.9840, 8535.766
358.1870, 7077.867
359.3910, 6859.749
360.5940, 6640.441
361.7970, 6533.850
363.0000, 6114.000
364.2030, 5937.883
365.4050, 5699.302
366.6080, 5359.739
367.8100, 4923.640
369.0120, 4727.561
370.2140, 4467.070
371.4150, 4095.047
372.6170, 4111.590
373.8180, 3940.734
375.0190, 3837.578
376.2200, 3531.006
377.4210, 3450.503
378.6220, 3335.307
379.8220, 3352.365
381.0230, 3175.117
382.2230, 3019.368
383.4230, 2911.407
384.6220, 2902.486
385.8220, 2712.151
387.0220, 2690.898
388.2210, 2432.986
389.4200, 2605.903
390.6190, 2353.809
391.8180, 2300.921
393.0160, 2063.971
394.2150, 2026.144
395.4130, 2003.149
396.6110, 1811.642
397.8090, 1701.134
399.0060, 1668.696
400.2040, 1438.744
401.4010, 1428.715
402.5980, 1559.448
403.7950, 1538.840
404.9920, 1297.605
406.1890, 1350.897
407.3860, 1214.108
408.5820, 1276.097
409.7780, 1554.918
410.9740, 1539.510
412.1700, 1711.357
413.3650, 1745.304
414.5610, 1737.088
415.7560, 1738.645
416.9510, 1763.831
418.1460, 1818.244
419.3410, 1709.241
420.5360, 1842.656
421.7300, 1859.028
422.9240, 1556.063
424.1180, 1343.808
425.3120, 1275.043
426.5060, 1280.273
427.7000, 1256.898
428.8930, 1183.878
430.0860, 1234.519
431.2790, 1036.773
432.4720, 1444.082
433.6650, 966.3857
434.8580, 919.4805
436.0500, 1099.037
437.2420, 813.3672
438.4340, 799.7920
439.6260, 632.8906
440.8180, 640.6709
442.0090, 611.7314
443.2010, 646.0078
444.3920, 349.2676
445.5830, 248.2793
446.7740, 218.0869
447.9640, 154.5342
449.1550, 104.8320
450.3450, 159.1025
451.5350, 8.508789
452.7250, 131.4443
453.9150, 84.14746
455.1050, 66.19434
456.2940, 45.57910
457.4830, 8.509766
458.6720, 10.28125
459.8610, 18.23828
461.0500, 15.29688
462.2390, 53.46582
463.4270, 5.675781
464.6150, 9.644531
465.8040, 92.72266
466.9910, 106.5830
468.1790, 81.26562
469.3670, 267.2607
470.5540, 244.2900
471.7410, 192.8223
472.9280, 243.0850
474.1150, 257.3857
475.3020, 359.6777
476.4890, 346.9570
477.6750, 379.1445
478.8610, 378.0957
480.0470, 424.9785
481.2330, 276.9473
482.4190, 462.3262
483.6040, 275.2988
484.7900, 460.9551
485.9750, 555.7852
487.1600, 595.1523
488.3450, 591.0127
489.5290, 677.3867
490.7140, 744.3867
491.8980, 1035.928
493.0820, 1017.909
494.2660, 1048.086
495.4500, 1133.810
496.6340, 1014.764
497.8170, 1100.639
499.0010, 1204.437
500.1840, 1420.157
501.3670, 1451.803
502.5500, 1446.374
503.7320, 1584.871
504.9150, 1633.295
506.0970, 1758.645
507.2790, 1741.926
508.4610, 2012.137
509.6430, 1958.282
510.8250, 2109.361
512.0060, 2166.379
513.1870, 2394.334
514.3680, 2669.231
515.5490, 2731.072
516.7300, 2900.855
517.9110, 2852.586
519.0910, 3164.264
520.2710, 3397.890
521.4510, 3631.461
522.6310, 3940.981
523.8110, 4311.450
524.9910, 4646.650
526.1700, 5115.246
527.3490, 5516.571
528.5280, 5982.154
529.7070, 6632.089
530.8860, 6900.281
532.0650, 7310.447
533.2430, 7516.581
534.4210, 7915.029
535.5990, 8389.743
536.7770, 8560.798
537.9550, 8607.868
539.1320, 8706.924
540.3100, 8653.002
541.4870, 8674.127
542.6640, 8394.241
543.8410, 8055.404
545.0170, 7526.424
546.1940, 7552.274
547.3700, 7495.975
548.5470, 7361.729
549.7230, 6916.547
550.8980, 6873.234
552.0740, 6668.801
553.2500, 6457.775
554.4250, 6471.041
555.6000, 6379.436
556.7750, 6261.834
557.9500, 6156.242
559.1250, 5984.193
560.2990, 6077.406
561.4730, 6088.318
562.6480, 6021.244
563.8220, 5643.152
564.9950, 5666.906
566.1690, 5529.623
567.3430, 5385.777
568.5160, 5466.215
569.6890, 5133.681
570.8620, 5210.661
572.0350, 5124.222
573.2070, 5112.731
574.3800, 4939.195
575.5520, 4815.800
576.7240, 3765.793
577.8960, 3356.801
579.0680, 2980.842
580.2400, 2702.926
581.4110, 2467.914
582.5830, 2128.549
583.7540, 1783.113
584.9250, 1550.291
586.0950, 1271.355
587.2660, 1022.971
588.4370, 849.4727
589.6070, 748.4512
590.7770, 623.9795
591.9470, 530.9287
593.1170, 422.6484
594.2860, 322.6943
595.4560, 115.3984
596.6250, 127.3369
597.7940, 88.54004
598.9630, 31.95996
600.1320, 50.32715
601.3000, 37.15234
602.4690, 116.8633
603.6370, 30.36914
604.8050, 107.8545
605.9730, 74.28125
607.1410, 91.72852
608.3090, 82.87012
609.4760, 152.4121
610.6430, 80.74707
611.8100, 0.2734380
612.9770, 57.87988
614.1440, 50.72168
615.3110, 14.33594
616.4770, 142.5674
617.6430, 17.99707
618.8090, 32.33887
619.9750, 29.74316
621.1410, 88.99219
622.3070, 56.92188
623.4720, 36.86523
624.6370, 86.83887
625.8020, 20.56055
626.9670, 108.6494
628.1320, 206.8760
629.2970, 62.06348
630.4610, 129.2305
631.6250, 217.3604
632.7890, 226.4600
633.9530, 273.5293
635.1170, 200.5703
636.2810, 438.5801
637.4440, 388.5625
638.6070, 440.5156
639.7700, 617.4434
640.9330, 504.3428
642.0960, 429.2158
643.2590, 686.0605
644.4210, 658.4902
645.5830, 671.1318
646.7450, 829.4385
647.9070, 792.1787
649.0690, 742.8945
650.2310, 1114.584
651.3920, 909.2480
652.5530, 979.8877
653.7140, 1136.502
654.8750, 1035.091
656.0360, 1518.656
657.1970, 1392.196
658.3570, 1759.711
659.5170, 1743.202
660.6770, 2107.670
661.8370, 2198.114
662.9970, 2555.533
664.1570, 3037.930
665.3160, 3523.302
666.4750, 4019.951
667.6340, 4434.977
668.7930, 5193.279
669.9520, 5888.558
671.1110, 6687.206
672.2690, 7624.101
673.4270, 8453.169
674.5850, 9292.195
675.7430, 9859.359
676.9010, 10025.79
678.0590, 9735.479
679.2160, 9553.264
680.3730, 8742.528
681.5300, 7755.122
682.6870, 6916.771
683.8440, 6347.314
685.0010, 5667.562
686.1570, 5137.343
687.3130, 4908.830
688.4690, 4608.128
689.6250, 4409.036
690.7810, 4433.533
691.9370, 4375.876
693.0920, 4393.914
694.2470, 4460.258
695.4020, 4493.414
696.5570, 4636.297
697.7120, 4639.756
698.8670, 4746.051
700.0210, 4925.342
701.1750, 4959.843
702.3290, 5158.307
703.4830, 5290.570
704.6370, 5279.520
705.7910, 5568.172
706.9440, 5478.418
708.0970, 5550.695
709.2510, 5411.223
710.4030, 5520.422
711.5560, 5701.582
712.7090, 5694.702
713.8610, 5690.783
715.0140, 5990.824
716.1660, 5837.826
717.3180, 5905.789
718.4690, 5841.711
719.6210, 6008.591
720.7730, 5911.433
721.9240, 5923.232
723.0750, 6024.992
724.2260, 5835.152
725.3770, 5792.396
726.5270, 5605.045
727.6780, 5268.081
728.8280, 5331.307
729.9780, 5312.211
731.1280, 5215.225
732.2780, 4807.107
733.4280, 4800.555
734.5770, 4632.280
735.7260, 4540.258
736.8760, 4449.703
738.0250, 4286.037
739.1730, 4050.327
740.3220, 3832.553
741.4700, 3699.643
742.6190, 3577.826
743.7670, 3450.855
744.9150, 3467.248
746.0630, 3409.133
747.2100, 3422.543
748.3580, 3588.562
749.5050, 3026.045
750.6520, 3253.922
751.7990, 2895.354
752.9460, 2694.475
754.0930, 2499.814
755.2390, 2468.276
756.3860, 2683.415
757.5320, 2327.745
758.6780, 2436.212
759.8240, 2261.468
760.9690, 2233.186
762.1150, 1963.186
763.2600, 1978.379
764.4060, 1928.273
765.5510, 1980.516
766.6950, 1782.147
767.8400, 2005.151
768.9850, 1778.415
770.1290, 1712.957
771.2730, 1917.657
772.4170, 1495.464
773.5610, 1472.946
774.7050, 1454.711
775.8480, 1432.450
776.9920, 1366.162
778.1350, 1257.851
779.2780, 1196.513
780.4210, 1135.920
781.5640, 1182.764
782.7060, 1057.352
783.8490, 1123.917
784.9910, 1145.456
786.1330, 997.9736
787.2750, 965.4678
788.4170, 992.9385
789.5580, 840.3867
790.7000, 946.8125
791.8410, 976.2158
792.9820, 830.8271
794.1230, 651.9551
795.2640, 647.2930
796.4040, 558.6113
797.5450, 587.9062
798.6850, 462.1816
799.8250, 419.4365
800.9650, 555.6709
802.1050, 423.1055
803.2450, 155.0801
804.3840, 338.2549
805.5230, 181.4111
806.6630, 162.5479
807.8020, 21.33398
808.9400, 23.72363
810.0790, 50.74219
811.2170, 37.81445
812.3560, 183.6602
813.4940, 168.4336
814.6320, 46.66016
815.7700, 224.9590
816.9070, 186.4209
818.0450, 50.02539
819.1820, 275.6992
820.3190, 116.5596
821.4560, 225.2529
822.5930, 28.64453
823.7300, 296.8193
824.8670, 232.1895
826.0030, 100.7168
827.1390, 128.3330
828.2750, 144.0518
829.4110, 149.8779
830.5470, 160.8145
831.6820, 191.8652
832.8180, 162.4971
833.9530, 158.3398
835.0880, 238.0615
836.2230, 32.01270
837.3580, 91.70703
838.4920, 137.5264
839.6270, 127.7422
840.7610, 8.595703
841.8950, 16.06250
843.0290, 47.35547
844.1630, 145.4541
845.2960, 74.78418
846.4300, 91.39941
847.5630, 126.5664
848.6960, 22.72949
849.8290, 122.8877
850.9620, 207.0430
852.0940, 440.1934
853.2270, 319.3418
854.3590, 545.4854
855.4910, 478.3975
856.6230, 500.7715
857.7550, 442.9121
858.8870, 622.0537
860.0180, 761.1943
861.1500, 714.3369
862.2810, 795.4814
863.4120, 817.6270
864.5430, 1005.775
865.6730, 964.9268
866.8040, 1192.082
867.9340, 1282.241
869.0640, 1258.405
870.1940, 1573.575
871.3240, 1639.754
872.4540, 1961.942
873.5830, 1995.141
874.7130, 2307.361
875.8420, 2674.594
876.9710, 3068.837
878.1000, 2618.092
879.2290, 2682.359
880.3570, 2810.640
881.4860, 2846.933
882.6140, 2952.265
883.7420, 3131.633
884.8700, 3296.057
885.9980, 3230.519
887.1250, 3213.997
888.2530, 3339.490
889.3800, 3296.016
890.5070, 3286.562
891.6340, 3328.164
892.7610, 3317.788
893.8880, 3239.439
895.0140, 3198.119
896.1400, 3151.816
897.2670, 3156.547
898.3930, 3027.457
899.5180, 3197.066
900.6440, 2821.854
901.7700, 2935.666
902.8950, 2936.497
904.0200, 3028.349
905.1450, 2964.225
906.2700, 2778.142
907.3950, 2733.080
908.5190, 2935.056
909.6440, 2723.900
910.7680, 2710.145
911.8920, 2575.220
913.0160, 2378.314
914.1400, 2378.457
915.2630, 2224.626
916.3870, 2265.828
917.5100, 2005.072
918.6330, 1903.338
919.7560, 1993.662
920.8790, 1999.011
922.0010, 2025.384
923.1240, 1874.777
924.2460, 1881.036
925.3680, 1663.642
926.4900, 1805.112
927.6120, 1650.606
928.7340, 1676.124
929.8550, 1601.668
930.9760, 1915.253
932.0980, 1462.869
933.2190, 1705.513
934.3390, 1555.182
935.4600, 1538.877
936.5810, 1603.600
937.7010, 1713.377
938.8210, 1644.181
939.9410, 1663.013
941.0610, 1835.888
942.1810, 1821.790
943.3010, 1899.338
944.4200, 2060.726
945.5390, 1937.195
946.6580, 2064.013
947.7770, 2062.089
948.8960, 2067.906
950.0150, 2056.470
951.1330, 2094.060
952.2510, 2095.183
953.3690, 2216.713
954.4870, 2210.389
955.6050, 2331.187
956.7230, 2345.771
957.8400, 2410.871
958.9580, 2404.758
960.0750, 2466.847
961.1920, 2517.678
962.3090, 2603.350
963.4250, 2689.410
964.5420, 2770.329
965.6580, 2659.726
966.7740, 2648.371
967.8900, 2924.034
969.0060, 3062.144
970.1220, 3232.451
971.2380, 3249.775
972.3530, 3356.943
973.4680, 3523.842
974.5830, 3624.418
975.6980, 3849.361
976.8130, 3985.439
977.9280, 4166.938
979.0420, 4440.423
980.1560, 4432.233
981.2710, 4324.266
982.3850, 4529.916
983.4980, 4566.627
984.6120, 4736.416
985.7260, 4854.260
986.8390, 4635.158
987.9520, 5252.121
989.0650, 4900.102
990.1780, 4650.284
991.2910, 4684.500
992.4030, 4254.797
993.5160, 4399.184
994.6280, 4239.641
995.7400, 4189.180
996.8520, 3990.838
997.9640, 3897.198
999.0750, 3756.378
1000.187, 3684.265
1001.298, 3593.207
1002.409, 3536.207
1003.520, 3593.265
1004.631, 3472.102
1005.741, 3487.602
1006.852, 3323.882
1007.962, 3376.222
1009.072, 3319.617
1010.182, 3367.105
1011.292, 3323.347
1012.402, 3322.227
1013.511, 3264.980
1014.621, 3260.743
1015.730, 3280.600
1016.839, 3147.518
1017.948, 3187.005
1019.056, 3117.529
1020.165, 3162.623
1021.273, 2982.776
1022.382, 2931.986
1023.490, 2772.254
1024.598, 2701.507
1025.706, 2715.178
1026.813, 2643.406
1027.921, 2641.918
1029.028, 2796.484
1030.135, 2475.109
1031.242, 2469.789
1032.349, 2380.524
1033.456, 2618.336
1034.562, 2424.008
1035.668, 2495.014
1036.775, 2458.001
1037.881, 2529.021
1038.987, 2579.824
1040.092, 2555.039
1041.198, 2648.569
1042.303, 2506.445
1043.408, 2509.160
1044.514, 2393.549
1045.618, 2635.994
1046.723, 2492.734
1047.828, 2525.211
1048.932, 2552.229
1050.037, 2538.562
1051.141, 2609.274
1052.245, 2527.072
1053.349, 2699.131
1054.452, 2645.081
1055.556, 2738.999
1056.659, 2620.979
1057.762, 2600.460
1058.865, 2831.539
1059.968, 2706.668
1061.071, 2834.847
1062.174, 2821.218
1063.276, 2960.688
1064.378, 2744.126
1065.480, 2940.505
1066.582, 2848.934
1067.684, 2924.410
1068.786, 2919.037
1069.887, 2825.318
1070.988, 2823.939
1072.090, 2871.613
1073.191, 2737.082
1074.291, 3006.059
1075.392, 2786.611
1076.493, 2793.057
1077.593, 2963.998
1078.693, 2820.854
1079.793, 2718.934
1080.893, 2928.061
1081.993, 2765.293
1083.092, 2793.598
1084.192, 2877.914
1085.291, 2863.453
1086.390, 2809.639
1087.489, 2953.764
1088.588, 2676.601
1089.686, 2824.553
1090.785, 2867.567
1091.883, 2583.717
1092.981, 2616.979
1094.079, 2608.658
1095.177, 2577.277
1096.275, 2416.427
1097.373, 2575.645
1098.470, 2659.025
1099.567, 2658.295
1100.664, 2347.841
1101.761, 2442.132
1102.858, 2371.315
1103.954, 2301.867
1105.051, 2448.672
1106.147, 2182.543
1107.243, 2325.939
1108.339, 2305.925
1109.435, 2360.766
1110.531, 2253.669
1111.626, 2196.675
1112.722, 2301.738
1113.817, 2317.153
1114.912, 2193.434
1116.007, 2257.376
1117.101, 1986.236
1118.196, 2005.596
1119.290, 2151.766
1120.385, 1953.723
1121.479, 1984.005
1122.573, 1891.281
1123.666, 1967.394
1124.760, 1866.904
1125.853, 1882.472
1126.947, 1670.633
1128.040, 1461.623
1129.133, 1460.687
1130.226, 1352.670
1131.318, 1253.660
1132.411, 1160.689
1133.503, 1109.869
1134.596, 1160.812
1135.688, 1081.904
1136.780, 1052.045
1137.871, 1142.923
1138.963, 854.0732
1140.054, 812.2432
1141.146, 897.1719
1142.237, 777.6836
1143.328, 776.0576
1144.419, 605.4189
1145.509, 725.7520
1146.600, 600.6670
1147.690, 653.8486
1148.780, 565.5527
1149.870, 505.8594
1150.960, 551.4941
1152.050, 467.5762
1153.139, 461.9189
1154.229, 454.5908
1155.318, 309.6816
1156.407, 388.0537
1157.496, 266.2520
1158.585, 131.7900
1159.674, 92.18848
1160.762, 249.7236
1161.850, 140.1387
1162.939, 92.56055
1164.027, 35.32910
1165.114, 47.23633
1166.202, 4.806641
1167.290, 71.63184
1168.377, 51.92969
1169.464, 145.7207
1170.551, 27.69336
1171.638, 126.0244
1172.725, 214.4990
1173.812, 23.82227
1174.898, 85.29297
1175.984, 116.1016
1177.071, 163.9473
1178.157, 42.87891
1179.242, 82.44043
1180.328, 128.9980
1181.414, 48.54199
1182.499, 186.7734
1183.584, 12.87012
1184.669, 2.412109
1185.754, 82.83984
1186.839, 6.316406
1187.924, 20.38965
1189.008, 116.6504
1190.092, 162.2393
1191.177, 66.83496
1192.260, 156.8564
1193.344, 84.39941
1194.428, 35.04395
1195.512, 139.7139
1196.595, 52.56445
1197.678, 145.4316
1198.761, 169.6572
1199.844, 118.0273
1200.927, 136.6465
1202.009, 156.9590
1203.092, 63.82520
1204.174, 172.2109
1205.256, 15.41211
1206.338, 51.84473
1207.420, 25.94238
1208.502, 15.00000
1209.583, 134.0723
1210.665, 99.82910
1211.746, 49.50684
1212.827, 69.38770
1213.908, 109.3877
1214.988, 81.53809
1216.069, 19.78418
1217.149, 6.608398
1218.230, 59.41309
1219.310, 124.0293
1220.390, 82.19043
1221.470, 34.21582
1222.549, 46.65039
1223.629, 131.8115
1224.708, 60.35938
1225.787, 170.2090
1226.866, 202.1768
1227.945, 76.97949
1229.024, 45.50586
1230.103, 6.975586
1231.181, 38.20410
1232.259, 140.7266
1233.337, 93.22559
1234.415, 81.98828
1235.493, 93.73633
1236.571, 180.4434
1237.648, 105.1123
1238.726, 79.62793
1239.803, 216.4854
1240.880, 263.2695
1241.957, 169.0234
1243.034, 260.1299
1244.110, 19.98730
1245.187, 15.59570
1246.263, 72.24512
1247.339, 129.7627
1248.415, 38.24902
1249.491, 65.03125
1250.566, 66.66992
1251.642, 125.0225
1252.717, 25.02734
1253.793, 61.49023
1254.868, 20.41797
1255.943, 36.64258
1257.017, 159.7910
1258.092, 31.93945
1259.166, 201.6699
1260.241, 43.75293
1261.315, 165.7285
1262.389, 190.1758
1263.462, 189.5918
1264.536, 213.9707
1265.610, 103.0039
1266.683, 89.52832
1267.756, 199.7188
1268.829, 232.0127
1269.902, 46.83691
1270.975, 75.93945
1272.048, 37.66895
1273.120, 7.262695
1274.192, 171.8496
1275.264, 62.08398
1276.336, 113.3291
1277.408, 125.2510
1278.480, 211.9307
1279.551, 136.5957
1280.623, 111.2520
1281.694, 247.9023
1282.765, 294.7988
1283.836, 200.6572
1284.907, 291.8584
1285.977, 51.80273
1287.048, 102.3447
1288.118, 278.2393
1289.188, 192.0166
1290.258, 285.9551
1291.328, 311.2373
1292.398, 24.57129
1293.467, 280.2598
1294.537, 300.5166
1295.606, 80.59570
1296.675, 317.5742
1297.744, 129.8691
1298.813, 89.62402
1299.882, 167.3975
1300.950, 122.9844
1302.018, 287.9287
1303.086, 120.1426
1304.155, 157.6963
1305.222, 136.2109
1306.290, 236.4443
1307.358, 147.9609
1308.425, 361.9492
1309.492, 279.6416
1310.559, 182.9736
1311.626, 217.2422
1312.693, 442.2705
1313.760, 243.4170
1314.826, 168.6094
1315.893, 235.7480
1316.959, 65.39941
1318.025, 292.4668
1319.091, 338.4971
1320.157, 216.4893
1321.222, 264.4443
1322.288, 297.0303
