##NAMES=Arfvedsonite
##RRUFFID=R040127
##IDEAL CHEMISTRY=NaNa_2_(Fe^2+^_4_Fe^3+^)Si_8_O_22_(OH)_2_
##LOCALITY=Mont Saint-Hilaire, Rouville County, Quebec, Canada
##OWNER=RRUFF
##SOURCE=Bob Downs
##DESCRIPTION=Black prismatic crystal associated with white analcime, R040128
##STATUS=The identification of this mineral has been confirmed by X-ray diffraction and chemical analysis
##URL=rruff.info/R040127
##MEASURED CHEMISTRY=(Na_0.61_K_0.39_)Na_2.00_(Fe^2+^_2.40_Mg_0.80_Mn_0.75_Ca_0.05_)_&#931;=4_(Fe^3+^_0.60_Al_0.25_Mn_0.15_)(Si_0.99_Ti_0.01_)_8_O_22_((OH)_0.67_F_0.33_)_2_
##PIN_ID=M00386
##ORIENTATION=Laser parallel to -c* (0 0 -1). Fiducial mark perpendicular to laser is parallel to -a [-1 0 0]
125.1230, 0.0000000E+00
126.3600, 16.01562
127.5960, 184.4023
128.8330, 511.3672
130.0700, 586.2500
131.3060, 737.3242
132.5420, 643.3828
133.7780, 932.9375
135.0140, 1473.613
136.2500, 2788.176
137.4850, 4163.613
138.7200, 5035.156
139.9550, 4666.379
141.1900, 3761.285
142.4250, 2889.672
143.6600, 2413.676
144.8940, 1773.992
146.1280, 1204.137
147.3620, 1131.141
148.5960, 763.2266
149.8300, 1061.812
151.0630, 1674.473
152.2960, 1376.898
153.5300, 1716.844
154.7620, 1914.145
155.9950, 1983.312
157.2280, 1939.301
158.4600, 2298.133
159.6920, 2770.953
160.9250, 3295.746
162.1560, 3555.969
163.3880, 3840.707
164.6200, 4005.781
165.8510, 4058.148
167.0820, 3984.594
168.3130, 3902.355
169.5440, 3845.035
170.7750, 3446.270
172.0050, 3136.977
173.2350, 2711.016
174.4650, 2532.559
175.6950, 2204.043
176.9250, 2501.559
178.1550, 2535.172
179.3840, 3117.949
180.6130, 2689.953
181.8420, 2895.227
183.0710, 3197.812
184.3000, 3737.141
185.5280, 4186.043
186.7570, 4601.520
187.9850, 5131.160
189.2130, 5580.047
190.4400, 6242.078
191.6680, 6869.605
192.8960, 7544.836
194.1230, 7871.730
195.3500, 8447.844
196.5770, 8382.266
197.8030, 8198.523
199.0300, 8690.844
200.2560, 8707.898
201.4830, 8837.844
202.7090, 8011.520
203.9340, 7119.672
205.1600, 7016.965
206.3860, 4673.762
207.6110, 4109.059
208.8360, 3523.582
210.0610, 3005.336
211.2860, 2894.297
212.5100, 2596.465
213.7350, 2420.820
214.9590, 2071.355
216.1830, 1948.066
217.4070, 1579.961
218.6310, 1357.148
219.8540, 1270.625
221.0780, 1252.207
222.3010, 1091.277
223.5240, 742.7539
224.7470, 820.6719
225.9690, 786.6758
227.1920, 504.7461
228.4140, 659.8828
229.6360, 622.0664
230.8580, 451.2891
232.0800, 378.5547
233.3020, 611.8359
234.5230, 416.1172
235.7440, 483.3867
236.9650, 206.6328
238.1860, 491.8594
239.4070, 369.0391
240.6280, 330.1875
241.8480, 169.3008
243.0680, 215.3711
244.2880, 54.41406
245.5080, 76.42578
246.7280, 204.3984
247.9470, 180.3438
249.1660, 226.2656
250.3860, 105.1562
251.6040, 359.0742
252.8230, 33.51953
254.0420, 149.1797
255.2600, 196.6836
256.4790, 295.7773
257.6970, 91.05078
258.9150, 165.8008
260.1320, 252.0703
261.3500, 50.66016
262.5670, 363.7891
263.7840, 67.61719
265.0010, 55.43359
266.2180, 272.2031
267.4350, 235.8477
268.6510, 249.7422
269.8680, 8.960938
271.0840, 395.5312
272.3000, 22.67969
273.5160, 372.2656
274.7310, 30.22266
275.9470, 267.3438
277.1620, 99.91797
278.3770, 41.03125
279.5920, 149.7891
280.8070, 238.2891
282.0210, 162.6328
283.2360, 38.83984
284.4500, 279.9219
285.6640, 82.01562
286.8780, 71.04688
288.0920, 301.1367
289.3050, 298.2773
290.5180, 452.4531
291.7320, 474.6328
292.9450, 592.8086
294.1570, 943.9688
295.3700, 791.0859
296.5830, 1146.172
297.7950, 1028.207
299.0070, 1287.199
300.2190, 1683.141
301.4310, 2006.023
302.6420, 2365.852
303.8540, 2541.215
305.0650, 2707.297
306.2760, 2824.918
307.4870, 3070.379
308.6980, 3206.492
309.9080, 3599.703
311.1190, 3890.535
312.3290, 3907.754
313.5390, 4275.539
314.7490, 4471.191
315.9580, 4427.832
317.1680, 4540.922
318.3770, 4397.230
319.5860, 4203.434
320.7950, 3802.535
322.0040, 3756.547
323.2130, 3413.965
324.4210, 3488.801
325.6290, 3157.559
326.8380, 3149.227
328.0460, 2828.828
329.2530, 2797.352
330.4610, 2506.805
331.6680, 2375.117
332.8760, 2104.367
334.0830, 1999.543
335.2890, 1992.293
336.4960, 2071.109
337.7030, 2231.422
338.9090, 2082.375
340.1150, 2450.016
341.3210, 2147.477
342.5270, 2353.559
343.7330, 2501.383
344.9380, 2713.168
346.1440, 2726.750
347.3490, 2740.043
348.5540, 2904.711
349.7590, 2931.969
350.9630, 3068.551
352.1680, 3068.102
353.3720, 2987.660
354.5760, 3277.234
355.7800, 3279.816
356.9840, 3312.406
358.1870, 3066.008
359.3910, 3020.613
360.5940, 3010.223
361.7970, 3091.840
363.0000, 2849.457
364.2030, 2934.078
365.4050, 2872.703
366.6080, 2823.328
367.8100, 2837.953
369.0120, 3016.582
370.2140, 2829.207
371.4150, 2982.836
372.6170, 2776.461
373.8180, 2804.086
375.0190, 2500.715
376.2200, 2414.336
377.4210, 2561.961
378.6220, 2467.586
379.8220, 2701.203
381.0230, 2508.824
382.2230, 2782.445
383.4230, 2670.672
384.6220, 2515.688
385.8220, 2660.312
387.0220, 2297.785
388.2210, 2550.406
389.4200, 2407.797
390.6190, 2347.039
391.8180, 2498.668
393.0160, 2463.301
394.2150, 2664.934
395.4130, 2458.176
396.6110, 2511.363
397.8090, 2297.020
399.0060, 2213.609
400.2040, 2393.035
401.4010, 1985.344
402.5980, 2101.543
403.7950, 2059.090
404.9920, 2011.270
406.1890, 2031.992
407.3860, 2089.180
408.5820, 2220.512
409.7780, 2297.938
410.9740, 2399.156
412.1700, 2473.750
413.3650, 2161.562
414.5610, 2105.594
415.7560, 2161.461
416.9510, 1934.789
418.1460, 2166.230
419.3410, 2253.129
420.5360, 2118.117
421.7300, 2137.832
422.9240, 2071.645
424.1180, 1823.832
425.3120, 1876.383
426.5060, 1571.609
427.7000, 1397.508
428.8930, 1169.191
430.0860, 1341.234
431.2790, 1142.738
432.4720, 1136.773
433.6650, 1034.723
434.8580, 814.6719
436.0500, 806.6211
437.2420, 728.9141
438.4340, 633.5273
439.6260, 648.4844
440.8180, 466.4453
442.0090, 328.4023
443.2010, 319.3672
444.3920, 330.3359
445.5830, 101.3047
446.7740, 252.2852
447.9640, 138.2656
449.1550, 5.253906
450.3450, 48.23828
451.5350, 115.7617
452.7250, 116.2031
453.9150, 378.8242
455.1050, 81.00391
456.2940, 298.8047
457.4830, 56.62109
458.6720, 1.550781
459.8610, 92.71484
461.0500, 214.0977
462.2390, 45.92969
463.4270, 306.7734
464.6150, 505.6328
465.8040, 90.49609
466.9910, 555.3633
468.1790, 335.0195
469.3670, 162.1172
470.5540, 380.0234
471.7410, 101.9375
472.9280, 101.8750
474.1150, 340.8281
475.3020, 84.79297
476.4890, 367.8164
477.6750, 411.8164
478.8610, 2.625000
480.0470, 400.4141
481.2330, 573.6406
482.4190, 396.5430
483.6040, 772.6055
484.7900, 705.9219
485.9750, 520.0859
487.1600, 1116.289
488.3450, 1060.750
489.5290, 1071.992
490.7140, 1144.582
491.8980, 1249.574
493.0820, 1418.910
494.2660, 1411.281
495.4500, 1569.684
496.6340, 1500.863
497.8170, 1694.352
499.0010, 1494.848
500.1840, 1885.375
501.3670, 2018.938
502.5500, 2364.535
503.7320, 2274.160
504.9150, 2488.824
506.0970, 2603.516
507.2790, 2592.238
508.4610, 3018.000
509.6430, 3018.789
510.8250, 3243.605
512.0060, 3474.566
513.1870, 3329.344
514.3680, 3881.262
515.5490, 3800.215
516.7300, 3988.195
517.9110, 4203.207
519.0910, 4410.848
520.2710, 5004.336
521.4510, 5054.445
522.6310, 5779.594
523.8110, 6187.773
524.9910, 6705.207
526.1700, 7819.227
527.3490, 7822.508
528.5280, 8623.820
529.7070, 9027.180
530.8860, 9359.562
532.0650, 9685.996
533.2430, 9625.477
534.4210, 9683.000
535.5990, 9708.582
536.7770, 10043.22
537.9550, 9600.023
539.1320, 9541.105
540.3100, 9011.348
541.4870, 9218.719
542.6640, 8635.164
543.8410, 8218.859
545.0170, 7589.676
546.1940, 7548.684
547.3700, 7219.836
548.5470, 7097.121
549.7230, 6582.648
550.8980, 6320.395
552.0740, 6106.289
553.2500, 6063.398
554.4250, 5875.750
555.6000, 5761.234
556.7750, 5784.402
557.9500, 5717.738
559.1250, 5680.332
560.2990, 5753.340
561.4730, 5359.406
562.6480, 5355.605
563.8220, 5469.988
564.9950, 5488.477
566.1690, 5598.113
567.3430, 5566.906
568.5160, 5656.895
569.6890, 5716.402
570.8620, 5833.297
572.0350, 5761.664
573.2070, 5643.090
574.3800, 5451.559
575.5520, 5025.059
576.7240, 4774.613
577.8960, 4340.199
579.0680, 4089.824
580.2400, 3628.492
581.4110, 3362.191
582.5830, 2953.918
583.7540, 2751.672
584.9250, 2616.449
586.0950, 2233.246
587.2660, 1960.070
588.4370, 1653.918
589.6070, 1512.562
590.7770, 1367.367
591.9470, 1385.551
593.1170, 1273.727
594.2860, 1366.684
595.4560, 1445.898
596.6250, 1289.602
597.7940, 925.6250
598.9630, 660.6719
600.1320, 849.6289
601.3000, 661.1211
602.4690, 704.1602
603.6370, 795.2969
604.8050, 450.4492
605.9730, 665.6211
607.1410, 542.3164
608.3090, 502.5312
609.4760, 703.7578
610.6430, 358.0078
611.8100, 446.2852
612.9770, 426.3984
614.1440, 241.2734
615.3110, 449.2031
616.4770, 6.542969
617.6430, 30.90234
618.8090, 84.72656
619.9750, 49.53516
621.1410, 191.0859
622.3070, 90.75391
623.4720, 118.4375
624.6370, 146.1445
625.8020, 163.1172
626.9670, 184.6133
628.1320, 445.3945
629.2970, 88.64453
630.4610, 9.308594
631.6250, 84.25000
632.7890, 197.7891
633.9530, 347.8438
635.1170, 338.9102
636.2810, 26.01562
637.4440, 9.058594
638.6070, 227.1445
639.7700, 244.2344
640.9330, 309.3359
642.0960, 220.4453
643.2590, 305.5664
644.4210, 350.6875
645.5830, 283.8242
646.7450, 359.9648
647.9070, 307.1094
649.0690, 844.2617
650.2310, 735.4180
651.3920, 1027.586
652.5530, 1562.754
653.7140, 1222.926
654.8750, 1449.102
656.0360, 1601.281
657.1970, 1901.465
658.3570, 2432.652
659.5170, 2522.836
660.6770, 3280.031
661.8370, 4050.219
662.9970, 4651.410
664.1570, 5621.602
665.3160, 6111.129
666.4750, 7171.039
667.6340, 8378.484
668.7930, 9524.574
669.9520, 10422.77
671.1110, 11323.25
672.2690, 12398.84
673.4270, 12947.88
674.5850, 12897.38
675.7430, 12336.44
676.9010, 11686.64
678.0590, 10586.39
679.2160, 9550.426
680.3730, 7766.953
681.5300, 6843.633
682.6870, 5596.781
683.8440, 4944.621
685.0010, 4450.938
686.1570, 3731.793
687.3130, 3249.047
688.4690, 3003.988
689.6250, 2576.418
690.7810, 2511.852
691.9370, 2256.938
693.0920, 2058.270
694.2470, 2252.488
695.4020, 1812.363
696.5570, 1720.352
697.7120, 2064.191
698.8670, 1881.312
700.0210, 1985.156
701.1750, 1837.367
702.3290, 2282.398
703.4830, 1979.336
704.6370, 2209.410
705.7910, 2072.098
706.9440, 1905.082
708.0970, 2070.348
709.2510, 1993.988
710.4030, 2165.578
711.5560, 2002.570
712.7090, 1968.285
713.8610, 1801.035
715.0140, 1901.641
716.1660, 1656.188
717.3180, 1777.375
718.4690, 1523.566
719.6210, 1611.832
720.7730, 1481.559
721.9240, 1258.289
723.0750, 1466.961
724.2260, 1447.574
725.3770, 1192.133
726.5270, 1183.633
727.6780, 1397.070
728.8280, 1258.453
729.9780, 1332.773
731.1280, 1441.043
732.2780, 1002.262
733.4280, 1061.426
734.5770, 1052.605
735.7260, 869.7383
736.8760, 1015.809
738.0250, 1151.816
739.1730, 822.7656
740.3220, 755.6680
741.4700, 1015.508
742.6190, 841.2969
743.7670, 1113.008
744.9150, 932.6602
746.0630, 766.2656
747.2100, 903.8008
748.3580, 876.2773
749.5050, 537.6914
750.6520, 1095.039
751.7990, 831.3242
752.9460, 717.5469
754.0930, 917.7031
755.2390, 719.7578
756.3860, 963.7852
757.5320, 792.2109
758.6780, 1132.109
759.8240, 796.7812
760.9690, 936.7344
762.1150, 617.4844
763.2600, 668.9414
764.4060, 1362.516
765.5510, 866.0117
766.6950, 942.2109
767.8400, 762.5898
768.9850, 1658.594
770.1290, 1248.824
771.2730, 1546.344
772.4170, 1008.473
773.5610, 895.5312
774.7050, 819.7773
775.8480, 583.6914
776.9920, 729.5625
778.1350, 1172.367
779.2780, 1023.105
780.4210, 1323.785
781.5640, 933.3945
782.7060, 1084.945
783.8490, 737.4258
784.9910, 867.8477
786.1330, 593.1992
787.2750, 957.4922
788.4170, 759.7148
789.5580, 767.8789
790.7000, 803.9688
791.8410, 840.0000
792.9820, 629.9648
794.1230, 613.8672
795.2640, 561.1289
796.4040, 517.4805
797.5450, 557.1914
798.6850, 555.8359
799.8250, 482.5938
800.9650, 506.9297
802.1050, 403.3828
803.2450, 311.7656
804.3840, 422.0781
805.5230, 269.3281
806.6630, 723.5000
807.8020, 412.6133
808.9400, 386.6523
810.0790, 165.6289
811.2170, 44.51953
812.3560, 53.29688
813.4940, 323.0391
814.6320, 332.6836
815.7700, 226.6367
816.9070, 203.8477
818.0450, 16.30078
819.1820, 311.8984
820.3190, 27.20703
821.4560, 237.8086
822.5930, 68.91797
823.7300, 176.4531
824.8670, 221.0508
826.0030, 405.8867
827.1390, 169.0703
828.2750, 213.4727
829.4110, 331.1133
830.5470, 105.9531
831.6820, 73.92969
832.8180, 285.1797
833.9530, 237.5625
835.0880, 158.8086
836.2230, 402.1094
837.3580, 136.3477
838.4920, 267.4844
839.6270, 77.57422
840.7610, 82.81641
841.8950, 63.75781
843.0290, 246.7617
844.1630, 143.2109
845.2960, 117.5000
846.4300, 13.63281
847.5630, 36.87109
848.6960, 95.76562
849.8290, 84.14062
850.9620, 25.16016
852.0940, 82.22656
853.2270, 34.55078
854.3590, 2.796875
855.4910, 76.95312
856.6230, 132.0469
857.7550, 677.0859
858.8870, 519.0156
860.0180, 595.4609
861.1500, 501.8828
862.2810, 514.7188
863.4120, 514.5078
864.5430, 649.2461
865.6730, 737.9375
866.8040, 807.5859
867.9340, 654.1836
869.0640, 602.7383
870.1940, 839.2461
871.3240, 1201.715
872.4540, 1272.133
873.5830, 1099.508
874.7130, 1460.844
875.8420, 1490.133
876.9710, 1726.379
878.1000, 1651.586
879.2290, 1656.754
880.3570, 2031.871
881.4860, 1846.957
882.6140, 2286.000
883.7420, 2066.004
884.8700, 2415.973
885.9980, 2134.906
887.1250, 2391.793
888.2530, 2486.645
889.3800, 2596.465
890.5070, 2743.250
891.6340, 2914.000
892.7610, 2676.715
893.8880, 2778.406
895.0140, 2880.070
896.1400, 2956.734
897.2670, 2924.375
898.3930, 2966.008
899.5180, 3168.633
900.6440, 3383.230
901.7700, 3372.262
902.8950, 3305.504
904.0200, 3410.141
905.1450, 3382.758
906.2700, 3392.355
907.3950, 3126.930
908.5190, 2960.484
909.6440, 3103.016
910.7680, 3260.527
911.8920, 3283.008
913.0160, 3544.473
914.1400, 3340.910
915.2630, 3379.324
916.3870, 3704.734
917.5100, 3274.160
918.6330, 3175.562
919.7560, 2703.945
920.8790, 2884.309
922.0010, 2726.652
923.1240, 2702.078
924.2460, 2887.352
925.3680, 2719.711
926.4900, 2889.078
927.6120, 2767.441
928.7340, 2754.977
929.8550, 2784.496
930.9760, 2689.605
932.0980, 2731.039
933.2190, 2696.465
934.3390, 2586.875
935.4600, 2616.270
936.5810, 2586.652
937.7010, 2565.688
938.8210, 2951.340
939.9410, 3282.438
941.0610, 3178.891
942.1810, 3283.242
943.3010, 3224.285
944.4200, 3284.246
945.5390, 3472.742
946.6580, 3220.848
947.7770, 3643.383
948.8960, 3868.766
950.0150, 3867.582
951.1330, 3671.105
952.2510, 4195.121
953.3690, 4189.055
954.4870, 4351.574
955.6050, 4402.379
956.7230, 4817.715
957.8400, 5027.539
958.9580, 5111.949
960.0750, 5197.684
961.1920, 5694.930
962.3090, 5951.156
963.4250, 6240.719
964.5420, 6432.027
965.6580, 7018.422
966.7740, 7223.172
967.8900, 8075.816
969.0060, 8415.594
970.1220, 8520.078
971.2380, 8783.820
972.3530, 8853.188
973.4680, 8961.723
974.5830, 9126.336
975.6980, 9329.797
976.8130, 9098.625
977.9280, 9147.172
979.0420, 8683.398
980.1560, 8920.430
981.2710, 8506.176
982.3850, 8124.652
983.4980, 7539.387
984.6120, 7407.070
985.7260, 6777.961
986.8390, 6448.895
987.9520, 5843.168
989.0650, 5510.691
990.1780, 5459.598
991.2910, 4882.281
992.4030, 4529.953
993.5160, 4300.082
994.6280, 4582.434
995.7400, 3873.293
996.8520, 4216.234
997.9640, 3821.215
999.0750, 3913.258
1000.187, 3509.340
1001.298, 3484.465
1002.409, 3474.633
1003.520, 3321.059
1004.631, 3254.109
1005.741, 3201.410
1006.852, 3376.766
1007.962, 3241.164
1009.072, 3022.613
1010.182, 3261.117
1011.292, 3145.664
1012.402, 3005.258
1013.511, 2969.953
1014.621, 2941.699
1015.730, 2574.555
1016.839, 2642.457
1017.948, 2649.406
1019.056, 2838.410
1020.165, 2902.496
1021.273, 2881.629
1022.382, 2625.820
1023.490, 3136.078
1024.598, 3161.387
1025.706, 3286.793
1026.813, 2914.250
1027.921, 2564.754
1029.028, 2823.316
1030.135, 2737.922
1031.242, 2756.578
1032.349, 2992.289
1033.456, 3408.055
1034.562, 3284.867
1035.668, 3134.723
1036.775, 3411.641
1037.881, 3050.602
1038.987, 3472.637
1040.092, 3598.719
1041.198, 3633.039
1042.303, 3400.746
1043.408, 3477.984
1044.514, 3721.270
1045.618, 3570.609
1046.723, 3708.000
1047.828, 3802.441
1048.932, 3844.602
1050.037, 3951.156
1051.141, 3989.422
1052.245, 4049.469
1053.349, 4016.172
1054.452, 3996.922
1055.556, 3887.797
1056.659, 3769.586
1057.762, 4296.777
1058.865, 3899.195
1059.968, 4214.539
1061.071, 4142.223
1062.174, 4044.328
1063.276, 4738.652
1064.378, 4726.582
1065.480, 4625.465
1066.582, 4518.773
1067.684, 4482.129
1068.786, 4488.531
1069.887, 4819.984
1070.988, 4895.793
1072.090, 4752.344
1073.191, 4584.789
1074.291, 4482.641
1075.392, 4589.344
1076.493, 4719.734
1077.593, 4622.543
1078.693, 4389.926
1079.793, 4472.859
1080.893, 4152.863
1081.993, 4331.160
1083.092, 4216.473
1084.192, 4616.922
1085.291, 4210.500
1086.390, 4280.055
1087.489, 4390.004
1088.588, 4351.090
1089.686, 4531.664
1090.785, 4584.820
1091.883, 4615.695
1092.981, 4594.109
1094.079, 4789.219
1095.177, 4895.039
1096.275, 4739.879
1097.373, 4707.977
1098.470, 4927.914
1099.567, 4729.988
1100.664, 4816.250
1101.761, 4633.656
1102.858, 4705.102
1103.954, 4713.223
1105.051, 4592.758
1106.147, 4691.430
1107.243, 4323.527
1108.339, 4219.375
1109.435, 3982.906
1110.531, 3909.891
1111.626, 3950.133
1112.722, 3954.391
1113.817, 3899.129
1114.912, 4153.719
1116.007, 3808.152
1117.101, 4043.070
1118.196, 4102.551
1119.290, 3769.137
1120.385, 3603.078
1121.479, 3556.762
1122.573, 3566.492
1123.666, 3306.340
1124.760, 3158.672
1125.853, 3250.035
1126.947, 3238.195
1128.040, 3221.695
1129.133, 3175.844
1130.226, 2667.719
1131.318, 2654.906
1132.411, 2531.918
1133.503, 2356.504
1134.596, 2371.145
1135.688, 2258.125
1136.780, 2265.250
1137.871, 2315.836
1138.963, 2145.070
1140.054, 1974.270
1141.146, 2062.344
1142.237, 2248.598
1143.328, 1875.902
1144.419, 2268.910
1145.509, 1859.320
1146.600, 1866.164
1147.690, 1789.797
1148.780, 1399.195
1149.870, 1532.613
1150.960, 1423.262
1152.050, 1096.172
1153.139, 1608.109
1154.229, 1081.348
1155.318, 979.8672
1156.407, 578.3398
1157.496, 942.1719
1158.585, 586.9570
1159.674, 362.5391
1160.762, 406.3086
1161.850, 131.3164
1162.939, 375.9648
1164.027, 160.6250
1165.114, 82.30078
1166.202, 303.9883
1167.290, 69.03906
1168.377, 374.4258
1169.464, 109.3594
1170.551, 294.0938
1171.638, 65.16406
1172.725, 35.42578
1173.812, 49.31641
1174.898, 86.07031
1175.984, 85.25391
1177.071, 16.60156
1178.157, 24.37891
1179.242, 101.8359
1180.328, 224.9023
1181.414, 143.7812
1182.499, 35.47656
1183.584, 321.3711
1184.669, 116.0742
1185.754, 77.21875
1186.839, 222.5312
1187.924, 122.6367
1189.008, 104.0703
1190.092, 99.53516
1191.177, 191.0273
1192.260, 53.39844
1193.344, 242.1719
1194.428, 184.8086
1195.512, 23.57031
1196.595, 175.6680
1197.678, 46.90234
1198.761, 36.13281
1199.844, 162.3672
1200.927, 37.37891
1202.009, 72.85547
1203.092, 22.91016
1204.174, 50.69141
1205.256, 34.50781
1206.338, 156.2969
1207.420, 41.81641
1208.502, 277.0664
1209.583, 119.8945
1210.665, 313.1016
1211.746, 365.2305
1212.827, 318.2109
1213.908, 20.17969
1214.988, 285.8594
1216.069, 234.0664
1217.149, 28.58203
1218.230, 19.22656
1219.310, 158.1523
1220.390, 125.3711
1221.470, 92.07422
1222.549, 250.3633
1223.629, 4.210938
1224.708, 56.17578
1225.787, 447.5469
1226.866, 70.40625
1227.945, 20.25781
1229.024, 51.37109
1230.103, 273.6758
1231.181, 455.8750
1232.259, 502.8828
1233.337, 9.929688
1234.415, 214.1797
1235.493, 138.9844
1236.571, 52.33203
1237.648, 354.6289
1238.726, 59.92188
1239.803, 236.0938
1240.880, 248.3945
1241.957, 390.5156
1243.034, 63.87891
1244.110, 116.7188
1245.187, 268.5273
1246.263, 219.6641
1247.339, 55.06641
1248.415, 234.6602
1249.491, 111.2305
1250.566, 258.4883
1251.642, 417.9961
1252.717, 177.4805
1253.793, 54.92578
1254.868, 89.32812
1255.943, 122.3086
1257.017, 61.87500
1258.092, 164.0352
1259.166, 35.12109
1260.241, 176.1445
1261.315, 335.1484
1262.389, 377.1094
1263.462, 439.1641
1264.536, 332.0664
1265.610, 333.6016
1266.683, 85.81250
1267.756, 238.5938
1268.829, 105.3438
1269.902, 114.0508
1270.975, 422.7109
1272.048, 259.3516
1273.120, 105.0430
1274.192, 114.4180
1275.264, 114.9766
1276.336, 218.0273
1277.408, 406.8125
1278.480, 460.4180
1279.551, 25.75781
1280.623, 184.9805
1281.694, 116.2383
1282.765, 35.98438
1283.836, 344.6523
1284.907, 63.53906
1285.977, 238.7930
1287.048, 257.7461
1288.118, 406.1445
1289.188, 273.3789
1290.258, 232.5000
1291.328, 467.7227
1292.398, 547.1836
