##NAMES=Arfvedsonite
##RRUFFID=R040127
##IDEAL CHEMISTRY=NaNa_2_(Fe^2+^_4_Fe^3+^)Si_8_O_22_(OH)_2_
##LOCALITY=Mont Saint-Hilaire, Rouville County, Quebec, Canada
##OWNER=RRUFF
##SOURCE=Bob Downs
##DESCRIPTION=Black prismatic crystal associated with white analcime, R040128
##STATUS=The identification of this mineral has been confirmed by X-ray diffraction and chemical analysis
##URL=rruff.info/R040127
##MEASURED CHEMISTRY=(Na_0.61_K_0.39_)Na_2.00_(Fe^2+^_2.40_Mg_0.80_Mn_0.75_Ca_0.05_)_&#931;=4_(Fe^3+^_0.60_Al_0.25_Mn_0.15_)(Si_0.99_Ti_0.01_)_8_O_22_((OH)_0.67_F_0.33_)_2_
##PIN_ID=M00441
##ORIENTATION=Laser parallel to a* (1 0 0). Fiducial mark perpendicular to laser is parallel to -b [0 -1 0]
160.9250, 0.0000000E+00
162.1560, 338.8125
163.3880, 828.4609
164.6200, 974.9609
165.8510, 1277.803
167.0820, 1280.912
168.3130, 1434.320
169.5440, 1234.373
170.7750, 1017.182
172.0050, 955.9199
173.2350, 570.7754
174.4650, 401.9844
175.6950, 259.3008
176.9250, 22.09375
178.1550, 288.2656
179.3840, 599.9023
180.6130, 662.9492
181.8420, 665.1914
183.0710, 1318.068
184.3000, 1785.658
185.5280, 2461.518
186.7570, 3120.033
187.9850, 3787.979
189.2130, 4454.219
190.4400, 5107.010
191.6680, 5747.594
192.8960, 6488.268
194.1230, 7023.715
195.3500, 7823.814
196.5770, 8435.203
197.8030, 8629.059
199.0300, 8948.746
200.2560, 9474.012
201.4830, 10211.60
202.7090, 10247.25
203.9340, 8922.910
205.1600, 6471.871
206.3860, 5040.244
207.6110, 3950.434
208.8360, 3428.025
210.0610, 3068.756
211.2860, 2777.895
212.5100, 2362.293
213.7350, 2112.412
214.9590, 1854.553
216.1830, 1656.584
217.4070, 1464.230
218.6310, 1319.643
219.8540, 1155.855
221.0780, 1294.746
222.3010, 1258.730
223.5240, 1426.189
224.7470, 1377.459
225.9690, 1160.938
227.1920, 1079.742
228.4140, 1237.008
229.6360, 1044.809
230.8580, 1146.074
232.0800, 999.8516
233.3020, 925.5117
234.5230, 987.5801
235.7440, 1088.725
236.9650, 1085.965
238.1860, 1117.611
239.4070, 1079.992
240.6280, 1079.912
241.8480, 999.4160
243.0680, 903.5762
244.2880, 960.0488
245.5080, 945.8457
246.7280, 922.5371
247.9470, 1005.164
249.1660, 868.1387
250.3860, 990.7949
251.6040, 1046.152
252.8230, 1037.650
254.0420, 774.2402
255.2600, 839.8164
256.4790, 773.3359
257.6970, 701.3398
258.9150, 812.7773
260.1320, 585.7988
261.3500, 693.9570
262.5670, 668.0957
263.7840, 703.2715
265.0010, 605.5020
266.2180, 548.4258
267.4350, 335.7715
268.6510, 94.49805
269.8680, 13.90039
271.0840, 118.9746
272.3000, 206.2637
273.5160, 35.80664
274.7310, 202.6543
275.9470, 148.8145
277.1620, 6.716797
278.3770, 264.0566
279.5920, 302.1309
280.8070, 362.5059
282.0210, 331.1875
283.2360, 346.1816
284.4500, 372.4551
285.6640, 181.1172
286.8780, 332.0605
288.0920, 286.3887
289.3050, 88.23633
290.5180, 251.2480
291.7320, 131.0020
292.9450, 465.0977
294.1570, 265.3105
295.3700, 269.6191
296.5830, 389.0742
297.7950, 550.7344
299.0070, 627.8652
300.2190, 846.6641
301.4310, 927.7891
302.6420, 1111.686
303.8540, 1369.102
305.0650, 1591.941
306.2760, 1856.064
307.4870, 2169.965
308.6980, 2011.025
309.9080, 2351.771
311.1190, 2428.379
312.3290, 2765.562
313.5390, 2663.150
314.7490, 2890.496
315.9580, 2928.941
317.1680, 3153.762
318.3770, 3129.701
319.5860, 2833.898
320.7950, 3115.336
322.0040, 2835.588
323.2130, 2858.760
324.4210, 2582.961
325.6290, 2494.893
326.8380, 2496.896
328.0460, 2548.934
329.2530, 2466.158
330.4610, 2599.145
331.6680, 2568.451
332.8760, 2469.621
334.0830, 2594.508
335.2890, 2820.973
336.4960, 3026.188
337.7030, 3359.803
338.9090, 3934.672
340.1150, 4669.852
341.3210, 5225.379
342.5270, 5014.912
343.7330, 5113.129
344.9380, 5465.529
346.1440, 5854.381
347.3490, 6285.244
348.5540, 6947.473
349.7590, 7416.633
350.9630, 7622.445
352.1680, 8270.932
353.3720, 8264.090
354.5760, 8624.914
355.7800, 8487.410
356.9840, 8586.570
358.1870, 8470.410
359.3910, 8199.916
360.5940, 8058.977
361.7970, 7837.801
363.0000, 7545.258
364.2030, 7403.205
365.4050, 7189.434
366.6080, 6978.701
367.8100, 6341.043
369.0120, 6388.008
370.2140, 6366.740
371.4150, 6281.400
372.6170, 5940.494
373.8180, 5928.885
375.0190, 5784.648
376.2200, 5635.293
377.4210, 5668.785
378.6220, 5363.582
379.8220, 5394.021
381.0230, 5290.787
382.2230, 5248.805
383.4230, 5074.150
384.6220, 4940.293
385.8220, 4938.902
387.0220, 4863.545
388.2210, 4672.242
389.4200, 4632.869
390.6190, 4166.086
391.8180, 4124.732
393.0160, 3974.561
394.2150, 3850.293
395.4130, 3829.094
396.6110, 3739.607
397.8090, 3588.508
399.0060, 3369.967
400.2040, 3237.129
401.4010, 3218.854
402.5980, 2986.121
403.7950, 3150.693
404.9920, 2936.949
406.1890, 2982.006
407.3860, 2987.514
408.5820, 3069.727
409.7780, 3039.518
410.9740, 3168.680
412.1700, 3301.574
413.3650, 3086.578
414.5610, 3160.334
415.7560, 3287.998
416.9510, 3346.654
418.1460, 3273.869
419.3410, 3075.477
420.5360, 3113.334
421.7300, 2984.832
422.9240, 2871.215
424.1180, 2857.094
425.3120, 2530.074
426.5060, 2895.916
427.7000, 2845.439
428.8930, 2482.775
430.0860, 3017.750
431.2790, 2044.166
432.4720, 1799.371
433.6650, 1506.938
434.8580, 1581.340
436.0500, 1511.682
437.2420, 1255.609
438.4340, 1211.076
439.6260, 879.5820
440.8180, 1036.658
442.0090, 789.0820
443.2010, 744.1035
444.3920, 415.9805
445.5830, 189.1270
446.7740, 176.9629
447.9640, 31.52344
449.1550, 39.94336
450.3450, 217.7891
451.5350, 228.8457
452.7250, 244.2344
453.9150, 299.9707
455.1050, 115.5430
456.2940, 217.4141
457.4830, 230.9688
458.6720, 251.2637
459.8610, 372.6777
461.0500, 331.5020
462.2390, 420.7148
463.4270, 350.8691
464.6150, 199.3984
465.8040, 164.7500
466.9910, 113.3906
468.1790, 35.70508
469.3670, 97.61523
470.5540, 87.64844
471.7410, 7.847656
472.9280, 103.8418
474.1150, 118.2285
475.3020, 88.13867
476.4890, 75.20312
477.6750, 205.4277
478.8610, 52.83789
480.0470, 198.0859
481.2330, 259.1797
482.4190, 303.1270
483.6040, 342.9297
484.7900, 466.5918
485.9750, 430.1211
487.1600, 761.5195
488.3450, 868.7969
489.5290, 1022.961
490.7140, 974.0195
491.8980, 1365.969
493.0820, 1473.812
494.2660, 1692.553
495.4500, 1629.188
496.6340, 1851.725
497.8170, 2096.162
499.0010, 2469.500
500.1840, 2535.738
501.3670, 2781.752
502.5500, 3156.934
503.7320, 3073.895
504.9150, 3435.764
506.0970, 3542.549
507.2790, 3728.340
508.4610, 4176.871
509.6430, 4043.416
510.8250, 4418.891
512.0060, 4333.299
513.1870, 4537.641
514.3680, 4843.922
515.5490, 5239.145
516.7300, 5588.285
517.9110, 5764.410
519.0910, 6302.453
520.2710, 6908.445
521.4510, 7005.383
522.6310, 7761.266
523.8110, 8371.098
524.9910, 8951.875
526.1700, 9718.607
527.3490, 10132.29
528.5280, 10939.95
529.7070, 11649.56
530.8860, 12145.24
532.0650, 12848.95
533.2430, 13243.65
534.4210, 13462.40
535.5990, 13710.20
536.7770, 13591.05
537.9550, 13631.98
539.1320, 13610.99
540.3100, 13390.11
541.4870, 13418.31
542.6640, 12932.57
543.8410, 12338.90
545.0170, 12102.34
546.1940, 11531.87
547.3700, 11250.51
548.5470, 10805.27
549.7230, 10474.12
550.8980, 10087.11
552.0740, 9854.209
553.2500, 9550.412
554.4250, 9356.861
555.6000, 9181.797
556.7750, 9038.824
557.9500, 8948.510
559.1250, 8814.391
560.2990, 8805.375
561.4730, 8614.525
562.6480, 8562.840
563.8220, 8202.209
564.9950, 8160.689
566.1690, 8582.285
567.3430, 8037.010
568.5160, 7992.885
569.6890, 7433.885
570.8620, 7424.023
572.0350, 7367.242
573.2070, 7147.584
574.3800, 6692.037
575.5520, 6443.553
576.7240, 6127.061
577.8960, 5578.576
579.0680, 5329.076
580.2400, 4941.492
581.4110, 4503.545
582.5830, 4152.264
583.7540, 3796.947
584.9250, 3716.441
586.0950, 3450.557
587.2660, 3251.031
588.4370, 2836.410
589.6070, 2724.764
590.7770, 2669.543
591.9470, 2389.555
593.1170, 2237.443
594.2860, 2317.547
595.4560, 2326.834
596.6250, 2284.082
597.7940, 1980.254
598.9630, 2004.756
600.1320, 1896.266
601.3000, 1774.947
602.4690, 1839.914
603.6370, 1561.203
604.8050, 1622.436
605.9730, 1559.492
607.1410, 1560.180
608.3090, 1431.619
609.4760, 1352.049
610.6430, 1405.822
611.8100, 1379.754
612.9770, 1243.689
614.1440, 1253.377
615.3110, 999.1348
616.4770, 982.8164
617.6430, 1069.174
618.8090, 941.9375
619.9750, 961.1777
621.1410, 925.3828
622.3070, 634.3906
623.4720, 736.0059
624.6370, 680.3105
625.8020, 692.9062
626.9670, 651.9121
628.1320, 659.0820
629.2970, 685.7402
630.4610, 687.4336
631.6250, 720.6484
632.7890, 734.6094
633.9530, 782.5723
635.1170, 816.9102
636.2810, 911.5137
637.4440, 916.4941
638.6070, 1024.479
639.7700, 1108.469
640.9330, 1165.664
642.0960, 1418.467
643.2590, 1347.477
644.4210, 1468.918
645.5830, 1626.512
646.7450, 1588.539
647.9070, 1687.574
649.0690, 1878.617
650.2310, 1948.666
651.3920, 2292.725
652.5530, 2334.787
653.7140, 2612.857
654.8750, 3479.939
656.0360, 4347.025
657.1970, 4237.117
658.3570, 4652.221
659.5170, 4265.330
660.6770, 4870.447
661.8370, 6096.572
662.9970, 6812.727
664.1570, 7128.449
665.3160, 8674.570
666.4750, 9325.430
667.6340, 10386.70
668.7930, 11714.95
669.9520, 12857.00
671.1110, 13780.78
672.2690, 14626.15
673.4270, 15384.24
674.5850, 15931.48
675.7430, 15699.82
676.9010, 15571.37
678.0590, 14702.09
679.2160, 13504.48
680.3730, 12542.46
681.5300, 10887.26
682.6870, 9685.900
683.8440, 8224.371
685.0010, 7452.039
686.1570, 6788.189
687.3130, 6229.166
688.4690, 5751.463
689.6250, 5420.314
690.7810, 5119.691
691.9370, 5162.998
693.0920, 4996.887
694.2470, 5160.836
695.4020, 5107.652
696.5570, 4757.098
697.7120, 5056.438
698.8670, 5290.078
700.0210, 5105.840
701.1750, 5065.461
702.3290, 5358.129
703.4830, 5446.754
704.6370, 5318.430
705.7910, 5370.635
706.9440, 5435.953
708.0970, 5617.662
709.2510, 5694.166
710.4030, 5418.627
711.5560, 5623.043
712.7090, 5582.410
713.8610, 5742.734
715.0140, 5626.014
716.1660, 5785.473
717.3180, 6114.088
718.4690, 6048.566
719.6210, 6038.428
720.7730, 5947.951
721.9240, 5729.719
723.0750, 5565.684
724.2260, 5358.613
725.3770, 5224.510
726.5270, 5224.609
727.6780, 5091.756
728.8280, 5199.059
729.9780, 5051.877
731.1280, 4801.746
732.2780, 4931.668
733.4280, 4574.801
734.5770, 4523.424
735.7260, 4149.779
736.8760, 4217.906
738.0250, 4254.082
739.1730, 4008.316
740.3220, 3867.637
741.4700, 3649.035
742.6190, 3490.529
743.7670, 3568.105
744.9150, 3248.723
746.0630, 3277.365
747.2100, 3024.025
748.3580, 2808.662
749.5050, 2661.270
750.6520, 2667.886
751.7990, 2594.480
752.9460, 2375.082
754.0930, 2493.655
755.2390, 2171.201
756.3860, 2262.719
757.5320, 2286.203
758.6780, 1977.662
759.8240, 1996.087
760.9690, 2127.479
762.1150, 1889.832
763.2600, 1994.151
764.4060, 1773.433
765.5510, 1700.676
766.6950, 1865.875
767.8400, 1672.026
768.9850, 1890.133
770.1290, 1743.842
771.2730, 1684.671
772.4170, 1517.164
773.5610, 1507.080
774.7050, 1376.949
775.8480, 1297.771
776.9920, 1234.547
778.1350, 1193.996
779.2780, 1288.957
780.4210, 1162.593
781.5640, 1266.182
782.7060, 1247.725
783.8490, 1245.223
784.9910, 1054.675
786.1330, 1094.079
787.2750, 982.4414
788.4170, 895.7549
789.5580, 879.0234
790.7000, 949.2500
791.8410, 620.4287
792.9820, 764.5654
794.1230, 595.6553
795.2640, 557.7041
796.4040, 482.7051
797.5450, 629.6631
798.6850, 566.5781
799.8250, 421.4502
800.9650, 286.2764
802.1050, 191.0557
803.2450, 254.7803
804.3840, 13.44336
805.5230, 162.0234
806.6630, 295.4658
807.8020, 211.2119
808.9400, 2.828125
810.0790, 247.2354
811.2170, 265.5352
812.3560, 235.0762
813.4940, 349.8438
814.6320, 352.8994
815.7700, 491.3252
816.9070, 341.8008
818.0450, 259.9688
819.1820, 242.1562
820.3190, 479.3926
821.4560, 387.9326
822.5930, 428.6357
823.7300, 475.0830
824.8670, 338.2910
826.0030, 540.0645
827.1390, 406.8359
828.2750, 407.7881
829.4110, 451.0918
830.5470, 438.4824
831.6820, 241.1973
832.8180, 219.1289
833.9530, 293.2646
835.0880, 141.6396
836.2230, 226.1777
837.3580, 242.9170
838.4920, 7.867188
839.6270, 67.09766
840.7610, 445.0176
841.8950, 132.9023
843.0290, 15.25000
844.1630, 216.5176
845.2960, 261.2520
846.4300, 306.9512
847.5630, 309.6230
848.6960, 524.2656
849.8290, 646.8770
850.9620, 603.4590
852.0940, 904.0137
853.2270, 735.5391
854.3590, 1011.037
855.4910, 1118.510
856.6230, 1221.957
857.7550, 1383.379
858.8870, 1360.775
860.0180, 1643.146
861.1500, 1728.496
862.2810, 2069.822
863.4120, 2039.123
864.5430, 2346.404
865.6730, 2599.662
866.8040, 2882.898
867.9340, 3236.117
869.0640, 3267.312
870.1940, 3357.488
871.3240, 3710.641
872.4540, 4037.775
873.5830, 4233.891
874.7130, 4434.984
875.8420, 4587.059
876.9710, 4865.113
878.1000, 4845.148
879.2290, 5216.162
880.3570, 5225.047
881.4860, 5561.133
882.6140, 5409.090
883.7420, 5653.027
884.8700, 5906.947
885.9980, 5890.848
887.1250, 5539.734
888.2530, 5604.600
889.3800, 5614.451
890.5070, 5698.285
891.6340, 5680.105
892.7610, 5598.910
893.8880, 5520.699
895.0140, 5338.475
896.1400, 5333.238
897.2670, 5014.988
898.3930, 4898.727
899.5180, 5039.453
900.6440, 4960.170
901.7700, 4743.881
902.8950, 4682.582
904.0200, 4570.312
905.1450, 4517.047
906.2700, 4346.777
907.3950, 4240.504
908.5190, 4181.436
909.6440, 4051.500
910.7680, 4052.822
911.8920, 3903.650
913.0160, 3814.525
914.1400, 3827.428
915.2630, 3735.354
916.3870, 3766.309
917.5100, 3511.283
918.6330, 3656.295
919.7560, 3579.357
920.8790, 3477.473
922.0010, 3617.629
923.1240, 3448.244
924.2460, 3391.045
925.3680, 3376.314
926.4900, 3128.621
927.6120, 3339.980
928.7340, 3210.367
929.8550, 3142.787
930.9760, 3195.258
932.0980, 3073.777
933.2190, 3087.352
934.3390, 3258.969
935.4600, 3075.621
936.5810, 2888.744
937.7010, 3325.492
938.8210, 3042.547
939.9410, 3205.232
941.0610, 3179.961
942.1810, 3245.934
943.3010, 3408.223
944.4200, 3337.949
945.5390, 3678.020
946.6580, 3471.963
947.7770, 3639.836
948.8960, 3612.527
950.0150, 3703.066
951.1330, 3800.959
952.2510, 3952.301
953.3690, 3935.842
954.4870, 4242.574
955.6050, 4292.496
956.7230, 4275.250
957.8400, 4494.551
958.9580, 4794.051
960.0750, 4724.258
961.1920, 5096.938
962.3090, 5082.125
963.4250, 5155.408
964.5420, 5303.143
965.6580, 5489.637
966.7740, 5850.123
967.8900, 6036.979
969.0060, 6402.385
970.1220, 6696.518
971.2380, 6867.562
972.3530, 7136.270
973.4680, 7220.660
974.5830, 7496.254
975.6980, 7548.510
976.8130, 7579.266
977.9280, 8128.938
979.0420, 7938.250
980.1560, 8154.795
981.2710, 7828.416
982.3850, 8215.113
983.4980, 8063.883
984.6120, 7993.730
985.7260, 8101.650
986.8390, 7968.648
987.9520, 8036.723
989.0650, 7668.871
990.1780, 7702.100
991.2910, 7562.406
992.4030, 7483.795
993.5160, 7297.258
994.6280, 7379.801
995.7400, 7278.449
996.8520, 7083.178
997.9640, 7059.994
999.0750, 6730.895
1000.187, 6657.885
1001.298, 6586.953
1002.409, 6548.105
1003.520, 6514.340
1004.631, 6553.652
1005.741, 6428.051
1006.852, 6239.529
1007.962, 6309.094
1009.072, 6219.738
1010.182, 6336.469
1011.292, 6315.289
1012.402, 6382.191
1013.511, 6273.986
1014.621, 6387.643
1015.730, 6434.023
1016.839, 6416.701
1017.948, 6144.648
1019.056, 6201.760
1020.165, 6127.053
1021.273, 6047.064
1022.382, 6150.717
1023.490, 5916.193
1024.598, 6017.135
1025.706, 5984.281
1026.813, 6012.834
1027.921, 5908.762
1029.028, 5845.789
1030.135, 5915.635
1031.242, 5766.816
1032.349, 5895.301
1033.456, 5699.871
1034.562, 5981.475
1035.668, 5934.229
1036.775, 5947.707
1037.881, 6077.854
1038.987, 6128.037
1040.092, 6204.211
1041.198, 6230.262
1042.303, 6373.059
1043.408, 6597.822
1044.514, 6464.502
1045.618, 6538.273
1046.723, 6427.154
1047.828, 6554.805
1048.932, 6425.754
1050.037, 6696.107
1051.141, 6621.889
1052.245, 6540.322
1053.349, 6626.031
1054.452, 6593.104
1055.556, 6610.904
1056.659, 6665.418
1057.762, 6594.738
1058.865, 6653.488
1059.968, 6827.549
1061.071, 6712.643
1062.174, 6944.916
1063.276, 6771.398
1064.378, 6901.195
1065.480, 6708.143
1066.582, 7123.404
1067.684, 6979.053
1068.786, 7010.182
1069.887, 7116.859
1070.988, 7159.627
1072.090, 7138.686
1073.191, 6859.229
1074.291, 6910.357
1075.392, 6836.160
1076.493, 6748.088
1077.593, 6851.941
1078.693, 6936.318
1079.793, 6965.893
1080.893, 6733.641
1081.993, 6678.742
1083.092, 6659.889
1084.192, 6532.180
1085.291, 6642.436
1086.390, 6452.250
1087.489, 6531.248
1088.588, 6615.496
1089.686, 6565.949
1090.785, 6541.637
1091.883, 6596.551
1092.981, 6504.652
1094.079, 6538.414
1095.177, 6750.539
1096.275, 6554.287
1097.373, 6650.254
1098.470, 6686.436
1099.567, 6417.771
1100.664, 6488.262
1101.761, 6573.918
1102.858, 6355.705
1103.954, 6359.531
1105.051, 6252.906
1106.147, 6122.906
1107.243, 5980.156
1108.339, 5711.975
1109.435, 5737.160
1110.531, 5695.053
1111.626, 5589.357
1112.722, 5228.787
1113.817, 5197.471
1114.912, 5034.359
1116.007, 4865.895
1117.101, 4881.205
1118.196, 4558.145
1119.290, 4570.662
1120.385, 4449.242
1121.479, 4389.545
1122.573, 4196.977
1123.666, 4045.785
1124.760, 4027.037
1125.853, 3934.982
1126.947, 3732.936
1128.040, 3677.732
1129.133, 3352.148
1130.226, 3264.422
1131.318, 3280.010
1132.411, 3079.488
1133.503, 3026.936
1134.596, 2917.936
1135.688, 2553.611
1136.780, 2614.270
1137.871, 2439.309
1138.963, 2514.396
1140.054, 2137.531
1141.146, 2228.053
1142.237, 2348.688
1143.328, 2043.246
1144.419, 1789.646
1145.509, 1735.039
1146.600, 1705.457
1147.690, 1532.918
1148.780, 1472.863
1149.870, 1273.418
1150.960, 1296.016
1152.050, 1113.672
1153.139, 924.3652
1154.229, 860.0977
1155.318, 794.8691
1156.407, 599.6758
1157.496, 433.6055
1158.585, 370.4863
1159.674, 216.4062
1160.762, 242.9727
1161.850, 240.9590
1162.939, 130.9746
1164.027, 615.0234
1165.114, 45.54492
1166.202, 180.7754
1167.290, 205.9824
1168.377, 80.62109
1169.464, 46.86719
1170.551, 11.78320
1171.638, 64.49219
1172.725, 282.7500
1173.812, 142.7090
1174.898, 156.6973
1175.984, 249.7227
1177.071, 151.7559
1178.157, 122.8984
1179.242, 164.2090
1180.328, 86.28320
1181.414, 190.3945
1182.499, 234.6875
1183.584, 217.0684
1184.669, 198.2363
1185.754, 157.7656
1186.839, 106.3516
1187.924, 192.9707
1189.008, 141.6641
1190.092, 198.4102
1191.177, 102.2363
1192.260, 102.1035
1193.344, 175.9395
1194.428, 177.9180
1195.512, 195.2031
1196.595, 123.7090
1197.678, 181.1562
1198.761, 76.44727
1199.844, 6.494141
1200.927, 72.83203
1202.009, 71.20898
1203.092, 7.097656
1204.174, 20.33008
1205.256, 137.7051
1206.338, 33.86328
1207.420, 125.5508
1208.502, 12.01172
1209.583, 90.32812
1210.665, 230.4355
1211.746, 47.07227
1212.827, 214.1816
1213.908, 17.43359
1214.988, 184.9824
1216.069, 357.3125
1217.149, 698.3730
1218.230, 354.9004
1219.310, 274.6055
1220.390, 313.1152
1221.470, 297.4512
1222.549, 195.7168
1223.629, 312.9668
1224.708, 427.2012
1225.787, 375.4199
1226.866, 313.3477
1227.945, 157.2363
1229.024, 179.8926
1230.103, 278.6523
1231.181, 187.7617
1232.259, 300.8477
1233.337, 352.9160
1234.415, 314.1211
1235.493, 333.3340
1236.571, 271.5547
1237.648, 353.0566
1238.726, 443.5391
1239.803, 286.9238
1240.880, 300.9316
1241.957, 405.5176
1243.034, 366.5137
1244.110, 336.3535
1245.187, 485.5957
1246.263, 265.2969
1247.339, 456.4180
1248.415, 325.6406
1249.491, 274.8477
1250.566, 156.6484
1251.642, 368.9121
1252.717, 165.1152
1253.793, 302.0977
1254.868, 248.3516
1255.943, 32.11328
1257.017, 168.5039
1258.092, 134.7363
1259.166, 146.4512
1260.241, 136.0898
1261.315, 216.1387
1262.389, 195.4395
1263.462, 351.6953
1264.536, 402.9121
1265.610, 347.4668
1266.683, 251.9824
1267.756, 251.7266
1268.829, 246.7051
1269.902, 210.0684
1270.975, 212.0547
1272.048, 221.1777
1273.120, 189.8916
1274.192, 255.7764
1275.264, 263.2529
1276.336, 412.9795
1277.408, 229.4248
1278.480, 380.5049
1279.551, 320.4951
1280.623, 383.3262
1281.694, 410.5342
1282.765, 392.6895
1283.836, 345.9355
1284.907, 340.2979
1285.977, 225.5068
1287.048, 358.5029
1288.118, 381.2578
1289.188, 177.2705
1290.258, 351.0322
1291.328, 454.7412
1292.398, 348.7852
1293.467, 232.1836
1294.537, 294.7783
1295.606, 173.2578
1296.675, 195.1709
1297.744, 181.6689
1298.813, 223.7832
1299.882, 273.2822
1300.950, 223.4160
1302.018, 404.0010
1303.086, 346.7520
1304.155, 439.5156
1305.222, 296.2217
1306.290, 345.9785
1307.358, 463.7539
1308.425, 381.3770
1309.492, 275.6543
1310.559, 316.5049
1311.626, 320.7344
1312.693, 236.5977
1313.760, 299.4170
1314.826, 300.2471
1315.893, 357.7451
1316.959, 353.2373
1318.025, 379.3281
1319.091, 362.1406
1320.157, 345.1514
1321.222, 231.6748
1322.288, 297.4150
1323.353, 187.6172
