##NAMES=Arfvedsonite
##RRUFFID=R040127
##IDEAL CHEMISTRY=NaNa_2_(Fe^2+^_4_Fe^3+^)Si_8_O_22_(OH)_2_
##LOCALITY=Mont Saint-Hilaire, Rouville County, Quebec, Canada
##OWNER=RRUFF
##SOURCE=Bob Downs
##DESCRIPTION=Black prismatic crystal associated with white analcime, R040128
##STATUS=The identification of this mineral has been confirmed by X-ray diffraction and chemical analysis
##URL=rruff.info/R040127
##MEASURED CHEMISTRY=(Na_0.61_K_0.39_)Na_2.00_(Fe^2+^_2.40_Mg_0.80_Mn_0.75_Ca_0.05_)_&#931;=4_(Fe^3+^_0.60_Al_0.25_Mn_0.15_)(Si_0.99_Ti_0.01_)_8_O_22_((OH)_0.67_F_0.33_)_2_
##PIN_ID=L01975
##ORIENTATION=Laser parallel to b* (0 1 0). Fiducial mark perpendicular to laser is parallel to c [0 0 1]
183.0710, 0.0000000E+00
184.3000, 341.6211
185.5280, 26.58008
186.7570, 928.3594
187.9850, 1811.867
189.2130, 2779.982
190.4400, 3892.238
191.6680, 5048.969
192.8960, 6455.375
194.1230, 7366.285
195.3500, 8477.711
196.5770, 9277.301
197.8030, 9623.895
199.0300, 10774.76
200.2560, 11004.23
201.4830, 12402.30
202.7090, 12773.07
203.9340, 12050.29
205.1600, 7032.203
206.3860, 4395.148
207.6110, 3535.127
208.8360, 2786.861
210.0610, 3358.828
211.2860, 4049.885
212.5100, 4799.898
213.7350, 5526.016
214.9590, 5473.332
216.1830, 5187.840
217.4070, 4640.514
218.6310, 4495.211
219.8540, 4020.529
221.0780, 3625.012
222.3010, 3270.506
223.5240, 2831.684
224.7470, 2469.273
225.9690, 2186.500
227.1920, 1894.826
228.4140, 2002.008
229.6360, 1996.398
230.8580, 2329.062
232.0800, 2631.662
233.3020, 3255.693
234.5230, 3773.188
235.7440, 4085.641
236.9650, 4392.621
238.1860, 4579.998
239.4070, 4778.283
240.6280, 4773.075
241.8480, 4901.666
243.0680, 4915.382
244.2880, 5320.387
245.5080, 5189.267
246.7280, 5483.795
247.9470, 4945.234
249.1660, 5048.160
250.3860, 4597.619
251.6040, 4615.672
252.8230, 4441.402
254.0420, 3852.183
255.2600, 3680.907
256.4790, 3274.550
257.6970, 3153.512
258.9150, 2971.275
260.1320, 2731.468
261.3500, 2258.674
262.5670, 2087.982
263.7840, 1797.051
265.0010, 1501.637
266.2180, 1374.765
267.4350, 938.5195
268.6510, 809.9775
269.8680, 603.9961
271.0840, 503.0977
272.3000, 220.4268
273.5160, 44.04785
274.7310, 9.360352
275.9470, 44.53125
277.1620, 234.1416
278.3770, 400.9189
279.5920, 464.4678
280.8070, 832.3828
282.0210, 842.3906
283.2360, 830.5566
284.4500, 850.0938
285.6640, 572.9824
286.8780, 357.7734
288.0920, 201.1387
289.3050, 278.0859
290.5180, 53.90332
291.7320, 49.89746
292.9450, 149.1357
294.1570, 416.7490
295.3700, 373.8672
296.5830, 636.9248
297.7950, 777.1641
299.0070, 973.3203
300.2190, 1181.865
301.4310, 1501.827
302.6420, 1834.160
303.8540, 2134.622
305.0650, 2473.846
306.2760, 2790.498
307.4870, 3198.694
308.6980, 4168.963
309.9080, 4793.860
311.1190, 4985.800
312.3290, 5002.703
313.5390, 5478.978
314.7490, 5779.252
315.9580, 6213.615
317.1680, 6061.055
318.3770, 6249.234
319.5860, 6108.588
320.7950, 5690.324
322.0040, 5382.448
323.2130, 4752.335
324.4210, 4390.249
325.6290, 3827.314
326.8380, 3479.596
328.0460, 2933.203
329.2530, 2686.093
330.4610, 2369.879
331.6680, 2155.011
332.8760, 2078.873
334.0830, 1630.905
335.2890, 1858.646
336.4960, 2025.021
337.7030, 2133.048
338.9090, 2008.213
340.1150, 2184.679
341.3210, 2239.112
342.5270, 2288.612
343.7330, 2505.482
344.9380, 2412.222
346.1440, 2625.845
347.3490, 2906.047
348.5540, 3210.488
349.7590, 3312.641
350.9630, 3517.495
352.1680, 3729.008
353.3720, 3936.076
354.5760, 4219.566
355.7800, 4242.426
356.9840, 4475.665
358.1870, 4507.326
359.3910, 4525.451
360.5940, 4237.077
361.7970, 4451.236
363.0000, 4185.959
364.2030, 4239.268
365.4050, 4101.186
366.6080, 3799.733
367.8100, 3622.928
369.0120, 3407.785
370.2140, 3116.320
371.4150, 3016.511
372.6170, 3127.310
373.8180, 2825.351
375.0190, 2836.900
376.2200, 2885.365
377.4210, 2702.463
378.6220, 2609.596
379.8220, 2614.037
381.0230, 2541.484
382.2230, 2513.137
383.4230, 2445.379
384.6220, 2361.451
385.8220, 2405.424
387.0220, 2454.334
388.2210, 2254.193
389.4200, 2235.001
390.6190, 2298.757
391.8180, 2377.458
393.0160, 2230.103
394.2150, 2159.690
395.4130, 2073.211
396.6110, 1974.039
397.8090, 1938.029
399.0060, 1737.322
400.2040, 1872.535
401.4010, 1621.670
402.5980, 1600.721
403.7950, 1740.687
404.9920, 1637.566
406.1890, 1934.356
407.3860, 1911.455
408.5820, 1958.662
409.7780, 2196.175
410.9740, 2326.591
412.1700, 2852.063
413.3650, 2928.890
414.5610, 3270.431
415.7560, 3433.014
416.9510, 3612.697
418.1460, 3741.529
419.3410, 3699.456
420.5360, 3734.087
421.7300, 3661.723
422.9240, 3555.792
424.1180, 3470.769
425.3120, 3192.547
426.5060, 2953.591
427.7000, 2786.273
428.8930, 2333.627
430.0860, 2176.272
431.2790, 1804.329
432.4720, 1811.121
433.6650, 1411.280
434.8580, 1161.906
436.0500, 859.9883
437.2420, 562.0244
438.4340, 520.1943
439.6260, 249.5498
440.8180, 325.6738
442.0090, 177.1250
443.2010, 255.0439
444.3920, 9.679688
445.5830, 118.3320
446.7740, 266.1553
447.9640, 60.18555
449.1550, 224.3633
450.3450, 161.7246
451.5350, 208.2490
452.7250, 175.5820
453.9150, 93.30469
455.1050, 10.42969
456.2940, 50.00293
457.4830, 268.3291
458.6720, 203.2236
459.8610, 349.8740
461.0500, 445.5820
462.2390, 393.5713
463.4270, 531.9736
464.6150, 598.3291
465.8040, 677.5596
466.9910, 593.7324
468.1790, 657.0039
469.3670, 685.9004
470.5540, 751.4980
471.7410, 808.0117
472.9280, 808.4326
474.1150, 789.9219
475.3020, 603.6104
476.4890, 812.7754
477.6750, 641.4971
478.8610, 706.2754
480.0470, 789.9277
481.2330, 734.8672
482.4190, 760.3906
483.6040, 1078.870
484.7900, 1061.954
485.9750, 1195.215
487.1600, 1238.121
488.3450, 1442.622
489.5290, 1434.190
490.7140, 1537.887
491.8980, 1691.791
493.0820, 1786.422
494.2660, 1941.531
495.4500, 2094.482
496.6340, 2298.423
497.8170, 2476.993
499.0010, 2777.915
500.1840, 3007.641
501.3670, 3035.210
502.5500, 3254.625
503.7320, 3705.885
504.9150, 3718.991
506.0970, 3988.946
507.2790, 4016.750
508.4610, 4126.405
509.6430, 4425.912
510.8250, 4385.271
512.0060, 4551.486
513.1870, 4697.555
514.3680, 4782.480
515.5490, 5020.263
516.7300, 4998.906
517.9110, 5312.415
519.0910, 5455.793
520.2710, 5823.047
521.4510, 6175.188
522.6310, 6468.219
523.8110, 6941.146
524.9910, 7404.974
526.1700, 8178.701
527.3490, 8809.331
528.5280, 9659.861
529.7070, 10559.29
530.8860, 11410.63
532.0650, 12256.86
533.2430, 13202.00
534.4210, 14007.03
535.5990, 14532.97
536.7770, 15214.81
537.9550, 15077.56
539.1320, 15381.22
540.3100, 15014.81
541.4870, 14753.00
542.6640, 14256.84
543.8410, 13610.00
545.0170, 12817.67
546.1940, 12271.74
547.3700, 11472.41
548.5470, 11133.81
549.7230, 10476.21
550.8980, 9980.013
552.0740, 9482.519
553.2500, 9022.273
554.4250, 8488.582
555.6000, 8013.879
556.7750, 7636.170
557.9500, 7349.452
559.1250, 7259.746
560.2990, 6977.118
561.4730, 6999.537
562.6480, 6652.012
563.8220, 6641.591
564.9950, 6526.295
566.1690, 6700.162
567.3430, 6862.251
568.5160, 6738.576
569.6890, 6680.112
570.8620, 7034.868
572.0350, 7101.785
573.2070, 7145.792
574.3800, 6916.850
575.5520, 6818.992
576.7240, 6522.415
577.8960, 6297.505
579.0680, 5728.905
580.2400, 5275.063
581.4110, 4663.937
582.5830, 3928.465
583.7540, 3404.279
584.9250, 2751.992
586.0950, 2314.665
587.2660, 1914.462
588.4370, 1532.927
589.6070, 1212.269
590.7770, 998.2568
591.9470, 899.1318
593.1170, 706.0391
594.2860, 503.9531
595.4560, 331.9795
596.6250, 200.1533
597.7940, 268.4014
598.9630, 179.2334
600.1320, 161.2246
601.3000, 104.5488
602.4690, 182.5801
603.6370, 74.37598
604.8050, 59.54297
605.9730, 79.03125
607.1410, 79.41602
608.3090, 145.9209
609.4760, 77.37598
610.6430, 89.72949
611.8100, 169.2100
612.9770, 83.24219
614.1440, 56.88379
615.3110, 210.2412
616.4770, 10.73730
617.6430, 120.5078
618.8090, 124.2715
619.9750, 77.41211
621.1410, 116.7871
622.3070, 17.23926
623.4720, 51.85938
624.6370, 34.62109
625.8020, 4.649414
626.9670, 6.004883
628.1320, 22.73828
629.2970, 116.5986
630.4610, 74.43164
631.6250, 189.1377
632.7890, 271.6865
633.9530, 370.2148
635.1170, 391.2998
636.2810, 488.5557
637.4440, 534.5381
638.6070, 647.9883
639.7700, 744.0303
640.9330, 777.6484
642.0960, 953.0020
643.2590, 1044.791
644.4210, 1122.640
645.5830, 1322.281
646.7450, 1355.130
647.9070, 1417.346
649.0690, 1487.768
650.2310, 1762.193
651.3920, 1840.473
652.5530, 2002.680
653.7140, 2201.818
654.8750, 2348.766
656.0360, 2678.883
657.1970, 2772.810
658.3570, 3150.670
659.5170, 3487.458
660.6770, 3976.179
661.8370, 4633.832
662.9970, 5217.416
664.1570, 6470.933
665.3160, 6839.382
666.4750, 7744.764
667.6340, 9242.079
668.7930, 10407.33
669.9520, 12273.51
671.1110, 13871.62
672.2690, 15837.67
673.4270, 17761.65
674.5850, 19613.63
675.7430, 20769.85
676.9010, 20990.32
678.0590, 20243.54
679.2160, 18617.74
680.3730, 16521.62
681.5300, 14110.52
682.6870, 12887.04
683.8440, 9810.377
685.0010, 8072.672
686.1570, 6773.281
687.3130, 5778.498
688.4690, 4826.271
689.6250, 4290.751
690.7810, 3639.201
691.9370, 3221.763
693.0920, 2890.016
694.2470, 2599.326
695.4020, 2513.268
696.5570, 2195.025
697.7120, 2034.173
698.8670, 2058.904
700.0210, 1807.778
701.1750, 1837.963
702.3290, 1558.942
703.4830, 1518.872
704.6370, 1475.053
705.7910, 1334.251
706.9440, 1235.902
708.0970, 1286.735
709.2510, 1275.465
710.4030, 1269.286
711.5560, 1094.840
712.7090, 1149.495
713.8610, 1021.037
715.0140, 1137.323
716.1660, 939.5127
717.3180, 1089.505
718.4690, 959.5400
719.6210, 908.1182
720.7730, 857.3887
721.9240, 841.2080
723.0750, 781.9658
724.2260, 760.9453
725.3770, 859.3145
726.5270, 738.9688
727.6780, 739.6582
728.8280, 795.3301
729.9780, 729.6797
731.1280, 780.9883
732.2780, 735.0957
733.4280, 795.7031
734.5770, 872.6357
735.7260, 814.0215
736.8760, 814.6689
738.0250, 731.8916
739.1730, 658.9922
740.3220, 779.7021
741.4700, 714.7764
742.6190, 593.1182
743.7670, 683.2754
744.9150, 621.3789
746.0630, 516.3740
747.2100, 501.1113
748.3580, 456.0693
749.5050, 499.1709
750.6520, 499.2070
751.7990, 490.1445
752.9460, 496.9160
754.0930, 381.0488
755.2390, 426.5801
756.3860, 345.3184
757.5320, 243.7588
758.6780, 334.0742
759.8240, 238.5918
760.9690, 269.8096
762.1150, 251.5566
763.2600, 171.3232
764.4060, 315.9268
765.5510, 268.5156
766.6950, 207.2715
767.8400, 185.7207
768.9850, 186.8037
770.1290, 196.4414
771.2730, 174.1875
772.4170, 254.6514
773.5610, 187.9707
774.7050, 228.6436
775.8480, 331.4570
776.9920, 197.6963
778.1350, 213.9111
779.2780, 285.0615
780.4210, 406.1523
781.5640, 360.1875
782.7060, 428.3545
783.8490, 388.0908
784.9910, 402.9609
786.1330, 479.7773
787.2750, 347.9961
788.4170, 528.2520
789.5580, 470.9111
790.7000, 583.5176
791.8410, 624.0742
792.9820, 649.5791
794.1230, 710.0352
795.2640, 878.2529
796.4040, 856.9346
797.5450, 849.6016
798.6850, 876.3711
799.8250, 835.3271
800.9650, 808.7998
802.1050, 769.8740
803.2450, 716.9502
804.3840, 661.9824
805.5230, 619.9688
806.6630, 547.7559
807.8020, 467.8154
808.9400, 419.6748
810.0790, 279.4932
811.2170, 236.2695
812.3560, 159.1660
813.4940, 37.70020
814.6320, 18.33496
815.7700, 1.097656
816.9070, 95.60645
818.0450, 210.2383
819.1820, 191.0518
820.3190, 175.0381
821.4560, 209.1836
822.5930, 392.5078
823.7300, 214.1025
824.8670, 321.8740
826.0030, 256.8770
827.1390, 212.0742
828.2750, 217.4414
829.4110, 263.9795
830.5470, 252.7100
831.6820, 266.6250
832.8180, 235.7305
833.9530, 214.1191
835.0880, 243.4453
836.2230, 160.0518
837.3580, 157.7646
838.4920, 164.5703
839.6270, 68.61328
840.7610, 160.6611
841.8950, 6.824219
843.0290, 58.02637
844.1630, 40.71191
845.2960, 43.43164
846.4300, 55.86719
847.5630, 40.78125
848.6960, 4.414063
849.8290, 63.97656
850.9620, 88.58398
852.0940, 45.87109
853.2270, 23.36328
854.3590, 102.1182
855.4910, 84.58887
856.6230, 113.9219
857.7550, 66.49902
858.8870, 92.93945
860.0180, 100.3730
861.1500, 51.79785
862.2810, 249.2158
863.4120, 87.62793
864.5430, 262.0332
865.6730, 199.4316
866.8040, 268.8262
867.9340, 281.2139
869.0640, 300.8076
870.1940, 426.9854
871.3240, 399.3730
872.4540, 590.7676
873.5830, 709.1680
874.7130, 713.1113
875.8420, 962.9932
876.9710, 968.7695
878.1000, 1204.856
879.2290, 1094.103
880.3570, 1165.566
881.4860, 1246.042
882.6140, 1400.156
883.7420, 1513.320
884.8700, 1726.376
885.9980, 1741.699
887.1250, 1824.150
888.2530, 1889.603
889.3800, 2113.123
890.5070, 2054.312
891.6340, 2286.740
892.7610, 2174.938
893.8880, 2313.823
895.0140, 2408.174
896.1400, 2634.232
897.2670, 2771.481
898.3930, 2859.501
899.5180, 2813.715
900.6440, 3002.357
901.7700, 3115.853
902.8950, 3146.146
904.0200, 3258.863
905.1450, 3512.287
906.2700, 3704.090
907.3950, 3837.434
908.5190, 3737.729
909.6440, 3939.196
910.7680, 4020.029
911.8920, 4096.387
913.0160, 4340.326
914.1400, 4274.625
915.2630, 4516.244
916.3870, 4635.911
917.5100, 4811.462
918.6330, 4865.682
919.7560, 4957.476
920.8790, 5170.825
922.0010, 5316.792
923.1240, 5357.094
924.2460, 5112.948
925.3680, 5214.838
926.4900, 5050.758
927.6120, 4976.711
928.7340, 5178.693
929.8550, 5121.709
930.9760, 5029.787
932.0980, 5111.919
933.2190, 5140.088
934.3390, 5014.263
935.4600, 5287.418
936.5810, 5498.890
937.7010, 5651.929
938.8210, 5571.713
939.9410, 5792.864
941.0610, 5893.363
942.1810, 5988.995
943.3010, 6252.788
944.4200, 6206.762
945.5390, 6467.904
946.6580, 6606.453
947.7770, 6800.859
948.8960, 6872.539
950.0150, 6981.008
951.1330, 7209.904
952.2510, 7346.488
953.3690, 7760.528
954.4870, 7924.956
955.6050, 8283.552
956.7230, 8693.201
957.8400, 8995.528
958.9580, 9496.261
960.0750, 10168.43
961.1920, 10541.92
962.3090, 11011.45
963.4250, 11838.93
964.5420, 12421.71
965.6580, 13163.43
966.7740, 13853.50
967.8900, 14741.82
969.0060, 15614.70
970.1220, 16648.05
971.2380, 17706.92
972.3530, 18725.19
973.4680, 19339.35
974.5830, 20226.56
975.6980, 21057.52
976.8130, 21436.45
977.9280, 21672.92
979.0420, 21646.24
980.1560, 21635.66
981.2710, 21172.98
982.3850, 20450.55
983.4980, 20169.04
984.6120, 18743.62
985.7260, 17842.46
986.8390, 16399.41
987.9520, 15328.55
989.0650, 14510.67
990.1780, 13305.87
991.2910, 12481.16
992.4030, 11456.52
993.5160, 10442.95
994.6280, 9686.474
995.7400, 9068.072
996.8520, 8397.749
997.9640, 7756.504
999.0750, 7164.336
1000.187, 6719.316
1001.298, 6438.259
1002.409, 6050.342
1003.520, 5492.503
1004.631, 5391.743
1005.741, 5180.062
1006.852, 4896.471
1007.962, 4855.959
1009.072, 4585.527
1010.182, 4392.180
1011.292, 4387.914
1012.402, 4303.729
1013.511, 4062.629
1014.621, 4072.609
1015.730, 3831.670
1016.839, 3952.814
1017.948, 3715.039
1019.056, 3482.347
1020.165, 3535.734
1021.273, 3246.211
1022.382, 3292.769
1023.490, 3300.408
1024.598, 3118.128
1025.706, 2962.929
1026.813, 3034.812
1027.921, 3004.778
1029.028, 2995.832
1030.135, 2835.973
1031.242, 2876.198
1032.349, 2933.504
1033.456, 3016.898
1034.562, 2880.377
1035.668, 2815.938
1036.775, 2968.578
1037.881, 3065.301
1038.987, 3100.105
1040.092, 3233.572
1041.198, 3279.961
1042.303, 3420.355
1043.408, 3472.264
1044.514, 3547.352
1045.618, 3617.980
1046.723, 3670.880
1047.828, 3766.580
1048.932, 3844.574
1050.037, 3967.232
1051.141, 4044.916
1052.245, 4186.721
1053.349, 4327.559
1054.452, 4482.003
1055.556, 4671.471
1056.659, 4822.682
1057.762, 5002.632
1058.865, 5141.844
1059.968, 5275.252
1061.071, 5590.248
1062.174, 5843.416
1063.276, 6044.277
1064.378, 6010.570
1065.480, 6273.425
1066.582, 6429.424
1067.684, 6588.680
1068.786, 6621.839
1069.887, 6717.934
1070.988, 6837.383
1072.090, 6799.742
1073.191, 6610.803
1074.291, 6455.160
1075.392, 6405.752
1076.493, 6043.316
1077.593, 5973.742
1078.693, 5759.785
1079.793, 5709.285
1080.893, 5530.626
1081.993, 5373.412
1083.092, 5228.453
1084.192, 5109.272
1085.291, 5015.469
1086.390, 5220.744
1087.489, 5085.523
1088.588, 5139.645
1089.686, 5364.793
1090.785, 5253.998
1091.883, 5175.245
1092.981, 5439.209
1094.079, 5483.584
1095.177, 5673.145
1096.275, 5837.687
1097.373, 5924.225
1098.470, 6187.785
1099.567, 6234.419
1100.664, 6420.400
1101.761, 6396.713
1102.858, 6458.209
1103.954, 6554.066
1105.051, 6790.225
1106.147, 6759.639
1107.243, 6821.801
1108.339, 6770.366
1109.435, 6804.638
1110.531, 6783.779
1111.626, 6789.639
1112.722, 6812.501
1113.817, 6831.102
1114.912, 6825.395
1116.007, 6717.909
1117.101, 6808.170
1118.196, 6838.408
1119.290, 6806.108
1120.385, 6547.110
1121.479, 6583.409
1122.573, 6498.796
1123.666, 6408.872
1124.760, 6487.349
1125.853, 6256.516
1126.947, 6332.060
1128.040, 6285.113
1129.133, 6294.352
1130.226, 6182.079
1131.318, 6109.273
1132.411, 6025.782
1133.503, 5938.199
1134.596, 5862.740
1135.688, 5753.213
1136.780, 5644.173
1137.871, 5548.656
1138.963, 5380.204
1140.054, 5369.779
1141.146, 5198.518
1142.237, 5284.137
1143.328, 5184.225
1144.419, 5015.795
1145.509, 4823.663
1146.600, 4721.594
1147.690, 4613.527
1148.780, 4467.433
1149.870, 4158.158
1150.960, 4009.003
1152.050, 3872.679
1153.139, 3728.525
1154.229, 3367.582
1155.318, 3188.459
1156.407, 2814.320
1157.496, 2465.775
1158.585, 2145.732
1159.674, 1729.726
1160.762, 1407.518
1161.850, 1099.140
1162.939, 727.0762
1164.027, 658.2725
1165.114, 433.7930
1166.202, 585.0615
1167.290, 252.0312
1168.377, 284.0078
1169.464, 313.2744
1170.551, 264.3945
1171.638, 168.5439
1172.725, 26.93164
1173.812, 104.6299
1174.898, 174.4951
1175.984, 186.5850
1177.071, 35.29102
1178.157, 44.34766
1179.242, 3.117188
1180.328, 42.27246
1181.414, 80.20508
1182.499, 107.2363
1183.584, 11.96582
1184.669, 9.469727
1185.754, 62.11328
1186.839, 6.708008
1187.924, 38.04004
1189.008, 52.15430
1190.092, 75.70020
1191.177, 6.448242
1192.260, 49.74414
1193.344, 142.4199
1194.428, 116.4180
1195.512, 3.631836
1196.595, 73.25098
1197.678, 15.02148
1198.761, 7.809570
1199.844, 235.0156
1200.927, 140.7578
1202.009, 182.9453
1203.092, 158.0752
1204.174, 174.6914
1205.256, 126.5430
1206.338, 106.2139
1207.420, 68.22168
1208.502, 58.21680
1209.583, 61.67090
1210.665, 141.0732
1211.746, 84.02246
1212.827, 138.1133
1213.908, 146.5684
1214.988, 68.53418
1216.069, 74.16992
1217.149, 29.11816
1218.230, 69.62012
1219.310, 1.437500
1220.390, 60.84766
1221.470, 6.756836
1222.549, 111.2266
1223.629, 97.28027
1224.708, 175.4727
1225.787, 27.53223
1226.866, 58.28613
1227.945, 85.66992
1229.024, 119.8330
1230.103, 24.64062
1231.181, 50.26758
1232.259, 80.93945
1233.337, 56.37988
1234.415, 116.1016
1235.493, 18.82422
1236.571, 30.89062
1237.648, 98.76367
1238.726, 45.11035
1239.803, 83.84375
1240.880, 64.02344
1241.957, 150.2695
1243.034, 177.9326
1244.110, 27.91113
1245.187, 68.13965
1246.263, 42.70312
1247.339, 12.13281
1248.415, 149.5801
1249.491, 22.77344
1250.566, 111.8604
1251.642, 124.6719
1252.717, 192.7256
1253.793, 139.2900
1254.868, 123.2900
1255.943, 228.7637
1257.017, 266.9023
1258.092, 199.2510
1259.166, 271.3545
1260.241, 94.54883
1261.315, 135.5977
1262.389, 270.4004
1263.462, 209.2432
1264.536, 282.8584
1265.610, 304.6436
1266.683, 92.45312
1267.756, 287.0146
1268.829, 305.6982
1269.902, 143.5771
1270.975, 324.0430
1272.048, 186.7188
1273.120, 162.7549
1274.192, 224.0850
1275.264, 196.6562
1276.336, 309.1846
1277.408, 286.5703
1278.480, 251.7822
1279.551, 270.1094
1280.623, 138.9043
1281.694, 284.5508
1282.765, 240.7080
1283.836, 291.4541
1284.907, 362.8828
1285.977, 271.0146
1287.048, 351.9180
1288.118, 164.7627
1289.188, 202.1279
1290.258, 215.3672
1291.328, 371.4639
1292.398, 185.3760
1293.467, 216.0947
1294.537, 339.0557
1295.606, 332.6621
1296.675, 380.1973
1297.744, 268.1191
1298.813, 305.8643
1299.882, 302.1729
1300.950, 441.4199
1302.018, 467.3760
1303.086, 357.4824
1304.155, 248.2871
1305.222, 397.6562
1306.290, 301.1445
1307.358, 337.4141
1308.425, 236.9434
1309.492, 253.7207
1310.559, 269.3818
1311.626, 342.3369
1312.693, 234.8633
1313.760, 365.4395
1314.826, 358.2402
1315.893, 391.3447
1316.959, 419.3818
1318.025, 263.6377
1319.091, 259.1602
1320.157, 470.6641
1321.222, 352.2129
1322.288, 294.4814
1323.353, 285.0576
1324.418, 503.8535
1325.483, 512.0850
1326.548, 274.3154
1327.612, 483.2451
1328.677, 404.3740
1329.741, 356.8457
1330.806, 483.4053
1331.870, 498.5264
1332.934, 376.0801
1333.997, 257.0645
1335.061, 397.7637
1336.124, 295.3691
1337.188, 325.6787
1338.251, 219.1377
1339.314, 225.1816
1340.377, 232.6592
1341.439, 296.9990
1342.502, 177.1963
