##NAMES=Arfvedsonite
##RRUFFID=R040127
##IDEAL CHEMISTRY=NaNa_2_(Fe^2+^_4_Fe^3+^)Si_8_O_22_(OH)_2_
##LOCALITY=Mont Saint-Hilaire, Rouville County, Quebec, Canada
##OWNER=RRUFF
##SOURCE=Bob Downs
##DESCRIPTION=Black prismatic crystal associated with white analcime, R040128
##STATUS=The identification of this mineral has been confirmed by X-ray diffraction and chemical analysis
##URL=rruff.info/R040127
##MEASURED CHEMISTRY=(Na_0.61_K_0.39_)Na_2.00_(Fe^2+^_2.40_Mg_0.80_Mn_0.75_Ca_0.05_)_&#931;=4_(Fe^3+^_0.60_Al_0.25_Mn_0.15_)(Si_0.99_Ti_0.01_)_8_O_22_((OH)_0.67_F_0.33_)_2_
##PIN_ID=M00446
##ORIENTATION=Laser parallel to (-1 0 -1). Fiducial mark perpendicular to laser is parallel to -b [0 -1 0]
121.4100, 0.0000000E+00
122.6480, 696.1914
123.8850, 67.21875
125.1230, 358.3750
126.3600, 131.7500
127.5960, 753.2344
128.8330, 2110.102
130.0700, 3795.996
131.3060, 4501.301
132.5420, 4924.062
133.7780, 5994.812
135.0140, 6982.629
136.2500, 8629.000
137.4850, 10884.84
138.7200, 14195.41
139.9550, 16331.27
141.1900, 16901.16
142.4250, 17131.36
143.6600, 16651.98
144.8940, 15090.36
146.1280, 12287.42
147.3620, 10031.34
148.5960, 7659.426
149.8300, 5773.102
151.0630, 5625.906
152.2960, 4755.449
153.5300, 3902.375
154.7620, 4274.395
155.9950, 3918.246
157.2280, 3377.695
158.4600, 3692.539
159.6920, 4100.527
160.9250, 4595.430
162.1560, 5622.301
163.3880, 6625.391
164.6200, 7236.734
165.8510, 7487.469
167.0820, 7504.141
168.3130, 7651.660
169.5440, 7472.023
170.7750, 7242.441
172.0050, 6721.246
173.2350, 5918.445
174.4650, 5747.047
175.6950, 5431.059
176.9250, 5498.516
178.1550, 5827.461
179.3840, 6213.891
180.6130, 6471.793
181.8420, 7016.152
183.0710, 8583.949
184.3000, 10072.17
185.5280, 10449.80
186.7570, 12007.82
187.9850, 12898.22
189.2130, 14704.98
190.4400, 15903.11
191.6680, 17918.57
192.8960, 19040.36
194.1230, 20594.46
195.3500, 21471.70
196.5770, 22785.48
197.8030, 23490.89
199.0300, 24168.14
200.2560, 25014.36
201.4830, 25681.98
202.7090, 25652.45
203.9340, 24069.41
205.1600, 22341.59
206.3860, 20963.91
207.6110, 20686.57
208.8360, 20623.15
210.0610, 20974.62
211.2860, 20883.15
212.5100, 21272.13
213.7350, 21172.66
214.9590, 20732.29
216.1830, 19658.36
217.4070, 18878.55
218.6310, 17885.67
219.8540, 16461.37
221.0780, 15831.62
222.3010, 14689.20
223.5240, 13641.05
224.7470, 12842.20
225.9690, 12326.63
227.1920, 11380.36
228.4140, 10965.43
229.6360, 10889.09
230.8580, 10923.46
232.0800, 10507.77
233.3020, 10447.67
234.5230, 10523.94
235.7440, 10457.44
236.9650, 10306.11
238.1860, 10230.91
239.4070, 10248.45
240.6280, 10326.86
241.8480, 10347.00
243.0680, 10116.25
244.2880, 10187.60
245.5080, 9640.062
246.7280, 9562.621
247.9470, 9312.277
249.1660, 8874.027
250.3860, 8671.867
251.6040, 8020.801
252.8230, 7593.812
254.0420, 7320.906
255.2600, 6474.078
256.4790, 6686.324
257.6970, 6984.645
258.9150, 6551.168
260.1320, 6048.598
261.3500, 6202.984
262.5670, 4629.555
263.7840, 4146.180
265.0010, 4051.855
266.2180, 3744.582
267.4350, 3344.359
268.6510, 3183.938
269.8680, 2701.418
271.0840, 2622.180
272.3000, 1890.305
273.5160, 1448.887
274.7310, 1050.676
275.9470, 935.9336
277.1620, 684.4922
278.3770, 327.2031
279.5920, 66.05469
280.8070, 307.3867
282.0210, 159.0781
283.2360, 591.6875
284.4500, 907.8438
285.6640, 922.5117
286.8780, 23.25391
288.0920, 1200.434
289.3050, 900.8398
290.5180, 673.9375
291.7320, 1213.715
292.9450, 697.3203
294.1570, 28.67578
295.3700, 274.6992
296.5830, 289.4414
297.7950, 446.9258
299.0070, 111.2031
300.2190, 89.76172
301.4310, 37.98047
302.6420, 194.9336
303.8540, 534.6055
305.0650, 609.8555
306.2760, 1006.039
307.4870, 1105.504
308.6980, 1263.938
309.9080, 1463.758
311.1190, 1448.500
312.3290, 1576.305
313.5390, 1582.281
314.7490, 1361.570
315.9580, 1612.664
317.1680, 1069.746
318.3770, 1217.539
319.5860, 1043.281
320.7950, 1074.934
322.0040, 864.6445
323.2130, 974.4688
324.4210, 736.4453
325.6290, 1015.535
326.8380, 931.7266
328.0460, 747.0000
329.2530, 901.3359
330.4610, 941.9805
331.6680, 1046.547
332.8760, 1030.770
334.0830, 1204.988
335.2890, 1433.090
336.4960, 1568.238
337.7030, 2009.324
338.9090, 2181.645
340.1150, 2513.965
341.3210, 2727.098
342.5270, 3233.270
343.7330, 3793.996
344.9380, 4250.996
346.1440, 4692.336
347.3490, 5395.781
348.5540, 6482.391
349.7590, 6768.406
350.9630, 7921.062
352.1680, 8883.285
353.3720, 9761.961
354.5760, 10457.59
355.7800, 11012.07
356.9840, 11800.56
358.1870, 12230.06
359.3910, 12867.64
360.5940, 13038.22
361.7970, 12797.83
363.0000, 12932.45
364.2030, 12861.08
365.4050, 12560.72
366.6080, 12653.36
367.8100, 12308.01
369.0120, 12163.66
370.2140, 12041.10
371.4150, 11226.95
372.6170, 11671.58
373.8180, 11303.21
375.0190, 11020.83
376.2200, 11168.43
377.4210, 10623.02
378.6220, 10649.59
379.8220, 10491.13
381.0230, 10321.65
382.2230, 10032.14
383.4230, 9604.602
384.6220, 9400.031
385.8220, 8795.438
387.0220, 8373.812
388.2210, 7920.152
389.4200, 7511.461
390.6190, 7044.734
391.8180, 6589.973
393.0160, 6209.180
394.2150, 5786.562
395.4130, 5263.484
396.6110, 5075.586
397.8090, 4816.656
399.0060, 4607.684
400.2040, 4495.672
401.4010, 4340.629
402.5980, 4218.551
403.7950, 4288.289
404.9920, 4396.281
406.1890, 4603.098
407.3860, 4824.867
408.5820, 5255.605
409.7780, 5935.305
410.9740, 6453.969
412.1700, 6927.594
413.3650, 7374.266
414.5610, 7798.000
415.7560, 8043.809
416.9510, 8333.664
418.1460, 8387.863
419.3410, 8425.953
420.5360, 8294.418
421.7300, 8243.363
422.9240, 8049.309
424.1180, 7838.973
425.3120, 7479.652
426.5060, 6950.609
427.7000, 6542.836
428.8930, 5866.207
430.0860, 5206.441
431.2790, 4685.238
432.4720, 3787.633
433.6650, 3408.352
434.8580, 3172.754
436.0500, 2411.598
437.2420, 2193.523
438.4340, 1533.375
439.6260, 1198.820
440.8180, 778.5664
442.0090, 934.8750
443.2010, 1618.367
444.3920, 506.8555
445.5830, 122.3008
446.7740, 668.6797
447.9640, 60.98438
449.1550, 292.8047
450.3450, 418.9141
451.5350, 459.3672
452.7250, 546.6445
453.9150, 230.4414
455.1050, 294.9609
456.2940, 325.1523
457.4830, 225.4258
458.6720, 1.925781
459.8610, 68.32031
461.0500, 20.64844
462.2390, 214.6055
463.4270, 439.9531
464.6150, 430.1016
465.8040, 566.6094
466.9910, 652.1328
468.1790, 611.4336
469.3670, 562.0273
470.5540, 433.6094
471.7410, 463.1133
472.9280, 281.0391
474.1150, 345.2617
475.3020, 231.3789
476.4890, 202.1289
477.6750, 85.52734
478.8610, 42.92188
480.0470, 34.62500
481.2330, 355.5039
482.4190, 354.2969
483.6040, 0.4257810
484.7900, 110.6094
485.9750, 80.73047
487.1600, 97.90234
488.3450, 196.7031
489.5290, 360.6797
490.7140, 441.5742
491.8980, 698.2773
493.0820, 826.8984
494.2660, 1053.438
495.4500, 1258.930
496.6340, 1444.281
497.8170, 1708.594
499.0010, 1864.828
500.1840, 2153.984
501.3670, 2523.059
502.5500, 2779.059
503.7320, 2907.984
504.9150, 2984.828
506.0970, 2998.598
507.2790, 3321.285
508.4610, 3431.891
509.6430, 3564.422
510.8250, 3568.871
512.0060, 4216.234
513.1870, 4365.520
514.3680, 4672.727
515.5490, 4687.848
516.7300, 5307.887
517.9110, 5774.840
519.0910, 5958.711
520.2710, 6881.504
521.4510, 7349.672
522.6310, 7663.828
523.8110, 8820.367
524.9910, 9573.816
526.1700, 10538.18
527.3490, 11369.47
528.5280, 12308.68
529.7070, 13260.83
530.8860, 14205.93
532.0650, 15236.95
533.2430, 16043.93
534.4210, 16492.84
535.5990, 17210.75
536.7770, 17207.73
537.9550, 17260.75
539.1320, 17202.78
540.3100, 17113.91
541.4870, 16492.12
542.6640, 15991.41
543.8410, 15424.79
545.0170, 14861.26
546.1940, 14093.81
547.3700, 13422.39
548.5470, 12871.00
549.7230, 12281.65
550.8980, 11752.35
552.0740, 11263.80
553.2500, 10851.90
554.4250, 10479.75
555.6000, 10064.63
556.7750, 9994.523
557.9500, 9790.414
559.1250, 9500.988
560.2990, 9216.164
561.4730, 9025.945
562.6480, 8906.711
563.8220, 8741.375
564.9950, 8745.941
566.1690, 8508.422
567.3430, 8362.984
568.5160, 8206.848
569.6890, 8009.480
570.8620, 7856.848
572.0350, 7772.277
573.2070, 7680.609
574.3800, 7366.059
575.5520, 6676.562
576.7240, 6245.074
577.8960, 5945.715
579.0680, 5228.367
580.2400, 4732.922
581.4110, 4033.418
582.5830, 3570.852
583.7540, 2754.250
584.9250, 2230.562
586.0950, 1775.770
587.2660, 1553.375
588.4370, 1091.379
589.6070, 838.8984
590.7770, 749.5820
591.9470, 953.0742
593.1170, 418.7539
594.2860, 392.9922
595.4560, 699.1992
596.6250, 78.42969
597.7940, 217.5625
598.9630, 140.9805
600.1320, 238.3125
601.3000, 1.242188
602.4690, 162.0195
603.6370, 255.8047
604.8050, 616.6367
605.9730, 72.61719
607.1410, 197.0898
608.3090, 92.83594
609.4760, 50.80859
610.6430, 40.01172
611.8100, 160.6836
612.9770, 137.2227
614.1440, 225.0977
615.3110, 302.5469
616.4770, 241.9961
617.6430, 360.3750
618.8090, 221.8555
619.9750, 279.1172
621.1410, 409.4219
622.3070, 569.4180
623.4720, 284.3438
624.6370, 373.3867
625.8020, 514.3320
626.9670, 783.8359
628.1320, 1047.684
629.2970, 1404.207
630.4610, 1683.520
631.6250, 1817.328
632.7890, 1608.348
633.9530, 1969.164
635.1170, 1864.906
636.2810, 1799.566
637.4440, 2553.145
638.6070, 1889.641
639.7700, 2649.059
640.9330, 1832.453
642.0960, 2053.707
643.2590, 2242.883
644.4210, 2284.984
645.5830, 2497.008
646.7450, 2668.434
647.9070, 2890.441
649.0690, 3044.219
650.2310, 3406.918
651.3920, 3552.648
652.5530, 3957.188
653.7140, 4393.648
654.8750, 4827.039
656.0360, 5559.344
657.1970, 5853.688
658.3570, 6800.836
659.5170, 7601.902
660.6770, 8634.895
661.8370, 9880.812
662.9970, 11206.65
664.1570, 12847.97
665.3160, 14834.15
666.4750, 16692.87
667.6340, 18653.53
668.7930, 21152.71
669.9520, 23367.98
671.1110, 25516.85
672.2690, 27104.02
673.4270, 28580.68
674.5850, 29612.61
675.7430, 29616.34
676.9010, 29255.72
678.0590, 28106.54
679.2160, 26599.52
680.3730, 23586.45
681.5300, 20261.28
682.6870, 17840.48
683.8440, 15418.09
685.0010, 13056.19
686.1570, 11286.82
687.3130, 10116.50
688.4690, 8794.516
689.6250, 8280.039
690.7810, 7276.680
691.9370, 7216.066
693.0920, 6686.527
694.2470, 6339.383
695.4020, 6125.961
696.5570, 6005.898
697.7120, 5979.973
698.8670, 5814.043
700.0210, 5659.535
701.1750, 5596.355
702.3290, 5374.078
703.4830, 5289.688
704.6370, 5319.184
705.7910, 5042.641
706.9440, 5260.918
708.0970, 4995.090
709.2510, 4808.152
710.4030, 4734.102
711.5560, 5018.945
712.7090, 5169.680
713.8610, 4829.301
715.0140, 4510.820
716.1660, 4311.223
717.3180, 4482.516
718.4690, 4214.703
719.6210, 4379.781
720.7730, 4232.750
721.9240, 4312.609
723.0750, 4565.363
724.2260, 3870.008
725.3770, 3924.543
726.5270, 3834.980
727.6780, 3913.316
728.8280, 3869.488
729.9780, 3740.734
731.1280, 3789.234
732.2780, 3460.074
733.4280, 3323.098
734.5770, 3203.586
735.7260, 2931.469
736.8760, 3087.301
738.0250, 2984.809
739.1730, 3074.336
740.3220, 2671.176
741.4700, 2396.832
742.6190, 2255.926
743.7670, 2128.070
744.9150, 1928.066
746.0630, 1701.141
747.2100, 2000.660
748.3580, 1671.723
749.5050, 1891.645
750.6520, 1745.480
751.7990, 1629.746
752.9460, 1745.547
754.0930, 1498.285
755.2390, 1427.891
756.3860, 1335.391
757.5320, 1116.211
758.6780, 1264.824
759.8240, 1116.535
760.9690, 1306.844
762.1150, 1469.328
763.2600, 1134.348
764.4060, 944.7461
765.5510, 1066.109
766.6950, 975.4414
767.8400, 995.7227
768.9850, 1136.938
770.1290, 969.0820
771.2730, 786.1523
772.4170, 676.1602
773.5610, 793.0898
774.7050, 1147.957
775.8480, 1092.758
776.9920, 853.4883
778.1350, 406.1562
779.2780, 720.7578
780.4210, 502.2422
781.5640, 768.7695
782.7060, 634.1797
783.8490, 252.8906
784.9910, 558.1328
786.1330, 731.4102
787.2750, 779.8359
788.4170, 329.5703
789.5580, 523.1055
790.7000, 458.5625
791.8410, 383.3711
792.9820, 667.3516
794.1230, 289.3203
795.2640, 567.5156
796.4040, 583.6641
797.5450, 719.6719
798.6850, 596.0000
799.8250, 552.4531
800.9650, 255.8281
802.1050, 342.2969
803.2450, 228.7266
804.3840, 67.10547
805.5230, 32.41406
806.6630, 5.375000
807.8020, 111.7266
808.9400, 44.22266
810.0790, 39.70312
811.2170, 240.4492
812.3560, 496.8203
813.4940, 336.5508
814.6320, 316.5508
815.7700, 594.8008
816.9070, 535.5586
818.0450, 587.0781
819.1820, 534.8594
820.3190, 642.6133
821.4560, 544.8359
822.5930, 368.2969
823.7300, 439.0742
824.8670, 403.1406
826.0030, 465.5938
827.1390, 490.1172
828.2750, 477.0625
829.4110, 485.3047
830.5470, 498.8438
831.6820, 294.6836
832.8180, 355.7148
833.9530, 237.9648
835.0880, 372.3594
836.2230, 5.027344
837.3580, 276.9727
838.4920, 83.82422
839.6270, 312.7695
840.7610, 416.8398
841.8950, 22.28125
843.0290, 271.5820
844.1630, 262.8438
845.2960, 243.4570
846.4300, 583.3633
847.5630, 261.2539
848.6960, 595.4023
849.8290, 667.5938
850.9620, 859.6641
852.0940, 746.6953
853.2270, 641.8867
854.3590, 735.0820
855.4910, 1182.285
856.6230, 895.0156
857.7550, 1484.316
858.8870, 1941.750
860.0180, 2274.105
861.1500, 2108.125
862.2810, 2585.750
863.4120, 2805.367
864.5430, 3014.430
865.6730, 3582.457
866.8040, 3488.836
867.9340, 4051.223
869.0640, 4738.930
870.1940, 5193.375
871.3240, 5496.848
872.4540, 6189.371
873.5830, 6845.020
874.7130, 7199.781
875.8420, 7928.672
876.9710, 8450.633
878.1000, 8895.641
879.2290, 9252.684
880.3570, 9572.121
881.4860, 10198.93
882.6140, 10118.22
883.7420, 10471.61
884.8700, 10872.10
885.9980, 10853.66
887.1250, 10937.26
888.2530, 11045.92
889.3800, 11241.65
890.5070, 11192.42
891.6340, 11365.24
892.7610, 10958.10
893.8880, 10809.03
895.0140, 10957.01
896.1400, 10864.03
897.2670, 10651.09
898.3930, 10698.21
899.5180, 10673.38
900.6440, 10407.60
901.7700, 10618.86
902.8950, 10345.17
904.0200, 10259.53
905.1450, 10142.95
906.2700, 10126.41
907.3950, 9851.926
908.5190, 10080.50
909.6440, 9520.191
910.7680, 9445.953
911.8920, 8587.836
913.0160, 8815.852
914.1400, 8116.914
915.2630, 7840.113
916.3870, 7604.379
917.5100, 7506.719
918.6330, 7330.121
919.7560, 6934.961
920.8790, 6619.516
922.0010, 6417.895
923.1240, 6090.922
924.2460, 5984.680
925.3680, 5800.219
926.4900, 5641.555
927.6120, 5537.754
928.7340, 5327.004
929.8550, 5168.262
930.9760, 5070.605
932.0980, 5008.395
933.2190, 4950.184
934.3390, 4877.086
935.4600, 4988.102
936.5810, 5322.141
937.7010, 5088.363
938.8210, 5441.617
939.9410, 5441.926
941.0610, 5613.734
942.1810, 5968.480
943.3010, 6257.633
944.4200, 6392.605
945.5390, 6547.180
946.6580, 6851.516
947.7770, 7209.109
948.8960, 7433.098
950.0150, 7497.688
951.1330, 7708.227
952.2510, 7823.848
953.3690, 8109.609
954.4870, 8245.039
955.6050, 8149.168
956.7230, 7956.871
957.8400, 7938.102
958.9580, 8082.332
960.0750, 7923.258
961.1920, 7758.711
962.3090, 7529.105
963.4250, 7549.801
964.5420, 7597.008
965.6580, 8134.844
966.7740, 8065.527
967.8900, 8220.910
969.0060, 8787.207
970.1220, 8868.367
971.2380, 9201.496
972.3530, 9583.160
973.4680, 9593.953
974.5830, 10130.89
975.6980, 10117.05
976.8130, 10630.29
977.9280, 10770.73
979.0420, 10637.32
980.1560, 11261.11
981.2710, 11148.23
982.3850, 11159.13
983.4980, 11177.40
984.6120, 11154.81
985.7260, 10886.42
986.8390, 10782.17
987.9520, 10403.07
989.0650, 10350.12
990.1780, 10199.32
991.2910, 9989.664
992.4030, 9605.152
993.5160, 9280.785
994.6280, 8840.566
995.7400, 8748.492
996.8520, 8848.578
997.9640, 8531.863
999.0750, 8464.195
1000.187, 8358.730
1001.298, 8184.410
1002.409, 8402.246
1003.520, 8245.258
1004.631, 8615.402
1005.741, 8440.711
1006.852, 8909.168
1007.962, 8803.777
1009.072, 8958.527
1010.182, 8876.430
1011.292, 9381.477
1012.402, 9271.672
1013.511, 9459.016
1014.621, 9666.508
1015.730, 9605.148
1016.839, 9592.934
1017.948, 9530.727
1019.056, 9439.758
1020.165, 9187.164
1021.273, 9175.535
1022.382, 8851.055
1023.490, 8575.711
1024.598, 8469.516
1025.706, 8119.461
1026.813, 7927.555
1027.921, 8041.797
1029.028, 8743.180
1030.135, 7453.711
1031.242, 8381.383
1032.349, 7571.195
1033.456, 7111.156
1034.562, 6929.254
1035.668, 6903.496
1036.775, 7233.898
1037.881, 7037.441
1038.987, 7042.133
1040.092, 6864.957
1041.198, 7047.941
1042.303, 7144.867
1043.408, 7336.891
1044.514, 7184.836
1045.618, 7447.156
1046.723, 7081.520
1047.828, 7281.832
1048.932, 6959.539
1050.037, 7449.711
1051.141, 7236.500
1052.245, 7471.238
1053.349, 7596.324
1054.452, 7506.055
1055.556, 7793.137
1056.659, 7883.457
1057.762, 8033.473
1058.865, 8379.617
1059.968, 8304.117
1061.071, 8737.004
1062.174, 8943.500
1063.276, 8968.797
1064.378, 8992.059
1065.480, 9448.359
1066.582, 9493.289
1067.684, 9205.152
1068.786, 9563.770
1069.887, 9187.004
1070.988, 9163.035
1072.090, 8863.574
1073.191, 8927.320
1074.291, 8527.949
1075.392, 8356.227
1076.493, 8179.523
1077.593, 7931.012
1078.693, 7776.031
1079.793, 7548.043
1080.893, 7432.996
1081.993, 7469.234
1083.092, 7357.543
1084.192, 7329.434
1085.291, 7262.004
1086.390, 7594.148
1087.489, 7536.230
1088.588, 7592.562
1089.686, 7961.617
1090.785, 7963.383
1091.883, 8204.016
1092.981, 8379.809
1094.079, 8937.699
1095.177, 9165.000
1096.275, 9247.051
1097.373, 9336.195
1098.470, 9550.219
1099.567, 9686.332
1100.664, 9821.492
1101.761, 9933.859
1102.858, 10078.01
1103.954, 10186.29
1105.051, 10271.04
1106.147, 10310.98
1107.243, 10338.28
1108.339, 10357.29
1109.435, 10367.33
1110.531, 10392.44
1111.626, 10426.60
1112.722, 10380.13
1113.817, 10109.18
1114.912, 10222.25
1116.007, 10096.74
1117.101, 9884.859
1118.196, 9887.805
1119.290, 10092.64
1120.385, 9599.367
1121.479, 9816.258
1122.573, 9929.531
1123.666, 9638.430
1124.760, 9410.387
1125.853, 9191.391
1126.947, 8914.453
1128.040, 8700.969
1129.133, 8566.707
1130.226, 8430.008
1131.318, 8270.949
1132.411, 8121.609
1133.503, 7823.605
1134.596, 7739.387
1135.688, 7492.840
1136.780, 7375.266
1137.871, 7180.832
1138.963, 7165.480
1140.054, 6847.312
1141.146, 6647.066
1142.237, 6592.797
1143.328, 6148.395
1144.419, 6389.133
1145.509, 5985.879
1146.600, 5714.676
1147.690, 5338.504
1148.780, 5233.855
1149.870, 5023.766
1150.960, 4609.660
1152.050, 4308.508
1153.139, 3816.465
1154.229, 3499.809
1155.318, 3073.711
1156.407, 2775.418
1157.496, 2378.652
1158.585, 1963.949
1159.674, 1575.332
1160.762, 1343.691
1161.850, 1105.184
1162.939, 845.3047
1164.027, 541.7930
1165.114, 235.9336
1166.202, 129.7930
1167.290, 101.2461
1168.377, 204.9570
1169.464, 233.7812
1170.551, 124.0742
1171.638, 94.78516
1172.725, 388.7539
1173.812, 91.69922
1174.898, 373.6680
1175.984, 389.4492
1177.071, 253.6992
1178.157, 134.0430
1179.242, 80.42578
1180.328, 54.39844
1181.414, 29.89453
1182.499, 61.48828
1183.584, 95.19531
1184.669, 47.70703
1185.754, 378.1406
1186.839, 82.19531
1187.924, 83.26172
1189.008, 122.1875
1190.092, 337.5352
1191.177, 153.5703
1192.260, 226.7695
1193.344, 311.6133
1194.428, 37.26953
1195.512, 424.5000
1196.595, 156.2344
1197.678, 148.1758
1198.761, 22.18359
1199.844, 155.8594
1200.927, 209.4688
1202.009, 3.480469
1203.092, 58.63672
1204.174, 105.2383
1205.256, 27.91406
1206.338, 369.8594
1207.420, 302.0039
1208.502, 32.82812
1209.583, 184.1562
1210.665, 46.98047
1211.746, 59.52344
1212.827, 275.7383
1213.908, 37.16797
1214.988, 55.05469
1216.069, 7.695313
1217.149, 237.4180
1218.230, 104.9727
1219.310, 92.44531
1220.390, 0.6953130
1221.470, 25.67578
1222.549, 31.28906
1223.629, 27.89062
1224.708, 5.054688
1225.787, 79.25781
1226.866, 22.85156
1227.945, 32.15234
1229.024, 10.55859
1230.103, 69.16797
1231.181, 48.42969
1232.259, 144.4688
1233.337, 119.0898
1234.415, 195.6367
1235.493, 295.9375
1236.571, 152.6836
1237.648, 164.0547
1238.726, 348.3750
1239.803, 405.5781
1240.880, 29.68750
1241.957, 175.8789
1243.034, 119.9648
1244.110, 53.35938
1245.187, 346.2656
1246.263, 23.28125
1247.339, 263.3242
1248.415, 287.8203
1249.491, 432.1328
1250.566, 316.7422
1251.642, 281.4648
1252.717, 506.1523
1253.793, 586.6133
1254.868, 441.0078
1255.943, 592.4727
1257.017, 213.0117
1258.092, 299.2656
1259.166, 473.6211
1260.241, 308.9023
1261.315, 527.8516
1262.389, 287.7188
1263.462, 154.7773
1264.536, 425.4258
1265.610, 267.9883
1266.683, 416.4766
1267.756, 440.4922
1268.829, 397.1445
1269.902, 431.3477
1270.975, 450.4648
1272.048, 351.5000
1273.120, 559.4453
1274.192, 355.3477
1275.264, 725.1211
1276.336, 557.8125
1277.408, 408.4141
1278.480, 498.9297
1279.551, 377.3555
1280.623, 387.6836
1281.694, 589.9180
1282.765, 650.0586
1283.836, 468.1133
1284.907, 465.0742
1285.977, 456.9453
1287.048, 463.7188
1288.118, 478.5703
1289.188, 490.6836
