##NAMES=Arfvedsonite
##RRUFFID=R040127
##IDEAL CHEMISTRY=NaNa_2_(Fe^2+^_4_Fe^3+^)Si_8_O_22_(OH)_2_
##LOCALITY=Mont Saint-Hilaire, Rouville County, Quebec, Canada
##OWNER=RRUFF
##SOURCE=Bob Downs
##DESCRIPTION=Black prismatic crystal associated with white analcime, R040128
##STATUS=The identification of this mineral has been confirmed by X-ray diffraction and chemical analysis
##URL=rruff.info/R040127
##MEASURED CHEMISTRY=(Na_0.61_K_0.39_)Na_2.00_(Fe^2+^_2.40_Mg_0.80_Mn_0.75_Ca_0.05_)_&#931;=4_(Fe^3+^_0.60_Al_0.25_Mn_0.15_)(Si_0.99_Ti_0.01_)_8_O_22_((OH)_0.67_F_0.33_)_2_
##PIN_ID=M00386
##ORIENTATION=Laser parallel to -c* (0 0 -1). Fiducial mark perpendicular to laser is parallel to -a [-1 0 0]
131.3060, 0.0000000E+00
132.5420, 18.81445
133.7780, 299.8730
135.0140, 1119.479
136.2500, 2909.775
137.4850, 5789.863
138.7200, 10484.45
139.9550, 13795.00
141.1900, 13831.76
142.4250, 13018.75
143.6600, 10456.70
144.8940, 7539.090
146.1280, 5422.082
147.3620, 3388.191
148.5960, 1606.207
149.8300, 1118.145
151.0630, 1394.672
152.2960, 952.4727
153.5300, 169.3164
154.7620, 532.5898
155.9950, 449.6445
157.2280, 594.3789
158.4600, 1003.410
159.6920, 2496.414
160.9250, 4626.102
162.1560, 4660.234
163.3880, 5376.598
164.6200, 6535.008
165.8510, 6301.301
167.0820, 5842.328
168.3130, 5450.188
169.5440, 5049.027
170.7750, 4404.109
172.0050, 3403.832
173.2350, 2381.926
174.4650, 1741.418
175.6950, 1154.383
176.9250, 1144.914
178.1550, 912.0352
179.3840, 771.7344
180.6130, 454.9844
181.8420, 386.7695
183.0710, 381.0703
184.3000, 802.8711
185.5280, 1198.145
186.7570, 1688.668
187.9850, 2328.059
189.2130, 3104.652
190.4400, 3659.652
191.6680, 4687.043
192.8960, 5403.797
194.1230, 6047.910
195.3500, 6604.363
196.5770, 7017.145
197.8030, 7448.234
199.0300, 7796.629
200.2560, 8472.312
201.4830, 8804.273
202.7090, 8586.496
203.9340, 7723.977
205.1600, 6725.922
206.3860, 6276.418
207.6110, 6593.887
208.8360, 6652.977
210.0610, 7243.410
211.2860, 7684.434
212.5100, 8059.531
213.7350, 8106.852
214.9590, 8238.547
216.1830, 7302.789
217.4070, 7096.824
218.6310, 6815.977
219.8540, 6008.352
221.0780, 5501.875
222.3010, 5037.215
223.5240, 5080.020
224.7470, 5175.996
225.9690, 4789.133
227.1920, 4366.461
228.4140, 4179.992
229.6360, 4091.754
230.8580, 4222.664
232.0800, 4039.715
233.3020, 4232.930
234.5230, 4420.297
235.7440, 4403.805
236.9650, 4552.461
238.1860, 4987.246
239.4070, 5007.152
240.6280, 5168.184
241.8480, 5394.332
243.0680, 5021.586
244.2880, 5175.930
245.5080, 5316.359
246.7280, 4908.875
247.9470, 4748.461
249.1660, 4549.125
250.3860, 4052.867
251.6040, 3820.684
252.8230, 3893.570
254.0420, 3346.523
255.2600, 3213.547
256.4790, 3160.629
257.6970, 3543.777
258.9150, 3035.141
260.1320, 2637.320
261.3500, 2367.555
262.5670, 1986.492
263.7840, 1747.398
265.0010, 1408.801
266.2180, 1229.305
267.4350, 974.8555
268.6510, 605.4453
269.8680, 553.1211
271.0840, 694.7344
272.3000, 358.4297
273.5160, 351.1562
274.7310, 247.9141
275.9470, 149.6992
277.1620, 64.48828
278.3770, 144.2148
279.5920, 275.7461
280.8070, 622.4102
282.0210, 391.5156
283.2360, 656.3242
284.4500, 569.1250
285.6640, 515.0508
286.8780, 252.2109
288.0920, 389.6523
289.3050, 268.5859
290.5180, 81.05859
291.7320, 327.2500
292.9450, 367.9492
294.1570, 404.1094
295.3700, 567.6875
296.5830, 524.7422
297.7950, 840.0156
299.0070, 923.2227
300.2190, 1372.238
301.4310, 1357.762
302.6420, 1578.016
303.8540, 1624.293
305.0650, 2333.691
306.2760, 2446.328
307.4870, 3109.434
308.6980, 3279.746
309.9080, 3748.828
311.1190, 3861.930
312.3290, 4441.109
313.5390, 4376.328
314.7490, 4746.023
315.9580, 4641.941
317.1680, 4670.391
318.3770, 4743.906
319.5860, 4510.375
320.7950, 4210.512
322.0040, 3587.234
323.2130, 3353.895
324.4210, 3084.633
325.6290, 2721.512
326.8380, 2647.527
328.0460, 2454.758
329.2530, 2032.043
330.4610, 2109.410
331.6680, 1808.871
332.8760, 1674.598
334.0830, 1689.930
335.2890, 2223.480
336.4960, 1518.223
337.7030, 1856.016
338.9090, 1473.070
340.1150, 1943.453
341.3210, 1967.352
342.5270, 1942.277
343.7330, 2155.223
344.9380, 2275.191
346.1440, 2600.180
347.3490, 2932.184
348.5540, 2911.211
349.7590, 3208.242
350.9630, 3323.230
352.1680, 3507.949
353.3720, 3911.363
354.5760, 3772.453
355.7800, 4044.395
356.9840, 3994.293
358.1870, 3990.785
359.3910, 3966.164
360.5940, 3882.137
361.7970, 3663.133
363.0000, 3447.145
364.2030, 3473.176
365.4050, 3333.211
366.6080, 2912.246
367.8100, 2783.281
369.0120, 2719.309
370.2140, 2487.336
371.4150, 2452.348
372.6170, 2345.355
373.8180, 2344.355
375.0190, 1895.340
376.2200, 1875.312
377.4210, 1796.277
378.6220, 1795.223
379.8220, 1792.562
381.0230, 1649.070
382.2230, 1830.969
383.4230, 1762.844
384.6220, 1787.707
385.8220, 1613.543
387.0220, 1454.363
388.2210, 1343.160
389.4200, 1253.930
390.6190, 1184.684
391.8180, 1205.406
393.0160, 1097.105
394.2150, 1028.781
395.4130, 1029.430
396.6110, 912.0469
397.8090, 861.6406
399.0060, 966.2070
400.2040, 794.7422
401.4010, 494.2461
402.5980, 727.7227
403.7950, 645.1680
404.9920, 655.5859
406.1890, 690.9688
407.3860, 804.1758
408.5820, 1076.641
409.7780, 1230.934
410.9740, 1467.195
412.1700, 1887.418
413.3650, 2142.613
414.5610, 2263.773
415.7560, 2330.902
416.9510, 2301.996
418.1460, 2446.059
419.3410, 2645.090
420.5360, 2590.086
421.7300, 2789.312
422.9240, 2500.293
424.1180, 2552.707
425.3120, 2431.273
426.5060, 2968.070
427.7000, 2259.000
428.8930, 2032.500
430.0860, 1547.180
431.2790, 1041.316
432.4720, 1165.918
433.6650, 986.3281
434.8580, 382.4297
436.0500, 565.5234
437.2420, 571.6055
438.4340, 465.6719
439.6260, 44.71484
440.8180, 148.5273
442.0090, 121.4844
443.2010, 60.35938
444.3920, 159.9688
445.5830, 308.4961
446.7740, 318.7109
447.9640, 362.6680
449.1550, 440.8047
450.3450, 379.5781
451.5350, 298.5898
452.7250, 529.5742
453.9150, 127.5977
455.1050, 13.58984
456.2940, 74.23828
457.4830, 203.9766
458.6720, 246.6055
459.8610, 367.1836
461.0500, 369.6445
462.2390, 195.2070
463.4270, 212.5938
464.6150, 345.8359
465.8040, 169.6406
466.9910, 202.4648
468.1790, 123.7695
469.3670, 261.3125
470.5540, 398.7695
471.7410, 389.1523
472.9280, 430.2656
474.1150, 382.8672
475.3020, 288.5137
476.4890, 332.6484
477.6750, 486.2324
478.8610, 318.0312
480.0470, 415.1543
481.2330, 368.1113
482.4190, 352.8965
483.6040, 457.2734
484.7900, 563.1582
485.9750, 767.3105
487.1600, 827.4902
488.3450, 944.7969
489.5290, 1004.781
490.7140, 1237.350
491.8980, 1316.369
493.0820, 1438.691
494.2660, 1637.586
495.4500, 1711.428
496.6340, 1782.211
497.8170, 2076.936
499.0010, 1940.600
500.1840, 2218.209
501.3670, 2320.756
502.5500, 2788.244
503.7320, 2881.672
504.9150, 2934.043
506.0970, 3119.344
507.2790, 3180.586
508.4610, 3377.768
509.6430, 3598.887
510.8250, 3957.939
512.0060, 3844.928
513.1870, 3999.850
514.3680, 3998.707
515.5490, 4323.502
516.7300, 4568.225
517.9110, 4755.812
519.0910, 4953.473
520.2710, 5265.000
521.4510, 5726.457
522.6310, 6021.846
523.8110, 6723.166
524.9910, 7008.418
526.1700, 7773.602
527.3490, 8626.719
528.5280, 9128.766
529.7070, 9811.742
530.8860, 10273.65
532.0650, 11262.49
533.2430, 11722.26
534.4210, 12349.96
535.5990, 12350.60
536.7770, 12454.16
537.9550, 12230.66
539.1320, 12314.09
540.3100, 12151.46
541.4870, 11746.80
542.6640, 11200.07
543.8410, 10788.30
545.0170, 10361.53
546.1940, 9896.785
547.3700, 9324.033
548.5470, 8849.324
549.7230, 8499.605
550.8980, 8178.871
552.0740, 7715.105
553.2500, 7490.320
554.4250, 6975.592
555.6000, 6743.018
556.7750, 6547.184
557.9500, 6219.277
559.1250, 6218.439
560.2990, 5975.562
561.4730, 5731.688
562.6480, 5898.777
563.8220, 5460.875
564.9950, 5736.020
566.1690, 5881.172
567.3430, 5570.426
568.5160, 5977.703
569.6890, 5887.035
570.8620, 6121.428
572.0350, 6281.908
573.2070, 5851.391
574.3800, 5964.889
575.5520, 5719.344
576.7240, 5825.773
577.8960, 5746.125
579.0680, 4304.402
580.2400, 3944.621
581.4110, 3253.672
582.5830, 2866.791
583.7540, 2612.215
584.9250, 2122.111
586.0950, 1733.959
587.2660, 1442.934
588.4370, 1155.035
589.6070, 930.1680
590.7770, 749.1895
591.9470, 505.8633
593.1170, 405.8828
594.2860, 310.3281
595.4560, 267.2852
596.6250, 219.2344
597.7940, 304.2109
598.9630, 552.3984
600.1320, 523.6484
601.3000, 526.6211
602.4690, 633.4102
603.6370, 257.9766
604.8050, 268.9062
605.9730, 146.9805
607.1410, 304.7188
608.3090, 54.75391
609.4760, 188.4336
610.6430, 251.8867
611.8100, 148.3711
612.9770, 25.07031
614.1440, 81.53906
615.3110, 35.48438
616.4770, 156.1914
617.6430, 41.07031
618.8090, 66.46094
619.9750, 92.48438
621.1410, 148.9102
622.3070, 103.1680
623.4720, 176.4531
624.6370, 210.3672
625.8020, 278.1133
626.9670, 531.7344
628.1320, 170.1953
629.2970, 278.5547
630.4610, 210.5781
631.6250, 476.5234
632.7890, 370.7617
633.9530, 485.4844
635.1170, 612.7773
636.2810, 736.4375
637.4440, 703.8125
638.6070, 765.6289
639.7700, 865.9414
640.9330, 876.7930
642.0960, 1111.855
643.2590, 1148.039
644.4210, 1475.059
645.5830, 1338.539
646.7450, 1519.703
647.9070, 1635.336
649.0690, 1638.773
650.2310, 1823.691
651.3920, 1871.457
652.5530, 2189.152
653.7140, 2430.781
654.8750, 2502.344
656.0360, 3035.836
657.1970, 3430.258
658.3570, 3471.609
659.5170, 3991.895
660.6770, 4299.109
661.8370, 5006.258
662.9970, 5775.344
664.1570, 6694.352
665.3160, 7646.297
666.4750, 8599.172
667.6340, 10049.98
668.7930, 11402.72
669.9520, 13339.39
671.1110, 14698.00
672.2690, 16627.93
673.4270, 17825.85
674.5850, 18768.25
675.7430, 19373.14
676.9010, 18547.07
678.0590, 17373.64
679.2160, 15381.22
680.3730, 13482.16
681.5300, 11351.72
682.6870, 9812.000
683.8440, 8290.477
685.0010, 7108.570
686.1570, 6205.676
687.3130, 4854.246
688.4690, 4284.016
689.6250, 3861.270
690.7810, 3367.633
691.9370, 2862.465
693.0920, 2451.438
694.2470, 2562.035
695.4020, 2786.309
696.5570, 2136.953
697.7120, 1984.027
698.8670, 1662.074
700.0210, 1642.402
701.1750, 1536.371
702.3290, 1568.363
703.4830, 1216.512
704.6370, 1467.547
705.7910, 1519.566
706.9440, 1202.000
708.0970, 1107.938
709.2510, 1259.359
710.4030, 1177.102
711.5560, 1087.707
712.7090, 1033.781
713.8610, 1023.621
715.0140, 1291.543
716.1660, 1017.207
717.3180, 1216.691
718.4690, 960.9180
719.6210, 929.3242
720.7730, 818.2461
721.9240, 796.5195
723.0750, 790.7812
724.2260, 780.9844
725.3770, 898.1875
726.5270, 829.7930
727.6780, 859.7227
728.8280, 835.0742
729.9780, 788.4961
731.1280, 929.9023
732.2780, 917.0312
733.4280, 925.8984
734.5770, 859.5234
735.7260, 825.6328
736.8760, 498.5156
738.0250, 742.2266
739.1730, 869.7031
740.3220, 887.1641
741.4700, 465.3945
742.6190, 609.6562
743.7670, 526.6836
744.9150, 432.7031
746.0630, 656.9492
747.2100, 288.5703
748.3580, 489.7852
749.5050, 456.2383
750.6520, 362.3984
751.7990, 652.8086
752.9460, 381.5977
754.0930, 474.2148
755.2390, 331.2070
756.3860, 395.6172
757.5320, 69.67578
758.6780, 233.2578
759.8240, 182.8633
760.9690, 242.5000
762.1150, 371.4102
763.2600, 386.6836
764.4060, 225.5547
765.5510, 232.1875
766.6950, 412.7070
767.8400, 524.3555
768.9850, 165.2773
770.1290, 375.6172
771.2730, 256.1602
772.4170, 186.7148
773.5610, 238.8320
774.7050, 262.8789
775.8480, 373.8555
776.9920, 245.7656
778.1350, 324.6016
779.2780, 255.3750
780.4210, 298.4336
781.5640, 368.7227
782.7060, 333.2969
783.8490, 387.8047
784.9910, 254.2617
786.1330, 280.6445
787.2750, 383.9727
788.4170, 636.2344
789.5580, 497.4414
790.7000, 624.5898
791.8410, 470.6836
792.9820, 625.7227
794.1230, 442.7031
795.2640, 571.6250
796.4040, 504.4961
797.5450, 899.3125
798.6850, 687.0781
799.8250, 786.7891
800.9650, 802.4492
802.1050, 516.0586
803.2450, 562.6172
804.3840, 482.1289
805.5230, 659.5859
806.6630, 482.0000
807.8020, 431.3633
808.9400, 224.6758
810.0790, 202.6211
811.2170, 345.1523
812.3560, 172.3203
813.4940, 140.4414
814.6320, 205.5078
815.7700, 24.52734
816.9070, 80.52734
818.0450, 145.2969
819.1820, 27.92969
820.3190, 193.2500
821.4560, 301.7578
822.5930, 177.4922
823.7300, 379.4023
824.8670, 178.5859
826.0030, 157.9336
827.1390, 83.43750
828.2750, 158.0547
829.4110, 418.8242
830.5470, 97.87891
831.6820, 176.0469
832.8180, 281.3711
833.9530, 175.0977
835.0880, 88.46094
836.2230, 256.1328
837.3580, 126.9883
838.4920, 226.9570
839.6270, 361.1016
840.7610, 124.4805
841.8950, 271.9727
843.0290, 123.6445
844.1630, 56.42578
845.2960, 148.2773
846.4300, 301.2422
847.5630, 160.3945
848.6960, 108.6680
849.8290, 95.97656
850.9620, 195.4023
852.0940, 77.08594
853.2270, 17.44141
854.3590, 103.0000
855.4910, 221.3633
856.6230, 11.28906
857.7550, 44.03125
858.8870, 132.3359
860.0180, 262.6211
861.1500, 314.7891
862.2810, 671.1406
863.4120, 482.3750
864.5430, 521.5977
865.6730, 643.8008
866.8040, 189.9922
867.9340, 350.1680
869.0640, 462.3281
870.1940, 362.7461
871.3240, 430.1836
872.4540, 437.7461
873.5830, 494.2266
874.7130, 459.3359
875.8420, 769.4297
876.9710, 749.5117
878.1000, 696.8516
879.2290, 907.8047
880.3570, 818.4141
881.4860, 1292.652
882.6140, 1013.707
883.7420, 1241.809
884.8700, 1661.531
885.9980, 1199.293
887.1250, 1355.680
888.2530, 1471.980
889.3800, 1701.633
890.5070, 1666.750
891.6340, 1945.406
892.7610, 2082.383
893.8880, 2469.645
895.0140, 2307.668
896.1400, 2442.055
897.2670, 2710.289
898.3930, 2483.344
899.5180, 2562.492
900.6440, 3213.695
901.7700, 3166.008
902.8950, 3224.340
904.0200, 3358.949
905.1450, 3667.559
906.2700, 3511.816
907.3950, 3949.539
908.5190, 4193.629
909.6440, 4298.297
910.7680, 4450.199
911.8920, 4648.594
913.0160, 4846.473
914.1400, 4946.746
915.2630, 4976.758
916.3870, 5245.996
917.5100, 5434.559
918.6330, 5402.008
919.7560, 5389.723
920.8790, 5685.914
922.0010, 5675.250
923.1240, 5792.055
924.2460, 5412.965
925.3680, 5694.910
926.4900, 5430.875
927.6120, 5519.891
928.7340, 5451.992
929.8550, 5132.160
930.9760, 5181.414
932.0980, 5206.715
933.2190, 5158.141
934.3390, 5204.602
935.4600, 5339.086
936.5810, 5219.605
937.7010, 5028.230
938.8210, 5454.895
939.9410, 5404.613
941.0610, 5315.383
942.1810, 5562.930
943.3010, 5784.145
944.4200, 5910.691
945.5390, 5896.215
946.6580, 6326.230
947.7770, 6321.840
948.8960, 6398.375
950.0150, 6908.262
951.1330, 7155.121
952.2510, 7314.590
953.3690, 7899.426
954.4870, 8041.508
955.6050, 8511.367
956.7230, 8567.594
957.8400, 9359.789
958.9580, 9867.500
960.0750, 10511.04
961.1920, 11117.10
962.3090, 11584.07
963.4250, 12643.55
964.5420, 12962.89
965.6580, 13810.58
966.7740, 14703.57
967.8900, 15666.17
969.0060, 16541.31
970.1220, 17526.45
971.2380, 18246.30
972.3530, 18757.48
973.4680, 19618.62
974.5830, 19904.59
975.6980, 20171.64
976.8130, 20117.70
977.9280, 19988.33
979.0420, 19920.43
980.1560, 19284.09
981.2710, 18559.43
982.3850, 17599.88
983.4980, 16825.86
984.6120, 15535.06
985.7260, 14544.16
986.8390, 13588.51
987.9520, 12850.06
989.0650, 11888.84
990.1780, 10840.44
991.2910, 10022.52
992.4030, 9125.262
993.5160, 8454.070
994.6280, 8013.957
995.7400, 7471.914
996.8520, 6582.941
997.9640, 6497.047
999.0750, 6224.227
1000.187, 5658.477
1001.298, 5658.805
1002.409, 5199.211
1003.520, 4973.703
1004.631, 4507.305
1005.741, 4441.980
1006.852, 4197.730
1007.962, 4021.566
1009.072, 3971.480
1010.182, 4053.465
1011.292, 3464.527
1012.402, 3634.676
1013.511, 3540.895
1014.621, 3146.195
1015.730, 3260.574
1016.839, 3201.043
1017.948, 3324.598
1019.056, 3087.246
1020.165, 3098.980
1021.273, 3421.789
1022.382, 3194.684
1023.490, 3154.250
1024.598, 3225.723
1025.706, 2896.859
1026.813, 2779.078
1027.921, 2902.387
1029.028, 2783.785
1030.135, 3079.266
1031.242, 2728.828
1032.349, 2965.469
1033.456, 3542.188
1034.562, 3319.000
1035.668, 3455.184
1036.775, 3174.867
1037.881, 3323.922
1038.987, 3343.059
1040.092, 3444.273
1041.198, 3580.445
1042.303, 3636.445
1043.408, 3858.906
1044.514, 3985.445
1045.618, 4132.664
1046.723, 4238.977
1047.828, 4264.363
1048.932, 4397.184
1050.037, 4451.297
1051.141, 4529.750
1052.245, 4630.887
1053.349, 4787.598
1054.452, 4839.410
1055.556, 5106.793
1056.659, 5340.250
1057.762, 5406.312
1058.865, 5409.918
1059.968, 5448.180
1061.071, 5706.391
1062.174, 6180.812
1063.276, 6461.535
1064.378, 6711.699
1065.480, 6610.984
1066.582, 6844.711
1067.684, 6803.883
1068.786, 7090.609
1069.887, 6981.512
1070.988, 6589.402
1072.090, 6633.770
1073.191, 6748.242
1074.291, 6396.633
1075.392, 6399.277
1076.493, 6604.203
1077.593, 6598.637
1078.693, 5740.250
1079.793, 5981.148
1080.893, 5555.621
1081.993, 5540.797
1083.092, 5014.660
1084.192, 5248.828
1085.291, 5173.797
1086.390, 5622.125
1087.489, 5341.539
1088.588, 5257.574
1089.686, 5384.277
1090.785, 5567.031
1091.883, 5650.375
1092.981, 5805.906
1094.079, 5947.176
1095.177, 6140.488
1096.275, 6163.352
1097.373, 6345.969
1098.470, 6343.719
1099.567, 6726.578
1100.664, 6775.590
1101.761, 7117.656
1102.858, 7315.812
1103.954, 7058.094
1105.051, 7105.469
1106.147, 7013.027
1107.243, 7042.676
1108.339, 7136.441
1109.435, 7166.332
1110.531, 7321.301
1111.626, 7090.680
1112.722, 7325.766
1113.817, 7069.047
1114.912, 6945.438
1116.007, 7174.867
1117.101, 7181.258
1118.196, 7391.883
1119.290, 7231.430
1120.385, 7493.566
1121.479, 7172.297
1122.573, 7159.062
1123.666, 7422.875
1124.760, 7177.734
1125.853, 7032.625
1126.947, 6905.559
1128.040, 6691.531
1129.133, 6537.535
1130.226, 6418.699
1131.318, 6217.938
1132.411, 6197.238
1133.503, 6022.273
1134.596, 5921.617
1135.688, 5806.781
1136.780, 5602.891
1137.871, 5573.297
1138.963, 5432.855
1140.054, 5414.895
1141.146, 5108.719
1142.237, 5275.195
1143.328, 4983.699
1144.419, 4930.230
1145.509, 4832.090
1146.600, 4651.078
1147.690, 4554.488
1148.780, 4223.301
1149.870, 4163.148
1150.960, 3966.387
1152.050, 4040.102
1153.139, 3554.410
1154.229, 3275.559
1155.318, 2854.332
1156.407, 2492.738
1157.496, 2096.941
1158.585, 1752.773
1159.674, 1651.625
1160.762, 1240.492
1161.850, 1101.379
1162.939, 869.2812
1164.027, 565.1953
1165.114, 480.1289
1166.202, 319.0469
1167.290, 297.2734
1168.377, 226.2852
1169.464, 114.5820
1170.551, 235.6133
1171.638, 26.33984
1172.725, 56.16406
1173.812, 323.8828
1174.898, 249.2656
1175.984, 151.5273
1177.071, 71.67578
1178.157, 153.2383
1179.242, 76.19141
1180.328, 6.531250
1181.414, 19.75781
1182.499, 133.6094
1183.584, 164.1680
1184.669, 97.29688
1185.754, 239.2539
1186.839, 24.50000
1187.924, 98.46094
1189.008, 59.53516
1190.092, 135.4727
1191.177, 264.5117
1192.260, 215.6914
1193.344, 263.9688
1194.428, 98.37109
1195.512, 407.8203
1196.595, 39.44531
1197.678, 167.8750
1198.761, 32.81641
1199.844, 305.8320
1200.927, 51.71094
1202.009, 113.3555
1203.092, 76.25000
1204.174, 250.2617
1205.256, 138.7812
1206.338, 55.77344
1207.420, 22.58203
1208.502, 1.812500
1209.583, 383.0742
1210.665, 14.07422
1211.746, 77.58203
1212.827, 69.15234
1213.908, 220.2109
1214.988, 46.43359
1216.069, 47.86328
1217.149, 223.1484
1218.230, 52.37500
1219.310, 77.45312
1220.390, 54.48828
1221.470, 138.3633
1222.549, 89.35156
1223.629, 144.6875
1224.708, 151.3633
1225.787, 82.85938
1226.866, 159.8242
1227.945, 293.3164
1229.024, 787.0234
1230.103, 874.6680
1231.181, 363.6602
1232.259, 82.56250
1233.337, 87.08594
1234.415, 179.5820
1235.493, 48.37109
1236.571, 242.4727
1237.648, 96.85938
1238.726, 57.61719
1239.803, 276.2344
1240.880, 158.4922
1241.957, 46.08594
1243.034, 127.1445
1244.110, 29.16797
1245.187, 150.3789
1246.263, 57.04688
1247.339, 138.9531
1248.415, 27.22656
1249.491, 106.0742
1250.566, 209.8398
1251.642, 226.6680
1252.717, 280.7500
1253.793, 341.2969
1254.868, 419.7188
1255.943, 322.1875
1257.017, 328.6055
1258.092, 246.3164
1259.166, 149.6602
1260.241, 300.2031
1261.315, 188.8711
1262.389, 136.1875
1263.462, 82.01562
1264.536, 1.093750
1265.610, 241.6016
1266.683, 229.9180
1267.756, 136.7891
1268.829, 344.8789
1269.902, 277.3438
1270.975, 433.0625
1272.048, 275.7344
1273.120, 351.5000
1274.192, 201.0703
1275.264, 193.5938
1276.336, 136.0586
1277.408, 242.4531
1278.480, 100.4688
1279.551, 151.1836
1280.623, 397.3867
1281.694, 199.8672
1282.765, 163.9570
1283.836, 509.1250
1284.907, 402.1016
1285.977, 517.0234
1287.048, 401.8984
1288.118, 336.1562
1289.188, 580.9219
1290.258, 589.6406
1291.328, 569.3008
1292.398, 392.2500
1293.467, 161.8047
1294.537, 326.7812
1295.606, 198.9648
1296.675, 529.2930
1297.744, 289.6016
