##NAMES=Arfvedsonite
##RRUFFID=R040127
##IDEAL CHEMISTRY=NaNa_2_(Fe^2+^_4_Fe^3+^)Si_8_O_22_(OH)_2_
##LOCALITY=Mont Saint-Hilaire, Rouville County, Quebec, Canada
##OWNER=RRUFF
##SOURCE=Bob Downs
##DESCRIPTION=Black prismatic crystal associated with white analcime, R040128
##STATUS=The identification of this mineral has been confirmed by X-ray diffraction and chemical analysis
##URL=rruff.info/R040127
##MEASURED CHEMISTRY=(Na_0.61_K_0.39_)Na_2.00_(Fe^2+^_2.40_Mg_0.80_Mn_0.75_Ca_0.05_)_&#931;=4_(Fe^3+^_0.60_Al_0.25_Mn_0.15_)(Si_0.99_Ti_0.01_)_8_O_22_((OH)_0.67_F_0.33_)_2_
##PIN_ID=L01975
##ORIENTATION=Laser parallel to b* (0 1 0). Fiducial mark perpendicular to laser is parallel to c [0 0 1]
158.4600, 0.0000000E+00
159.6920, 25.72168
160.9250, 242.3203
162.1560, 1035.162
163.3880, 2465.939
164.6200, 4000.351
165.8510, 3932.859
167.0820, 4385.068
168.3130, 4073.868
169.5440, 3762.341
170.7750, 4243.608
172.0050, 3762.554
173.2350, 2577.524
174.4650, 1806.881
175.6950, 1742.195
176.9250, 1407.646
178.1550, 1701.758
179.3840, 1940.781
180.6130, 2576.496
181.8420, 2052.041
183.0710, 1998.794
184.3000, 2313.295
185.5280, 3172.287
186.7570, 4380.977
187.9850, 5512.259
189.2130, 6660.359
190.4400, 7791.834
191.6680, 9112.900
192.8960, 10385.41
194.1230, 12135.97
195.3500, 13056.29
196.5770, 13533.67
197.8030, 13820.53
199.0300, 13954.28
200.2560, 14822.22
201.4830, 15901.68
202.7090, 17192.92
203.9340, 14893.16
205.1600, 9967.527
206.3860, 6219.174
207.6110, 4575.240
208.8360, 3943.854
210.0610, 3984.120
211.2860, 4248.692
212.5100, 4223.041
213.7350, 4185.744
214.9590, 4507.974
216.1830, 4119.779
217.4070, 3918.878
218.6310, 3868.106
219.8540, 3739.694
221.0780, 3422.725
222.3010, 3216.676
223.5240, 3102.184
224.7470, 2950.998
225.9690, 2986.158
227.1920, 2796.596
228.4140, 2539.936
229.6360, 2223.284
230.8580, 2170.463
232.0800, 2103.766
233.3020, 2240.152
234.5230, 2147.914
235.7440, 2067.388
236.9650, 1981.227
238.1860, 1983.810
239.4070, 2263.705
240.6280, 2055.944
241.8480, 2196.552
243.0680, 2335.852
244.2880, 2165.403
245.5080, 2198.010
246.7280, 2160.866
247.9470, 2068.812
249.1660, 1998.553
250.3860, 1847.120
251.6040, 1670.885
252.8230, 1648.807
254.0420, 1514.855
255.2600, 1154.999
256.4790, 1239.199
257.6970, 1241.295
258.9150, 1165.585
260.1320, 778.9541
261.3500, 793.9609
262.5670, 648.0771
263.7840, 495.5625
265.0010, 567.1016
266.2180, 416.7109
267.4350, 325.9082
268.6510, 71.00293
269.8680, 53.00195
271.0840, 48.10449
272.3000, 183.3066
273.5160, 295.6035
274.7310, 207.9971
275.9470, 83.48633
277.1620, 91.06934
278.3770, 202.7480
279.5920, 218.5205
280.8070, 259.5283
282.0210, 281.1904
283.2360, 336.1875
284.4500, 517.5586
285.6640, 598.8096
286.8780, 544.2012
288.0920, 495.9268
289.3050, 473.1572
290.5180, 380.9102
291.7320, 257.0791
292.9450, 125.7793
294.1570, 45.92969
295.3700, 120.8311
296.5830, 247.8857
297.7950, 355.2139
299.0070, 317.0459
300.2190, 504.7295
301.4310, 420.3203
302.6420, 479.8877
303.8540, 599.7803
305.0650, 638.6582
306.2760, 716.9590
307.4870, 836.2061
308.6980, 894.3008
309.9080, 1147.946
311.1190, 1381.400
312.3290, 1490.665
313.5390, 1499.230
314.7490, 1471.751
315.9580, 1451.132
317.1680, 1507.420
318.3770, 1508.359
319.5860, 1378.661
320.7950, 1248.913
322.0040, 1086.635
323.2130, 986.3750
324.4210, 852.2402
325.6290, 810.0234
326.8380, 640.9736
328.0460, 793.9365
329.2530, 884.8213
330.4610, 916.9736
331.6680, 715.5537
332.8760, 815.4951
334.0830, 794.7773
335.2890, 769.2197
336.4960, 912.0918
337.7030, 744.8232
338.9090, 884.0762
340.1150, 975.9492
341.3210, 1088.457
342.5270, 1248.009
343.7330, 1389.825
344.9380, 1539.609
346.1440, 1761.438
347.3490, 1940.229
348.5540, 2220.094
349.7590, 2513.178
350.9630, 2832.353
352.1680, 3214.339
353.3720, 3773.142
354.5760, 3926.943
355.7800, 4074.211
356.9840, 4380.480
358.1870, 4401.575
359.3910, 4678.418
360.5940, 4420.791
361.7970, 4464.461
363.0000, 4565.574
364.2030, 4368.150
365.4050, 4282.088
366.6080, 4795.327
367.8100, 4499.089
369.0120, 4348.525
370.2140, 4334.560
371.4150, 3785.696
372.6170, 3585.673
373.8180, 3542.588
375.0190, 3411.449
376.2200, 3523.269
377.4210, 3259.055
378.6220, 3366.807
379.8220, 3199.520
381.0230, 3174.911
382.2230, 3144.858
383.4230, 3156.399
384.6220, 2987.931
385.8220, 3008.413
387.0220, 2820.842
388.2210, 2572.209
389.4200, 2507.368
390.6190, 2365.076
391.8180, 2233.949
393.0160, 2156.068
394.2150, 2044.117
395.4130, 1955.305
396.6110, 1851.337
397.8090, 1755.056
399.0060, 1669.158
400.2040, 1504.402
401.4010, 1471.062
402.5980, 1384.654
403.7950, 1450.180
404.9920, 1405.637
406.1890, 1468.027
407.3860, 1621.349
408.5820, 1761.402
409.7780, 1964.592
410.9740, 2169.150
412.1700, 2366.284
413.3650, 2579.105
414.5610, 2762.792
415.7560, 2969.688
416.9510, 3108.001
418.1460, 3582.170
419.3410, 3381.741
420.5360, 3836.034
421.7300, 3526.220
422.9240, 3061.385
424.1180, 2914.930
425.3120, 2848.812
426.5060, 2619.246
427.7000, 2449.143
428.8930, 2177.570
430.0860, 2068.814
431.2790, 1805.404
432.4720, 1585.948
433.6650, 1340.859
434.8580, 1162.510
436.0500, 1005.891
437.2420, 877.4863
438.4340, 749.5986
439.6260, 611.6104
440.8180, 887.2354
442.0090, 630.8359
443.2010, 940.1064
444.3920, 665.2949
445.5830, 68.11035
446.7740, 191.8584
447.9640, 47.61035
449.1550, 106.9531
450.3450, 5.463867
451.5350, 164.7383
452.7250, 126.0361
453.9150, 127.2383
455.1050, 18.49121
456.2940, 17.90918
457.4830, 40.21680
458.6720, 143.7520
459.8610, 177.7344
461.0500, 237.6953
462.2390, 309.2188
463.4270, 305.2227
464.6150, 326.2070
465.8040, 310.7695
466.9910, 263.1729
468.1790, 269.8418
469.3670, 334.8916
470.5540, 302.6680
471.7410, 380.5117
472.9280, 443.0439
474.1150, 475.8145
475.3020, 422.3477
476.4890, 367.1709
477.6750, 294.4551
478.8610, 210.6982
480.0470, 219.3789
481.2330, 263.1494
482.4190, 210.7236
483.6040, 288.8672
484.7900, 375.9580
485.9750, 441.2354
487.1600, 544.3613
488.3450, 713.2969
489.5290, 712.9453
490.7140, 974.0645
491.8980, 752.6113
493.0820, 971.4072
494.2660, 991.8037
495.4500, 1143.701
496.6340, 1195.941
497.8170, 1306.682
499.0010, 1405.286
500.1840, 1641.803
501.3670, 1750.363
502.5500, 1816.917
503.7320, 1895.966
504.9150, 1956.143
506.0970, 2309.239
507.2790, 2516.259
508.4610, 2460.024
509.6430, 2719.076
510.8250, 2392.881
512.0060, 2494.622
513.1870, 2607.301
514.3680, 2636.271
515.5490, 2746.864
516.7300, 2957.989
517.9110, 2976.435
519.0910, 3100.820
520.2710, 3355.147
521.4510, 3655.417
522.6310, 3831.627
523.8110, 4116.260
524.9910, 4400.873
526.1700, 4696.909
527.3490, 5040.887
528.5280, 5502.807
529.7070, 6059.668
530.8860, 6471.473
532.0650, 6947.223
533.2430, 7244.918
534.4210, 7573.568
535.5990, 8012.178
536.7770, 8137.059
537.9550, 8327.336
539.1320, 8297.893
540.3100, 8409.456
541.4870, 8188.029
542.6640, 8022.617
543.8410, 7583.205
545.0170, 7532.814
546.1940, 7083.439
547.3700, 6777.094
548.5470, 6919.770
549.7230, 6342.471
550.8980, 5870.195
552.0740, 5776.949
553.2500, 5532.719
554.4250, 5378.506
555.6000, 5315.324
556.7750, 5119.207
557.9500, 5007.160
559.1250, 4851.172
560.2990, 4804.927
561.4730, 4706.356
562.6480, 4711.649
563.8220, 4633.878
564.9950, 4495.150
566.1690, 4577.471
567.3430, 4553.856
568.5160, 4297.309
569.6890, 4562.837
570.8620, 4401.494
572.0350, 4512.298
573.2070, 4400.234
574.3800, 4234.293
575.5520, 4054.465
576.7240, 3842.729
577.8960, 3594.279
579.0680, 3358.393
580.2400, 3013.714
581.4110, 2625.403
582.5830, 2254.099
583.7540, 1915.541
584.9250, 1589.550
586.0950, 1259.582
587.2660, 1025.250
588.4370, 758.2109
589.6070, 571.4199
590.7770, 441.8965
591.9470, 320.8701
593.1170, 280.6621
594.2860, 201.3203
595.4560, 159.8594
596.6250, 158.1006
597.7940, 40.42188
598.9630, 103.0566
600.1320, 13.98438
601.3000, 5.172852
602.4690, 22.25977
603.6370, 18.48438
604.8050, 0.1855470
605.9730, 15.86719
607.1410, 19.91309
608.3090, 66.30469
609.4760, 31.87793
610.6430, 146.7334
611.8100, 155.6611
612.9770, 149.4580
614.1440, 17.81836
615.3110, 47.79492
616.4770, 30.05762
617.6430, 6.125000
618.8090, 144.8135
619.9750, 1.223633
621.1410, 143.6270
622.3070, 37.88086
623.4720, 3.333984
624.6370, 46.98047
625.8020, 52.96484
626.9670, 18.87402
628.1320, 1.365234
629.2970, 126.5410
630.4610, 167.3877
631.6250, 78.31445
632.7890, 229.0439
633.9530, 72.71973
635.1170, 158.3350
636.2810, 293.0244
637.4440, 389.5332
638.6070, 453.9932
639.7700, 458.5264
640.9330, 364.8926
642.0960, 588.5771
643.2590, 469.8496
644.4210, 560.0771
645.5830, 679.2598
646.7450, 694.3955
647.9070, 767.4883
649.0690, 785.5332
650.2310, 929.5332
651.3920, 1094.487
652.5530, 1107.098
653.7140, 1185.632
654.8750, 1275.699
656.0360, 1331.474
657.1970, 1580.242
658.3570, 1654.929
659.5170, 1868.570
660.6770, 2186.297
661.8370, 2385.001
662.9970, 2899.657
664.1570, 3242.165
665.3160, 3814.868
666.4750, 4258.488
667.6340, 5042.008
668.7930, 5858.739
669.9520, 6680.270
671.1110, 7786.078
672.2690, 8947.935
673.4270, 11125.26
674.5850, 12334.16
675.7430, 13729.28
676.9010, 12248.69
678.0590, 11478.91
679.2160, 10441.69
680.3730, 9308.380
681.5300, 8096.419
682.6870, 6661.234
683.8440, 5761.055
685.0010, 4893.043
686.1570, 4213.728
687.3130, 3682.397
688.4690, 3178.834
689.6250, 2827.724
690.7810, 2649.521
691.9370, 2336.992
693.0920, 2236.051
694.2470, 2103.504
695.4020, 2189.662
696.5570, 2079.747
697.7120, 2030.148
698.8670, 1974.764
700.0210, 1928.571
701.1750, 1858.261
702.3290, 1868.096
703.4830, 1716.360
704.6370, 1844.094
705.7910, 1911.396
706.9440, 1918.887
708.0970, 1693.006
709.2510, 1768.333
710.4030, 1722.876
711.5560, 1672.396
712.7090, 1789.951
713.8610, 1597.693
715.0140, 1712.449
716.1660, 1704.569
717.3180, 1752.724
718.4690, 1679.342
719.6210, 1643.395
720.7730, 1728.922
721.9240, 1593.044
723.0750, 1602.731
724.2260, 1637.352
725.3770, 1509.910
726.5270, 1565.417
727.6780, 1516.869
728.8280, 1569.274
729.9780, 1441.527
731.1280, 1405.246
732.2780, 1412.005
733.4280, 1397.208
734.5770, 1424.347
735.7260, 1447.483
736.8760, 1491.917
738.0250, 1477.770
739.1730, 1455.833
740.3220, 1481.914
741.4700, 1403.311
742.6190, 1318.223
743.7670, 1367.815
744.9150, 1205.668
746.0630, 979.5166
747.2100, 1125.939
748.3580, 898.8057
749.5050, 970.0332
750.6520, 666.1152
751.7990, 776.5557
752.9460, 834.8838
754.0930, 831.4551
755.2390, 595.7725
756.3860, 662.8057
757.5320, 600.3506
758.6780, 541.8711
759.8240, 642.5391
760.9690, 440.0527
762.1150, 547.0830
763.2600, 528.4443
764.4060, 569.5654
765.5510, 487.2188
766.6950, 443.4590
767.8400, 429.2725
768.9850, 290.5557
770.1290, 420.5596
771.2730, 489.4619
772.4170, 499.2285
773.5610, 276.0361
774.7050, 354.6592
775.8480, 312.9111
776.9920, 266.2148
778.1350, 387.5791
779.2780, 199.0146
780.4210, 317.6279
781.5640, 313.6172
782.7060, 365.6768
783.8490, 296.2021
784.9910, 264.2197
786.1330, 353.7266
787.2750, 375.9023
788.4170, 292.2959
789.5580, 347.6982
790.7000, 154.6377
791.8410, 179.5342
792.9820, 298.4502
794.1230, 220.7705
795.2640, 278.2090
796.4040, 284.1465
797.5450, 185.6025
798.6850, 175.5391
799.8250, 172.4414
800.9650, 192.3096
802.1050, 131.1445
803.2450, 135.1162
804.3840, 144.6289
805.5230, 79.45117
806.6630, 112.1543
807.8020, 56.82422
808.9400, 50.91406
810.0790, 14.05078
811.2170, 2.589844
812.3560, 66.92969
813.4940, 153.5439
814.6320, 73.29688
815.7700, 196.1455
816.9070, 213.1514
818.0450, 221.3252
819.1820, 172.6660
820.3190, 255.1494
821.4560, 228.8164
822.5930, 290.6523
823.7300, 261.6055
824.8670, 276.9482
826.0030, 274.7871
827.1390, 285.8926
828.2750, 239.6709
829.4110, 236.6113
830.5470, 198.7100
831.6820, 209.9473
832.8180, 238.3271
833.9530, 51.86035
835.0880, 82.44629
836.2230, 26.10156
837.3580, 145.7461
838.4920, 17.45605
839.6270, 118.9502
840.7610, 162.0010
841.8950, 28.28027
843.0290, 82.69629
844.1630, 72.91895
845.2960, 58.15430
846.4300, 211.5059
847.5630, 55.06543
848.6960, 205.7090
849.8290, 233.7617
850.9620, 317.9121
852.0940, 280.5420
853.2270, 280.7178
854.3590, 402.3896
855.4910, 306.1113
856.6230, 351.0566
857.7550, 348.2354
858.8870, 434.2939
860.0180, 490.3525
861.1500, 492.4111
862.2810, 662.4707
863.4120, 601.5312
864.5430, 610.5938
865.6730, 750.6602
866.8040, 967.7295
867.9340, 954.8047
869.0640, 1189.888
870.1940, 1261.979
871.3240, 1335.080
872.4540, 1598.191
873.5830, 1734.677
874.7130, 1852.984
875.8420, 2144.614
876.9710, 2050.793
878.1000, 2185.996
879.2290, 2211.225
880.3570, 2403.475
881.4860, 2525.742
882.6140, 2622.031
883.7420, 2803.361
884.8700, 2795.711
885.9980, 2896.123
887.1250, 2974.602
888.2530, 2934.146
889.3800, 3047.712
890.5070, 3695.318
891.6340, 3131.963
892.7610, 3748.635
893.8880, 3241.375
895.0140, 3108.145
896.1400, 3111.983
897.2670, 3000.002
898.3930, 3044.271
899.5180, 3135.726
900.6440, 3173.707
901.7700, 3246.725
902.8950, 3366.779
904.0200, 3270.720
905.1450, 3435.829
906.2700, 3141.964
907.3950, 3201.125
908.5190, 3252.316
909.6440, 3171.407
910.7680, 3123.654
911.8920, 3270.926
913.0160, 3155.123
914.1400, 3232.470
915.2630, 3275.498
916.3870, 3204.918
917.5100, 3295.365
918.6330, 3278.842
919.7560, 3054.349
920.8790, 3023.883
922.0010, 3013.461
923.1240, 3114.072
924.2460, 3036.790
925.3680, 3100.438
926.4900, 2899.844
927.6120, 2970.428
928.7340, 2781.338
929.8550, 2830.256
930.9760, 2967.245
932.0980, 2797.098
933.2190, 2800.236
934.3390, 2691.234
935.4600, 2678.299
936.5810, 2773.534
937.7010, 2776.574
938.8210, 2896.734
939.9410, 3104.005
941.0610, 2937.072
942.1810, 3267.336
943.3010, 3112.328
944.4200, 3156.285
945.5390, 3258.253
946.6580, 3531.061
947.7770, 3737.911
948.8960, 3881.081
950.0150, 3796.152
951.1330, 4004.851
952.2510, 4091.889
953.3690, 4173.650
954.4870, 4426.764
955.6050, 4365.137
956.7230, 4612.482
957.8400, 4760.033
958.9580, 4918.365
960.0750, 5094.938
961.1920, 5061.852
962.3090, 5389.724
963.4250, 5907.920
964.5420, 5935.947
965.6580, 6181.595
966.7740, 6428.775
967.8900, 6667.428
969.0060, 7292.965
970.1220, 7626.961
971.2380, 8018.371
972.3530, 8324.947
973.4680, 8997.391
974.5830, 9073.905
975.6980, 9265.520
976.8130, 9730.882
977.9280, 9811.696
979.0420, 9963.580
980.1560, 9982.319
981.2710, 9999.592
982.3850, 9667.725
983.4980, 9547.965
984.6120, 9106.282
985.7260, 8721.798
986.8390, 8387.124
987.9520, 7799.676
989.0650, 7544.307
990.1780, 7124.017
991.2910, 6782.818
992.4030, 6454.131
993.5160, 6042.895
994.6280, 5829.711
995.7400, 5338.833
996.8520, 5145.023
997.9640, 4968.289
999.0750, 4514.633
1000.187, 4550.046
1001.298, 4261.531
1002.409, 4207.088
1003.520, 3919.719
1004.631, 4756.430
1005.741, 4140.217
1006.852, 3755.076
1007.962, 4492.010
1009.072, 3756.017
1010.182, 3817.094
1011.292, 3627.259
1012.402, 3635.493
1013.511, 3742.802
1014.621, 4014.188
1015.730, 3446.647
1016.839, 3343.183
1017.948, 3552.795
1019.056, 3472.479
1020.165, 3461.241
1021.273, 3217.074
1022.382, 3306.979
1023.490, 3170.953
1024.598, 3168.000
1025.706, 3115.131
1026.813, 3100.332
1027.921, 2906.605
1029.028, 2849.950
1030.135, 2800.365
1031.242, 2736.851
1032.349, 2700.406
1033.456, 2678.043
1034.562, 2778.755
1035.668, 2642.542
1036.775, 2680.397
1037.881, 2940.333
1038.987, 3166.644
1040.092, 3180.533
1041.198, 3157.238
1042.303, 3234.801
1043.408, 2970.094
1044.514, 2897.455
1045.618, 3032.691
1046.723, 2903.539
1047.828, 3203.026
1048.932, 2911.667
1050.037, 3109.400
1051.141, 3126.241
1052.245, 3241.086
1053.349, 3270.999
1054.452, 3350.534
1055.556, 3396.121
1056.659, 3420.990
1057.762, 3548.286
1058.865, 3517.157
1059.968, 3737.351
1061.071, 3842.957
1062.174, 3816.558
1063.276, 3938.576
1064.378, 4102.058
1065.480, 4212.489
1066.582, 4259.279
1067.684, 4074.646
1068.786, 4193.716
1069.887, 4185.053
1070.988, 4181.604
1072.090, 4338.487
1073.191, 4185.344
1074.291, 4336.913
1075.392, 4067.713
1076.493, 3911.584
1077.593, 3923.875
1078.693, 3839.236
1079.793, 3682.221
1080.893, 3697.741
1081.993, 3499.017
1083.092, 3501.228
1084.192, 3534.069
1085.291, 3573.065
1086.390, 3512.050
1087.489, 3709.529
1088.588, 3583.939
1089.686, 3613.605
1090.785, 3700.244
1091.883, 3807.970
1092.981, 3955.829
1094.079, 4128.865
1095.177, 4000.854
1096.275, 4185.438
1097.373, 4150.513
1098.470, 4297.977
1099.567, 4232.154
1100.664, 4350.838
1101.761, 4242.120
1102.858, 4356.936
1103.954, 4477.971
1105.051, 4507.854
1106.147, 4566.692
1107.243, 4663.195
1108.339, 4615.308
1109.435, 4602.982
1110.531, 4608.807
1111.626, 4521.021
1112.722, 4545.750
1113.817, 4692.744
1114.912, 4666.718
1116.007, 4443.826
1117.101, 4452.203
1118.196, 4599.612
1119.290, 4513.014
1120.385, 4586.332
1121.479, 4577.541
1122.573, 4621.105
1123.666, 4498.725
1124.760, 4481.913
1125.853, 4348.084
1126.947, 4266.132
1128.040, 4208.808
1129.133, 4101.807
1130.226, 3913.201
1131.318, 3784.955
1132.411, 3645.732
1133.503, 3675.572
1134.596, 3458.397
1135.688, 3290.296
1136.780, 3461.098
1137.871, 3241.990
1138.963, 3070.004
1140.054, 3110.939
1141.146, 3001.895
1142.237, 3058.774
1143.328, 2982.768
1144.419, 2879.780
1145.509, 2817.890
1146.600, 2727.406
1147.690, 2584.028
1148.780, 2526.322
1149.870, 2404.660
1150.960, 2222.433
1152.050, 2130.557
1153.139, 1990.703
1154.229, 1825.022
1155.318, 1674.296
1156.407, 1534.042
1157.496, 1346.312
1158.585, 1255.896
1159.674, 1059.192
1160.762, 866.4072
1161.850, 728.8389
1162.939, 561.9229
1164.027, 416.6582
1165.114, 302.7686
1166.202, 300.7285
1167.290, 225.9893
1168.377, 222.3047
1169.464, 160.0195
1170.551, 110.2197
1171.638, 60.85742
1172.725, 92.13965
1173.812, 93.42578
1174.898, 73.71191
1175.984, 130.3535
1177.071, 34.09082
1178.157, 124.7100
1179.242, 21.83398
1180.328, 4.041992
1181.414, 1.001953
1182.499, 36.32910
1183.584, 19.52930
1184.669, 87.27344
1185.754, 12.10742
1186.839, 45.94922
1187.924, 183.8076
1189.008, 139.7461
1190.092, 123.7422
1191.177, 208.8848
1192.260, 65.72461
1193.344, 15.54395
1194.428, 38.40332
1195.512, 172.0703
1196.595, 81.33789
1197.678, 111.3896
1198.761, 146.2100
1199.844, 13.25293
1200.927, 190.0703
1202.009, 59.82617
1203.092, 52.28418
1204.174, 11.33105
1205.256, 46.52637
1206.338, 66.92969
1207.420, 34.14551
1208.502, 67.91406
1209.583, 4.072266
1210.665, 62.95215
1211.746, 118.4561
1212.827, 81.73340
1213.908, 48.75000
1214.988, 21.91211
1216.069, 128.9629
1217.149, 53.11230
1218.230, 127.3232
1219.310, 0.3632810
1220.390, 5.216797
1221.470, 33.88965
1222.549, 45.24609
1223.629, 115.9424
1224.708, 17.67871
1225.787, 4.855469
1226.866, 7.183594
1227.945, 93.83789
1229.024, 2.866211
1230.103, 118.6260
1231.181, 45.50293
1232.259, 156.5400
1233.337, 99.44824
1234.415, 28.45215
1235.493, 57.30469
1236.571, 64.87402
1237.648, 42.15430
1238.726, 64.52344
1239.803, 62.00879
1240.880, 11.58691
1241.957, 74.03711
1243.034, 12.57520
1244.110, 73.70312
1245.187, 72.63574
1246.263, 157.0957
1247.339, 183.1201
1248.415, 24.21289
1249.491, 69.65234
1250.566, 42.74707
1251.642, 10.85742
1252.717, 146.9482
1253.793, 26.75586
1254.868, 106.5342
1255.943, 117.1963
1257.017, 183.9199
1258.092, 129.1172
1259.166, 111.7969
1260.241, 215.9600
1261.315, 252.7910
1262.389, 183.8389
1263.462, 253.8867
1264.536, 75.47559
1265.610, 114.9971
1266.683, 248.5234
1267.756, 185.4521
1268.829, 257.4951
1269.902, 278.0215
1270.975, 64.58203
1272.048, 257.8965
1273.120, 275.2324
1274.192, 111.8799
1275.264, 291.1162
1276.336, 152.5713
1277.408, 127.3926
1278.480, 187.5127
1279.551, 158.6123
1280.623, 269.9443
1281.694, 246.0918
1282.765, 210.1221
1283.836, 226.8008
1284.907, 94.12012
1285.977, 238.3867
1287.048, 193.3877
1288.118, 242.3975
1289.188, 312.6855
1290.258, 219.6865
1291.328, 299.4658
1292.398, 111.1943
1293.467, 147.1084
1294.537, 158.8193
1295.606, 313.8125
1296.675, 126.6279
1297.744, 156.0967
1298.813, 277.7822
1299.882, 157.7373
1300.950, 302.9111
1302.018, 386.3252
1303.086, 411.2920
1304.155, 202.8926
1305.222, 291.9258
1306.290, 263.4404
1307.358, 226.7695
1308.425, 361.8760
1309.492, 187.1562
1310.559, 319.4424
1311.626, 329.1621
1312.693, 394.9434
1313.760, 336.6279
1314.826, 318.1338
1315.893, 420.2480
1316.959, 447.9893
1318.025, 372.4297
1319.091, 436.6064
1320.157, 246.9707
1321.222, 283.3486
