##NAMES=Arsenopyrite
##RRUFFID=R050071
##IDEAL CHEMISTRY=Fe^3+^(AsS)^3-^
##LOCALITY=Yaogangxian mine, Yizhang County, Hunan Province, China
##OWNER=RRUFF
##SOURCE=Rock Currier
##DESCRIPTION=Steel-gray tabular
##STATUS=The identification of this mineral has been confirmed by X-ray diffraction and chemical analysis
##URL=rruff.info/R050071
##MEASURED CHEMISTRY=FeAsS
##PIN_ID=L00162
##ORIENTATION=Laser parallel to -c* (0 0 -1). Fiducial mark perpendicular to laser is parallel to -a [-1 0 0]
72.47700, 0.0000000E+00
73.71400, 4260.363
74.95100, 8457.145
76.18700, 10912.53
77.42300, 10816.79
78.65900, 8663.969
79.89500, 5356.012
81.13100, 3004.922
82.36700, 885.8789
83.60200, 21.67578
84.83700, 843.5312
86.07200, 15.90234
87.30800, 523.9648
88.54200, 2041.934
89.77700, 2150.164
91.01200, 2004.500
92.24600, 2852.035
93.48000, 2086.949
94.71400, 1510.383
95.94800, 978.0312
97.18200, 851.9609
98.41600, 292.4102
99.64900, 188.8281
100.8830, 454.8203
102.1160, 1368.438
103.3490, 2632.148
104.5820, 4743.609
105.8150, 6771.844
107.0470, 9805.598
108.2800, 10614.28
109.5120, 11242.48
110.7440, 13016.34
111.9760, 13347.64
113.2080, 13232.72
114.4400, 14809.58
115.6710, 16401.08
116.9030, 17508.33
118.1340, 19494.34
119.3650, 18253.39
120.5960, 10846.59
121.8270, 4224.094
123.0580, 1825.188
124.2880, 1002.242
125.5190, 459.0117
126.7490, 269.4883
127.9790, 824.1406
129.2090, 525.3164
130.4390, 314.5078
131.6680, 126.3125
132.8980, 485.0859
134.1270, 390.7578
135.3560, 444.7188
136.5850, 947.3789
137.8140, 243.2695
139.0430, 363.4219
140.2710, 72.41406
141.5000, 161.9883
142.7280, 114.8516
143.9560, 76.78906
145.1840, 145.1172
146.4120, 31.53125
147.6390, 113.8945
148.8670, 2.7344000E-02
150.0940, 448.8086
151.3210, 1015.305
152.5490, 1309.930
153.7750, 695.5820
155.0020, 322.6250
156.2290, 740.4883
157.4550, 87.90625
158.6810, 710.3398
159.9080, 723.1367
161.1340, 755.3984
162.3590, 543.6445
163.5850, 835.8633
164.8110, 736.9297
166.0360, 843.2148
167.2610, 715.7070
168.4860, 599.3789
169.7110, 864.2188
170.9360, 836.2031
172.1610, 490.3242
173.3850, 481.0625
174.6100, 573.0391
175.8340, 584.6445
177.0580, 322.3984
178.2820, 309.3633
179.5050, 360.4141
180.7290, 477.5234
181.9520, 240.8828
183.1760, 270.9727
184.3990, 713.2656
185.6220, 489.3203
186.8450, 899.9766
188.0670, 895.9375
189.2900, 944.8164
190.5120, 1229.625
191.7340, 1264.363
192.9560, 1178.035
194.1780, 1432.633
195.4000, 1328.168
196.6220, 1436.625
197.8430, 1541.992
199.0640, 1857.328
200.2860, 1703.574
201.5070, 1773.742
202.7270, 1808.844
203.9480, 1458.875
205.1690, 455.8438
206.3890, 386.7422
207.6090, 347.4258
208.8290, 49.66016
210.0490, 255.9570
211.2690, 377.3164
212.4890, 186.2578
213.7080, 353.6289
214.9280, 252.5742
216.1470, 120.9453
217.3660, 33.52344
218.5850, 142.6484
219.8030, 391.4375
221.0220, 317.1250
222.2400, 300.7500
223.4590, 53.34375
224.6770, 34.57031
225.8950, 127.3828
227.1120, 129.5078
228.3300, 387.8984
229.5480, 253.8828
230.7650, 327.6680
231.9820, 9.089844
233.1990, 194.5938
234.4160, 432.3945
235.6330, 23.57812
236.8490, 256.4023
238.0660, 117.4492
239.2820, 105.5547
240.4980, 67.25391
241.7140, 61.39844
242.9300, 62.36719
244.1460, 73.14453
245.3610, 1.527344
246.5770, 13.23047
247.7920, 51.85156
249.0070, 166.7148
250.2220, 419.0938
251.4370, 156.8359
252.6510, 332.6562
253.8660, 453.3516
255.0800, 2062.926
256.2940, 3165.230
257.5080, 759.3516
258.7220, 1933.305
259.9360, 4445.078
261.1490, 3360.656
262.3630, 1248.992
263.5760, 1388.121
264.7890, 993.0508
266.0020, 1128.777
267.2150, 1513.320
268.4270, 1193.684
269.6400, 1189.871
270.8520, 725.8867
272.0640, 313.7344
273.2760, 375.4023
274.4880, 498.8984
275.7000, 363.5195
276.9120, 471.3164
278.1230, 438.7422
279.3340, 537.9258
280.5450, 652.3945
281.7560, 751.0039
282.9670, 701.4922
284.1780, 897.8594
285.3880, 642.1094
286.5980, 1022.953
287.8090, 986.3359
289.0190, 536.3008
290.2290, 613.1641
291.4380, 648.6250
292.6480, 954.9492
293.8570, 673.5117
295.0670, 605.2578
296.2760, 664.3086
297.4850, 699.7969
298.6930, 503.8789
299.9020, 540.5742
301.1110, 774.9102
302.3190, 795.8906
303.5270, 659.3828
304.7350, 776.9180
305.9430, 1007.191
307.1510, 802.2930
308.3580, 987.0117
309.5660, 944.6758
310.7730, 1214.316
311.9800, 979.9336
313.1870, 1049.520
314.3940, 1052.078
315.6010, 1193.609
316.8070, 1224.109
318.0130, 1199.117
319.2200, 921.9609
320.4260, 1097.285
321.6310, 1188.547
322.8370, 1105.777
324.0430, 1321.973
325.2480, 1080.145
326.4540, 1298.293
327.6590, 1316.270
328.8640, 1053.352
330.0680, 1029.402
331.2730, 1245.422
332.4780, 1219.406
333.6820, 1414.359
334.8860, 1243.281
336.0900, 970.1758
337.2940, 1382.047
338.4980, 1185.891
339.7010, 1111.715
340.9050, 1148.512
342.1080, 1286.285
343.3110, 1296.035
344.5140, 1323.762
345.7170, 998.4648
346.9200, 1339.148
348.1220, 1232.809
349.3240, 884.4492
350.5270, 865.0703
351.7290, 836.6680
352.9310, 1109.348
354.1320, 1198.258
355.3340, 1223.645
356.5350, 1006.395
357.7370, 995.4492
358.9380, 912.9453
360.1390, 929.3516
361.3400, 1072.125
362.5400, 839.0469
363.7410, 859.7305
364.9410, 861.1758
366.1410, 688.1836
367.3410, 935.4961
368.5410, 721.7812
369.7410, 907.8750
370.9400, 614.2148
372.1400, 819.1406
373.3390, 579.4531
374.5380, 633.8281
375.7370, 602.2266
376.9360, 516.1172
378.1350, 497.9570
379.3330, 676.7188
380.5310, 673.5781
381.7300, 548.6992
382.9280, 586.2031
384.1260, 483.1172
385.3230, 420.0977
386.5210, 583.5039
387.7180, 270.1523
388.9160, 421.5977
390.1130, 488.6367
391.3100, 409.4492
392.5060, 687.8477
393.7030, 291.2969
394.9000, 290.8125
396.0960, 344.4961
397.2920, 475.4219
398.4880, 501.3867
399.6840, 416.6367
400.8800, 564.8516
402.0750, 626.0508
403.2710, 344.2227
404.4660, 672.3672
405.6610, 461.4805
406.8560, 632.5742
408.0510, 286.6367
409.2450, 543.6797
410.4400, 358.7031
411.6340, 548.7031
412.8280, 738.6836
414.0220, 568.6445
415.2160, 588.5938
416.4100, 471.8398
417.6030, 634.5039
418.7970, 520.3555
419.9900, 564.5625
421.1830, 631.8203
422.3760, 426.5703
423.5690, 888.0234
424.7610, 921.1211
425.9540, 525.2109
427.1460, 439.2930
428.3380, 708.3672
429.5300, 931.4375
430.7220, 908.6367
431.9140, 736.5859
433.1050, 989.8867
434.2970, 801.9219
435.4880, 821.0781
436.6790, 788.2539
437.8700, 701.4180
439.0610, 604.5312
440.2510, 635.7773
441.4420, 658.0742
442.6320, 706.1250
443.8220, 822.6523
445.0120, 399.0078
446.2020, 510.3750
447.3910, 654.7930
448.5810, 620.2305
449.7700, 766.6953
450.9600, 719.1875
452.1490, 773.7031
453.3370, 729.2500
454.5260, 858.8281
455.7150, 667.4414
456.9030, 829.0859
458.0910, 727.7617
459.2800, 726.4844
460.4670, 769.2383
461.6550, 605.0156
462.8430, 626.8320
464.0300, 825.6797
465.2180, 993.5586
466.4050, 839.4727
467.5920, 742.4219
468.7790, 692.4023
469.9650, 865.4141
471.1520, 941.4688
472.3380, 1116.555
473.5250, 973.6758
474.7110, 1055.836
475.8970, 848.0312
477.0820, 862.2695
478.2680, 959.5352
479.4540, 779.8438
480.6390, 972.1836
481.8240, 921.5625
483.0090, 922.9805
484.1940, 1072.441
485.3780, 740.9336
486.5630, 972.4688
487.7470, 1093.047
488.9320, 1236.660
490.1160, 1051.316
491.3000, 918.0117
492.4830, 1006.746
493.6670, 1239.520
494.8500, 1176.340
496.0340, 1073.336
497.2170, 975.4297
498.4000, 1288.680
499.5820, 927.1133
500.7650, 1335.602
501.9480, 1438.125
503.1300, 1064.703
504.3120, 1323.434
505.4940, 1243.262
506.6760, 1162.152
507.8580, 1306.238
509.0390, 1401.500
510.2210, 1255.926
511.4020, 1252.453
512.5830, 1196.074
513.7640, 1343.828
514.9450, 1256.660
516.1250, 1382.684
517.3060, 1535.875
518.4860, 1329.250
519.6660, 1280.727
520.8460, 1382.273
522.0260, 1319.035
523.2060, 1316.707
524.3850, 1176.742
525.5650, 1374.918
526.7440, 1284.234
527.9230, 1170.672
529.1020, 1536.211
530.2810, 1550.883
531.4590, 1279.648
532.6380, 1446.535
533.8160, 1178.648
534.9940, 932.7617
536.1720, 1022.957
537.3500, 998.8828
538.5270, 1060.410
539.7050, 1265.445
540.8820, 1335.129
542.0590, 1327.867
543.2360, 1574.961
544.4130, 1479.816
545.5900, 1475.719
546.7660, 1743.672
547.9430, 1478.691
549.1190, 1786.926
550.2950, 1722.066
551.4710, 1621.766
552.6470, 1506.020
553.8220, 1492.859
554.9980, 1508.676
556.1730, 1522.164
557.3480, 1458.164
558.5230, 1612.711
559.6980, 1497.328
560.8730, 1617.922
562.0470, 1630.551
563.2220, 1784.727
564.3960, 1471.172
565.5700, 1867.688
566.7440, 1524.715
567.9170, 1645.820
569.0910, 1634.984
570.2640, 1734.219
571.4380, 1816.500
572.6110, 1450.438
573.7840, 1507.305
574.9570, 1369.203
576.1290, 1390.727
577.3020, 1238.309
578.4740, 1328.426
579.6460, 1186.801
580.8180, 877.8125
581.9900, 926.6172
583.1620, 714.2617
584.3330, 489.2031
585.5040, 822.4023
586.6760, 640.5430
587.8470, 728.3789
589.0180, 635.5625
590.1880, 566.8750
591.3590, 426.2852
592.5290, 179.7969
593.7000, 355.3633
594.8700, 674.0156
596.0400, 266.8320
597.2090, 527.5859
598.3790, 321.4023
599.5490, 688.3203
600.7180, 423.2383
601.8870, 259.2109
603.0560, 175.2305
604.2250, 177.5547
605.3940, 146.4297
606.5620, 399.6055
607.7300, 321.8242
608.8990, 523.1016
610.0670, 491.4297
611.2350, 329.8086
612.4020, 370.2344
613.5700, 256.7109
614.7370, 430.2383
615.9050, 356.5234
617.0720, 682.4375
618.2390, 352.1133
619.4060, 462.8398
620.5720, 520.6094
621.7390, 293.4297
622.9050, 299.3008
624.0710, 314.2188
625.2370, 450.1875
626.4030, 411.1953
627.5690, 441.2578
628.7340, 302.3711
629.9000, 275.5312
631.0650, 403.7383
632.2300, 284.9961
633.3950, 384.3008
634.5600, 407.6523
635.7240, 514.0469
636.8890, 564.4922
638.0530, 455.8320
639.2170, 92.51172
640.3810, 273.0898
641.5450, 231.7109
642.7080, 308.3750
643.8720, 327.1953
645.0350, 66.38281
646.1980, 263.1758
647.3610, 396.6953
648.5240, 55.57031
649.6870, 211.4844
650.8490, 214.4375
652.0120, 189.4258
653.1740, 162.8398
654.3360, 241.9062
655.4980, 201.5625
656.6600, 244.1484
657.8210, 188.3242
658.9830, 204.5352
660.1440, 183.7734
661.3050, 87.05469
662.4660, 95.63672
663.6270, 263.0781
664.7870, 389.4531
665.9480, 196.8359
667.1080, 84.60156
668.2680, 224.0469
669.4280, 151.5234
670.5880, 90.02734
671.7480, 272.5586
672.9070, 9.882813
674.0670, 21.69922
675.2260, 352.3125
676.3850, 75.05078
677.5440, 192.4531
678.7030, 69.21484
679.8610, 68.88281
681.0200, 121.5859
682.1780, 115.5508
683.3360, 5.167969
684.4940, 141.2695
685.6520, 86.02734
686.8090, 17.33203
687.9670, 11.45312
689.1240, 174.3750
690.2810, 29.77734
691.4380, 215.0820
692.5950, 110.9648
693.7520, 26.87109
694.9080, 47.17969
696.0650, 27.77734
697.2210, 11.69531
698.3770, 46.66016
699.5330, 39.35547
700.6880, 37.36328
701.8440, 255.3633
702.9990, 116.4492
704.1550, 218.9102
705.3100, 82.90234
706.4650, 58.14062
707.6190, 209.9844
708.7740, 84.41797
709.9290, 16.29688
711.0830, 139.8125
712.2370, 80.78516
713.3910, 115.9492
714.5450, 54.64453
715.6980, 93.33594
716.8520, 130.8359
718.0050, 65.06250
719.1580, 109.7031
720.3110, 136.5156
721.4640, 18.78906
722.6170, 166.6641
723.7700, 0.4023440
724.9220, 248.1562
726.0740, 50.18359
727.2260, 30.56250
728.3780, 221.0352
729.5300, 90.69922
730.6810, 85.19531
731.8330, 145.9844
732.9840, 232.3906
734.1350, 10.80859
735.2860, 49.97266
736.4370, 111.4141
737.5880, 24.78906
738.7380, 196.9883
739.8880, 119.7734
741.0390, 176.4492
742.1890, 264.3516
743.3380, 266.1484
744.4880, 114.0234
745.6380, 143.8281
746.7870, 136.6406
747.9360, 120.4609
749.0850, 86.28906
750.2340, 148.5547
751.3830, 155.9453
752.5310, 285.7773
753.6800, 316.6172
754.8280, 408.4570
755.9760, 237.2969
757.1240, 150.1484
758.2720, 202.0000
759.4190, 212.8555
760.5670, 374.7070
761.7140, 276.5664
762.8610, 127.4297
764.0080, 313.2930
765.1550, 250.1602
766.3020, 270.0234
767.4480, 279.8945
768.5950, 303.6875
769.7410, 252.5586
770.8870, 446.4336
772.0330, 358.3047
773.1780, 210.1797
774.3240, 483.0547
775.4690, 471.9297
776.6140, 112.8008
777.7590, 476.6797
778.9040, 456.5586
780.0490, 276.4336
781.1940, 65.69141
782.3380, 36.12109
783.4820, 157.9219
784.6260, 31.71484
785.7700, 98.49609
786.9140, 266.2734
788.0580, 424.0547
789.2010, 110.8281
790.3450, 1.605469
791.4880, 215.3477
792.6310, 191.0938
793.7730, 275.8359
794.9160, 239.5742
796.0590, 386.3164
797.2010, 233.0508
798.3430, 454.7852
799.4850, 378.5195
800.6270, 76.44531
801.7690, 101.1680
802.9100, 436.8906
804.0520, 46.38672
805.1930, 149.2734
806.3340, 378.9375
807.4750, 246.5977
808.6160, 381.0703
809.7560, 432.9102
810.8970, 298.4570
812.0370, 332.1094
813.1770, 117.7617
814.3170, 60.91406
815.4570, 85.44922
816.5960, 76.70703
817.7360, 352.2617
818.8750, 92.81641
820.0140, 168.0625
821.1530, 76.60938
822.2920, 232.1523
823.4310, 69.69922
824.5690, 1.234375
825.7070, 228.5898
826.8460, 309.0898
827.9840, 250.0859
829.1220, 308.5898
830.2590, 278.1602
831.3970, 98.59375
832.5340, 212.0234
833.6710, 149.9922
834.8080, 103.4883
835.9450, 408.9883
837.0820, 135.5703
838.2190, 274.1992
839.3550, 229.3398
840.4910, 67.71875
841.6270, 108.1758
842.7630, 52.38672
843.8990, 266.0117
845.0350, 21.59375
846.1700, 261.7734
847.3060, 173.1406
848.4410, 16.91406
849.5760, 234.8125
850.7100, 1.265625
851.8450, 17.08594
852.9800, 294.4219
854.1140, 107.2891
855.2480, 73.69141
856.3820, 73.03906
857.5160, 140.3867
858.6500, 97.04297
859.7830, 175.2656
860.9170, 104.3789
862.0500, 84.30859
863.1830, 82.16406
864.3160, 305.5664
865.4480, 138.4609
866.5810, 204.3945
867.7130, 97.54688
868.8460, 118.5000
869.9780, 137.3867
871.1100, 227.1680
872.2410, 17.92969
873.3730, 214.9609
874.5050, 79.80469
875.6360, 261.7109
876.7670, 72.62500
877.8980, 316.5430
879.0290, 303.4727
880.1590, 5.410156
881.2900, 44.34766
882.4200, 110.3008
883.5500, 5.257813
884.6800, 318.2148
885.8100, 169.1914
886.9400, 113.1719
888.0690, 47.15625
889.1990, 282.1602
890.3280, 370.1680
891.4570, 245.1797
892.5860, 303.2031
893.7140, 183.2422
894.8430, 242.2852
895.9710, 164.3398
897.1000, 271.4102
898.2280, 160.4844
899.3560, 508.5703
900.4830, 88.66797
901.6110, 363.7773
902.7380, 195.8945
903.8660, 25.97656
904.9930, 529.1523
906.1200, 22.29297
907.2460, 158.4492
908.3730, 365.6172
909.5000, 268.7930
910.6260, 359.9805
911.7520, 285.1875
912.8780, 357.4023
914.0040, 416.6250
915.1290, 389.3242
916.2550, 409.7891
917.3800, 422.2812
918.5050, 307.1172
919.6300, 384.4141
920.7550, 231.3828
921.8800, 298.8438
923.0040, 240.6953
924.1290, 306.0508
925.2530, 451.4180
926.3770, 281.4258
927.5010, 374.8203
928.6250, 461.2422
929.7480, 363.6758
930.8720, 463.1289
931.9950, 236.5938
933.1180, 267.0742
934.2410, 680.5781
935.3640, 361.0898
936.4860, 471.2461
937.6090, 330.7891
938.7310, 260.3711
939.8530, 614.6250
940.9750, 553.2422
942.0970, 675.8828
943.2180, 420.5430
944.3400, 673.2344
945.4610, 372.9492
946.5820, 752.7188
947.7030, 535.5078
948.8240, 352.3242
949.9450, 638.3125
951.0650, 591.5391
952.1860, 378.0977
953.3060, 403.1016
954.4260, 361.9922
955.5460, 366.6289
956.6650, 414.7852
957.7850, 422.8984
958.9040, 570.5156
960.0230, 480.2617
961.1420, 516.4453
962.2610, 670.6484
963.3800, 852.8828
964.4990, 636.1328
965.6170, 738.4141
966.7350, 479.6875
967.8530, 679.0156
968.9710, 656.3750
970.0890, 548.7500
971.2070, 715.1641
972.3240, 511.6094
973.4410, 618.0859
974.5580, 454.6406
975.6750, 1173.582
976.7920, 650.2500
977.9090, 702.5430
979.0250, 1180.266
980.1410, 633.4414
981.2580, 1009.215
982.3740, 565.0234
983.4890, 835.6992
984.6050, 589.6055
985.7200, 1192.758
986.8360, 745.8555
987.9510, 1014.867
989.0660, 993.9414
990.1810, 955.0547
991.2950, 906.2031
992.4100, 1059.402
993.5240, 927.9180
994.6390, 1365.207
995.7530, 732.5352
996.8660, 936.0195
997.9800, 725.4414
999.0940, 963.1953
1000.207, 927.8164
1001.320, 581.6367
1002.433, 1089.211
1003.546, 959.2070
1004.659, 1121.852
1005.772, 1097.535
1006.884, 804.6094
1007.996, 1000.363
1009.108, 736.1641
1010.220, 1027.000
1011.332, 918.8672
1012.444, 905.7773
1013.555, 998.7266
1014.666, 749.6445
1015.777, 834.6602
1016.888, 873.7070
1017.999, 807.7930
1019.110, 739.9141
1020.220, 644.0664
1021.331, 710.8750
1022.441, 729.6914
1023.551, 878.7422
1024.661, 893.0352
1025.770, 1019.363
1026.880, 1093.727
1027.989, 1074.137
1029.098, 877.5781
1030.207, 923.0586
1031.316, 1257.586
1032.425, 947.1445
1033.533, 936.7461
1034.642, 1342.387
1035.750, 920.0586
1036.858, 1287.766
1037.966, 1186.590
1039.073, 1238.371
1040.181, 1253.188
1041.288, 1181.043
1042.396, 1190.938
1043.503, 1200.859
1044.610, 1409.824
1045.716, 1046.824
1046.823, 1172.863
1047.929, 1482.934
1049.036, 1143.043
1050.142, 1189.223
1051.248, 1043.441
1052.353, 1163.695
1053.459, 1432.992
1054.564, 1212.332
1055.670, 1293.754
1056.775, 1201.207
1057.880, 1266.836
1058.985, 1260.367
1060.089, 1260.953
1061.194, 1467.578
1062.298, 1260.242
1063.402, 1212.938
1064.506, 1186.676
1065.610, 1401.445
1066.713, 1386.547
1067.817, 1464.102
1068.920, 1450.992
1070.023, 1571.914
1071.126, 1390.875
1072.229, 1341.875
1073.332, 1062.938
1074.435, 1167.238
1075.537, 1295.379
1076.639, 887.2305
1077.741, 1157.441
1078.843, 1543.016
1079.945, 1388.297
1081.046, 1592.469
1082.148, 1242.074
1083.249, 1370.492
1084.350, 1365.715
1085.451, 1425.305
1086.551, 1424.770
1087.652, 1400.699
1088.752, 1342.852
1089.853, 1311.504
1090.953, 1162.188
1092.053, 1056.902
1093.152, 1184.109
1094.252, 1218.910
1095.351, 1090.750
1096.451, 1172.625
1097.550, 1122.535
1098.649, 1129.230
1099.748, 1095.480
1100.846, 1106.516
1101.945, 1111.582
1103.043, 973.3359
1104.141, 1065.473
1105.239, 1312.910
1106.337, 880.1133
1107.434, 1206.348
1108.532, 901.6484
1109.629, 1111.988
1110.726, 838.3867
1111.823, 1080.816
1112.920, 964.6875
1114.017, 1118.199
1115.113, 898.7422
1116.210, 1048.660
1117.306, 1348.930
1118.402, 1316.590
1119.498, 1580.281
1120.593, 1867.727
1121.689, 1174.484
1122.784, 1711.270
1123.879, 1804.105
1124.974, 1460.969
1126.069, 1583.613
1127.164, 1147.520
1128.259, 1207.070
1129.353, 1027.109
1130.447, 437.4727
1131.541, 765.8086
1132.635, 700.0547
1133.729, 769.3867
1134.822, 556.7500
1135.916, 508.1719
1137.009, 626.6211
1138.102, 579.0977
1139.195, 614.6094
1140.288, 567.1836
1141.380, 492.7852
1142.473, 217.4141
1143.565, 278.2734
1144.657, 497.9727
1145.749, 201.6953
1146.841, 452.4453
1147.932, 474.2266
1149.024, 377.0312
1150.115, 332.8672
1151.206, 364.7266
1152.297, 303.0117
1153.388, 332.5039
1154.479, 271.4609
1155.569, 357.4219
1156.659, 360.4102
1157.750, 339.4219
1158.839, 304.0898
1159.929, 301.1523
1161.019, 535.2383
1162.108, 409.4180
1163.198, 554.5508
1164.287, 160.8594
1165.376, 137.0430
1166.465, 126.2461
1167.553, 140.4766
1168.642, 569.7305
1169.730, 258.0156
1170.818, 340.3242
1171.906, 192.6523
1172.994, 53.00391
1174.082, 299.3750
1175.170, 449.7734
1176.257, 309.1875
1177.344, 377.6250
1178.431, 427.0938
1179.518, 397.6172
1180.605, 1.835938
1181.691, 111.7266
1182.778, 378.3164
1183.864, 634.9219
1184.950, 323.5508
1186.036, 517.8984
1187.122, 221.5625
1188.207, 10.75000
1189.292, 329.9531
1190.378, 205.6719
1191.463, 184.4375
1192.548, 237.1953
1193.632, 425.9648
1194.717, 181.7617
1195.801, 194.5820
1196.886, 295.4219
1197.970, 54.27344
1199.054, 37.14453
1200.137, 29.02734
1201.221, 82.92969
1202.305, 46.85547
1203.388, 347.7930
1204.471, 43.25391
1205.554, 196.7031
1206.637, 93.32422
1207.719, 114.6367
1208.802, 155.3984
1209.884, 244.5234
1210.966, 54.53516
1212.048, 11.59766
1213.130, 112.6445
1214.212, 260.7227
1215.293, 34.90625
1216.374, 128.9141
1217.456, 50.25391
1218.536, 209.5742
1219.617, 39.41406
1220.698, 112.2656
1221.778, 286.1367
1222.859, 14.98438
1223.939, 46.90234
1225.019, 151.7969
1226.099, 106.9297
1227.178, 116.8516
1228.258, 42.86719
1229.337, 190.9727
1230.417, 110.9414
1231.496, 46.92188
1232.574, 37.08594
1233.653, 39.90234
1234.732, 5.652344
1235.810, 136.9023
1236.888, 50.91406
1237.966, 241.9375
1239.044, 356.3281
1240.122, 256.3672
1241.199, 257.4102
1242.277, 5.535156
1243.354, 37.52344
1244.431, 161.5938
1245.508, 7.675781
1246.585, 161.7656
1247.661, 18.85547
1248.738, 113.9570
1249.814, 8.933594
1250.890, 216.1680
1251.966, 260.2969
1253.042, 257.6914
1254.117, 176.3750
1255.193, 91.06641
1256.268, 25.98828
1257.343, 69.91797
1258.418, 162.1133
