##NAMES=Arsenopyrite
##RRUFFID=R050071
##IDEAL CHEMISTRY=Fe^3+^(AsS)^3-^
##LOCALITY=Yaogangxian mine, Yizhang County, Hunan Province, China
##OWNER=RRUFF
##SOURCE=Rock Currier
##DESCRIPTION=Steel-gray tabular
##STATUS=The identification of this mineral has been confirmed by X-ray diffraction and chemical analysis
##URL=rruff.info/R050071
##MEASURED CHEMISTRY=FeAsS
##PIN_ID=L00167
##ORIENTATION=Laser parallel to (1 0 1). Fiducial mark perpendicular to laser is parallel to b [0 1 0]
72.47700, 0.0000000E+00
73.71400, 3694.846
74.95100, 7647.447
76.18700, 11783.94
77.42300, 12856.64
78.65900, 12095.79
79.89500, 9029.234
81.13100, 4291.543
82.36700, 1402.363
83.60200, 707.4531
84.83700, 888.1680
86.07200, 102.8477
87.30800, 153.2754
88.54200, 241.6934
89.77700, 451.6016
91.01200, 643.5898
92.24600, 1235.795
93.48000, 1032.482
94.71400, 226.5195
95.94800, 722.4688
97.18200, 774.7344
98.41600, 96.82422
99.64900, 75.93359
100.8830, 272.7266
102.1160, 302.1445
103.3490, 1255.334
104.5820, 2357.426
105.8150, 4270.205
107.0470, 7259.193
108.2800, 8105.688
109.5120, 9019.781
110.7440, 11356.73
111.9760, 10001.70
113.2080, 12423.71
114.4400, 14715.18
115.6710, 17850.61
116.9030, 21536.95
118.1340, 26960.52
119.3650, 27895.49
120.5960, 17383.68
121.8270, 6329.215
123.0580, 2180.248
124.2880, 1446.889
125.5190, 503.2168
126.7490, 352.3984
127.9790, 26.00781
129.2090, 143.2441
130.4390, 214.7148
131.6680, 205.2188
132.8980, 38.19141
134.1270, 185.4688
135.3560, 45.43359
136.5850, 79.55078
137.8140, 247.9219
139.0430, 87.57812
140.2710, 99.38086
141.5000, 22.40039
142.7280, 96.12305
143.9560, 52.67969
145.1840, 84.92969
146.4120, 185.5566
147.6390, 14.01367
148.8670, 193.6250
150.0940, 246.4609
151.3210, 736.5859
152.5490, 1006.777
153.7750, 823.3164
155.0020, 378.0723
156.2290, 568.8223
157.4550, 659.3164
158.6810, 766.1582
159.9080, 1200.930
161.1340, 1289.047
162.3590, 1185.352
163.5850, 820.9473
164.8110, 820.8848
166.0360, 776.9219
167.2610, 652.0879
168.4860, 712.1973
169.7110, 675.7441
170.9360, 731.2070
172.1610, 696.7422
173.3850, 612.5430
174.6100, 721.1523
175.8340, 703.7969
177.0580, 488.3984
178.2820, 441.9805
179.5050, 263.5215
180.7290, 110.2324
181.9520, 432.7656
183.1760, 448.9492
184.3990, 485.9473
185.6220, 310.9043
186.8450, 878.8047
188.0670, 807.6387
189.2900, 847.3906
190.5120, 1049.061
191.7340, 1143.639
192.9560, 1236.902
194.1780, 1185.535
195.4000, 1433.852
196.6220, 1386.084
197.8430, 1492.232
199.0640, 1554.295
200.2860, 1373.225
201.5070, 1805.039
202.7270, 1710.771
203.9480, 1237.418
205.1690, 729.9902
206.3890, 343.4883
207.6090, 71.43555
208.8290, 154.7305
210.0490, 277.4531
211.2690, 188.2441
212.4890, 190.1016
213.7080, 154.3223
214.9280, 135.3203
216.1470, 63.27930
217.3660, 93.53711
218.5850, 142.1172
219.8030, 54.64062
221.0220, 153.9336
222.2400, 116.9512
223.4590, 72.78516
224.6770, 19.36523
225.8950, 201.8086
227.1120, 118.8848
228.3300, 5.597656
229.5480, 10.03125
230.7650, 243.2832
231.9820, 26.48438
233.1990, 189.0078
234.4160, 52.43555
235.6330, 78.77539
236.8490, 46.07227
238.0660, 92.49414
239.2820, 36.09180
240.4980, 55.86133
241.7140, 29.17969
242.9300, 109.9512
244.1460, 18.30469
245.3610, 189.1426
246.5770, 41.42578
247.7920, 1.474609
249.0070, 141.3223
250.2220, 139.7793
251.4370, 153.0723
252.6510, 256.2031
253.8660, 184.1230
255.0800, 454.6309
256.2940, 285.5820
257.5080, 658.2539
258.7220, 1648.746
259.9360, 1334.166
261.1490, 1481.320
262.3630, 1393.055
263.5760, 1077.758
264.7890, 1173.262
266.0020, 1148.576
267.2150, 1193.707
268.4270, 862.6621
269.6400, 1215.445
270.8520, 807.0645
272.0640, 509.5273
273.2760, 462.7324
274.4880, 614.4102
275.7000, 556.3164
276.9120, 730.0859
278.1230, 663.7207
279.3340, 552.3145
280.5450, 675.0059
281.7560, 721.2695
282.9670, 558.4180
284.1780, 456.4531
285.3880, 658.3730
286.5980, 446.1152
287.8090, 538.1211
289.0190, 377.5938
290.2290, 649.8027
291.4380, 703.4258
292.6480, 757.2070
293.8570, 580.5234
295.0670, 690.5488
296.2760, 708.1816
297.4850, 609.5762
298.6930, 646.6055
299.9020, 646.3457
301.1110, 765.8008
302.3190, 680.9727
303.5270, 731.9141
304.7350, 621.5742
305.9430, 635.0957
307.1510, 660.7227
308.3580, 777.6680
309.5660, 721.8008
310.7730, 714.8789
311.9800, 722.9277
313.1870, 634.9473
314.3940, 742.9355
315.6010, 925.8945
316.8070, 707.8203
318.0130, 558.7168
319.2200, 921.5723
320.4260, 721.4004
321.6310, 742.1934
322.8370, 804.9570
324.0430, 895.6914
325.2480, 937.1172
326.4540, 892.2129
327.6590, 853.8340
328.8640, 935.4258
330.0680, 1093.994
331.2730, 1105.244
332.4780, 860.7598
333.6820, 1020.248
334.8860, 914.7129
336.0900, 768.1523
337.2940, 926.5664
338.4980, 981.9609
339.7010, 1074.328
340.9050, 1048.676
342.1080, 1038.529
343.3110, 830.3027
344.5140, 928.5840
345.7170, 855.8457
346.9200, 797.0898
348.1220, 1056.314
349.3240, 916.5195
350.5270, 675.7090
351.7290, 912.8789
352.9310, 837.1465
354.1320, 1084.941
355.3340, 1018.105
356.5350, 868.9492
357.7370, 1165.752
358.9380, 702.8789
360.1390, 636.2969
361.3400, 948.3379
362.5400, 681.5977
363.7410, 710.9297
364.9410, 942.7715
366.1410, 651.2910
367.3410, 702.8945
368.5410, 606.1973
369.7410, 613.0566
370.9400, 622.8789
372.1400, 695.7188
373.3390, 806.4727
374.5380, 653.7539
375.7370, 440.1934
376.9360, 722.0352
378.1350, 561.5586
379.3330, 654.7266
380.5310, 198.9062
381.7300, 611.9492
382.9280, 302.8906
384.1260, 451.1895
385.3230, 310.0742
386.5210, 492.9941
387.7180, 705.1504
388.9160, 397.9023
390.1130, 421.5293
391.3100, 604.4414
392.5060, 260.0000
393.7030, 470.7031
394.9000, 577.2266
396.0960, 286.0742
397.2920, 413.6914
398.4880, 665.2852
399.6840, 308.7832
400.8800, 390.7363
402.0750, 383.5039
403.2710, 659.2520
404.4660, 344.9805
405.6610, 534.6934
406.8560, 394.3887
408.0510, 454.0645
409.2450, 430.7188
410.4400, 537.3574
411.6340, 514.9805
412.8280, 559.7754
414.0220, 532.1758
415.2160, 610.7500
416.4100, 529.1348
417.6030, 514.0977
418.7970, 616.6816
419.9900, 576.2578
421.1830, 518.8398
422.3760, 416.4141
423.5690, 539.0352
424.7610, 316.7148
425.9540, 731.3965
427.1460, 420.0762
428.3380, 559.0586
429.5300, 589.7305
430.7220, 473.5859
431.9140, 668.2656
433.1050, 652.4395
434.2970, 803.2363
435.4880, 805.0957
436.6790, 691.0430
437.8700, 588.0352
439.0610, 518.0527
440.2510, 652.0898
441.4420, 795.1406
442.6320, 486.2090
443.8220, 911.2949
445.0120, 585.4004
446.2020, 559.5312
447.3910, 478.6816
448.5810, 486.8574
449.7700, 417.0605
450.9600, 703.2891
452.1490, 458.5449
453.3370, 657.8281
454.5260, 488.1387
455.7150, 494.5098
456.9030, 645.9082
458.0910, 812.3359
459.2800, 717.7949
460.4670, 566.2812
461.6550, 632.8008
462.8430, 757.3457
464.0300, 485.9258
465.2180, 758.5332
466.4050, 432.1738
467.5920, 584.8477
468.7790, 668.5605
469.9650, 849.3789
471.1520, 498.2285
472.3380, 830.1113
473.5250, 616.0488
474.7110, 652.0215
475.8970, 651.0273
477.0820, 684.0684
478.2680, 790.1445
479.4540, 816.2617
480.6390, 867.4180
481.8240, 841.6094
483.0090, 898.8340
484.1940, 1027.098
485.3780, 957.3945
486.5630, 922.7285
487.7470, 924.1016
488.9320, 836.5078
490.1160, 919.9531
491.3000, 818.4355
492.4830, 939.9570
493.6670, 890.5156
494.8500, 855.1133
496.0340, 1109.781
497.2170, 1310.578
498.4000, 895.5352
499.5820, 1027.629
500.7650, 1110.859
501.9480, 1250.270
503.1300, 1054.754
504.3120, 1043.340
505.4940, 885.0312
506.6760, 1171.852
507.8580, 1007.781
509.0390, 856.8398
510.2210, 1195.953
511.4020, 1131.180
512.5830, 1089.500
513.7640, 1155.996
514.9450, 1013.617
516.1250, 1235.336
517.3060, 1115.145
518.4860, 1171.113
519.6660, 1112.184
520.8460, 1111.555
522.0260, 1147.707
523.2060, 1133.133
524.3850, 1127.129
525.5650, 1130.523
526.7440, 1102.113
527.9230, 1118.016
529.1020, 1131.012
530.2810, 1134.137
531.4590, 899.3711
532.6380, 1150.672
533.8160, 1079.062
534.9940, 1392.504
536.1720, 1301.078
537.3500, 1161.727
538.5270, 1699.461
539.7050, 1146.785
540.8820, 1195.020
542.0590, 1080.945
543.2360, 1230.727
544.4130, 1142.043
545.5900, 1196.328
546.7660, 1171.336
547.9430, 1220.090
549.1190, 1489.320
550.2950, 1331.605
551.4710, 1495.953
552.6470, 1340.355
553.8220, 1315.820
554.9980, 1438.340
556.1730, 1283.910
557.3480, 1447.176
558.5230, 1335.848
559.6980, 1452.574
560.8730, 1551.348
562.0470, 1535.996
563.2220, 1351.875
564.3960, 1366.770
565.5700, 1530.973
566.7440, 1607.242
567.9170, 1297.316
569.0910, 1523.453
570.2640, 1437.660
571.4380, 1564.023
572.6110, 1227.836
573.7840, 1301.973
574.9570, 1262.578
576.1290, 1233.672
577.3020, 1184.531
578.4740, 1105.672
579.6460, 974.7656
580.8180, 956.0547
581.9900, 715.9492
583.1620, 684.8945
584.3330, 671.8867
585.5040, 606.9219
586.6760, 428.0195
587.8470, 502.1641
589.0180, 162.3477
590.1880, 438.8125
591.3590, 578.0898
592.5290, 236.4180
593.7000, 384.7852
594.8700, 331.1992
596.0400, 160.6758
597.2090, 449.1797
598.3790, 342.7305
599.5490, 409.3242
600.7180, 350.9648
601.8870, 344.6484
603.0560, 535.3750
604.2250, 561.1484
605.3940, 68.96094
606.5620, 402.8516
607.7300, 177.7812
608.8990, 181.7539
610.0670, 229.1562
611.2350, 184.2188
612.4020, 319.3203
613.5700, 455.7109
614.7370, 141.8945
615.9050, 284.1211
617.0720, 298.3945
618.2390, 454.6992
619.4060, 248.6914
620.5720, 334.0820
621.7390, 243.5156
622.9050, 476.9883
624.0710, 225.4961
625.2370, 361.0469
626.4030, 395.6367
627.5690, 347.2734
628.7340, 172.9375
629.9000, 293.6484
631.0650, 531.3945
632.2300, 90.18359
633.3950, 206.0078
634.5600, 225.8750
635.7240, 525.7734
636.8890, 396.7148
638.0530, 248.6914
639.2170, 335.7070
640.3810, 107.3984
641.5450, 75.51562
642.7080, 254.5938
643.8720, 321.7383
645.0350, 149.9141
646.1980, 185.1211
647.3610, 163.4609
648.5240, 82.73047
649.6870, 238.0391
650.8490, 201.3750
652.0120, 270.7695
653.1740, 232.4023
654.3360, 228.8320
655.4980, 205.2812
656.6600, 225.6719
657.8210, 188.5078
658.9830, 200.0391
660.1440, 343.6055
661.3050, 157.1719
662.4660, 313.7812
663.6270, 123.4180
664.7870, 58.07422
665.9480, 153.9922
667.1080, 200.6992
668.2680, 141.8828
669.4280, 107.1719
670.5880, 69.93750
671.7480, 111.7227
672.9070, 108.5312
674.0670, 52.64062
675.2260, 123.1953
676.3850, 203.0508
677.5440, 170.9922
678.7030, 68.59766
679.8610, 24.69922
681.0200, 67.20312
682.1780, 73.87500
683.3360, 63.95312
684.4940, 23.96875
685.6520, 73.09375
686.8090, 31.15234
687.9670, 12.16406
689.1240, 142.9180
690.2810, 115.5586
691.4380, 29.45703
692.5950, 67.56641
693.7520, 66.67578
694.9080, 21.70703
696.0650, 177.2461
697.2210, 148.7422
698.3770, 42.75000
699.5330, 157.7617
700.6880, 100.7773
701.8440, 14.22266
702.9990, 209.7617
704.1550, 141.8203
705.3100, 63.92578
706.4650, 67.96094
707.6190, 10.91797
708.7740, 9.933594
709.9290, 2.019531
711.0830, 75.45703
712.2370, 60.55469
713.3910, 121.8477
714.5450, 73.48828
715.6980, 80.13281
716.8520, 33.23828
718.0050, 54.93359
719.1580, 3.609375
720.3110, 53.35547
721.4640, 87.21094
722.6170, 43.86719
723.7700, 213.6289
724.9220, 215.9531
726.0740, 298.7188
727.2260, 119.4961
728.3780, 17.26953
729.5300, 180.0469
730.6810, 137.8242
731.8330, 180.6055
732.9840, 114.3906
734.1350, 103.8242
735.2860, 105.9102
736.4370, 366.6406
737.5880, 80.37109
738.7380, 256.1055
739.8880, 187.8398
741.0390, 44.57812
742.1890, 212.3164
743.3380, 131.0547
744.4880, 221.5352
745.6380, 217.2773
746.7870, 247.0195
747.9360, 130.2383
749.0850, 337.4219
750.2340, 86.08594
751.3830, 40.25781
752.5310, 208.3633
753.6800, 248.0156
754.8280, 167.6328
755.9760, 275.2500
757.1240, 10.86328
758.2720, 227.4648
759.4190, 164.0625
760.5670, 372.6602
761.7140, 244.2539
762.8610, 131.8477
764.0080, 404.4414
765.1550, 82.03125
766.3020, 295.6133
767.4480, 138.1953
768.5950, 147.7773
769.7410, 322.3555
770.8870, 269.9336
772.0330, 172.5039
773.1780, 281.0781
774.3240, 131.6445
775.4690, 173.2109
776.6140, 234.7695
777.7590, 47.33203
778.9040, 95.87500
780.0490, 80.37109
781.1940, 124.9102
782.3380, 156.4414
783.4820, 82.97656
784.6260, 13.50391
785.7700, 125.0039
786.9140, 119.5039
788.0580, 167.9961
789.2010, 16.48438
790.3450, 108.0469
791.4880, 416.3398
792.6310, 68.71484
793.7730, 140.0898
794.9160, 245.4570
796.0590, 141.8164
797.2010, 298.1758
798.3430, 0.5312500
799.4850, 232.8477
800.6270, 183.1641
801.7690, 140.4766
802.9100, 37.22266
804.0520, 261.0352
805.1930, 275.2852
806.3340, 342.5312
807.4750, 390.8438
808.6160, 331.0000
809.7560, 331.2305
810.8970, 246.4570
812.0370, 178.7344
813.1770, 107.9492
814.3170, 18.16016
815.4570, 60.36719
816.5960, 232.0000
817.7360, 119.8125
818.8750, 219.9805
820.0140, 178.3516
821.1530, 193.5625
822.2920, 211.3945
823.4310, 188.4648
824.5690, 186.0430
825.7070, 68.18750
826.8460, 0.3242190
827.9840, 14.21484
829.1220, 9.917969
830.2590, 33.58203
831.3970, 95.63281
832.5340, 106.6797
833.6710, 105.0703
834.8080, 75.11328
835.9450, 158.1484
837.0820, 47.18359
838.2190, 258.3867
839.3550, 183.4102
840.4910, 64.46484
841.6270, 148.2539
842.7630, 95.02734
843.8990, 26.95312
845.0350, 27.96484
846.1700, 149.0078
847.3060, 37.20312
848.4410, 86.19531
849.5760, 9.691406
850.7100, 12.00391
851.8450, 172.7422
852.9800, 1.746094
854.1140, 14.34375
855.2480, 279.6680
856.3820, 155.4531
857.5160, 39.01172
858.6500, 82.57031
859.7830, 95.13281
860.9170, 38.30469
862.0500, 95.24219
863.1830, 41.78906
864.3160, 15.33594
865.4480, 23.66016
866.5810, 160.2109
867.7130, 342.7695
868.8460, 175.3281
869.9780, 334.8945
871.1100, 195.4453
872.2410, 49.01953
873.3730, 18.59766
874.5050, 71.17969
875.6360, 151.7656
876.7670, 154.3594
877.8980, 27.95312
879.0290, 12.55859
880.1590, 126.8398
881.2900, 207.7188
882.4200, 147.2734
883.5500, 125.8438
884.6800, 24.02734
885.8100, 129.6094
886.9400, 49.19531
888.0690, 42.53906
889.1990, 0.8593750
890.3280, 319.7500
891.4570, 83.36328
892.5860, 260.9844
893.7140, 435.9805
894.8430, 384.6172
895.9710, 330.1602
897.1000, 129.9258
898.2280, 112.5938
899.3560, 112.2734
900.4830, 272.9609
901.6110, 448.6602
902.7380, 325.3672
903.8660, 406.1367
904.9930, 62.81641
906.1200, 278.5547
907.2460, 252.3047
908.3730, 74.06250
909.5000, 261.8359
910.6260, 239.6172
911.7520, 271.4141
912.8780, 161.2188
914.0040, 115.3906
915.1290, 332.2188
916.2550, 206.0703
917.3800, 453.9297
918.5050, 459.8008
919.6300, 361.6836
920.7550, 460.4883
921.8800, 397.3984
923.0040, 219.3203
924.1290, 246.2617
925.2530, 264.1875
926.3770, 166.9102
927.5010, 326.8867
928.6250, 249.6484
929.7480, 13.66406
930.8720, 227.6875
931.9950, 437.7266
933.1180, 327.7891
934.2410, 128.8789
935.3640, 331.9648
936.4860, 355.0703
937.6090, 423.1875
938.7310, 374.0938
939.8530, 239.2539
940.9750, 334.4258
942.0970, 334.6133
943.2180, 309.8359
944.3400, 446.1016
945.4610, 266.3789
946.5820, 375.6953
947.7030, 474.0273
948.8240, 335.3789
949.9450, 497.6836
951.0650, 575.5508
952.1860, 513.2227
953.3060, 449.4102
954.4260, 421.8711
955.5460, 439.3594
956.6650, 294.8828
957.7850, 368.4297
958.9040, 463.0039
960.0230, 592.6055
961.1420, 553.0547
962.2610, 392.0352
963.3800, 539.7891
964.4990, 422.3906
965.6170, 594.0586
966.7350, 558.8398
967.8530, 523.6406
968.9710, 1060.492
970.0890, 1064.371
971.2070, 755.2695
972.3240, 612.7656
973.4410, 412.7266
974.5580, 545.7148
975.6750, 529.7656
976.7920, 760.8672
977.9090, 761.0039
979.0250, 542.1016
980.1410, 713.2031
981.2580, 684.2500
982.3740, 630.9023
983.4890, 329.2305
984.6050, 604.7734
985.7200, 607.6719
986.8360, 375.2227
987.9510, 534.9883
989.0660, 690.9961
990.1810, 837.7852
991.2950, 876.4922
992.4100, 499.0469
993.5240, 916.7227
994.6390, 647.4258
995.7530, 619.6094
996.8660, 684.3828
997.9800, 810.2070
999.0940, 695.0664
1000.207, 599.9570
1001.320, 621.9062
1002.433, 727.8789
1003.546, 939.8906
1004.659, 817.9375
1005.772, 877.0352
1006.884, 775.1680
1007.996, 720.3281
1009.108, 703.5195
1010.220, 744.7422
1011.332, 707.9961
1012.444, 784.2969
1013.555, 627.6328
1014.666, 592.3047
1015.777, 702.7461
1016.888, 753.2227
1017.999, 745.7500
1019.110, 1100.344
1020.220, 808.9727
1021.331, 636.6797
1022.441, 880.4453
1023.551, 765.2031
1024.661, 684.0273
1025.770, 757.8789
1026.880, 855.7656
1027.989, 807.6914
1029.098, 998.6523
1030.207, 624.6367
1031.316, 805.7109
1032.425, 808.8203
1033.533, 852.9570
1034.642, 908.1211
1035.750, 967.3242
1036.858, 681.5586
1037.966, 1088.824
1039.073, 901.1250
1040.181, 729.4531
1041.288, 934.8164
1042.396, 993.2109
1043.503, 1122.637
1044.610, 859.0977
1045.716, 1139.594
1046.823, 977.1133
1047.929, 1101.676
1049.036, 1112.270
1050.142, 920.8984
1051.248, 1212.559
1052.353, 1110.250
1053.459, 823.9766
1054.564, 964.7422
1055.670, 1120.543
1056.775, 984.3750
1057.880, 833.2383
1058.985, 1089.141
1060.089, 931.1211
1061.194, 1299.137
1062.298, 976.1797
1063.402, 993.2578
1064.506, 991.3672
1065.610, 1046.512
1066.713, 1068.688
1067.817, 1219.910
1068.920, 896.1680
1070.023, 772.4492
1071.126, 1188.770
1072.229, 914.1445
1073.332, 1236.551
1074.435, 1188.988
1075.537, 1131.406
1076.639, 1171.242
1077.741, 1149.773
1078.843, 1314.758
1079.945, 952.3594
1081.046, 1127.008
1082.148, 895.6875
1083.249, 734.4102
1084.350, 1175.164
1085.451, 1036.953
1086.551, 1221.773
1087.652, 873.6211
1088.752, 886.1250
1089.853, 981.2148
1090.953, 1211.160
1092.053, 958.1289
1093.152, 957.1289
1094.252, 1301.160
1095.351, 1122.305
1096.451, 983.3906
1097.550, 1011.547
1098.649, 1043.734
1099.748, 884.9531
1100.846, 927.2070
1101.945, 1048.480
1103.043, 1065.816
1104.141, 1025.184
1105.239, 1008.582
1106.337, 937.0039
1107.434, 926.0430
1108.532, 914.9688
1109.629, 888.4492
1110.726, 927.9844
1111.823, 932.3047
1112.920, 963.9258
1114.017, 910.6211
1115.113, 863.2734
1116.210, 1062.035
1117.306, 946.8320
1118.402, 976.6641
1119.498, 1131.566
1120.593, 1107.496
1121.689, 1035.461
1122.784, 1099.527
1123.879, 1207.613
1124.974, 1127.730
1126.069, 983.8711
1127.164, 959.5898
1128.259, 833.7891
1129.353, 774.6875
1130.447, 717.2617
1131.541, 612.4844
1132.635, 630.9570
1133.729, 498.2773
1134.822, 503.0117
1135.916, 377.3828
1137.009, 803.7734
1138.102, 365.1875
1139.195, 716.6211
1140.288, 511.0820
1141.380, 269.5625
1142.473, 683.0625
1143.565, 459.9141
1144.657, 517.4570
1145.749, 462.3906
1146.841, 622.0078
1147.932, 558.7539
1149.024, 519.7227
1150.115, 518.7500
1151.206, 349.4492
1152.297, 320.9180
1153.388, 197.6562
1154.479, 298.4141
1155.569, 207.1875
1156.659, 226.9844
1157.750, 216.7930
1158.839, 493.6172
1159.929, 316.4688
1161.019, 466.3320
1162.108, 313.1875
1163.198, 350.0859
1164.287, 227.0117
1165.376, 187.9414
1166.465, 192.1250
1167.553, 184.8867
1168.642, 197.8789
1169.730, 172.5156
1170.818, 405.9062
1171.906, 170.9414
1172.994, 83.01172
1174.082, 176.0938
1175.170, 353.2930
1176.257, 317.4102
1177.344, 308.5430
1178.431, 285.8945
1179.518, 444.0547
1180.605, 305.2266
1181.691, 428.4141
1182.778, 330.6172
1183.864, 367.8281
1184.950, 195.0547
1186.036, 160.2852
1187.122, 224.5352
1188.207, 77.80078
1189.292, 174.0742
1190.378, 163.3594
1191.463, 144.0273
1192.548, 105.9648
1193.632, 135.2773
1194.717, 159.6094
1195.801, 105.9453
1196.886, 266.2930
1197.970, 141.6562
1199.054, 141.0234
1200.137, 311.4062
1201.221, 143.7969
1202.305, 349.1953
1203.388, 191.6016
1204.471, 39.01953
1205.554, 77.48828
1206.637, 117.9609
1207.719, 283.2773
1208.802, 65.34766
1209.884, 101.0078
1210.966, 307.8906
1212.048, 39.26562
1213.130, 165.6445
1214.212, 86.03516
1215.293, 262.4297
1216.374, 70.83203
1217.456, 4.242188
1218.536, 42.33984
1219.617, 6.937500
1220.698, 206.4688
1221.778, 141.8828
1222.859, 139.2969
1223.939, 120.7227
1225.019, 0.8437500
1226.099, 111.4141
1227.178, 94.02734
1228.258, 218.3203
1229.337, 17.81641
1230.417, 208.1797
1231.496, 260.5508
1232.574, 68.60156
1233.653, 59.97656
1234.732, 210.3555
1235.810, 94.73828
1236.888, 381.1211
1237.966, 210.5000
1239.044, 17.89062
1240.122, 196.2773
1241.199, 25.31250
1242.277, 21.08984
1243.354, 297.4922
1244.431, 144.1016
1245.508, 87.22656
1246.585, 73.56250
1247.661, 69.89453
1248.738, 268.2305
1249.814, 140.5625
1250.890, 28.89844
1251.966, 143.2305
1253.042, 98.56250
1254.117, 83.89062
1255.193, 133.2148
1256.268, 28.45703
1257.343, 101.0703
1258.418, 84.62891
