##NAMES=Arsenopyrite
##RRUFFID=R050071
##IDEAL CHEMISTRY=Fe^3+^(AsS)^3-^
##LOCALITY=Yaogangxian mine, Yizhang County, Hunan Province, China
##OWNER=RRUFF
##SOURCE=Rock Currier
##DESCRIPTION=Steel-gray tabular
##STATUS=The identification of this mineral has been confirmed by X-ray diffraction and chemical analysis
##URL=rruff.info/R050071
##MEASURED CHEMISTRY=FeAsS
##PIN_ID=L00187
##ORIENTATION=Laser parallel to a* (1 0 0). Fiducial mark perpendicular to laser is parallel to b [0 1 0]
71.24100, 0.0000000E+00
72.47700, 3309.354
73.71400, 10469.12
74.95100, 16291.44
76.18700, 20512.92
77.42300, 19365.87
78.65900, 16125.31
79.89500, 10741.01
81.13100, 4883.887
82.36700, 1370.529
83.60200, 1205.191
84.83700, 655.4453
86.07200, 91.05859
87.30800, 210.4629
88.54200, 403.6836
89.77700, 512.4570
91.01200, 937.2031
92.24600, 1628.996
93.48000, 607.9883
94.71400, 304.7461
95.94800, 397.5820
97.18200, 189.8945
98.41600, 117.7617
99.64900, 50.14844
100.8830, 73.82422
102.1160, 270.7539
103.3490, 1489.975
104.5820, 3542.320
105.8150, 6239.797
107.0470, 10790.19
108.2800, 16600.07
109.5120, 17403.77
110.7440, 12702.88
111.9760, 15684.02
113.2080, 20832.06
114.4400, 22421.88
115.6710, 25278.08
116.9030, 26966.31
118.1340, 23987.18
119.3650, 29866.25
120.5960, 16780.62
121.8270, 6802.451
123.0580, 3212.938
124.2880, 1488.102
125.5190, 479.1504
126.7490, 506.1211
127.9790, 117.4023
129.2090, 120.0664
130.4390, 168.7266
131.6680, 243.4355
132.8980, 62.23828
134.1270, 118.8145
135.3560, 458.3203
136.5850, 692.6816
137.8140, 588.2988
139.0430, 349.9961
140.2710, 352.9707
141.5000, 70.82422
142.7280, 0.4628910
143.9560, 101.1953
145.1840, 227.4473
146.4120, 350.9980
147.6390, 178.3965
148.8670, 129.6895
150.0940, 81.31055
151.3210, 274.0918
152.5490, 353.1465
153.7750, 511.8457
155.0020, 731.0039
156.2290, 637.0898
157.4550, 1092.848
158.6810, 746.5879
159.9080, 899.6992
161.1340, 1222.500
162.3590, 1181.527
163.5850, 943.0566
164.8110, 925.6758
166.0360, 788.4668
167.2610, 691.4102
168.4860, 682.4883
169.7110, 860.6875
170.9360, 824.9922
172.1610, 892.5645
173.3850, 752.9238
174.6100, 921.4355
175.8340, 795.0645
177.0580, 525.8203
178.2820, 861.7559
179.5050, 745.3066
180.7290, 489.4219
181.9520, 290.1270
183.1760, 167.0820
184.3990, 343.9668
185.6220, 414.5703
186.8450, 610.1230
188.0670, 827.6113
189.2900, 991.0234
190.5120, 1203.355
191.7340, 1370.604
192.9560, 1235.771
194.1780, 1743.857
195.4000, 1563.869
196.6220, 1463.801
197.8430, 1598.652
199.0640, 1831.422
200.2860, 1750.104
201.5070, 1652.992
202.7270, 1723.098
203.9480, 1131.479
205.1690, 590.7852
206.3890, 139.0195
207.6090, 259.8184
208.8290, 114.7285
210.0490, 269.7090
211.2690, 2.761719
212.4890, 193.0898
213.7080, 372.5059
214.9280, 119.4648
216.1470, 827.2832
217.3660, 362.9980
218.5850, 273.9805
219.8030, 127.0664
221.0220, 138.9453
222.2400, 36.93555
223.4590, 121.8008
224.6770, 124.6309
225.8950, 184.1523
227.1120, 289.0996
228.3300, 201.8965
229.5480, 276.4434
230.7650, 290.8438
231.9820, 144.2871
233.1990, 22.12500
234.4160, 189.5605
235.6330, 15.04492
236.8490, 145.5723
238.0660, 219.2559
239.2820, 137.1309
240.4980, 166.7969
241.7140, 87.41211
242.9300, 43.48828
244.1460, 181.5918
245.3610, 37.74414
246.5770, 7.035156
247.7920, 96.65820
249.0070, 33.32812
250.2220, 108.1816
251.4370, 143.4785
252.6510, 228.8203
253.8660, 310.5371
255.0800, 390.8242
256.2940, 630.3672
257.5080, 1633.502
258.7220, 5616.453
259.9360, 3656.285
261.1490, 5090.760
262.3630, 2032.105
263.5760, 1631.242
264.7890, 1578.178
266.0020, 1939.920
267.2150, 1777.475
268.4270, 1673.854
269.6400, 1209.057
270.8520, 999.0898
272.0640, 510.9609
273.2760, 525.6484
274.4880, 537.1055
275.7000, 644.4141
276.9120, 661.9355
278.1230, 637.8379
279.3340, 670.2266
280.5450, 631.3594
281.7560, 631.1133
282.9670, 554.6113
284.1780, 507.9824
285.3880, 420.1777
286.5980, 594.8008
287.8090, 559.4512
289.0190, 452.8770
290.2290, 647.6855
291.4380, 606.5059
292.6480, 295.9375
293.8570, 498.3945
295.0670, 564.7617
296.2760, 620.0664
297.4850, 672.2266
298.6930, 647.4277
299.9020, 689.0664
301.1110, 653.2695
302.3190, 711.9219
303.5270, 832.8477
304.7350, 894.3086
305.9430, 826.5449
307.1510, 754.5723
308.3580, 815.4609
309.5660, 847.2695
310.7730, 932.0449
311.9800, 912.7852
313.1870, 942.3438
314.3940, 1129.160
315.6010, 923.7930
316.8070, 830.3926
318.0130, 765.9453
319.2200, 970.4551
320.4260, 898.6035
321.6310, 914.3555
322.8370, 977.7520
324.0430, 957.0957
325.2480, 1005.383
326.4540, 831.6172
327.6590, 1099.693
328.8640, 757.8027
330.0680, 1068.764
331.2730, 1000.830
332.4780, 1195.869
333.6820, 1139.875
334.8860, 1016.850
336.0900, 972.7988
337.2940, 1232.717
338.4980, 1113.609
339.7010, 977.4746
340.9050, 1201.309
342.1080, 1009.117
343.3110, 989.9023
344.5140, 1111.662
345.7170, 1193.396
346.9200, 1045.105
348.1220, 1101.793
349.3240, 1173.455
350.5270, 1109.094
351.7290, 970.7051
352.9310, 1057.082
354.1320, 1126.627
355.3340, 866.5117
356.5350, 910.2148
357.7370, 941.8164
358.9380, 1114.324
360.1390, 1133.504
361.3400, 850.9805
362.5400, 947.4492
363.7410, 696.5742
364.9410, 774.7812
366.1410, 854.5625
367.3410, 1121.465
368.5410, 794.2695
369.7410, 874.1484
370.9400, 857.9375
372.1400, 782.3945
373.3390, 474.0508
374.5380, 647.7500
375.7370, 727.2656
376.9360, 570.7109
378.1350, 755.6367
379.3330, 703.0156
380.5310, 632.0898
381.7300, 676.7188
382.9280, 439.4805
384.1260, 643.1602
385.3230, 425.0273
386.5210, 415.3750
387.7180, 371.5000
388.9160, 567.2461
390.1130, 542.7695
391.3100, 503.3789
392.5060, 564.6602
393.7030, 171.1953
394.9000, 506.3125
396.0960, 438.6523
397.2920, 309.8008
398.4880, 535.0703
399.6840, 611.0312
400.8800, 567.9336
402.0750, 341.8047
403.2710, 788.6445
404.4660, 638.4531
405.6610, 905.2305
406.8560, 479.9805
408.0510, 498.7031
409.2450, 777.3984
410.4400, 620.0664
411.6340, 631.7148
412.8280, 774.3438
414.0220, 516.9453
415.2160, 545.5273
416.4100, 628.2773
417.6030, 723.1211
418.7970, 428.0273
419.9900, 683.5430
421.1830, 502.0430
422.3760, 470.4844
423.5690, 547.9609
424.7610, 722.4062
425.9540, 591.8359
427.1460, 585.7617
428.3380, 475.1484
429.5300, 636.0625
430.7220, 768.4141
431.9140, 655.4766
433.1050, 566.0273
434.2970, 798.6250
435.4880, 712.1680
436.6790, 637.4141
437.8700, 521.5234
439.0610, 430.2812
440.2510, 354.2461
441.4420, 539.2188
442.6320, 605.2188
443.8220, 616.2383
445.0120, 700.8945
446.2020, 679.1055
447.3910, 716.5078
448.5810, 658.6602
449.7700, 576.8398
450.9600, 590.0742
452.1490, 582.3242
453.3370, 608.6016
454.5260, 563.9375
455.7150, 636.3398
456.9030, 544.7695
458.0910, 692.2188
459.2800, 630.7305
460.4670, 578.2617
461.6550, 399.8281
462.8430, 399.4141
464.0300, 666.0352
465.2180, 697.6797
466.4050, 502.3516
467.5920, 614.0508
468.7790, 581.7852
469.9650, 720.5430
471.1520, 891.3438
472.3380, 867.1953
473.5250, 792.1016
474.7110, 608.0391
475.8970, 687.0078
477.0820, 692.0078
478.2680, 865.0391
479.4540, 813.1172
480.6390, 756.2383
481.8240, 748.3867
483.0090, 712.5742
484.1940, 808.7969
485.3780, 912.0469
486.5630, 956.3359
487.7470, 951.6602
488.9320, 937.0156
490.1160, 821.4062
491.3000, 728.8320
492.4830, 688.3086
493.6670, 874.7969
494.8500, 685.3555
496.0340, 867.0898
497.2170, 1119.949
498.4000, 859.9688
499.5820, 944.0820
500.7650, 1089.250
501.9480, 1093.453
503.1300, 1088.082
504.3120, 1016.027
505.4940, 910.3750
506.6760, 924.8867
507.8580, 702.5195
509.0390, 1104.227
510.2210, 920.0156
511.4020, 1143.930
512.5830, 1231.973
513.7640, 1163.160
514.9450, 1148.527
516.1250, 1134.039
517.3060, 1200.727
518.4860, 1306.609
519.6660, 1096.637
520.8460, 1315.773
522.0260, 1112.066
523.2060, 1248.477
524.3850, 1305.156
525.5650, 1151.516
526.7440, 1089.391
527.9230, 986.3359
529.1020, 1164.480
530.2810, 1127.688
531.4590, 1021.969
532.6380, 869.3750
533.8160, 895.0352
534.9940, 996.5156
536.1720, 1005.023
537.3500, 942.8516
538.5270, 1214.758
539.7050, 934.7461
540.8820, 1010.797
542.0590, 1228.324
543.2360, 1244.484
544.4130, 1222.691
545.5900, 1399.949
546.7660, 1038.250
547.9430, 1193.605
549.1190, 1128.012
550.2950, 1245.469
551.4710, 1163.973
552.6470, 1169.477
553.8220, 1275.172
554.9980, 1139.848
556.1730, 1284.578
557.3480, 1311.355
558.5230, 1054.188
559.6980, 1186.395
560.8730, 1408.398
562.0470, 1274.457
563.2220, 1343.590
564.3960, 1523.801
565.5700, 1331.957
566.7440, 1222.273
567.9170, 1429.645
569.0910, 1226.320
570.2640, 1333.141
571.4380, 1354.953
572.6110, 1410.820
573.7840, 1158.461
574.9570, 1168.039
576.1290, 1195.793
577.3020, 863.9805
578.4740, 874.5391
579.6460, 1124.461
580.8180, 514.5234
581.9900, 897.5469
583.1620, 683.9219
584.3330, 622.1211
585.5040, 600.5469
586.6760, 208.2578
587.8470, 505.7148
589.0180, 716.0312
590.1880, 290.3945
591.3590, 610.5859
592.5290, 264.0469
593.7000, 491.5586
594.8700, 456.1367
596.0400, 444.8203
597.2090, 460.4805
598.3790, 504.2070
599.5490, 218.7148
600.7180, 284.5273
601.8870, 241.3828
603.0560, 286.2812
604.2250, 351.2188
605.3940, 177.1992
606.5620, 289.2227
607.7300, 195.2891
608.8990, 371.3984
610.0670, 253.5508
611.2350, 301.7383
612.4020, 304.2148
613.5700, 288.0391
614.7370, 331.5938
615.9050, 325.9531
617.0720, 469.3516
618.2390, 539.7930
619.4060, 317.4609
620.5720, 430.6680
621.7390, 215.2266
622.9050, 376.8242
624.0710, 439.4609
625.2370, 234.1367
626.4030, 365.8555
627.5690, 442.6094
628.7340, 352.4023
629.9000, 499.2344
631.0650, 338.1055
632.2300, 577.0117
633.3950, 289.9609
634.5600, 277.9414
635.7240, 136.6719
636.8890, 84.08203
638.0530, 424.8242
639.2170, 96.94922
640.3810, 306.1172
641.5450, 424.3164
642.7080, 269.5469
643.8720, 17.47266
645.0350, 432.7773
646.1980, 27.11328
647.3610, 117.4766
648.5240, 144.3711
649.6870, 116.7969
650.8490, 151.6992
652.0120, 143.0508
653.1740, 131.2734
654.3360, 155.8281
655.4980, 126.4062
656.6600, 161.0156
657.8210, 189.0859
658.9830, 168.7461
660.1440, 150.2617
661.3050, 198.4258
662.4660, 67.16016
663.6270, 14.33984
664.7870, 52.56250
665.9480, 142.2344
667.1080, 209.0508
668.2680, 72.10938
669.4280, 325.8359
670.5880, 282.7031
671.7480, 140.5234
672.9070, 385.4297
674.0670, 21.19141
675.2260, 91.86719
676.3850, 22.07422
677.5440, 70.03516
678.7030, 148.0117
679.8610, 109.0039
681.0200, 32.99219
682.1780, 36.02344
683.3360, 99.05469
684.4940, 189.1016
685.6520, 202.1602
686.8090, 279.2344
687.9670, 224.7734
689.1240, 47.01172
690.2810, 140.1250
691.4380, 69.03906
692.5950, 121.1797
693.7520, 98.98047
694.9080, 131.4961
696.0650, 20.67188
697.2210, 40.85938
698.3770, 57.94141
699.5330, 154.7852
700.6880, 156.9883
701.8440, 97.48047
702.9990, 317.6445
704.1550, 168.1250
705.3100, 26.17969
706.4650, 31.59766
707.6190, 203.2148
708.7740, 186.1133
709.9290, 320.0859
711.0830, 59.19141
712.2370, 17.67969
713.3910, 27.44141
714.5450, 18.43750
715.6980, 11.67969
716.8520, 19.80078
718.0050, 38.07812
719.1580, 0.9687500
720.3110, 81.85547
721.4640, 85.25000
722.6170, 2.656250
723.7700, 26.05859
724.9220, 100.9375
726.0740, 128.2305
727.2260, 67.83594
728.3780, 216.5820
729.5300, 116.1523
730.6810, 218.5430
731.8330, 296.2383
732.9840, 117.0664
734.1350, 168.0664
735.2860, 20.72656
736.4370, 179.4141
737.5880, 104.0352
738.7380, 283.2188
739.8880, 30.71484
741.0390, 119.2148
742.1890, 132.7109
743.3380, 177.2070
744.4880, 111.7031
745.6380, 145.4883
746.7870, 309.7070
747.9360, 111.1992
749.0850, 277.6992
750.2340, 192.4258
751.3830, 46.07812
752.5310, 148.3828
753.6800, 71.90234
754.8280, 61.35547
755.9760, 500.8086
757.1240, 27.73828
758.2720, 0.3164060
759.4190, 179.0898
760.5670, 419.4922
761.7140, 313.8906
762.8610, 368.5352
764.0080, 224.6797
765.1550, 197.0703
766.3020, 184.4609
767.4480, 64.84766
768.5950, 292.2344
769.7410, 133.6172
770.8870, 623.9922
772.0330, 126.3672
773.1780, 27.25781
774.3240, 219.0781
775.4690, 290.4102
776.6140, 331.7344
777.7590, 288.0625
778.9040, 175.3750
780.0490, 226.6953
781.1940, 36.00781
782.3380, 75.31250
783.4820, 168.6055
784.6260, 121.9023
785.7700, 18.18750
786.9140, 166.4609
788.0580, 69.72266
789.2010, 183.9883
790.3450, 299.2422
791.4880, 121.4961
792.6310, 179.7461
793.7730, 186.9883
794.9160, 13.77734
796.0590, 242.4258
797.2010, 282.6250
798.3430, 27.81641
799.4850, 330.9922
800.6270, 18.16016
801.7690, 455.1875
802.9100, 284.6914
804.0520, 347.8359
805.1930, 862.9688
806.3340, 40.96875
807.4750, 195.1094
808.6160, 37.81641
809.7560, 94.21094
810.8970, 1.765625
812.0370, 206.2266
813.1770, 355.4414
814.3170, 257.4258
815.4570, 249.4023
816.5960, 285.3789
817.7360, 216.2734
818.8750, 455.8984
820.0140, 182.8633
821.1530, 273.8242
822.2920, 327.7773
823.4310, 189.7266
824.5690, 189.6758
825.7070, 46.62109
826.8460, 162.5547
827.9840, 36.51172
829.1220, 139.3711
830.2590, 346.2539
831.3970, 190.1289
832.5340, 198.0039
833.6710, 334.8789
834.8080, 75.74219
835.9450, 204.7031
837.0820, 228.0352
838.2190, 81.23047
839.3550, 24.56641
840.4910, 310.0664
841.6270, 22.79688
842.7630, 48.41406
843.8990, 95.02344
845.0350, 142.3828
846.1700, 60.64844
847.3060, 145.9844
848.4410, 105.7617
849.5760, 44.92969
850.7100, 108.6680
851.8450, 72.28125
852.9800, 131.8867
854.1140, 117.5430
855.2480, 121.0625
856.3820, 61.58594
857.5160, 25.20312
858.6500, 17.67188
859.7830, 12.92969
860.9170, 8.414063
862.0500, 7.472656
863.1830, 0.9453130
864.3160, 77.55078
865.4480, 41.83984
866.5810, 130.9727
867.7130, 96.57031
868.8460, 67.16797
869.9780, 7.250000
871.1100, 86.73438
872.2410, 66.82031
873.3730, 94.39844
874.5050, 23.79297
875.6360, 103.7734
876.7670, 169.3359
877.8980, 129.9102
879.0290, 94.49219
880.1590, 86.52734
881.2900, 56.12500
882.4200, 24.28906
883.5500, 15.90625
884.6800, 14.52734
885.8100, 12.12891
886.9400, 131.8008
888.0690, 17.41797
889.1990, 3.929688
890.3280, 43.73828
891.4570, 225.4102
892.5860, 242.0938
893.7140, 88.59766
894.8430, 155.6172
895.9710, 96.33203
897.1000, 158.0586
898.2280, 59.79297
899.3560, 141.5430
900.4830, 10.30078
901.6110, 363.0742
902.7380, 68.85547
903.8660, 190.6523
904.9930, 403.4609
906.1200, 328.2773
907.2460, 395.1094
908.3730, 398.9531
909.5000, 75.09766
910.6260, 279.9648
911.7520, 192.3008
912.8780, 185.5156
914.0040, 287.6602
915.1290, 223.5859
916.2550, 347.5195
917.3800, 312.8164
918.5050, 194.7852
919.6300, 417.7656
920.7550, 333.4609
921.8800, 488.2812
923.0040, 420.3047
924.1290, 267.3516
925.2530, 408.4180
926.3770, 163.4961
927.5010, 488.5977
928.6250, 135.7109
929.7480, 469.8398
930.8720, 109.5547
931.9950, 501.7227
933.1180, 402.9062
934.2410, 283.8320
935.3640, 304.0469
936.4860, 429.5664
937.6090, 384.8359
938.7310, 414.7578
939.8530, 443.8477
940.9750, 390.8398
942.0970, 497.1250
943.2180, 488.5312
944.3400, 599.0352
945.4610, 382.4961
946.5820, 264.1406
947.7030, 323.6406
948.8240, 588.2031
949.9450, 650.7891
951.0650, 253.3984
952.1860, 393.0234
953.3060, 155.6836
954.4260, 517.3672
955.5460, 656.0664
956.6650, 474.7969
957.7850, 576.5508
958.9040, 505.3242
960.0230, 316.1250
961.1420, 291.3555
962.2610, 428.1992
963.3800, 330.2930
964.4990, 364.7539
965.6170, 442.1289
966.7350, 402.0820
967.8530, 357.0664
968.9710, 495.0703
970.0890, 763.0977
971.2070, 547.6250
972.3240, 320.7188
973.4410, 546.5625
974.5580, 383.8203
975.6750, 458.0469
976.7920, 581.2305
977.9090, 304.3320
979.0250, 661.7031
980.1410, 1237.145
981.2580, 857.6562
982.3740, 699.2656
983.4890, 885.9180
984.6050, 654.5938
985.7200, 760.3086
986.8360, 793.0469
987.9510, 758.8203
989.0660, 607.6211
990.1810, 763.4492
991.2950, 668.3125
992.4100, 821.2070
993.5240, 757.0938
994.6390, 810.6367
995.7530, 818.3672
996.8660, 596.5156
997.9800, 718.3203
999.0940, 549.4688
1000.207, 477.1406
1001.320, 799.3828
1002.433, 596.6836
1003.546, 379.0117
1004.659, 468.0430
1005.772, 675.2695
1006.884, 766.6328
1007.996, 479.1641
1009.108, 820.9961
1010.220, 553.6133
1011.332, 841.2656
1012.444, 741.9414
1013.555, 729.6641
1014.666, 844.4219
1015.777, 686.2109
1016.888, 754.0352
1017.999, 1029.887
1019.110, 915.7734
1020.220, 527.4609
1021.331, 880.4062
1022.441, 668.4023
1023.551, 744.3711
1024.661, 536.4297
1025.770, 843.5234
1026.880, 772.6484
1027.989, 765.8242
1029.098, 1026.031
1030.207, 867.2773
1031.316, 883.5547
1032.425, 735.8633
1033.533, 747.2070
1034.642, 789.2344
1035.750, 796.9883
1036.858, 949.4336
1037.966, 962.9062
1039.073, 1080.406
1040.181, 1098.945
1041.288, 915.5195
1042.396, 884.1211
1043.503, 828.7773
1044.610, 836.2852
1045.716, 824.1836
1046.823, 1009.941
1047.929, 951.7344
1049.036, 1168.559
1050.142, 1155.223
1051.248, 1060.312
1052.353, 1114.258
1053.459, 1224.242
1054.564, 1069.266
1055.670, 1339.328
1056.775, 920.4531
1057.880, 1232.574
1058.985, 1004.730
1060.089, 1085.922
1061.194, 1231.145
1062.298, 1295.355
1063.402, 1034.660
1064.506, 1143.012
1065.610, 1097.395
1066.713, 1067.203
1067.817, 1097.270
1068.920, 1012.344
1070.023, 1077.297
1071.126, 1278.848
1072.229, 1180.082
1073.332, 1261.707
1074.435, 1324.039
1075.537, 1139.754
1076.639, 1272.117
1077.741, 1199.918
1078.843, 1278.750
1079.945, 1275.137
1081.046, 1325.379
1082.148, 1222.320
1083.249, 1300.297
1084.350, 1170.305
1085.451, 1178.605
1086.551, 1220.707
1087.652, 1361.094
1088.752, 1208.699
1089.853, 1331.895
1090.953, 1148.121
1092.053, 1058.371
1093.152, 1033.660
1094.252, 1050.980
1095.351, 1208.598
1096.451, 1112.996
1097.550, 1402.301
1098.649, 863.7539
1099.748, 1634.254
1100.846, 1241.785
1101.945, 1121.348
1103.043, 1362.934
1104.141, 1141.457
1105.239, 989.1680
1106.337, 937.8594
1107.434, 1078.676
1108.532, 1141.488
1109.629, 1071.953
1110.726, 1001.855
1111.823, 935.8555
1112.920, 927.8125
1114.017, 836.7969
1115.113, 826.8086
1116.210, 976.8398
1117.306, 940.9062
1118.402, 1019.016
1119.498, 883.1484
1120.593, 1242.320
1121.689, 985.5117
1122.784, 1015.734
1123.879, 1123.977
1124.974, 827.2461
1126.069, 815.5391
1127.164, 756.8711
1128.259, 849.2227
1129.353, 794.1328
1130.447, 789.1289
1131.541, 741.6328
1132.635, 721.0977
1133.729, 646.0781
1134.822, 550.5938
1135.916, 596.1328
1137.009, 464.6914
1138.102, 553.2969
1139.195, 601.9414
1140.288, 585.6016
1141.380, 577.2891
1142.473, 444.0000
1143.565, 837.7305
1144.657, 616.0820
1145.749, 697.8555
1146.841, 338.6445
1147.932, 490.4570
1149.024, 534.4219
1150.115, 644.2734
1151.206, 199.1445
1152.297, 582.0391
1153.388, 385.9492
1154.479, 352.8828
1155.569, 452.8320
1156.659, 274.8047
1157.750, 374.7969
1158.839, 221.8086
1159.929, 224.8359
1161.019, 348.9062
1162.108, 308.9922
1163.198, 483.1016
1164.287, 391.2266
1165.376, 456.3711
1166.465, 462.5273
1167.553, 267.7031
1168.642, 573.8945
1169.730, 390.0195
1170.818, 442.0352
1171.906, 311.5820
1172.994, 319.8867
1174.082, 393.1641
1175.170, 52.45703
1176.257, 512.7617
1177.344, 138.1836
1178.431, 174.5234
1179.518, 325.8750
1180.605, 356.2383
1181.691, 348.0898
1182.778, 249.8594
1183.864, 250.7188
1184.950, 178.8203
1186.036, 53.26172
1187.122, 40.28516
1188.207, 285.1758
1189.292, 311.6445
1190.378, 56.13281
1191.463, 171.6289
1192.548, 35.86328
1193.632, 105.0312
1194.717, 30.56250
1195.801, 257.1094
1196.886, 370.6641
1197.970, 237.2344
1199.054, 66.95312
1200.137, 23.61719
1201.221, 115.8047
1202.305, 23.26172
1203.388, 192.2812
1204.471, 23.16406
1205.554, 156.3906
1206.637, 81.04297
1207.719, 196.7578
1208.802, 19.31641
1209.884, 58.87891
1210.966, 167.5469
1212.048, 55.95703
1213.130, 441.5977
1214.212, 149.1172
1215.293, 31.34766
1216.374, 151.7734
1217.456, 5.683594
1218.536, 10.13672
1219.617, 333.4102
1220.698, 303.9648
1221.778, 86.53125
1222.859, 143.1016
1223.939, 328.6836
1225.019, 59.73047
1226.099, 146.9805
1227.178, 15.45312
1228.258, 453.1094
1229.337, 357.2383
1230.417, 222.8125
1231.496, 205.3945
1232.574, 15.21484
1233.653, 29.24609
1234.732, 109.3789
1235.810, 200.0391
1236.888, 17.44531
1237.966, 97.06641
1239.044, 3.632813
1240.122, 70.80469
1241.199, 8.312500
1242.277, 291.6797
1243.354, 15.12109
1244.431, 139.5625
1245.508, 255.0039
1246.585, 95.46094
1247.661, 90.08594
1248.738, 173.3125
1249.814, 159.1055
1250.890, 34.57422
1251.966, 93.04688
1253.042, 453.5195
1254.117, 81.98828
1255.193, 432.4648
1256.268, 148.9414
1257.343, 270.4102
