##NAMES=Arsenopyrite
##RRUFFID=R050071
##IDEAL CHEMISTRY=Fe^3+^(AsS)^3-^
##LOCALITY=Yaogangxian mine, Yizhang County, Hunan Province, China
##OWNER=RRUFF
##SOURCE=Rock Currier
##DESCRIPTION=Steel-gray tabular
##STATUS=The identification of this mineral has been confirmed by X-ray diffraction and chemical analysis
##URL=rruff.info/R050071
##MEASURED CHEMISTRY=FeAsS
##PIN_ID=L00055
##ORIENTATION=Laser parallel to b* (0 1 0). Fiducial mark perpendicular to laser is parallel to c [0 0 1]
71.24100, 0.0000000E+00
72.47700, 1361.711
73.71400, 8677.203
74.95100, 15406.39
76.18700, 21859.28
77.42300, 21471.55
78.65900, 19653.77
79.89500, 13604.00
81.13100, 4877.859
82.36700, 1183.709
83.60200, 681.0977
84.83700, 481.9922
86.07200, 126.9805
87.30800, 21.04102
88.54200, 7.798828
89.77700, 51.41992
91.01200, 422.2305
92.24600, 1000.174
93.48000, 507.8008
94.71400, 237.8398
95.94800, 430.0195
97.18200, 50.00000
98.41600, 163.3809
99.64900, 7.539063
100.8830, 117.8750
102.1160, 695.5312
103.3490, 1435.518
104.5820, 3529.717
105.8150, 7221.334
107.0470, 11968.13
108.2800, 18092.03
109.5120, 18427.71
110.7440, 13895.28
111.9760, 15657.11
113.2080, 19676.53
114.4400, 24548.60
115.6710, 27502.81
116.9030, 30409.19
118.1340, 34899.22
119.3650, 29488.75
120.5960, 13526.98
121.8270, 4614.400
123.0580, 2005.566
124.2880, 1485.617
125.5190, 417.1602
126.7490, 258.3965
127.9790, 2.314453
129.2090, 107.7090
130.4390, 203.5391
131.6680, 406.4961
132.8980, 288.6309
134.1270, 64.98047
135.3560, 142.5820
136.5850, 318.4766
137.8140, 52.31055
139.0430, 281.2910
140.2710, 371.3184
141.5000, 263.7129
142.7280, 174.0859
143.9560, 18.41211
145.1840, 139.3965
146.4120, 160.4707
147.6390, 133.2207
148.8670, 172.0234
150.0940, 739.3613
151.3210, 974.5371
152.5490, 1123.508
153.7750, 774.7070
155.0020, 805.3711
156.2290, 975.1426
157.4550, 1070.365
158.6810, 1265.613
159.9080, 1127.143
161.1340, 1334.779
162.3590, 1162.250
163.5850, 767.6875
164.8110, 754.1152
166.0360, 644.6270
167.2610, 625.2090
168.4860, 530.8496
169.7110, 623.5918
170.9360, 906.2715
172.1610, 814.0273
173.3850, 789.7383
174.6100, 814.0879
175.8340, 755.6504
177.0580, 704.4043
178.2820, 467.8008
179.5050, 549.3945
180.7290, 509.3887
181.9520, 440.5039
183.1760, 505.5684
184.3990, 504.3457
185.6220, 538.0527
186.8450, 502.6855
188.0670, 845.2402
189.2900, 838.7129
190.5120, 1083.102
191.7340, 1135.402
192.9560, 1280.621
194.1780, 1421.750
195.4000, 1430.795
196.6220, 1566.766
197.8430, 1481.656
199.0640, 1321.457
200.2860, 1495.174
201.5070, 1701.805
202.7270, 1604.350
203.9480, 1225.824
205.1690, 388.2266
206.3890, 82.56250
207.6090, 25.83203
208.8290, 316.9668
210.0490, 172.8320
211.2690, 89.75977
212.4890, 67.78711
213.7080, 72.37500
214.9280, 56.33984
216.1470, 200.0000
217.3660, 106.4121
218.5850, 171.4941
219.8030, 234.3203
221.0220, 117.6973
222.2400, 18.68359
223.4590, 101.4961
224.6770, 87.42578
225.8950, 72.56836
227.1120, 173.6367
228.3300, 104.7891
229.5480, 70.69531
230.7650, 168.1992
231.9820, 19.14062
233.1990, 34.77734
234.4160, 55.04688
235.6330, 69.00391
236.8490, 96.28320
238.0660, 48.38672
239.2820, 107.8652
240.4980, 36.16016
241.7140, 36.25391
242.9300, 92.15039
244.1460, 21.62695
245.3610, 167.9922
246.5770, 150.0605
247.7920, 351.1602
249.0070, 20.09766
250.2220, 109.8418
251.4370, 210.3164
252.6510, 22.62500
253.8660, 309.7266
255.0800, 272.2246
256.2940, 882.1094
257.5080, 1286.752
258.7220, 2799.207
259.9360, 4210.480
261.1490, 2563.568
262.3630, 1590.477
263.5760, 1470.205
264.7890, 1682.764
266.0020, 1635.156
267.2150, 1217.381
268.4270, 1656.455
269.6400, 835.3828
270.8520, 848.1719
272.0640, 638.8086
273.2760, 620.3008
274.4880, 327.9785
275.7000, 462.1953
276.9120, 609.2930
278.1230, 336.2734
279.3340, 548.1387
280.5450, 299.8711
281.7560, 347.5215
282.9670, 380.0645
284.1780, 591.8652
285.3880, 610.1406
286.5980, 658.9609
287.8090, 367.3652
289.0190, 478.4336
290.2290, 387.0508
291.4380, 511.9727
292.6480, 458.5059
293.8570, 525.7930
295.0670, 529.3672
296.2760, 498.4004
297.4850, 545.7891
298.6930, 505.0879
299.9020, 569.9727
301.1110, 477.0684
302.3190, 459.0332
303.5270, 495.6680
304.7350, 575.5781
305.9430, 589.2266
307.1510, 601.1777
308.3580, 661.1641
309.5660, 617.5254
310.7730, 660.8633
311.9800, 737.1777
313.1870, 651.4180
314.3940, 461.2480
315.6010, 717.4531
316.8070, 466.6660
318.0130, 689.8535
319.2200, 744.0078
320.4260, 612.1348
321.6310, 734.2285
322.8370, 664.2812
324.0430, 751.6152
325.2480, 769.2988
326.4540, 648.8945
327.6590, 807.9883
328.8640, 780.4961
330.0680, 780.6328
331.2730, 759.3945
332.4780, 788.1016
333.6820, 616.9512
334.8860, 649.9316
336.0900, 650.0762
337.2940, 640.3945
338.4980, 694.1777
339.7010, 688.8555
340.9050, 767.6992
342.1080, 744.4395
343.3110, 761.1641
344.5140, 841.8789
345.7170, 719.5801
346.9200, 833.2676
348.1220, 912.9473
349.3240, 948.6133
350.5270, 823.5332
351.7290, 970.4727
352.9310, 701.0332
354.1320, 950.3262
355.3340, 938.8047
356.5350, 612.6348
357.7370, 704.9805
358.9380, 616.1836
360.1390, 619.5527
361.3400, 697.0664
362.5400, 340.6230
363.7410, 711.1250
364.9410, 492.6230
366.1410, 669.3516
367.3410, 536.4727
368.5410, 693.0020
369.7410, 620.3008
370.9400, 674.4512
372.1400, 581.1641
373.3390, 471.1133
374.5380, 505.1152
375.7370, 443.9141
376.9360, 368.3379
378.1350, 259.6172
379.3330, 560.5078
380.5310, 470.4648
381.7300, 607.7227
382.9280, 562.3594
384.1260, 461.9141
385.3230, 356.9531
386.5210, 427.9453
387.7180, 295.8672
388.9160, 301.1953
390.1130, 418.1484
391.3100, 296.6836
392.5060, 281.1797
393.7030, 386.5820
394.9000, 125.0039
396.0960, 268.5820
397.2920, 304.0625
398.4880, 309.9883
399.6840, 325.4297
400.8800, 333.9922
402.0750, 379.8750
403.2710, 462.0859
404.4660, 430.6328
405.6610, 532.1719
406.8560, 458.7383
408.0510, 378.3125
409.2450, 558.8789
410.4400, 614.4414
411.6340, 617.0039
412.8280, 710.5703
414.0220, 539.1328
415.2160, 574.6914
416.4100, 531.2930
417.6030, 567.8945
418.7970, 524.1406
419.9900, 540.9883
421.1830, 349.9648
422.3760, 615.4062
423.5690, 432.0625
424.7610, 561.2461
425.9540, 523.8633
427.1460, 706.7695
428.3380, 456.5312
429.5300, 720.3047
430.7220, 564.0859
431.9140, 490.0508
433.1050, 527.6055
434.2970, 498.7969
435.4880, 645.7891
436.6790, 505.7070
437.8700, 836.7930
439.0610, 680.9297
440.2510, 625.0898
441.4420, 587.2773
442.6320, 434.5039
443.8220, 571.7539
445.0120, 532.0312
446.2020, 492.3594
447.3910, 732.7148
448.5810, 632.1016
449.7700, 409.5195
450.9600, 671.9648
452.1490, 676.4453
453.3370, 517.9609
454.5260, 429.5039
455.7150, 575.0859
456.9030, 513.7070
458.0910, 784.3555
459.2800, 524.0508
460.4670, 612.7734
461.6550, 644.5312
462.8430, 558.3242
464.0300, 691.1523
465.2180, 651.0156
466.4050, 769.9141
467.5920, 587.8555
468.7790, 428.8359
469.9650, 747.8555
471.1520, 701.9102
472.3380, 458.0078
473.5250, 553.1523
474.7110, 796.3281
475.8970, 594.5469
477.0820, 819.8047
478.2680, 600.1016
479.4540, 895.4375
480.6390, 739.8125
481.8240, 666.2305
483.0090, 774.6875
484.1940, 737.1836
485.3780, 613.7188
486.5630, 597.2969
487.7470, 753.9180
488.9320, 768.5742
490.1160, 915.2773
491.3000, 638.0234
492.4830, 519.8086
493.6670, 861.6406
494.8500, 949.5469
496.0340, 631.5391
497.2170, 835.6992
498.4000, 1007.996
499.5820, 728.4062
500.7650, 836.9219
501.9480, 964.5547
503.1300, 1057.289
504.3120, 1040.168
505.4940, 950.1680
506.6760, 940.3008
507.8580, 1084.578
509.0390, 848.9727
510.2210, 913.4570
511.4020, 1093.055
512.5830, 1048.496
513.7640, 685.3242
514.9450, 958.2812
516.1250, 957.4492
517.3060, 1139.641
518.4860, 1191.961
519.6660, 1299.375
520.8460, 1168.867
522.0260, 1199.461
523.2060, 1388.422
524.3850, 952.2461
525.5650, 1167.168
526.7440, 1062.152
527.9230, 969.2188
529.1020, 1003.367
530.2810, 997.5977
531.4590, 994.9297
532.6380, 857.3242
533.8160, 821.7969
534.9940, 858.8203
536.1720, 963.9609
537.3500, 1076.473
538.5270, 1074.227
539.7050, 985.0664
540.8820, 923.6289
542.0590, 952.5859
543.2360, 1244.766
544.4130, 1416.152
545.5900, 1347.367
546.7660, 976.5352
547.9430, 1095.676
549.1190, 1135.824
550.2950, 1216.141
551.4710, 1301.906
552.6470, 1234.234
553.8220, 1211.566
554.9980, 1071.789
556.1730, 1132.539
557.3480, 1258.176
558.5230, 1026.910
559.6980, 1330.719
560.8730, 1049.613
562.0470, 1491.539
563.2220, 1295.965
564.3960, 1470.008
565.5700, 1373.102
566.7440, 1201.750
567.9170, 1122.965
569.0910, 1345.289
570.2640, 1325.656
571.4380, 1290.078
572.6110, 1230.547
573.7840, 1056.082
574.9570, 1057.680
576.1290, 1130.332
577.3020, 883.0312
578.4740, 1147.777
579.6460, 682.1641
580.8180, 702.0234
581.9900, 640.9453
583.1620, 875.7891
584.3330, 606.8242
585.5040, 316.9062
586.6760, 601.2383
587.8470, 250.8008
589.0180, 412.6641
590.1880, 85.00781
591.3590, 137.4336
592.5290, 376.9023
593.7000, 274.4102
594.8700, 650.9727
596.0400, 413.4102
597.2090, 108.1836
598.3790, 444.8828
599.5490, 378.6367
600.7180, 360.4375
601.8870, 252.2812
603.0560, 324.1758
604.2250, 144.1094
605.3940, 185.0234
606.5620, 373.1211
607.7300, 190.1953
608.8990, 238.3125
610.0670, 239.4727
611.2350, 244.6875
612.4020, 273.9492
613.5700, 248.2500
614.7370, 259.6406
615.9050, 303.0664
617.0720, 263.5391
618.2390, 468.0586
619.4060, 200.6133
620.5720, 398.2148
621.7390, 319.8594
622.9050, 485.5430
624.0710, 424.2656
625.2370, 576.0312
626.4030, 545.3398
627.5690, 542.3281
628.7340, 387.5820
629.9000, 512.5078
631.0650, 209.6992
632.2300, 188.7109
633.3950, 515.7578
634.5600, 306.8477
635.7240, 411.9766
636.8890, 186.1445
638.0530, 269.3477
639.2170, 429.5938
640.3810, 239.8672
641.5450, 289.6133
642.7080, 216.9648
643.8720, 351.3516
645.0350, 109.7930
646.1980, 111.2461
647.3610, 194.7383
648.5240, 196.2578
649.6870, 84.81250
650.8490, 108.3984
652.0120, 114.9844
653.1740, 173.3438
654.3360, 107.9922
655.4980, 8.324219
656.6600, 101.3828
657.8210, 49.12109
658.9830, 306.8828
660.1440, 119.6758
661.3050, 75.49609
662.4660, 60.66016
663.6270, 78.19531
664.7870, 2.082031
665.9480, 46.99219
667.1080, 65.70312
668.2680, 110.8789
669.4280, 72.85938
670.5880, 64.66797
671.7480, 65.76562
672.9070, 351.8164
674.0670, 60.11719
675.2260, 60.03906
676.3850, 36.95312
677.5440, 317.1445
678.7030, 24.25781
679.8610, 60.60547
681.0200, 99.53516
682.1780, 7.304688
683.3360, 14.12500
684.4940, 136.6211
685.6520, 22.54297
686.8090, 208.2695
687.9670, 106.2734
689.1240, 81.96094
690.2810, 44.80469
691.4380, 29.73438
692.5950, 52.12109
693.7520, 18.55078
694.9080, 0.6445310
696.0650, 211.2500
697.2210, 16.83594
698.3770, 10.18359
699.5330, 92.69922
700.6880, 106.3906
701.8440, 297.7969
702.9990, 67.33984
704.1550, 122.6367
705.3100, 75.83594
706.4650, 111.6484
707.6190, 58.32422
708.7740, 21.31641
709.9290, 52.32031
711.0830, 112.7422
712.2370, 113.5352
713.3910, 221.9961
714.5450, 225.0352
715.6980, 29.08984
716.8520, 116.1562
718.0050, 59.77344
719.1580, 183.2188
720.3110, 130.9258
721.4640, 60.16797
722.6170, 123.8047
723.7700, 171.8516
724.9220, 62.09766
726.0740, 108.0078
727.2260, 171.3125
728.3780, 267.3203
729.5300, 268.3906
730.6810, 153.4375
731.8330, 116.4922
732.9840, 131.5469
734.1350, 21.60547
735.2860, 45.82031
736.4370, 185.1914
737.5880, 64.41797
738.7380, 358.5625
739.8880, 366.6289
741.0390, 115.4609
742.1890, 158.5312
743.3380, 215.6055
744.4880, 306.6797
745.6380, 167.7578
746.7870, 187.8398
747.9360, 144.9219
749.0850, 325.0742
750.2340, 283.1602
751.3830, 387.2422
752.5310, 151.7500
753.6800, 270.8359
754.8280, 204.9180
755.9760, 266.2109
757.1240, 308.2969
758.2720, 435.3828
759.4190, 403.4688
760.5670, 160.5508
761.7140, 167.6328
762.8610, 244.7148
764.0080, 300.7930
765.1550, 367.8711
766.3020, 350.9492
767.4480, 203.0195
768.5950, 81.09375
769.7410, 112.1172
770.8870, 204.2266
772.0330, 192.2891
773.1780, 229.3477
774.3240, 358.4062
775.4690, 487.4609
776.6140, 335.5078
777.7590, 338.5586
778.9040, 24.60156
780.0490, 129.6211
781.1940, 342.6367
782.3380, 35.64844
783.4820, 257.6328
784.6260, 216.6211
785.7700, 159.5977
786.9140, 164.5742
788.0580, 156.5508
789.2010, 144.8047
790.3450, 44.74219
791.4880, 192.6875
792.6310, 180.6250
793.7730, 304.4648
794.9160, 271.3984
796.0590, 246.3242
797.2010, 211.2422
798.3430, 290.1562
799.4850, 370.0703
800.6270, 322.0312
801.7690, 132.6328
802.9100, 275.5117
804.0520, 257.4062
805.1930, 239.2852
806.3340, 374.1719
807.4750, 4.046875
808.6160, 112.8828
809.7560, 183.7148
810.8970, 173.5430
812.0370, 229.8594
813.1770, 293.1484
814.3170, 281.1328
815.4570, 165.9375
816.5960, 378.7383
817.7360, 231.8633
818.8750, 177.6562
820.0140, 247.2734
821.1530, 95.73047
822.2920, 160.3984
823.4310, 183.0781
824.5690, 130.0000
825.7070, 248.8867
826.8460, 91.64062
827.9840, 53.99219
829.1220, 90.17188
830.2590, 5.328125
831.3970, 140.6523
832.5340, 304.1562
833.6710, 325.4023
834.8080, 59.55859
835.9450, 350.9961
837.0820, 135.5195
838.2190, 1.929688
839.3550, 44.14844
840.4910, 69.66406
841.6270, 38.18359
842.7630, 8.187500
843.8990, 185.3203
845.0350, 129.0664
846.1700, 317.4453
847.3060, 183.8242
848.4410, 23.79297
849.5760, 10.44141
850.7100, 156.8867
851.8450, 408.2109
852.9800, 122.5352
854.1140, 203.8633
855.2480, 23.40234
856.3820, 36.10547
857.5160, 17.16406
858.6500, 26.45703
859.7830, 72.77734
860.9170, 183.0117
862.0500, 13.95703
863.1830, 0.2539060
864.3160, 236.5430
865.4480, 84.46484
866.5810, 146.5625
867.7130, 165.5898
868.8460, 150.6172
869.9780, 140.6445
871.1100, 26.84375
872.2410, 18.75781
873.3730, 21.21094
874.5050, 28.79688
875.6360, 110.0430
876.7670, 2.828125
877.8980, 220.8359
879.0290, 340.8477
880.1590, 122.8633
881.2900, 126.8828
882.4200, 214.9023
883.5500, 200.9297
884.6800, 44.03906
885.8100, 298.9609
886.9400, 102.9688
888.0690, 155.0234
889.1990, 316.9102
890.3280, 322.8477
891.4570, 6.792969
892.5860, 179.7383
893.7140, 117.6836
894.8430, 105.6367
895.9710, 438.5938
897.1000, 212.5547
898.2280, 317.5234
899.3560, 115.4922
900.4830, 526.4688
901.6110, 387.4531
902.7380, 316.4414
903.8660, 157.4336
904.9930, 145.4297
906.1200, 324.2188
907.2460, 154.2344
908.3730, 272.2617
909.5000, 367.2852
910.6260, 376.3242
911.7520, 455.3672
912.8780, 310.4180
914.0040, 434.4766
915.1290, 442.1172
916.2550, 224.1914
917.3800, 302.2734
918.5050, 195.3438
919.6300, 532.4453
920.7550, 321.5547
921.8800, 257.6719
923.0040, 729.7969
924.1290, 453.9336
925.2530, 249.0781
926.3770, 330.5430
927.5010, 510.7188
928.6250, 584.9102
929.7480, 369.1055
930.8720, 315.3203
931.9950, 198.5391
933.1180, 401.7656
934.2410, 577.0039
935.3640, 609.2852
936.4860, 210.5820
937.6090, 414.8906
938.7310, 285.2109
939.8530, 432.5391
940.9750, 632.8906
942.0970, 355.2500
943.2180, 304.8203
944.3400, 537.1328
945.4610, 741.5312
946.5820, 376.9375
947.7030, 192.3711
948.8240, 293.8203
949.9450, 272.2891
951.0650, 287.7734
952.1860, 550.2656
953.3060, 469.7891
954.4260, 329.3242
955.5460, 760.8750
956.6650, 531.1328
957.7850, 386.7383
958.9040, 365.3633
960.0230, 566.0352
961.1420, 784.7422
962.2610, 536.3594
963.3800, 761.1602
964.4990, 355.4492
965.6170, 434.8047
966.7350, 178.6094
967.8530, 802.4375
968.9710, 767.3359
970.0890, 1050.004
971.2070, 751.9375
972.3240, 394.9023
973.4410, 567.1953
974.5580, 453.8242
975.6750, 632.9492
976.7920, 566.5586
977.9090, 556.2227
979.0250, 631.7227
980.1410, 539.9453
981.2580, 791.1875
982.3740, 542.4531
983.4890, 480.5664
984.6050, 742.4570
985.7200, 635.7852
986.8360, 731.2070
987.9510, 618.6484
989.0660, 626.1562
990.1810, 671.7539
991.2950, 813.6680
992.4100, 543.4219
993.5240, 782.1055
994.6390, 474.7500
995.7530, 727.4180
996.8660, 675.0430
997.9800, 646.4961
999.0940, 779.2734
1000.207, 716.0234
1001.320, 635.8281
1002.433, 726.6523
1003.546, 580.5039
1004.659, 940.3789
1005.772, 755.1250
1006.884, 494.7422
1007.996, 548.5312
1009.108, 839.4531
1010.220, 826.4727
1011.332, 635.7617
1012.444, 732.8320
1013.555, 672.9297
1014.666, 696.0547
1015.777, 593.1992
1016.888, 627.4023
1017.999, 705.6289
1019.110, 583.3125
1020.220, 656.3008
1021.331, 544.3945
1022.441, 585.3047
1023.551, 821.6602
1024.661, 618.0430
1025.770, 865.2422
1026.880, 770.6797
1027.989, 751.1367
1029.098, 796.6250
1030.207, 817.1367
1031.316, 971.6719
1032.425, 808.2383
1033.533, 951.8281
1034.642, 1894.449
1035.750, 1358.520
1036.858, 2038.863
1037.966, 946.6055
1039.073, 804.4336
1040.181, 682.3086
1041.288, 1461.203
1042.396, 1119.129
1043.503, 774.0820
1044.610, 863.0625
1045.716, 856.0781
1046.823, 803.5781
1047.929, 929.1875
1049.036, 916.2969
1050.142, 1032.438
1051.248, 1170.598
1052.353, 886.7969
1053.459, 655.0234
1054.564, 1101.281
1055.670, 1153.559
1056.775, 973.0391
1057.880, 1071.375
1058.985, 1170.734
1060.089, 1163.168
1061.194, 1189.594
1062.298, 1071.043
1063.402, 1048.609
1064.506, 905.1133
1065.610, 890.6445
1066.713, 925.1641
1067.817, 1224.188
1068.920, 1008.801
1070.023, 1095.438
1071.126, 1025.102
1072.229, 964.7930
1073.332, 1029.727
1074.435, 851.4688
1075.537, 896.2344
1076.639, 896.0508
1077.741, 1078.887
1078.843, 1166.754
1079.945, 1245.641
1081.046, 1259.055
1082.148, 1087.520
1083.249, 1187.492
1084.350, 1007.496
1085.451, 939.8281
1086.551, 793.8867
1087.652, 751.2383
1088.752, 918.3477
1089.853, 760.4961
1090.953, 1103.668
1092.053, 1066.043
1093.152, 927.2656
1094.252, 812.5117
1095.351, 853.7852
1096.451, 799.3164
1097.550, 777.4961
1098.649, 835.8516
1099.748, 798.2812
1100.846, 811.3320
1101.945, 924.8125
1103.043, 808.3398
1104.141, 933.8906
1105.239, 983.9336
1106.337, 895.8008
1107.434, 818.4414
1108.532, 820.1055
1109.629, 1019.797
1110.726, 743.5156
1111.823, 1241.312
1112.920, 1000.133
1114.017, 823.3516
1115.113, 770.2188
1116.210, 924.1289
1117.306, 728.0625
1118.402, 751.8750
1119.498, 705.8516
1120.593, 666.3867
1121.689, 714.8555
1122.784, 745.4570
1123.879, 786.5469
1124.974, 786.6680
1126.069, 796.9844
1127.164, 788.9922
1128.259, 809.1875
1129.353, 714.4062
1130.447, 533.6484
1131.541, 335.0742
1132.635, 519.4531
1133.729, 618.8438
1134.822, 438.2578
1135.916, 428.6875
1137.009, 588.2500
1138.102, 452.7188
1139.195, 448.2070
1140.288, 381.7109
1141.380, 386.2461
1142.473, 102.8008
1143.565, 588.3789
1144.657, 229.0078
1145.749, 371.6250
1146.841, 553.2539
1147.932, 371.8555
1149.024, 286.5156
1150.115, 189.1992
1151.206, 148.9141
1152.297, 490.8164
1153.388, 296.5625
1154.479, 303.3555
1155.569, 441.1758
1156.659, 86.00391
1157.750, 282.8516
1158.839, 137.7109
1159.929, 389.5859
1161.019, 148.4805
1162.108, 477.4492
1163.198, 209.3672
1164.287, 167.3047
1165.376, 256.2539
1166.465, 345.4883
1167.553, 82.46484
1168.642, 90.45312
1169.730, 339.3086
1170.818, 199.8945
1171.906, 410.0820
1172.994, 459.1172
1174.082, 442.1641
1175.170, 108.5820
1176.257, 252.9609
1177.344, 208.0391
1178.431, 224.9609
1179.518, 216.0586
1180.605, 169.1719
1181.691, 26.28516
1182.778, 346.4141
1183.864, 177.5508
1184.950, 427.6953
1186.036, 75.85156
1187.122, 12.98828
1188.207, 351.1875
1189.292, 206.3633
1190.378, 1.445313
1191.463, 187.7578
1192.548, 151.9688
1193.632, 6.812500
1194.717, 253.4297
1195.801, 259.6797
1196.886, 151.9336
1197.970, 137.8008
1199.054, 114.4102
1200.137, 6.628906
1201.221, 13.85938
1202.305, 172.0898
1203.388, 43.67188
1204.471, 254.5625
1205.554, 257.8008
1206.637, 277.3125
1207.719, 156.2930
1208.802, 372.5430
1209.884, 188.8086
1210.966, 223.0977
1212.048, 310.7695
1213.130, 409.0430
1214.212, 204.3203
1215.293, 38.39844
1216.374, 154.1562
1217.456, 11.56641
1218.536, 62.71484
1219.617, 237.3633
1220.698, 146.6523
1221.778, 7.058594
1222.859, 206.2461
1223.939, 223.5391
1225.019, 409.8438
1226.099, 183.1562
1227.178, 25.46484
1228.258, 176.7773
1229.337, 79.10156
1230.417, 49.57812
1231.496, 260.7227
1232.574, 79.02344
1233.653, 30.32031
1234.732, 44.34375
1235.810, 74.06641
1236.888, 330.5117
1237.966, 132.7539
1239.044, 164.9961
1240.122, 132.2383
1241.199, 54.48047
1242.277, 24.72266
1243.354, 54.02734
1244.431, 213.1836
1245.508, 14.39844
1246.585, 243.6445
1247.661, 250.1094
1248.738, 259.0039
1249.814, 163.8906
1250.890, 138.1289
1251.966, 204.1406
1253.042, 320.2695
1254.117, 211.2812
1255.193, 279.7266
1256.268, 116.2812
1257.343, 273.2852
