##NAMES=Arsenopyrite
##RRUFFID=R050071
##IDEAL CHEMISTRY=Fe^3+^(AsS)^3-^
##LOCALITY=Yaogangxian mine, Yizhang County, Hunan Province, China
##OWNER=RRUFF
##SOURCE=Rock Currier
##DESCRIPTION=Steel-gray tabular
##STATUS=The identification of this mineral has been confirmed by X-ray diffraction and chemical analysis
##URL=rruff.info/R050071
##MEASURED CHEMISTRY=FeAsS
##PIN_ID=L00167
##ORIENTATION=Laser parallel to (1 0 1). Fiducial mark perpendicular to laser is parallel to b [0 1 0]
73.71400, 0.0000000E+00
74.95100, 3913.080
76.18700, 7965.518
77.42300, 10015.27
78.65900, 10196.99
79.89500, 7671.199
81.13100, 4075.168
82.36700, 1814.971
83.60200, 1177.939
84.83700, 1146.076
86.07200, 3.773438
87.30800, 27.43555
88.54200, 48.18945
89.77700, 751.3418
91.01200, 942.3457
92.24600, 1388.922
93.48000, 1401.641
94.71400, 951.4062
95.94800, 705.8672
97.18200, 397.4707
98.41600, 272.4922
99.64900, 267.3555
100.8830, 270.6250
102.1160, 186.9727
103.3490, 761.1738
104.5820, 1682.924
105.8150, 2999.242
107.0470, 4609.926
108.2800, 8993.312
109.5120, 12335.42
110.7440, 10101.70
111.9760, 8216.445
113.2080, 9993.096
114.4400, 13161.30
115.6710, 16172.40
116.9030, 20551.72
118.1340, 27194.23
119.3650, 29300.01
120.5960, 29178.37
121.8270, 18380.34
123.0580, 6044.049
124.2880, 2467.627
125.5190, 735.1660
126.7490, 179.7266
127.9790, 205.4336
129.2090, 489.3105
130.4390, 161.3887
131.6680, 16.73438
132.8980, 22.36914
134.1270, 16.31641
135.3560, 171.3867
136.5850, 52.29883
137.8140, 723.4043
139.0430, 384.9590
140.2710, 437.9863
141.5000, 298.2207
142.7280, 49.37500
143.9560, 196.1211
145.1840, 174.8633
146.4120, 2.386719
147.6390, 222.6895
148.8670, 303.5215
150.0940, 187.9883
151.3210, 526.2832
152.5490, 1038.504
153.7750, 692.9336
155.0020, 621.5547
156.2290, 483.5938
157.4550, 283.7090
158.6810, 296.9238
159.9080, 631.2070
161.1340, 1162.639
162.3590, 1272.250
163.5850, 1338.717
164.8110, 1209.578
166.0360, 878.8418
167.2610, 630.0801
168.4860, 647.4922
169.7110, 661.0664
170.9360, 603.7871
172.1610, 645.6406
173.3850, 450.6172
174.6100, 629.6660
175.8340, 483.8359
177.0580, 747.0977
178.2820, 437.4121
179.5050, 333.4102
180.7290, 328.4961
181.9520, 483.5020
183.1760, 424.9160
184.3990, 443.2832
185.6220, 414.9902
186.8450, 582.1445
188.0670, 610.1211
189.2900, 784.3281
190.5120, 988.4180
191.7340, 1261.480
192.9560, 1377.502
194.1780, 1235.488
195.4000, 1487.438
196.6220, 1384.354
197.8430, 1438.234
199.0640, 1518.080
200.2860, 1476.893
201.5070, 1444.461
202.7270, 1200.459
203.9480, 1218.133
205.1690, 554.8105
206.3890, 262.4590
207.6090, 127.9238
208.8290, 133.3418
210.0490, 163.7871
211.2690, 33.73633
212.4890, 76.22852
213.7080, 45.69531
214.9280, 54.03125
216.1470, 106.1543
217.3660, 140.3398
218.5850, 93.68359
219.8030, 276.3086
221.0220, 160.3887
222.2400, 49.98828
223.4590, 97.02930
224.6770, 43.37500
225.8950, 138.4883
227.1120, 48.29688
228.3300, 388.2344
229.5480, 293.2852
230.7650, 146.9609
231.9820, 117.3223
233.1990, 26.53516
234.4160, 363.5488
235.6330, 28.24805
236.8490, 152.4824
238.0660, 53.17969
239.2820, 88.13867
240.4980, 38.54102
241.7140, 4.726563
242.9300, 165.9395
244.1460, 14.40234
245.3610, 9.794922
246.5770, 16.80078
247.7920, 185.9121
249.0070, 48.82031
250.2220, 11.55273
251.4370, 183.8477
252.6510, 267.1660
253.8660, 256.4121
255.0800, 300.5684
256.2940, 375.4941
257.5080, 914.1113
258.7220, 3530.363
259.9360, 2401.389
261.1490, 5916.502
262.3630, 1619.367
263.5760, 1091.090
264.7890, 799.6680
266.0020, 940.1074
267.2150, 1102.406
268.4270, 950.5742
269.6400, 1071.617
270.8520, 830.5430
272.0640, 492.3516
273.2760, 344.0508
274.4880, 458.6348
275.7000, 604.1172
276.9120, 776.4961
278.1230, 557.7715
279.3340, 556.9609
280.5450, 626.0430
281.7560, 539.1680
282.9670, 714.0938
284.1780, 421.9395
285.3880, 659.7012
286.5980, 425.3867
287.8090, 337.6934
289.0190, 523.6973
290.2290, 508.5078
291.4380, 650.1133
292.6480, 615.5176
293.8570, 597.0723
295.0670, 651.2207
296.2760, 408.1035
297.4850, 656.1211
298.6930, 532.7559
299.9020, 390.1777
301.1110, 509.2598
302.3190, 372.0781
303.5270, 481.7344
304.7350, 583.2676
305.9430, 553.6367
307.1510, 764.7207
308.3580, 613.6523
309.5660, 654.5312
310.7730, 677.3809
311.9800, 806.2207
313.1870, 810.6133
314.3940, 840.5039
315.6010, 840.6973
316.8070, 834.5059
318.0130, 759.3066
319.2200, 708.0938
320.4260, 636.8633
321.6310, 688.6211
322.8370, 817.3711
324.0430, 684.1074
325.2480, 753.8320
326.4540, 646.5430
327.6590, 812.2266
328.8640, 730.9043
330.0680, 966.5723
331.2730, 817.2266
332.4780, 717.8730
333.6820, 873.5039
334.8860, 919.1250
336.0900, 866.7363
337.2940, 557.3438
338.4980, 805.9434
339.7010, 682.5352
340.9050, 835.1230
342.1080, 783.7012
343.3110, 901.2754
344.5140, 798.8438
345.7170, 852.4082
346.9200, 1058.969
348.1220, 851.5254
349.3240, 854.0781
350.5270, 1046.627
351.7290, 940.1719
352.9310, 938.1387
354.1320, 960.8125
355.3340, 890.1738
356.5350, 963.1113
357.7370, 828.5566
358.9380, 800.5977
360.1390, 711.0781
361.3400, 814.5273
362.5400, 850.0195
363.7410, 824.7500
364.9410, 836.1328
366.1410, 760.3438
367.3410, 817.2070
368.5410, 684.2031
369.7410, 740.1875
370.9400, 454.4375
372.1400, 570.1914
373.3390, 545.7695
374.5380, 606.0742
375.7370, 658.0469
376.9360, 466.5547
378.1350, 577.2070
379.3330, 299.1484
380.5310, 519.5117
381.7300, 400.1680
382.9280, 457.4414
384.1260, 558.0078
385.3230, 526.7461
386.5210, 562.8281
387.7180, 405.7344
388.9160, 386.9961
390.1130, 441.6758
391.3100, 402.7812
392.5060, 438.4180
393.7030, 396.8281
394.9000, 388.7383
396.0960, 322.1289
397.2920, 435.6367
398.4880, 432.7617
399.6840, 234.7344
400.8800, 551.6719
402.0750, 152.7617
403.2710, 246.8555
404.4660, 246.9375
405.6610, 532.0117
406.8560, 569.0820
408.0510, 736.1445
409.2450, 555.2031
410.4400, 489.2539
411.6340, 352.3047
412.8280, 500.3555
414.0220, 507.3984
415.2160, 552.4531
416.4100, 466.5000
417.6030, 366.2188
418.7970, 400.2539
419.9900, 358.3086
421.1830, 459.3672
422.3760, 596.4258
423.5690, 575.4922
424.7610, 578.5781
425.9540, 628.6758
427.1460, 461.8125
428.3380, 513.4961
429.5300, 472.6484
430.7220, 634.3320
431.9140, 558.6289
433.1050, 467.8867
434.2970, 721.1953
435.4880, 636.5703
436.6790, 906.0117
437.8700, 595.5117
439.0610, 642.1016
440.2510, 694.2891
441.4420, 465.9180
442.6320, 624.5742
443.8220, 369.6484
445.0120, 518.3945
446.2020, 481.3203
447.3910, 736.1250
448.5810, 791.9648
449.7700, 564.8359
450.9600, 421.7383
452.1490, 521.6719
453.3370, 438.6406
454.5260, 520.6484
455.7150, 270.6836
456.9030, 471.7539
458.0910, 817.8594
459.2800, 743.0039
460.4670, 625.1797
461.6550, 656.3945
462.8430, 597.2305
464.0300, 650.9766
465.2180, 545.3438
466.4050, 663.7734
467.5920, 584.2383
468.7790, 649.7461
469.9650, 634.2891
471.1520, 727.8750
472.3380, 678.4961
473.5250, 760.1523
474.7110, 859.8516
475.8970, 674.5859
477.0820, 780.3594
478.2680, 756.1797
479.4540, 494.0312
480.6390, 715.9258
481.8240, 1018.859
483.0090, 778.8359
484.1940, 1003.852
485.3780, 1010.926
486.5630, 1077.043
487.7470, 1082.879
488.9320, 1008.395
490.1160, 986.6328
491.3000, 968.9141
492.4830, 910.2383
493.6670, 910.4141
494.8500, 793.0117
496.0340, 847.5312
497.2170, 824.3125
498.4000, 705.9141
499.5820, 839.7422
500.7650, 1006.629
501.9480, 1100.590
503.1300, 1064.617
504.3120, 1009.754
505.4940, 1138.004
506.6760, 1062.355
507.8580, 881.8594
509.0390, 950.4844
510.2210, 894.1953
511.4020, 1125.016
512.5830, 940.9336
513.7640, 1190.984
514.9450, 1204.109
516.1250, 917.4219
517.3060, 1086.891
518.4860, 1266.484
519.6660, 1028.191
520.8460, 1236.984
522.0260, 1210.957
523.2060, 1107.016
524.3850, 1179.203
525.5650, 1098.504
526.7440, 1314.879
527.9230, 963.3594
529.1020, 750.9375
530.2810, 982.5742
531.4590, 943.6133
532.6380, 1056.445
533.8160, 1021.207
534.9940, 1064.488
536.1720, 926.6562
537.3500, 1023.930
538.5270, 872.2812
539.7050, 1076.746
540.8820, 749.2070
542.0590, 1084.734
543.2360, 1249.160
544.4130, 1126.391
545.5900, 1299.086
546.7660, 1243.078
547.9430, 1047.887
549.1190, 1234.738
550.2950, 1063.969
551.4710, 1099.926
552.6470, 1161.930
553.8220, 1143.977
554.9980, 1256.512
556.1730, 1412.590
557.3480, 1521.809
558.5230, 1302.086
559.6980, 1194.453
560.8730, 1279.836
562.0470, 993.2773
563.2220, 1153.770
564.3960, 1241.312
565.5700, 1205.906
566.7440, 1027.949
567.9170, 1533.461
569.0910, 1152.215
570.2640, 1295.016
571.4380, 1304.891
572.6110, 1178.793
573.7840, 1227.680
574.9570, 1049.727
576.1290, 1118.594
577.3020, 1255.148
578.4740, 1194.043
579.6460, 1096.285
580.8180, 748.5664
581.9900, 526.9023
583.1620, 687.2812
584.3330, 641.5977
585.5040, 623.0742
586.6760, 729.5977
587.8470, 426.1523
589.0180, 418.8320
590.1880, 612.5625
591.3590, 317.3359
592.5290, 510.1602
593.7000, 499.0547
594.8700, 419.0039
596.0400, 181.0000
597.2090, 325.0469
598.3790, 307.1367
599.5490, 465.4492
600.7180, 507.6289
601.8870, 129.8555
603.0560, 164.8867
604.2250, 299.3281
605.3940, 326.9336
606.5620, 337.5352
607.7300, 295.9883
608.8990, 232.4062
610.0670, 519.9648
611.2350, 502.5664
612.4020, 402.2109
613.5700, 198.9648
614.7370, 287.6953
615.9050, 362.4609
617.0720, 486.2695
618.2390, 514.1758
619.4060, 315.1250
620.5720, 109.1133
621.7390, 443.1484
622.9050, 387.2188
624.0710, 648.3281
625.2370, 670.2734
626.4030, 660.8867
627.5690, 615.1172
628.7340, 614.3945
629.9000, 554.0820
631.0650, 427.0547
632.2300, 451.4492
633.3950, 404.8789
634.5600, 381.3438
635.7240, 373.8633
636.8890, 393.7148
638.0530, 282.0117
639.2170, 449.6367
640.3810, 369.3047
641.5450, 340.0039
642.7080, 193.7461
643.8720, 355.5195
645.0350, 496.3320
646.1980, 410.1758
647.3610, 225.0547
648.5240, 192.9688
649.6870, 174.9102
650.8490, 121.7266
652.0120, 173.1562
653.1740, 132.7070
654.3360, 195.7773
655.4980, 215.8828
656.6600, 41.01172
657.8210, 183.1758
658.9830, 147.3711
660.1440, 11.58984
661.3050, 281.8359
662.4660, 120.1133
663.6270, 194.4141
664.7870, 225.3789
665.9480, 173.0039
667.1080, 110.3789
668.2680, 313.7812
669.4280, 104.2070
670.5880, 24.33984
671.7480, 240.1289
672.9070, 47.37891
674.0670, 109.8711
675.2260, 150.6328
676.3850, 97.14844
677.5440, 25.07812
678.7030, 52.35938
679.8610, 7.210938
681.0200, 51.94922
682.1780, 169.4414
683.3360, 65.38672
684.4940, 127.3477
685.6520, 17.06250
686.8090, 20.14453
687.9670, 102.7656
689.1240, 19.58984
690.2810, 126.0664
691.4380, 187.7422
692.5950, 91.42969
693.7520, 21.54297
694.9080, 37.39844
696.0650, 185.3242
697.2210, 98.25391
698.3770, 1.1719000E-02
699.5330, 248.7891
700.6880, 94.25391
701.8440, 261.0625
702.9990, 61.87891
704.1550, 80.82422
705.3100, 97.26172
706.4650, 85.53906
707.6190, 27.72266
708.7740, 53.53516
709.9290, 2.363281
711.0830, 318.2031
712.2370, 335.8516
713.3910, 6.851563
714.5450, 246.4336
715.6980, 153.8242
716.8520, 15.27344
718.0050, 193.2734
719.1580, 48.83594
720.3110, 204.4062
721.4640, 188.8672
722.6170, 173.4141
723.7700, 163.1016
724.9220, 31.63281
726.0740, 6.816406
727.2260, 32.72656
728.3780, 155.2734
729.5300, 123.8281
730.6810, 169.0547
731.8330, 212.0625
732.9840, 194.4648
734.1350, 121.0547
735.2860, 132.9570
736.4370, 232.5586
737.5880, 22.17578
738.7380, 181.7852
739.8880, 164.4062
741.0390, 42.66016
742.1890, 31.05469
743.3380, 32.47656
744.4880, 64.99609
745.6380, 67.84375
746.7870, 12.35547
747.9360, 123.4766
749.0850, 202.0000
750.2340, 108.5234
751.3830, 43.05078
752.5310, 177.5820
753.6800, 222.1211
754.8280, 229.6602
755.9760, 422.2461
757.1240, 157.7930
758.2720, 496.3438
759.4190, 284.9023
760.5670, 237.4609
761.7140, 408.0195
762.8610, 30.41406
764.0080, 184.1133
765.1550, 233.6445
766.3020, 254.1758
767.4480, 362.7109
768.5950, 379.2500
769.7410, 210.8008
770.8870, 387.3438
772.0330, 272.8867
773.1780, 83.35938
774.3240, 248.9062
775.4690, 359.4570
776.6140, 159.0078
777.7590, 187.5625
778.9040, 165.1133
780.0490, 309.6680
781.1940, 420.2227
782.3380, 218.7773
783.4820, 171.3359
784.6260, 156.8945
785.7700, 161.4531
786.9140, 140.0078
788.0580, 246.5664
789.2010, 62.12891
790.3450, 22.31641
791.4880, 225.2031
792.6310, 386.7188
793.7730, 103.2344
794.9160, 184.7539
796.0590, 360.6328
797.2010, 187.1484
798.3430, 238.6719
799.4850, 239.1875
800.6270, 226.7031
801.7690, 57.21875
802.9100, 38.73047
804.0520, 151.2266
805.1930, 385.7227
806.3340, 315.2188
807.4750, 234.7188
808.6160, 211.9102
809.7560, 164.4062
810.8970, 178.0781
812.0370, 96.37500
813.1770, 284.8750
814.3170, 33.36719
815.4570, 123.8516
816.5960, 203.2773
817.7360, 75.75781
818.8750, 274.2383
820.0140, 188.8711
821.1530, 32.26172
822.2920, 193.1797
823.4310, 2.367188
824.5690, 133.7891
825.7070, 126.2109
826.8460, 248.3008
827.9840, 325.7227
829.1220, 392.1445
830.2590, 6.570313
831.3970, 52.55469
832.5340, 105.0352
833.6710, 7.441406
834.8080, 107.8203
835.9450, 347.1719
837.0820, 16.55859
838.2190, 130.9258
839.3550, 265.3008
840.4910, 64.67969
841.6270, 68.05469
842.7630, 121.0352
843.8990, 44.59375
845.0350, 93.97266
846.1700, 378.3516
847.3060, 256.4375
848.4410, 100.9062
849.5760, 258.5234
850.7100, 178.8477
851.8450, 283.4062
852.9800, 344.3281
854.1140, 201.9648
855.2480, 154.3086
856.3820, 88.66406
857.5160, 167.0195
858.6500, 129.3828
859.7830, 39.86719
860.9170, 56.24219
862.0500, 248.3750
863.1830, 81.97656
864.3160, 96.24219
865.4480, 36.51953
866.5810, 373.8047
867.7130, 115.9062
868.8460, 24.66406
869.9780, 160.5664
871.1100, 16.19141
872.2410, 120.0391
873.3730, 219.2812
874.5050, 250.3672
875.6360, 139.6211
876.7670, 37.10938
877.8980, 44.39453
879.0290, 83.54688
880.1590, 267.5820
881.2900, 5.320313
882.4200, 177.9727
883.5500, 70.64844
884.6800, 108.6289
885.8100, 157.9102
886.9400, 120.2109
888.0690, 395.4453
889.1990, 211.7617
890.3280, 43.08984
891.4570, 236.5664
892.5860, 223.6758
893.7140, 204.9258
894.8430, 300.1875
895.9710, 198.4648
897.1000, 64.75391
898.2280, 101.0547
899.3560, 202.1523
900.4830, 236.4805
901.6110, 298.8164
902.7380, 353.1641
903.8660, 204.5273
904.9930, 2.902344
906.1200, 83.29297
907.2460, 247.6953
908.3730, 54.88672
909.5000, 81.52344
910.6260, 282.9453
911.7520, 293.3867
912.8780, 239.8359
914.0040, 406.3047
915.1290, 69.78906
916.2550, 347.2812
917.3800, 468.7969
918.5050, 376.3203
919.6300, 197.8633
920.7550, 387.4219
921.8800, 341.9922
923.0040, 85.57812
924.1290, 247.1797
925.2530, 146.4102
926.3770, 254.6914
927.5010, 462.3555
928.6250, 182.0391
929.7480, 400.7383
930.8720, 23.54688
931.9950, 425.1758
933.1180, 265.9258
934.2410, 233.6875
935.3640, 364.4648
936.4860, 353.2578
937.6090, 347.4453
938.7310, 523.0039
939.8530, 532.8555
940.9750, 786.7266
942.0970, 520.6133
943.2180, 643.5195
944.3400, 350.4453
945.4610, 614.3906
946.5820, 433.3555
947.7030, 288.3672
948.8240, 591.4023
949.9450, 234.0586
951.0650, 577.1289
952.1860, 222.2422
953.3060, 316.2578
954.4260, 419.4375
955.5460, 353.6719
956.6650, 498.2969
957.7850, 502.5820
958.9040, 314.2969
960.0230, 371.6250
961.1420, 780.9766
962.2610, 592.3516
963.3800, 592.7461
964.4990, 397.1680
965.6170, 580.2930
966.7350, 497.3438
967.8530, 523.8516
968.9710, 564.5742
970.0890, 559.7773
971.2070, 539.4727
972.3240, 561.4688
973.4410, 454.1797
974.5580, 306.9102
975.6750, 453.5547
976.7920, 510.3086
977.9090, 472.1641
979.0250, 651.7148
980.1410, 501.6367
981.2580, 405.5898
982.3740, 748.5664
983.4890, 850.4766
984.6050, 334.5820
985.7200, 634.7188
986.8360, 671.9336
987.9510, 638.2109
989.0660, 562.5195
990.1810, 480.8555
991.2950, 732.2148
992.4100, 498.6016
993.5240, 643.0352
994.6390, 524.5391
995.7530, 594.0703
996.8660, 594.6172
997.9800, 874.2148
999.0940, 581.8984
1000.207, 608.6055
1001.320, 967.3438
1002.433, 826.0117
1003.546, 685.9805
1004.659, 630.8008
1005.772, 614.3438
1006.884, 629.2188
1007.996, 820.1211
1009.108, 752.0508
1010.220, 784.2227
1011.332, 899.6992
1012.444, 666.7305
1013.555, 665.8164
1014.666, 470.9453
1015.777, 781.8789
1016.888, 810.0898
1017.999, 800.7305
1019.110, 772.0039
1020.220, 583.3047
1021.331, 643.1797
1022.441, 631.0117
1023.551, 645.4023
1024.661, 694.8281
1025.770, 673.2422
1026.880, 770.7266
1027.989, 616.2422
1029.098, 693.7891
1030.207, 747.8047
1031.316, 820.9961
1032.425, 909.6445
1033.533, 869.3438
1034.642, 934.0859
1035.750, 864.8477
1036.858, 812.6406
1037.966, 710.4648
1039.073, 900.3086
1040.181, 823.1914
1041.288, 986.1055
1042.396, 833.1328
1043.503, 814.1094
1044.610, 1145.121
1045.716, 560.1641
1046.823, 955.2305
1047.929, 1070.336
1049.036, 893.4688
1050.142, 1066.633
1051.248, 1066.828
1052.353, 1179.059
1053.459, 1213.512
1054.564, 849.6094
1055.670, 1216.938
1056.775, 992.2930
1057.880, 886.7852
1058.985, 1005.203
1060.089, 900.6719
1061.194, 1167.188
1062.298, 948.7148
1063.402, 1037.281
1064.506, 852.5117
1065.610, 1087.141
1066.713, 1058.801
1067.817, 1001.484
1068.920, 1220.211
1070.023, 1297.969
1071.126, 1331.762
1072.229, 1134.594
1073.332, 974.4570
1074.435, 1181.352
1075.537, 830.2812
1076.639, 1091.246
1077.741, 1072.234
1078.843, 1013.262
1079.945, 1282.031
1081.046, 964.1133
1082.148, 985.2305
1083.249, 771.3789
1084.350, 1003.480
1085.451, 789.3516
1086.551, 1063.602
1087.652, 1008.875
1088.752, 993.8594
1089.853, 741.2109
1090.953, 1118.594
1092.053, 613.0234
1093.152, 1024.477
1094.252, 983.9609
1095.351, 783.4727
1096.451, 1016.016
1097.550, 802.5898
1098.649, 977.7188
1099.748, 1037.035
1100.846, 882.5391
1101.945, 1170.301
1103.043, 1006.613
1104.141, 1041.160
1105.239, 909.8633
1106.337, 995.6836
1107.434, 1078.539
1108.532, 1038.082
1109.629, 873.9844
1110.726, 985.9219
1111.823, 1138.891
1112.920, 685.8828
1114.017, 774.9062
1115.113, 1002.957
1116.210, 845.0664
1117.306, 913.2031
1118.402, 813.3633
1119.498, 895.5508
1120.593, 753.7617
1121.689, 830.9961
1122.784, 739.2539
1123.879, 813.5391
1124.974, 758.2070
1126.069, 839.5391
1127.164, 711.8945
1128.259, 524.2695
1129.353, 659.7539
1130.447, 794.3281
1131.541, 672.8398
1132.635, 542.3750
1133.729, 737.9258
1134.822, 538.5352
1135.916, 465.1719
1137.009, 564.8320
1138.102, 547.5195
1139.195, 608.2266
1140.288, 358.9570
1141.380, 382.7109
1142.473, 438.4844
1143.565, 121.2891
1144.657, 359.6914
1145.749, 501.5391
1146.841, 471.4062
1147.932, 478.2969
1149.024, 442.2070
1150.115, 358.1523
1151.206, 531.1172
1152.297, 242.1016
1153.388, 413.5820
1154.479, 393.6094
1155.569, 188.6875
1156.659, 719.7461
1157.750, 87.88672
1158.839, 412.0430
1159.929, 395.2461
1161.019, 397.1758
1162.108, 186.4375
1163.198, 288.7188
1164.287, 279.0156
1165.376, 2.335938
1166.465, 281.6680
1167.553, 529.0195
1168.642, 86.38281
1169.730, 343.7656
1170.818, 140.2031
1171.906, 466.6680
1172.994, 144.1484
1174.082, 305.6523
1175.170, 128.1758
1176.257, 419.7148
1177.344, 220.2695
1178.431, 124.8359
1179.518, 449.4219
1180.605, 366.0195
1181.691, 209.6328
1182.778, 230.2891
1183.864, 154.9570
1184.950, 248.6445
1186.036, 6.339844
1187.122, 347.0586
1188.207, 85.17969
1189.292, 353.5391
1190.378, 159.2734
1191.463, 2.019531
1192.548, 83.77344
1193.632, 204.5469
1194.717, 270.3281
1195.801, 114.1289
1196.886, 219.3047
1197.970, 64.76953
1199.054, 203.6133
1200.137, 148.4609
1201.221, 58.12109
1202.305, 163.9883
1203.388, 310.9766
1204.471, 130.8750
1205.554, 36.69531
1206.637, 229.6133
1207.719, 236.5469
1208.802, 288.4883
1209.884, 45.55859
1210.966, 94.50781
1212.048, 15.46484
1213.130, 95.43750
1214.212, 81.58594
1215.293, 127.6367
1216.374, 87.26562
1217.456, 270.1797
1218.536, 18.89844
1219.617, 47.02734
1220.698, 96.95312
1221.778, 163.8984
1222.859, 48.84766
1223.939, 173.3789
1225.019, 325.7734
1226.099, 236.7500
1227.178, 117.7344
1228.258, 31.27344
1229.337, 50.24609
1230.417, 86.40234
1231.496, 89.39062
1232.574, 83.45703
1233.653, 1.601563
1234.732, 57.74219
1235.810, 12.08984
1236.888, 35.93359
1237.966, 147.2227
1239.044, 93.55859
1240.122, 287.6602
1241.199, 155.4492
1242.277, 117.3711
1243.354, 185.5625
1244.431, 168.3711
1245.508, 89.18750
1246.585, 222.0039
1247.661, 415.8242
1248.738, 29.64453
1249.814, 257.4727
1250.890, 409.2969
1251.966, 234.1289
1253.042, 291.9648
1254.117, 82.19922
1255.193, 214.6133
1256.268, 190.4062
1257.343, 262.1992
1258.418, 23.00000
1259.493, 206.2188
