##NAMES=Arsenopyrite
##RRUFFID=R050071
##IDEAL CHEMISTRY=Fe^3+^(AsS)^3-^
##LOCALITY=Yaogangxian mine, Yizhang County, Hunan Province, China
##OWNER=RRUFF
##SOURCE=Rock Currier
##DESCRIPTION=Steel-gray tabular
##STATUS=The identification of this mineral has been confirmed by X-ray diffraction and chemical analysis
##URL=rruff.info/R050071
##MEASURED CHEMISTRY=FeAsS
##PIN_ID=L00162
##ORIENTATION=Laser parallel to -c* (0 0 -1). Fiducial mark perpendicular to laser is parallel to -a [-1 0 0]
70.00400, 0.0000000E+00
71.24100, 3523.836
72.47700, 6403.225
73.71400, 12754.66
74.95100, 19055.71
76.18700, 21668.17
77.42300, 21222.85
78.65900, 17289.65
79.89500, 6568.613
81.13100, 978.7480
82.36700, 127.7129
83.60200, 581.8867
84.83700, 702.0293
86.07200, 621.1035
87.30800, 524.2637
88.54200, 26.86914
89.77700, 37.15625
91.01200, 700.3438
92.24600, 1108.758
93.48000, 317.0234
94.71400, 455.5938
95.94800, 227.9473
97.18200, 412.2598
98.41600, 390.2246
99.64900, 209.9180
100.8830, 703.7969
102.1160, 1136.291
103.3490, 2028.309
104.5820, 4792.566
105.8150, 10384.02
107.0470, 16530.15
108.2800, 16735.65
109.5120, 24252.12
110.7440, 18350.86
111.9760, 18152.62
113.2080, 20222.06
114.4400, 23230.64
115.6710, 25601.71
116.9030, 28489.74
118.1340, 25610.84
119.3650, 13195.13
120.5960, 5040.770
121.8270, 1925.967
123.0580, 1342.787
124.2880, 1348.750
125.5190, 481.9238
126.7490, 224.7363
127.9790, 159.6289
129.2090, 428.5762
130.4390, 668.4902
131.6680, 457.4023
132.8980, 415.3633
134.1270, 467.4199
135.3560, 232.6113
136.5850, 176.9844
137.8140, 63.55469
139.0430, 275.9688
140.2710, 423.8164
141.5000, 37.53906
142.7280, 195.4531
143.9560, 410.9590
145.1840, 267.2441
146.4120, 32.99609
147.6390, 371.0801
148.8670, 202.8535
150.0940, 560.6914
151.3210, 1173.473
152.5490, 1253.012
153.7750, 655.8066
155.0020, 957.8652
156.2290, 803.0645
157.4550, 1222.588
158.6810, 1173.523
159.9080, 1062.283
161.1340, 1034.590
162.3590, 925.5586
163.5850, 674.9102
164.8110, 915.2773
166.0360, 1094.764
167.2610, 928.3555
168.4860, 931.0312
169.7110, 916.7832
170.9360, 1128.715
172.1610, 1183.584
173.3850, 985.9688
174.6100, 726.8848
175.8340, 604.3594
177.0580, 491.5508
178.2820, 673.7129
179.5050, 628.0273
180.7290, 458.5020
181.9520, 736.8652
183.1760, 479.3594
184.3990, 374.4570
185.6220, 601.7480
186.8450, 721.3906
188.0670, 959.2988
189.2900, 961.1387
190.5120, 1278.240
191.7340, 1518.240
192.9560, 1509.135
194.1780, 1483.926
195.4000, 1653.613
196.6220, 1669.199
197.8430, 1710.678
199.0640, 1611.053
200.2860, 1547.324
201.5070, 1421.586
202.7270, 1069.561
203.9480, 1059.486
205.1690, 388.3477
206.3890, 86.11133
207.6090, 5.781250
208.8290, 291.6445
210.0490, 392.1621
211.2690, 64.77734
212.4890, 19.37305
213.7080, 318.9375
214.9280, 51.05664
216.1470, 82.00781
217.3660, 50.26758
218.5850, 206.3359
219.8030, 1.197266
221.0220, 49.67969
222.2400, 15.42578
223.4590, 30.19727
224.6770, 112.7031
225.8950, 93.43555
227.1120, 222.1133
228.3300, 341.7949
229.5480, 88.55859
230.7650, 203.9668
231.9820, 27.95703
233.1990, 240.9766
234.4160, 125.1152
235.6330, 219.8320
236.8490, 168.6250
238.0660, 13.08594
239.2820, 58.98047
240.4980, 288.8359
241.7140, 58.50586
242.9300, 28.04883
244.1460, 82.75586
245.3610, 58.07422
246.5770, 121.8242
247.7920, 288.3594
249.0070, 193.6992
250.2220, 58.16016
251.4370, 169.6309
252.6510, 215.1426
253.8660, 484.6895
255.0800, 445.5508
256.2940, 760.2031
257.5080, 1503.643
258.7220, 2971.857
259.9360, 2328.805
261.1490, 2938.604
262.3630, 1584.137
263.5760, 1321.445
264.7890, 1111.539
266.0020, 1170.426
267.2150, 922.6367
268.4270, 1009.611
269.6400, 713.9180
270.8520, 649.0371
272.0640, 683.9707
273.2760, 694.7227
274.4880, 585.2891
275.7000, 795.6855
276.9120, 687.9219
278.1230, 976.0039
279.3340, 922.9336
280.5450, 635.7188
281.7560, 660.3574
282.9670, 919.8516
284.1780, 736.9492
285.3880, 784.9590
286.5980, 662.2246
287.8090, 665.2637
289.0190, 776.3223
290.2290, 735.6699
291.4380, 466.1055
292.6480, 684.5898
293.8570, 874.7578
295.0670, 673.4336
296.2760, 790.6211
297.4850, 585.3984
298.6930, 721.7012
299.9020, 763.6289
301.1110, 492.3613
302.3190, 813.8613
303.5270, 949.0977
304.7350, 690.1328
305.9430, 679.0234
307.1510, 912.6777
308.3580, 944.2188
309.5660, 1008.691
310.7730, 840.1152
311.9800, 981.4902
313.1870, 914.8145
314.3940, 844.0879
315.6010, 832.3105
316.8070, 1087.473
318.0130, 841.5742
319.2200, 910.6113
320.4260, 1149.596
321.6310, 1049.518
322.8370, 937.2266
324.0430, 981.0352
325.2480, 1045.783
326.4540, 1211.158
327.6590, 1074.787
328.8640, 1014.127
330.0680, 1103.529
331.2730, 970.0117
332.4780, 889.4375
333.6820, 1046.816
334.8860, 1166.154
336.0900, 1039.445
337.2940, 1043.695
338.4980, 889.9043
339.7010, 1132.072
340.9050, 1072.199
342.1080, 1191.289
343.3110, 996.3359
344.5140, 917.3477
345.7170, 1006.320
346.9200, 1118.254
348.1220, 1190.150
349.3240, 1221.012
350.5270, 915.9648
351.7290, 915.2285
352.9310, 975.3613
354.1320, 874.8945
355.3340, 906.1816
356.5350, 1033.082
357.7370, 934.3027
358.9380, 842.2637
360.1390, 739.3457
361.3400, 926.5117
362.5400, 854.6426
363.7410, 716.8184
364.9410, 856.7930
366.1410, 777.3125
367.3410, 719.6230
368.5410, 602.4746
369.7410, 735.1680
370.9400, 575.7812
372.1400, 650.0273
373.3390, 668.4824
374.5380, 493.5547
375.7370, 540.1406
376.9360, 599.5547
378.1350, 429.6348
379.3330, 739.3105
380.5310, 245.0898
381.7300, 442.9531
382.9280, 486.3086
384.1260, 345.5273
385.3230, 400.0430
386.5210, 392.8613
387.7180, 122.5332
388.9160, 309.6113
390.1130, 343.9863
391.3100, 605.6992
392.5060, 463.8047
393.7030, 525.4355
394.9000, 296.4395
396.0960, 307.0527
397.2920, 313.8164
398.4880, 480.3770
399.6840, 614.3477
400.8800, 668.5254
402.0750, 509.8301
403.2710, 272.0879
404.4660, 436.3223
405.6610, 474.5215
406.8560, 492.7070
408.0510, 469.8574
409.2450, 384.0098
410.4400, 220.1250
411.6340, 585.1992
412.8280, 432.2734
414.0220, 462.7578
415.2160, 692.8867
416.4100, 573.1484
417.6030, 567.4121
418.7970, 350.8770
419.9900, 595.5078
421.1830, 451.6426
422.3760, 535.5117
423.5690, 592.3965
424.7610, 458.0938
425.9540, 593.9668
427.1460, 272.7930
428.3380, 402.0098
429.5300, 565.4219
430.7220, 416.2441
431.9140, 448.0957
433.1050, 661.5371
434.2970, 586.0254
435.4880, 479.9199
436.6790, 410.4141
437.8700, 388.4766
439.0610, 433.9238
440.2510, 524.8652
441.4420, 601.8789
442.6320, 732.5430
443.8220, 609.3906
445.0120, 766.6875
446.2020, 749.7422
447.3910, 481.8047
448.5810, 564.4004
449.7700, 642.9688
450.9600, 576.0488
452.1490, 644.1387
453.3370, 716.2363
454.5260, 821.3438
455.7150, 504.4590
456.9030, 395.5820
458.0910, 351.7168
459.2800, 564.8594
460.4670, 616.0117
461.6550, 626.1758
462.8430, 674.3496
464.0300, 471.5410
465.2180, 532.7480
466.4050, 258.9648
467.5920, 694.1973
468.7790, 480.4414
469.9650, 692.6992
471.1520, 619.9707
472.3380, 587.2598
473.5250, 677.5684
474.7110, 646.8945
475.8970, 560.2617
477.0820, 682.6445
478.2680, 624.0430
479.4540, 702.4570
480.6390, 726.1680
481.8240, 656.9980
483.0090, 785.8027
484.1940, 841.2832
485.3780, 896.4453
486.5630, 919.3027
487.7470, 946.8418
488.9320, 944.9043
490.1160, 853.9688
491.3000, 930.5586
492.4830, 883.1719
493.6670, 902.8086
494.8500, 935.5020
496.0340, 875.4062
497.2170, 898.2051
498.4000, 782.6641
499.5820, 818.5898
500.7650, 763.8008
501.9480, 836.1074
503.1300, 960.4824
504.3120, 838.9629
505.4940, 1141.531
506.6760, 902.2344
507.8580, 1193.529
509.0390, 1001.404
510.2210, 853.3594
511.4020, 974.3867
512.5830, 925.1367
513.7640, 1183.389
514.9450, 1145.787
516.1250, 1257.385
517.3060, 1213.072
518.4860, 1360.906
519.6660, 1072.064
520.8460, 1092.150
522.0260, 1157.363
523.2060, 1092.727
524.3850, 1178.156
525.5650, 1054.707
526.7440, 953.3398
527.9230, 863.0215
529.1020, 1123.787
530.2810, 1240.660
531.4590, 1111.771
532.6380, 1259.982
533.8160, 1186.174
534.9940, 1005.254
536.1720, 1090.479
537.3500, 1151.818
538.5270, 1107.246
539.7050, 1306.736
540.8820, 1180.266
542.0590, 1255.840
543.2360, 1121.459
544.4130, 1317.930
545.5900, 1241.539
546.7660, 1220.645
547.9430, 1113.797
549.1190, 1420.771
550.2950, 1229.887
551.4710, 1573.072
552.6470, 1326.957
553.8220, 1337.465
554.9980, 1539.488
556.1730, 1169.512
557.3480, 1304.625
558.5230, 1261.832
559.6980, 1528.480
560.8730, 1260.275
562.0470, 1513.479
563.2220, 1299.717
564.3960, 1301.238
565.5700, 1369.332
566.7440, 1403.658
567.9170, 1443.123
569.0910, 1507.502
570.2640, 1438.244
571.4380, 1568.637
572.6110, 1348.297
573.7840, 1214.992
574.9570, 1303.719
576.1290, 880.9473
577.3020, 1068.756
578.4740, 851.5684
579.6460, 972.4492
580.8180, 878.3652
581.9900, 706.3164
583.1620, 665.8457
584.3330, 522.8887
585.5040, 389.9629
586.6760, 214.0742
587.8470, 401.5469
589.0180, 115.7168
590.1880, 255.2832
591.3590, 544.5195
592.5290, 447.9453
593.7000, 479.6777
594.8700, 464.3223
596.0400, 254.9160
597.2090, 409.2969
598.3790, 237.7090
599.5490, 454.1641
600.7180, 456.6465
601.8870, 354.1582
603.0560, 269.6953
604.2250, 213.9043
605.3940, 73.50000
606.5620, 399.1230
607.7300, 144.7773
608.8990, 86.46094
610.0670, 429.1719
611.2350, 447.9199
612.4020, 139.6953
613.5700, 228.4961
614.7370, 57.33008
615.9050, 310.9414
617.0720, 200.8262
618.2390, 365.7402
619.4060, 349.7051
620.5720, 135.6992
621.7390, 320.7188
622.9050, 372.7637
624.0710, 319.8379
625.2370, 312.2695
626.4030, 302.3945
627.5690, 260.5449
628.7340, 125.7207
629.9000, 364.9219
631.0650, 147.1504
632.2300, 294.4023
633.3950, 239.6816
634.5600, 280.9844
635.7240, 306.3125
636.8890, 188.6621
638.0530, 292.0391
639.2170, 225.4375
640.3810, 445.8574
641.5450, 152.2988
642.7080, 307.7617
643.8720, 92.71875
645.0350, 220.2246
646.1980, 102.7520
647.3610, 39.70312
648.5240, 173.8574
649.6870, 251.4355
650.8490, 146.0312
652.0120, 42.35547
653.1740, 80.26953
654.3360, 24.91406
655.4980, 58.42969
656.6600, 289.2344
657.8210, 107.9160
658.9830, 161.3926
660.1440, 29.26758
661.3050, 119.9395
662.4660, 16.90430
663.6270, 29.59961
664.7870, 33.63867
665.9480, 181.5352
667.1080, 59.26172
668.2680, 12.99805
669.4280, 121.7441
670.5880, 53.50195
671.7480, 52.92773
672.9070, 93.82227
674.0670, 286.5781
675.2260, 94.33984
676.3850, 99.27344
677.5440, 56.02539
678.7030, 129.8066
679.8610, 89.59375
681.0200, 108.3828
682.1780, 37.71094
683.3360, 33.16797
684.4940, 101.3730
685.6520, 70.60742
686.8090, 142.2441
687.9670, 64.08008
689.1240, 189.0371
690.2810, 12.44141
691.4380, 30.15430
692.5950, 171.2207
693.7520, 90.50391
694.9080, 125.9883
696.0650, 29.51953
697.2210, 3.5156000E-02
698.3770, 145.5527
699.5330, 16.13477
700.6880, 39.27930
701.8440, 78.69141
702.9990, 203.8008
704.1550, 12.90039
705.3100, 72.59180
706.4650, 140.6562
707.6190, 90.67383
708.7740, 90.92578
709.9290, 25.29102
711.0830, 56.50586
712.2370, 213.7168
713.3910, 77.92188
714.5450, 8.128906
715.6980, 1.675781
716.8520, 36.49023
718.0050, 68.79883
719.1580, 166.9434
720.3110, 86.52148
721.4640, 2.070313
722.6170, 54.05078
723.7700, 132.1680
724.9220, 173.2773
726.0740, 26.38281
727.2260, 46.47656
728.3780, 27.57031
729.5300, 184.6504
730.6810, 35.72461
731.8330, 199.7891
732.9840, 49.85156
734.1350, 310.9062
735.2860, 155.9551
736.4370, 120.1523
737.5880, 156.5977
738.7380, 263.6270
739.8880, 102.6484
741.0390, 265.6660
742.1890, 10.67578
743.3380, 164.6621
744.4880, 275.6406
745.6380, 358.6152
746.7870, 320.5781
747.9360, 143.5352
749.0850, 193.6133
750.2340, 270.5547
751.3830, 138.4883
752.5310, 389.4160
753.6800, 69.66602
754.8280, 321.1836
755.9760, 267.0273
757.1240, 407.1230
758.2720, 675.9473
759.4190, 466.7676
760.5670, 311.5762
761.7140, 398.3750
762.8610, 63.16406
764.0080, 326.9395
765.1550, 349.7070
766.3020, 344.4629
767.4480, 282.2109
768.5950, 326.9492
769.7410, 363.6777
770.8870, 157.3984
772.0330, 263.1074
773.1780, 238.8066
774.3240, 326.4980
775.4690, 309.3770
776.6140, 306.5195
777.7590, 293.5098
778.9040, 205.1602
780.0490, 234.8008
781.1940, 38.43164
782.3380, 144.0391
783.4820, 299.6328
784.6260, 160.2188
785.7700, 237.2832
786.9140, 238.8477
788.0580, 252.4043
789.2010, 103.9492
790.3450, 286.8770
791.4880, 311.4023
792.6310, 175.9160
793.7730, 282.3984
794.9160, 203.8926
796.0590, 225.3770
797.2010, 232.6250
798.3430, 344.0918
799.4850, 72.54688
800.6270, 202.9883
801.7690, 37.58008
802.9100, 234.7930
804.0520, 110.1582
805.1930, 140.5117
806.3340, 189.8574
807.4750, 220.1934
808.6160, 27.35742
809.7560, 115.4883
810.8970, 189.7793
812.0370, 333.0605
813.1770, 76.33398
814.3170, 30.40234
815.4570, 89.80859
816.5960, 118.0098
817.7360, 278.2051
818.8750, 11.38867
820.0140, 36.54297
821.1530, 96.85742
822.2920, 167.0625
823.4310, 55.79492
824.5690, 104.5039
825.7070, 250.4160
826.8460, 148.2129
827.9840, 81.96484
829.1220, 30.95703
830.2590, 38.49219
831.3970, 61.46289
832.5340, 62.44922
833.6710, 76.37695
834.8080, 128.5312
835.9450, 427.6992
837.0820, 82.04102
838.2190, 208.0039
839.3550, 12.03516
840.4910, 146.3398
841.6270, 279.7715
842.7630, 139.3164
843.8990, 67.54688
845.0350, 125.8242
846.1700, 139.0449
847.3060, 136.6914
848.4410, 193.3418
849.5760, 155.9883
850.7100, 80.63477
851.8450, 101.8105
852.9800, 305.4492
854.1140, 66.88672
855.2480, 252.7188
856.3820, 0.3242190
857.5160, 105.0762
858.6500, 188.9492
859.7830, 141.4941
860.9170, 410.0391
862.0500, 315.8066
863.1830, 200.8027
864.3160, 227.3496
865.4480, 135.7363
866.5810, 52.08984
867.7130, 54.48047
868.8460, 99.03320
869.9780, 75.58789
871.1100, 23.14844
872.2410, 1.292969
873.3730, 46.73242
874.5050, 123.8086
875.6360, 150.3516
876.7670, 89.89844
877.8980, 342.4492
879.0290, 18.35938
880.1590, 158.9180
881.2900, 13.47852
882.4200, 204.0449
883.5500, 143.6152
884.6800, 48.81445
885.8100, 97.74609
886.9400, 164.3105
888.0690, 89.87695
889.1990, 224.4492
890.3280, 58.27539
891.4570, 207.8613
892.5860, 131.5488
893.7140, 7.992188
894.8430, 122.5410
895.9710, 88.09570
897.1000, 209.6562
898.2280, 455.2246
899.3560, 257.4688
900.4830, 240.0527
901.6110, 429.6426
902.7380, 269.2422
903.8660, 243.8496
904.9930, 224.4629
906.1200, 425.0879
907.2460, 170.7207
908.3730, 165.3613
909.5000, 241.0215
910.6260, 102.6934
911.7520, 496.3730
912.8780, 221.0703
914.0040, 971.7754
915.1290, 382.4922
916.2550, 446.2188
917.3800, 244.4883
918.5050, 426.2344
919.6300, 377.9961
920.7550, 265.7656
921.8800, 192.5508
923.0040, 268.3438
924.1290, 209.2617
925.2530, 455.9688
926.3770, 185.8047
927.5010, 342.6484
928.6250, 246.5078
929.7480, 375.3828
930.8720, 320.2773
931.9950, 119.1914
933.1180, 317.1367
934.2410, 216.0938
935.3640, 391.7891
936.4860, 623.7734
937.6090, 288.2617
938.7310, 548.3164
939.8530, 406.3945
940.9750, 367.5234
942.0970, 527.6953
943.2180, 307.8828
944.3400, 230.2695
945.4610, 759.5039
946.5820, 516.7539
947.7030, 603.0273
948.8240, 433.1562
949.9450, 676.4961
951.0650, 580.8281
952.1860, 541.1953
953.3060, 749.5781
954.4260, 522.6211
955.5460, 615.5469
956.6650, 349.9883
957.7850, 446.4648
958.9040, 601.5117
960.0230, 521.0625
961.1420, 483.6445
962.2610, 554.2891
963.3800, 581.9492
964.4990, 716.6055
965.6170, 374.1523
966.7350, 516.9297
967.8530, 428.7305
968.9710, 655.5508
970.0890, 905.4062
971.2070, 506.3164
972.3240, 485.2500
973.4410, 582.2070
974.5580, 607.0938
975.6750, 625.9961
976.7920, 529.6289
977.9090, 626.7656
979.0250, 714.1523
980.1410, 594.2227
981.2580, 812.4727
982.3740, 728.7461
983.4890, 730.0430
984.6050, 599.3633
985.7200, 750.7070
986.8360, 766.0820
987.9510, 780.4844
989.0660, 852.7969
990.1810, 930.2656
991.2950, 675.3281
992.4100, 765.5859
993.5240, 817.1445
994.6390, 732.7305
995.7530, 862.3477
996.8660, 804.9805
997.9800, 821.6484
999.0940, 737.3398
1000.207, 850.0625
1001.320, 776.8086
1002.433, 848.5859
1003.546, 1007.410
1004.659, 702.2617
1005.772, 851.1602
1006.884, 948.9492
1007.996, 674.5078
1009.108, 794.5078
1010.220, 697.5352
1011.332, 689.5898
1012.444, 970.6719
1013.555, 613.7969
1014.666, 984.9414
1015.777, 809.1250
1016.888, 920.3320
1017.999, 670.5703
1019.110, 860.7109
1020.220, 1067.008
1021.331, 610.3359
1022.441, 841.6875
1023.551, 1016.070
1024.661, 832.5078
1025.770, 736.9766
1026.880, 753.2188
1027.989, 853.7461
1029.098, 1073.305
1030.207, 886.8906
1031.316, 1030.508
1032.425, 1115.152
1033.533, 915.8320
1034.642, 957.5391
1035.750, 976.2734
1036.858, 839.0430
1037.966, 957.1445
1039.073, 1116.672
1040.181, 1081.531
1041.288, 1088.418
1042.396, 1134.762
1043.503, 1008.707
1044.610, 1202.688
1045.716, 1016.430
1046.823, 1174.469
1047.929, 1245.535
1049.036, 1051.633
1050.142, 948.7617
1051.248, 1006.926
1052.353, 1367.121
1053.459, 1076.348
1054.564, 1158.602
1055.670, 1415.883
1056.775, 1235.199
1057.880, 1078.547
1058.985, 1137.922
1060.089, 1356.324
1061.194, 1278.758
1062.298, 1254.223
1063.402, 1154.504
1064.506, 1102.027
1065.610, 1166.586
1066.713, 1132.168
1067.817, 1245.785
1068.920, 1192.438
1070.023, 1150.117
1071.126, 1132.750
1072.229, 1012.973
1073.332, 1192.023
1074.435, 1230.004
1075.537, 1292.855
1076.639, 1244.168
1077.741, 1267.637
1078.843, 1109.035
1079.945, 1224.125
1081.046, 1106.125
1082.148, 1031.344
1083.249, 1202.426
1084.350, 1082.715
1085.451, 1304.852
1086.551, 880.0156
1087.652, 1050.219
1088.752, 1152.457
1089.853, 1336.719
1090.953, 1036.008
1092.053, 1031.328
1093.152, 1267.676
1094.252, 751.0508
1095.351, 1063.449
1096.451, 905.8789
1097.550, 1048.352
1098.649, 1037.871
1099.748, 1070.414
1100.846, 1285.988
1101.945, 1049.898
1103.043, 1133.520
1104.141, 989.6445
1105.239, 948.3164
1106.337, 972.0195
1107.434, 856.7500
1108.532, 853.3906
1109.629, 797.0312
1110.726, 830.2617
1111.823, 810.5898
1112.920, 906.5859
1114.017, 1160.602
1115.113, 1156.641
1116.210, 1270.703
1117.306, 1395.789
1118.402, 1461.902
1119.498, 1581.750
1120.593, 1486.910
1121.689, 1470.105
1122.784, 1457.328
1123.879, 1462.062
1124.974, 1480.355
1126.069, 1483.680
1127.164, 1204.027
1128.259, 948.3984
1129.353, 895.7891
1130.447, 876.2031
1131.541, 554.6406
1132.635, 478.1016
1133.729, 621.5781
1134.822, 438.4375
1135.916, 536.9648
1137.009, 479.6406
1138.102, 588.3594
1139.195, 508.3438
1140.288, 621.0508
1141.380, 597.7734
1142.473, 571.5117
1143.565, 605.3906
1144.657, 412.0977
1145.749, 518.9414
1146.841, 524.2656
1147.932, 319.1484
1149.024, 548.0547
1150.115, 151.9727
1151.206, 508.9219
1152.297, 515.8906
1153.388, 353.8750
1154.479, 423.8828
1155.569, 420.8984
1156.659, 449.9375
1157.750, 474.4375
1158.839, 345.1016
1159.929, 486.2227
1161.019, 449.3594
1162.108, 409.5117
1163.198, 188.6797
1164.287, 316.8672
1165.376, 262.0664
1166.465, 125.2891
1167.553, 452.7031
1168.642, 437.9492
1169.730, 231.2109
1170.818, 507.4961
1171.906, 351.8125
1172.994, 77.85547
1174.082, 193.4688
1175.170, 171.8086
1176.257, 60.83984
1177.344, 133.5117
1178.431, 216.8828
1179.518, 169.2617
1180.605, 232.6641
1181.691, 198.0742
1182.778, 255.4961
1183.864, 228.9336
1184.950, 76.38281
1186.036, 6.843750
1187.122, 319.3203
1188.207, 411.8086
1189.292, 305.3086
1190.378, 120.8242
1191.463, 92.34766
1192.548, 76.88281
1193.632, 52.56641
1194.717, 117.9766
1195.801, 179.5312
1196.886, 145.0977
1197.970, 110.6719
1199.054, 41.21484
1200.137, 72.81250
1201.221, 174.5820
1202.305, 61.03906
1203.388, 144.9062
1204.471, 142.4414
1205.554, 48.00781
1206.637, 14.54297
1207.719, 85.90234
1208.802, 277.3672
1209.884, 50.15625
1210.966, 468.3047
1212.048, 50.19531
1213.130, 173.2773
1214.212, 67.22266
1215.293, 218.2227
1216.374, 94.67969
1217.456, 106.1445
1218.536, 146.6133
1219.617, 175.0898
1220.698, 31.57031
1221.778, 63.06250
1222.859, 121.5586
1223.939, 109.0625
1225.019, 410.5703
1226.099, 417.1133
1227.178, 130.2109
1228.258, 349.7852
1229.337, 52.32031
1230.417, 159.8633
1231.496, 41.59375
1232.574, 71.93359
1233.653, 5.535156
1234.732, 116.0000
1235.810, 24.53125
1236.888, 39.08984
1237.966, 29.64062
1239.044, 318.2031
1240.122, 149.7695
1241.199, 155.6641
1242.277, 152.8203
1243.354, 75.30859
1244.431, 97.80078
1245.508, 256.2969
1246.585, 44.79688
1247.661, 245.2969
1248.738, 3.199219
1249.814, 187.2969
1250.890, 397.7930
1251.966, 200.2930
1253.042, 15.20703
1254.117, 82.27734
1255.193, 172.9062
1256.268, 335.9570
