##NAMES=Arsenopyrite
##RRUFFID=R050071
##IDEAL CHEMISTRY=Fe^3+^(AsS)^3-^
##LOCALITY=Yaogangxian mine, Yizhang County, Hunan Province, China
##OWNER=RRUFF
##SOURCE=Rock Currier
##DESCRIPTION=Steel-gray tabular
##STATUS=The identification of this mineral has been confirmed by X-ray diffraction and chemical analysis
##URL=rruff.info/R050071
##MEASURED CHEMISTRY=FeAsS
##PIN_ID=L00187
##ORIENTATION=Laser parallel to a* (1 0 0). Fiducial mark perpendicular to laser is parallel to b [0 1 0]
71.24100, 0.0000000E+00
72.47700, 4082.680
73.71400, 10676.35
74.95100, 16802.21
76.18700, 20854.32
77.42300, 18915.41
78.65900, 17230.62
79.89500, 11250.83
81.13100, 4330.574
82.36700, 1164.410
83.60200, 855.9375
84.83700, 592.6797
86.07200, 273.8945
87.30800, 153.4141
88.54200, 316.3594
89.77700, 192.2109
91.01200, 791.0781
92.24600, 1267.055
93.48000, 352.0820
94.71400, 402.8125
95.94800, 277.6484
97.18200, 3.859375
98.41600, 195.9258
99.64900, 148.2227
100.8830, 4.105469
102.1160, 443.4336
103.3490, 1964.426
104.5820, 3756.754
105.8150, 7670.582
107.0470, 12543.60
108.2800, 18706.48
109.5120, 18736.20
110.7440, 13637.70
111.9760, 16125.46
113.2080, 19608.43
114.4400, 23303.98
115.6710, 25396.51
116.9030, 27530.93
118.1340, 31704.50
119.3650, 28084.93
120.5960, 15241.52
121.8270, 5804.055
123.0580, 2937.078
124.2880, 1757.309
125.5190, 342.3125
126.7490, 33.50391
127.9790, 120.8633
129.2090, 135.9609
130.4390, 187.3242
131.6680, 132.5352
132.8980, 91.29688
134.1270, 35.72266
135.3560, 74.19531
136.5850, 135.9375
137.8140, 55.16406
139.0430, 24.22656
140.2710, 42.60938
141.5000, 46.98047
142.7280, 94.64453
143.9560, 55.07031
145.1840, 109.7852
146.4120, 223.5742
147.6390, 357.3789
148.8670, 32.96484
150.0940, 550.5234
151.3210, 1235.520
152.5490, 1029.432
153.7750, 693.5996
155.0020, 770.2969
156.2290, 1020.871
157.4550, 791.8242
158.6810, 901.7363
159.9080, 877.0820
161.1340, 1203.449
162.3590, 1192.547
163.5850, 1070.393
164.8110, 972.4629
166.0360, 754.4727
167.2610, 638.5547
168.4860, 624.7207
169.7110, 852.9531
170.9360, 852.2383
172.1610, 695.8691
173.3850, 503.8105
174.6100, 544.1270
175.8340, 561.5449
177.0580, 548.3867
178.2820, 523.8848
179.5050, 568.1133
180.7290, 458.9473
181.9520, 654.4102
183.1760, 508.5918
184.3990, 576.2129
185.6220, 403.3945
186.8450, 442.0918
188.0670, 921.1445
189.2900, 1083.125
190.5120, 1437.711
191.7340, 1400.174
192.9560, 1503.508
194.1780, 1664.721
195.4000, 1610.812
196.6220, 1592.771
197.8430, 1581.607
199.0640, 1473.309
200.2860, 1706.883
201.5070, 1740.332
202.7270, 1777.641
203.9480, 947.8379
205.1690, 741.9199
206.3890, 447.8945
207.6090, 149.2266
208.8290, 129.4590
210.0490, 299.7891
211.2690, 52.21875
212.4890, 217.7520
213.7080, 19.30469
214.9280, 36.17578
216.1470, 27.90430
217.3660, 188.3281
218.5850, 232.8984
219.8030, 35.50781
221.0220, 8.271484
222.2400, 20.64062
223.4590, 17.77148
224.6770, 148.3652
225.8950, 162.1934
227.1120, 24.97070
228.3300, 287.5723
229.5480, 194.1094
230.7650, 277.6836
231.9820, 1.625000
233.1990, 42.15430
234.4160, 19.41797
235.6330, 6.197266
236.8490, 38.34766
238.0660, 204.1270
239.2820, 28.80469
240.4980, 96.50195
241.7140, 128.0371
242.9300, 165.1309
244.1460, 197.0566
245.3610, 111.3926
246.5770, 121.4570
247.7920, 159.3984
249.0070, 69.23242
250.2220, 280.7070
251.4370, 174.9668
252.6510, 370.9648
253.8660, 314.5273
255.0800, 523.4883
256.2940, 804.8672
257.5080, 1614.895
258.7220, 5310.680
259.9360, 3608.148
261.1490, 4907.516
262.3630, 2173.555
263.5760, 1795.352
264.7890, 1364.898
266.0020, 1802.219
267.2150, 1606.316
268.4270, 1287.195
269.6400, 1151.852
270.8520, 811.2930
272.0640, 482.5273
273.2760, 729.4258
274.4880, 1247.250
275.7000, 1227.859
276.9120, 1103.301
278.1230, 857.5742
279.3340, 824.6250
280.5450, 852.4648
281.7560, 740.7617
282.9670, 629.4180
284.1780, 852.9297
285.3880, 486.7852
286.5980, 684.0312
287.8090, 611.1211
289.0190, 696.1211
290.2290, 790.4844
291.4380, 699.0156
292.6480, 639.2930
293.8570, 589.5273
295.0670, 624.4570
296.2760, 647.8008
297.4850, 687.6250
298.6930, 631.1328
299.9020, 618.1875
301.1110, 895.1914
302.3190, 536.8008
303.5270, 771.1250
304.7350, 793.0547
305.9430, 682.8125
307.1510, 1074.402
308.3580, 824.8750
309.5660, 817.2539
310.7730, 947.5938
311.9800, 1152.875
313.1870, 921.1016
314.3940, 949.2109
315.6010, 921.3555
316.8070, 1078.453
318.0130, 1032.484
319.2200, 1119.754
320.4260, 1013.273
321.6310, 819.8086
322.8370, 1038.242
324.0430, 925.4922
325.2480, 1033.887
326.4540, 1071.465
327.6590, 975.0781
328.8640, 1350.000
330.0680, 1341.234
331.2730, 1184.977
332.4780, 1066.191
333.6820, 931.5742
334.8860, 1125.918
336.0900, 1237.223
337.2940, 1121.488
338.4980, 1347.719
339.7010, 951.9141
340.9050, 1062.074
342.1080, 1087.203
343.3110, 1261.293
344.5140, 1264.551
345.7170, 1203.000
346.9200, 1356.375
348.1220, 1031.340
349.3240, 1127.277
350.5270, 1140.184
351.7290, 1038.164
352.9310, 1213.148
354.1320, 916.4844
355.3340, 997.2305
356.5350, 1142.625
357.7370, 766.7383
358.9380, 989.8164
360.1390, 913.5781
361.3400, 798.3867
362.5400, 936.8867
363.7410, 814.5859
364.9410, 997.5352
366.1410, 814.0469
367.3410, 848.5273
368.5410, 787.9609
369.7410, 714.9648
370.9400, 831.8984
372.1400, 782.2891
373.3390, 934.9414
374.5380, 666.2500
375.7370, 697.1094
376.9360, 604.1133
378.1350, 689.7852
379.3330, 477.7109
380.5310, 367.0703
381.7300, 604.4648
382.9280, 351.3008
384.1260, 708.4531
385.3230, 534.3008
386.5210, 447.4609
387.7180, 549.2383
388.9160, 348.8086
390.1130, 446.8906
391.3100, 506.2227
392.5060, 599.6133
393.7030, 513.8867
394.9000, 520.7188
396.0960, 431.5273
397.2920, 374.0938
398.4880, 449.6211
399.6840, 330.8672
400.8800, 231.6133
402.0750, 482.3164
403.2710, 544.9883
404.4660, 577.6211
405.6610, 706.0703
406.8560, 535.8047
408.0510, 761.3477
409.2450, 602.8906
410.4400, 460.4492
411.6340, 794.9844
412.8280, 496.4922
414.0220, 477.9766
415.2160, 830.3594
416.4100, 630.6016
417.6030, 573.5859
418.7970, 551.9922
419.9900, 314.3750
421.1830, 651.7422
422.3760, 474.1055
423.5690, 642.3945
424.7610, 628.7305
425.9540, 601.6953
427.1460, 1256.133
428.3380, 961.0039
429.5300, 1190.758
430.7220, 963.4766
431.9140, 482.7930
433.1050, 809.6484
434.2970, 886.9766
435.4880, 631.0586
436.6790, 765.0977
437.8700, 718.9414
439.0610, 671.0195
440.2510, 555.2188
441.4420, 675.6055
442.6320, 743.8164
443.8220, 814.9961
445.0120, 833.5000
446.2020, 684.7383
447.3910, 746.6133
448.5810, 831.5078
449.7700, 629.2070
450.9600, 741.1523
452.1490, 651.1172
453.3370, 563.1016
454.5260, 527.1133
455.7150, 685.1484
456.9030, 466.2266
458.0910, 573.3281
459.2800, 774.4609
460.4670, 504.6211
461.6550, 804.8047
462.8430, 809.0234
464.0300, 755.2734
465.2180, 870.5820
466.4050, 777.9258
467.5920, 528.3008
468.7790, 525.7109
469.9650, 654.1523
471.1520, 775.6328
472.3380, 772.1445
473.5250, 628.6836
474.7110, 660.2656
475.8970, 670.8867
477.0820, 628.5547
478.2680, 829.2539
479.4540, 611.9883
480.6390, 865.7500
481.8240, 820.5547
483.0090, 943.3906
484.1940, 829.2539
485.3780, 998.1562
486.5630, 1005.102
487.7470, 1093.078
488.9320, 860.0938
490.1160, 1038.141
491.3000, 942.2266
492.4830, 981.3477
493.6670, 944.5078
494.8500, 989.7070
496.0340, 964.4023
497.2170, 968.5156
498.4000, 896.1602
499.5820, 996.9219
500.7650, 906.8359
501.9480, 1044.840
503.1300, 977.9492
504.3120, 1022.152
505.4940, 992.5156
506.6760, 895.8594
507.8580, 974.7188
509.0390, 793.5039
510.2210, 958.4023
511.4020, 1159.398
512.5830, 1231.551
513.7640, 1153.848
514.9450, 1190.246
516.1250, 1052.820
517.3060, 1613.551
518.4860, 1239.496
519.6660, 1702.945
520.8460, 1525.117
522.0260, 1243.398
523.2060, 1481.785
524.3850, 1275.285
525.5650, 1004.953
526.7440, 1206.719
527.9230, 1213.578
529.1020, 1130.578
530.2810, 1170.672
531.4590, 1023.938
532.6380, 988.3438
533.8160, 1316.395
534.9940, 1295.055
536.1720, 1300.734
537.3500, 1346.062
538.5270, 1336.035
539.7050, 1336.457
540.8820, 1338.402
542.0590, 1294.434
543.2360, 1247.773
544.4130, 1187.902
545.5900, 1318.133
546.7660, 1404.824
547.9430, 1556.117
549.1190, 1523.477
550.2950, 1510.137
551.4710, 1620.758
552.6470, 1557.898
553.8220, 1674.496
554.9980, 1625.191
556.1730, 1535.570
557.3480, 1515.328
558.5230, 1471.141
559.6980, 1327.016
560.8730, 1578.988
562.0470, 1380.328
563.2220, 1215.555
564.3960, 1581.465
565.5700, 1375.648
566.7440, 1710.918
567.9170, 1437.121
569.0910, 1678.648
570.2640, 1402.074
571.4380, 1495.570
572.6110, 1433.109
573.7840, 1490.711
574.9570, 1217.262
576.1290, 1190.785
577.3020, 1344.148
578.4740, 1043.973
579.6460, 928.3359
580.8180, 857.2969
581.9900, 494.2812
583.1620, 679.2578
584.3330, 406.0859
585.5040, 636.1562
586.6760, 796.3438
587.8470, 319.6016
589.0180, 587.9141
590.1880, 383.2773
591.3590, 490.6914
592.5290, 420.2305
593.7000, 354.7852
594.8700, 239.3945
596.0400, 187.0508
597.2090, 73.20312
598.3790, 301.9766
599.5490, 129.7930
600.7180, 544.6562
601.8870, 341.5664
603.0560, 444.5195
604.2250, 488.5234
605.3940, 259.1094
606.5620, 194.2031
607.7300, 403.3438
608.8990, 382.5312
610.0670, 373.7695
611.2350, 97.05078
612.4020, 409.3750
613.5700, 159.7422
614.7370, 380.1562
615.9050, 276.6133
617.0720, 350.0703
618.2390, 439.6211
619.4060, 315.2148
620.5720, 417.8555
621.7390, 332.5312
622.9050, 513.2539
624.0710, 258.0195
625.2370, 456.9062
626.4030, 458.1914
627.5690, 491.0820
628.7340, 458.2266
629.9000, 449.4961
631.0650, 250.0039
632.2300, 412.0586
633.3950, 274.1523
634.5600, 284.2969
635.7240, 413.4727
636.8890, 163.6953
638.0530, 396.9531
639.2170, 323.2500
640.3810, 220.5781
641.5450, 296.9531
642.7080, 233.3633
643.8720, 260.8047
645.0350, 183.8945
646.1980, 51.43359
647.3610, 296.4375
648.5240, 152.9961
649.6870, 269.4492
650.8490, 115.0898
652.0120, 150.2656
653.1740, 244.9727
654.3360, 49.70312
655.4980, 106.5781
656.6600, 58.36719
657.8210, 134.7891
658.9830, 114.3672
660.1440, 45.48438
661.3050, 342.3516
662.4660, 88.25000
663.6270, 159.1758
664.7870, 211.1172
665.9480, 148.0820
667.1080, 212.4258
668.2680, 160.0820
669.4280, 173.6836
670.5880, 200.3516
671.7480, 21.42188
672.9070, 131.4883
674.0670, 6.066406
675.2260, 44.03125
676.3850, 145.1367
677.5440, 38.73438
678.7030, 9.593750
679.8610, 27.77344
681.0200, 174.3906
682.1780, 17.00391
683.3360, 29.19141
684.4940, 219.8633
685.6520, 62.92188
686.8090, 65.30078
687.9670, 135.9219
689.1240, 165.8281
690.2810, 235.6250
691.4380, 59.32031
692.5950, 94.80469
693.7520, 9.945313
694.9080, 59.90625
696.0650, 96.24219
697.2210, 21.77734
698.3770, 47.01562
699.5330, 1.128906
700.6880, 9.851563
701.8440, 60.65625
702.9990, 50.88281
704.1550, 21.70312
705.3100, 75.80859
706.4650, 25.64453
707.6190, 128.4922
708.7740, 61.62891
709.9290, 111.7461
711.0830, 239.8750
712.2370, 522.0117
713.3910, 40.45703
714.5450, 95.03125
715.6980, 126.2227
716.8520, 140.0156
718.0050, 26.93750
719.1580, 13.09766
720.3110, 251.1367
721.4640, 125.8203
722.6170, 6.148438
723.7700, 225.1641
724.9220, 64.70703
726.0740, 63.05859
727.2260, 41.93750
728.3780, 195.9688
729.5300, 70.85156
730.6810, 20.73828
731.8330, 224.9062
732.9840, 75.79297
734.1350, 73.80859
735.2860, 40.29688
736.4370, 62.14062
737.5880, 46.00391
738.7380, 64.86719
739.8880, 173.7305
741.0390, 359.5898
742.1890, 104.4492
743.3380, 119.6914
744.4880, 58.09375
745.6380, 189.8789
746.7870, 328.0586
747.9360, 377.3516
749.0850, 435.6211
750.2340, 356.3945
751.3830, 344.1758
752.5310, 176.9453
753.6800, 288.7148
754.8280, 12.51562
755.9760, 129.3398
757.1240, 226.0703
758.2720, 450.8047
759.4190, 192.7617
760.5670, 539.4883
761.7140, 106.2070
762.8610, 63.92188
764.0080, 50.63281
765.1550, 215.3320
766.3020, 80.03125
767.4480, 414.7617
768.5950, 380.4531
769.7410, 322.1328
770.8870, 252.8125
772.0330, 89.69141
773.1780, 137.3594
774.3240, 134.0195
775.4690, 240.6797
776.6140, 244.3281
777.7590, 288.8086
778.9040, 156.6172
780.0490, 310.2539
781.1940, 91.88281
782.3380, 23.49609
783.4820, 88.08203
784.6260, 139.3516
785.7700, 6.113281
786.9140, 56.54297
788.0580, 172.9531
789.2010, 1.636719
790.3450, 264.7344
791.4880, 309.0938
792.6310, 87.44922
793.7730, 169.7969
794.9160, 86.86328
796.0590, 112.3945
797.2010, 180.2422
798.3430, 164.4922
799.4850, 117.7227
800.6270, 216.9531
801.7690, 250.1797
802.9100, 229.3945
804.0520, 110.6016
805.1930, 119.8047
806.3340, 40.99609
807.4750, 17.17188
808.6160, 155.3125
809.7560, 343.4492
810.8970, 77.01562
812.0370, 251.0586
813.1770, 102.1641
814.3170, 175.2734
815.4570, 229.7148
816.5960, 64.67578
817.7360, 116.3086
818.8750, 73.37891
820.0140, 203.1797
821.1530, 40.23047
822.2920, 441.2617
823.4310, 296.8008
824.5690, 1.183594
825.7070, 221.8008
826.8460, 123.5430
827.9840, 75.66016
829.1220, 231.6523
830.2590, 109.5469
831.3970, 87.44141
832.5340, 269.5977
833.6710, 55.47656
834.8080, 124.3516
835.9450, 125.2227
837.0820, 141.9609
838.2190, 103.4883
839.3550, 123.0977
840.4910, 257.0664
841.6270, 51.82422
842.7630, 193.5352
843.8990, 100.6367
845.0350, 139.8867
846.1700, 244.5586
847.3060, 98.74609
848.4410, 68.89844
849.5760, 36.55859
850.7100, 9.972656
851.8450, 20.16016
852.9800, 31.20312
854.1140, 93.83203
855.2480, 123.9805
856.3820, 203.5820
857.5160, 256.2148
858.6500, 7.898438
859.7830, 202.7812
860.9170, 73.48047
862.0500, 69.89844
863.1830, 177.6875
864.3160, 9.726563
865.4480, 115.8516
866.5810, 114.4258
867.7130, 206.0625
868.8460, 32.41406
869.9780, 7.898438
871.1100, 15.38281
872.2410, 78.57812
873.3730, 14.86719
874.5050, 207.3242
875.6360, 103.7773
876.7670, 263.2422
877.8980, 208.2852
879.0290, 193.1758
880.1590, 104.1133
881.2900, 11.59375
882.4200, 29.92188
883.5500, 153.5547
884.6800, 245.0391
885.8100, 150.5234
886.9400, 404.0195
888.0690, 100.5195
889.1990, 400.0273
890.3280, 423.5391
891.4570, 30.89453
892.5860, 233.6211
893.7140, 126.1484
894.8430, 12.32031
895.9710, 226.2188
897.1000, 140.7656
898.2280, 266.3203
899.3560, 175.8047
900.4830, 148.9414
901.6110, 44.52344
902.7380, 1.882813
903.8660, 382.7148
904.9930, 118.3203
906.1200, 189.9375
907.2460, 14.43359
908.3730, 94.19531
909.5000, 220.8438
910.6260, 125.4961
911.7520, 239.5117
912.8780, 467.8359
914.0040, 344.5234
915.1290, 342.2188
916.2550, 460.9258
917.3800, 321.6836
918.5050, 369.7656
919.6300, 169.4844
920.7550, 437.7773
921.8800, 380.5703
923.0040, 357.5156
924.1290, 437.7109
925.2530, 296.6172
926.3770, 403.4414
927.5010, 371.2812
928.6250, 297.0273
929.7480, 462.8945
930.8720, 315.1758
931.9950, 471.0781
933.1180, 319.0078
934.2410, 525.9531
935.3640, 472.9180
936.4860, 510.8945
937.6090, 536.7969
938.7310, 295.9336
939.8530, 523.9766
940.9750, 434.0430
942.0970, 465.5586
943.2180, 556.0469
944.3400, 561.1641
945.4610, 336.3008
946.5820, 634.1289
947.7030, 307.3203
948.8240, 237.5352
949.9450, 618.7656
951.0650, 564.0234
952.1860, 374.6289
953.3060, 355.9297
954.4260, 472.8203
955.5460, 587.1562
956.6650, 457.0547
957.7850, 262.4375
958.9040, 516.8516
960.0230, 331.8984
961.1420, 585.3516
962.2610, 599.8594
963.3800, 569.2617
964.4990, 682.8633
965.6170, 144.4883
966.7350, 163.1602
967.8530, 375.8789
968.9710, 582.2578
970.0890, 605.0391
971.2070, 588.8477
972.3240, 615.8516
973.4410, 524.7109
974.5580, 591.5547
975.6750, 534.6133
976.7920, 658.2969
977.9090, 613.3242
979.0250, 600.4023
980.1410, 535.5195
981.2580, 801.6641
982.3740, 568.8320
983.4890, 697.0312
984.6050, 693.8945
985.7200, 576.8906
986.8360, 701.5195
987.9510, 943.7227
989.0660, 715.1523
990.1810, 855.6133
991.2950, 737.1094
992.4100, 811.6719
993.5240, 868.6211
994.6390, 871.5430
995.7530, 914.0469
996.8660, 971.3789
997.9800, 949.7656
999.0940, 986.9258
1000.207, 887.8750
1001.320, 1022.820
1002.433, 902.5352
1003.546, 940.5898
1004.659, 862.4102
1005.772, 784.9844
1006.884, 709.2852
1007.996, 682.5156
1009.108, 729.7773
1010.220, 852.0742
1011.332, 994.3984
1012.444, 853.7617
1013.555, 922.1484
1014.666, 948.6797
1015.777, 968.0977
1016.888, 988.2305
1017.999, 865.7891
1019.110, 829.3789
1020.220, 887.0039
1021.331, 913.6602
1022.441, 929.3477
1023.551, 806.0703
1024.661, 785.8242
1025.770, 780.4414
1026.880, 1035.352
1027.989, 820.8789
1029.098, 859.5547
1030.207, 956.4961
1031.316, 872.4648
1032.425, 1144.477
1033.533, 1126.516
1034.642, 871.5938
1035.750, 966.7148
1036.858, 718.8281
1037.966, 910.0039
1039.073, 995.2227
1040.181, 1291.473
1041.288, 1379.559
1042.396, 1353.570
1043.503, 1078.234
1044.610, 1213.625
1045.716, 973.0469
1046.823, 903.5078
1047.929, 1128.004
1049.036, 957.5312
1050.142, 1097.094
1051.248, 1189.695
1052.353, 1098.348
1053.459, 1026.043
1054.564, 1301.859
1055.670, 1166.727
1056.775, 1336.637
1057.880, 940.5781
1058.985, 996.5742
1060.089, 1028.602
1061.194, 1065.664
1062.298, 1170.766
1063.402, 1189.902
1064.506, 1309.113
1065.610, 1075.355
1066.713, 1033.637
1067.817, 1233.949
1068.920, 1118.297
1070.023, 1235.711
1071.126, 1582.129
1072.229, 1139.840
1073.332, 1389.324
1074.435, 1137.848
1075.537, 1299.414
1076.639, 1120.023
1077.741, 1151.672
1078.843, 1360.355
1079.945, 1248.070
1081.046, 1248.820
1082.148, 1378.609
1083.249, 1241.430
1084.350, 1137.289
1085.451, 1204.184
1086.551, 1162.113
1087.652, 1304.078
1088.752, 1172.078
1089.853, 977.1172
1090.953, 1205.195
1092.053, 1137.305
1093.152, 965.4609
1094.252, 1310.656
1095.351, 1198.883
1096.451, 1045.180
1097.550, 1169.504
1098.649, 844.6992
1099.748, 922.5898
1100.846, 1226.539
1101.945, 902.1367
1103.043, 1014.625
1104.141, 1101.152
1105.239, 937.7539
1106.337, 1076.766
1107.434, 871.4648
1108.532, 996.1641
1109.629, 1039.898
1110.726, 1141.660
1111.823, 1242.488
1112.920, 937.3477
1114.017, 901.2344
1115.113, 913.6875
1116.210, 745.9492
1117.306, 846.9336
1118.402, 1001.211
1119.498, 1007.266
1120.593, 946.3477
1121.689, 1110.465
1122.784, 982.6133
1123.879, 1071.164
1124.974, 945.3633
1126.069, 895.6016
1127.164, 881.8555
1128.259, 970.1484
1129.353, 630.8281
1130.447, 745.1953
1131.541, 631.9336
1132.635, 452.5742
1133.729, 396.3477
1134.822, 422.8828
1135.916, 479.6055
1137.009, 524.9258
1138.102, 706.5508
1139.195, 693.9648
1140.288, 664.7812
1141.380, 473.3867
1142.473, 511.1289
1143.565, 546.9023
1144.657, 505.6992
1145.749, 507.5156
1146.841, 493.2305
1147.932, 443.2227
1149.024, 480.1211
1150.115, 416.0430
1151.206, 466.0156
1152.297, 358.0234
1153.388, 559.0625
1154.479, 444.8750
1155.569, 579.2109
1156.659, 204.3203
1157.750, 346.4570
1158.839, 44.38281
1159.929, 351.7930
1161.019, 392.9883
1162.108, 235.3359
1163.198, 321.5781
1164.287, 618.0625
1165.376, 306.3477
1166.465, 2.652344
1167.553, 220.9766
1168.642, 317.3203
1169.730, 339.6836
1170.818, 285.0703
1171.906, 198.4766
1172.994, 300.9062
1174.082, 186.3477
1175.170, 254.8125
1176.257, 401.2969
1177.344, 525.8008
1178.431, 203.3242
1179.518, 394.8633
1180.605, 251.4219
1181.691, 188.0039
1182.778, 251.6016
1183.864, 240.4414
1184.950, 167.7305
1186.036, 280.3789
1187.122, 186.0469
1188.207, 184.0000
1189.292, 158.4297
1190.378, 150.1445
1191.463, 34.87891
1192.548, 58.62500
1193.632, 178.4688
1194.717, 380.2500
1195.801, 83.03906
1196.886, 328.8477
1197.970, 49.67188
1199.054, 214.5078
1200.137, 84.64062
1201.221, 255.2031
1202.305, 14.94531
1203.388, 124.9180
1204.471, 17.79688
1205.554, 157.6875
1206.637, 48.59375
1207.719, 83.46875
1208.802, 53.52734
1209.884, 130.4727
1210.966, 117.4258
1212.048, 189.3945
1213.130, 216.3711
1214.212, 316.5742
1215.293, 260.3711
1216.374, 477.5352
1217.456, 176.5586
1218.536, 71.60156
1219.617, 41.64844
1220.698, 171.7109
1221.778, 40.78125
1222.859, 177.8633
1223.939, 101.9570
1225.019, 224.0508
1226.099, 177.1602
1227.178, 40.27344
1228.258, 95.59766
1229.337, 71.83203
1230.417, 71.43359
1231.496, 2.386719
1232.574, 41.66406
1233.653, 165.7227
1234.732, 127.7852
1235.810, 150.1367
1236.888, 2.875000
1237.966, 337.8867
1239.044, 550.9062
1240.122, 155.9414
1241.199, 114.9805
1242.277, 237.0352
1243.354, 82.08984
1244.431, 6.847656
1245.508, 90.78516
1246.585, 106.2344
1247.661, 18.74219
1248.738, 77.28125
1249.814, 101.3086
1250.890, 21.35156
1251.966, 117.8633
1253.042, 172.0898
1254.117, 134.8750
1255.193, 16.83984
1256.268, 112.1914
1257.343, 24.73047
