##NAMES=Arsenopyrite
##RRUFFID=R050071
##IDEAL CHEMISTRY=Fe^3+^(AsS)^3-^
##LOCALITY=Yaogangxian mine, Yizhang County, Hunan Province, China
##OWNER=RRUFF
##SOURCE=Rock Currier
##DESCRIPTION=Steel-gray tabular
##STATUS=The identification of this mineral has been confirmed by X-ray diffraction and chemical analysis
##URL=rruff.info/R050071
##MEASURED CHEMISTRY=FeAsS
##PIN_ID=L00055
##ORIENTATION=Laser parallel to b* (0 1 0). Fiducial mark perpendicular to laser is parallel to c [0 0 1]
71.24100, 0.0000000E+00
72.47700, 2677.754
73.71400, 7999.523
74.95100, 15360.13
76.18700, 21175.11
77.42300, 21656.57
78.65900, 22505.08
79.89500, 16186.91
81.13100, 5768.832
82.36700, 911.9258
83.60200, 860.6426
84.83700, 1109.660
86.07200, 298.3164
87.30800, 128.7227
88.54200, 137.2676
89.77700, 291.9434
91.01200, 534.5117
92.24600, 933.8633
93.48000, 555.0625
94.71400, 310.6172
95.94800, 425.9082
97.18200, 218.6230
98.41600, 250.4160
99.64900, 54.71289
100.8830, 194.7812
102.1160, 294.0020
103.3490, 1130.398
104.5820, 2700.090
105.8150, 5853.562
107.0470, 10291.56
108.2800, 15407.24
109.5120, 16913.60
110.7440, 12950.04
111.9760, 14447.13
113.2080, 18605.83
114.4400, 23062.77
115.6710, 25259.05
116.9030, 28321.59
118.1340, 33003.84
119.3650, 24185.22
120.5960, 9556.961
121.8270, 2857.092
123.0580, 1487.889
124.2880, 895.8477
125.5190, 401.9766
126.7490, 96.83398
127.9790, 196.5625
129.2090, 206.7246
130.4390, 222.0723
131.6680, 27.53125
132.8980, 85.94531
134.1270, 5.449219
135.3560, 38.67969
136.5850, 192.7109
137.8140, 44.50781
139.0430, 225.0449
140.2710, 459.2715
141.5000, 104.7656
142.7280, 67.47852
143.9560, 31.37695
145.1840, 72.46289
146.4120, 37.65625
147.6390, 105.1875
148.8670, 37.00586
150.0940, 361.7207
151.3210, 887.5234
152.5490, 946.1641
153.7750, 871.2969
155.0020, 1003.375
156.2290, 881.1270
157.4550, 950.2363
158.6810, 792.8770
159.9080, 859.5371
161.1340, 970.3164
162.3590, 762.3535
163.5850, 778.1133
164.8110, 895.7383
166.0360, 525.4941
167.2610, 417.3594
168.4860, 340.3184
169.7110, 538.3633
170.9360, 747.4766
172.1610, 552.2930
173.3850, 530.7891
174.6100, 557.8887
175.8340, 511.8613
177.0580, 161.3652
178.2820, 356.4766
179.5050, 179.1016
180.7290, 292.0586
181.9520, 325.9023
183.1760, 304.0723
184.3990, 306.4102
185.6220, 368.6758
186.8450, 473.8457
188.0670, 675.3906
189.2900, 943.3418
190.5120, 1088.914
191.7340, 1154.463
192.9560, 1168.289
194.1780, 1149.822
195.4000, 1285.379
196.6220, 1208.713
197.8430, 1418.916
199.0640, 1232.971
200.2860, 1502.887
201.5070, 1282.691
202.7270, 1378.398
203.9480, 839.0137
205.1690, 149.5391
206.3890, 22.97656
207.6090, 397.6758
208.8290, 120.4160
210.0490, 35.75586
211.2690, 119.1562
212.4890, 28.24023
213.7080, 256.1465
214.9280, 195.2148
216.1470, 119.9883
217.3660, 106.3594
218.5850, 57.78125
219.8030, 244.7109
221.0220, 231.5391
222.2400, 68.78516
223.4590, 6.960938
224.6770, 63.59180
225.8950, 296.7637
227.1120, 331.9453
228.3300, 303.6758
229.5480, 203.0234
230.7650, 146.0273
231.9820, 46.60938
233.1990, 26.72070
234.4160, 3.982422
235.6330, 41.74219
236.8490, 30.25000
238.0660, 31.69336
239.2820, 66.47461
240.4980, 51.97656
241.7140, 73.53516
242.9300, 46.20508
244.1460, 20.30078
245.3610, 47.73047
246.5770, 197.3438
247.7920, 103.4453
249.0070, 136.3105
250.2220, 71.90039
251.4370, 144.0625
252.6510, 264.0410
253.8660, 222.8281
255.0800, 210.2559
256.2940, 716.4023
257.5080, 1023.271
258.7220, 2437.930
259.9360, 1900.451
261.1490, 2585.600
262.3630, 1521.605
263.5760, 1374.398
264.7890, 1674.984
266.0020, 1377.363
267.2150, 1229.545
268.4270, 1584.543
269.6400, 830.3535
270.8520, 376.9277
272.0640, 629.2656
273.2760, 377.8301
274.4880, 671.8867
275.7000, 630.6895
276.9120, 638.3457
278.1230, 688.7930
279.3340, 741.1621
280.5450, 647.1133
281.7560, 479.6621
282.9670, 516.3828
284.1780, 590.4082
285.3880, 784.9805
286.5980, 530.9395
287.8090, 365.5430
289.0190, 689.5312
290.2290, 713.0273
291.4380, 600.1094
292.6480, 433.6895
293.8570, 518.7871
295.0670, 1255.184
296.2760, 1043.137
297.4850, 763.6719
298.6930, 682.9395
299.9020, 406.9766
301.1110, 812.7559
302.3190, 370.3340
303.5270, 672.6641
304.7350, 705.7305
305.9430, 728.6523
307.1510, 604.4062
308.3580, 501.0430
309.5660, 625.5586
310.7730, 691.0352
311.9800, 746.4688
313.1870, 774.8555
314.3940, 682.1797
315.6010, 809.4844
316.8070, 562.7383
318.0130, 789.9336
319.2200, 776.0742
320.4260, 892.1680
321.6310, 928.2148
322.8370, 809.2930
324.0430, 945.2422
325.2480, 971.9648
326.4540, 958.9727
327.6590, 1050.609
328.8640, 1050.133
330.0680, 1050.543
331.2730, 1023.645
332.4780, 1057.273
333.6820, 878.8555
334.8860, 924.4023
336.0900, 1103.906
337.2940, 868.3750
338.4980, 964.8125
339.7010, 900.2109
340.9050, 1002.582
342.1080, 879.9141
343.3110, 1099.219
344.5140, 1205.488
345.7170, 1046.723
346.9200, 800.9336
348.1220, 647.1133
349.3240, 1155.258
350.5270, 657.0781
351.7290, 777.5000
352.9310, 713.2109
354.1320, 1441.242
355.3340, 753.5391
356.5350, 699.3477
357.7370, 1178.930
358.9380, 886.7305
360.1390, 805.1562
361.3400, 762.2461
362.5400, 708.2930
363.7410, 945.0977
364.9410, 776.3164
366.1410, 836.1523
367.3410, 960.9648
368.5410, 665.2734
369.7410, 898.8828
370.9400, 514.5859
372.1400, 697.8281
373.3390, 476.5898
374.5380, 475.4180
375.7370, 690.5820
376.9360, 477.7656
378.1350, 184.2461
379.3330, 744.6953
380.5310, 343.6758
381.7300, 434.2188
382.9280, 671.3008
384.1260, 542.8242
385.3230, 476.5117
386.5210, 368.9609
387.7180, 319.6992
388.9160, 490.9453
390.1130, 301.7422
391.3100, 320.1953
392.5060, 454.5469
393.7030, 274.8672
394.9000, 271.7578
396.0960, 587.0977
397.2920, 270.5352
398.4880, 398.8516
399.6840, 624.7461
400.8800, 658.8867
402.0750, 543.9883
403.2710, 562.0469
404.4660, 424.0703
405.6610, 480.0625
406.8560, 465.2188
408.0510, 596.9570
409.2450, 470.8672
410.4400, 537.7773
411.6340, 468.6562
412.8280, 504.5547
414.0220, 620.4219
415.2160, 437.8672
416.4100, 694.6523
417.6030, 755.1016
418.7970, 457.9805
419.9900, 731.7852
421.1830, 346.6094
422.3760, 711.4648
423.5690, 525.2969
424.7610, 553.1406
425.9540, 647.8906
427.1460, 603.0469
428.3380, 736.7227
429.5300, 548.6016
430.7220, 337.8594
431.9140, 474.3320
433.1050, 818.2070
434.2970, 585.1172
435.4880, 731.8789
436.6790, 516.4219
437.8700, 273.7422
439.0610, 692.7383
440.2510, 919.7344
441.4420, 812.7383
442.6320, 629.7422
443.8220, 541.2344
445.0120, 664.3047
446.2020, 837.4609
447.3910, 575.6016
448.5810, 806.7539
449.7700, 854.9219
450.9600, 520.0664
452.1490, 669.7109
453.3370, 603.9219
454.5260, 414.1484
455.7150, 548.3984
456.9030, 483.6641
458.0910, 622.9492
459.2800, 655.2500
460.4670, 563.4648
461.6550, 808.8047
462.8430, 574.1641
464.0300, 959.5391
465.2180, 938.9453
466.4050, 778.3828
467.5920, 774.8477
468.7790, 389.3555
469.9650, 894.8906
471.1520, 751.4492
472.3380, 580.0352
473.5250, 916.6523
474.7110, 764.2891
475.8970, 656.9609
477.0820, 609.6562
478.2680, 793.3750
479.4540, 902.1133
480.6390, 745.8750
481.8240, 896.6680
483.0090, 557.4805
484.1940, 1029.324
485.3780, 817.1875
486.5630, 903.0781
487.7470, 1004.992
488.9320, 922.9414
490.1160, 1046.910
491.3000, 783.9258
492.4830, 1001.973
493.6670, 929.0586
494.8500, 816.2227
496.0340, 1007.570
497.2170, 803.0273
498.4000, 904.5547
499.5820, 767.1953
500.7650, 917.9141
501.9480, 964.6719
503.1300, 1148.789
504.3120, 928.7109
505.4940, 925.7305
506.6760, 810.8242
507.8580, 1162.055
509.0390, 1015.207
510.2210, 1123.918
511.4020, 946.4961
512.5830, 1216.164
513.7640, 1126.000
514.9450, 1148.062
516.1250, 1238.234
517.3060, 1157.547
518.4860, 1320.980
519.6660, 1473.523
520.8460, 1142.148
522.0260, 1236.867
523.2060, 1154.664
524.3850, 1105.562
525.5650, 1402.543
526.7440, 1283.605
527.9230, 1111.746
529.1020, 1309.965
530.2810, 1264.297
531.4590, 1077.723
532.6380, 983.2578
533.8160, 1073.855
534.9940, 1070.527
536.1720, 1216.648
537.3500, 1240.469
538.5270, 1015.363
539.7050, 1041.320
540.8820, 1115.355
542.0590, 1197.547
543.2360, 1359.684
544.4130, 1146.859
545.5900, 911.0781
546.7660, 1285.570
547.9430, 1141.867
549.1190, 1096.230
550.2950, 1010.605
551.4710, 1190.020
552.6470, 1244.223
553.8220, 1285.895
554.9980, 1267.438
556.1730, 1258.996
557.3480, 1632.641
558.5230, 1308.332
559.6980, 1553.102
560.8730, 1287.938
562.0470, 1605.293
563.2220, 1549.656
564.3960, 1333.641
565.5700, 1428.176
566.7440, 1283.527
567.9170, 1411.473
569.0910, 1354.664
570.2640, 1174.938
571.4380, 1240.984
572.6110, 1449.348
573.7840, 938.6836
574.9570, 1307.629
576.1290, 1121.426
577.3020, 1139.949
578.4740, 712.5586
579.6460, 1006.188
580.8180, 669.8711
581.9900, 956.6250
583.1620, 560.4180
584.3330, 691.4727
585.5040, 543.3438
586.6760, 467.9375
587.8470, 684.9531
589.0180, 103.0039
590.1880, 609.1094
591.3590, 350.2461
592.5290, 276.4609
593.7000, 369.7031
594.8700, 468.9922
596.0400, 564.3125
597.2090, 525.6680
598.3790, 298.0625
599.5490, 361.4883
600.7180, 252.9531
601.8870, 334.4531
603.0560, 327.7188
604.2250, 306.5547
605.3940, 396.1562
606.5620, 272.7969
607.7300, 359.4805
608.8990, 408.1992
610.0670, 127.9531
611.2350, 465.7422
612.4020, 138.5625
613.5700, 561.4219
614.7370, 326.3125
615.9050, 302.5703
617.0720, 5.527344
618.2390, 49.08984
619.4060, 30.80078
620.5720, 95.59766
621.7390, 211.6836
622.9050, 249.8047
624.0710, 301.0977
625.2370, 92.14453
626.4030, 323.3633
627.5690, 293.6094
628.7340, 212.8906
629.9000, 438.1992
631.0650, 201.3008
632.2300, 444.6719
633.3950, 216.0781
634.5600, 80.51172
635.7240, 200.9805
636.8890, 352.4727
638.0530, 341.0000
639.2170, 641.8398
640.3810, 367.4219
641.5450, 424.0312
642.7080, 30.15234
643.8720, 249.5039
645.0350, 54.18750
646.1980, 220.2656
647.3610, 155.0000
648.5240, 76.76172
649.6870, 275.5430
650.8490, 260.3555
652.0120, 142.1836
653.1740, 27.03906
654.3360, 5.085938
655.4980, 11.28906
656.6600, 108.7227
657.8210, 164.6602
658.9830, 91.64453
660.1440, 207.6094
661.3050, 85.60547
662.4660, 261.6133
663.6270, 226.6328
664.7870, 143.6758
665.9480, 122.7344
667.1080, 163.8047
668.2680, 85.26953
669.4280, 119.9922
670.5880, 23.10938
671.7480, 155.2383
672.9070, 186.3828
674.0670, 117.5352
675.2260, 93.29688
676.3850, 165.8633
677.5440, 65.03125
678.7030, 3.464844
679.8610, 82.92188
681.0200, 124.8789
682.1780, 118.2969
683.3360, 131.4805
684.4940, 231.7305
685.6520, 13.07031
686.8090, 80.14062
687.9670, 114.6406
689.1240, 249.5469
690.2810, 164.2578
691.4380, 31.50391
692.5950, 215.3555
693.7520, 142.7031
694.9080, 226.2227
696.0650, 119.3438
697.2210, 150.4844
698.3770, 25.81641
699.5330, 205.7266
700.6880, 117.8203
701.8440, 12.32031
702.9990, 96.64062
704.1550, 165.3906
705.3100, 3.062500
706.4650, 60.17188
707.6190, 23.70312
708.7740, 163.2695
709.9290, 86.22266
711.0830, 116.6133
712.2370, 15.54688
713.3910, 95.71484
714.5450, 20.93359
715.6980, 70.83203
716.8520, 67.39453
718.0050, 277.4609
719.1580, 125.9805
720.3110, 39.32812
721.4640, 172.0625
722.6170, 178.2031
723.7700, 207.4336
724.9220, 159.7773
726.0740, 167.7969
727.2260, 291.3320
728.3780, 187.3047
729.5300, 253.8438
730.6810, 329.8398
731.8330, 227.3672
732.9840, 208.8906
734.1350, 181.4102
735.2860, 163.9688
736.4370, 200.4336
737.5880, 200.9414
738.7380, 236.4453
739.8880, 304.9453
741.0390, 287.4375
742.1890, 238.9297
743.3380, 291.5508
744.4880, 221.8906
745.6380, 281.3789
746.7870, 364.8438
747.9360, 246.3086
749.0850, 451.0938
750.2340, 172.5430
751.3830, 74.98438
752.5310, 175.4258
753.6800, 29.47266
754.8280, 370.2656
755.9760, 103.6641
757.1240, 184.0586
758.2720, 467.4531
759.4190, 178.8398
760.5670, 374.2148
761.7140, 280.5820
762.8610, 319.9453
764.0080, 150.2969
765.1550, 392.6484
766.3020, 196.9883
767.4480, 194.3203
768.5950, 6.355469
769.7410, 550.9258
770.8870, 247.1992
772.0330, 653.4648
773.1780, 1381.719
774.3240, 266.9688
775.4690, 280.2109
776.6140, 77.44531
777.7590, 336.6641
778.9040, 258.8789
780.0490, 28.07812
781.1940, 374.9414
782.3380, 311.1055
783.4820, 78.25781
784.6260, 222.3984
785.7700, 110.5312
786.9140, 37.34375
788.0580, 287.8750
789.2010, 271.9258
790.3450, 285.9688
791.4880, 394.0039
792.6310, 313.9688
793.7730, 170.9844
794.9160, 291.9844
796.0590, 61.98438
797.2010, 382.9531
798.3430, 293.9219
799.4850, 237.8789
800.6270, 292.8242
801.7690, 364.7578
802.9100, 272.6875
804.0520, 374.6094
805.1930, 432.5195
806.3340, 365.4180
807.4750, 285.3086
808.6160, 250.1914
809.7560, 297.0664
810.8970, 222.9297
812.0370, 192.7812
813.1770, 350.2500
814.3170, 449.0859
815.4570, 148.9141
816.5960, 8.277344
817.7360, 264.4961
818.8750, 320.1602
820.0140, 269.9141
821.1530, 105.6602
822.2920, 143.3945
823.4310, 298.8828
824.5690, 203.5977
825.7070, 150.2812
826.8460, 216.9805
827.9840, 64.67969
829.1220, 267.6211
830.2590, 423.1250
831.3970, 206.7891
832.5340, 22.47266
833.6710, 32.10938
834.8080, 61.11328
835.9450, 53.92969
837.0820, 29.21094
838.2190, 18.78516
839.3550, 111.8008
840.4910, 196.2344
841.6270, 122.8438
842.7630, 179.2539
843.8990, 71.79688
845.0350, 112.8711
846.1700, 7.390625
847.3060, 350.8945
848.4410, 178.1289
849.5760, 95.43359
850.7100, 412.1641
851.8450, 106.0820
852.9800, 117.3086
854.1140, 12.51172
855.2480, 58.31641
856.3820, 107.1562
857.5160, 52.92969
858.6500, 195.0156
859.7830, 277.8750
860.9170, 209.0430
862.0500, 18.30859
863.1830, 302.2812
864.3160, 49.75000
865.4480, 161.1914
866.5810, 119.8633
867.7130, 169.0117
868.8460, 184.8906
869.9780, 167.7773
871.1100, 292.6641
872.2410, 297.4648
873.3730, 327.9102
874.5050, 336.3398
875.6360, 322.2344
876.7670, 209.1328
877.8980, 91.03516
879.0290, 218.9414
880.1590, 252.8477
881.2900, 33.23828
882.4200, 63.65625
883.5500, 228.5586
884.6800, 3.539063
885.8100, 85.36328
886.9400, 28.26953
888.0690, 173.1836
889.1990, 385.1055
890.3280, 63.69531
891.4570, 216.6289
892.5860, 363.5625
893.7140, 165.5078
894.8430, 257.4570
895.9710, 106.4102
897.1000, 119.1523
898.2280, 265.3398
899.3560, 188.3125
900.4830, 220.2969
901.6110, 364.2852
902.7380, 396.2852
903.8660, 254.2930
904.9930, 253.5508
906.1200, 501.5703
907.2460, 236.5977
908.3730, 316.6367
909.5000, 64.69141
910.6260, 289.7539
911.7520, 440.8203
912.8780, 516.6172
914.0040, 290.7070
915.1290, 419.8281
916.2550, 336.7383
917.3800, 439.8594
918.5050, 374.9961
919.6300, 431.7695
920.7550, 379.9258
921.8800, 267.0938
923.0040, 11.72656
924.1290, 187.4609
925.2530, 569.6641
926.3770, 66.87500
927.5010, 193.1016
928.6250, 558.3398
929.7480, 232.5938
930.8720, 739.8555
931.9950, 429.1211
933.1180, 576.4297
934.2410, 318.7539
935.3640, 308.0898
936.4860, 291.4453
937.6090, 483.8125
938.7310, 256.1953
939.8530, 422.5898
940.9750, 251.0078
942.0970, 343.4453
943.2180, 499.8945
944.3400, 426.3672
945.4610, 415.8516
946.5820, 527.3555
947.7030, 763.9141
948.8240, 566.5000
949.9450, 467.1055
951.0650, 159.7266
952.1860, 615.8750
953.3060, 515.5547
954.4260, 410.2695
955.5460, 481.0000
956.6650, 509.6992
957.7850, 489.5117
958.9040, 470.3398
960.0230, 408.1953
961.1420, 366.0859
962.2610, 671.0000
963.3800, 318.3477
964.4990, 694.3320
965.6170, 510.3789
966.7350, 695.4453
967.8530, 350.9922
968.9710, 461.0000
970.0890, 1051.844
971.2070, 676.1328
972.3240, 545.9062
973.4410, 681.6367
974.5580, 455.9219
975.6750, 430.2383
976.7920, 812.1992
977.9090, 320.6211
979.0250, 699.0742
980.1410, 503.8672
981.2580, 387.7422
982.3740, 624.3047
983.4890, 645.8906
984.6050, 611.5156
985.7200, 705.1992
986.8360, 735.9102
987.9510, 572.6445
989.0660, 794.3320
990.1810, 485.3867
991.2950, 848.6289
992.4100, 588.5117
993.5240, 659.4258
994.6390, 585.4180
995.7530, 757.2852
996.8660, 703.3516
997.9800, 736.7422
999.0940, 531.2656
1000.207, 756.4805
1001.320, 654.2539
1002.433, 654.5352
1003.546, 626.8438
1004.659, 415.1836
1005.772, 477.9922
1006.884, 745.9922
1007.996, 501.4492
1009.108, 796.9297
1010.220, 897.4414
1011.332, 651.9844
1012.444, 686.5547
1013.555, 652.1641
1014.666, 552.8047
1015.777, 673.4727
1016.888, 810.1914
1017.999, 836.0898
1019.110, 846.3945
1020.220, 943.2031
1021.331, 904.0469
1022.441, 930.5234
1023.551, 855.8398
1024.661, 924.9766
1025.770, 971.9648
1026.880, 978.2852
1027.989, 961.2383
1029.098, 841.3125
1030.207, 876.4297
1031.316, 835.0938
1032.425, 846.5703
1033.533, 794.0234
1034.642, 860.2812
1035.750, 793.5781
1036.858, 684.9062
1037.966, 799.7539
1039.073, 886.6836
1040.181, 931.1289
1041.288, 885.6172
1042.396, 889.7734
1043.503, 916.3320
1044.610, 1090.918
1045.716, 878.5430
1046.823, 1111.211
1047.929, 1234.902
1049.036, 858.6328
1050.142, 1070.406
1051.248, 878.2109
1052.353, 1232.055
1053.459, 911.9336
1054.564, 1165.844
1055.670, 845.7852
1056.775, 980.6367
1057.880, 912.6797
1058.985, 963.7500
1060.089, 888.8594
1061.194, 849.3477
1062.298, 1120.188
1063.402, 858.4062
1064.506, 927.3359
1065.610, 1209.625
1066.713, 962.9492
1067.817, 1439.305
1068.920, 1219.047
1070.023, 1209.473
1071.126, 842.9336
1072.229, 1089.434
1073.332, 1016.398
1074.435, 1047.961
1075.537, 801.5625
1076.639, 1001.750
1077.741, 1033.418
1078.843, 954.1250
1079.945, 976.6680
1081.046, 1103.441
1082.148, 1199.246
1083.249, 1076.090
1084.350, 1073.879
1085.451, 953.8086
1086.551, 967.7734
1087.652, 1086.766
1088.752, 959.7969
1089.853, 1041.918
1090.953, 1140.812
1092.053, 1041.941
1093.152, 928.1094
1094.252, 873.3047
1095.351, 952.5352
1096.451, 711.8008
1097.550, 753.0977
1098.649, 1033.434
1099.748, 840.7969
1100.846, 829.2031
1101.945, 806.6484
1103.043, 769.1523
1104.141, 982.7148
1105.239, 779.3359
1106.337, 1056.988
1107.434, 1009.676
1108.532, 750.1211
1109.629, 803.9180
1110.726, 714.0938
1111.823, 932.6016
1112.920, 669.0742
1114.017, 682.9922
1115.113, 661.9961
1116.210, 897.4609
1117.306, 803.5156
1118.402, 1158.605
1119.498, 858.7266
1120.593, 842.6289
1121.689, 1173.824
1122.784, 1065.070
1123.879, 801.3750
1124.974, 680.7148
1126.069, 612.7852
1127.164, 687.1836
1128.259, 644.7812
1129.353, 687.6680
1130.447, 669.2109
1131.541, 594.8008
1132.635, 494.4219
1133.729, 581.1016
1134.822, 648.1406
1135.916, 659.8789
1137.009, 411.3984
1138.102, 403.3672
1139.195, 260.1875
1140.288, 269.0391
1141.380, 413.9141
1142.473, 623.8164
1143.565, 583.7500
1144.657, 675.7070
1145.749, 405.6914
1146.841, 805.8477
1147.932, 1241.898
1149.024, 472.9766
1150.115, 118.0820
1151.206, 523.2109
1152.297, 257.3711
1153.388, 602.5586
1154.479, 413.4922
1155.569, 15.26953
1156.659, 306.9922
1157.750, 15.72266
1158.839, 115.5898
1159.929, 495.9297
1161.019, 394.2891
1162.108, 208.6992
1163.198, 159.1094
1164.287, 262.5508
1165.376, 301.0117
1166.465, 262.5000
1167.553, 285.2461
1168.642, 408.5586
1169.730, 206.1914
1170.818, 293.7852
1171.906, 222.6758
1172.994, 57.64453
1174.082, 210.0469
1175.170, 511.7578
1176.257, 431.4922
1177.344, 12.25391
1178.431, 316.0352
1179.518, 233.8438
1180.605, 197.6758
1181.691, 225.5273
1182.778, 326.4023
1183.864, 519.3008
1184.950, 433.2227
1186.036, 288.1641
1187.122, 274.1328
1188.207, 125.1172
1189.292, 307.1289
1190.378, 73.16406
1191.463, 83.21875
1192.548, 340.2969
1193.632, 130.3945
1194.717, 89.48828
1195.801, 62.62109
1196.886, 37.74609
1197.970, 60.22656
1199.054, 13.92969
1200.137, 108.2617
1201.221, 185.4727
1202.305, 36.73438
1203.388, 39.01172
1204.471, 9.242188
1205.554, 174.5234
1206.637, 17.17969
1207.719, 44.13281
1208.802, 110.4648
1209.884, 193.1836
1210.966, 95.10938
1212.048, 294.4180
1213.130, 149.7500
1214.212, 101.8984
1215.293, 91.42188
1216.374, 43.76562
1217.456, 353.1289
1218.536, 299.1992
1219.617, 188.0938
1220.698, 244.2383
1221.778, 145.5820
1222.859, 4.953125
1223.939, 205.3359
1225.019, 59.74219
1226.099, 65.16016
1227.178, 160.6016
1228.258, 179.0586
1229.337, 190.2305
1230.417, 138.0234
1231.496, 234.5273
1232.574, 228.0547
1233.653, 335.5977
1234.732, 12.15234
1235.810, 137.7305
1236.888, 52.32031
1237.966, 68.07422
1239.044, 244.5117
1240.122, 235.1133
1241.199, 81.73438
1242.277, 3.636719
1243.354, 31.87500
1244.431, 43.64062
1245.508, 40.70703
1246.585, 138.9453
1247.661, 284.6289
1248.738, 262.3281
1249.814, 99.96094
1250.890, 199.7188
1251.966, 77.40625
1253.042, 171.1094
1254.117, 215.8281
1255.193, 2.441406
1256.268, 274.2930
1257.343, 218.0391
