##NAMES=Arsenopyrite
##RRUFFID=R050071
##IDEAL CHEMISTRY=Fe^3+^(AsS)^3-^
##LOCALITY=Yaogangxian mine, Yizhang County, Hunan Province, China
##OWNER=RRUFF
##SOURCE=Rock Currier
##DESCRIPTION=Steel-gray tabular
##STATUS=The identification of this mineral has been confirmed by X-ray diffraction and chemical analysis
##URL=rruff.info/R050071
##MEASURED CHEMISTRY=FeAsS
##PIN_ID=L00187
##ORIENTATION=Laser parallel to a* (1 0 0). Fiducial mark perpendicular to laser is parallel to b [0 1 0]
70.00400, 0.0000000E+00
71.24100, 1166.531
72.47700, 6038.992
73.71400, 12457.87
74.95100, 17856.50
76.18700, 21308.59
77.42300, 19688.23
78.65900, 17379.93
79.89500, 12095.46
81.13100, 4593.406
82.36700, 1338.988
83.60200, 841.6680
84.83700, 818.0977
86.07200, 55.61328
87.30800, 487.9844
88.54200, 912.9453
89.77700, 2167.180
91.01200, 2013.520
92.24600, 1577.949
93.48000, 422.2617
94.71400, 397.9180
95.94800, 621.3867
97.18200, 323.5742
98.41600, 199.2344
99.64900, 50.01562
100.8830, 44.00781
102.1160, 583.8672
103.3490, 1854.758
104.5820, 4170.270
105.8150, 7947.090
107.0470, 12394.76
108.2800, 18846.19
109.5120, 18311.56
110.7440, 13696.62
111.9760, 16823.17
113.2080, 21255.12
114.4400, 23882.54
115.6710, 25349.63
116.9030, 27355.66
118.1340, 31153.68
119.3650, 28046.81
120.5960, 14995.23
121.8270, 6373.078
123.0580, 3335.441
124.2880, 1824.203
125.5190, 634.8477
126.7490, 215.0000
127.9790, 233.2695
129.2090, 119.4648
130.4390, 145.5977
131.6680, 19.71875
132.8980, 25.88672
134.1270, 119.1367
135.3560, 303.5156
136.5850, 262.0703
137.8140, 204.8281
139.0430, 360.1523
140.2710, 19.74609
141.5000, 78.41406
142.7280, 298.4727
143.9560, 209.6562
145.1840, 463.2383
146.4120, 364.7109
147.6390, 266.5195
148.8670, 93.31641
150.0940, 902.9688
151.3210, 1744.828
152.5490, 1286.250
153.7750, 597.5312
155.0020, 548.3672
156.2290, 1010.172
157.4550, 952.4883
158.6810, 949.1211
159.9080, 1094.191
161.1340, 1274.969
162.3590, 1257.266
163.5850, 1460.141
164.8110, 1689.195
166.0360, 1215.383
167.2610, 769.6914
168.4860, 568.1016
169.7110, 860.6094
170.9360, 881.1836
172.1610, 805.5469
173.3850, 642.2344
174.6100, 886.9570
175.8340, 599.6992
177.0580, 806.3633
178.2820, 255.1367
179.5050, 618.6445
180.7290, 413.9648
181.9520, 322.9180
183.1760, 418.2344
184.3990, 420.7422
185.6220, 395.4570
186.8450, 974.5742
188.0670, 672.8008
189.2900, 807.9258
190.5120, 1264.953
191.7340, 1258.875
192.9560, 1392.695
194.1780, 1489.418
195.4000, 1618.035
196.6220, 1584.555
197.8430, 1524.961
199.0640, 1442.258
200.2860, 1877.453
201.5070, 1474.551
202.7270, 1645.555
203.9480, 1317.465
205.1690, 575.2812
206.3890, 8.007813
207.6090, 92.35547
208.8290, 285.8086
210.0490, 79.64844
211.2690, 101.9805
212.4890, 53.88672
213.7080, 229.7422
214.9280, 17.97656
216.1470, 79.91016
217.3660, 155.3047
218.5850, 167.8984
219.8030, 96.38281
221.0220, 37.89844
222.2400, 68.08594
223.4590, 50.23828
224.6770, 52.20703
225.8950, 124.2461
227.1120, 70.20703
228.3300, 150.9766
229.5480, 158.6523
230.7650, 278.6172
231.9820, 218.7656
233.1990, 20.46484
234.4160, 305.7188
235.6330, 148.1484
236.8490, 60.18359
238.0660, 20.67969
239.2820, 79.23438
240.4980, 17.07031
241.7140, 120.6211
242.9300, 152.5547
244.1460, 73.87109
245.3610, 34.05469
246.5770, 160.1328
247.7920, 3.628906
249.0070, 80.65625
250.2220, 154.0469
251.4370, 90.52734
252.6510, 196.6055
253.8660, 322.9609
255.0800, 559.2617
256.2940, 736.2070
257.5080, 1494.945
258.7220, 4757.469
259.9360, 3160.582
261.1490, 4335.824
262.3630, 1970.656
263.5760, 1434.262
264.7890, 1628.645
266.0020, 1909.820
267.2150, 1452.789
268.4270, 1480.562
269.6400, 1270.145
270.8520, 818.5117
272.0640, 770.7031
273.2760, 646.7070
274.4880, 730.5430
275.7000, 1064.215
276.9120, 935.7305
278.1230, 961.6523
279.3340, 908.5469
280.5450, 788.6094
281.7560, 652.5312
282.9670, 742.3086
284.1780, 804.9531
285.3880, 803.1797
286.5980, 772.7109
287.8090, 662.1367
289.0190, 729.8945
290.2290, 627.7188
291.4380, 723.0273
292.6480, 655.7031
293.8570, 719.2031
295.0670, 588.2422
296.2760, 706.8828
297.4850, 665.9883
298.6930, 507.6445
299.9020, 586.9531
301.1110, 571.9844
302.3190, 766.6523
303.5270, 848.1133
304.7350, 781.3555
305.9430, 930.2734
307.1510, 957.9922
308.3580, 811.5703
309.5660, 815.1016
310.7730, 985.5859
311.9800, 723.0273
313.1870, 880.4180
314.3940, 717.7656
315.6010, 870.0703
316.8070, 1052.328
318.0130, 889.5312
319.2200, 1064.691
320.4260, 688.8008
321.6310, 1071.867
322.8370, 803.8828
324.0430, 1102.082
325.2480, 1086.996
326.4540, 1218.863
327.6590, 775.4023
328.8640, 1409.184
330.0680, 1146.922
331.2730, 1188.605
332.4780, 1344.250
333.6820, 1399.852
334.8860, 1399.887
336.0900, 1256.949
337.2940, 1430.441
338.4980, 1195.895
339.7010, 1338.312
340.9050, 950.6992
342.1080, 1482.047
343.3110, 1318.363
344.5140, 1107.645
345.7170, 1194.891
346.9200, 1109.109
348.1220, 1289.293
349.3240, 1222.508
350.5270, 1060.570
351.7290, 1166.047
352.9310, 1307.266
354.1320, 1275.441
355.3340, 1242.254
356.5350, 1183.586
357.7370, 1046.414
358.9380, 998.3516
360.1390, 965.5781
361.3400, 867.0039
362.5400, 933.6836
363.7410, 847.4102
364.9410, 818.3828
366.1410, 881.7344
367.3410, 824.8281
368.5410, 798.8086
369.7410, 818.2734
370.9400, 787.8672
372.1400, 807.5039
373.3390, 878.7227
374.5380, 652.1094
375.7370, 525.6445
376.9360, 274.6133
378.1350, 515.7461
379.3330, 668.6680
380.5310, 517.1836
381.7300, 599.0742
382.9280, 361.0078
384.1260, 595.2539
385.3230, 442.8633
386.5210, 580.7148
387.7180, 609.2734
388.9160, 323.5508
390.1130, 654.7539
391.3100, 548.2852
392.5060, 313.8008
393.7030, 344.2695
394.9000, 464.9062
396.0960, 321.7656
397.2920, 72.51172
398.4880, 562.7539
399.6840, 541.9688
400.8800, 297.7695
402.0750, 361.5273
403.2710, 468.2422
404.4660, 354.9219
405.6610, 471.5664
406.8560, 613.1719
408.0510, 600.7422
409.2450, 338.2812
410.4400, 485.7852
411.6340, 480.2617
412.8280, 638.7109
414.0220, 406.1523
415.2160, 482.6055
416.4100, 806.0742
417.6030, 506.0508
418.7970, 603.5078
419.9900, 476.9414
421.1830, 610.3750
422.3760, 646.7891
423.5690, 761.2188
424.7610, 857.6289
425.9540, 699.3789
427.1460, 566.7695
428.3380, 864.1523
429.5300, 659.5195
430.7220, 686.8867
431.9140, 649.6953
433.1050, 668.1484
434.2970, 760.0117
435.4880, 803.6680
436.6790, 719.3516
437.8700, 763.1523
439.0610, 564.4492
440.2510, 721.3008
441.4420, 605.1562
442.6320, 741.7656
443.8220, 733.1797
445.0120, 687.5586
446.2020, 736.2344
447.3910, 680.6172
448.5810, 719.7031
449.7700, 654.8086
450.9600, 633.9336
452.1490, 715.0742
453.3370, 616.2383
454.5260, 761.4219
455.7150, 491.6250
456.9030, 705.8477
458.0910, 474.0938
459.2800, 852.3594
460.4670, 751.6484
461.6550, 929.9609
462.8430, 721.2969
464.0300, 499.6523
465.2180, 883.0391
466.4050, 1032.445
467.5920, 740.8867
468.7790, 686.3516
469.9650, 834.8438
471.1520, 539.3672
472.3380, 441.9141
473.5250, 666.4883
474.7110, 625.0859
475.8970, 672.7188
477.0820, 899.3750
478.2680, 1055.059
479.4540, 1005.773
480.6390, 889.5117
481.8240, 808.2852
483.0090, 1095.090
484.1940, 798.9219
485.3780, 1034.781
486.5630, 885.6719
487.7470, 1013.598
488.9320, 1248.551
490.1160, 905.5391
491.3000, 1066.555
492.4830, 779.6055
493.6670, 1050.688
494.8500, 1138.852
496.0340, 928.1328
497.2170, 1177.578
498.4000, 919.0898
499.5820, 1051.719
500.7650, 1216.449
501.9480, 1179.227
503.1300, 1147.098
504.3120, 980.0781
505.4940, 1118.188
506.6760, 1044.434
507.8580, 1344.793
509.0390, 1177.254
510.2210, 1051.824
511.4020, 1303.781
512.5830, 1353.730
513.7640, 1307.645
514.9450, 1393.684
516.1250, 1345.133
517.3060, 1271.453
518.4860, 1396.949
519.6660, 1492.613
520.8460, 1524.383
522.0260, 1518.348
523.2060, 1319.457
524.3850, 1363.422
525.5650, 1317.477
526.7440, 1226.434
527.9230, 1441.977
529.1020, 1245.656
530.2810, 1562.426
531.4590, 1230.293
532.6380, 1407.270
533.8160, 1413.488
534.9940, 1191.668
536.1720, 1410.988
537.3500, 1319.398
538.5270, 1325.910
539.7050, 1154.508
540.8820, 1193.168
542.0590, 1375.879
543.2360, 1488.637
544.4130, 1385.445
545.5900, 1258.301
546.7660, 1245.203
547.9430, 1205.730
549.1190, 1266.246
550.2950, 1316.297
551.4710, 1327.559
552.6470, 1393.734
553.8220, 1431.320
554.9980, 1549.367
556.1730, 1503.070
557.3480, 1683.074
558.5230, 1649.289
559.6980, 1497.812
560.8730, 1511.398
562.0470, 1671.008
563.2220, 1666.402
564.3960, 1591.512
565.5700, 1764.285
566.7440, 1577.137
567.9170, 1510.805
569.0910, 1774.793
570.2640, 1828.992
571.4380, 1451.113
572.6110, 1415.641
573.7840, 1323.863
574.9570, 1116.715
576.1290, 1227.070
577.3020, 1114.809
578.4740, 1325.215
579.6460, 1021.742
580.8180, 983.1953
581.9900, 819.3984
583.1620, 903.1758
584.3330, 579.2539
585.5040, 602.1094
586.6760, 628.4727
587.8470, 399.4531
589.0180, 593.7930
590.1880, 665.8555
591.3590, 374.9648
592.5290, 449.1172
593.7000, 424.3125
594.8700, 515.5430
596.0400, 692.8203
597.2090, 532.1367
598.3790, 407.5000
599.5490, 525.9023
600.7180, 414.3516
601.8870, 403.8320
603.0560, 519.3594
604.2250, 503.9297
605.3940, 449.9883
606.5620, 387.1875
607.7300, 343.8789
608.8990, 304.6133
610.0670, 378.3867
611.2350, 842.1992
612.4020, 959.0547
613.5700, 557.9883
614.7370, 253.9648
615.9050, 415.9805
617.0720, 165.0352
618.2390, 523.1328
619.4060, 478.2695
620.5720, 435.4414
621.7390, 386.6602
622.9050, 452.9180
624.0710, 382.4609
625.2370, 523.5469
626.4030, 244.9180
627.5690, 474.3281
628.7340, 272.7812
629.9000, 505.2656
631.0650, 298.7930
632.2300, 358.3555
633.3950, 623.9844
634.5600, 450.6172
635.7240, 454.2930
636.8890, 285.0078
638.0530, 101.7500
639.2170, 202.5352
640.3810, 481.3516
641.5450, 230.1953
642.7080, 206.0820
643.8720, 90.00000
645.0350, 29.39844
646.1980, 390.2695
647.3610, 23.28125
648.5240, 168.3281
649.6870, 266.4023
650.8490, 27.49219
652.0120, 17.35938
653.1740, 24.79688
654.3360, 352.9844
655.4980, 25.80078
656.6600, 209.4375
657.8210, 241.6992
658.9830, 115.9922
660.1440, 154.3008
661.3050, 96.86328
662.4660, 82.27734
663.6270, 0.6093750
664.7870, 82.42578
665.9480, 9.851563
667.1080, 11.30078
668.2680, 138.7656
669.4280, 237.2617
670.5880, 131.7695
671.7480, 158.2969
672.9070, 13.15625
674.0670, 48.40625
675.2260, 138.2578
676.3850, 118.8516
677.5440, 205.4609
678.7030, 81.09375
679.8610, 99.07812
681.0200, 41.39844
682.1780, 59.07422
683.3360, 51.76172
684.4940, 91.46484
685.6520, 106.1836
686.8090, 118.6172
687.9670, 3.636719
689.1240, 13.12109
690.2810, 8.210938
691.4380, 36.43750
692.5950, 15.76953
693.7520, 142.9727
694.9080, 188.2852
696.0650, 207.8477
697.2210, 191.0859
698.3770, 36.33203
699.5330, 152.6836
700.6880, 98.74609
701.8440, 24.19922
702.9990, 174.6523
704.1550, 174.8281
705.3100, 381.2188
706.4650, 99.66016
707.6190, 59.80469
708.7740, 4.085938
709.9290, 34.55859
711.0830, 136.9648
712.2370, 173.4570
713.3910, 100.6016
714.5450, 167.6172
715.6980, 44.00000
716.8520, 111.8516
718.0050, 192.4531
719.1580, 1.542969
720.3110, 12.12500
721.4640, 56.90234
722.6170, 111.2930
723.7700, 225.0977
724.9220, 22.36328
726.0740, 147.4336
727.2260, 99.50000
728.3780, 91.50000
729.5300, 99.50391
730.6810, 237.5117
731.8330, 82.51172
732.9840, 293.5117
734.1350, 318.5156
735.2860, 63.51562
736.4370, 97.51562
737.5880, 134.5117
738.7380, 278.5117
739.8880, 225.5078
741.0390, 256.5039
742.1890, 303.4922
743.3380, 67.48438
744.4880, 176.4727
745.6380, 365.4648
746.7870, 470.4492
747.9360, 704.4297
749.0850, 652.4102
750.2340, 207.3828
751.3830, 235.8516
752.5310, 415.7227
753.6800, 146.6914
754.8280, 225.6484
755.9760, 265.6094
757.1240, 233.5781
758.2720, 262.5273
759.4190, 209.2227
760.5670, 89.16406
761.7140, 253.0977
762.8610, 409.0273
764.0080, 374.9531
765.1550, 387.8750
766.3020, 310.7852
767.4480, 182.6914
768.5950, 318.5977
769.7410, 534.4922
770.8870, 90.38672
772.0330, 147.2734
773.1780, 165.1484
774.3240, 456.0195
775.4690, 131.8828
776.6140, 387.7461
777.7590, 215.5938
778.9040, 285.4414
780.0490, 211.2773
781.1940, 104.1094
782.3380, 192.9336
783.4820, 82.75000
784.6260, 142.5547
785.7700, 126.3555
786.9140, 149.1484
788.0580, 270.9297
789.2010, 227.0195
790.3450, 373.0391
791.4880, 272.8008
792.6310, 165.5586
793.7730, 288.0312
794.9160, 298.7695
796.0590, 493.5000
797.2010, 521.2266
798.3430, 384.5820
799.4850, 266.6484
800.6270, 124.3477
801.7690, 79.00781
802.9100, 169.6875
804.0520, 274.3555
805.1930, 406.0195
806.3340, 183.6758
807.4750, 217.3203
808.6160, 241.9570
809.7560, 336.5938
810.8970, 197.0547
812.0370, 96.67188
813.1770, 226.2812
814.3170, 264.8828
815.4570, 245.4727
816.5960, 298.0547
817.7360, 229.6328
818.8750, 246.2031
820.0140, 128.7656
821.1530, 228.3242
822.2920, 390.8672
823.4310, 79.41016
824.5690, 260.9336
825.7070, 240.3711
826.8460, 88.88281
827.9840, 86.77344
829.1220, 258.6367
830.2590, 272.7148
831.3970, 166.3555
832.5340, 68.37891
833.6710, 23.14844
834.8080, 47.25781
835.9450, 50.19922
837.0820, 485.3203
838.2190, 266.6172
839.3550, 170.1758
840.4910, 200.0586
841.6270, 73.67188
842.7630, 103.4688
843.8990, 204.9297
845.0350, 109.9492
846.1700, 71.96875
847.3060, 176.0117
848.4410, 80.68750
849.5760, 76.27344
850.7100, 1.152344
851.8450, 212.1094
852.9800, 86.54297
854.1140, 319.7070
855.2480, 106.3984
856.3820, 45.42188
857.5160, 1.839844
858.6500, 238.5664
859.7830, 83.04297
860.9170, 271.2188
862.0500, 98.99219
863.1830, 111.6406
864.3160, 45.97266
865.4480, 568.6211
866.5810, 456.1992
867.7130, 720.9375
868.8460, 619.5938
869.9780, 452.2578
871.1100, 554.9297
872.2410, 320.6016
873.3730, 195.2773
874.5050, 57.96094
875.6360, 267.6484
876.7670, 72.34375
877.8980, 72.03906
879.0290, 197.7422
880.1590, 21.45312
881.2900, 114.1719
882.4200, 187.8906
883.5500, 213.6133
884.6800, 285.3516
885.8100, 226.0898
886.9400, 157.1641
888.0690, 21.48047
889.1990, 88.19141
890.3280, 116.8789
891.4570, 379.5703
892.5860, 3.269531
893.7140, 261.9688
894.8430, 22.31641
895.9710, 291.3945
897.1000, 10.11719
898.2280, 333.8438
899.3560, 179.5859
900.4830, 271.3320
901.6110, 286.0898
902.7380, 280.0703
903.8660, 177.6250
904.9930, 337.4102
906.1200, 276.2070
907.2460, 268.9805
908.3730, 476.7969
909.5000, 746.6211
910.6260, 202.4570
911.7520, 253.3086
912.8780, 393.1641
914.0040, 614.0312
915.1290, 163.9141
916.2550, 556.8086
917.3800, 101.7109
918.5050, 230.6289
919.6300, 727.2148
920.7550, 197.1562
921.8800, 551.1094
923.0040, 352.0820
924.1290, 288.0586
925.2530, 331.0508
926.3770, 611.0586
927.5010, 503.0859
928.6250, 469.1250
929.7480, 145.1875
930.8720, 512.2656
931.9950, 530.3633
933.1180, 331.4727
934.2410, 654.6016
935.3640, 595.7461
936.4860, 656.9336
937.6090, 553.9570
938.7310, 363.7812
939.8530, 265.0664
940.9750, 401.3711
942.0970, 482.6914
943.2180, 657.0273
944.3400, 588.3789
945.4610, 502.7500
946.5820, 550.1406
947.7030, 600.2773
948.8240, 577.7070
949.9450, 588.4570
951.0650, 572.9219
952.1860, 527.5742
953.3060, 532.1484
954.4260, 460.1055
955.5460, 462.6406
956.6650, 621.2109
957.7850, 674.8242
958.9040, 634.7461
960.0230, 497.3984
961.1420, 636.0703
962.2610, 628.2930
963.3800, 685.7070
964.4990, 667.4375
965.6170, 454.2227
966.7350, 455.0625
967.8530, 511.2852
968.9710, 581.1094
970.0890, 568.2617
971.2070, 746.5195
972.3240, 685.5820
973.4410, 799.6914
974.5580, 512.8242
975.6750, 711.0156
976.7920, 636.3398
977.9090, 669.9531
979.0250, 686.2422
980.1410, 830.7383
981.2580, 694.1211
982.3740, 263.5273
983.4890, 663.9922
984.6050, 599.9688
985.7200, 670.6797
986.8360, 939.2578
987.9510, 879.0977
989.0660, 968.8672
990.1810, 990.2461
991.2950, 936.4922
992.4100, 953.9414
993.5240, 842.7773
994.6390, 816.6719
995.7530, 690.2656
996.8660, 664.2969
997.9800, 626.1680
999.0940, 626.4492
1000.207, 626.5938
1001.320, 651.8242
1002.433, 672.6250
1003.546, 778.3828
1004.659, 771.7031
1005.772, 835.0898
1006.884, 959.5273
1007.996, 727.9961
1009.108, 611.4961
1010.220, 845.0273
1011.332, 569.5938
1012.444, 1092.188
1013.555, 602.8203
1014.666, 839.4766
1015.777, 1178.168
1016.888, 920.9102
1017.999, 722.6797
1019.110, 714.4844
1020.220, 1095.324
1021.331, 524.7031
1022.441, 852.6992
1023.551, 698.6406
1024.661, 799.7031
1025.770, 843.3320
1026.880, 1049.641
1027.989, 871.7148
1029.098, 684.0742
1030.207, 734.2227
1031.316, 1075.406
1032.425, 1120.621
1033.533, 1001.867
1034.642, 791.1562
1035.750, 1049.469
1036.858, 1052.824
1037.966, 1094.211
1039.073, 934.6484
1040.181, 1072.105
1041.288, 893.5938
1042.396, 1199.117
1043.503, 1223.676
1044.610, 1138.266
1045.716, 1084.895
1046.823, 1161.559
1047.929, 1097.254
1049.036, 1086.980
1050.142, 1239.746
1051.248, 1411.547
1052.353, 1241.402
1053.459, 1076.301
1054.564, 1384.227
1055.670, 1044.188
1056.775, 1642.188
1057.880, 1148.219
1058.985, 1925.289
1060.089, 1535.387
1061.194, 1045.523
1062.298, 1340.328
1063.402, 1375.539
1064.506, 1216.773
1065.610, 1006.047
1066.713, 1283.062
1067.817, 1094.406
1068.920, 1071.840
1070.023, 1233.250
1071.126, 1319.926
1072.229, 1197.410
1073.332, 1136.926
1074.435, 1033.477
1075.537, 1363.059
1076.639, 1208.066
1077.741, 1728.871
1078.843, 1190.551
1079.945, 1255.270
1081.046, 1281.020
1082.148, 974.8047
1083.249, 977.6211
1084.350, 1398.477
1085.451, 1309.414
1086.551, 1198.441
1087.652, 1410.449
1088.752, 1027.605
1089.853, 1408.473
1090.953, 1198.578
1092.053, 1220.719
1093.152, 1153.895
1094.252, 1044.098
1095.351, 1116.340
1096.451, 1254.656
1097.550, 1356.672
1098.649, 1246.055
1099.748, 1110.469
1100.846, 1139.914
1101.945, 1250.406
1103.043, 1543.953
1104.141, 1428.750
1105.239, 920.1523
1106.337, 1330.797
1107.434, 1145.473
1108.532, 1085.180
1109.629, 1113.949
1110.726, 1105.785
1111.823, 1001.648
1112.920, 966.7227
1114.017, 891.6836
1115.113, 1148.676
1116.210, 1135.754
1117.306, 1328.832
1118.402, 1232.535
1119.498, 1097.270
1120.593, 1232.473
1121.689, 1110.512
1122.784, 1205.805
1123.879, 1379.141
1124.974, 1413.516
1126.069, 988.9141
1127.164, 1050.340
1128.259, 779.8594
1129.353, 1083.406
1130.447, 796.9805
1131.541, 792.5781
1132.635, 716.9727
1133.729, 743.6250
1134.822, 609.3008
1135.916, 575.4258
1137.009, 404.0938
1138.102, 437.1484
1139.195, 416.7422
1140.288, 574.7188
1141.380, 460.5430
1142.473, 410.3867
1143.565, 401.2539
1144.657, 377.7617
1145.749, 448.9141
1146.841, 433.9883
1147.932, 546.3555
1149.024, 632.3398
1150.115, 496.3398
1151.206, 688.3633
1152.297, 364.4141
1153.388, 328.5234
1154.479, 513.1758
1155.569, 465.3281
1156.659, 301.5273
1157.750, 457.7422
1158.839, 164.9805
1159.929, 539.2695
1161.019, 538.1211
1162.108, 188.4609
1163.198, 375.8164
1164.287, 441.1953
1165.376, 357.5859
1166.465, 375.0195
1167.553, 161.4297
1168.642, 413.8828
1169.730, 1.355469
1170.818, 437.8477
1171.906, 275.3516
1172.994, 390.8789
1174.082, 159.4180
1175.170, 259.9766
1176.257, 212.5547
1177.344, 161.1445
1178.431, 155.7578
1179.518, 377.3867
1180.605, 185.0352
1181.691, 300.6953
1182.778, 113.7852
1183.864, 219.4805
1184.950, 251.1875
1186.036, 280.9141
1187.122, 146.6562
1188.207, 161.4102
1189.292, 73.18359
1190.378, 93.96875
1191.463, 56.76953
1192.548, 78.41797
1193.632, 155.3867
1194.717, 172.2070
1195.801, 397.0352
1196.886, 31.11719
1197.970, 219.7344
1199.054, 152.4023
1200.137, 11.41406
1201.221, 221.7617
1202.305, 135.9805
1203.388, 290.7344
1204.471, 168.4961
1205.554, 23.27344
1206.637, 37.06250
1207.719, 22.11328
1208.802, 220.6758
1209.884, 26.49219
1210.966, 52.32031
1212.048, 170.1562
1213.130, 99.62500
1214.212, 25.48828
1215.293, 272.4609
1216.374, 0.3398440
1217.456, 234.2305
1218.536, 45.86719
1219.617, 108.9766
1220.698, 55.87109
1221.778, 286.7305
1222.859, 321.5938
1223.939, 128.4688
1225.019, 59.35547
1226.099, 238.8594
1227.178, 118.0898
1228.258, 47.79688
1229.337, 113.6875
1230.417, 172.5820
1231.496, 266.6523
1232.574, 283.1172
1233.653, 307.0391
1234.732, 251.9609
1235.810, 87.89453
1236.888, 103.8281
1237.966, 67.76953
1239.044, 199.3281
1240.122, 38.27734
1241.199, 124.2383
1242.277, 148.8008
1243.354, 284.0820
1244.431, 135.9766
1245.508, 11.86719
1246.585, 93.76172
1247.661, 1.656250
1248.738, 15.45312
1249.814, 179.4297
1250.890, 17.68750
1251.966, 150.1797
1253.042, 174.0508
1254.117, 156.9180
1255.193, 205.5391
1256.268, 115.6641
