##NAMES=Arsenopyrite
##RRUFFID=R050071
##IDEAL CHEMISTRY=Fe^3+^(AsS)^3-^
##LOCALITY=Yaogangxian mine, Yizhang County, Hunan Province, China
##OWNER=RRUFF
##SOURCE=Rock Currier
##DESCRIPTION=Steel-gray tabular
##STATUS=The identification of this mineral has been confirmed by X-ray diffraction and chemical analysis
##URL=rruff.info/R050071
##MEASURED CHEMISTRY=FeAsS
##PIN_ID=L00055
##ORIENTATION=Laser parallel to b* (0 1 0). Fiducial mark perpendicular to laser is parallel to c [0 0 1]
71.24100, 0.0000000E+00
72.47700, 2857.770
73.71400, 8542.699
74.95100, 16007.05
76.18700, 22409.77
77.42300, 22668.39
78.65900, 21778.30
79.89500, 16979.83
81.13100, 7556.340
82.36700, 2587.723
83.60200, 819.5078
84.83700, 535.1621
86.07200, 73.65430
87.30800, 28.26758
88.54200, 283.5352
89.77700, 155.2871
91.01200, 225.4316
92.24600, 809.8203
93.48000, 550.7344
94.71400, 61.94336
95.94800, 486.9551
97.18200, 60.40430
98.41600, 217.0684
99.64900, 148.6816
100.8830, 56.02930
102.1160, 619.2930
103.3490, 1083.676
104.5820, 2851.660
105.8150, 6153.564
107.0470, 11131.54
108.2800, 16150.04
109.5120, 17791.59
110.7440, 13197.71
111.9760, 14065.12
113.2080, 17629.77
114.4400, 22308.47
115.6710, 24942.12
116.9030, 27061.33
118.1340, 33267.71
119.3650, 28961.31
120.5960, 14561.84
121.8270, 5151.598
123.0580, 5149.160
124.2880, 3520.896
125.5190, 537.4277
126.7490, 315.2246
127.9790, 69.45508
129.2090, 154.7207
130.4390, 33.35742
131.6680, 68.63672
132.8980, 129.0898
134.1270, 76.22266
135.3560, 98.61523
136.5850, 79.12500
137.8140, 61.78906
139.0430, 304.0098
140.2710, 633.2363
141.5000, 28.64844
142.7280, 41.33008
143.9560, 214.4629
145.1840, 577.6914
146.4120, 323.8594
147.6390, 29.88086
148.8670, 297.8730
150.0940, 473.6191
151.3210, 987.4902
152.5490, 1338.059
153.7750, 606.5742
155.0020, 649.6484
156.2290, 791.2852
157.4550, 978.7832
158.6810, 686.6309
159.9080, 1061.225
161.1340, 1196.846
162.3590, 1108.340
163.5850, 682.4082
164.8110, 785.6582
166.0360, 929.2207
167.2610, 707.8535
168.4860, 795.5469
169.7110, 940.2812
170.9360, 911.0488
172.1610, 797.9023
173.3850, 617.2422
174.6100, 435.4199
175.8340, 674.0117
177.0580, 343.1406
178.2820, 287.1387
179.5050, 426.7578
180.7290, 492.4297
181.9520, 261.2598
183.1760, 487.3008
184.3990, 629.0742
185.6220, 605.1875
186.8450, 681.3691
188.0670, 646.6250
189.2900, 957.5938
190.5120, 1071.043
191.7340, 1031.914
192.9560, 1156.660
194.1780, 1276.824
195.4000, 1448.322
196.6220, 1437.684
197.8430, 1326.891
199.0640, 1403.904
200.2860, 1464.758
201.5070, 1509.455
202.7270, 1457.031
203.9480, 1120.498
205.1690, 609.8652
206.3890, 233.1270
207.6090, 824.2930
208.8290, 188.6406
210.0490, 224.6738
211.2690, 13.79883
212.4890, 93.04102
213.7080, 1.505859
214.9280, 251.5449
216.1470, 131.7539
217.3660, 89.29688
218.5850, 153.6172
219.8030, 12.85547
221.0220, 27.28711
222.2400, 176.8164
223.4590, 153.9668
224.6770, 171.9297
225.8950, 153.1016
227.1120, 244.3828
228.3300, 71.07617
229.5480, 148.8223
230.7650, 140.6855
231.9820, 60.05469
233.1990, 147.9844
234.4160, 76.64844
235.6330, 87.36719
236.8490, 2.693359
238.0660, 186.9297
239.2820, 172.6543
240.4980, 116.5176
241.7140, 6.658203
242.9300, 63.04688
244.1460, 64.70703
245.3610, 56.82227
246.5770, 8.138672
247.7920, 145.4023
249.0070, 97.47656
250.2220, 214.3770
251.4370, 51.01562
252.6510, 279.4258
253.8660, 276.4395
255.0800, 424.8945
256.2940, 705.9316
257.5080, 1073.738
258.7220, 2529.312
259.9360, 4129.660
261.1490, 3010.770
262.3630, 1830.641
263.5760, 1810.281
264.7890, 1419.686
266.0020, 1507.867
267.2150, 1446.840
268.4270, 1602.611
269.6400, 1189.148
270.8520, 936.4473
272.0640, 515.4785
273.2760, 519.2539
274.4880, 385.8301
275.7000, 663.2207
276.9120, 747.8633
278.1230, 898.9297
279.3340, 1089.248
280.5450, 690.0312
281.7560, 670.6777
282.9670, 900.1875
284.1780, 726.4570
285.3880, 746.6621
286.5980, 675.5215
287.8090, 688.1074
289.0190, 410.4453
290.2290, 527.8633
291.4380, 695.1328
292.6480, 592.0938
293.8570, 539.1504
295.0670, 544.7324
296.2760, 574.3438
297.4850, 684.5742
298.6930, 702.5625
299.9020, 528.2891
301.1110, 616.8203
302.3190, 747.9805
303.5270, 868.8711
304.7350, 564.2578
305.9430, 753.7246
307.1510, 626.9844
308.3580, 753.1055
309.5660, 953.6270
310.7730, 744.5410
311.9800, 822.4844
313.1870, 767.9961
314.3940, 571.8398
315.6010, 787.6426
316.8070, 769.4043
318.0130, 748.1094
319.2200, 1569.014
320.4260, 995.3984
321.6310, 708.4570
322.8370, 958.3809
324.0430, 833.1133
325.2480, 739.3105
326.4540, 791.1523
327.6590, 846.2891
328.8640, 769.0273
330.0680, 856.6055
331.2730, 1032.049
332.4780, 1071.777
333.6820, 827.3320
334.8860, 939.3711
336.0900, 940.3691
337.2940, 784.3359
338.4980, 1026.268
339.7010, 846.1641
340.9050, 796.0273
342.1080, 1002.861
343.3110, 924.6641
344.5140, 893.4375
345.7170, 906.1816
346.9200, 952.8965
348.1220, 781.5859
349.3240, 752.2500
350.5270, 1039.371
351.7290, 868.6836
352.9310, 942.2695
354.1320, 1011.562
355.3340, 1103.723
356.5350, 985.2422
357.7370, 856.9180
358.9380, 850.4648
360.1390, 936.4844
361.3400, 919.1484
362.5400, 508.6289
363.7410, 963.0645
364.9410, 591.2168
366.1410, 717.2988
367.3410, 748.8145
368.5410, 792.5820
369.7410, 1130.043
370.9400, 871.5215
372.1400, 664.1133
373.3390, 493.4551
374.5380, 530.7852
375.7370, 629.4961
376.9360, 461.1562
378.1350, 446.3770
379.3330, 590.9883
380.5310, 517.2207
381.7300, 537.5293
382.9280, 578.4395
384.1260, 448.9062
385.3230, 314.8164
386.5210, 456.5488
387.7180, 376.6719
388.9160, 424.6230
390.1130, 372.5684
391.3100, 208.5430
392.5060, 442.0820
393.7030, 532.3555
394.9000, 504.2773
396.0960, 458.9199
397.2920, 504.8438
398.4880, 452.6582
399.6840, 339.1953
400.8800, 614.3438
402.0750, 450.9766
403.2710, 358.5762
404.4660, 587.1406
405.6610, 365.6719
406.8560, 628.1758
408.0510, 519.6465
409.2450, 482.0918
410.4400, 521.5078
411.6340, 472.9062
412.8280, 544.2812
414.0220, 543.6328
415.2160, 519.9805
416.4100, 476.8848
417.6030, 569.8047
418.7970, 407.5996
419.9900, 640.1758
421.1830, 646.1641
422.3760, 650.1152
423.5690, 726.7266
424.7610, 765.3770
425.9540, 768.6289
427.1460, 631.1367
428.3380, 539.0391
429.5300, 480.2188
430.7220, 496.1309
431.9140, 451.1562
433.1050, 699.6543
434.2970, 679.2031
435.4880, 652.4629
436.6790, 733.3086
437.8700, 565.0410
439.0610, 585.8203
440.2510, 494.7480
441.4420, 650.1621
442.6320, 605.6816
443.8220, 617.5020
445.0120, 550.7266
446.2020, 642.4785
447.3910, 566.2461
448.5810, 712.3633
449.7700, 559.1680
450.9600, 798.6504
452.1490, 707.5156
453.3370, 759.4043
454.5260, 660.3164
455.7150, 471.2578
456.9030, 683.2227
458.0910, 674.7676
459.2800, 753.7910
460.4670, 655.8340
461.6550, 602.5625
462.8430, 747.6582
464.0300, 530.7930
465.2180, 420.9512
466.4050, 560.1562
467.5920, 607.4062
468.7790, 841.6934
469.9650, 581.0137
471.1520, 706.3848
472.3380, 645.7930
473.5250, 654.2305
474.7110, 444.7012
475.8970, 793.2012
477.0820, 535.7344
478.2680, 672.2949
479.4540, 426.8867
480.6390, 977.5098
481.8240, 804.1621
483.0090, 738.8438
484.1940, 762.5586
485.3780, 898.3027
486.5630, 899.1016
487.7470, 702.9336
488.9320, 648.7969
490.1160, 890.6914
491.3000, 862.6211
492.4830, 686.6074
493.6670, 828.6289
494.8500, 689.7031
496.0340, 722.8125
497.2170, 782.0586
498.4000, 973.4551
499.5820, 867.9414
500.7650, 754.5449
501.9480, 945.2402
503.1300, 934.9902
504.3120, 1032.887
505.4940, 950.8926
506.6760, 1039.033
507.8580, 971.2637
509.0390, 878.5879
510.2210, 711.0488
511.4020, 968.6445
512.5830, 880.3730
513.7640, 1199.234
514.9450, 1061.965
516.1250, 1176.242
517.3060, 1253.113
518.4860, 1294.688
519.6660, 1199.221
520.8460, 1284.840
522.0260, 1365.039
523.2060, 1143.402
524.3850, 1289.260
525.5650, 1222.184
526.7440, 1178.252
527.9230, 1122.445
529.1020, 846.8809
530.2810, 1022.283
531.4590, 1138.803
532.6380, 951.4023
533.8160, 1376.098
534.9940, 1240.865
536.1720, 871.7559
537.3500, 1103.482
538.5270, 1152.541
539.7050, 1209.643
540.8820, 1034.805
542.0590, 1219.023
543.2360, 1065.604
544.4130, 1082.914
545.5900, 1102.268
546.7660, 1221.670
547.9430, 1178.117
549.1190, 1012.607
550.2950, 1174.145
551.4710, 1110.727
552.6470, 1160.812
553.8220, 1113.486
554.9980, 1211.213
556.1730, 1193.521
557.3480, 1099.496
558.5230, 1333.395
559.6980, 1106.184
560.8730, 1322.195
562.0470, 1620.301
563.2220, 1394.430
564.3960, 1014.070
565.5700, 1304.918
566.7440, 1248.359
567.9170, 1242.316
569.0910, 1460.133
570.2640, 1299.637
571.4380, 1357.641
572.6110, 1575.840
573.7840, 1133.453
574.9570, 959.1211
576.1290, 1073.855
577.3020, 1099.375
578.4740, 882.1992
579.6460, 994.0742
580.8180, 835.9922
581.9900, 883.9531
583.1620, 685.9648
584.3330, 400.0156
585.5040, 538.1172
586.6760, 420.2656
587.8470, 465.4531
589.0180, 436.6992
590.1880, 196.9922
591.3590, 184.6289
592.5290, 517.0078
593.7000, 224.4375
594.8700, 265.9141
596.0400, 180.4688
597.2090, 167.0820
598.3790, 495.3672
599.5490, 413.0938
600.7180, 204.8594
601.8870, 63.32031
603.0560, 263.5352
604.2250, 442.4336
605.3940, 311.3711
606.5620, 165.3477
607.7300, 485.3828
608.8990, 112.4570
610.0670, 323.6250
611.2350, 222.8281
612.4020, 251.0703
613.5700, 131.3516
614.7370, 186.6719
615.9050, 336.0273
617.0720, 185.4219
618.2390, 258.8516
619.4060, 391.3203
620.5720, 240.8281
621.7390, 337.3711
622.9050, 259.9492
624.0710, 243.5625
625.2370, 441.2148
626.4030, 69.06641
627.5690, 327.7891
628.7340, 503.5469
629.9000, 309.3438
631.0650, 329.1719
632.2300, 254.4492
633.3950, 198.3438
634.5600, 282.0078
635.7240, 351.9062
636.8890, 384.4453
638.0530, 381.6289
639.2170, 237.4570
640.3810, 220.4414
641.5450, 409.2930
642.7080, 94.45312
643.8720, 289.8945
645.0350, 234.1172
646.1980, 200.4336
647.3610, 140.7070
648.5240, 234.0156
649.6870, 99.34766
650.8490, 246.4609
652.0120, 103.8438
653.1740, 197.4023
654.3360, 94.16406
655.4980, 14.72266
656.6600, 56.73828
657.8210, 163.2227
658.9830, 145.2734
660.1440, 104.7812
661.3050, 160.6992
662.4660, 34.79297
663.6270, 98.72656
664.7870, 181.2656
665.9480, 126.1523
667.1080, 147.7305
668.2680, 8.675781
669.4280, 247.9414
670.5880, 135.5703
671.7480, 82.21484
672.9070, 178.8828
674.0670, 163.5625
675.2260, 63.25391
676.3850, 65.03516
677.5440, 41.32812
678.7030, 77.38281
679.8610, 45.10547
681.0200, 68.84766
682.1780, 159.4023
683.3360, 144.3047
684.4940, 52.02734
685.6520, 26.76172
686.8090, 163.5039
687.9670, 141.2617
689.1240, 29.03516
690.2810, 102.9688
691.4380, 43.23828
692.5950, 42.55078
693.7520, 117.4844
694.9080, 105.6328
696.0650, 29.36328
697.2210, 122.4141
698.3770, 19.80078
699.5330, 61.98828
700.6880, 286.2148
701.8440, 52.71875
702.9990, 167.1914
704.1550, 8.574219
705.3100, 313.9609
706.4650, 111.4844
707.6190, 85.96094
708.7740, 96.56250
709.9290, 122.1992
711.0830, 26.14062
712.2370, 116.7500
713.3910, 83.05469
714.5450, 359.2227
715.6980, 1.535156
716.8520, 510.8438
718.0050, 285.1562
719.1580, 253.4727
720.3110, 136.7930
721.4640, 245.5273
722.6170, 72.86719
723.7700, 90.19531
724.9220, 79.98828
726.0740, 121.3242
727.2260, 112.2812
728.3780, 174.6211
729.5300, 56.03516
730.6810, 224.2695
731.8330, 82.19141
732.9840, 49.50000
734.1350, 2.699219
735.2860, 357.5820
736.4370, 7.914063
737.5880, 222.5312
738.7380, 271.8008
739.8880, 309.5117
741.0390, 185.4258
742.1890, 199.6953
743.3380, 134.9609
744.4880, 233.2227
745.6380, 279.9297
746.7870, 445.2461
747.9360, 180.5039
749.0850, 424.7617
750.2340, 230.0078
751.3830, 284.2539
752.5310, 408.4961
753.6800, 105.7344
754.8280, 457.9688
755.9760, 189.1992
757.1240, 240.4219
758.2720, 299.6445
759.4190, 310.8594
760.5670, 137.0703
761.7140, 226.2773
762.8610, 203.4766
764.0080, 28.32031
765.1550, 343.8164
766.3020, 146.9609
767.4480, 131.0938
768.5950, 206.2188
769.7410, 29.65625
770.8870, 269.4102
772.0330, 426.4727
773.1780, 294.5273
774.3240, 395.5781
775.4690, 284.6211
776.6140, 243.6602
777.7590, 220.6914
778.9040, 45.71484
780.0490, 177.7148
781.1940, 39.28906
782.3380, 204.6445
783.4820, 65.56641
784.6260, 169.4766
785.7700, 253.3750
786.9140, 422.2695
788.0580, 77.15234
789.2010, 304.0273
790.3450, 103.8906
791.4880, 355.7461
792.6310, 154.4727
793.7730, 426.1289
794.9160, 182.9570
796.0590, 323.7852
797.2010, 115.3555
798.3430, 145.4883
799.4850, 233.2930
800.6270, 277.4922
801.7690, 585.2812
802.9100, 88.06250
804.0520, 149.8359
805.1930, 268.6016
806.3340, 207.2188
807.4750, 343.9727
808.6160, 387.7188
809.7560, 114.4570
810.8970, 321.1875
812.0370, 891.0000
813.1770, 940.3008
814.3170, 950.4297
815.4570, 925.9023
816.5960, 203.9531
817.7360, 159.6445
818.8750, 241.3281
820.0140, 214.6914
821.1530, 121.3633
822.2920, 309.0273
823.4310, 196.6836
824.5690, 211.3398
825.7070, 246.9844
826.8460, 89.63281
827.9840, 333.2656
829.1220, 305.4414
830.2590, 50.06641
831.3970, 46.32812
832.5340, 67.71875
833.6710, 119.1367
834.8080, 199.6758
835.9450, 98.37500
837.0820, 336.9023
838.2190, 28.61328
839.3550, 3.878906
840.4910, 178.8867
841.6270, 81.72656
842.7630, 329.0312
843.8990, 61.14453
845.0350, 149.8477
846.1700, 79.19531
847.3060, 28.91406
848.4410, 98.17578
849.5760, 204.1641
850.7100, 69.50000
851.8450, 397.7969
852.9800, 65.36328
854.1140, 59.66406
855.2480, 123.9648
856.3820, 245.2773
857.5160, 9.585938
858.6500, 25.89062
859.7830, 67.20312
860.9170, 6.515625
862.0500, 307.8242
863.1830, 52.86328
864.3160, 233.4219
865.4480, 174.7109
866.5810, 339.6953
867.7130, 57.00781
868.8460, 253.2578
869.9780, 211.4727
871.1100, 220.7031
872.2410, 68.12500
873.3730, 56.60156
874.5050, 174.5117
875.6360, 41.36719
876.7670, 21.26562
877.8980, 69.83203
879.0290, 249.9336
880.1590, 252.0430
881.2900, 81.84375
882.4200, 0.2382810
883.5500, 213.6836
884.6800, 168.3047
885.8100, 145.2969
886.9400, 85.29297
888.0690, 239.3008
889.1990, 157.3164
890.3280, 130.3359
891.4570, 338.3594
892.5860, 127.3984
893.7140, 306.4375
894.8430, 259.4883
895.9710, 213.5430
897.1000, 559.6094
898.2280, 317.6836
899.3560, 99.76953
900.4830, 307.6992
901.6110, 310.7969
902.7380, 430.9102
903.8660, 160.0273
904.9930, 229.1562
906.1200, 390.8789
907.2460, 432.0312
908.3730, 496.1875
909.5000, 205.3594
910.6260, 184.5391
911.7520, 292.7344
912.8780, 332.9336
914.0040, 146.1484
915.1290, 411.6562
916.2550, 256.8906
917.3800, 492.8828
918.5050, 215.1523
919.6300, 179.3594
920.7550, 316.6445
921.8800, 543.9492
923.0040, 517.2656
924.1290, 233.8359
925.2530, 146.1797
926.3770, 220.3906
927.5010, 471.7617
928.6250, 411.1523
929.7480, 403.5625
930.8720, 318.9922
931.9950, 310.4258
933.1180, 446.8984
934.2410, 515.4023
935.3640, 152.9180
936.4860, 471.4531
937.6090, 188.0039
938.7310, 471.2383
939.8530, 416.8242
940.9750, 434.4219
942.0970, 373.0352
943.2180, 299.6641
944.3400, 378.3164
945.4610, 281.9766
946.5820, 287.6562
947.7030, 525.3594
948.8240, 543.0703
949.9450, 353.8125
951.0650, 326.5781
952.1860, 496.4844
953.3060, 591.5352
954.4260, 649.2109
955.5460, 671.5430
956.6650, 552.4883
957.7850, 616.0820
958.9040, 606.5312
960.0230, 594.0234
961.1420, 683.3984
962.2610, 584.9727
963.3800, 281.8086
964.4990, 576.0273
965.6170, 410.1758
966.7350, 352.4336
967.8530, 373.3750
968.9710, 436.8672
970.0890, 537.4141
971.2070, 580.0195
972.3240, 635.6836
973.4410, 542.1758
974.5580, 526.5508
975.6750, 386.4023
976.7920, 587.2773
977.9090, 783.2461
979.0250, 748.2148
980.1410, 561.3125
981.2580, 659.4570
982.3740, 557.8984
983.4890, 765.5312
984.6050, 581.7773
985.7200, 413.2266
986.8360, 700.5664
987.9510, 699.9258
989.0660, 597.3164
990.1810, 624.7305
991.2950, 923.1680
992.4100, 720.2188
993.5240, 962.6875
994.6390, 802.1953
995.7530, 986.2695
996.8660, 801.8242
997.9800, 741.7852
999.0940, 731.3945
1000.207, 734.0234
1001.320, 416.7031
1002.433, 595.7891
1003.546, 767.5117
1004.659, 486.7734
1005.772, 997.5625
1006.884, 949.3320
1007.996, 602.8320
1009.108, 628.7109
1010.220, 808.1719
1011.332, 824.7891
1012.444, 783.7422
1013.555, 776.7266
1014.666, 1088.738
1015.777, 767.3242
1016.888, 900.3320
1017.999, 849.4219
1019.110, 1008.539
1020.220, 753.6797
1021.331, 472.8594
1022.441, 906.0664
1023.551, 746.2969
1024.661, 679.5547
1025.770, 833.8438
1026.880, 661.1641
1027.989, 808.5078
1029.098, 912.8828
1030.207, 839.2852
1031.316, 649.7148
1032.425, 665.1719
1033.533, 946.6641
1034.642, 850.2070
1035.750, 695.7773
1036.858, 835.3711
1037.966, 811.9961
1039.073, 1011.648
1040.181, 987.3594
1041.288, 1014.098
1042.396, 974.8633
1043.503, 918.6562
1044.610, 974.4766
1045.716, 963.3281
1046.823, 776.2070
1047.929, 790.1133
1049.036, 1091.055
1050.142, 876.0273
1051.248, 997.3125
1052.353, 1155.363
1053.459, 865.4531
1054.564, 1006.574
1055.670, 1147.719
1056.775, 1084.891
1057.880, 1190.102
1058.985, 1070.344
1060.089, 962.6094
1061.194, 977.9062
1062.298, 1251.227
1063.402, 1017.574
1064.506, 986.9531
1065.610, 1278.355
1066.713, 971.7891
1067.817, 1016.250
1068.920, 1075.742
1070.023, 892.2578
1071.126, 1244.805
1072.229, 1282.387
1073.332, 1207.988
1074.435, 855.6250
1075.537, 1145.285
1076.639, 1095.977
1077.741, 1203.691
1078.843, 951.4375
1079.945, 1051.203
1081.046, 999.0039
1082.148, 837.8281
1083.249, 1049.680
1084.350, 934.5586
1085.451, 1291.465
1086.551, 1103.402
1087.652, 1006.359
1088.752, 1076.344
1089.853, 1097.824
1090.953, 976.4023
1092.053, 1032.566
1093.152, 974.3828
1094.252, 666.8516
1095.351, 723.6758
1096.451, 744.6172
1097.550, 732.0508
1098.649, 573.5469
1099.748, 1278.242
1100.846, 864.0742
1101.945, 1081.121
1103.043, 933.2539
1104.141, 928.0742
1105.239, 1043.457
1106.337, 804.8750
1107.434, 1110.387
1108.532, 1059.852
1109.629, 1029.332
1110.726, 1016.754
1111.823, 932.2930
1112.920, 1099.848
1114.017, 479.8984
1115.113, 586.0703
1116.210, 654.8984
1117.306, 697.6406
1118.402, 589.7227
1119.498, 664.3906
1120.593, 665.8828
1121.689, 664.4180
1122.784, 764.8086
1123.879, 958.0625
1124.974, 1187.859
1126.069, 1084.664
1127.164, 1114.488
1128.259, 970.3242
1129.353, 828.1797
1130.447, 729.0625
1131.541, 911.9609
1132.635, 892.8711
1133.729, 614.7891
1134.822, 628.7539
1135.916, 622.7305
1137.009, 585.7695
1138.102, 474.8242
1139.195, 578.9102
1140.288, 362.0234
1141.380, 617.1484
1142.473, 638.3008
1143.565, 570.4688
1144.657, 595.6484
1145.749, 745.8398
1146.841, 606.0430
1147.932, 329.2773
1149.024, 802.5273
1150.115, 579.8359
1151.206, 524.1602
1152.297, 298.4922
1153.388, 598.8320
1154.479, 415.1836
1155.569, 605.5469
1156.659, 489.9180
1157.750, 594.3047
1158.839, 701.7109
1159.929, 400.1172
1161.019, 402.5391
1162.108, 283.9648
1163.198, 668.4023
1164.287, 696.9883
1165.376, 256.4453
1166.465, 476.9062
1167.553, 431.3789
1168.642, 412.8594
1169.730, 212.3477
1170.818, 403.8438
1171.906, 425.3477
1172.994, 423.8594
1174.082, 244.3828
1175.170, 498.9102
1176.257, 532.4414
1177.344, 535.9805
1178.431, 427.5273
1179.518, 354.0820
1180.605, 343.6445
1181.691, 13.78906
1182.778, 438.7812
1183.864, 583.3555
1184.950, 191.9297
1186.036, 350.5156
1187.122, 171.1133
1188.207, 227.7148
1189.292, 191.3242
1190.378, 255.9297
1191.463, 355.5469
1192.548, 340.2266
1193.632, 98.87500
1194.717, 263.5234
1195.801, 204.1797
1196.886, 311.8359
1197.970, 424.5000
1199.054, 352.1641
1200.137, 98.83203
1201.221, 288.0742
1202.305, 153.7461
1203.388, 215.4219
1204.471, 189.1016
1205.554, 538.7852
1206.637, 132.4648
1207.719, 331.1445
1208.802, 140.8281
1209.884, 405.5117
1210.966, 204.1992
1212.048, 314.8867
1213.130, 125.5742
1214.212, 26.26562
1215.293, 340.9531
1216.374, 531.6406
1217.456, 355.3320
1218.536, 259.0195
1219.617, 145.5703
1220.698, 65.62500
1221.778, 23.10938
1222.859, 16.02734
1223.939, 150.3320
1225.019, 102.1562
1226.099, 124.9609
1227.178, 153.0977
1228.258, 79.43750
1229.337, 193.5391
1230.417, 121.6641
1231.496, 124.1445
1232.574, 92.69531
1233.653, 134.6562
1234.732, 183.5000
1235.810, 170.2539
1236.888, 47.00000
1237.966, 179.7109
1239.044, 217.4180
1240.122, 106.8750
1241.199, 425.7578
1242.277, 334.3867
1243.354, 310.0078
1244.431, 422.6328
1245.508, 352.2461
1246.585, 126.1367
1247.661, 270.3906
1248.738, 171.9141
1249.814, 423.4375
1250.890, 339.9492
1251.966, 359.0547
1253.042, 307.5625
1254.117, 447.0664
1255.193, 267.5625
1256.268, 136.0547
1257.343, 85.54297
