##NAMES=Arsenopyrite
##RRUFFID=R050071
##IDEAL CHEMISTRY=Fe^3+^(AsS)^3-^
##LOCALITY=Yaogangxian mine, Yizhang County, Hunan Province, China
##OWNER=RRUFF
##SOURCE=Rock Currier
##DESCRIPTION=Steel-gray tabular
##STATUS=The identification of this mineral has been confirmed by X-ray diffraction and chemical analysis
##URL=rruff.info/R050071
##MEASURED CHEMISTRY=FeAsS
##PIN_ID=L00162
##ORIENTATION=Laser parallel to -c* (0 0 -1). Fiducial mark perpendicular to laser is parallel to -a [-1 0 0]
71.24100, 0.0000000E+00
72.47700, 1812.348
73.71400, 5664.625
74.95100, 10712.91
76.18700, 12799.81
77.42300, 12559.98
78.65900, 11609.51
79.89500, 5011.766
81.13100, 747.1484
82.36700, 491.1953
83.60200, 661.6641
84.83700, 281.4180
86.07200, 397.4688
87.30800, 908.4297
88.54200, 736.5977
89.77700, 599.5469
91.01200, 1035.141
92.24600, 1195.211
93.48000, 557.4688
94.71400, 632.5820
95.94800, 858.2266
97.18200, 195.9688
98.41600, 108.7578
99.64900, 402.3281
100.8830, 249.8945
102.1160, 925.6328
103.3490, 2351.852
104.5820, 3476.594
105.8150, 7159.832
107.0470, 10977.79
108.2800, 11516.64
109.5120, 17754.98
110.7440, 13714.46
111.9760, 13516.80
113.2080, 14434.70
114.4400, 15956.19
115.6710, 17410.22
116.9030, 19554.51
118.1340, 19368.12
119.3650, 11872.05
120.5960, 5203.379
121.8270, 1845.172
123.0580, 1396.781
124.2880, 950.3398
125.5190, 396.2656
126.7490, 325.5430
127.9790, 81.76562
129.2090, 121.5352
130.4390, 318.5781
131.6680, 129.5156
132.8980, 58.33203
134.1270, 538.0703
135.3560, 693.7695
136.5850, 320.4453
137.8140, 121.1289
139.0430, 117.1172
140.2710, 276.9102
141.5000, 20.97266
142.7280, 234.1094
143.9560, 2.765625
145.1840, 275.8008
146.4120, 86.07422
147.6390, 44.02344
148.8670, 35.01953
150.0940, 195.7422
151.3210, 1096.641
152.5490, 1367.953
153.7750, 1154.133
155.0020, 288.7969
156.2290, 731.2695
157.4550, 484.5938
158.6810, 754.5273
159.9080, 981.5391
161.1340, 548.9297
162.3590, 491.7617
163.5850, 985.5000
164.8110, 963.2070
166.0360, 1138.219
167.2610, 1048.504
168.4860, 1046.117
169.7110, 918.4922
170.9360, 505.5234
172.1610, 432.6055
173.3850, 624.8281
174.6100, 119.6758
175.8340, 417.2383
177.0580, 358.8906
178.2820, 393.4922
179.5050, 479.2031
180.7290, 558.2266
181.9520, 624.3164
183.1760, 810.6875
184.3990, 700.1289
185.6220, 544.6953
186.8450, 382.3672
188.0670, 775.6133
189.2900, 790.5547
190.5120, 1244.449
191.7340, 1466.410
192.9560, 1771.180
194.1780, 1869.441
195.4000, 1926.590
196.6220, 1980.258
197.8430, 2000.422
199.0640, 2042.297
200.2860, 1958.414
201.5070, 2114.875
202.7270, 2014.121
203.9480, 1564.352
205.1690, 1000.293
206.3890, 549.4102
207.6090, 38.64844
208.8290, 359.6055
210.0490, 289.3867
211.2690, 151.5352
212.4890, 212.5430
213.7080, 92.07422
214.9280, 119.8086
216.1470, 77.46484
217.3660, 132.8477
218.5850, 147.2422
219.8030, 208.9453
221.0220, 239.1523
222.2400, 169.7383
223.4590, 289.6211
224.6770, 1.015625
225.8950, 12.53516
227.1120, 7.519531
228.3300, 310.8164
229.5480, 33.86719
230.7650, 196.9590
231.9820, 170.1328
233.1990, 16.33398
234.4160, 29.52734
235.6330, 232.7227
236.8490, 169.7910
238.0660, 29.10156
239.2820, 418.7461
240.4980, 76.82031
241.7140, 319.6465
242.9300, 84.86523
244.1460, 34.54688
245.3610, 80.26953
246.5770, 149.7441
247.7920, 145.2090
249.0070, 147.2480
250.2220, 66.07617
251.4370, 292.1641
252.6510, 529.8516
253.8660, 398.8379
255.0800, 684.4863
256.2940, 603.8145
257.5080, 915.4805
258.7220, 2019.836
259.9360, 1437.939
261.1490, 2590.369
262.3630, 1148.621
263.5760, 1091.480
264.7890, 1505.035
266.0020, 1166.305
267.2150, 1144.293
268.4270, 851.9316
269.6400, 687.1562
270.8520, 993.0273
272.0640, 520.5781
273.2760, 418.8418
274.4880, 797.8086
275.7000, 332.5781
276.9120, 1143.865
278.1230, 1109.115
279.3340, 1017.828
280.5450, 865.7207
281.7560, 868.5410
282.9670, 653.5410
284.1780, 873.6094
285.3880, 809.8105
286.5980, 918.0469
287.8090, 851.3398
289.0190, 876.7871
290.2290, 633.3301
291.4380, 632.5137
292.6480, 633.8477
293.8570, 604.5605
295.0670, 624.9980
296.2760, 636.3789
297.4850, 642.8730
298.6930, 703.5488
299.9020, 697.3594
301.1110, 740.6289
302.3190, 826.2500
303.5270, 799.1816
304.7350, 809.4961
305.9430, 801.8047
307.1510, 765.9160
308.3580, 775.4219
309.5660, 784.5742
310.7730, 866.5332
311.9800, 924.1445
313.1870, 697.3047
314.3940, 693.3730
315.6010, 1000.822
316.8070, 854.8984
318.0130, 970.2012
319.2200, 664.0918
320.4260, 535.9453
321.6310, 1005.830
322.8370, 820.9199
324.0430, 598.3750
325.2480, 854.6445
326.4540, 783.5137
327.6590, 1067.805
328.8640, 1132.793
330.0680, 650.2402
331.2730, 854.7305
332.4780, 886.6973
333.6820, 810.2539
334.8860, 843.8125
336.0900, 658.8398
337.2940, 781.7949
338.4980, 733.6797
339.7010, 861.5000
340.9050, 556.2520
342.1080, 761.9277
343.3110, 1152.547
344.5140, 649.1055
345.7170, 904.6016
346.9200, 842.0352
348.1220, 730.4180
349.3240, 637.7461
350.5270, 796.5547
351.7290, 840.4453
352.9310, 992.4883
354.1320, 870.4805
355.3340, 1089.977
356.5350, 790.0547
357.7370, 783.5742
358.9380, 549.7656
360.1390, 516.1641
361.3400, 565.5156
362.5400, 524.5195
363.7410, 350.5469
364.9410, 645.5195
366.1410, 500.3867
367.3410, 359.3828
368.5410, 477.6016
369.7410, 627.8203
370.9400, 210.9492
372.1400, 287.1484
373.3390, 275.3906
374.5380, 150.5547
375.7370, 254.1719
376.9360, 316.2734
378.1350, 302.8945
379.3330, 171.5078
380.5310, 116.6367
381.7300, 2.398438
382.9280, 167.5586
384.1260, 246.3789
385.3230, 187.9102
386.5210, 279.4844
387.7180, 373.0469
388.9160, 163.5938
390.1130, 234.1406
391.3100, 410.8945
392.5060, 236.4258
393.7030, 369.8945
394.9000, 488.5625
396.0960, 26.19531
397.2920, 60.94141
398.4880, 6.496094
399.6840, 287.8086
400.8800, 305.6992
402.0750, 469.8203
403.2710, 421.0273
404.4660, 235.1641
405.6610, 481.2539
406.8560, 108.1133
408.0510, 544.6758
409.2450, 630.5938
410.4400, 654.3555
411.6340, 441.9688
412.8280, 529.3008
414.0220, 447.9766
415.2160, 303.7266
416.4100, 370.4531
417.6030, 519.2969
418.7970, 465.1914
419.9900, 439.2852
421.1830, 538.6133
422.3760, 362.7578
423.5690, 519.5430
424.7610, 425.3633
425.9540, 545.7734
427.1460, 376.9961
428.3380, 410.1484
429.5300, 515.1328
430.7220, 763.7500
431.9140, 609.1367
433.1050, 838.6211
434.2970, 500.1758
435.4880, 838.7773
436.6790, 838.5273
437.8700, 520.2656
439.0610, 739.1914
440.2510, 966.2148
441.4420, 1049.273
442.6320, 1064.590
443.8220, 1101.133
445.0120, 967.4453
446.2020, 1014.367
447.3910, 837.1992
448.5810, 777.1055
449.7700, 843.9961
450.9600, 706.8477
452.1490, 816.6367
453.3370, 604.5586
454.5260, 778.8438
455.7150, 789.4023
456.9030, 643.0391
458.0910, 946.6875
459.2800, 795.5000
460.4670, 803.9023
461.6550, 832.7461
462.8430, 903.4297
464.0300, 899.6836
465.2180, 945.6094
466.4050, 850.1602
467.5920, 1107.832
468.7790, 1004.621
469.9650, 785.1523
471.1520, 982.1680
472.3380, 954.1953
473.5250, 1125.289
474.7110, 1076.281
475.8970, 992.3672
477.0820, 1091.266
478.2680, 975.3398
479.4540, 1331.676
480.6390, 1164.562
481.8240, 1183.277
483.0090, 1435.418
484.1940, 1293.461
485.3780, 1376.621
486.5630, 1508.805
487.7470, 1486.355
488.9320, 1491.555
490.1160, 1537.766
491.3000, 1564.770
492.4830, 1564.418
493.6670, 1794.668
494.8500, 1653.945
496.0340, 1490.297
497.2170, 1921.824
498.4000, 1838.504
499.5820, 1575.078
500.7650, 1675.938
501.9480, 1509.586
503.1300, 1846.176
504.3120, 1780.145
505.4940, 1869.137
506.6760, 1790.609
507.8580, 1748.039
509.0390, 2069.602
510.2210, 1962.816
511.4020, 1919.648
512.5830, 2223.555
513.7640, 2015.707
514.9450, 2040.320
516.1250, 2219.973
517.3060, 2512.234
518.4860, 2236.172
519.6660, 2482.586
520.8460, 2680.461
522.0260, 2312.586
523.2060, 2187.559
524.3850, 2263.113
525.5650, 2395.562
526.7440, 2369.410
527.9230, 2335.137
529.1020, 2286.109
530.2810, 2244.148
531.4590, 2322.105
532.6380, 2298.066
533.8160, 2300.242
534.9940, 2345.961
536.1720, 2325.359
537.3500, 2340.867
538.5270, 2434.441
539.7050, 2473.797
540.8820, 2639.203
542.0590, 2680.887
543.2360, 2740.609
544.4130, 2510.367
545.5900, 2736.148
546.7660, 2625.715
547.9430, 2607.316
549.1190, 2793.191
550.2950, 2791.102
551.4710, 3067.188
552.6470, 3177.164
553.8220, 3143.180
554.9980, 3386.227
556.1730, 3034.316
557.3480, 3150.441
558.5230, 3097.562
559.6980, 3367.211
560.8730, 3388.578
562.0470, 3551.555
563.2220, 3179.977
564.3960, 3131.453
565.5700, 3013.547
566.7440, 2971.457
567.9170, 3368.691
569.0910, 3255.852
570.2640, 3342.887
571.4380, 3269.902
572.6110, 3276.723
573.7840, 2924.465
574.9570, 2786.973
576.1290, 2610.891
577.3020, 2047.773
578.4740, 2063.617
579.6460, 1818.574
580.8180, 1887.730
581.9900, 1461.789
583.1620, 1060.883
584.3330, 812.2773
585.5040, 691.4453
586.6760, 702.6641
587.8470, 458.9375
589.0180, 495.3633
590.1880, 429.7109
591.3590, 188.4062
592.5290, 231.8125
593.7000, 409.2969
594.8700, 303.7969
596.0400, 392.3242
597.2090, 89.17578
598.3790, 97.78906
599.5490, 248.8828
600.7180, 243.5781
601.8870, 249.3125
603.0560, 280.0781
604.2250, 128.8672
605.3940, 360.8438
606.5620, 474.6836
607.7300, 80.55859
608.8990, 64.46094
610.0670, 327.3906
611.2350, 356.3438
612.4020, 423.3203
613.5700, 209.5273
614.7370, 120.5547
615.9050, 255.6055
617.0720, 366.6797
618.2390, 38.78125
619.4060, 149.9023
620.5720, 100.0508
621.7390, 305.2188
622.9050, 117.4180
624.0710, 273.6328
625.2370, 22.11719
626.4030, 374.2070
627.5690, 434.4961
628.7340, 224.8086
629.9000, 290.1406
631.0650, 169.4961
632.2300, 212.6016
633.3950, 373.0039
634.5600, 138.4336
635.7240, 290.8789
636.8890, 116.8125
638.0530, 259.2070
639.2170, 52.42969
640.3810, 171.0859
641.5450, 258.6133
642.7080, 174.1641
643.8720, 224.4062
645.0350, 24.32031
646.1980, 122.9219
647.3610, 130.5469
648.5240, 140.1836
649.6870, 182.8320
650.8490, 138.5000
652.0120, 155.9297
653.1740, 204.8750
654.3360, 121.5859
655.4980, 187.0156
656.6600, 133.2188
657.8210, 156.9688
658.9830, 78.27344
660.1440, 21.52344
661.3050, 86.23438
662.4660, 56.00000
663.6270, 208.7812
664.7870, 192.5703
665.9480, 28.10547
667.1080, 222.9102
668.2680, 54.72266
669.4280, 228.5508
670.5880, 184.3750
671.7480, 198.2070
672.9070, 105.0430
674.0670, 164.8867
675.2260, 175.7305
676.3850, 183.2188
677.5440, 94.92578
678.7030, 94.89844
679.8610, 7.269531
681.0200, 68.56250
682.1780, 82.39844
683.3360, 155.2383
684.4940, 121.0820
685.6520, 92.07812
686.8090, 70.27344
687.9670, 26.51562
689.1240, 156.3047
690.2810, 29.90625
691.4380, 87.30469
692.5950, 135.0820
693.7520, 167.8516
694.9080, 26.62891
696.0650, 196.4062
697.2210, 42.50781
698.3770, 4.683594
699.5330, 116.3867
700.6880, 120.0781
701.8440, 164.5508
702.9990, 205.3828
704.1550, 0.8554690
705.3100, 37.34766
706.4650, 195.8594
707.6190, 111.4766
708.7740, 157.1562
709.9290, 89.92188
711.0830, 107.2578
712.2370, 116.4336
713.3910, 122.8711
714.5450, 191.7734
715.6980, 88.43359
716.8520, 71.58594
718.0050, 241.3477
719.1580, 0.2695310
720.3110, 56.88672
721.4640, 144.2500
722.6170, 13.66797
723.7700, 237.1992
724.9220, 218.8047
726.0740, 76.59766
727.2260, 44.44141
728.3780, 268.8438
729.5300, 40.66406
730.6810, 126.4766
731.8330, 61.92578
732.9840, 252.7148
734.1350, 135.4961
735.2860, 3.269531
736.4370, 66.00781
737.5880, 29.49609
738.7380, 424.1992
739.8880, 266.7500
741.0390, 205.4297
742.1890, 266.1016
743.3380, 75.76562
744.4880, 392.4102
745.6380, 348.0469
746.7870, 310.6719
747.9360, 110.2852
749.0850, 216.8828
750.2340, 275.4688
751.3830, 80.04688
752.5310, 365.6055
753.6800, 258.1562
754.8280, 387.6953
755.9760, 300.2188
757.1240, 561.7305
758.2720, 162.2344
759.4190, 466.7188
760.5670, 266.1914
761.7140, 275.6562
762.8610, 305.1289
764.0080, 12.34375
765.1550, 333.7344
766.3020, 162.1133
767.4480, 124.4805
768.5950, 344.8320
769.7410, 72.43750
770.8870, 238.7617
772.0330, 276.0625
773.1780, 277.3555
774.3240, 84.63672
775.4690, 68.89844
776.6140, 21.13672
777.7590, 220.4922
778.9040, 164.6797
780.0490, 300.8477
781.1940, 222.0039
782.3380, 336.1445
783.4820, 215.2734
784.6260, 369.3867
785.7700, 130.4883
786.9140, 354.5781
788.0580, 439.6484
789.2010, 427.7109
790.3450, 271.7539
791.4880, 211.7852
792.6310, 7.796875
793.7730, 56.30078
794.9160, 284.7109
796.0590, 177.6367
797.2010, 248.5664
798.3430, 396.0977
799.4850, 340.9844
800.6270, 196.8516
801.7690, 154.7109
802.9100, 78.55469
804.0520, 177.3789
805.1930, 288.1914
806.3340, 216.9844
807.4750, 219.7695
808.6160, 258.5391
809.7560, 172.2969
810.8970, 200.0391
812.0370, 141.7656
813.1770, 82.48438
814.3170, 140.1797
815.4570, 319.4258
816.5960, 328.1016
817.7360, 465.5352
818.8750, 147.1758
820.0140, 328.8125
821.1530, 127.4375
822.2920, 272.0430
823.4310, 230.8945
824.5690, 181.7266
825.7070, 170.3008
826.8460, 173.2070
827.9840, 43.26953
829.1220, 227.7969
830.2590, 129.3164
831.3970, 184.8203
832.5340, 383.3125
833.6710, 81.79688
834.8080, 94.31250
835.9450, 72.66016
837.0820, 128.3516
838.2190, 185.3359
839.3550, 60.60547
840.4910, 80.84375
841.6270, 217.4883
842.7630, 194.3477
843.8990, 160.9062
845.0350, 140.5781
846.1700, 88.40625
847.3060, 104.1680
848.4410, 76.37500
849.5760, 74.41797
850.7100, 81.03125
851.8450, 6.906250
852.9800, 232.2266
854.1140, 95.43359
855.2480, 167.5586
856.3820, 152.4844
857.5160, 221.5586
858.6500, 12.39453
859.7830, 53.37500
860.9170, 61.59766
862.0500, 101.6055
863.1830, 25.33594
864.3160, 41.84375
865.4480, 316.0703
866.5810, 72.66406
867.7130, 134.4219
868.8460, 197.4062
869.9780, 119.2578
871.1100, 189.1055
872.2410, 102.6562
873.3730, 226.5195
874.5050, 217.7969
875.6360, 55.46094
876.7670, 121.2578
877.8980, 394.9805
879.0290, 212.6992
880.1590, 223.2734
881.2900, 194.0000
882.4200, 225.7305
883.5500, 205.4648
884.6800, 300.2031
885.8100, 233.0117
886.9400, 214.8984
888.0690, 130.2266
889.1990, 183.9805
890.3280, 126.7383
891.4570, 276.5000
892.5860, 99.26562
893.7140, 292.0312
894.8430, 143.8047
895.9710, 292.5820
897.1000, 271.3672
898.2280, 0.1562500
899.3560, 313.9531
900.4830, 59.70312
901.6110, 276.5117
902.7380, 77.32812
903.8660, 161.1484
904.9930, 17.01953
906.1200, 189.0859
907.2460, 214.9258
908.3730, 337.7734
909.5000, 238.6328
910.6260, 246.0352
911.7520, 369.0000
912.8780, 253.0234
914.0040, 313.0000
915.1290, 239.8242
916.2550, 344.7383
917.3800, 269.6641
918.5050, 334.5977
919.6300, 396.5391
920.7550, 293.5000
921.8800, 283.4609
923.0040, 352.4414
924.1290, 173.4297
925.2530, 528.4336
926.3770, 172.4453
927.5010, 345.4727
928.6250, 389.8008
929.7480, 313.3789
930.8720, 333.4336
931.9950, 500.5039
933.1180, 375.6016
934.2410, 350.7266
935.3640, 406.8633
936.4860, 761.0195
937.6090, 534.1836
938.7310, 136.6289
939.8530, 487.8359
940.9750, 340.0547
942.0970, 318.2891
943.2180, 276.5391
944.3400, 566.8086
945.4610, 501.0859
946.5820, 552.3867
947.7030, 593.9531
948.8240, 533.6328
949.9450, 566.7422
951.0650, 464.1211
952.1860, 473.5391
953.3060, 457.9961
954.4260, 367.4648
955.5460, 415.9570
956.6650, 315.4648
957.7850, 307.0078
958.9040, 294.1562
960.0230, 313.1914
961.1420, 243.8125
962.2610, 360.4609
963.3800, 311.6953
964.4990, 712.3867
965.6170, 440.0938
966.7350, 707.8477
967.8530, 585.6211
968.9710, 528.1055
970.0890, 490.8594
971.2070, 889.1719
972.3240, 408.4609
973.4410, 667.4336
974.5580, 511.9922
975.6750, 496.0977
976.7920, 373.2266
977.9090, 454.3828
979.0250, 681.6328
980.1410, 658.9570
981.2580, 658.3594
982.3740, 760.8320
983.4890, 662.3672
984.6050, 795.3945
985.7200, 836.0273
986.8360, 819.5273
987.9510, 923.5195
989.0660, 916.6055
990.1810, 1034.926
991.2950, 882.6367
992.4100, 908.5391
993.5240, 758.2812
994.6390, 837.2500
995.7530, 769.0664
996.8660, 758.4336
997.9800, 711.6211
999.0940, 796.1289
1000.207, 788.2266
1001.320, 860.3555
1002.433, 918.8672
1003.546, 901.7578
1004.659, 1051.281
1005.772, 855.5312
1006.884, 906.8203
1007.996, 793.3828
1009.108, 948.7344
1010.220, 1019.266
1011.332, 998.6758
1012.444, 713.1211
1013.555, 880.5898
1014.666, 894.0898
1015.777, 452.6211
1016.888, 921.1836
1017.999, 675.7734
1019.110, 1066.395
1020.220, 753.0430
1021.331, 950.7227
1022.441, 786.4336
1023.551, 853.1758
1024.661, 779.9453
1025.770, 706.7500
1026.880, 862.5820
1027.989, 785.4453
1029.098, 831.3438
1030.207, 878.5273
1031.316, 955.2227
1032.425, 932.1797
1033.533, 882.1992
1034.642, 885.2617
1035.750, 877.3516
1036.858, 912.4766
1037.966, 968.6328
1039.073, 1063.555
1040.181, 934.7773
1041.288, 1093.035
1042.396, 1266.320
1043.503, 1024.664
1044.610, 1196.043
1045.716, 880.4570
1046.823, 1293.918
1047.929, 992.4062
1049.036, 1072.930
1050.142, 1057.484
1051.248, 1210.070
1052.353, 1017.688
1053.459, 1224.336
1054.564, 1269.020
1055.670, 1078.734
1056.775, 1098.480
1057.880, 1083.258
1058.985, 1092.066
1060.089, 808.9062
1061.194, 1061.781
1062.298, 1341.707
1063.402, 1086.668
1064.506, 1254.660
1065.610, 1294.691
1066.713, 845.8516
1067.817, 1059.941
1068.920, 1128.066
1070.023, 1134.215
1071.126, 1295.402
1072.229, 1224.520
1073.332, 756.7734
1074.435, 1061.062
1075.537, 894.3828
1076.639, 1086.730
1077.741, 1137.113
1078.843, 1394.527
1079.945, 1008.973
1081.046, 906.4492
1082.148, 1189.961
1083.249, 860.5078
1084.350, 1158.605
1085.451, 1184.758
1086.551, 1028.398
1087.652, 1084.066
1088.752, 983.7695
1089.853, 801.4375
1090.953, 864.1953
1092.053, 819.7070
1093.152, 1285.812
1094.252, 912.7656
1095.351, 1044.656
1096.451, 1140.586
1097.550, 994.5430
1098.649, 812.0039
1099.748, 1219.027
1100.846, 1071.074
1101.945, 871.1523
1103.043, 832.1797
1104.141, 757.7578
1105.239, 909.4297
1106.337, 1039.703
1107.434, 1238.633
1108.532, 856.9727
1109.629, 888.3359
1110.726, 928.7266
1111.823, 830.8555
1112.920, 848.7930
1114.017, 1101.180
1115.113, 1097.598
1116.210, 1278.121
1117.306, 1099.711
1118.402, 1569.125
1119.498, 1712.062
1120.593, 1451.711
1121.689, 1763.035
1122.784, 1701.730
1123.879, 1741.617
1124.974, 1655.406
1126.069, 1472.223
1127.164, 1323.062
1128.259, 1161.941
1129.353, 1080.867
1130.447, 853.8164
1131.541, 580.8008
1132.635, 374.8086
1133.729, 489.8398
1134.822, 589.0859
1135.916, 329.1914
1137.009, 550.3242
1138.102, 440.4727
1139.195, 304.6445
1140.288, 558.8984
1141.380, 519.1719
1142.473, 290.4805
1143.565, 655.8086
1144.657, 496.1602
1145.749, 391.5312
1146.841, 226.9180
1147.932, 319.3281
1149.024, 316.7617
1150.115, 474.2148
1151.206, 507.6914
1152.297, 396.1836
1153.388, 428.6992
1154.479, 292.2656
1155.569, 104.8516
1156.659, 427.4531
1157.750, 196.0820
1158.839, 442.7266
1159.929, 251.3867
1161.019, 264.0703
1162.108, 609.7734
1163.198, 232.4883
1164.287, 282.2266
1165.376, 194.9844
1166.465, 293.7617
1167.553, 253.5547
1168.642, 248.3594
1169.730, 157.1914
1170.818, 239.0352
1171.906, 242.8984
1172.994, 223.8125
1174.082, 413.0234
1175.170, 259.9688
1176.257, 492.9297
1177.344, 197.9102
1178.431, 322.9102
1179.518, 323.9180
1180.605, 94.94531
1181.691, 496.9961
1182.778, 482.0508
1183.864, 204.1250
1184.950, 257.2422
1186.036, 61.37109
1187.122, 7.527344
1188.207, 214.5547
1189.292, 326.4492
1190.378, 348.2969
1191.463, 10.45312
1192.548, 137.1328
1193.632, 77.67188
1194.717, 10.58594
1195.801, 202.7031
1196.886, 82.75391
1197.970, 105.2422
1199.054, 104.2578
1200.137, 189.7930
1201.221, 88.02734
1202.305, 55.13281
1203.388, 15.16797
1204.471, 12.47266
1205.554, 191.7969
1206.637, 144.1406
1207.719, 123.4922
1208.802, 338.8555
1209.884, 203.2305
1210.966, 154.6172
1212.048, 70.01172
1213.130, 239.4219
1214.212, 96.16016
1215.293, 95.76953
1216.374, 92.58984
1217.456, 260.9570
1218.536, 150.3398
1219.617, 63.22656
1220.698, 51.14453
1221.778, 37.17188
1222.859, 100.5625
1223.939, 0.7539060
1225.019, 307.6523
1226.099, 170.0664
1227.178, 149.4883
1228.258, 102.0781
1229.337, 108.3125
1230.417, 147.7109
1231.496, 78.11719
1232.574, 35.46875
1233.653, 5.417969
1234.732, 61.81250
1235.810, 42.73047
1236.888, 149.3438
1237.966, 57.29688
1239.044, 168.7852
1240.122, 190.2266
1241.199, 148.0312
1242.277, 21.86719
1243.354, 81.85938
1244.431, 149.5156
1245.508, 41.91016
1246.585, 47.51562
1247.661, 43.38281
1248.738, 51.27344
1249.814, 305.8086
1250.890, 55.95703
1251.966, 216.1055
1253.042, 9.832031
1254.117, 102.2266
1255.193, 125.2891
1256.268, 191.3828
1257.343, 74.47656
