##NAMES=Arsenopyrite
##RRUFFID=R050071
##IDEAL CHEMISTRY=Fe^3+^(AsS)^3-^
##LOCALITY=Yaogangxian mine, Yizhang County, Hunan Province, China
##OWNER=RRUFF
##SOURCE=Rock Currier
##DESCRIPTION=Steel-gray tabular
##STATUS=The identification of this mineral has been confirmed by X-ray diffraction and chemical analysis
##URL=rruff.info/R050071
##MEASURED CHEMISTRY=FeAsS
##PIN_ID=L00167
##ORIENTATION=Laser parallel to (1 0 1). Fiducial mark perpendicular to laser is parallel to b [0 1 0]
73.71400, 0.0000000E+00
74.95100, 3247.113
76.18700, 6979.457
77.42300, 9818.531
78.65900, 11521.87
79.89500, 10593.30
81.13100, 7221.672
82.36700, 4549.674
83.60200, 5373.434
84.83700, 1303.820
86.07200, 222.4863
87.30800, 142.5820
88.54200, 219.7500
89.77700, 134.8242
91.01200, 719.5977
92.24600, 1510.404
93.48000, 1221.850
94.71400, 873.5586
95.94800, 753.2578
97.18200, 292.3574
98.41600, 229.1074
99.64900, 372.9043
100.8830, 445.2852
102.1160, 9.105469
103.3490, 261.4492
104.5820, 964.7246
105.8150, 2158.541
107.0470, 3618.764
108.2800, 6868.658
109.5120, 6407.895
110.7440, 10028.43
111.9760, 7617.352
113.2080, 8747.695
114.4400, 11832.14
115.6710, 15277.17
116.9030, 19324.32
118.1340, 27603.88
119.3650, 33751.24
120.5960, 33584.18
121.8270, 37864.75
123.0580, 31603.06
124.2880, 11666.23
125.5190, 3006.330
126.7490, 925.4844
127.9790, 460.7578
129.2090, 418.1797
130.4390, 466.8008
131.6680, 514.6719
132.8980, 531.8398
134.1270, 551.6777
135.3560, 363.2031
136.5850, 612.4727
137.8140, 474.1680
139.0430, 602.3223
140.2710, 829.2422
141.5000, 217.6562
142.7280, 215.7324
143.9560, 39.90625
145.1840, 118.1289
146.4120, 92.92773
147.6390, 0.3261720
148.8670, 110.2344
150.0940, 22.36523
151.3210, 344.4219
152.5490, 381.2461
153.7750, 766.0488
155.0020, 588.8086
156.2290, 569.9551
157.4550, 574.8086
158.6810, 614.5039
159.9080, 616.5098
161.1340, 1093.568
162.3590, 1345.236
163.5850, 1732.521
164.8110, 1673.318
166.0360, 1571.775
167.2610, 846.3789
168.4860, 706.1191
169.7110, 577.9785
170.9360, 929.9492
172.1610, 655.0176
173.3850, 681.1738
174.6100, 461.4102
175.8340, 912.7188
177.0580, 966.0898
178.2820, 759.9102
179.5050, 783.3730
180.7290, 504.9844
181.9520, 323.5137
183.1760, 534.0645
184.3990, 416.6211
185.6220, 445.1719
186.8450, 644.7109
188.0670, 672.2266
189.2900, 665.7109
190.5120, 1096.148
191.7340, 1195.535
192.9560, 1181.867
194.1780, 1271.145
195.4000, 1342.365
196.6220, 1301.535
197.8430, 1274.652
199.0640, 1511.719
200.2860, 1303.732
201.5070, 1467.699
202.7270, 1449.615
203.9480, 1158.484
205.1690, 596.3027
206.3890, 232.0742
207.6090, 137.1992
208.8290, 45.51953
210.0490, 137.8828
211.2690, 133.2891
212.4890, 0.2597660
213.7080, 82.76367
214.9280, 280.0273
216.1470, 3.011719
217.3660, 53.24023
218.5850, 54.45117
219.8030, 66.03516
221.0220, 21.40234
222.2400, 31.05664
223.4590, 58.16992
224.6770, 27.23828
225.8950, 136.0762
227.1120, 95.68945
228.3300, 149.1992
229.5480, 86.35156
230.7650, 284.2148
231.9820, 103.9043
233.1990, 110.4277
234.4160, 304.5215
235.6330, 263.3770
236.8490, 155.7461
238.0660, 108.0918
239.2820, 136.4316
240.4980, 143.7969
241.7140, 61.20312
242.9300, 51.65625
244.1460, 176.1641
245.3610, 8.226563
246.5770, 19.55469
247.7920, 79.18555
249.0070, 45.16797
250.2220, 38.89844
251.4370, 80.11719
252.6510, 9.753906
253.8660, 158.5352
255.0800, 294.2305
256.2940, 462.8418
257.5080, 707.3418
258.7220, 2993.734
259.9360, 2172.068
261.1490, 2227.689
262.3630, 1787.205
263.5760, 1099.090
264.7890, 791.8320
266.0020, 825.4355
267.2150, 1040.900
268.4270, 1337.238
269.6400, 1072.451
270.8520, 962.5449
272.0640, 888.5234
273.2760, 531.3926
274.4880, 515.1523
275.7000, 401.8105
276.9120, 713.3691
278.1230, 512.8320
279.3340, 374.2031
280.5450, 516.4824
281.7560, 250.6758
282.9670, 435.7793
284.1780, 415.8008
285.3880, 267.7441
286.5980, 497.5996
287.8090, 385.1270
289.0190, 422.2871
290.2290, 409.2773
291.4380, 477.1426
292.6480, 403.8164
293.8570, 401.7344
295.0670, 436.6855
296.2760, 384.1445
297.4850, 462.0039
298.6930, 436.5176
299.9020, 377.7715
301.1110, 385.6055
302.3190, 415.1777
303.5270, 528.4844
304.7350, 533.6035
305.9430, 576.5176
307.1510, 498.2734
308.3580, 597.8984
309.5660, 531.3672
310.7730, 409.8047
311.9800, 578.2324
313.1870, 569.6465
314.3940, 583.0449
315.6010, 455.4336
316.8070, 658.8066
318.0130, 749.1660
319.2200, 527.5098
320.4260, 553.8398
321.6310, 848.1562
322.8370, 684.4551
324.0430, 734.7305
325.2480, 796.9941
326.4540, 808.2324
327.6590, 745.4551
328.8640, 606.6660
330.0680, 727.8613
331.2730, 584.0391
332.4780, 720.2012
333.6820, 715.3496
334.8860, 612.4844
336.0900, 694.6055
337.2940, 809.7109
338.4980, 702.8027
339.7010, 824.8828
340.9050, 709.9492
342.1080, 654.0039
343.3110, 851.0449
344.5140, 853.0742
345.7170, 744.0957
346.9200, 722.1016
348.1220, 779.0996
349.3240, 788.0840
350.5270, 593.0586
351.7290, 664.9023
352.9310, 713.6484
354.1320, 509.2090
355.3340, 600.0332
356.5350, 550.2070
357.7370, 617.8262
358.9380, 522.4219
360.1390, 523.3340
361.3400, 666.9590
362.5400, 581.5156
363.7410, 518.3086
364.9410, 437.2324
366.1410, 376.9727
367.3410, 523.7676
368.5410, 586.0645
369.7410, 616.4980
370.9400, 507.6230
372.1400, 653.2910
373.3390, 456.5508
374.5380, 542.6953
375.7370, 396.3535
376.9360, 361.2617
378.1350, 341.6836
379.3330, 309.5762
380.5310, 302.0879
381.7300, 331.2871
382.9280, 339.1367
384.1260, 334.1289
385.3230, 393.5840
386.5210, 125.1445
387.7180, 359.2422
388.9160, 193.4531
390.1130, 163.1621
391.3100, 347.4375
392.5060, 303.5215
393.7030, 246.6797
394.9000, 307.6426
396.0960, 103.4824
397.2920, 291.9062
398.4880, 463.1914
399.6840, 385.4316
400.8800, 347.7441
402.0750, 369.0410
403.2710, 309.3223
404.4660, 462.5898
405.6610, 388.8457
406.8560, 372.0859
408.0510, 287.3164
409.2450, 383.5332
410.4400, 569.7383
411.6340, 427.9336
412.8280, 435.1230
414.0220, 263.3086
415.2160, 241.4883
416.4100, 450.6602
417.6030, 262.8281
418.7970, 195.9883
419.9900, 319.1426
421.1830, 261.2910
422.3760, 267.4355
423.5690, 200.5840
424.7610, 119.7305
425.9540, 201.9316
427.1460, 163.0762
428.3380, 261.3223
429.5300, 200.7070
430.7220, 269.9004
431.9140, 279.0957
433.1050, 250.2930
434.2970, 458.4961
435.4880, 291.7012
436.6790, 464.9160
437.8700, 300.1816
439.0610, 256.4824
440.2510, 501.8652
441.4420, 410.2812
442.6320, 453.7109
443.8220, 767.1543
445.0120, 317.6113
446.2020, 325.1328
447.3910, 464.6719
448.5810, 296.2383
449.7700, 281.8262
450.9600, 283.4375
452.1490, 337.0684
453.3370, 337.7012
454.5260, 374.3965
455.7150, 366.1055
456.9030, 311.8535
458.0910, 272.6250
459.2800, 540.4180
460.4670, 374.2383
461.6550, 501.0801
462.8430, 444.9570
464.0300, 537.8691
465.2180, 211.8066
466.4050, 428.7852
467.5920, 281.7891
468.7790, 283.8203
469.9650, 523.8750
471.1520, 610.9551
472.3380, 450.0840
473.5250, 376.2402
474.7110, 568.4180
475.8970, 486.6270
477.0820, 497.8633
478.2680, 466.1230
479.4540, 663.4121
480.6390, 440.7285
481.8240, 629.0703
483.0090, 364.4434
484.1940, 566.8418
485.3780, 873.2676
486.5630, 558.7227
487.7470, 530.2070
488.9320, 452.7227
490.1160, 348.2637
491.3000, 546.8359
492.4830, 796.4453
493.6670, 500.0820
494.8500, 615.7500
496.0340, 530.5215
497.2170, 449.3672
498.4000, 754.3145
499.5820, 656.3613
500.7650, 656.4727
501.9480, 588.6289
503.1300, 555.8184
504.3120, 545.0703
505.4940, 542.5605
506.6760, 571.7812
507.8580, 611.2422
509.0390, 654.7734
510.2210, 747.3574
511.4020, 478.0254
512.5830, 500.7461
513.7640, 775.5977
514.9450, 598.4531
516.1250, 764.4160
517.3060, 760.4668
518.4860, 805.2363
519.6660, 842.5195
520.8460, 813.6289
522.0260, 847.1543
523.2060, 930.8281
524.3850, 731.6094
525.5650, 595.4824
526.7440, 631.7754
527.9230, 690.8555
529.1020, 808.1152
530.2810, 619.3672
531.4590, 440.7285
532.6380, 661.1582
533.8160, 734.6504
534.9940, 693.2305
536.1720, 731.8945
537.3500, 553.6172
538.5270, 776.8750
539.7050, 670.7559
540.8820, 697.6816
542.0590, 829.6680
543.2360, 506.6934
544.4130, 658.7520
545.5900, 924.8477
546.7660, 635.3984
547.9430, 1043.562
549.1190, 971.7637
550.2950, 925.0000
551.4710, 944.2715
552.6470, 955.7871
553.8220, 1030.133
554.9980, 1053.553
556.1730, 852.5391
557.3480, 993.0371
558.5230, 1066.572
559.6980, 720.1465
560.8730, 746.7598
562.0470, 934.4121
563.2220, 1011.098
564.3960, 791.0703
565.5700, 977.5234
566.7440, 890.3457
567.9170, 967.1836
569.0910, 862.0527
570.2640, 865.9590
571.4380, 936.9199
572.6110, 753.9180
573.7840, 807.9629
574.9570, 768.0449
576.1290, 683.1602
577.3020, 676.3125
578.4740, 560.2520
579.6460, 423.2246
580.8180, 513.8105
581.9900, 457.2871
583.1620, 584.6191
584.3330, 459.0195
585.5040, 407.4512
586.6760, 377.6074
587.8470, 439.1055
589.0180, 255.8691
590.1880, 126.4297
591.3590, 198.0215
592.5290, 189.6445
593.7000, 633.3008
594.8700, 438.9883
596.0400, 396.1680
597.2090, 283.0938
598.3790, 199.8750
599.5490, 189.6973
600.7180, 189.5430
601.8870, 254.4277
603.0560, 130.6660
604.2250, 328.6211
605.3940, 192.6133
606.5620, 122.9766
607.7300, 279.0273
608.8990, 143.1074
610.0670, 341.2148
611.2350, 158.3516
612.4020, 157.4277
613.5700, 294.6895
614.7370, 352.9785
615.9050, 366.2949
617.0720, 315.6445
618.2390, 152.0215
619.4060, 256.4277
620.5720, 307.8613
621.7390, 357.3223
622.9050, 530.8105
624.0710, 234.3262
625.2370, 363.8672
626.4030, 473.4375
627.5690, 141.0332
628.7340, 198.9023
629.9000, 19.55664
631.0650, 103.2363
632.2300, 119.1953
633.3950, 173.0977
634.5600, 185.8516
635.7240, 286.6348
636.8890, 220.4414
638.0530, 368.2695
639.2170, 219.1250
640.3810, 265.0039
641.5450, 424.9043
642.7080, 244.8301
643.8720, 40.77930
645.0350, 256.7500
646.1980, 164.7441
647.3610, 182.7578
648.5240, 198.7949
649.6870, 119.8516
650.8490, 130.9277
652.0120, 234.0254
653.1740, 8.021484
654.3360, 370.1152
655.4980, 250.2715
656.6600, 112.4492
657.8210, 36.35742
658.9830, 234.8496
660.1440, 74.92773
661.3050, 273.2969
662.4660, 22.97656
663.6270, 63.23047
664.7870, 142.5020
665.9480, 21.21289
667.1080, 150.0840
668.2680, 102.6074
669.4280, 50.92969
670.5880, 71.23633
671.7480, 270.5566
672.9070, 137.8867
674.0670, 29.22852
675.2260, 128.5820
676.3850, 26.94922
677.5440, 55.53516
678.7030, 69.83594
679.8610, 77.21680
681.0200, 199.0234
682.1780, 17.42188
683.3360, 107.8320
684.4940, 54.24805
685.6520, 18.32617
686.8090, 246.1016
687.9670, 44.53906
689.1240, 104.9824
690.2810, 52.43359
691.4380, 7.498047
692.5950, 24.96680
693.7520, 42.55273
694.9080, 5.089844
696.0650, 20.52344
697.2210, 115.7754
698.3770, 16.25391
699.5330, 176.2109
700.6880, 151.7012
701.8440, 78.19531
702.9990, 28.30469
704.1550, 14.81250
705.3100, 216.3262
706.4650, 33.06250
707.6190, 149.4551
708.7740, 184.8516
709.9290, 161.9785
711.0830, 182.8711
712.2370, 108.5215
713.3910, 88.93359
714.5450, 159.3477
715.6980, 44.76172
716.8520, 164.1660
718.0050, 94.83008
719.1580, 291.5430
720.3110, 83.40234
721.4640, 91.12500
722.6170, 220.0176
723.7700, 84.11719
724.9220, 169.7812
726.0740, 149.2246
727.2260, 22.76562
728.3780, 154.2227
729.5300, 80.20898
730.6810, 117.1973
731.8330, 165.1836
732.9840, 268.1699
734.1350, 22.84375
735.2860, 34.87695
736.4370, 134.0586
737.5880, 88.99023
738.7380, 348.0703
739.8880, 254.0020
741.0390, 15.07031
742.1890, 8.080078
743.3380, 108.7871
744.4880, 46.33008
745.6380, 162.5137
746.7870, 163.3574
747.9360, 219.1953
749.0850, 268.0312
750.2340, 44.50000
751.3830, 72.28906
752.5310, 233.0742
753.6800, 214.8574
754.8280, 485.7148
755.9760, 506.4883
757.1240, 148.2559
758.2720, 389.0234
759.4190, 210.8164
760.5670, 204.5762
761.7140, 121.3301
762.8610, 210.0781
764.0080, 124.5645
765.1550, 115.5645
766.3020, 58.25586
767.4480, 112.9883
768.5950, 148.7109
769.7410, 25.42969
770.8870, 148.1289
772.0330, 259.8242
773.1780, 220.5137
774.3240, 255.1992
775.4690, 125.8809
776.6140, 296.5527
777.7590, 335.2246
778.9040, 175.8867
780.0490, 316.5430
781.1940, 204.1973
782.3380, 235.8457
783.4820, 246.4883
784.6260, 209.1230
785.7700, 201.7539
786.9140, 387.3789
788.0580, 159.9961
789.2010, 210.6094
790.3450, 47.21680
791.4880, 138.7285
792.6310, 207.3164
793.7730, 280.8965
794.9160, 236.3828
796.0590, 275.4668
797.2010, 91.02930
798.3430, 108.8613
799.4850, 10.41406
800.6270, 195.9375
801.7690, 141.4551
802.9100, 205.9668
804.0520, 157.1582
805.1930, 193.6602
806.3340, 33.05859
807.4750, 113.5371
808.6160, 324.0098
809.7560, 163.4746
810.8970, 245.9355
812.0370, 324.3906
813.1770, 144.8418
814.3170, 71.28711
815.4570, 207.2812
816.5960, 119.7148
817.7360, 60.85742
818.8750, 113.5078
820.0140, 385.8691
821.1530, 137.2266
822.2920, 187.5781
823.4310, 115.5020
824.5690, 306.8438
825.7070, 149.1836
826.8460, 314.5156
827.9840, 48.84180
829.1220, 101.9531
830.2590, 77.26758
831.3970, 186.1484
832.5340, 127.7266
833.6710, 40.48828
834.8080, 147.6875
835.9450, 21.88281
837.0820, 222.0605
838.2190, 235.2344
839.3550, 110.4062
840.4910, 180.0938
841.6270, 118.7930
842.7630, 97.92578
843.8990, 170.0820
845.0350, 146.2383
846.1700, 28.60938
847.3060, 158.5117
848.4410, 12.37305
849.5760, 68.71680
850.7100, 100.8027
851.8450, 190.8887
852.9800, 27.97070
854.1140, 125.2949
855.2480, 60.62109
856.3820, 104.3672
857.5160, 9.744141
858.6500, 120.6816
859.7830, 24.07227
860.9170, 146.3086
862.0500, 294.6152
863.1830, 275.5645
864.3160, 88.38281
865.4480, 201.3848
866.5810, 111.3887
867.7130, 48.39844
868.8460, 138.4102
869.9780, 129.4219
871.1100, 7.980469
872.2410, 282.8242
873.3730, 16.84961
874.5050, 56.12305
875.6360, 333.8789
876.7670, 139.8867
877.8980, 20.42188
879.0290, 38.41992
880.1590, 199.5703
881.2900, 305.2246
882.4200, 100.2266
883.5500, 61.23242
884.6800, 117.2441
885.8100, 279.7383
886.9400, 145.3105
888.0690, 216.2051
889.1990, 100.1094
890.3280, 29.98047
891.4570, 226.9277
892.5860, 323.8398
893.7140, 75.76172
894.8430, 0.3105470
895.9710, 35.62305
897.1000, 172.5664
898.2280, 134.5156
899.3560, 117.4727
900.4830, 99.43945
901.6110, 32.58984
902.7380, 4.142578
903.8660, 43.12109
904.9930, 120.1094
906.1200, 389.6816
907.2460, 300.6895
908.3730, 153.7031
909.5000, 294.7285
910.6260, 141.7617
911.7520, 404.8066
912.8780, 135.8594
914.0040, 171.9238
915.1290, 168.9980
916.2550, 114.0820
917.3800, 240.1777
918.5050, 335.2930
919.6300, 287.4199
920.7550, 260.5547
921.8800, 163.7031
923.0040, 326.8613
924.1290, 235.0332
925.2530, 470.2148
926.3770, 292.5703
927.5010, 299.7773
928.6250, 293.9961
929.7480, 282.2285
930.8720, 288.4727
931.9950, 312.1797
933.1180, 202.0215
934.2410, 375.3242
935.3640, 351.2012
936.4860, 372.5312
937.6090, 270.8750
938.7310, 272.2305
939.8530, 319.6035
940.9750, 348.9902
942.0970, 219.1777
943.2180, 584.6250
944.3400, 321.0859
945.4610, 428.5605
946.5820, 449.0508
947.7030, 333.5547
948.8240, 333.0762
949.9450, 614.4707
951.0650, 304.0352
952.1860, 412.6133
953.3060, 256.8066
954.4260, 468.4336
955.5460, 299.0820
956.6650, 297.7461
957.7850, 348.4277
958.9040, 271.1289
960.0230, 275.8438
961.1420, 430.5801
962.2610, 238.3301
963.3800, 392.4941
964.4990, 398.2832
965.6170, 402.0781
966.7350, 351.9082
967.8530, 365.9043
968.9710, 299.7480
970.0890, 388.6582
971.2070, 475.1113
972.3240, 518.0605
973.4410, 364.0273
974.5580, 213.0137
975.6750, 580.0547
976.7920, 395.1211
977.9090, 611.2891
979.0250, 513.4785
980.1410, 485.6875
981.2580, 432.1895
982.3740, 394.4414
983.4890, 510.9785
984.6050, 698.2695
985.7200, 509.5840
986.8360, 626.9316
987.9510, 571.6582
989.0660, 562.1016
990.1810, 646.5918
991.2950, 594.1797
992.4100, 598.3984
993.5240, 674.2734
994.6390, 502.9707
995.7530, 525.6875
996.8660, 635.4746
997.9800, 418.2871
999.0940, 648.1289
1000.207, 669.9941
1001.320, 655.8926
1002.433, 747.8105
1003.546, 425.7539
1004.659, 595.7188
1005.772, 465.7168
1006.884, 711.7676
1007.996, 764.8438
1009.108, 600.8223
1010.220, 555.9883
1011.332, 684.1758
1012.444, 477.3184
1013.555, 531.5938
1014.666, 652.8789
1015.777, 661.2109
1016.888, 706.5684
1017.999, 742.9492
1019.110, 698.3574
1020.220, 711.1543
1021.331, 683.3223
1022.441, 753.1367
1023.551, 641.6680
1024.661, 599.1445
1025.770, 597.7246
1026.880, 640.3340
1027.989, 791.9668
1029.098, 716.5977
1030.207, 821.2812
1031.316, 788.9941
1032.425, 792.5137
1033.533, 744.4980
1034.642, 797.2891
1035.750, 861.1523
1036.858, 878.9961
1037.966, 866.8672
1039.073, 851.7715
1040.181, 796.7070
1041.288, 778.2441
1042.396, 883.7285
1043.503, 760.7793
1044.610, 936.8555
1045.716, 1056.959
1046.823, 779.0898
1047.929, 856.2461
1049.036, 838.4297
1050.142, 1011.639
1051.248, 1081.172
1052.353, 706.4355
1053.459, 843.7227
1054.564, 735.0391
1055.670, 725.3809
1056.775, 565.7500
1057.880, 722.1445
1058.985, 930.5664
1060.089, 870.0195
1061.194, 888.4961
1062.298, 1046.096
1063.402, 976.6270
1064.506, 808.9453
1065.610, 812.5273
1066.713, 1126.334
1067.817, 998.9707
1068.920, 1089.873
1070.023, 1085.934
1071.126, 1054.318
1072.229, 1062.090
1073.332, 900.8887
1074.435, 1066.404
1075.537, 1043.285
1076.639, 764.1914
1077.741, 782.1270
1078.843, 890.0840
1079.945, 965.0684
1081.046, 809.0879
1082.148, 854.1328
1083.249, 791.2129
1084.350, 950.3105
1085.451, 877.7559
1086.551, 713.9355
1087.652, 1010.098
1088.752, 742.3281
1089.853, 689.5820
1090.953, 1115.861
1092.053, 950.1621
1093.152, 911.4902
1094.252, 900.8438
1095.351, 851.2207
1096.451, 765.6270
1097.550, 872.0566
1098.649, 693.5117
1099.748, 936.6562
1100.846, 950.2031
1101.945, 941.7793
1103.043, 967.0098
1104.141, 855.0098
1105.239, 819.6641
1106.337, 874.3418
1107.434, 742.7520
1108.532, 699.5020
1109.629, 883.5879
1110.726, 765.3867
1111.823, 843.2031
1112.920, 722.0430
1114.017, 1188.922
1115.113, 848.8203
1116.210, 571.7559
1117.306, 945.7129
1118.402, 596.5000
1119.498, 713.8027
1120.593, 820.8301
1121.689, 771.8750
1122.784, 778.9414
1123.879, 795.1016
1124.974, 612.4746
1126.069, 760.6406
1127.164, 749.8281
1128.259, 709.0352
1129.353, 542.2598
1130.447, 443.5039
1131.541, 404.7676
1132.635, 400.2402
1133.729, 303.5449
1134.822, 375.8691
1135.916, 283.2910
1137.009, 273.5723
1138.102, 378.2676
1139.195, 286.1797
1140.288, 487.4004
1141.380, 321.3555
1142.473, 403.8184
1143.565, 463.3145
1144.657, 287.8340
1145.749, 368.3809
1146.841, 429.1484
1147.932, 342.7266
1149.024, 632.3184
1150.115, 302.9297
1151.206, 306.5547
1152.297, 199.2617
1153.388, 371.9863
1154.479, 229.7246
1155.569, 294.4766
1156.659, 289.2500
1157.750, 368.0391
1158.839, 209.8418
1159.929, 172.6562
1161.019, 189.4883
1162.108, 232.3926
1163.198, 263.2539
1164.287, 296.7461
1165.376, 228.0156
1166.465, 324.9160
1167.553, 373.8340
1168.642, 292.7070
1169.730, 181.9043
1170.818, 193.8652
1171.906, 120.5859
1172.994, 318.5762
1174.082, 253.5801
1175.170, 266.5918
1176.257, 242.6191
1177.344, 45.65625
1178.431, 406.7051
1179.518, 336.7656
1180.605, 121.8398
1181.691, 74.07422
1182.778, 209.0000
1183.864, 63.08594
1184.950, 470.1816
1186.036, 59.28906
1187.122, 163.4141
1188.207, 103.5527
1189.292, 114.6973
1190.378, 192.8535
1191.463, 221.0195
1192.548, 6.804688
1193.632, 166.3789
1194.717, 56.42969
1195.801, 147.7539
1196.886, 12.05273
1197.970, 151.1484
1199.054, 13.24609
1200.137, 138.9648
1201.221, 93.64648
1202.305, 246.3965
1203.388, 69.63086
1204.471, 83.06250
1205.554, 76.15430
1206.637, 63.37695
1207.719, 149.6094
1208.802, 20.84570
1209.884, 176.0879
1210.966, 218.9141
1212.048, 151.1699
1213.130, 29.48047
1214.212, 16.10547
1215.293, 69.89258
1216.374, 17.34570
1217.456, 26.41211
1218.536, 49.82422
1219.617, 249.0762
1220.698, 82.33398
1221.778, 114.5938
1222.859, 208.8613
1223.939, 55.27344
1225.019, 193.5488
1226.099, 74.82812
1227.178, 158.1133
1228.258, 75.40039
1229.337, 84.31055
1230.417, 179.2930
1231.496, 113.5488
1232.574, 76.80664
1233.653, 136.0684
1234.732, 23.33203
1235.810, 296.5977
1236.888, 112.2520
1237.966, 152.9590
1239.044, 121.8301
1240.122, 202.3730
1241.199, 336.5527
1242.277, 311.7324
1243.354, 329.9160
1244.431, 153.0977
1245.508, 51.28125
1246.585, 228.4648
1247.661, 40.35156
1248.738, 31.19336
1249.814, 29.94336
1250.890, 104.0781
1251.966, 292.2148
1253.042, 63.65039
1254.117, 188.4453
1255.193, 115.5410
1256.268, 22.63672
1257.343, 123.7324
1258.418, 164.8242
1259.493, 303.9141
