##NAMES=Astrophyllite
##RRUFFID=R060202
##IDEAL CHEMISTRY=K_2_NaFe^2+^_7_Ti^4+^_2_(Si_4_O_12_)_2_O_2_(OH)_4_F
##LOCALITY=Demix Quarry, Mont Saint-Hilaire, Rouville County, Quebec, Canada
##OWNER=RRUFF
##SOURCE=Royal Ontario Museum
##DESCRIPTION=Aggregate of brown splintered wafers
##STATUS=The identification of this mineral has been confirmed by X-ray diffraction and chemical analysis
##URL=rruff.info/R060202
##MEASURED CHEMISTRY=(K_0.56_Na_0.38_Ca_0.06_)_3_(Fe^2+^_0.52_Mn_0.44_Mg_0.04_)_7_(Ti_0.75_Zr_0.15_Al_0.15_)_2_Si_8_O_24_(O_0.27_OH_0.73_)_7_
##PIN_ID=M00215
##ORIENTATION=Laser parallel to (1 1 0). Fiducial mark perpendicular to laser is parallel to -c [0 0 -1]
79.89500, 0.0000000E+00
81.13100, 27.64355
82.36700, 535.8398
83.60200, 1739.816
84.83700, 2611.133
86.07200, 3467.000
87.30800, 4140.141
88.54200, 4888.504
89.77700, 5577.080
91.01200, 5683.342
92.24600, 5835.941
93.48000, 5602.404
94.71400, 5132.125
95.94800, 5102.281
97.18200, 4891.055
98.41600, 4397.916
99.64900, 4380.705
100.8830, 4000.609
102.1160, 3473.725
103.3490, 3016.092
104.5820, 2545.717
105.8150, 2276.586
107.0470, 2474.848
108.2800, 2601.877
109.5120, 3145.334
110.7440, 2808.400
111.9760, 1688.521
113.2080, 1560.535
114.4400, 1608.303
115.6710, 1727.562
116.9030, 1813.590
118.1340, 1703.184
119.3650, 1727.184
120.5960, 1320.469
121.8270, 1329.939
123.0580, 1514.510
124.2880, 2122.105
125.5190, 2219.656
126.7490, 2285.094
127.9790, 2515.363
129.2090, 2413.404
130.4390, 2175.174
131.6680, 1774.793
132.8980, 1141.529
134.1270, 818.3125
135.3560, 401.5332
136.5850, 362.9395
137.8140, 160.6309
139.0430, 262.4863
140.2710, 122.5996
141.5000, 283.7266
142.7280, 390.8750
143.9560, 429.0371
145.1840, 481.2246
146.4120, 361.4395
147.6390, 278.6855
148.8670, 190.9688
150.0940, 46.70312
151.3210, 212.3320
152.5490, 640.9102
153.7750, 884.8105
155.0020, 1328.393
156.2290, 1581.305
157.4550, 2116.170
158.6810, 2574.059
159.9080, 3252.014
161.1340, 3720.059
162.3590, 4345.211
163.5850, 5146.473
164.8110, 5682.854
166.0360, 5932.346
167.2610, 6499.955
168.4860, 6744.680
169.7110, 6932.500
170.9360, 6686.393
172.1610, 6348.348
173.3850, 5739.361
174.6100, 5426.441
175.8340, 4785.586
177.0580, 4329.789
178.2820, 3879.053
179.5050, 3325.564
180.7290, 2984.754
181.9520, 2436.182
183.1760, 2224.475
184.3990, 2080.385
185.6220, 1953.871
186.8450, 2033.967
188.0670, 2072.160
189.2900, 2304.922
190.5120, 2433.791
191.7340, 2495.135
192.9560, 2740.865
194.1780, 2946.848
195.4000, 3339.014
196.6220, 3975.871
197.8430, 4238.906
199.0640, 4681.881
200.2860, 5210.580
201.5070, 6419.689
202.7270, 5952.568
203.9480, 6279.426
205.1690, 6060.258
206.3890, 5155.055
207.6090, 5021.809
208.8290, 5167.504
210.0490, 5053.127
211.2690, 5145.672
212.4890, 5092.137
213.7080, 5180.516
214.9280, 5595.812
216.1470, 5868.020
217.3660, 6129.143
218.5850, 6462.178
219.8030, 6624.119
221.0220, 7153.971
222.2400, 7640.736
223.4590, 8139.428
224.6770, 8366.148
225.8950, 9037.104
227.1120, 9396.398
228.3300, 9959.193
229.5480, 10415.78
230.7650, 10842.36
231.9820, 11492.46
233.1990, 12020.78
234.4160, 12540.12
235.6330, 13031.25
236.8490, 13443.05
238.0660, 13773.42
239.2820, 13854.24
240.4980, 13839.46
241.7140, 13650.00
242.9300, 13107.78
244.1460, 12766.70
245.3610, 11822.74
246.5770, 11065.89
247.7920, 10070.15
249.0070, 9202.506
250.2220, 8113.953
251.4370, 7670.482
252.6510, 6911.090
253.8660, 6241.770
255.0800, 5865.508
256.2940, 5278.125
257.5080, 4885.531
258.7220, 4744.453
259.9360, 4757.898
261.1490, 4508.143
262.3630, 3906.459
263.5760, 3421.840
264.7890, 3114.275
266.0020, 2807.760
267.2150, 2551.287
268.4270, 2368.850
269.6400, 2188.445
270.8520, 1846.062
272.0640, 1631.701
273.2760, 1376.354
274.4880, 1407.020
275.7000, 1057.691
276.9120, 1132.365
278.1230, 822.0371
279.3340, 887.6973
280.5450, 560.3301
281.7560, 486.9199
282.9670, 355.4551
284.1780, 123.3496
285.3880, 60.92578
286.5980, 6.232422
287.8090, 99.62891
289.0190, 64.36914
290.2290, 204.2539
291.4380, 105.9824
292.6480, 382.8164
293.8570, 276.2207
295.0670, 142.5410
296.2760, 377.9922
297.4850, 386.3594
298.6930, 148.8242
299.9020, 188.3594
301.1110, 177.5264
302.3190, 43.53809
303.5270, 13.61035
304.7350, 27.57422
305.9430, 36.10645
307.1510, 4.831055
308.3580, 247.3945
309.5660, 235.0879
310.7730, 301.2598
311.9800, 323.5713
313.1870, 385.7949
314.3940, 404.6416
315.6010, 397.9805
316.8070, 443.9434
318.0130, 424.8174
319.2200, 442.6045
320.4260, 717.3027
321.6310, 732.9121
322.8370, 787.4307
324.0430, 845.8594
325.2480, 885.1953
326.4540, 961.5732
327.6590, 1027.597
328.8640, 1124.597
330.0680, 1177.358
331.2730, 1293.835
332.4780, 1350.958
333.6820, 1578.757
334.8860, 1879.104
336.0900, 1956.134
337.2940, 2143.873
338.4980, 2246.365
339.7010, 2550.623
340.9050, 2768.753
342.1080, 2900.775
343.3110, 3008.704
344.5140, 3125.543
345.7170, 3320.291
346.9200, 3419.988
348.1220, 3680.520
349.3240, 3642.000
350.5270, 3840.391
351.7290, 3878.691
352.9310, 3918.900
354.1320, 3935.021
355.3340, 4217.053
356.5350, 4422.994
357.7370, 4274.845
358.9380, 4548.605
360.1390, 4472.281
361.3400, 4563.989
362.5400, 4416.485
363.7410, 4529.933
364.9410, 4205.799
366.1410, 4166.873
367.3410, 3971.128
368.5410, 3781.687
369.7410, 3753.578
370.9400, 3604.582
372.1400, 3332.550
373.3390, 3401.668
374.5380, 3299.436
375.7370, 3314.231
376.9360, 3254.413
378.1350, 3387.833
379.3330, 3369.971
380.5310, 3707.081
381.7300, 3788.279
382.9280, 3778.348
384.1260, 3795.261
385.3230, 3807.348
386.5210, 3712.886
387.7180, 3480.656
388.9160, 3407.096
390.1130, 3169.412
391.3100, 2937.606
392.5060, 2844.676
393.7030, 2709.621
394.9000, 2469.443
396.0960, 2375.140
397.2920, 2223.711
398.4880, 2286.157
399.6840, 1904.477
400.8800, 1983.672
402.0750, 1877.742
403.2710, 1742.689
404.4660, 1705.518
405.6610, 1595.225
406.8560, 1527.813
408.0510, 1434.281
409.2450, 1345.631
410.4400, 1276.859
411.6340, 1224.930
412.8280, 1228.957
414.0220, 1180.827
415.2160, 1155.578
416.4100, 1204.209
417.6030, 1312.720
418.7970, 1167.115
419.9900, 1165.392
421.1830, 1150.550
422.3760, 1022.591
423.5690, 1004.996
424.7610, 953.3242
425.9540, 853.0186
427.1460, 730.5977
428.3380, 596.0068
429.5300, 506.0459
430.7220, 397.5615
431.9140, 298.3027
433.1050, 212.0000
434.2970, 134.4990
435.4880, 73.81641
436.6790, 4.260742
437.8700, 38.16699
439.0610, 55.59375
440.2510, 92.29688
441.4420, 158.5723
442.6320, 201.6904
443.8220, 237.5420
445.0120, 301.8838
446.2020, 263.1182
447.3910, 178.6670
448.5810, 215.0684
449.7700, 6.593750
450.9600, 19.15625
452.1490, 220.9893
453.3370, 238.5518
454.5260, 285.7227
455.7150, 394.2090
456.9030, 557.1807
458.0910, 720.7559
459.2800, 1015.904
460.4670, 1274.015
461.6550, 1593.047
462.8430, 2056.997
464.0300, 2358.869
465.2180, 2506.664
466.4050, 2853.381
467.5920, 2875.020
468.7790, 3059.584
469.9650, 3325.072
471.1520, 2965.485
472.3380, 2992.826
473.5250, 3062.093
474.7110, 2569.291
475.8970, 2652.420
477.0820, 2481.482
478.2680, 2461.479
479.4540, 2392.414
480.6390, 2276.638
481.8240, 2208.520
483.0090, 2061.856
484.1940, 2048.554
485.3780, 1898.194
486.5630, 1906.781
487.7470, 1769.312
488.9320, 1602.789
490.1160, 1546.212
491.3000, 1269.582
492.4830, 1138.900
493.6670, 896.1699
494.8500, 731.3867
496.0340, 786.5527
497.2170, 606.6729
498.4000, 639.7432
499.5820, 378.7666
500.7650, 171.7422
501.9480, 200.6729
503.1300, 110.5576
504.3120, 194.3965
505.4940, 14.19141
506.6760, 39.92578
507.8580, 63.38867
509.0390, 214.7949
510.2210, 336.3711
511.4020, 299.1758
512.5830, 354.1836
513.7640, 294.4258
514.9450, 285.8652
516.1250, 301.4961
517.3060, 339.3242
518.4860, 319.3672
519.6660, 440.6074
520.8460, 235.1094
522.0260, 288.7617
523.2060, 280.5840
524.3850, 157.5762
525.5650, 128.6680
526.7440, 62.83594
527.9230, 112.0547
529.1020, 67.33594
530.2810, 52.33594
531.4590, 275.9824
532.6380, 452.6074
533.8160, 580.2090
534.9940, 733.7891
536.1720, 922.3496
537.3500, 1078.891
538.5270, 1412.412
539.7050, 1819.918
540.8820, 2115.408
542.0590, 2748.883
543.2360, 3211.344
544.4130, 3827.795
545.5900, 4474.238
546.7660, 5343.670
547.9430, 6135.094
549.1190, 7252.527
550.2950, 8318.988
551.4710, 9286.488
552.6470, 10526.03
553.8220, 11370.62
554.9980, 12327.27
556.1730, 12819.99
557.3480, 13091.80
558.5230, 13345.71
559.6980, 13117.68
560.8730, 12878.73
562.0470, 12324.89
563.2220, 11720.12
564.3960, 11237.47
565.5700, 10534.95
566.7440, 9989.512
567.9170, 9294.180
569.0910, 8630.555
570.2640, 8037.609
571.4380, 7224.434
572.6110, 7004.275
573.7840, 6528.008
574.9570, 5746.402
576.1290, 5460.559
577.3020, 5399.432
578.4740, 4938.984
579.6460, 4720.377
580.8180, 4631.439
581.9900, 4508.416
583.1620, 4517.467
584.3330, 4454.547
585.5040, 4179.230
586.6760, 4381.725
587.8470, 4312.045
589.0180, 4627.633
590.1880, 4486.340
591.3590, 4828.631
592.5290, 5027.725
593.7000, 4918.316
594.8700, 4829.389
596.0400, 4940.291
597.2090, 4714.242
598.3790, 4958.250
599.5490, 4809.305
600.7180, 4944.410
601.8870, 5000.570
603.0560, 4768.777
604.2250, 4941.039
605.3940, 4691.355
606.5620, 4867.723
607.7300, 5108.146
608.8990, 5152.623
610.0670, 5219.156
611.2350, 5303.746
612.4020, 5463.391
613.5700, 5533.574
614.7370, 5676.855
615.9050, 5787.676
617.0720, 6023.555
618.2390, 6268.496
619.4060, 6241.496
620.5720, 6617.557
621.7390, 6884.678
622.9050, 6925.863
624.0710, 7317.109
625.2370, 7405.420
626.4030, 7645.795
627.5690, 8099.234
628.7340, 8223.738
629.9000, 8294.305
631.0650, 8723.943
632.2300, 9333.645
633.3950, 9615.410
634.5600, 10135.25
635.7240, 10770.16
636.8890, 11238.13
638.0530, 11971.17
639.2170, 12839.28
640.3810, 13702.46
641.5450, 14723.71
642.7080, 15756.03
643.8720, 17330.30
645.0350, 19180.77
646.1980, 20659.26
647.3610, 22860.32
648.5240, 24951.16
649.6870, 27478.81
650.8490, 29602.14
652.0120, 31997.12
653.1740, 33024.98
654.3360, 33865.93
655.4980, 33359.74
656.6600, 32223.92
657.8210, 30561.09
658.9830, 28590.87
660.1440, 26445.40
661.3050, 25228.21
662.4660, 23479.03
663.6270, 22209.75
664.7870, 21327.58
665.9480, 20767.54
667.1080, 20155.31
668.2680, 20015.60
669.4280, 20254.64
670.5880, 20451.00
671.7480, 21100.45
672.9070, 21355.99
674.0670, 22335.64
675.2260, 22640.38
676.3850, 23752.22
677.5440, 24487.16
678.7030, 25410.21
679.8610, 25888.35
681.0200, 26738.59
682.1780, 27487.94
683.3360, 28518.38
684.4940, 29498.30
685.6520, 29928.95
686.8090, 30896.69
687.9670, 31465.74
689.1240, 31986.63
690.2810, 32809.89
691.4380, 33477.00
692.5950, 33881.43
693.7520, 34266.72
694.9080, 34374.86
696.0650, 34691.83
697.2210, 35227.63
698.3770, 35387.28
699.5330, 35734.39
700.6880, 35991.62
701.8440, 35933.39
702.9990, 35961.22
704.1550, 36109.72
705.3100, 36090.39
706.4650, 36174.61
707.6190, 36229.54
708.7740, 35968.58
709.9290, 35813.77
711.0830, 35462.75
712.2370, 35081.37
713.3910, 34587.13
714.5450, 33971.75
715.6980, 33652.82
716.8520, 33151.28
718.0050, 32516.18
719.1580, 31680.98
720.3110, 30909.06
721.4640, 29786.19
722.6170, 29232.35
723.7700, 28227.65
724.9220, 27120.63
726.0740, 26306.38
727.2260, 25211.29
728.3780, 24287.40
729.5300, 23378.68
730.6810, 22229.08
731.8330, 21429.60
732.9840, 20642.19
734.1350, 19376.85
735.2860, 18748.59
736.4370, 17691.38
737.5880, 17059.23
738.7380, 16240.15
739.8880, 15910.13
741.0390, 15055.17
742.1890, 14661.27
743.3380, 14472.44
744.4880, 13722.66
745.6380, 13674.95
746.7870, 13199.29
747.9360, 12918.70
749.0850, 12428.17
750.2340, 12188.69
751.3830, 12134.28
752.5310, 11756.92
753.6800, 11599.63
754.8280, 11324.39
755.9760, 10998.22
757.1240, 10806.10
758.2720, 10686.04
759.4190, 10320.04
760.5670, 9838.102
761.7140, 9781.215
762.8610, 9177.391
764.0080, 8910.621
765.1550, 8434.914
766.3020, 8263.258
767.4480, 7995.662
768.5950, 7588.119
769.7410, 7255.633
770.8870, 6935.207
772.0330, 6783.832
773.1780, 6329.512
774.3240, 5919.248
775.4690, 5733.039
776.6140, 5635.885
777.7590, 5552.781
778.9040, 5472.734
780.0490, 5208.738
781.1940, 5163.797
782.3380, 4922.906
783.4820, 4995.070
784.6260, 4917.295
785.7700, 4699.574
786.9140, 4793.928
788.0580, 4445.398
789.2010, 4339.010
790.3450, 4404.758
791.4880, 3992.650
792.6310, 3870.672
793.7730, 3586.820
794.9160, 3514.096
796.0590, 3226.508
797.2010, 2981.051
798.3430, 2780.752
799.4850, 2589.559
800.6270, 2331.482
801.7690, 2095.518
802.9100, 2122.633
804.0520, 1941.816
805.1930, 1629.057
806.3340, 1428.357
807.4750, 1497.709
808.6160, 1081.104
809.7560, 1076.539
810.8970, 1096.014
812.0370, 917.5293
813.1770, 625.0859
814.3170, 617.6797
815.4570, 429.3125
816.5960, 485.9824
817.7360, 182.6895
818.8750, 250.4297
820.0140, 96.20898
821.1530, 1.025391
822.2920, 46.85938
823.4310, 80.72852
824.5690, 66.36914
825.7070, 98.47266
826.8460, 191.6055
827.9840, 183.8047
829.1220, 149.0762
830.2590, 262.3984
831.3970, 271.8340
832.5340, 315.3887
833.6710, 388.0859
834.8080, 180.9668
835.9450, 286.9258
837.0820, 365.0234
838.2190, 255.2969
839.3550, 381.6934
840.4910, 452.2773
841.6270, 258.0938
842.7630, 344.0410
843.8990, 383.1621
845.0350, 397.4824
846.1700, 384.0098
847.3060, 352.7402
848.4410, 347.6602
849.5760, 131.7637
850.7100, 355.9453
851.8450, 112.3203
852.9800, 249.7637
854.1140, 31.34961
855.2480, 326.9688
856.3820, 78.77344
857.5160, 22.63477
858.6500, 198.4688
859.7830, 41.60352
860.9170, 57.73438
862.0500, 240.8828
863.1830, 23.04492
864.3160, 166.1953
865.4480, 459.3535
866.5810, 357.5234
867.7130, 461.7031
868.8460, 640.9102
869.9780, 576.1562
871.1100, 590.4160
872.2410, 914.7012
873.3730, 966.0000
874.5050, 973.3125
875.6360, 1169.688
876.7670, 1317.082
877.8980, 1350.516
879.0290, 1575.973
880.1590, 1534.436
881.2900, 1843.908
882.4200, 1897.402
883.5500, 2226.949
884.6800, 2419.500
885.8100, 2498.055
886.9400, 2859.648
888.0690, 2751.305
889.1990, 3234.980
890.3280, 3055.664
891.4570, 3397.350
892.5860, 3670.055
893.7140, 3895.766
894.8430, 4125.113
895.9710, 4239.244
897.1000, 4445.008
898.2280, 4802.836
899.3560, 4876.670
900.4830, 5082.539
901.6110, 5542.404
902.7380, 5427.270
903.8660, 5901.137
904.9930, 5960.012
906.1200, 6339.885
907.2460, 6481.760
908.3730, 6778.639
909.5000, 6840.527
910.6260, 7010.426
911.7520, 7220.332
912.8780, 7352.234
914.0040, 7740.137
915.1290, 7945.039
916.2550, 8008.938
917.3800, 8120.834
918.5050, 8205.738
919.6300, 8204.633
920.7550, 8180.537
921.8800, 8486.438
923.0040, 8839.332
924.1290, 8522.217
925.2530, 9326.092
926.3770, 8648.961
927.5010, 8366.826
928.6250, 8390.707
929.7480, 8449.574
930.8720, 8148.432
931.9950, 8200.279
933.1180, 8072.145
934.2410, 7947.033
935.3640, 7782.930
936.4860, 7602.822
937.6090, 7346.676
938.7310, 7181.523
939.8530, 6859.564
940.9750, 6595.229
942.0970, 6337.965
943.2180, 5897.742
944.3400, 5768.498
945.4610, 5481.238
946.5820, 5369.959
947.7030, 5004.660
948.8240, 4624.344
949.9450, 4385.006
951.0650, 4239.646
952.1860, 3959.270
953.3060, 3850.869
954.4260, 3569.447
955.5460, 3232.000
956.6650, 3071.094
957.7850, 3034.662
958.9040, 2635.148
960.0230, 2541.412
961.1420, 2353.908
962.2610, 2107.107
963.3800, 1959.543
964.4990, 1730.738
965.6170, 1542.141
966.7350, 1440.779
967.8530, 1267.662
968.9710, 1048.795
970.0890, 1041.160
971.2070, 960.1328
972.3240, 761.0703
973.4410, 708.5410
974.5580, 819.0352
975.6750, 493.9102
976.7920, 630.7285
977.9090, 487.0508
979.0250, 485.7520
980.1410, 342.3984
981.2580, 287.7422
982.3740, 454.9102
983.4890, 322.2656
984.6050, 342.5898
985.7200, 280.1816
986.8360, 264.4453
987.9510, 143.4824
989.0660, 262.2090
990.1810, 278.4590
991.2950, 451.0859
992.4100, 536.1895
993.5240, 557.0566
994.6390, 796.5195
995.7530, 884.5391
996.8660, 1027.877
997.9800, 935.7188
999.0940, 1232.871
1000.207, 1356.115
1001.320, 1321.408
1002.433, 1487.877
1003.546, 1820.439
1004.659, 2126.836
1005.772, 2050.742
1006.884, 2085.658
1007.996, 2476.598
1009.108, 2595.180
1010.220, 2852.125
1011.332, 3085.246
1012.444, 3395.645
1013.555, 3706.217
1014.666, 3952.646
1015.777, 4245.102
1016.888, 4839.191
1017.999, 4944.352
1019.110, 5239.627
1020.220, 5370.850
1021.331, 5847.406
1022.441, 6172.785
1023.551, 6345.838
1024.661, 6533.229
1025.770, 6704.361
1026.880, 6960.344
1027.989, 6924.602
1029.098, 7196.809
1030.207, 7203.953
1031.316, 7213.465
1032.425, 7129.895
1033.533, 7070.484
1034.642, 6968.479
1035.750, 6818.324
1036.858, 6655.414
1037.966, 6446.605
1039.073, 6143.906
1040.181, 5773.568
1041.288, 5459.883
1042.396, 5289.855
1043.503, 5162.352
1044.610, 5040.516
1045.716, 4680.592
1046.823, 4401.582
1047.929, 4293.652
1049.036, 3970.836
1050.142, 3740.945
1051.248, 3568.574
1052.353, 3355.309
1053.459, 3116.752
1054.564, 3045.271
1055.670, 2831.078
1056.775, 2681.217
1057.880, 2704.256
1058.985, 2560.535
1060.089, 2540.486
1061.194, 2501.527
1062.298, 2470.551
1063.402, 2396.027
1064.506, 2445.938
1065.610, 2374.871
1066.713, 2309.250
1067.817, 2437.441
1068.920, 2449.066
1070.023, 2548.961
1071.126, 2558.975
1072.229, 2473.715
1073.332, 2692.072
1074.435, 2463.617
1075.537, 2588.482
1076.639, 2492.064
1077.741, 2503.018
1078.843, 2525.980
1079.945, 2450.652
1081.046, 2585.879
1082.148, 2630.322
1083.249, 2427.133
1084.350, 2420.799
1085.451, 2074.191
1086.551, 2093.566
1087.652, 2146.922
1088.752, 2119.264
1089.853, 1808.594
1090.953, 1867.906
1092.053, 1668.254
1093.152, 1540.559
1094.252, 1547.873
1095.351, 1402.223
1096.451, 1314.951
1097.550, 1178.426
1098.649, 1143.893
1099.748, 1042.234
1100.846, 989.3828
1101.945, 911.0664
1103.043, 823.9219
1104.141, 800.7051
1105.239, 716.2383
1106.337, 596.8164
1107.434, 566.9238
1108.532, 513.0586
1109.629, 392.2695
1110.726, 360.5469
1111.823, 344.9238
1112.920, 331.3984
1114.017, 384.9668
1115.113, 273.6250
1116.210, 242.3672
1117.306, 212.1406
1118.402, 85.00391
1119.498, 89.89453
1120.593, 182.8438
1121.689, 248.8008
1122.784, 111.8398
1123.879, 31.89844
1124.974, 43.03711
1126.069, 5.980469
1127.164, 66.01562
1128.259, 24.93555
1129.353, 5.134766
1130.447, 188.7793
1131.541, 58.67383
1132.635, 50.54883
1133.729, 59.59766
1134.822, 107.8066
1135.916, 36.89648
1137.009, 63.42383
1138.102, 1.191406
1139.195, 1.773438
1140.288, 198.6758
1141.380, 28.26367
1142.473, 93.90430
1143.565, 49.62695
1144.657, 32.58789
1145.749, 52.77539
1146.841, 48.06055
1147.932, 152.9609
1149.024, 123.0215
1150.115, 96.98047
1151.206, 105.0859
1152.297, 205.2461
1153.388, 26.55273
1154.479, 13.08594
1155.569, 74.68945
1156.659, 36.73242
1157.750, 19.42969
1158.839, 21.56445
1159.929, 52.05273
1161.019, 18.60938
1162.108, 199.1660
1163.198, 10.12891
1164.287, 89.60938
1165.376, 121.5957
1166.465, 66.78320
1167.553, 150.9980
1168.642, 15.80273
1169.730, 100.3418
1170.818, 53.45898
1171.906, 18.55078
1172.994, 10.39844
1174.082, 2.400391
1175.170, 12.56250
1176.257, 151.4414
1177.344, 35.30859
1178.431, 32.14062
1179.518, 123.9355
1180.605, 31.70508
1181.691, 1.562500
1182.778, 176.1172
1183.864, 10.23047
1184.950, 74.36719
1186.036, 208.9336
1187.122, 127.4727
1188.207, 150.9844
1189.292, 103.4688
1190.378, 12.92383
1191.463, 36.66992
1192.548, 134.6660
1193.632, 86.97070
1194.717, 173.2461
1195.801, 81.50781
1196.886, 88.35938
1197.970, 37.31055
1199.054, 241.6602
1200.137, 167.6055
1201.221, 136.5234
1202.305, 200.4141
1203.388, 90.75586
1204.471, 248.5859
1205.554, 164.4766
1206.637, 229.2539
1207.719, 139.3320
1208.802, 135.2539
1209.884, 202.1523
1210.966, 103.0996
1212.048, 251.7305
1213.130, 162.8770
1214.212, 194.4551
1215.293, 294.2676
1216.374, 282.7930
1217.456, 356.7520
1218.536, 427.2246
1219.617, 444.8984
1220.698, 266.6328
1221.778, 256.1895
1222.859, 342.6367
1223.939, 279.1406
1225.019, 325.4609
1226.099, 191.9023
1227.178, 259.1797
1228.258, 378.9570
1229.337, 252.1641
1230.417, 215.5000
1231.496, 404.6504
1232.574, 249.7715
1233.653, 358.0527
1234.732, 210.4961
1235.810, 392.9785
1236.888, 267.2344
1237.966, 373.7793
1239.044, 285.7188
1240.122, 348.6270
1241.199, 353.7363
1242.277, 432.9023
1243.354, 341.7148
1244.431, 310.6133
1245.508, 298.3594
1246.585, 406.0801
1247.661, 333.7559
1248.738, 329.3945
1249.814, 468.9980
1250.890, 415.5625
1251.966, 320.0898
1253.042, 435.5840
1254.117, 359.2402
