##NAMES=Astrophyllite
##RRUFFID=R060202
##IDEAL CHEMISTRY=K_2_NaFe^2+^_7_Ti^4+^_2_(Si_4_O_12_)_2_O_2_(OH)_4_F
##LOCALITY=Demix Quarry, Mont Saint-Hilaire, Rouville County, Quebec, Canada
##OWNER=RRUFF
##SOURCE=Royal Ontario Museum
##DESCRIPTION=Aggregate of brown splintered wafers
##STATUS=The identification of this mineral has been confirmed by X-ray diffraction and chemical analysis
##URL=rruff.info/R060202
##MEASURED CHEMISTRY=(K_0.56_Na_0.38_Ca_0.06_)_3_(Fe^2+^_0.52_Mn_0.44_Mg_0.04_)_7_(Ti_0.75_Zr_0.15_Al_0.15_)_2_Si_8_O_24_(O_0.27_OH_0.73_)_7_
##PIN_ID=M00349
##ORIENTATION=Laser parallel to a* (1 0 0). Fiducial mark perpendicular to laser is parallel to b [0 1 0]
121.8270, 0.0000000E+00
123.0580, 388.3613
124.2880, 442.7559
125.5190, 283.5801
126.7490, 438.0586
127.9790, 656.9414
129.2090, 1159.131
130.4390, 1448.277
131.6680, 1977.906
132.8980, 1900.135
134.1270, 2354.625
135.3560, 2200.105
136.5850, 2241.033
137.8140, 2045.254
139.0430, 1817.555
140.2710, 1391.756
141.5000, 595.6895
142.7280, 183.2070
143.9560, 17.16797
145.1840, 180.5430
146.4120, 159.0254
147.6390, 100.3574
148.8670, 124.3828
150.0940, 545.1270
151.3210, 644.8105
152.5490, 1022.375
153.7750, 1096.773
155.0020, 1833.963
156.2290, 1968.900
157.4550, 2088.547
158.6810, 2761.857
159.9080, 3228.783
161.1340, 3857.279
162.3590, 4769.297
163.5850, 4988.797
164.8110, 5692.752
166.0360, 5882.131
167.2610, 6255.955
168.4860, 6460.219
169.7110, 6255.924
170.9360, 6108.051
172.1610, 5290.578
173.3850, 4936.498
174.6100, 4126.779
175.8340, 3676.404
177.0580, 3091.357
178.2820, 2456.621
179.5050, 2068.188
180.7290, 1718.051
181.9520, 1431.215
183.1760, 1213.672
184.3990, 1334.422
185.6220, 1022.465
186.8450, 1310.787
188.0670, 1076.373
189.2900, 1167.199
190.5120, 1345.252
191.7340, 1277.510
192.9560, 1388.951
194.1780, 1264.559
195.4000, 1674.291
196.6220, 1425.078
197.8430, 1606.932
199.0640, 1935.848
200.2860, 2051.816
201.5070, 2417.824
202.7270, 2497.865
203.9480, 2237.934
205.1690, 1543.066
206.3890, 895.3574
207.6090, 1092.553
208.8290, 892.9473
210.0490, 1097.828
211.2690, 1404.125
212.4890, 1340.703
213.7080, 1739.637
214.9280, 1807.838
216.1470, 1891.211
217.3660, 1972.760
218.5850, 1941.480
219.8030, 1916.287
221.0220, 1943.203
222.2400, 2077.199
223.4590, 2090.836
224.6770, 2219.490
225.8950, 2248.656
227.1120, 2392.834
228.3300, 2521.039
229.5480, 2377.287
230.7650, 2828.578
231.9820, 2691.924
233.1990, 2903.373
234.4160, 2717.908
235.6330, 3044.465
236.8490, 2839.107
238.0660, 2867.090
239.2820, 3052.262
240.4980, 2949.568
241.7140, 3073.094
242.9300, 2955.762
244.1460, 3068.590
245.3610, 3148.615
246.5770, 3103.773
247.7920, 3073.098
249.0070, 2931.531
250.2220, 2947.408
251.4370, 3162.445
252.6510, 2972.814
253.8660, 2865.119
255.0800, 2987.342
256.2940, 2690.484
257.5080, 3036.531
258.7220, 2906.627
259.9360, 2745.914
261.1490, 2757.949
262.3630, 2425.492
263.5760, 2050.900
264.7890, 1988.172
266.0020, 1913.309
267.2150, 2123.312
268.4270, 1903.012
269.6400, 1969.244
270.8520, 1748.670
272.0640, 1946.127
273.2760, 1744.559
274.4880, 1850.096
275.7000, 1811.787
276.9120, 1930.014
278.1230, 1834.002
279.3340, 1663.938
280.5450, 1869.238
281.7560, 1822.889
282.9670, 1736.002
284.1780, 2058.242
285.3880, 1935.172
286.5980, 1983.832
287.8090, 1987.646
289.0190, 2041.576
290.2290, 2059.750
291.4380, 2192.930
292.6480, 2162.049
293.8570, 2080.232
295.0670, 2040.285
296.2760, 2232.814
297.4850, 2043.697
298.6930, 2307.605
299.9020, 2400.609
301.1110, 2330.402
302.3190, 2159.734
303.5270, 2401.973
304.7350, 2363.988
305.9430, 2127.586
307.1510, 2457.168
308.3580, 2357.529
309.5660, 2497.762
310.7730, 2432.650
311.9800, 2610.881
313.1870, 2445.473
314.3940, 2455.057
315.6010, 2593.900
316.8070, 2404.715
318.0130, 2450.484
319.2200, 2348.477
320.4260, 2441.834
321.6310, 2396.801
322.8370, 2355.547
324.0430, 2167.523
325.2480, 2442.354
326.4540, 2605.195
327.6590, 2709.838
328.8640, 2573.389
330.0680, 2728.969
331.2730, 2677.502
332.4780, 2693.385
333.6820, 3007.758
334.8860, 2949.268
336.0900, 3078.756
337.2940, 3109.350
338.4980, 3324.469
339.7010, 3129.391
340.9050, 3149.633
342.1080, 3262.242
343.3110, 3475.309
344.5140, 3243.730
345.7170, 3421.246
346.9200, 3398.342
348.1220, 3195.609
349.3240, 3281.180
350.5270, 3309.986
351.7290, 3352.064
352.9310, 3325.201
354.1320, 3275.588
355.3340, 3189.496
356.5350, 3163.525
357.7370, 3016.238
358.9380, 3225.305
360.1390, 3293.258
361.3400, 3240.641
362.5400, 3037.020
363.7410, 2985.781
364.9410, 2908.258
366.1410, 3105.016
367.3410, 2810.785
368.5410, 2890.973
369.7410, 2893.545
370.9400, 2750.045
372.1400, 2681.816
373.3390, 2689.838
374.5380, 2461.428
375.7370, 2631.832
376.9360, 2672.525
378.1350, 2526.699
379.3330, 2577.295
380.5310, 2349.070
381.7300, 2363.049
382.9280, 2454.162
384.1260, 2123.926
385.3230, 2518.043
386.5210, 2427.361
387.7180, 2384.227
388.9160, 2426.350
390.1130, 2436.117
391.3100, 2530.611
392.5060, 2533.664
393.7030, 2614.566
394.9000, 2602.535
396.0960, 2574.957
397.2920, 2370.264
398.4880, 2392.455
399.6840, 2071.533
400.8800, 1830.498
402.0750, 1754.344
403.2710, 1712.078
404.4660, 1471.695
405.6610, 1444.203
406.8560, 1256.592
408.0510, 1218.867
409.2450, 1152.029
410.4400, 1221.076
411.6340, 890.0117
412.8280, 1151.846
414.0220, 1006.578
415.2160, 1106.205
416.4100, 926.7266
417.6030, 853.1406
418.7970, 962.4531
419.9900, 951.6621
421.1830, 902.7637
422.3760, 700.7637
423.5690, 572.6582
424.7610, 454.4512
425.9540, 619.1367
427.1460, 621.7246
428.3380, 486.2051
429.5300, 340.5801
430.7220, 138.8418
431.9140, 137.9805
433.1050, 75.00781
434.2970, 110.8184
435.4880, 125.5684
436.6790, 76.76172
437.8700, 250.2637
439.0610, 161.0527
440.2510, 70.08594
441.4420, 117.3125
442.6320, 197.7637
443.8220, 13.52539
445.0120, 58.34180
446.2020, 56.39844
447.3910, 243.6445
448.5810, 146.8184
449.7700, 124.8477
450.9600, 71.25977
452.1490, 8.230469
453.3370, 40.04102
454.5260, 135.2910
455.7150, 2.142578
456.9030, 347.4141
458.0910, 13.56445
459.2800, 40.55859
460.4670, 122.4062
461.6550, 69.87891
462.8430, 166.6367
464.0300, 232.0195
465.2180, 83.72266
466.4050, 217.3242
467.5920, 245.2441
468.7790, 234.0371
469.9650, 273.7012
471.1520, 287.0508
472.3380, 270.6523
473.5250, 271.9395
474.7110, 179.1016
475.8970, 34.13086
477.0820, 245.0156
478.2680, 10.23047
479.4540, 201.3574
480.6390, 118.8164
481.8240, 11.14062
483.0090, 23.65820
484.1940, 2.416016
485.3780, 58.81836
486.5630, 2.156250
487.7470, 146.3457
488.9320, 70.71484
490.1160, 11.94727
491.3000, 115.0234
492.4830, 159.0312
493.6670, 324.3301
494.8500, 40.95508
496.0340, 124.7637
497.2170, 135.7949
498.4000, 28.05273
499.5820, 88.85156
500.7650, 208.1152
501.9480, 81.01172
503.1300, 106.1074
504.3120, 92.41406
505.4940, 100.9219
506.6760, 162.6328
507.8580, 185.5801
509.0390, 92.77734
510.2210, 86.17383
511.4020, 174.7637
512.5830, 128.5918
513.7640, 183.6348
514.9450, 110.9180
516.1250, 27.40625
517.3060, 123.0508
518.4860, 19.31445
519.6660, 112.0938
520.8460, 41.96680
522.0260, 10.71484
523.2060, 20.66992
524.3850, 52.79688
525.5650, 78.14258
526.7440, 19.36719
527.9230, 118.4648
529.1020, 16.44531
530.2810, 104.3008
531.4590, 80.03906
532.6380, 272.6602
533.8160, 267.1699
534.9940, 511.5703
536.1720, 463.8691
537.3500, 665.0684
538.5270, 623.1699
539.7050, 865.1777
540.8820, 757.0879
542.0590, 974.9043
543.2360, 1229.623
544.4130, 1455.250
545.5900, 1661.215
546.7660, 1770.225
547.9430, 2024.572
549.1190, 2067.826
550.2950, 2151.992
551.4710, 2287.074
552.6470, 2528.070
553.8220, 2588.979
554.9980, 2661.824
556.1730, 2380.631
557.3480, 2516.387
558.5230, 2478.109
559.6980, 2043.818
560.8730, 2314.500
562.0470, 2419.148
563.2220, 2112.779
564.3960, 2223.430
565.5700, 2074.619
566.7440, 2103.332
567.9170, 1874.688
569.0910, 1922.035
570.2640, 1860.748
571.4380, 1898.869
572.6110, 1907.934
573.7840, 1823.982
574.9570, 1734.373
576.1290, 1821.160
577.3020, 1962.043
578.4740, 1837.172
579.6460, 1781.383
580.8180, 2070.188
581.9900, 1947.639
583.1620, 1896.039
584.3330, 1972.334
585.5040, 2199.805
586.6760, 2076.742
587.8470, 2224.727
589.0180, 2138.924
590.1880, 2333.484
591.3590, 2219.012
592.5290, 2416.703
593.7000, 2669.459
594.8700, 2439.502
596.0400, 2582.141
597.2090, 2498.352
598.3790, 2798.508
599.5490, 2788.336
600.7180, 2894.121
601.8870, 3027.875
603.0560, 3078.338
604.2250, 2941.359
605.3940, 3205.691
606.5620, 3210.168
607.7300, 3113.334
608.8990, 3237.566
610.0670, 3229.703
611.2350, 3363.955
612.4020, 3591.215
613.5700, 3484.357
614.7370, 3703.459
615.9050, 3868.121
617.0720, 3631.203
618.2390, 3961.057
619.4060, 4036.836
620.5720, 4351.418
621.7390, 4360.379
622.9050, 4284.445
624.0710, 4314.094
625.2370, 4637.279
626.4030, 4796.910
627.5690, 4775.096
628.7340, 5320.084
629.9000, 5263.398
631.0650, 5495.449
632.2300, 5893.098
633.3950, 5922.414
634.5600, 6147.598
635.7240, 6320.102
636.8890, 6499.600
638.0530, 6742.424
639.2170, 7066.035
640.3810, 7510.855
641.5450, 7896.221
642.7080, 8401.076
643.8720, 9204.438
645.0350, 9534.180
646.1980, 10212.43
647.3610, 10927.87
648.5240, 11331.91
649.6870, 11738.84
650.8490, 11946.25
652.0120, 12006.98
653.1740, 11875.05
654.3360, 11795.55
655.4980, 11269.71
656.6600, 10920.19
657.8210, 10697.75
658.9830, 10355.91
660.1440, 9942.492
661.3050, 9713.543
662.4660, 9443.312
663.6270, 9336.770
664.7870, 9095.986
665.9480, 9394.443
667.1080, 9374.438
668.2680, 9704.123
669.4280, 9468.148
670.5880, 9799.809
671.7480, 10042.38
672.9070, 10330.78
674.0670, 10540.24
675.2260, 10750.61
676.3850, 10923.86
677.5440, 11202.54
678.7030, 11396.23
679.8610, 11669.48
681.0200, 11986.61
682.1780, 12252.30
683.3360, 12432.99
684.4940, 12781.70
685.6520, 12753.40
686.8090, 12916.11
687.9670, 13125.82
689.1240, 13223.55
690.2810, 13327.31
691.4380, 13459.86
692.5950, 13570.64
693.7520, 13625.19
694.9080, 14001.60
696.0650, 13976.83
697.2210, 14315.65
698.3770, 14113.29
699.5330, 13969.01
700.6880, 14304.44
701.8440, 14212.61
702.9990, 14016.23
704.1550, 14257.39
705.3100, 14265.61
706.4650, 14098.52
707.6190, 14011.14
708.7740, 13801.52
709.9290, 13575.25
711.0830, 13436.71
712.2370, 13252.39
713.3910, 13017.03
714.5450, 12832.16
715.6980, 12502.39
716.8520, 12469.66
718.0050, 11891.62
719.1580, 11749.96
720.3110, 11313.10
721.4640, 11410.24
722.6170, 11048.60
723.7700, 10696.88
724.9220, 10378.95
726.0740, 9803.320
727.2260, 9674.781
728.3780, 9164.230
729.5300, 9388.688
730.6810, 8780.203
731.8330, 8704.730
732.9840, 8506.277
734.1350, 8148.840
735.2860, 8040.461
736.4370, 7494.113
737.5880, 7637.762
738.7380, 7074.438
739.8880, 7493.121
741.0390, 7040.824
742.1890, 6939.570
743.3380, 7254.328
744.4880, 7016.090
745.6380, 6576.910
746.7870, 6654.734
747.9360, 6533.566
749.0850, 6807.414
750.2340, 6638.270
751.3830, 6552.133
752.5310, 6186.008
753.6800, 6180.898
754.8280, 6335.797
755.9760, 6225.723
757.1240, 6154.660
758.2720, 5906.629
759.4190, 5940.609
760.5670, 6010.609
761.7140, 5751.641
762.8610, 5686.695
764.0080, 5593.781
765.1550, 5647.914
766.3020, 5353.078
767.4480, 5263.266
768.5950, 5408.465
769.7410, 5168.703
770.8870, 5277.953
772.0330, 5140.281
773.1780, 5088.723
774.3240, 5133.207
775.4690, 4884.766
776.6140, 5032.383
777.7590, 4857.043
778.9040, 4792.762
780.0490, 4790.566
781.1940, 4741.422
782.3380, 4853.340
783.4820, 4847.312
784.6260, 4727.344
785.7700, 4534.453
786.9140, 4430.641
788.0580, 4375.887
789.2010, 4228.184
790.3450, 4054.559
791.4880, 4046.000
792.6310, 3813.516
793.7730, 3693.094
794.9160, 3368.707
796.0590, 3177.387
797.2010, 3179.094
798.3430, 2635.828
799.4850, 2813.578
800.6270, 2359.355
801.7690, 2287.168
802.9100, 2391.004
804.0520, 2145.855
805.1930, 1723.730
806.3340, 1485.629
807.4750, 1431.547
808.6160, 1534.484
809.7560, 1070.445
810.8970, 1225.422
812.0370, 865.4102
813.1770, 902.4180
814.3170, 759.4336
815.4570, 757.4570
816.5960, 751.4961
817.7360, 753.5469
818.8750, 723.6016
820.0140, 476.6719
821.1530, 396.7500
822.2920, 225.8398
823.4310, 177.9453
824.5690, 114.0547
825.7070, 78.17188
826.8460, 4.304688
827.9840, 12.43359
829.1220, 38.55859
830.2590, 90.30469
831.3970, 153.2266
832.5340, 116.2227
833.6710, 173.1211
834.8080, 264.4531
835.9450, 184.7617
837.0820, 179.1641
838.2190, 221.6719
839.3550, 371.3047
840.4910, 299.1406
841.6270, 379.1367
842.7630, 134.3477
843.8990, 240.6328
845.0350, 40.05469
846.1700, 384.5117
847.3060, 288.1719
848.4410, 267.0039
849.5760, 286.1250
850.7100, 197.3125
851.8450, 200.3672
852.9800, 117.7148
854.1140, 257.1445
855.2480, 309.7148
856.3820, 80.46094
857.5160, 150.7422
858.6500, 83.04297
859.7830, 182.1055
860.9170, 142.7305
862.0500, 46.34375
863.1830, 99.57812
864.3160, 130.4375
865.4480, 112.4844
866.5810, 285.2148
867.7130, 401.0469
868.8460, 568.7852
869.9780, 671.9219
871.1100, 560.0625
872.2410, 739.2109
873.3730, 630.3711
874.5050, 665.5391
875.6360, 882.7578
876.7670, 800.9883
877.8980, 851.2773
879.0290, 1112.617
880.1590, 1141.027
881.2900, 1481.469
882.4200, 1504.922
883.5500, 1669.418
884.6800, 1785.949
885.8100, 2051.512
886.9400, 1939.125
888.0690, 1780.746
889.1990, 1974.375
890.3280, 2285.031
891.4570, 2339.742
892.5860, 2192.461
893.7140, 2630.246
894.8430, 2792.094
895.9710, 2767.949
897.1000, 3142.816
898.2280, 3223.688
899.3560, 3396.594
900.4830, 3371.512
901.6110, 3639.426
902.7380, 3739.359
903.8660, 3964.293
904.9930, 4139.227
906.1200, 4078.168
907.2460, 4379.113
908.3730, 4674.102
909.5000, 4462.141
910.6260, 4894.211
911.7520, 4839.305
912.8780, 4967.426
914.0040, 5093.547
915.1290, 5046.672
916.2550, 5171.805
917.3800, 5134.938
918.5050, 5359.113
919.6300, 5543.324
920.7550, 5562.551
921.8800, 5615.781
923.0040, 5504.016
924.1290, 5593.848
925.2530, 5570.047
926.3770, 5711.715
927.5010, 5526.953
928.6250, 5627.188
929.7480, 5491.426
930.8720, 5276.664
931.9950, 5614.906
933.1180, 5527.145
934.2410, 5081.379
935.3640, 5366.609
936.4860, 5016.848
937.6090, 5163.078
938.7310, 5061.324
939.8530, 5028.570
940.9750, 4809.816
942.0970, 4761.930
943.2180, 4562.297
944.3400, 4542.527
945.4610, 4461.754
946.5820, 4292.977
947.7030, 4221.199
948.8240, 4168.414
949.9450, 3859.621
951.0650, 3980.863
952.1860, 3404.098
953.3060, 3390.328
954.4260, 3328.551
955.5460, 3070.773
956.6650, 2715.988
957.7850, 2705.199
958.9040, 2509.402
960.0230, 2393.605
961.1420, 2181.801
962.2610, 2350.426
963.3800, 2281.332
964.4990, 2264.480
965.6170, 1819.852
966.7350, 1900.395
967.8530, 1657.121
968.9710, 1665.238
970.0890, 1254.551
971.2070, 1676.789
972.3240, 1559.316
973.4410, 1336.109
974.5580, 1593.453
975.6750, 1576.273
976.7920, 1431.027
977.9090, 1355.102
979.0250, 1432.477
980.1410, 1769.098
981.2580, 1990.375
982.3740, 2043.680
983.4890, 1544.293
984.6050, 1886.699
985.7200, 1788.672
986.8360, 2034.961
987.9510, 2235.938
989.0660, 2330.902
990.1810, 2628.109
991.2950, 2726.348
992.4100, 3003.629
993.5240, 3305.758
994.6390, 3653.070
995.7530, 3797.602
996.8660, 3876.891
997.9800, 4378.434
999.0940, 4599.953
1000.207, 5165.344
1001.320, 5319.199
1002.433, 6027.617
1003.546, 6282.688
1004.659, 6679.125
1005.772, 7213.746
1006.884, 7709.203
1007.996, 8291.668
1009.108, 8865.949
1010.220, 9841.438
1011.332, 10381.11
1012.444, 11174.82
1013.555, 12464.58
1014.666, 13943.89
1015.777, 15398.29
1016.888, 14616.79
1017.999, 14851.10
1019.110, 15560.33
1020.220, 16324.98
1021.331, 16619.88
1022.441, 17320.57
1023.551, 17569.20
1024.661, 18262.65
1025.770, 18220.67
1026.880, 18701.58
1027.989, 18767.89
1029.098, 18800.51
1030.207, 18307.53
1031.316, 18258.55
1032.425, 17687.64
1033.533, 17351.73
1034.642, 16395.74
1035.750, 16003.11
1036.858, 14748.80
1037.966, 14111.49
1039.073, 13383.18
1040.181, 12835.87
1041.288, 11958.53
1042.396, 11213.49
1043.503, 10763.26
1044.610, 9768.438
1045.716, 9279.875
1046.823, 8595.539
1047.929, 8008.918
1049.036, 7400.449
1050.142, 6993.195
1051.248, 6370.969
1052.353, 6290.000
1053.459, 5850.355
1054.564, 5395.398
1055.670, 4998.531
1056.775, 4817.125
1057.880, 4575.973
1058.985, 4474.320
1060.089, 4396.832
1061.194, 4372.238
1062.298, 3676.734
1063.402, 3937.113
1064.506, 3539.281
1065.610, 3273.348
1066.713, 3432.168
1067.817, 3313.746
1068.920, 3058.242
1070.023, 3186.691
1071.126, 3201.660
1072.229, 2994.656
1073.332, 2982.117
1074.435, 2896.266
1075.537, 2795.285
1076.639, 2696.090
1077.741, 2787.543
1078.843, 2574.762
1079.945, 2797.086
1081.046, 2593.555
1082.148, 2205.113
1083.249, 2391.492
1084.350, 2601.680
1085.451, 2759.605
1086.551, 2364.836
1087.652, 2258.539
1088.752, 2151.348
1089.853, 1967.773
1090.953, 1953.055
1092.053, 1794.824
1093.152, 1709.332
1094.252, 1671.898
1095.351, 1409.938
1096.451, 1694.422
1097.550, 1516.484
1098.649, 1463.121
1099.748, 1097.270
1100.846, 1166.391
1101.945, 1091.551
1103.043, 903.6016
1104.141, 619.3789
1105.239, 702.9648
1106.337, 686.4297
1107.434, 219.3633
1108.532, 387.8945
1109.629, 425.6406
1110.726, 166.0273
1111.823, 478.2578
1112.920, 98.90625
1114.017, 446.8047
1115.113, 278.6016
1116.210, 567.4609
1117.306, 279.1172
1118.402, 55.67578
1119.498, 505.3477
1120.593, 301.3750
1121.689, 167.5078
1122.784, 305.1094
1123.879, 518.2695
1124.974, 458.1406
1126.069, 433.2500
1127.164, 220.0234
1128.259, 163.9023
1129.353, 74.23828
1130.447, 70.98047
1131.541, 202.3594
1132.635, 215.6523
1133.729, 167.1875
1134.822, 10.00000
1135.916, 260.0039
1137.009, 125.7578
1138.102, 254.5273
1139.195, 252.3945
1140.288, 180.5859
1141.380, 194.1211
1142.473, 168.1562
1143.565, 183.3711
1144.657, 183.1289
1145.749, 79.03125
1146.841, 15.64844
1147.932, 95.62891
1149.024, 81.87109
1150.115, 31.66406
1151.206, 162.3555
1152.297, 190.5977
1153.388, 259.3516
1154.479, 29.38672
1155.569, 136.9531
1156.659, 170.3477
1157.750, 190.3906
1158.839, 164.2812
1159.929, 36.69531
1161.019, 181.0117
1162.108, 181.6875
1163.198, 62.16797
1164.287, 168.6016
1165.376, 190.5664
1166.465, 108.6836
1167.553, 317.2734
1168.642, 306.8867
1169.730, 338.4609
1170.818, 300.0000
1171.906, 97.50000
1172.994, 101.5781
1174.082, 82.03906
1175.170, 7.578125
1176.257, 43.40625
1177.344, 369.7266
1178.431, 119.6875
1179.518, 82.60156
1180.605, 270.9453
1181.691, 78.33203
1182.778, 66.05469
1183.864, 23.07812
1184.950, 199.9297
1186.036, 178.4102
1187.122, 433.2734
1188.207, 244.9531
1189.292, 124.3125
1190.378, 84.62891
1191.463, 106.9023
1192.548, 86.57812
1193.632, 112.1914
1194.717, 160.6094
1195.801, 183.6953
1196.886, 240.8125
1197.970, 298.8086
1199.054, 84.76172
1200.137, 365.6719
1201.221, 12.45703
1202.305, 48.32812
1203.388, 287.0625
1204.471, 443.9609
1205.554, 269.6094
1206.637, 230.2148
1207.719, 310.7773
1208.802, 126.2969
1209.884, 467.7695
1210.966, 301.1992
1212.048, 277.5859
1213.130, 49.07031
1214.212, 123.1680
1215.293, 180.3555
1216.374, 492.5000
1217.456, 230.6016
1218.536, 201.6758
1219.617, 192.7070
1220.698, 180.7617
1221.778, 202.6250
1222.859, 262.5117
1223.939, 245.3633
1225.019, 131.1641
1226.099, 261.9180
1227.178, 443.6406
1228.258, 19.67578
1229.337, 350.9219
1230.417, 543.4844
1231.496, 632.0039
1232.574, 164.5156
1233.653, 239.9766
1234.732, 295.3945
1235.810, 112.7617
1236.888, 246.0742
1237.966, 358.3398
1239.044, 330.5586
1240.122, 183.7305
1241.199, 234.8555
1242.277, 602.1914
1243.354, 337.2461
1244.431, 516.2578
1245.508, 467.2266
1246.585, 203.1445
1247.661, 321.0117
1248.738, 366.3242
1249.814, 371.0859
1250.890, 129.8086
1251.966, 263.4688
1253.042, 137.0781
1254.117, 198.6289
1255.193, 215.0820
1256.268, 517.6641
1257.343, 200.0547
1258.418, 325.3867
1259.493, 220.3828
1260.567, 4.664063
1261.642, 576.9023
1262.716, 557.5352
1263.790, 585.5742
1264.864, 322.9141
1265.938, 484.8477
1267.011, 366.4062
1268.085, 116.5859
1269.158, 295.7930
1270.231, 329.2734
1271.304, 319.6875
1272.377, 265.8398
1273.450, 622.2266
1274.522, 104.5156
1275.594, 251.2109
1276.666, 90.09766
1277.738, 274.4727
1278.810, 225.1367
1279.882, 66.65625
1280.953, 52.32422
1282.025, 49.42188
1283.096, 134.3047
1284.167, 387.2578
1285.238, 366.3125
1286.308, 405.1602
1287.379, 472.2656
1288.449, 399.2266
1289.519, 194.0391
1290.589, 39.01953
