##NAMES=Astrophyllite
##RRUFFID=R060202
##IDEAL CHEMISTRY=K_2_NaFe^2+^_7_Ti^4+^_2_(Si_4_O_12_)_2_O_2_(OH)_4_F
##LOCALITY=Demix Quarry, Mont Saint-Hilaire, Rouville County, Quebec, Canada
##OWNER=RRUFF
##SOURCE=Royal Ontario Museum
##DESCRIPTION=Aggregate of brown splintered wafers
##STATUS=The identification of this mineral has been confirmed by X-ray diffraction and chemical analysis
##URL=rruff.info/R060202
##MEASURED CHEMISTRY=(K_0.56_Na_0.38_Ca_0.06_)_3_(Fe^2+^_0.52_Mn_0.44_Mg_0.04_)_7_(Ti_0.75_Zr_0.15_Al_0.15_)_2_Si_8_O_24_(O_0.27_OH_0.73_)_7_
##PIN_ID=M00170
##ORIENTATION=Laser parallel to (-1 0 -1). Fiducial mark perpendicular to laser is parallel to -b [0 -1 0]
118.1340, 0.0000000E+00
119.3650, 220.7598
120.5960, 157.3223
121.8270, 5.708984
123.0580, 394.3340
124.2880, 869.8164
125.5190, 669.2246
126.7490, 875.3301
127.9790, 1027.834
129.2090, 1798.041
130.4390, 2034.133
131.6680, 2396.877
132.8980, 3054.459
134.1270, 2829.787
135.3560, 2994.367
136.5850, 2859.525
137.8140, 2725.176
139.0430, 2234.178
140.2710, 2026.430
141.5000, 1301.834
142.7280, 871.3086
143.9560, 96.79492
145.1840, 223.7695
146.4120, 162.4434
147.6390, 15.27734
148.8670, 194.6758
150.0940, 440.3789
151.3210, 1358.807
152.5490, 2229.936
153.7750, 2138.746
155.0020, 2635.209
156.2290, 2976.574
157.4550, 3742.213
158.6810, 4342.381
159.9080, 5251.035
161.1340, 6038.145
162.3590, 6806.668
163.5850, 7735.574
164.8110, 8406.875
166.0360, 8821.582
167.2610, 9105.711
168.4860, 9058.248
169.7110, 8684.160
170.9360, 8510.434
172.1610, 7878.039
173.3850, 6962.961
174.6100, 6249.180
175.8340, 5263.682
177.0580, 4421.461
178.2820, 3888.514
179.5050, 3185.850
180.7290, 2344.486
181.9520, 1762.449
183.1760, 1542.752
184.3990, 1373.410
185.6220, 866.4258
186.8450, 886.7812
188.0670, 606.4512
189.2900, 175.4023
190.5120, 163.6133
191.7340, 167.0430
192.9560, 6.398438
194.1780, 150.2090
195.4000, 111.9062
196.6220, 300.6836
197.8430, 435.5371
199.0640, 457.4395
200.2860, 741.3750
201.5070, 745.3535
202.7270, 851.7031
203.9480, 1279.443
205.1690, 849.4688
206.3890, 662.3145
207.6090, 345.3340
208.8290, 494.5820
210.0490, 481.1660
211.2690, 795.2598
212.4890, 1220.803
213.7080, 1330.762
214.9280, 1471.090
216.1470, 1506.535
217.3660, 1740.064
218.5850, 1590.652
219.8030, 1901.270
221.0220, 1944.900
222.2400, 2315.545
223.4590, 2431.203
224.6770, 2536.875
225.8950, 2618.561
227.1120, 2883.277
228.3300, 2959.408
229.5480, 3174.152
230.7650, 3250.666
231.9820, 3546.523
233.1990, 3750.459
234.4160, 3879.555
235.6330, 4145.740
236.8490, 4364.016
238.0660, 4345.473
239.2820, 4459.391
240.4980, 4548.758
241.7140, 4519.590
242.9300, 4585.916
244.1460, 4566.654
245.3610, 4440.824
246.5770, 4344.461
247.7920, 4679.574
249.0070, 4509.102
250.2220, 4624.795
251.4370, 4528.777
252.6510, 4405.883
253.8660, 4492.914
255.0800, 4339.799
256.2940, 4070.654
257.5080, 4216.902
258.7220, 4263.723
259.9360, 4216.445
261.1490, 3793.883
262.3630, 3855.514
263.5760, 3722.902
264.7890, 3581.494
266.0020, 3709.219
267.2150, 3337.602
268.4270, 3529.812
269.6400, 3380.484
270.8520, 3316.121
272.0640, 3114.580
273.2760, 3050.902
274.4880, 2961.150
275.7000, 3120.365
276.9120, 2885.566
278.1230, 3058.021
279.3340, 3085.982
280.5450, 2823.059
281.7560, 2920.244
282.9670, 3135.529
284.1780, 3152.908
285.3880, 2991.373
286.5980, 3056.916
287.8090, 3278.531
289.0190, 3244.445
290.2290, 3419.314
291.4380, 3366.930
292.6480, 3510.562
293.8570, 3528.658
295.0670, 3588.467
296.2760, 3704.145
297.4850, 3645.484
298.6930, 3595.820
299.9020, 3478.480
301.1110, 3488.156
302.3190, 3523.072
303.5270, 3472.990
304.7350, 3744.256
305.9430, 3742.758
307.1510, 3792.908
308.3580, 3723.184
309.5660, 3746.125
310.7730, 3656.012
311.9800, 3761.170
313.1870, 3575.158
314.3940, 3689.660
315.6010, 3543.309
316.8070, 3528.910
318.0130, 3523.621
319.2200, 3411.848
320.4260, 3450.873
321.6310, 3428.869
322.8370, 3181.781
324.0430, 3411.275
325.2480, 3179.408
326.4540, 3205.588
327.6590, 3343.873
328.8640, 3532.213
330.0680, 3252.869
331.2730, 3220.553
332.4780, 3383.174
333.6820, 3394.465
334.8860, 3681.711
336.0900, 3757.203
337.2940, 3879.043
338.4980, 4098.676
339.7010, 4188.143
340.9050, 4453.061
342.1080, 4234.590
343.3110, 4369.893
344.5140, 4237.074
345.7170, 4550.664
346.9200, 4097.010
348.1220, 4142.955
349.3240, 4074.293
350.5270, 3888.736
351.7290, 4119.793
352.9310, 3885.086
354.1320, 3728.373
355.3340, 3629.334
356.5350, 3667.916
357.7370, 3683.547
358.9380, 3636.656
360.1390, 3625.791
361.3400, 3552.863
362.5400, 3553.033
363.7410, 3489.498
364.9410, 3360.789
366.1410, 3439.428
367.3410, 3333.750
368.5410, 3312.859
369.7410, 3193.484
370.9400, 3192.641
372.1400, 3046.002
373.3390, 3439.270
374.5380, 3011.371
375.7370, 3146.824
376.9360, 3206.559
378.1350, 2750.535
379.3330, 2880.242
380.5310, 2972.463
381.7300, 2601.102
382.9280, 2842.783
384.1260, 2717.961
385.3230, 2763.953
386.5210, 2715.371
387.7180, 2866.070
388.9160, 2799.590
390.1130, 3014.443
391.3100, 2846.199
392.5060, 3136.826
393.7030, 2981.832
394.9000, 3112.896
396.0960, 2879.625
397.2920, 2914.201
398.4880, 3008.627
399.6840, 2939.904
400.8800, 2476.033
402.0750, 2606.014
403.2710, 2407.844
404.4660, 2056.525
405.6610, 2143.061
406.8560, 1868.445
408.0510, 1957.686
409.2450, 1599.783
410.4400, 1964.746
411.6340, 1830.580
412.8280, 2064.291
414.0220, 2146.867
415.2160, 1921.312
416.4100, 2138.619
417.6030, 2070.797
418.7970, 2233.840
419.9900, 2185.748
421.1830, 2279.525
422.3760, 2228.170
423.5690, 2229.689
424.7610, 1913.082
425.9540, 1945.344
427.1460, 1568.477
428.3380, 1207.480
429.5300, 1069.355
430.7220, 1016.100
431.9140, 920.7148
433.1050, 756.1387
434.2970, 537.5488
435.4880, 416.8223
436.6790, 304.9980
437.8700, 124.0273
439.0610, 138.8828
440.2510, 99.56641
441.4420, 36.07227
442.6320, 30.37695
443.8220, 89.51953
445.0120, 109.6875
446.2020, 133.1328
447.3910, 74.86719
448.5810, 46.86328
449.7700, 105.1055
450.9600, 43.62305
452.1490, 135.3867
453.3370, 134.5586
454.5260, 185.3301
455.7150, 119.9355
456.9030, 392.3652
458.0910, 232.6406
459.2800, 356.7539
460.4670, 562.7109
461.6550, 671.5234
462.8430, 711.1914
464.0300, 709.7188
465.2180, 721.1035
466.4050, 812.3477
467.5920, 649.4531
468.7790, 627.4160
469.9650, 830.2344
471.1520, 566.9141
472.3380, 717.4473
473.5250, 698.8398
474.7110, 463.0898
475.8970, 432.1934
477.0820, 374.1426
478.2680, 267.9414
479.4540, 217.5801
480.6390, 366.0566
481.8240, 244.3828
483.0090, 521.5488
484.1940, 359.4590
485.3780, 236.4355
486.5630, 241.1426
487.7470, 51.69336
488.9320, 202.0566
490.1160, 76.74023
491.3000, 97.20508
492.4830, 84.98242
493.6670, 4.416016
494.8500, 491.9707
496.0340, 59.78516
497.2170, 24.78320
498.4000, 5.003906
499.5820, 374.4375
500.7650, 287.2734
501.9480, 293.4707
503.1300, 182.0293
504.3120, 297.8848
505.4940, 401.1055
506.6760, 337.7363
507.8580, 266.7480
509.0390, 265.1016
510.2210, 344.7930
511.4020, 292.8652
512.5830, 352.8066
513.7640, 344.0879
514.9450, 410.2656
516.1250, 395.8496
517.3060, 389.8281
518.4860, 287.2012
519.6660, 231.9102
520.8460, 327.9277
522.0260, 245.2969
523.2060, 240.9766
524.3850, 182.9570
525.5650, 164.2109
526.7440, 102.7246
527.9230, 25.53906
529.1020, 226.6465
530.2810, 228.0332
531.4590, 125.4688
532.6380, 325.1816
533.8160, 312.7715
534.9940, 417.2344
536.1720, 597.4297
537.3500, 691.8125
538.5270, 949.9395
539.7050, 1155.961
540.8820, 1330.871
542.0590, 1574.410
543.2360, 1749.379
544.4130, 2055.980
545.5900, 2248.846
546.7660, 2578.871
547.9430, 2924.164
549.1190, 3106.359
550.2950, 3401.744
551.4710, 4048.453
552.6470, 3776.355
553.8220, 4194.162
554.9980, 4197.875
556.1730, 4084.498
557.3480, 4322.039
558.5230, 4184.562
559.6980, 3972.051
560.8730, 4059.494
562.0470, 3975.949
563.2220, 3634.389
564.3960, 3402.850
565.5700, 3255.338
566.7440, 3028.814
567.9170, 2770.303
569.0910, 2655.820
570.2640, 2541.357
571.4380, 2437.959
572.6110, 2567.574
573.7840, 2368.047
574.9570, 2219.873
576.1290, 2439.896
577.3020, 2404.451
578.4740, 2563.340
579.6460, 2604.389
580.8180, 2523.668
581.9900, 2373.391
583.1620, 2759.158
584.3330, 2918.604
585.5040, 2884.566
586.6760, 3122.211
587.8470, 3487.324
589.0180, 3320.086
590.1880, 3775.570
591.3590, 3880.354
592.5290, 3716.949
593.7000, 4071.746
594.8700, 4114.672
596.0400, 4145.195
597.2090, 4434.820
598.3790, 4441.869
599.5490, 4617.699
600.7180, 4926.504
601.8870, 4957.125
603.0560, 5040.160
604.2250, 5159.324
605.3940, 5277.438
606.5620, 5355.559
607.7300, 5545.025
608.8990, 5654.770
610.0670, 6077.391
611.2350, 5951.824
612.4020, 6308.117
613.5700, 6260.010
614.7370, 6556.793
615.9050, 6926.559
617.0720, 7137.168
618.2390, 7246.506
619.4060, 7354.125
620.5720, 7629.305
621.7390, 7618.531
622.9050, 7879.902
624.0710, 7789.734
625.2370, 8131.869
626.4030, 8479.133
627.5690, 8550.434
628.7340, 8953.230
629.9000, 9071.184
631.0650, 9288.441
632.2300, 9560.227
633.3950, 9933.812
634.5600, 10172.70
635.7240, 10787.26
636.8890, 11038.74
638.0530, 11538.45
639.2170, 12047.45
640.3810, 12525.32
641.5450, 13399.70
642.7080, 14284.76
643.8720, 14903.89
645.0350, 15970.84
646.1980, 16923.39
647.3610, 17580.02
648.5240, 18649.21
649.6870, 19604.62
650.8490, 20077.17
652.0120, 20421.89
653.1740, 20557.42
654.3360, 20320.43
655.4980, 19970.46
656.6600, 19454.56
657.8210, 18419.22
658.9830, 18330.53
660.1440, 17250.49
661.3050, 16685.65
662.4660, 16077.21
663.6270, 16129.26
664.7870, 16120.19
665.9480, 15817.53
667.1080, 15682.97
668.2680, 15961.90
669.4280, 16398.45
670.5880, 16655.09
671.7480, 16889.30
672.9070, 17600.52
674.0670, 18157.76
675.2260, 18457.53
676.3850, 18897.14
677.5440, 19543.99
678.7030, 20259.88
679.8610, 20751.83
681.0200, 21338.82
682.1780, 21910.87
683.3360, 22414.36
684.4940, 22789.12
685.6520, 23345.32
686.8090, 23904.58
687.9670, 24143.89
689.1240, 24615.25
690.2810, 25000.67
691.4380, 25113.15
692.5950, 25754.69
693.7520, 25588.32
694.9080, 26126.97
696.0650, 26064.43
697.2210, 26413.36
698.3770, 26463.91
699.5330, 26572.50
700.6880, 26811.86
701.8440, 26622.16
702.9990, 26671.93
704.1550, 26337.28
705.3100, 26507.93
706.4650, 26243.79
707.6190, 26227.23
708.7740, 26201.98
709.9290, 25797.85
711.0830, 25547.82
712.2370, 25124.82
713.3910, 24590.70
714.5450, 24645.28
715.6980, 23899.12
716.8520, 23357.89
718.0050, 22850.41
719.1580, 21860.92
720.3110, 21784.79
721.4640, 21208.47
722.6170, 20213.14
723.7700, 19894.37
724.9220, 19168.07
726.0740, 18571.40
727.2260, 18018.00
728.3780, 17318.37
729.5300, 16720.02
730.6810, 16267.79
731.8330, 15769.66
732.9840, 14647.65
734.1350, 14574.71
735.2860, 13872.82
736.4370, 13528.00
737.5880, 13201.24
738.7380, 12777.54
739.8880, 12411.89
741.0390, 12132.30
742.1890, 11835.76
743.3380, 11564.65
744.4880, 11725.84
745.6380, 11148.46
746.7870, 11133.12
747.9360, 11113.85
749.0850, 10584.63
750.2340, 10677.47
751.3830, 10500.31
752.5310, 10283.31
753.6800, 10355.32
754.8280, 10332.39
755.9760, 10263.52
757.1240, 10030.71
758.2720, 9768.975
759.4190, 9512.305
760.5670, 9741.707
761.7140, 9671.176
762.8610, 9616.707
764.0080, 9658.312
765.1550, 9586.982
766.3020, 9526.725
767.4480, 9470.559
768.5950, 9443.461
769.7410, 9284.484
770.8870, 9519.590
772.0330, 9443.777
773.1780, 9697.066
774.3240, 9514.426
775.4690, 9797.902
776.6140, 9749.486
777.7590, 9875.174
778.9040, 9665.062
780.0490, 9983.125
781.1940, 9896.371
782.3380, 10068.77
783.4820, 9927.336
784.6260, 9853.117
785.7700, 9738.088
786.9140, 9737.230
788.0580, 9465.545
789.2010, 9410.047
790.3450, 9097.729
791.4880, 8876.602
792.6310, 8502.664
793.7730, 8069.934
794.9160, 7815.404
796.0590, 7534.076
797.2010, 7168.922
798.3430, 6636.926
799.4850, 6472.109
800.6270, 5950.451
801.7690, 5692.953
802.9100, 5322.596
804.0520, 4702.375
805.1930, 4257.271
806.3340, 4200.256
807.4750, 3519.311
808.6160, 3423.438
809.7560, 2867.643
810.8970, 2850.914
812.0370, 2541.260
813.1770, 2087.672
814.3170, 1845.150
815.4570, 1681.693
816.5960, 1494.297
817.7360, 1417.967
818.8750, 1080.701
820.0140, 835.4941
821.1530, 720.3535
822.2920, 700.2715
823.4310, 778.2559
824.5690, 481.2969
825.7070, 338.4062
826.8460, 137.5723
827.9840, 175.8047
829.1220, 104.0938
830.2590, 30.44922
831.3970, 55.84961
832.5340, 4.312500
833.6710, 302.1875
834.8080, 199.7793
835.9450, 159.4219
837.0820, 390.0977
838.2190, 295.9121
839.3550, 407.8223
840.4910, 448.8867
841.6270, 275.1230
842.7630, 366.4492
843.8990, 424.9062
845.0350, 410.5312
846.1700, 545.3145
847.3060, 358.3242
848.4410, 638.4688
849.5760, 471.8965
850.7100, 723.5117
851.8450, 433.4531
852.9800, 481.5684
854.1140, 321.8809
855.2480, 337.3164
856.3820, 544.8770
857.5160, 301.6719
858.6500, 134.5781
859.7830, 216.5195
860.9170, 11.52930
862.0500, 122.4785
863.1830, 161.4609
864.3160, 18.44336
865.4480, 333.5859
866.5810, 128.6934
867.7130, 534.8984
868.8460, 506.1914
869.9780, 495.5605
871.1100, 669.0156
872.2410, 841.5469
873.3730, 1161.160
874.5050, 1365.855
875.6360, 1390.643
876.7670, 1576.521
877.8980, 1934.492
879.0290, 1955.545
880.1590, 2294.684
881.2900, 2425.904
882.4200, 2558.193
883.5500, 2635.576
884.6800, 2782.047
885.8100, 2970.598
886.9400, 3495.203
888.0690, 3476.859
889.1990, 3743.631
890.3280, 3939.480
891.4570, 4078.436
892.5860, 4217.492
893.7140, 4428.646
894.8430, 4728.887
895.9710, 5064.215
897.1000, 5306.510
898.2280, 5617.125
899.3560, 5831.658
900.4830, 6257.264
901.6110, 6467.957
902.7380, 6715.727
903.8660, 7286.600
904.9930, 7496.527
906.1200, 7700.520
907.2460, 8038.590
908.3730, 8271.738
909.5000, 8858.961
910.6260, 9008.248
911.7520, 9260.600
912.8780, 9497.998
914.0040, 9612.449
915.1290, 9775.941
916.2550, 10111.48
917.3800, 10330.05
918.5050, 10655.70
919.6300, 10888.39
920.7550, 10691.12
921.8800, 10732.90
923.0040, 10833.73
924.1290, 10825.61
925.2530, 10919.54
926.3770, 11112.52
927.5010, 10991.56
928.6250, 10777.64
929.7480, 10924.76
930.8720, 10757.91
931.9950, 10594.10
933.1180, 10466.37
934.2410, 10407.66
935.3640, 10361.00
936.4860, 10013.37
937.6090, 9861.785
938.7310, 9854.242
939.8530, 9511.729
940.9750, 9086.244
942.0970, 8755.785
943.2180, 8484.357
944.3400, 8322.949
945.4610, 8176.568
946.5820, 7866.213
947.7030, 7516.879
948.8240, 7505.574
949.9450, 7380.299
951.0650, 7034.051
952.1860, 6647.832
953.3060, 6455.639
954.4260, 5952.469
955.5460, 5912.322
956.6650, 5419.195
957.7850, 5048.094
958.9040, 4607.016
960.0230, 4773.959
961.1420, 4332.928
962.2610, 4210.914
963.3800, 3763.928
964.4990, 3670.957
965.6170, 3430.893
966.7350, 3497.041
967.8530, 3187.385
968.9710, 3237.330
970.0890, 3425.742
971.2070, 2828.188
972.3240, 3029.955
973.4410, 2828.848
974.5580, 2673.361
975.6750, 2886.369
976.7920, 2857.143
977.9090, 3042.807
979.0250, 2995.963
980.1410, 3078.102
981.2580, 3002.779
982.3740, 3238.645
983.4890, 3208.564
984.6050, 3387.691
985.7200, 3576.195
986.8360, 3501.527
987.9510, 3658.031
989.0660, 3988.877
990.1810, 4184.840
991.2950, 4500.537
992.4100, 4355.541
993.5240, 5210.674
994.6390, 5106.383
995.7530, 5799.775
996.8660, 5945.695
997.9800, 6490.520
999.0940, 7039.719
1000.207, 7457.049
1001.320, 7899.586
1002.433, 8563.596
1003.546, 9333.645
1004.659, 10171.12
1005.772, 10924.65
1006.884, 11628.02
1007.996, 12605.51
1009.108, 13733.20
1010.220, 14714.11
1011.332, 15905.64
1012.444, 16884.54
1013.555, 18490.53
1014.666, 20004.92
1015.777, 20930.99
1016.888, 22868.01
1017.999, 24423.17
1019.110, 25546.68
1020.220, 27138.68
1021.331, 28608.63
1022.441, 29800.65
1023.551, 31050.96
1024.661, 32564.13
1025.770, 33205.95
1026.880, 34252.11
1027.989, 34920.01
1029.098, 35137.93
1030.207, 35681.46
1031.316, 36077.93
1032.425, 35672.73
1033.533, 35263.18
1034.642, 34448.84
1035.750, 33721.40
1036.858, 32857.30
1037.966, 32079.20
1039.073, 30717.64
1040.181, 29345.22
1041.288, 28137.85
1042.396, 26510.28
1043.503, 25339.03
1044.610, 23825.12
1045.716, 22360.92
1046.823, 20577.73
1047.929, 19221.94
1049.036, 17864.12
1050.142, 16550.33
1051.248, 15288.23
1052.353, 13989.74
1053.459, 13285.32
1054.564, 12011.79
1055.670, 11315.34
1056.775, 10502.67
1057.880, 9796.680
1058.985, 9241.480
1060.089, 8829.699
1061.194, 8209.469
1062.298, 7917.277
1063.402, 7465.254
1064.506, 7269.717
1065.610, 6878.621
1066.713, 6699.594
1067.817, 6414.840
1068.920, 6345.990
1070.023, 6078.902
1071.126, 5965.277
1072.229, 5657.785
1073.332, 5599.973
1074.435, 5497.355
1075.537, 5230.967
1076.639, 5423.178
1077.741, 5246.523
1078.843, 5115.719
1079.945, 4804.908
1081.046, 4686.316
1082.148, 4678.289
1083.249, 4926.818
1084.350, 4654.273
1085.451, 4419.877
1086.551, 4501.586
1087.652, 4204.793
1088.752, 4148.059
1089.853, 3948.426
1090.953, 3925.826
1092.053, 3802.914
1093.152, 3792.256
1094.252, 3641.621
1095.351, 3454.398
1096.451, 3254.117
1097.550, 3038.590
1098.649, 2766.691
1099.748, 2623.156
1100.846, 2605.506
1101.945, 2176.244
1103.043, 2339.785
1104.141, 1845.072
1105.239, 1831.305
1106.337, 1480.838
1107.434, 1060.219
1108.532, 1128.916
1109.629, 1101.838
1110.726, 994.4551
1111.823, 873.5117
1112.920, 652.3145
1114.017, 713.4023
1115.113, 499.4004
1116.210, 533.6934
1117.306, 651.2090
1118.402, 730.7031
1119.498, 562.2539
1120.593, 469.9121
1121.689, 437.3027
1122.784, 447.3477
1123.879, 314.6309
1124.974, 349.4629
1126.069, 332.0547
1127.164, 271.9121
1128.259, 277.6465
1129.353, 139.1504
1130.447, 54.45898
1131.541, 82.96680
1132.635, 146.9609
1133.729, 135.6074
1134.822, 69.63672
1135.916, 105.4395
1137.009, 70.68359
1138.102, 98.93555
1139.195, 97.32227
1140.288, 129.6719
1141.380, 114.4980
1142.473, 121.9395
1143.565, 93.29102
1144.657, 92.19141
1145.749, 96.23438
1146.841, 24.99805
1147.932, 117.1250
1149.024, 101.3242
1150.115, 72.57031
1151.206, 30.85352
1152.297, 48.23633
1153.388, 185.5000
1154.479, 76.30469
1155.569, 151.9824
1156.659, 144.1152
1157.750, 131.6816
1158.839, 93.72852
1159.929, 92.37891
1161.019, 132.0117
1162.108, 53.16016
1163.198, 37.33984
1164.287, 13.82617
1165.376, 111.4668
1166.465, 28.23438
1167.553, 159.4355
1168.642, 52.43945
1169.730, 5.498047
1170.818, 54.17969
1171.906, 53.49414
1172.994, 33.15039
1174.082, 20.90234
1175.170, 6.996094
1176.257, 84.35938
1177.344, 87.39062
1178.431, 201.4980
1179.518, 281.4277
1180.605, 212.3105
1181.691, 14.55469
1182.778, 149.1914
1183.864, 138.9648
1184.950, 11.76758
1186.036, 65.33203
1187.122, 79.00977
1188.207, 25.39258
1189.292, 125.9492
1190.378, 10.65039
1191.463, 33.80859
1192.548, 134.1719
1193.632, 119.7793
1194.717, 46.47656
1195.801, 48.44531
1196.886, 127.3691
1197.970, 58.12500
1199.054, 62.81445
1200.137, 19.61133
1201.221, 58.14648
1202.305, 98.60742
1203.388, 124.5566
1204.471, 252.0000
1205.554, 199.2891
1206.637, 314.5195
1207.719, 265.7012
1208.802, 397.8262
1209.884, 354.9004
1210.966, 118.9219
1212.048, 89.24023
1213.130, 226.4961
1214.212, 71.74023
1215.293, 210.5039
1216.374, 192.3691
1217.456, 306.0156
1218.536, 292.3691
1219.617, 131.5762
1220.698, 260.1387
1221.778, 155.9453
1222.859, 137.0000
1223.939, 268.2852
1225.019, 182.5156
1226.099, 206.6836
1227.178, 240.1328
1228.258, 328.8418
1229.337, 244.3418
1230.417, 273.8887
1231.496, 210.1699
1232.574, 256.9844
1233.653, 163.9551
1234.732, 387.6426
1235.810, 307.2734
1236.888, 409.8457
1237.966, 317.5762
1239.044, 279.0293
1240.122, 419.7773
1241.199, 292.1055
1242.277, 399.3711
1243.354, 339.5781
1244.431, 413.7207
1245.508, 347.8027
1246.585, 321.0449
1247.661, 368.9961
1248.738, 466.5762
1249.814, 414.5078
1250.890, 297.2637
1251.966, 278.9492
1253.042, 179.2227
1254.117, 146.8750
1255.193, 163.4531
1256.268, 236.5293
1257.343, 251.8242
1258.418, 272.1348
1259.493, 378.2812
1260.567, 288.6094
1261.642, 404.3516
1262.716, 287.9551
1263.790, 348.9473
1264.864, 275.8691
1265.938, 354.3340
1267.011, 385.7793
1268.085, 291.2539
1269.158, 306.6250
1270.231, 185.7695
1271.304, 352.6660
1272.377, 360.9023
1273.450, 313.7520
1274.522, 235.4805
1275.594, 135.7695
1276.666, 130.3457
1277.738, 276.9492
1278.810, 256.3672
1279.882, 124.4141
1280.953, 124.9473
1282.025, 466.4707
1283.096, 113.8965
1284.167, 236.0449
1285.238, 304.2344
1286.308, 134.7578
1287.379, 197.8984
