##NAMES=Astrophyllite
##RRUFFID=R060103
##IDEAL CHEMISTRY=K_2_NaFe^2+^_7_Ti^4+^_2_(Si_4_O_12_)_2_O_2_(OH)_4_F
##LOCALITY=Brivik, Norway
##OWNER=RRUFF
##SOURCE=University of Arizona Mineral Museum
##DESCRIPTION=Brown fragment embedded in matrix
##STATUS=The identification of this mineral is confirmed by single-crystal X-ray diffraction and chemical analysis.
##URL=rruff.info/R060103
##MEASURED CHEMISTRY=K_2.00_Na_1.00_(Fe^2+^_0.55_Mn_0.32_Fe^3+^_0.04_Mg_0.04_Ca_0.04_)_7_(Ti_0.66_Zr_0.18_Al_0.16_)_2_Si_8.00_O_26_(OH)_4_F_1.00_
##PIN_ID=M01031
##ORIENTATION=Laser parallel to c* (0 0 1). Fiducial mark perpendicular to laser is parallel to a [1 0 0]
152.6310, 0.0000000E+00
153.8640, 3.365234
155.0960, 1.134766
156.3280, 79.89941
157.5600, 124.0596
158.7920, 329.9922
160.0240, 417.8652
161.2560, 466.3936
162.4870, 778.5547
163.7180, 1096.176
164.9490, 1259.846
166.1800, 1283.123
167.4110, 1447.620
168.6410, 1471.029
169.8720, 1654.354
171.1020, 1531.842
172.3320, 1654.910
173.5620, 1506.113
174.7910, 1596.110
176.0210, 1354.614
177.2500, 1078.394
178.4790, 906.2744
179.7080, 701.2607
180.9370, 540.3047
182.1650, 366.4043
183.3940, 322.7520
184.6220, 174.1562
185.8500, 187.1182
187.0780, 134.5244
188.3050, 46.46289
189.5330, 181.2861
190.7600, 68.82031
191.9870, 256.7617
193.2140, 168.0020
194.4410, 25.56055
195.6680, 178.3789
196.8940, 217.3994
198.1200, 389.6035
199.3470, 523.9736
200.5720, 711.5625
201.7980, 781.4141
203.0240, 869.9531
204.2490, 830.0752
205.4740, 952.9570
206.6990, 821.2471
207.9240, 809.9697
209.1490, 854.1533
210.3740, 962.8281
211.5980, 918.0332
212.8220, 1015.807
214.0460, 1152.639
215.2700, 1290.110
216.4930, 1413.543
217.7170, 1435.109
218.9400, 1706.819
220.1630, 1893.518
221.3860, 2117.589
222.6090, 2509.561
223.8320, 2582.857
225.0540, 2775.400
226.2760, 3024.414
227.4980, 3147.670
228.7200, 3571.476
229.9420, 3749.742
231.1630, 4054.861
232.3850, 4251.861
233.6060, 4228.836
234.8270, 4487.529
236.0480, 4482.134
237.2690, 4581.723
238.4890, 4678.979
239.7090, 4578.133
240.9290, 4505.867
242.1490, 4617.729
243.3690, 4633.512
244.5890, 4208.988
245.8080, 3707.372
247.0270, 3802.656
248.2470, 3519.838
249.4650, 3002.912
250.6840, 2866.875
251.9030, 2631.726
253.1210, 2498.457
254.3390, 2141.070
255.5570, 1995.561
256.7750, 1836.929
257.9930, 1675.169
259.2100, 1575.248
260.4280, 1464.950
261.6450, 1346.893
262.8620, 1256.562
264.0790, 1153.267
265.2950, 1070.958
266.5120, 1005.246
267.7280, 920.8291
268.9440, 872.4639
270.1600, 729.2178
271.3760, 573.0283
272.5920, 679.8896
273.8070, 549.7822
275.0220, 334.6270
276.2370, 377.3223
277.4520, 402.4180
278.6670, 230.6250
279.8820, 185.4365
281.0960, 189.9043
282.3100, 173.0986
283.5240, 55.41406
284.7380, 9.451172
285.9520, 162.2734
287.1650, 115.6289
288.3780, 12.03906
289.5920, 277.5674
290.8050, 161.7207
292.0170, 149.6660
293.2300, 177.5967
294.4430, 42.13477
295.6550, 89.20215
296.8670, 51.17285
298.0790, 7.411133
299.2910, 53.39844
300.5020, 93.98730
301.7140, 106.4883
302.9250, 288.4570
304.1360, 210.4668
305.3470, 285.3555
306.5580, 129.8223
307.7680, 180.7930
308.9780, 366.1787
310.1890, 428.0908
311.3990, 288.9336
312.6090, 384.7852
313.8180, 312.2500
315.0280, 388.2734
316.2370, 255.2510
317.4460, 539.4824
318.6550, 385.9053
319.8640, 405.3477
321.0730, 506.5156
322.2810, 385.5537
323.4890, 415.4570
324.6980, 646.2256
325.9060, 576.8633
327.1130, 680.3672
328.3210, 738.7412
329.5280, 552.9854
330.7360, 694.0957
331.9430, 756.0713
333.1500, 799.8994
334.3560, 879.9609
335.5630, 948.2324
336.7690, 965.7705
337.9760, 1116.918
339.1820, 1199.900
340.3870, 1307.717
341.5930, 1471.370
342.7990, 1613.864
344.0040, 1775.203
345.2090, 1878.390
346.4140, 1974.425
347.6190, 2049.312
348.8240, 2025.057
350.0280, 2159.658
351.2330, 2370.118
352.4370, 2263.440
353.6410, 2429.628
354.8440, 2508.680
356.0480, 2545.601
357.2520, 2684.391
358.4550, 2462.051
359.6580, 2646.572
360.8610, 2503.953
362.0640, 2463.173
363.2660, 2439.230
364.4690, 2347.073
365.6710, 2264.518
366.8730, 2376.568
368.0750, 2178.220
369.2770, 1922.916
370.4780, 2057.463
371.6800, 1748.555
372.8810, 2044.132
374.0820, 1694.767
375.2830, 1606.762
376.4830, 1518.970
377.6840, 1497.915
378.8840, 1488.056
380.0840, 1480.057
381.2840, 1547.432
382.4840, 1563.212
383.6840, 1674.206
384.8830, 1832.171
386.0830, 1784.306
387.2820, 1836.983
388.4810, 1712.882
389.6800, 1706.208
390.8780, 1684.823
392.0770, 1568.896
393.2750, 1405.182
394.4730, 1460.510
395.6710, 1159.429
396.8690, 1197.709
398.0660, 1111.344
399.2640, 978.6758
400.4610, 802.6191
401.6580, 734.4141
402.8550, 712.0986
404.0520, 729.6738
405.2490, 532.1396
406.4450, 640.4951
407.6410, 452.7412
408.8370, 398.8760
410.0330, 395.8975
411.2290, 564.8027
412.4240, 211.5996
413.6200, 405.2725
414.8150, 257.8281
416.0100, 503.2637
417.2050, 298.5850
418.4000, 303.7227
419.5940, 298.8291
420.7880, 212.9824
421.9830, 402.1064
423.1770, 289.2295
424.3700, 256.8320
425.5640, 393.3232
426.7580, 349.5244
427.9510, 369.7969
429.1440, 179.2461
430.3370, 128.7598
431.5300, 124.0137
432.7220, 132.5791
433.9150, 160.2979
435.1070, 133.1318
436.2990, 52.45703
437.4910, 96.06055
438.6830, 0.3974610
439.8750, 81.12109
441.0660, 28.90625
442.2570, 50.11621
443.4480, 47.06250
444.6390, 90.79395
445.8300, 46.58984
447.0210, 25.74512
448.2110, 24.00391
449.4010, 30.16504
450.5910, 30.62500
451.7810, 8.019531
452.9710, 18.88965
454.1610, 11.37402
455.3500, 228.2568
456.5390, 148.8623
457.7280, 328.7842
458.9170, 548.1299
460.1060, 448.3105
461.2940, 694.0430
462.4830, 568.0166
463.6710, 1012.953
464.8590, 914.1973
466.0470, 1087.819
467.2350, 914.4521
468.4220, 1177.938
469.6090, 1349.022
470.7970, 1366.427
471.9840, 1141.964
473.1700, 1123.615
474.3570, 1168.747
475.5440, 1097.029
476.7300, 1010.344
477.9160, 963.5625
479.1020, 974.6855
480.2880, 902.7129
481.4740, 874.6455
482.6590, 755.4844
483.8440, 815.2295
485.0300, 970.8828
486.2140, 903.4434
487.3990, 1074.916
488.5840, 725.2959
489.7680, 866.5879
490.9530, 811.7910
492.1370, 906.9062
493.3210, 726.9336
494.5040, 762.8760
495.6880, 824.7324
496.8720, 801.5039
498.0550, 792.2510
499.2380, 865.7949
500.4210, 741.3164
501.6040, 580.7549
502.7860, 612.1133
503.9690, 638.3906
505.1510, 624.5879
506.3330, 453.7061
507.5150, 528.7471
508.6970, 373.7109
509.8780, 406.6025
511.0600, 255.4209
512.2410, 212.1650
513.4220, 264.8359
514.6030, 101.4355
515.7840, 47.95898
516.9640, 1.407227
518.1440, 120.2305
519.3250, 152.0176
520.5050, 222.9648
521.6850, 118.1113
522.8640, 79.39844
524.0440, 141.8037
525.2230, 237.3594
526.4020, 209.1133
527.5820, 184.0488
528.7600, 133.1504
529.9390, 236.3896
531.1180, 135.8193
532.2960, 208.3828
533.4740, 172.1201
534.6520, 132.0059
535.8300, 137.0205
537.0080, 70.24219
538.1850, 39.93359
539.3630, 41.29980
540.5400, 78.93555
541.7170, 137.5234
542.8940, 253.5615
544.0700, 433.3057
545.2470, 728.9668
546.4230, 1045.715
547.5990, 905.6494
548.7750, 1310.053
549.9510, 1578.541
551.1270, 1959.578
552.3020, 2420.588
553.4780, 2689.639
554.6530, 3199.250
555.8280, 3422.307
557.0030, 3962.766
558.1770, 4130.496
559.3520, 4321.504
560.5260, 4509.609
561.7000, 4533.656
562.8740, 4389.416
564.0480, 4452.441
565.2220, 4024.373
566.3950, 3844.908
567.5680, 3650.859
568.7420, 3295.449
569.9150, 3005.230
571.0870, 2795.500
572.2600, 2387.809
573.4320, 2190.811
574.6050, 1951.119
575.7770, 1776.123
576.9490, 1689.854
578.1210, 1625.213
579.2920, 1455.346
580.4640, 1290.717
581.6350, 1416.357
582.8060, 1375.031
583.9770, 1221.826
585.1480, 1414.604
586.3190, 1377.938
587.4890, 1406.885
588.6590, 1584.826
589.8290, 1529.893
590.9990, 1669.361
592.1690, 1616.289
593.3390, 1683.748
594.5080, 1717.615
595.6770, 1946.475
596.8470, 2011.246
598.0160, 1791.314
599.1840, 2024.732
600.3530, 1871.100
601.5210, 1950.090
602.6900, 1841.779
603.8580, 1906.336
605.0260, 1848.051
606.1930, 1761.775
607.3610, 1654.516
608.5280, 1689.270
609.6960, 1768.035
610.8630, 1731.816
612.0300, 1816.607
613.1970, 1901.412
614.3630, 1980.002
615.5300, 2243.066
616.6960, 2272.914
617.8620, 2689.777
619.0280, 2982.656
620.1940, 3168.551
621.3590, 3496.459
622.5250, 3855.387
623.6900, 4099.330
624.8550, 4077.293
626.0200, 4186.273
627.1850, 4044.277
628.3490, 3722.301
629.5140, 3500.344
630.6780, 3328.408
631.8420, 3281.496
633.0060, 3339.609
634.1700, 3250.746
635.3330, 3401.906
636.4970, 3555.092
637.6600, 3526.303
638.8230, 3995.541
639.9860, 4450.807
641.1490, 5016.102
642.3110, 5362.422
643.4740, 6061.773
644.6360, 6615.154
645.7980, 7073.566
646.9600, 7768.008
648.1220, 8403.484
649.2840, 9224.988
650.4450, 9618.531
651.6060, 10624.71
652.7670, 11074.79
653.9280, 11466.14
655.0890, 11379.87
656.2500, 11324.45
657.4100, 10645.55
658.5700, 10038.33
659.7300, 8998.287
660.8900, 8234.957
662.0500, 7414.379
663.2100, 6554.406
664.3690, 5986.697
665.5280, 5489.168
666.6880, 5185.602
667.8460, 4997.801
669.0050, 5016.391
670.1640, 4785.701
671.3220, 4823.527
672.4810, 4692.010
673.6390, 4770.980
674.7970, 5040.684
675.9540, 5066.293
677.1120, 5188.258
678.2690, 5520.812
679.4270, 5744.965
680.5840, 5954.066
681.7410, 6200.697
682.8980, 6369.051
684.0540, 6661.104
685.2110, 7137.354
686.3670, 7619.400
687.5230, 7527.627
688.6790, 8168.811
689.8350, 8337.219
690.9900, 8540.875
692.1460, 8990.785
693.3010, 8986.613
694.4560, 9556.402
695.6110, 9572.082
696.7660, 9912.715
697.9210, 9828.834
699.0750, 10359.38
700.2290, 10167.57
701.3840, 10469.42
702.5370, 10764.54
703.6910, 11003.79
704.8450, 10841.23
705.9980, 10949.82
707.1520, 11069.53
708.3050, 11007.45
709.4580, 11205.53
710.6110, 11085.78
711.7630, 11408.22
712.9160, 11135.78
714.0680, 11260.42
715.2200, 11011.16
716.3720, 11095.00
717.5240, 10859.96
718.6760, 10905.05
719.8270, 10578.25
720.9780, 10193.56
722.1300, 10183.97
723.2810, 9825.469
724.4310, 9591.051
725.5820, 9172.713
726.7330, 9045.465
727.8830, 8511.322
729.0330, 8386.273
730.1830, 8161.309
731.3330, 7492.453
732.4830, 7226.693
733.6320, 6664.035
734.7810, 6298.459
735.9310, 6063.977
737.0800, 5674.555
738.2290, 5294.203
739.3770, 5158.918
740.5260, 4826.697
741.6740, 4326.539
742.8220, 4358.445
743.9700, 4053.418
745.1180, 4097.451
746.2660, 3822.549
747.4130, 3648.713
748.5610, 3702.941
749.7080, 3398.230
750.8550, 3364.586
752.0020, 3546.006
753.1490, 3245.490
754.2950, 3267.041
755.4420, 3271.654
756.5880, 3157.334
757.7340, 3092.770
758.8800, 2999.887
760.0250, 2860.760
761.1710, 2775.699
762.3160, 2692.701
763.4620, 2487.770
764.6070, 2448.574
765.7520, 2305.104
766.8960, 2304.363
768.0410, 2130.693
769.1850, 2076.086
770.3300, 1968.174
771.4740, 1767.064
772.6180, 1744.652
773.7610, 1566.301
774.9050, 1455.016
776.0480, 1306.797
777.1920, 1227.637
778.3350, 1315.547
779.4780, 1219.516
780.6200, 1169.553
781.7630, 1138.652
782.9060, 1068.816
784.0480, 1165.041
785.1900, 1015.332
786.3320, 1066.688
787.4740, 1109.104
788.6150, 1007.586
789.7570, 842.1289
790.8980, 1014.740
792.0390, 887.4160
793.1800, 844.1562
794.3210, 882.9668
795.4620, 798.0605
796.6020, 976.8359
797.7420, 710.9336
798.8830, 638.1602
800.0230, 540.4883
801.1620, 276.9062
802.3020, 436.4316
803.4420, 315.0859
804.5810, 225.8652
805.7200, 344.7559
806.8590, 361.7500
807.9980, 318.8711
809.1370, 441.0898
810.2750, 613.4258
811.4140, 477.8711
812.5520, 756.4141
813.6900, 689.0527
814.8280, 230.7695
815.9650, 166.5547
817.1030, 32.59766
818.2400, 73.70117
819.3780, 191.3164
820.5150, 288.8340
821.6520, 289.9492
822.7880, 283.1055
823.9250, 283.9863
825.0610, 217.4922
826.1980, 152.8203
827.3340, 132.0781
828.4700, 111.4121
829.6050, 13.55078
830.7410, 102.7285
831.8760, 121.8867
833.0120, 93.03320
834.1470, 12.15234
835.2820, 243.2305
836.4160, 7.306641
837.5510, 28.08398
838.6860, 248.8164
839.8200, 417.4102
840.9540, 390.8066
842.0880, 510.1719
843.2220, 589.4688
844.3550, 816.2871
845.4890, 981.0879
846.6220, 1223.170
847.7550, 1360.850
848.8880, 1710.076
850.0210, 1703.521
851.1540, 2055.996
852.2860, 2379.996
853.4190, 2732.516
854.5510, 2948.693
855.6830, 3305.283
856.8150, 3695.904
857.9460, 3842.561
859.0780, 3893.250
860.2090, 3898.971
861.3410, 3784.725
862.4720, 3661.508
863.6020, 3012.324
864.7330, 2795.168
865.8640, 2391.045
866.9940, 2056.947
868.1240, 1718.881
869.2540, 1642.842
870.3840, 1428.832
871.5140, 1204.850
872.6440, 1272.896
873.7730, 930.9707
874.9020, 1197.080
876.0320, 1168.238
877.1600, 1087.430
878.2890, 1176.691
879.4180, 1111.986
880.5460, 1121.406
881.6750, 1120.693
882.8030, 1140.092
883.9310, 1114.574
885.0590, 1166.096
886.1860, 1289.666
887.3140, 1329.262
888.4410, 1250.928
889.5680, 1422.629
890.6950, 1463.363
891.8220, 1583.121
892.9490, 1669.895
894.0750, 1806.689
895.2020, 1831.506
896.3280, 1851.338
897.4540, 1974.189
898.5800, 2100.062
899.7050, 2179.947
900.8310, 2122.854
901.9560, 2202.775
903.0820, 2406.715
904.2070, 2202.672
905.3320, 2393.641
906.4560, 2275.627
907.5810, 2255.629
908.7050, 2381.643
909.8300, 2354.672
910.9540, 2428.719
912.0780, 2443.773
913.2010, 2611.846
914.3250, 2328.928
915.4480, 2129.023
916.5720, 2330.131
917.6950, 2027.248
918.8180, 2339.379
919.9410, 2067.520
921.0630, 2018.670
922.1860, 1989.828
923.3080, 2044.998
924.4300, 2029.176
925.5520, 2017.533
926.6740, 2044.561
927.7960, 1978.762
928.9170, 1924.973
930.0390, 1898.236
931.1600, 1874.523
932.2810, 1826.965
933.4020, 1913.109
934.5230, 1723.410
935.6430, 1650.719
936.7640, 1546.027
937.8840, 1352.342
939.0040, 1440.654
940.1240, 1292.986
941.2440, 1298.316
942.3630, 1045.648
943.4830, 975.9824
944.6020, 790.3496
945.7210, 880.7188
946.8400, 879.1406
947.9590, 789.5645
949.0770, 872.9824
950.1960, 932.3965
951.3140, 1015.809
952.4320, 775.5137
953.5500, 995.0293
954.6680, 676.9160
955.7860, 868.1621
956.9030, 552.2715
958.0210, 472.6426
959.1380, 392.8906
960.2550, 421.2422
961.3720, 277.4316
962.4890, 257.4434
963.6050, 423.2637
964.7220, 268.2285
965.8380, 311.0938
966.9540, 302.1914
968.0700, 202.9297
969.1860, 231.8809
970.3010, 78.46875
971.4170, 25.52148
972.5320, 121.1387
973.6470, 97.01562
974.7620, 332.0020
975.8770, 186.2246
976.9910, 119.6016
978.1060, 381.1016
979.2200, 219.8652
980.3340, 254.8066
981.4480, 262.9453
982.5620, 10.28516
983.6760, 194.3047
984.7890, 66.88477
985.9030, 55.42578
987.0160, 279.9277
988.1290, 154.4180
989.2420, 233.8945
990.3550, 244.3652
991.4670, 232.8242
992.5800, 344.2754
993.6920, 534.7148
994.8040, 828.7480
995.9160, 1181.631
997.0280, 1701.980
998.1390, 2159.385
999.2510, 2812.779
1000.362, 3537.160
1001.473, 3518.533
1002.584, 3372.895
1003.695, 2762.422
1004.805, 2352.764
1005.916, 1897.676
1007.026, 1577.961
1008.136, 1378.945
1009.246, 1148.832
1010.356, 1227.838
1011.466, 1222.955
1012.576, 1390.605
1013.685, 1485.809
1014.794, 1487.432
1015.903, 2004.480
1017.012, 2046.178
1018.121, 2427.414
1019.229, 2640.727
1020.338, 2744.738
1021.446, 2813.910
1022.554, 2922.551
1023.662, 3032.297
1024.770, 2895.381
1025.878, 3000.449
1026.985, 2849.498
1028.092, 2906.529
1029.200, 2620.551
1030.307, 2565.064
1031.413, 2625.520
1032.520, 2347.479
1033.627, 2283.416
1034.733, 2259.338
1035.839, 2042.238
1036.945, 2182.117
1038.051, 1995.051
1039.157, 2014.824
1040.262, 1896.648
1041.368, 1616.455
1042.473, 1837.240
1043.578, 1721.004
1044.683, 1386.752
1045.788, 1404.479
1046.893, 1295.186
1047.997, 1170.871
1049.101, 1247.539
1050.205, 907.1855
1051.309, 1055.812
1052.413, 969.4199
1053.517, 816.0059
1054.621, 676.5742
1055.724, 696.1191
1056.827, 700.6445
1057.930, 657.1504
1059.033, 732.6387
1060.136, 580.1055
1061.238, 806.5508
1062.341, 645.3672
1063.443, 637.8809
1064.545, 813.2656
1065.647, 573.6270
1066.749, 715.9688
1067.850, 521.2852
1068.952, 682.5820
1070.053, 755.8555
1071.154, 875.1113
1072.255, 968.2344
1073.356, 1166.447
1074.457, 899.6367
1075.557, 1181.867
1076.658, 1386.494
1077.758, 1295.617
1078.858, 1529.115
1079.958, 1525.195
1081.057, 1666.252
1082.157, 1781.287
1083.256, 1850.299
1084.356, 1810.287
1085.455, 1631.260
1086.554, 1637.225
1087.653, 1477.193
1088.751, 1360.193
1089.850, 1233.223
1090.948, 1104.279
1092.046, 1122.363
1093.144, 1127.463
1094.242, 1071.566
1095.340, 921.6680
1096.437, 1116.773
1097.534, 1065.863
1098.632, 956.9473
1099.729, 1016.033
1100.826, 1061.111
1101.922, 1113.170
1103.019, 919.2148
1104.115, 1313.988
1105.212, 1104.113
1106.308, 1126.566
1107.404, 1387.252
1108.499, 1405.998
1109.595, 1471.844
1110.691, 1263.193
1111.786, 1260.596
1112.881, 1159.736
1113.976, 1210.312
1115.071, 824.3691
1116.166, 987.2305
1117.260, 856.0957
1118.355, 894.4551
1119.449, 882.3262
1120.543, 792.6016
1121.637, 529.4160
1122.731, 641.2559
1123.824, 503.0918
1124.918, 392.9180
1126.011, 473.7324
1127.104, 396.5430
1128.197, 350.3438
1129.290, 357.8848
1130.382, 287.9199
1131.475, 312.6953
1132.567, 241.4629
1133.659, 216.2246
1134.751, 80.97852
1135.843, 126.7227
1136.935, 51.45898
1138.027, 88.18359
1139.118, 13.89844
1140.209, 39.40625
1141.300, 9.236328
1142.391, 125.1465
1143.482, 3.621094
1144.573, 31.12891
1145.663, 53.32227
1146.754, 3.765625
1147.844, 186.8223
1148.934, 18.53125
1150.024, 71.27148
1151.113, 22.92188
1152.203, 150.8965
1153.292, 12.81836
1154.381, 15.77148
1155.470, 286.2461
1156.559, 131.2598
1157.648, 292.2676
1158.737, 111.2754
1159.825, 71.27539
1160.913, 205.2734
1162.001, 518.2676
1163.089, 387.3984
1164.177, 577.2461
1165.265, 344.2285
1166.352, 317.2109
1167.440, 376.1895
1168.527, 232.1660
1169.614, 134.1406
1170.701, 441.1113
1171.788, 322.0820
1172.874, 349.0488
1173.961, 410.0156
1175.047, 401.9824
1176.133, 440.9453
1177.219, 385.9102
1178.305, 316.8711
1179.390, 121.8340
1180.476, 296.7949
1181.561, 261.7578
1182.646, 124.7188
1183.731, 286.6816
1184.816, 197.6445
1185.901, 216.6074
1186.985, 193.5703
1188.070, 174.5352
1189.154, 38.50000
1190.238, 150.4648
1191.322, 237.4336
1192.406, 175.5957
1193.489, 56.71875
1194.573, 21.13281
1195.656, 130.9883
1196.739, 26.84375
1197.822, 92.70312
1198.905, 77.56445
1199.988, 79.42773
1201.070, 120.5547
1202.153, 60.83203
1203.235, 116.0137
1204.317, 129.8633
1205.399, 1.281250
1206.481, 158.4238
1207.562, 80.36328
1208.644, 238.8477
1209.725, 88.83008
1210.806, 354.5137
1211.887, 200.2031
1212.968, 320.8984
1214.049, 405.5977
1215.129, 255.3047
1216.209, 294.7051
1217.290, 399.4258
1218.370, 312.1523
1219.450, 483.8828
1220.529, 390.6211
1221.609, 461.3672
1222.688, 95.11914
1223.768, 296.8750
1224.847, 247.6406
1225.926, 492.5137
1227.005, 397.2930
1228.083, 445.2969
1229.162, 569.0879
1230.240, 742.8887
1231.318, 797.6953
1232.396, 985.5137
1233.474, 860.3457
1234.552, 1165.219
1235.629, 1194.162
1236.707, 1079.162
1237.784, 1157.285
1238.861, 1032.498
1239.938, 1060.775
1241.015, 986.1914
1242.092, 939.6816
1243.168, 1090.316
1244.244, 899.0371
1245.321, 1034.799
1246.397, 1126.572
1247.473, 1114.373
1248.548, 1281.199
1249.624, 1137.037
1250.699, 1237.889
1251.775, 1019.750
1252.850, 1006.627
1253.925, 973.5117
1254.999, 1304.410
1256.074, 1284.330
1257.148, 1298.264
1258.223, 1148.209
1259.297, 1284.229
1260.371, 1307.262
1261.445, 1671.307
1262.519, 1512.391
1263.592, 1549.490
1264.666, 1833.428
1265.739, 1764.574
1266.812, 1787.162
1267.885, 1965.285
1268.958, 2001.930
1270.030, 2014.551
1271.103, 1863.070
1272.175, 2096.477
1273.247, 1925.357
1274.319, 2161.684
1275.391, 2058.594
1276.463, 1773.084
1277.535, 1579.926
1278.606, 1501.447
1279.677, 1384.109
1280.748, 1369.008
1281.819, 1324.389
1282.890, 1297.305
1283.961, 1294.119
1285.031, 1296.596
1286.102, 1279.094
1287.172, 1420.613
1288.242, 1223.150
1289.312, 1195.701
1290.381, 1576.279
1291.451, 1808.877
1292.520, 1772.494
1293.590, 1686.129
1294.659, 1880.783
1295.728, 1773.455
1296.797, 1788.148
1297.865, 1649.859
1298.934, 1698.588
1300.002, 1680.338
1301.070, 1548.104
1302.138, 1539.891
1303.206, 1712.693
1304.274, 1534.518
1305.341, 1744.357
1306.409, 1940.217
1307.476, 2025.094
1308.543, 1985.992
1309.610, 2053.904
1310.677, 2047.840
1311.744, 2071.791
1312.810, 2353.762
1313.877, 1827.752
1314.943, 1820.760
1316.009, 2219.789
1317.075, 2073.840
1318.140, 2255.908
