##NAMES=Astrophyllite
##RRUFFID=R060202
##IDEAL CHEMISTRY=K_2_NaFe^2+^_7_Ti^4+^_2_(Si_4_O_12_)_2_O_2_(OH)_4_F
##LOCALITY=Demix Quarry, Mont Saint-Hilaire, Rouville County, Quebec, Canada
##OWNER=RRUFF
##SOURCE=Royal Ontario Museum
##DESCRIPTION=Aggregate of brown splintered wafers
##STATUS=The identification of this mineral has been confirmed by X-ray diffraction and chemical analysis
##URL=rruff.info/R060202
##MEASURED CHEMISTRY=(K_0.56_Na_0.38_Ca_0.06_)_3_(Fe^2+^_0.52_Mn_0.44_Mg_0.04_)_7_(Ti_0.75_Zr_0.15_Al_0.15_)_2_Si_8_O_24_(O_0.27_OH_0.73_)_7_
##PIN_ID=M00349
##ORIENTATION=Laser parallel to a* (1 0 0). Fiducial mark perpendicular to laser is parallel to b [0 1 0]
121.8270, 0.0000000E+00
123.0580, 246.7070
124.2880, 407.7578
125.5190, 429.6328
126.7490, 19.68750
127.9790, 171.7578
129.2090, 119.5547
130.4390, 63.66016
131.6680, 364.1797
132.8980, 22.01562
134.1270, 324.8828
135.3560, 374.7305
136.5850, 544.3711
137.8140, 462.5195
139.0430, 461.0664
140.2710, 715.1875
141.5000, 830.2148
142.7280, 725.6367
143.9560, 912.6992
145.1840, 581.9688
146.4120, 707.6094
147.6390, 1030.578
148.8670, 815.4336
150.0940, 1027.277
151.3210, 1490.773
152.5490, 2652.887
153.7750, 2317.039
155.0020, 2970.633
156.2290, 3067.852
157.4550, 3109.340
158.6810, 3340.645
159.9080, 4119.078
161.1340, 4530.578
162.3590, 5959.746
163.5850, 7300.816
164.8110, 8349.164
166.0360, 9395.660
167.2610, 8914.719
168.4860, 9306.234
169.7110, 9669.285
170.9360, 9871.391
172.1610, 8929.176
173.3850, 7988.520
174.6100, 7414.930
175.8340, 6861.504
177.0580, 6308.969
178.2820, 5945.855
179.5050, 5509.086
180.7290, 4846.992
181.9520, 4476.531
183.1760, 4353.723
184.3990, 4542.402
185.6220, 4838.742
186.8450, 5127.598
188.0670, 5350.613
189.2900, 5769.098
190.5120, 6010.422
191.7340, 6559.926
192.9560, 6823.777
194.1780, 7122.430
195.4000, 7049.730
196.6220, 7163.297
197.8430, 7128.742
199.0640, 7156.750
200.2860, 7787.035
201.5070, 8533.359
202.7270, 8561.973
203.9480, 6637.055
205.1690, 3480.879
206.3890, 1637.980
207.6090, 629.8555
208.8290, 618.2695
210.0490, 761.8242
211.2690, 638.2617
212.4890, 768.1172
213.7080, 744.1680
214.9280, 713.6992
216.1470, 763.6328
217.3660, 722.8398
218.5850, 736.1523
219.8030, 676.6953
221.0220, 668.6758
222.2400, 646.1406
223.4590, 474.3125
224.6770, 491.5977
225.8950, 286.0195
227.1120, 262.2266
228.3300, 377.5352
229.5480, 53.64453
230.7650, 450.1484
231.9820, 899.5586
233.1990, 419.6211
234.4160, 67.66406
235.6330, 268.6992
236.8490, 387.7148
238.0660, 52.37891
239.2820, 301.1641
240.4980, 301.9219
241.7140, 527.3320
242.9300, 547.0391
244.1460, 56.80469
245.3610, 54.15234
246.5770, 86.48438
247.7920, 202.7969
249.0070, 361.9844
250.2220, 398.3047
251.4370, 50.15625
252.6510, 128.8516
253.8660, 59.83984
255.0800, 16.04297
256.2940, 250.6445
257.5080, 125.6797
258.7220, 138.0664
259.9360, 145.5898
261.1490, 270.3086
262.3630, 140.1562
263.5760, 96.96094
264.7890, 314.6172
266.0020, 414.3906
267.2150, 284.1562
268.4270, 427.3906
269.6400, 49.39062
270.8520, 140.2734
272.0640, 425.9258
273.2760, 290.9492
274.4880, 205.1406
275.7000, 281.9102
276.9120, 207.4453
278.1230, 204.7422
279.3340, 176.6172
280.5450, 60.32031
281.7560, 51.98828
282.9670, 85.24609
284.1780, 57.10156
285.3880, 225.0977
286.5980, 219.7266
287.8090, 73.39844
289.0190, 607.2617
290.2290, 308.4297
291.4380, 472.9922
292.6480, 292.2266
293.8570, 433.7695
295.0670, 397.8164
296.2760, 319.5273
297.4850, 307.8750
298.6930, 278.0508
299.9020, 136.3398
301.1110, 318.4648
302.3190, 293.4219
303.5270, 156.9531
304.7350, 463.5430
305.9430, 151.2812
307.1510, 402.5703
308.3580, 320.8242
309.5660, 116.8828
310.7730, 320.3359
311.9800, 196.5898
313.1870, 247.4336
314.3940, 454.4844
315.6010, 377.4453
316.8070, 521.6914
318.0130, 667.9688
319.2200, 574.6992
320.4260, 387.0938
321.6310, 537.2793
322.8370, 602.9902
324.0430, 788.6035
325.2480, 843.5215
326.4540, 794.6523
327.6590, 941.9297
328.8640, 947.4941
330.0680, 899.7324
331.2730, 788.7266
332.4780, 1109.434
333.6820, 1014.887
334.8860, 1298.070
336.0900, 1167.928
337.2940, 1004.541
338.4980, 1220.914
339.7010, 1271.059
340.9050, 1434.959
342.1080, 1373.594
343.3110, 1459.984
344.5140, 1606.123
345.7170, 1351.994
346.9200, 1374.574
348.1220, 1442.816
349.3240, 1471.758
350.5270, 1517.369
351.7290, 1248.725
352.9310, 1308.809
354.1320, 1037.627
355.3340, 1217.164
356.5350, 1294.371
357.7370, 967.2930
358.9380, 1138.906
360.1390, 958.2129
361.3400, 1181.199
362.5400, 1017.883
363.7410, 1016.297
364.9410, 947.4590
366.1410, 863.3789
367.3410, 849.0488
368.5410, 803.4863
369.7410, 711.6973
370.9400, 724.2383
372.1400, 586.8633
373.3390, 778.4199
374.5380, 670.4727
375.7370, 837.6191
376.9360, 695.5605
378.1350, 417.3008
379.3330, 469.2520
380.5310, 566.0430
381.7300, 590.1016
382.9280, 205.5410
384.1260, 329.7773
385.3230, 289.7930
386.5210, 90.10547
387.7180, 521.1953
388.9160, 462.3906
390.1130, 200.4199
391.3100, 208.1855
392.5060, 209.4004
393.7030, 233.0566
394.9000, 203.6426
396.0960, 191.8164
397.2920, 192.4258
398.4880, 154.9785
399.6840, 173.1641
400.8800, 182.9238
402.0750, 151.1094
403.2710, 39.47461
404.4660, 22.90820
405.6610, 48.08789
406.8560, 257.0859
408.0510, 194.6543
409.2450, 123.7520
410.4400, 212.0371
411.6340, 72.41406
412.8280, 33.56055
414.0220, 250.6680
415.2160, 224.0957
416.4100, 73.54688
417.6030, 138.9121
418.7970, 121.1836
419.9900, 68.60742
421.1830, 185.3438
422.3760, 199.8105
423.5690, 266.0586
424.7610, 241.0781
425.9540, 176.3750
427.1460, 145.9863
428.3380, 283.4668
429.5300, 395.9785
430.7220, 276.3828
431.9140, 304.2500
433.1050, 449.8887
434.2970, 133.4531
435.4880, 55.09766
436.6790, 119.7422
437.8700, 301.7598
439.0610, 94.78320
440.2510, 141.2168
441.4420, 198.5645
442.6320, 94.10352
443.8220, 264.8730
445.0120, 22.21484
446.2020, 52.54688
447.3910, 195.7715
448.5810, 91.31836
449.7700, 47.30273
450.9600, 54.20508
452.1490, 25.38477
453.3370, 83.07031
454.5260, 293.8848
455.7150, 265.3438
456.9030, 223.1992
458.0910, 20.87695
459.2800, 521.1113
460.4670, 377.2773
461.6550, 455.9570
462.8430, 199.1074
464.0300, 587.6406
465.2180, 211.3457
466.4050, 459.1914
467.5920, 531.6797
468.7790, 224.2617
469.9650, 249.5117
471.1520, 492.2461
472.3380, 497.8789
473.5250, 499.1914
474.7110, 526.6211
475.8970, 491.7422
477.0820, 446.3164
478.2680, 434.1562
479.4540, 435.8828
480.6390, 419.9453
481.8240, 480.4609
483.0090, 700.8633
484.1940, 485.1680
485.3780, 736.3750
486.5630, 753.4727
487.7470, 545.4727
488.9320, 602.3750
490.1160, 440.1758
491.3000, 383.8906
492.4830, 515.5078
493.6670, 500.0352
494.8500, 384.4727
496.0340, 622.8242
497.2170, 509.7031
498.4000, 487.8828
499.5820, 473.9766
500.7650, 401.3359
501.9480, 553.2734
503.1300, 355.4492
504.3120, 449.2305
505.4940, 183.5234
506.6760, 408.7500
507.8580, 185.6289
509.0390, 355.0977
510.2210, 217.4453
511.4020, 121.5508
512.5830, 149.2188
513.7640, 95.01172
514.9450, 175.8477
516.1250, 148.7422
517.3060, 321.0508
518.4860, 431.0156
519.6660, 390.3438
520.8460, 451.4141
522.0260, 604.7539
523.2060, 563.4688
524.3850, 547.2461
525.5650, 441.0039
526.7440, 596.3164
527.9230, 560.2852
529.1020, 445.5859
530.2810, 626.9336
531.4590, 453.0469
532.6380, 839.9922
533.8160, 1137.211
534.9940, 783.4766
536.1720, 952.0547
537.3500, 832.2891
538.5270, 909.4648
539.7050, 932.6875
540.8820, 1392.316
542.0590, 1311.375
543.2360, 1373.617
544.4130, 1492.578
545.5900, 1509.023
546.7660, 1730.645
547.9430, 2116.832
549.1190, 1978.055
550.2950, 2378.355
551.4710, 2069.270
552.6470, 2308.820
553.8220, 2495.316
554.9980, 2749.445
556.1730, 2682.160
557.3480, 2425.777
558.5230, 2888.062
559.6980, 2456.465
560.8730, 2431.219
562.0470, 2346.195
563.2220, 2651.438
564.3960, 2275.105
565.5700, 2355.953
566.7440, 2361.762
567.9170, 2411.074
569.0910, 2429.699
570.2640, 2351.285
571.4380, 2319.727
572.6110, 2145.598
573.7840, 2146.016
574.9570, 2014.695
576.1290, 1873.637
577.3020, 2049.492
578.4740, 1815.035
579.6460, 1923.820
580.8180, 1996.953
581.9900, 1690.617
583.1620, 1823.055
584.3330, 1738.320
585.5040, 1999.742
586.6760, 1783.234
587.8470, 2101.180
589.0180, 2005.949
590.1880, 1957.484
591.3590, 2096.336
592.5290, 2055.137
593.7000, 2175.051
594.8700, 2073.387
596.0400, 2268.770
597.2090, 2303.273
598.3790, 2566.898
599.5490, 2501.211
600.7180, 2458.047
601.8870, 2600.719
603.0560, 2767.754
604.2250, 2774.922
605.3940, 2853.176
606.5620, 3049.777
607.7300, 2649.344
608.8990, 3017.340
610.0670, 3255.852
611.2350, 3372.605
612.4020, 3002.414
613.5700, 3261.699
614.7370, 3268.777
615.9050, 3265.676
617.0720, 3613.688
618.2390, 3314.750
619.4060, 3657.336
620.5720, 3743.879
621.7390, 3947.758
622.9050, 3400.316
624.0710, 3921.844
625.2370, 3993.445
626.4030, 3891.082
627.5690, 4251.875
628.7340, 3889.707
629.9000, 4180.617
631.0650, 4427.602
632.2300, 4514.672
633.3950, 4631.812
634.5600, 4677.039
635.7240, 4962.344
636.8890, 4938.727
638.0530, 5384.195
639.2170, 5153.746
640.3810, 5670.375
641.5450, 5818.094
642.7080, 6278.887
643.8720, 6779.770
645.0350, 7059.738
646.1980, 7322.789
647.3610, 7697.926
648.5240, 8021.152
649.6870, 8351.465
650.8490, 8346.863
652.0120, 8610.359
653.1740, 8632.945
654.3360, 8556.625
655.4980, 8299.398
656.6600, 8308.266
657.8210, 8227.223
658.9830, 7739.273
660.1440, 7315.418
661.3050, 7541.668
662.4660, 7276.008
663.6270, 7466.445
664.7870, 7405.980
665.9480, 7329.625
667.1080, 7420.371
668.2680, 7558.223
669.4280, 7793.199
670.5880, 7937.273
671.7480, 7825.449
672.9070, 8137.730
674.0670, 8355.125
675.2260, 8655.617
676.3850, 8970.223
677.5440, 9273.930
678.7030, 9513.746
679.8610, 9499.672
681.0200, 9750.703
682.1780, 10231.85
683.3360, 11040.09
684.4940, 10788.90
685.6520, 10834.96
686.8090, 10508.60
687.9670, 11105.40
689.1240, 11053.39
690.2810, 11402.57
691.4380, 11294.92
692.5950, 11457.45
693.7520, 11452.13
694.9080, 11701.95
696.0650, 11950.01
697.2210, 11918.96
698.3770, 11933.30
699.5330, 11900.59
700.6880, 11676.83
701.8440, 12186.20
702.9990, 11700.54
704.1550, 11995.74
705.3100, 11858.06
706.4650, 11783.21
707.6190, 11697.50
708.7740, 11569.99
709.9290, 11553.16
711.0830, 11347.25
712.2370, 11310.43
713.3910, 11249.07
714.5450, 11011.00
715.6980, 10752.82
716.8520, 10447.90
718.0050, 10170.47
719.1580, 9816.422
720.3110, 9607.930
721.4640, 9367.609
722.6170, 9248.656
723.7700, 9051.055
724.9220, 9004.453
726.0740, 8897.805
727.2260, 8378.305
728.3780, 8637.250
729.5300, 8265.680
730.6810, 7943.422
731.8330, 7908.785
732.9840, 7723.938
734.1350, 7540.184
735.2860, 7425.938
736.4370, 7513.316
737.5880, 7238.648
738.7380, 6975.023
739.8880, 6982.285
741.0390, 6581.734
742.1890, 6392.219
743.3380, 6515.883
744.4880, 6541.754
745.6380, 6491.227
746.7870, 6556.602
747.9360, 6433.211
749.0850, 6551.707
750.2340, 6449.410
751.3830, 6360.777
752.5310, 6090.531
753.6800, 6333.578
754.8280, 6227.379
755.9760, 6317.211
757.1240, 6320.066
758.2720, 6020.945
759.4190, 6009.848
760.5670, 6297.770
761.7140, 5948.715
762.8610, 6100.684
764.0080, 6118.668
765.1550, 6228.672
766.3020, 6167.699
767.4480, 6083.738
768.5950, 6087.801
769.7410, 6116.879
770.8870, 6025.977
772.0330, 6308.090
773.1780, 6265.215
774.3240, 5900.355
775.4690, 5991.512
776.6140, 6152.320
777.7590, 6042.359
778.9040, 6421.055
780.0490, 6273.262
781.1940, 6263.922
782.3380, 6086.707
783.4820, 6107.938
784.6260, 6044.184
785.7700, 6021.438
786.9140, 5794.695
788.0580, 5523.965
789.2010, 5565.242
790.3450, 5487.523
791.4880, 5127.809
792.6310, 5018.102
793.7730, 5072.395
794.9160, 4568.695
796.0590, 4694.996
797.2010, 4204.297
798.3430, 4225.602
799.4850, 3895.914
800.6270, 3818.219
801.7690, 3396.523
802.9100, 3409.828
804.0520, 2920.125
805.1930, 2720.426
806.3340, 2665.723
807.4750, 2287.008
808.6160, 2289.297
809.7560, 2272.570
810.8970, 1914.848
812.0370, 1778.109
813.1770, 1254.414
814.3170, 1454.004
815.4570, 1524.684
816.5960, 1473.430
817.7360, 934.7305
818.8750, 1025.426
820.0140, 863.8984
821.1530, 692.0156
822.2920, 1052.000
823.4310, 564.1445
824.5690, 534.2656
825.7070, 686.3750
826.8460, 697.4688
827.9840, 454.5352
829.1220, 302.5898
830.2590, 202.6133
831.3970, 203.6133
832.5340, 71.40625
833.6710, 5.468750
834.8080, 240.3633
835.9450, 9.203125
837.0820, 8.003906
838.2190, 78.26953
839.3550, 263.6211
840.4910, 254.1641
841.6270, 216.8984
842.7630, 286.8086
843.8990, 234.2188
845.0350, 271.2383
846.1700, 194.7656
847.3060, 226.4648
848.4410, 230.3516
849.5760, 228.4453
850.7100, 139.7422
851.8450, 355.1953
852.9800, 481.9219
854.1140, 309.9922
855.2480, 111.6797
856.3820, 179.7773
857.5160, 271.7305
858.6500, 304.8945
859.7830, 536.7734
860.9170, 197.0391
862.0500, 654.5195
863.1830, 111.4492
864.3160, 242.5508
865.4480, 23.89453
866.5810, 248.3594
867.7130, 255.0742
868.8460, 559.9570
869.9780, 23.94531
871.1100, 284.1797
872.2410, 259.5781
873.3730, 541.7695
874.5050, 1075.059
875.6360, 42.69141
876.7670, 772.4102
877.8980, 735.4570
879.0290, 105.5508
880.1590, 74.74219
881.2900, 84.89844
882.4200, 295.4727
883.5500, 210.0742
884.6800, 228.6094
885.8100, 430.0820
886.9400, 279.5000
888.0690, 562.8945
889.1990, 376.2422
890.3280, 820.5273
891.4570, 956.9414
892.5860, 929.7461
893.7140, 1361.031
894.8430, 963.0859
895.9710, 887.0898
897.1000, 927.0352
898.2280, 1353.930
899.3560, 1071.797
900.4830, 1123.605
901.6110, 1293.379
902.7380, 1181.094
903.8660, 1276.227
904.9930, 1253.574
906.1200, 1360.902
907.2460, 1288.391
908.3730, 1415.824
909.5000, 1643.199
910.6260, 1774.520
911.7520, 2003.777
912.8780, 1856.004
914.0040, 1928.160
915.1290, 1779.258
916.2550, 1731.297
917.3800, 2251.340
918.5050, 1929.348
919.6300, 1996.293
920.7550, 2279.191
921.8800, 2160.051
923.0040, 2056.848
924.1290, 2178.637
925.2530, 2104.371
926.3770, 2466.082
927.5010, 2373.730
928.6250, 2316.410
929.7480, 3044.043
930.8720, 2179.617
931.9950, 2469.129
933.1180, 2374.574
934.2410, 1994.957
935.3640, 2342.273
936.4860, 2130.531
937.6090, 1974.727
938.7310, 2175.855
939.8530, 2388.918
940.9750, 2244.922
942.0970, 2028.867
943.2180, 2334.766
944.3400, 2189.605
945.4610, 2092.375
946.5820, 2192.082
947.7030, 2032.719
948.8240, 2094.363
949.9450, 2023.941
951.0650, 2406.465
952.1860, 2219.531
953.3060, 2209.316
954.4260, 2100.652
955.5460, 1949.918
956.6650, 1964.117
957.7850, 1793.258
958.9040, 1693.324
960.0230, 1610.320
961.1420, 1927.250
962.2610, 1864.109
963.3800, 1883.898
964.4990, 1685.621
965.6170, 1832.277
966.7350, 1882.859
967.8530, 1727.336
968.9710, 1917.043
970.0890, 1836.426
971.2070, 1701.969
972.3240, 2028.660
973.4410, 1927.258
974.5580, 1958.996
975.6750, 1985.973
976.7920, 2110.961
977.9090, 2187.965
979.0250, 2305.242
980.1410, 2426.082
981.2580, 2578.164
982.3740, 2699.949
983.4890, 2853.547
984.6050, 3043.242
985.7200, 3081.578
986.8360, 3139.105
987.9510, 3275.402
989.0660, 3681.227
990.1810, 3541.785
991.2950, 4001.266
992.4100, 3906.363
993.5240, 4672.512
994.6390, 4274.871
995.7530, 4628.312
996.8660, 4852.836
997.9800, 5000.406
999.0940, 5425.203
1000.207, 5661.707
1001.320, 5900.934
1002.433, 6238.586
1003.546, 6737.461
1004.659, 7193.324
1005.772, 7557.184
1006.884, 8097.371
1007.996, 8594.625
1009.108, 9228.980
1010.220, 9718.871
1011.332, 10403.38
1012.444, 10862.46
1013.555, 11583.88
1014.666, 12511.93
1015.777, 13161.91
1016.888, 13751.07
1017.999, 14526.97
1019.110, 15162.75
1020.220, 15691.55
1021.331, 16329.19
1022.441, 16984.26
1023.551, 17510.38
1024.661, 17674.72
1025.770, 18444.04
1026.880, 18754.98
1027.989, 19058.99
1029.098, 18704.34
1030.207, 18816.51
1031.316, 18799.02
1032.425, 18165.17
1033.533, 18069.37
1034.642, 17534.62
1035.750, 16988.80
1036.858, 16360.33
1037.966, 15759.33
1039.073, 15146.51
1040.181, 14360.90
1041.288, 13594.84
1042.396, 13138.48
1043.503, 12200.53
1044.610, 11499.62
1045.716, 10568.68
1046.823, 10037.40
1047.929, 9614.211
1049.036, 9293.367
1050.142, 8628.613
1051.248, 8088.598
1052.353, 7437.914
1053.459, 6986.867
1054.564, 6645.836
1055.670, 6467.211
1056.775, 6129.031
1057.880, 5993.695
1058.985, 5522.461
1060.089, 5557.375
1061.194, 5439.797
1062.298, 4830.051
1063.402, 4686.254
1064.506, 4863.469
1065.610, 4658.656
1066.713, 4717.078
1067.817, 4395.449
1068.920, 4183.934
1070.023, 4170.477
1071.126, 3818.277
1072.229, 4181.715
1073.332, 3961.965
1074.435, 3816.047
1075.537, 3698.020
1076.639, 3643.289
1077.741, 3559.039
1078.843, 3612.996
1079.945, 3447.652
1081.046, 3410.750
1082.148, 3316.980
1083.249, 3535.766
1084.350, 3354.070
1085.451, 3675.480
1086.551, 3538.980
1087.652, 3483.816
1088.752, 3289.922
1089.853, 3177.996
1090.953, 2851.891
1092.053, 2473.469
1093.152, 2733.895
1094.252, 2284.414
1095.351, 2675.672
1096.451, 2701.488
1097.550, 2139.742
1098.649, 2140.059
1099.748, 2281.906
1100.846, 1870.504
1101.945, 1744.875
1103.043, 1706.641
1104.141, 1945.344
1105.239, 2053.883
1106.337, 2040.219
1107.434, 1539.188
1108.532, 1669.262
1109.629, 1546.727
1110.726, 1413.414
1111.823, 1630.969
1112.920, 1201.223
1114.017, 1412.320
1115.113, 1367.426
1116.210, 1440.277
1117.306, 1260.145
1118.402, 1157.645
1119.498, 1309.000
1120.593, 1320.926
1121.689, 1110.996
1122.784, 1191.805
1123.879, 758.2109
1124.974, 775.3555
1126.069, 988.4688
1127.164, 791.1641
1128.259, 878.6719
1129.353, 857.2461
1130.447, 347.5156
1131.541, 688.2188
1132.635, 660.0234
1133.729, 261.3164
1134.822, 572.1523
1135.916, 219.1836
1137.009, 102.6250
1138.102, 234.6953
1139.195, 242.1094
1140.288, 22.35938
1141.380, 228.9453
1142.473, 40.83594
1143.565, 135.1367
1144.657, 19.18750
1145.749, 59.91406
1146.841, 73.55469
1147.932, 319.4688
1149.024, 185.8477
1150.115, 225.0078
1151.206, 190.1367
1152.297, 150.4805
1153.388, 144.2461
1154.479, 34.49609
1155.569, 407.7031
1156.659, 381.7930
1157.750, 127.3398
1158.839, 103.3555
1159.929, 16.88281
1161.019, 54.94141
1162.108, 0.9062500
1163.198, 79.97656
1164.287, 16.84375
1165.376, 49.55859
1166.465, 27.03125
1167.553, 173.3828
1168.642, 57.44141
1169.730, 8.523438
1170.818, 191.4922
1171.906, 11.58594
1172.994, 119.2773
1174.082, 16.08984
1175.170, 6.847656
1176.257, 44.44531
1177.344, 349.1797
1178.431, 47.76562
1179.518, 199.4766
1180.605, 222.0352
1181.691, 74.30859
1182.778, 143.9062
1183.864, 25.92578
1184.950, 57.83594
1186.036, 108.1641
1187.122, 182.8633
1188.207, 28.94922
1189.292, 134.2539
1190.378, 192.4180
1191.463, 335.9570
1192.548, 30.56641
1193.632, 102.7422
1194.717, 91.68359
1195.801, 329.2383
1196.886, 267.6641
1197.970, 271.5977
1199.054, 3.070313
1200.137, 215.9844
1201.221, 147.9922
1202.305, 227.9727
1203.388, 36.91406
1204.471, 2.824219
1205.554, 43.33203
1206.637, 212.4180
1207.719, 82.16797
1208.802, 394.7852
1209.884, 130.3984
1210.966, 221.0312
1212.048, 21.34766
1213.130, 6.667969
1214.212, 178.9258
1215.293, 13.14062
1216.374, 89.31641
1217.456, 119.8086
1218.536, 137.5234
1219.617, 197.5312
1220.698, 233.4883
1221.778, 301.4023
1222.859, 330.2773
1223.939, 301.7461
1225.019, 355.1914
1226.099, 215.6211
1227.178, 342.3164
1228.258, 319.9648
1229.337, 186.5742
1230.417, 244.1406
1231.496, 64.65625
1232.574, 44.15234
1233.653, 20.60547
1234.732, 188.9922
1235.810, 240.3203
1236.888, 264.6094
1237.966, 16.85156
1239.044, 33.03125
1240.122, 79.36328
1241.199, 148.1250
1242.277, 230.2227
1243.354, 383.5312
1244.431, 399.4922
1245.508, 259.4180
1246.585, 97.28516
1247.661, 280.1016
1248.738, 298.8594
1249.814, 80.57031
1250.890, 311.5430
1251.966, 236.1445
1253.042, 23.85156
1254.117, 267.3867
1255.193, 429.6719
1256.268, 469.8945
1257.343, 23.14844
1258.418, 205.2070
1259.493, 135.0117
1260.567, 54.55469
1261.642, 325.0039
1262.716, 51.64062
1263.790, 213.0430
1264.864, 221.6211
1265.938, 347.3320
1267.011, 218.6406
1268.085, 168.8125
1269.158, 373.1211
1270.231, 434.8203
1271.304, 277.1602
1272.377, 409.4375
1273.450, 22.78516
1274.522, 91.60547
1275.594, 356.2461
1276.666, 206.3906
1277.738, 323.2891
1278.810, 352.4531
1279.882, 106.6133
1280.953, 284.3203
1282.025, 164.3828
1283.096, 63.71484
1284.167, 269.5742
1285.238, 74.07812
1286.308, 170.7188
1287.379, 288.8633
1288.449, 567.2969
1289.519, 259.0938
1290.589, 98.36328
