##NAMES=Astrophyllite
##RRUFFID=R060103
##IDEAL CHEMISTRY=K_2_NaFe^2+^_7_Ti^4+^_2_(Si_4_O_12_)_2_O_2_(OH)_4_F
##LOCALITY=Brivik, Norway
##OWNER=RRUFF
##SOURCE=University of Arizona Mineral Museum
##DESCRIPTION=Brown fragment embedded in matrix
##STATUS=The identification of this mineral is confirmed by single-crystal X-ray diffraction and chemical analysis.
##URL=rruff.info/R060103
##MEASURED CHEMISTRY=K_2.00_Na_1.00_(Fe^2+^_0.55_Mn_0.32_Fe^3+^_0.04_Mg_0.04_Ca_0.04_)_7_(Ti_0.66_Zr_0.18_Al_0.16_)_2_Si_8.00_O_26_(OH)_4_F_1.00_
##PIN_ID=M01572
##ORIENTATION=Laser parallel to (1 1 0). Fiducial mark perpendicular to laser is parallel to c [0 0 1]
150.1650, 0.0000000E+00
151.3980, 116.0781
152.6310, 115.7383
153.8640, 170.5801
155.0960, 221.9180
156.3280, 290.3125
157.5600, 322.8027
158.7920, 509.6992
160.0240, 550.5059
161.2560, 834.6660
162.4870, 971.4629
163.7180, 1124.278
164.9490, 1289.765
166.1800, 1510.764
167.4110, 1657.953
168.6410, 1718.772
169.8720, 1952.691
171.1020, 1876.272
172.3320, 1989.445
173.5620, 1803.181
174.7910, 1656.990
176.0210, 1291.675
177.2500, 1051.168
178.4790, 895.0430
179.7080, 693.2402
180.9370, 481.7080
182.1650, 320.3945
183.3940, 230.2656
184.6220, 144.3994
185.8500, 101.0059
187.0780, 11.60156
188.3050, 70.42578
189.5330, 130.4668
190.7600, 61.10352
191.9870, 113.3926
193.2140, 50.39160
194.4410, 150.8359
195.6680, 116.2422
196.8940, 321.7705
198.1200, 260.3623
199.3470, 210.9756
200.5720, 514.5840
201.7980, 346.1826
203.0240, 587.7656
204.2490, 593.3203
205.4740, 605.8262
206.6990, 679.2617
207.9240, 1003.607
209.1490, 1145.848
210.3740, 1308.964
211.5980, 1353.940
212.8220, 1548.768
214.0460, 1667.445
215.2700, 1783.066
216.4930, 1794.856
217.7170, 2029.882
218.9400, 2167.037
220.1630, 2208.837
221.3860, 2370.746
222.6090, 2372.667
223.8320, 2596.732
225.0540, 2402.207
226.2760, 2490.003
227.4980, 2458.990
228.7200, 2228.966
229.9420, 2417.891
231.1630, 2419.648
232.3850, 2371.217
233.6060, 2210.537
234.8270, 2176.555
236.0480, 2261.257
237.2690, 2329.639
238.4890, 2237.697
239.7090, 1972.429
240.9290, 1905.817
242.1490, 1864.841
243.3690, 1866.353
244.5890, 1717.334
245.8080, 1647.880
247.0270, 1657.149
248.2470, 1580.331
249.4650, 1619.946
250.6840, 1618.624
251.9030, 1633.215
253.1210, 1831.774
254.3390, 1884.306
255.5570, 1874.633
256.7750, 1881.751
257.9930, 1979.629
259.2100, 2207.254
260.4280, 2320.646
261.6450, 2175.729
262.8620, 2100.539
264.0790, 1972.072
265.2950, 1868.330
266.5120, 1987.306
267.7280, 1992.000
268.9440, 1883.406
270.1600, 2006.529
271.3760, 1842.379
272.5920, 1764.957
273.8070, 1583.301
275.0220, 1691.394
276.2370, 1473.209
277.4520, 1463.152
278.6670, 1327.172
279.8820, 1264.810
281.0960, 1139.046
282.3100, 1009.477
283.5240, 922.3477
284.7380, 935.6074
285.9520, 918.8330
287.1650, 1020.577
288.3780, 889.7285
289.5920, 877.4551
290.8050, 1064.247
292.0170, 1213.670
293.2300, 1129.395
294.4430, 1334.916
295.6550, 1446.812
296.8670, 1509.981
298.0790, 1540.583
299.2910, 1677.670
300.5020, 1680.794
301.7140, 1793.743
302.9250, 1977.106
304.1360, 2020.933
305.3470, 2104.259
306.5580, 2304.384
307.7680, 2380.776
308.9780, 2323.233
310.1890, 2457.447
311.3990, 2488.222
312.6090, 2525.532
313.8180, 2459.410
315.0280, 2429.946
316.2370, 2376.648
317.4460, 2256.934
318.6550, 2341.525
319.8640, 2188.713
321.0730, 2106.869
322.2810, 1950.457
323.4890, 1999.697
324.6980, 1776.690
325.9060, 1817.398
327.1130, 1696.965
328.3210, 1785.765
329.5280, 1718.153
330.7360, 1583.086
331.9430, 1769.461
333.1500, 1700.881
334.3560, 1713.794
335.5630, 1836.748
336.7690, 1939.234
337.9760, 1989.557
339.1820, 2071.556
340.3870, 2139.758
341.5930, 2219.217
342.7990, 2270.521
344.0040, 2408.559
345.2090, 2253.018
346.4140, 2286.679
347.6190, 2357.824
348.8240, 2242.640
350.0280, 2213.275
351.2330, 2138.236
352.4370, 2064.666
353.6410, 1945.542
354.8440, 1862.261
356.0480, 1836.051
357.2520, 1761.959
358.4550, 1729.174
359.6580, 1669.623
360.8610, 1680.605
362.0640, 1649.821
363.2660, 1651.753
364.4690, 1618.799
365.6710, 1501.032
366.8730, 1595.490
368.0750, 1581.644
369.2770, 1446.953
370.4780, 1699.230
371.6800, 1544.109
372.8810, 1594.873
374.0820, 1685.267
375.2830, 1710.834
376.4830, 1723.854
377.6840, 1774.832
378.8840, 1844.549
380.0840, 1969.587
381.2840, 1992.609
382.4840, 2069.664
383.6840, 2127.098
384.8830, 2320.259
386.0830, 2362.865
387.2820, 2200.070
388.4810, 2555.646
389.6800, 2554.282
390.8780, 2506.262
392.0770, 2309.689
393.2750, 2337.645
394.4730, 2278.486
395.6710, 1998.147
396.8690, 1968.892
398.0660, 1898.767
399.2640, 1766.973
400.4610, 1474.429
401.6580, 1229.602
402.8550, 1268.699
404.0520, 1297.213
405.2490, 892.5010
406.4450, 746.5898
407.6410, 796.4766
408.8370, 497.1650
410.0330, 411.6445
411.2290, 436.9160
412.4240, 318.9785
413.6200, 212.8281
414.8150, 162.4570
416.0100, 64.86133
417.2050, 69.02832
418.4000, 15.95703
419.5940, 56.36035
420.7880, 1.058594
421.9830, 99.77832
423.1770, 68.90039
424.3700, 87.31055
425.5640, 77.03223
426.7580, 49.06934
427.9510, 111.6055
429.1440, 83.54590
430.3370, 75.08203
431.5300, 122.2373
432.7220, 141.5195
433.9150, 162.9102
435.1070, 71.10742
436.2990, 19.46289
437.4910, 96.52734
438.6830, 134.7031
439.8750, 100.3066
441.0660, 43.28223
442.2570, 118.5996
443.4480, 29.29590
444.6390, 17.32324
445.8300, 15.67285
447.0210, 37.65820
448.2110, 167.6992
449.4010, 111.4883
450.5910, 83.01660
451.7810, 256.2803
452.9710, 239.3105
454.1610, 474.1104
455.3500, 244.6973
456.5390, 353.0576
457.7280, 471.2002
458.9170, 689.1377
460.1060, 600.8799
461.2940, 661.4287
462.4830, 699.7861
463.6710, 651.9561
464.8590, 742.9375
466.0470, 785.7344
467.2350, 804.3506
468.4220, 830.7656
469.6090, 814.0410
470.7970, 792.1191
471.9840, 756.0234
473.1700, 653.7529
474.3570, 635.0996
475.5440, 681.6943
476.7300, 527.9189
477.9160, 535.9980
479.1020, 452.9502
480.2880, 380.7539
481.4740, 404.4229
482.6590, 225.9404
483.8440, 256.2773
485.0300, 316.4385
486.2140, 264.4199
487.3990, 127.2246
488.5840, 259.8447
489.7680, 12.28320
490.9530, 23.47852
492.1370, 90.46387
493.3210, 91.29785
494.5040, 179.1260
495.6880, 112.8447
496.8720, 28.17676
498.0550, 212.9873
499.2380, 43.45605
500.4210, 14.86133
501.6040, 33.99707
502.7860, 25.04590
503.9690, 18.71680
505.1510, 20.30273
506.3330, 122.7158
507.5150, 34.96094
508.6970, 143.0391
509.8780, 155.9521
511.0600, 296.7051
512.2410, 243.2793
513.4220, 276.7227
514.6030, 242.0146
515.7840, 268.1543
516.9640, 164.1436
518.1440, 231.9834
519.3250, 179.6758
520.5050, 179.4688
521.6850, 279.6172
522.8640, 220.8750
524.0440, 150.9912
525.2230, 236.9639
526.4020, 240.8008
527.5820, 311.5020
528.7600, 107.0703
529.9390, 196.5010
531.1180, 120.7988
532.2960, 46.03320
533.4740, 49.98730
534.6520, 102.8828
535.8300, 118.3408
537.0080, 52.30566
538.1850, 80.16113
539.3630, 26.77539
540.5400, 3.508789
541.7170, 98.63281
542.8940, 105.7588
544.0700, 62.87695
545.2470, 141.1475
546.4230, 184.4424
547.5990, 176.9473
548.7750, 351.7480
549.9510, 279.6631
551.1270, 537.5068
552.3020, 643.4512
553.4780, 908.6436
554.6530, 837.2910
555.8280, 928.9492
557.0030, 1025.350
558.1770, 1174.390
559.3520, 1257.592
560.5260, 1069.231
561.7000, 1195.368
562.8740, 1059.109
564.0480, 937.5283
565.2220, 1108.895
566.3950, 994.1240
567.5680, 812.0186
568.7420, 709.6963
569.9150, 569.4834
571.0870, 564.0713
572.2600, 493.2393
573.4320, 360.5029
574.6050, 234.6230
575.7770, 141.4766
576.9490, 38.17188
578.1210, 108.1973
579.2920, 278.4834
580.4640, 190.4766
581.6350, 547.7412
582.8060, 383.7031
583.9770, 494.0615
585.1480, 513.1533
586.3190, 752.1348
587.4890, 731.3594
588.6590, 762.7686
589.8290, 860.3223
590.9990, 810.6777
592.1690, 758.2969
593.3390, 823.4219
594.5080, 1024.407
595.6770, 1054.494
596.8470, 1271.707
598.0160, 1125.964
599.1840, 1130.102
600.3530, 1342.178
601.5210, 1244.912
602.6900, 1256.926
603.8580, 1149.133
605.0260, 1127.170
606.1930, 1168.621
607.3610, 1007.287
608.5280, 979.0674
609.6960, 1200.996
610.8630, 1274.895
612.0300, 1407.743
613.1970, 1591.482
614.3630, 1889.839
615.5300, 2551.162
616.6960, 3243.728
617.8620, 3841.699
619.0280, 4451.755
620.1940, 5302.513
621.3590, 6454.021
622.5250, 7252.685
623.6900, 8316.547
624.8550, 8441.702
626.0200, 8215.164
627.1850, 7695.471
628.3490, 6708.896
629.5140, 5931.309
630.6780, 5067.363
631.8420, 4380.449
633.0060, 3904.568
634.1700, 3610.218
635.3330, 3635.255
636.4970, 3539.702
637.6600, 3764.169
638.8230, 4275.842
639.9860, 4757.418
641.1490, 5402.140
642.3110, 6154.150
643.4740, 6932.662
644.6360, 7553.805
645.7980, 8001.092
646.9600, 8486.119
648.1220, 8750.998
649.2840, 8952.100
650.4450, 9053.555
651.6060, 9119.695
652.7670, 8815.244
653.9280, 8551.971
655.0890, 7877.187
656.2500, 7169.616
657.4100, 6388.715
658.5700, 5338.207
659.7300, 4660.585
660.8900, 3783.072
662.0500, 3033.090
663.2100, 2567.973
664.3690, 2252.678
665.5280, 2022.856
666.6880, 1581.168
667.8460, 1389.892
669.0050, 1621.879
670.1640, 1429.360
671.3220, 1433.083
672.4810, 1453.074
673.6390, 1510.984
674.7970, 1633.312
675.9540, 1985.959
677.1120, 1860.797
678.2690, 2265.396
679.4270, 2431.487
680.5840, 2622.191
681.7410, 2694.534
682.8980, 2879.073
684.0540, 3088.523
685.2110, 3084.980
686.3670, 3429.006
687.5230, 3555.116
688.6790, 3678.315
689.8350, 4133.602
690.9900, 3986.986
692.1460, 4431.472
693.3010, 4481.059
694.4560, 4516.756
695.6110, 4810.568
696.7660, 4996.506
697.9210, 5070.599
699.0750, 5169.844
700.2290, 5285.849
701.3840, 5321.933
702.5370, 5458.793
703.6910, 5486.973
704.8450, 5538.469
705.9980, 5658.326
707.1520, 5570.543
708.3050, 5387.103
709.4580, 5620.982
710.6110, 5681.151
711.7630, 5479.563
712.9160, 5528.188
714.0680, 5528.013
715.2200, 5324.040
716.3720, 5106.242
717.5240, 5132.609
718.6760, 4906.158
719.8270, 4830.902
720.9780, 4721.830
722.1300, 4607.926
723.2810, 4540.211
724.4310, 4340.090
725.5820, 3999.273
726.7330, 3970.047
727.8830, 3686.965
729.0330, 3539.605
730.1830, 3421.201
731.3330, 3150.523
732.4830, 3009.410
733.6320, 2684.541
734.7810, 2581.227
735.9310, 2239.037
737.0800, 1911.967
738.2290, 1693.012
739.3770, 1569.170
740.5260, 1395.443
741.6740, 1253.830
742.8220, 1166.330
743.9700, 1028.947
745.1180, 1107.676
746.2660, 927.5195
747.4130, 878.4766
748.5610, 785.5469
749.7080, 630.7324
750.8550, 597.0332
752.0020, 543.4492
753.1490, 591.9844
754.2950, 521.6367
755.4420, 396.4082
756.5880, 460.2988
757.7340, 336.3125
758.8800, 651.4492
760.0250, 656.7090
761.1710, 545.0938
762.3160, 728.6035
763.4620, 693.2402
764.6070, 757.0039
765.7520, 728.8906
766.8960, 699.9102
768.0410, 730.7930
769.1850, 615.3359
770.3300, 721.7676
771.4740, 709.3613
772.6180, 652.0859
773.7610, 575.9961
774.9050, 680.0742
776.0480, 731.2852
777.1920, 762.6855
778.3350, 724.2344
779.4780, 810.9141
780.6200, 740.7227
781.7630, 689.6719
782.9060, 745.7500
784.0480, 707.6895
785.1900, 655.2910
786.3320, 771.7520
787.4740, 836.3379
788.6150, 969.0488
789.7570, 1002.783
790.8980, 999.8379
792.0390, 1055.914
793.1800, 971.1113
794.3210, 939.4297
795.4620, 957.8730
796.6020, 823.4355
797.7420, 723.1191
798.8830, 471.9238
800.0230, 503.8496
801.1620, 334.8926
802.3020, 403.0586
803.4420, 346.3438
804.5810, 226.7461
805.7200, 81.26367
806.8590, 40.90234
807.9980, 40.34180
809.1370, 16.47266
810.2750, 111.4785
811.4140, 114.3828
812.5520, 336.1875
813.6900, 174.9277
814.8280, 16.58203
815.9650, 162.1094
817.1030, 53.45508
818.2400, 163.8613
819.3780, 2.906250
820.5150, 74.78906
821.6520, 45.21484
822.7880, 18.88672
823.9250, 29.09961
825.0610, 58.42383
826.1980, 111.8594
827.3340, 99.98633
828.4700, 135.0645
829.6050, 113.8301
830.7410, 73.70703
831.8760, 114.6914
833.0120, 394.7852
834.1470, 403.4863
835.2820, 541.3105
836.4160, 707.9219
837.5510, 785.2168
838.6860, 998.4062
839.8200, 1205.125
840.9540, 1606.584
842.0880, 1873.482
843.2220, 2132.090
844.3550, 2256.346
845.4890, 2392.186
846.6220, 2577.248
847.7550, 2677.201
848.8880, 2807.164
850.0210, 3113.619
851.1540, 3316.225
852.2860, 3679.908
853.4190, 4095.670
854.5510, 4605.508
855.6830, 5115.422
856.8150, 5809.410
857.9460, 6153.473
859.0780, 6747.609
860.2090, 6598.820
861.3410, 6616.102
862.4720, 6215.453
863.6020, 5540.875
864.7330, 4734.367
865.8640, 4359.930
866.9940, 3898.559
868.1240, 3505.256
869.2540, 3082.020
870.3840, 2954.852
871.5140, 2799.746
872.6440, 2557.725
873.7730, 2478.779
874.9020, 2411.934
876.0320, 2355.240
877.1600, 2254.627
878.2890, 2242.227
879.4180, 2083.938
880.5460, 2070.789
881.6750, 2042.779
882.8030, 1956.893
883.9310, 1992.088
885.0590, 1901.418
886.1860, 1876.326
887.3140, 2095.420
888.4410, 1802.145
889.5680, 2086.961
890.6950, 2084.846
891.8220, 2160.818
892.9490, 2194.889
894.0750, 2259.039
895.2020, 2387.242
896.3280, 2364.502
897.4540, 2541.812
898.5800, 2489.174
899.7050, 2366.586
900.8310, 2492.047
901.9560, 2270.557
903.0820, 2435.113
904.2070, 2400.719
905.3320, 2558.371
906.4560, 2543.658
907.5810, 2454.811
908.7050, 2520.598
909.8300, 2487.426
910.9540, 2456.297
912.0780, 2384.209
913.2010, 2288.160
914.3250, 2248.152
915.4480, 2001.184
916.5720, 1758.254
917.6950, 1749.359
918.8180, 1753.502
919.9410, 1501.682
921.0630, 1523.895
922.1860, 1254.143
923.3080, 1533.424
924.4300, 1572.738
925.5520, 1464.086
926.6740, 1569.463
927.7960, 1598.852
928.9170, 1629.410
930.0390, 1778.781
931.1600, 1677.281
932.2810, 1808.812
933.4020, 1665.371
934.5230, 1863.963
935.6430, 1679.713
936.7640, 1701.223
937.8840, 1457.891
939.0040, 1326.580
940.1240, 1404.293
941.2440, 1153.027
942.3630, 1218.783
943.4830, 1021.121
944.6020, 1243.740
945.7210, 1152.881
946.8400, 1304.969
947.9590, 1393.742
949.0770, 1427.396
950.1960, 1496.309
951.3140, 1468.072
952.4320, 1538.990
953.5500, 1630.916
954.6680, 1652.822
955.7860, 1487.787
956.9030, 1335.223
958.0210, 1055.213
959.1380, 1003.215
960.2550, 995.2266
961.3720, 738.2500
962.4890, 824.2852
963.6050, 664.3281
964.7220, 566.3809
965.8380, 432.4395
966.9540, 361.5078
968.0700, 94.58203
969.1860, 126.6270
970.3010, 0.3515630
971.4170, 45.40430
972.5320, 57.54883
973.6470, 390.7988
974.7620, 433.3125
975.8770, 572.1172
976.9910, 563.3359
978.1060, 537.8125
979.2200, 373.6855
980.3340, 271.8262
981.4480, 96.18555
982.5620, 101.3223
983.6760, 220.3945
984.7890, 397.2324
985.9030, 524.6758
987.0160, 558.1191
988.1290, 732.5586
989.2420, 766.9941
990.3550, 794.4238
991.4670, 861.8496
992.5800, 1115.270
993.6920, 1412.686
994.8040, 1782.094
995.9160, 2423.496
997.0280, 3277.893
998.1390, 4547.281
999.2510, 5908.660
1000.362, 7260.031
1001.473, 7823.395
1002.584, 7465.750
1003.695, 6314.094
1004.805, 5136.432
1005.916, 4290.695
1007.026, 3722.672
1008.136, 3576.352
1009.246, 3946.141
1010.356, 4116.289
1011.466, 4344.957
1012.576, 4900.348
1013.685, 5471.188
1014.794, 6065.246
1015.903, 6823.129
1017.012, 7507.936
1018.121, 8171.910
1019.229, 8799.920
1020.338, 9534.652
1021.446, 9974.855
1022.554, 10429.88
1023.662, 10953.20
1024.770, 11148.50
1025.878, 11394.37
1026.985, 11450.88
1028.092, 11524.82
1029.200, 11600.28
1030.307, 11494.11
1031.413, 11384.91
1032.520, 11373.68
1033.627, 10982.41
1034.733, 10796.11
1035.839, 10481.77
1036.945, 10260.40
1038.051, 9869.230
1039.157, 9472.143
1040.262, 9028.094
1041.368, 8546.586
1042.473, 8071.043
1043.578, 7556.469
1044.683, 7142.855
1045.788, 6589.209
1046.893, 6219.523
1047.997, 5795.805
1049.101, 5237.047
1050.205, 4923.254
1051.309, 4448.096
1052.413, 3935.559
1053.517, 3607.654
1054.621, 3185.713
1055.724, 2759.736
1056.827, 2644.719
1057.930, 2205.664
1059.033, 2238.574
1060.136, 1901.441
1061.238, 1919.275
1062.341, 2101.645
1063.443, 1476.480
1064.545, 1432.604
1065.647, 1559.279
1066.749, 1438.070
1067.850, 1549.666
1068.952, 1471.225
1070.053, 1507.742
1071.154, 1618.221
1072.255, 1783.656
1073.356, 2017.055
1074.457, 2254.414
1075.557, 2443.732
1076.658, 2628.014
1077.758, 2933.254
1078.858, 3061.465
1079.958, 3499.641
1081.057, 3676.816
1082.157, 3765.963
1083.256, 3607.070
1084.356, 3528.154
1085.455, 3244.197
1086.554, 3192.211
1087.653, 2981.186
1088.751, 2667.121
1089.850, 2382.016
1090.948, 2259.871
1092.046, 2183.686
1093.144, 2055.459
1094.242, 2023.191
1095.340, 1702.881
1096.437, 1632.533
1097.534, 1630.143
1098.632, 1702.711
1099.729, 1515.236
1100.826, 1342.225
1101.922, 1452.156
1103.019, 1471.365
1104.115, 1671.955
1105.212, 1873.717
1106.308, 1977.014
1107.404, 2041.633
1108.499, 1785.873
1109.595, 1771.471
1110.691, 1586.479
1111.786, 1530.961
1112.881, 1339.283
1113.976, 1395.771
1115.071, 987.3086
1116.166, 812.4121
1117.260, 661.4219
1118.355, 733.4082
1119.449, 727.3750
1120.543, 680.3164
1121.637, 709.9375
1122.731, 631.1367
1123.824, 694.0156
1124.918, 683.8711
1126.011, 671.7090
1127.104, 521.5234
1128.197, 508.3184
1129.290, 606.0918
1130.382, 706.8477
1131.475, 522.5820
1132.567, 550.2988
1133.659, 413.9961
1134.751, 443.6738
1135.843, 296.2930
1136.935, 84.90039
1138.027, 92.56445
1139.118, 15.67578
1140.209, 231.4277
1141.300, 95.16797
1142.391, 169.0332
1143.482, 230.0625
1144.573, 191.2852
1145.663, 196.6816
1146.754, 132.2539
1147.844, 19.03125
1148.934, 185.7422
1150.024, 88.68359
1151.113, 173.7383
1152.203, 307.9512
1153.292, 31.38672
1154.381, 66.09180
1155.470, 41.46484
1156.559, 79.10547
1157.648, 7.845703
1158.737, 196.3516
1159.825, 131.5312
1160.913, 233.6914
1162.001, 385.8398
1163.089, 242.9746
1164.177, 506.0977
1165.265, 262.2109
1166.352, 418.3105
1167.440, 595.3984
1168.527, 595.4805
1169.614, 706.5469
1170.701, 878.6074
1171.788, 817.6562
1172.874, 806.6953
1173.961, 944.7285
1175.047, 751.7500
1176.133, 679.7637
1177.219, 788.7695
1178.305, 757.7676
1179.390, 736.7988
1180.476, 780.7441
1181.561, 599.7227
1182.646, 669.6934
1183.731, 439.6602
1184.816, 515.6211
1185.901, 641.5781
1186.985, 548.5273
1188.070, 547.4746
1189.154, 460.4180
1190.238, 405.3555
1191.322, 278.2930
1192.406, 15.22656
1193.489, 56.15039
1194.573, 19.06836
1195.656, 242.9805
1196.739, 19.10742
1197.822, 289.7891
1198.905, 150.6836
1199.988, 186.5781
1201.070, 183.4727
1202.153, 209.3691
1203.235, 268.2676
1204.317, 255.1680
1205.399, 109.0684
1206.481, 171.9746
1207.562, 336.8809
1208.644, 177.7930
1209.725, 334.7070
1210.806, 475.6270
1211.887, 697.5488
1212.968, 745.4766
1214.049, 1030.410
1215.129, 1029.350
1216.209, 957.2930
1217.290, 975.2461
1218.370, 830.2051
1219.450, 861.1719
1220.529, 709.1445
1221.609, 716.1270
1222.688, 575.1172
1223.768, 770.1172
1224.847, 716.1270
1225.926, 771.1465
1227.005, 1114.176
1228.083, 936.2188
1229.162, 1107.270
1230.240, 1117.336
1231.318, 1289.430
1232.396, 1464.551
1233.474, 1604.725
1234.552, 1720.922
1235.629, 1809.844
1236.707, 1896.715
1237.784, 1888.328
1238.861, 1929.141
1239.938, 1869.146
1241.015, 1702.344
1242.092, 1761.689
1243.168, 1767.162
1244.244, 2022.717
1245.321, 2050.314
1246.397, 2127.934
1247.473, 2242.574
1248.548, 2276.234
1249.624, 2062.912
1250.699, 2204.627
1251.775, 2015.371
1252.850, 2383.186
1253.925, 2283.072
1254.999, 2294.020
1256.074, 2558.043
1257.148, 2735.096
1258.223, 2625.209
1259.297, 2773.355
1260.371, 2989.562
1261.445, 3352.809
1262.519, 3618.080
1263.592, 3813.373
1264.666, 3914.693
1265.739, 4111.039
1266.812, 4315.469
1267.885, 4737.205
1268.958, 4618.250
1270.030, 4733.205
1271.103, 4936.814
1272.175, 4723.916
1273.247, 4698.314
1274.319, 4575.279
1275.391, 4388.043
1276.463, 4224.992
1277.535, 3948.037
1278.606, 3923.934
1279.677, 3608.006
1280.748, 3583.975
1281.819, 3539.689
1282.890, 3317.598
1283.961, 3236.223
1285.031, 3175.877
1286.102, 3022.494
1287.172, 3160.455
1288.242, 3144.506
1289.312, 3521.037
1290.381, 3711.215
1291.451, 4087.434
1292.520, 4250.693
1293.590, 4494.996
1294.659, 4396.340
1295.728, 4433.105
1296.797, 4214.150
1297.865, 4186.617
1298.934, 4047.123
1300.002, 3774.670
1301.070, 4004.260
1302.138, 3887.887
1303.206, 4330.555
1304.274, 4393.264
1305.341, 4813.012
1306.409, 4995.740
1307.476, 4875.631
1308.543, 5376.502
1309.610, 5299.414
1310.677, 5410.369
1311.744, 5480.367
1312.810, 5377.402
1313.877, 5355.480
1314.943, 5349.602
1316.009, 5269.770
1317.075, 5179.945
